%OpenBCI Raw EXG Data
%Number of channels = 16
%Sample Rate = 125 Hz
%Board = OpenBCI_GUI$BoardCytonSerialDaisy
Sample Index, EXG Channel 0, EXG Channel 1, EXG Channel 2, EXG Channel 3, EXG Channel 4, EXG Channel 5, EXG Channel 6, EXG Channel 7, EXG Channel 8, EXG Channel 9, EXG Channel 10, EXG Channel 11, EXG Channel 12, EXG Channel 13, EXG Channel 14, EXG Channel 15, Accel Channel 0, Accel Channel 1, Accel Channel 2, Other, Other, Other, Other, Other, Other, Other, Analog Channel 0, Analog Channel 1, Analog Channel 2, Timestamp, Other, Timestamp (Formatted)
0.0, 27278.247747212383, 14983.290729914992, 8717.850889903413, -9435.230128196494, 9163.05293596422, -8949.750238627224, -187500.02235174447, 39590.54971820709, 0.0, 0.0, 0.0, 0.0, 0.0, 0.0, 0.0, 0.0, 0.0, 0.0, 0.0, 192.0, 0.0, 0.0, 0.0, 0.0, 0.0, 0.0, 0.0, 0.0, 0.0, 1.696023938955798E9, 0.0, 2023-09-29 16:45:38.955
224.0, 26754.814595558, 14356.07842875462, 8851.871949657434, -9308.495737134903, 9211.220945265406, -8832.157711047854, -187500.02235174447, 39047.40232794313, -24820.338168184542, 24965.043361788197, 4276.000473022517, -2293.0431119254963, 11578.985938904994, 69.22335257808598, -111939.63729615656, -9541.043286447917, 0.138, 1.016, -0.114, 192.0, 2.0, 40.0, 15.5, 96.0, 126.0, 56.0, 0.0, 0.0, 0.0, 1.696023938955806E9, 0.0, 2023-09-29 16:45:38.955
226.0, 27291.54703516329, 14986.554084605466, 8719.683732948748, -9434.336058418281, 9182.588360618158, -8940.876596078468, -187500.02235174447, 39573.49533718769, -24742.08471084651, 25158.900041449077, 4483.402309823312, -2080.522725644437, 11606.411529351655, 114.93266998918891, -111984.27372983382, -9546.586519072833, 0.138, 1.016, -0.114, 192.0, 0.0, 0.0, 0.0, 0.0, 0.0, 0.0, 0.0, 0.0, 0.0, 1.69602393895581E9, 0.0, 2023-09-29 16:45:38.955
228.0, 26764.023514273587, 14363.365097447051, 8857.66105147136, -9294.682359061522, 9209.656323153535, -8822.993495821178, -187500.02235174447, 39036.80760107131, -24817.499496638717, 25014.753641456802, 4314.512528719011, -2249.4572102376474, 11567.38538353269, 70.11742235629825, -111934.94342982095, -9542.071466692862, 0.138, 1.016, -0.114, 192.0, 0.0, 0.0, 0.0, 0.0, 0.0, 0.0, 0.0, 0.0, 0.0, 1.696023938955813E9, 0.0, 2023-09-29 16:45:38.955
230.0, 27283.343944948192, 14972.15956117625, 8689.91120933428, -9460.867579086731, 9181.24725595084, -8965.910549868411, -187500.02235174447, 39565.11343301695, -24733.45693748676, 25089.274357470797, 4442.073934325449, -2121.538176719925, 11608.40083460818, 113.45745485513865, -112099.1616963341, -9536.639992790222, 0.138, 1.016, -0.114, 192.0, 0.0, 0.0, 0.0, 0.0, 0.0, 0.0, 0.0, 0.0, 0.0, 1.696023938955816E9, 0.0, 2023-09-29 16:45:38.955
232.0, 26781.480226693184, 14384.062812812665, 8841.120760574433, -9314.016618015363, 9187.282226953772, -8845.971089121234, -187500.02235174447, 39050.73273786697, -24823.065081008088, 25089.63198538208, 4324.391999768258, -2219.550576156447, 11538.350467485247, 36.90273009571196, -111900.96877824889, -9580.09178401134, 0.138, 1.016, -0.114, 192.0, 0.0, 0.0, 0.0, 0.0, 0.0, 0.0, 0.0, 0.0, 0.0, 1.696023938955819E9, 0.0, 2023-09-29 16:45:38.955
234.0, 27244.67542704051, 14921.175232073694, 8688.838325600425, -9468.198951268072, 9212.673808655001, -8958.378011986973, -187500.02235174447, 39507.55769104454, -24722.951617592767, 25008.986891387332, 4398.242163448592, -2183.9665989835976, 11620.269610913947, 104.1144256728203, -112226.85721240727, -9522.089007149818, 0.14, 1.014, -0.108, 192.0, 2.0, 48.0, 15.5, 88.0, 126.0, 80.0, 0.0, 0.0, 0.0, 1.696023938955823E9, 0.0, 2023-09-29 16:45:38.955
236.0, 26815.29841605406, 14428.073397645165, 8826.74858888967, -9325.840690832221, 9168.23854067785, -8850.195568823287, -187500.02235174447, 39084.9756103725, -24825.836697320545, 25161.47049206144, 4355.572683283411, -2179.3844913702596, 11531.846109848751, 32.85706434930138, -111907.9201707745, -9588.540743415446, 0.14, 1.014, -0.108, 192.0, 0.0, 0.0, 0.0, 0.0, 0.0, 0.0, 0.0, 0.0, 0.0, 1.696023938955826E9, 0.0, 2023-09-29 16:45:38.955
238.0, 27194.76398167181, 14860.177321455161, 8703.34460775192, -9443.746142833967, 9230.979887363897, -8932.449988418817, -187500.02235174447, 39438.78137335555, -24722.526934448117, 24937.818937041633, 4352.711659993131, -2231.352297228849, 11628.249183684491, 118.30778340194028, -112336.20194628263, -9504.676998219133, 0.14, 1.014, -0.108, 192.0, 0.0, 0.0, 0.0, 0.0, 0.0, 0.0, 0.0, 0.0, 0.0, 1.696023938955829E9, 0.0, 2023-09-29 16:45:38.955
0.0, 13522.134843127114, 7210.963333959978, 4389.524983111022, -4681.3046552306005, 4483.022330167571, -4413.73192235612, -93750.01117587223, 17689.394079374564, -12414.158870477542, 12505.398691344106, 2132.222310569562, -1137.5473305639423, 5770.192238115339, 23.782256100446716, -56044.94286119257, -4779.160592455935, 0.14200000000000002, 1.012, -0.132, 192.0, 2.0, 64.0, 15.5, 72.0, 125.5, 16.0, 0.0, 0.0, 0.0, 1.696023939123794E9, 0.0, 2023-09-29 16:45:39.123
2.0, 27220.043804650762, 14651.322621264771, 8786.716614570214, -9346.426647475559, 8835.443417482784, -8846.641641454893, -187500.02235174447, 35534.244541435786, -24740.85536490147, 25165.024419429832, 3706.858003957034, -2127.774313422956, 11481.711147035498, 188.35815052487263, -113507.45570748518, -9594.6651213962, 0.14200000000000002, 1.012, -0.132, 192.0, 0.0, 0.0, 0.0, 0.0, 0.0, 0.0, 0.0, 0.0, 0.0, 1.696023939123804E9, 0.0, 2023-09-29 16:45:39.123
4.0, 26793.147837298853, 14128.582373688505, 8855.60469098147, -9283.97587346743, 8927.9572877833, -8771.338614384964, -187500.02235174447, 35118.92677771173, -24748.52201324964, 24671.20732917873, 3415.413608004285, -2493.2253352672265, 11518.703284109031, 206.17249085575236, -113914.54802924968, -9516.009332657974, 0.14200000000000002, 1.012, -0.132, 192.0, 0.0, 0.0, 0.0, 0.0, 0.0, 0.0, 0.0, 0.0, 0.0, 1.696023939123807E9, 0.0, 2023-09-29 16:45:39.123
6.0, 27260.947497003974, 14695.377909586181, 8753.63603277636, -9381.250665336927, 8839.958469862757, -8871.407374311373, -187500.02235174447, 35571.28138199823, -24726.37143449443, 25111.69315715947, 3689.6918642153582, -2153.2776538464614, 11487.075565704772, 191.1297668373307, -113668.41061930783, -9597.637903408755, 0.14200000000000002, 1.012, -0.132, 192.0, 0.0, 0.0, 0.0, 0.0, 0.0, 0.0, 0.0, 0.0, 0.0, 1.69602393912381E9, 0.0, 2023-09-29 16:45:39.123
8.0, 26762.816520073, 14091.389070914875, 8873.351976078984, -9270.564826794247, 8921.542337124627, -8768.701108539237, -187500.02235174447, 35083.745131939075, -24770.33731583802, 24703.997338294666, 3410.160948057288, -2483.0552915400617, 11501.581847856265, 187.0170458575542, -113931.42359631344, -9543.144350426717, 0.15, 1.01, -0.176, 192.0, 2.0, 88.0, 15.5, 72.0, 125.0, 64.0, 0.0, 0.0, 0.0, 1.696023939123814E9, 0.0, 2023-09-29 16:45:39.123
10.0, 27301.96294807946, 14730.850128036755, 8748.584538529461, -9394.95228468803, 8847.468655999739, -8891.054557687588, -187500.02235174447, 35595.063638098676, -24723.353948992964, 25060.306496656718, 3676.504334986727, -2179.0045117145196, 11494.406937886113, 190.03453135902063, -113811.81941173309, -9592.228781250571, 0.15, 1.01, -0.176, 192.0, 0.0, 0.0, 0.0, 0.0, 0.0, 0.0, 0.0, 0.0, 0.0, 1.696023939123817E9, 0.0, 2023-09-29 16:45:39.123
12.0, 26754.233450202162, 14078.11213470842, 8895.837831001023, -9249.710649217444, 8900.799918270102, -8764.029593948078, -187500.02235174447, 35053.63733215777, -24774.13711239542, 24765.71050473577, 3440.5593205165055, -2446.689003311277, 11488.014338971894, 178.61278994235875, -113932.3400178361, -9558.835275034342, 0.15, 1.01, -0.176, 192.0, 0.0, 0.0, 0.0, 0.0, 0.0, 0.0, 0.0, 0.0, 0.0, 1.69602393912382E9, 0.0, 2023-09-29 16:45:39.123
14.0, 27310.344852250204, 14734.515814127424, 8743.086009393455, -9408.229220894484, 8854.822379925536, -8899.816441514069, -187500.02235174447, 35602.685582957936, -24708.22181799672, 24986.99277484331, 3658.265311511196, -2218.053009277941, 11508.4661851485, 196.96357214016584, -113977.55759686918, -9577.677795610165, 0.15, 1.01, -0.176, 192.0, 0.0, 0.0, 0.0, 0.0, 0.0, 0.0, 0.0, 0.0, 0.0, 1.696023939123823E9, 0.0, 2023-09-29 16:45:39.123
16.0, 26757.72032233719, 14084.191809200265, 8885.824249485046, -9261.467666800936, 8865.640624241903, -8774.378451630886, -187500.02235174447, 35076.34670452437, -24804.915464510377, 24816.96305477179, 3461.3687946043965, -2412.624944761389, 11457.973594423962, 148.05795527195397, -113920.02420664123, -9587.311397470403, 0.15, 1.01, -0.176, 192.0, 0.0, 0.0, 0.0, 0.0, 0.0, 0.0, 0.0, 0.0, 0.0, 1.696023939183942E9, 0.0, 2023-09-29 16:45:39.183
18.0, 27301.650023657086, 14718.8248895198, 8749.858587963414, -9397.679197511578, 8874.961301679767, -8879.208133126276, -187500.02235174447, 35579.886803613525, -24698.54351264757, 24904.11250640303, 3621.76491281568, -2268.053861624463, 11526.347580712745, 221.01404917407623, -114127.24722948638, -9554.901368010207, 0.15, 1.0, -0.186, 192.0, 2.0, 88.0, 15.5, 32.0, 125.0, 24.0, 0.0, 0.0, 0.0, 1.696023939183957E9, 0.0, 2023-09-29 16:45:39.183
20.0, 26780.764970870612, 14113.919629325823, 8902.297485148607, -9236.947803133466, 8868.121667876443, -8752.16081764231, -187500.02235174447, 35071.25050678856, -24802.38971738693, 24893.83070395359, 3502.7642253356253, -2357.572598167968, 11458.93471943554, 161.82662985642312, -113949.21558489987, -9587.400804448223, 0.15, 1.0, -0.186, 192.0, 0.0, 0.0, 0.0, 0.0, 0.0, 0.0, 0.0, 0.0, 0.0, 1.696023939183961E9, 0.0, 2023-09-29 16:45:39.183
22.0, 27273.77739832132, 14684.850237947732, 8751.512617053106, -9395.600485277235, 8886.807726241079, -8877.755269736681, -187500.02235174447, 35544.50399214077, -24690.74275383267, 24853.195232533842, 3593.7134735242694, -2300.5756498069345, 11528.918031325107, 231.27349987906217, -114289.14091457617, -9538.27167013546, 0.15, 1.0, -0.186, 192.0, 0.0, 0.0, 0.0, 0.0, 0.0, 0.0, 0.0, 0.0, 0.0, 1.696023939183964E9, 0.0, 2023-09-29 16:45:39.183
24.0, 26820.439317278782, 14164.099295627988, 8896.32956937904, -9246.089666615686, 8842.08188558601, -8765.50480908213, -187500.02235174447, 35107.72855373962, -24805.943644755323, 24975.213405515362, 3542.282109532608, -2303.928411475231, 11448.228233841448, 154.51760941953773, -113974.60716660108, -9602.890563355752, 0.15, 1.0, -0.186, 192.0, 0.0, 0.0, 0.0, 0.0, 0.0, 0.0, 0.0, 0.0, 0.0, 1.696023939183967E9, 0.0, 2023-09-29 16:45:39.183
26.0, 27233.410147835035, 14627.31684771977, 8773.797306275048, -9376.847371679232, 8911.461700375283, -8862.489028273705, -187500.02235174447, 35487.84231994657, -24682.56201536203, 24782.496664821705, 3561.0799266195213, -2351.828199842954, 11552.588528703276, 245.04217446353132, -114440.75279721651, -9521.26199260497, 0.15, 1.0, -0.186, 192.0, 0.0, 0.0, 0.0, 0.0, 0.0, 0.0, 0.0, 0.0, 0.0, 1.696023939183971E9, 0.0, 2023-09-29 16:45:39.183
28.0, 26877.637431339914, 14226.326552191562, 8883.857295972979, -9262.674661001523, 8824.714580144237, -8790.292893683063, -187500.02235174447, 35167.85474632439, -24800.936853997333, 25035.965446944887, 3588.1255374104426, -2254.5310562290024, 11442.305021560791, 142.62648136931438, -114013.70036765342, -9620.369627519802, 0.154, 0.998, -0.192, 192.0, 2.0, 104.0, 15.5, 24.0, 125.0, 0.0, 0.0, 0.0, 0.0, 1.696023939183974E9, 0.0, 2023-09-29 16:45:39.183
30.0, 27179.073057064183, 14554.494864284381, 8780.659291822827, -9374.232217577961, 8922.749331325214, -8859.873874172436, -187500.02235174447, 35449.866706117, -24699.303471959054, 24701.426887682308, 3516.376437708907, -2407.23817434766, 11542.262022764924, 231.8993487238108, -114559.39585678528, -9526.40289382969, 0.154, 0.998, -0.192, 192.0, 0.0, 0.0, 0.0, 0.0, 0.0, 0.0, 0.0, 0.0, 0.0, 1.696023939243514E9, 0.0, 2023-09-29 16:45:39.243
32.0, 26953.231031087762, 14309.385634587483, 8886.494801818706, -9256.751448720866, 8827.396789478873, -8784.570847102505, -187500.02235174447, 35236.18402912426, -24785.71531602327, 25081.026563766787, 3620.602622104004, -2210.6322301187793, 11448.608213497188, 154.4282024417165, -114071.59138579266, -9623.320057787903, 0.154, 0.998, -0.192, 192.0, 0.0, 0.0, 0.0, 0.0, 0.0, 0.0, 0.0, 0.0, 0.0, 1.696023939243527E9, 0.0, 2023-09-29 16:45:39.243
34.0, 27128.22283842836, 14490.702985608934, 8802.541649644572, -9347.23131027595, 8928.67254360587, -8825.541594689083, -187500.02235174447, 35403.643298583425, -24686.898253786356, 24673.107227457433, 3495.701074087748, -2426.9300612127854, 11550.889796124673, 249.0878402099419, -114663.86791036939, -9506.487489520012, 0.154, 0.998, -0.192, 192.0, 0.0, 0.0, 0.0, 0.0, 0.0, 0.0, 0.0, 0.0, 0.0, 1.696023939243531E9, 0.0, 2023-09-29 16:45:39.243
36.0, 27022.901418554953, 14394.478725728837, 8859.002156138678, -9284.422908356537, 8814.857460839447, -8802.78751883358, -187500.02235174447, 35314.169265528835, -24786.654089290394, 25136.41418652704, 3659.114677800498, -2168.186267398151, 11449.278765830848, 158.07153678793154, -114123.91681956254, -9629.332677046381, 0.154, 0.998, -0.192, 192.0, 0.0, 0.0, 0.0, 0.0, 0.0, 0.0, 0.0, 0.0, 0.0, 1.696023939243534E9, 0.0, 2023-09-29 16:45:39.243
38.0, 27041.520421686226, 14388.622568681547, 8824.289896999586, -9329.886356578632, 8945.548110669626, -8812.666989882826, -187500.02235174447, 35320.04777432058, -24707.283044729596, 24628.1131658689, 3452.450448566729, -2477.8696868264306, 11550.688630424576, 244.79630527452295, -114757.29820219257, -9510.577858755334, 0.15, 0.994, -0.194, 192.0, 2.0, 88.0, 15.5, 8.0, 124.5, 120.0, 0.0, 0.0, 0.0, 1.696023939243537E9, 0.0, 2023-09-29 16:45:39.243
40.0, 27087.542663519704, 14470.362898154604, 8846.596937965982, -9299.286818419316, 8817.114987029432, -8823.351123732464, -187500.02235174447, 35368.841632466516, -24774.830016473534, 25155.144948380585, 3681.5558292336264, -2147.8238281993663, 11461.46046655899, 156.41750769823884, -114239.94472503004, -9635.76997944951, 0.15, 0.994, -0.194, 192.0, 0.0, 0.0, 0.0, 0.0, 0.0, 0.0, 0.0, 0.0, 0.0, 1.69602393924354E9, 0.0, 2023-09-29 16:45:39.243
42.0, 26967.603202772523, 14302.88127695099, 8840.159635562854, -9310.999132513898, 8950.15257002742, -8799.79238507657, -187500.02235174447, 35245.8176309845, -24718.056585557057, 24615.998520374123, 3437.9218146707794, -2490.9231055883297, 11553.236729292481, 236.57086331496996, -114855.73528477375, -9512.03072214493, 0.15, 0.994, -0.194, 192.0, 0.0, 0.0, 0.0, 0.0, 0.0, 0.0, 0.0, 0.0, 0.0, 1.696023939243543E9, 0.0, 2023-09-29 16:45:39.243
44.0, 27149.769920083276, 14549.510425270848, 8830.615440680438, -9315.692998849512, 8823.55228943256, -8833.677629670814, -187500.02235174447, 35429.370156451485, -24760.077865133033, 25163.54920429578, 3698.20787885283, -2130.478874502048, 11468.657728273598, 164.19591476868567, -114366.52265388044, -9632.014886381017, 0.15, 0.994, -0.194, 192.0, 0.0, 0.0, 0.0, 0.0, 0.0, 0.0, 0.0, 0.0, 0.0, 1.696023939243547E9, 0.0, 2023-09-29 16:45:39.243
46.0, 26894.200073981297, 14228.874651059468, 8867.160542864865, -9284.869943245643, 8942.910604823901, -8782.827411034992, -187500.02235174447, 35184.886775599334, -24730.79707989658, 24625.185087345253, 3416.262974293587, -2499.7743963926314, 11540.987973330972, 229.75358125610128, -114921.15884079444, -9516.724588480543, 0.15, 0.994, -0.194, 192.0, 0.0, 0.0, 0.0, 0.0, 0.0, 0.0, 0.0, 0.0, 0.0, 1.696023939303223E9, 0.0, 2023-09-29 16:45:39.303
48.0, 27208.443249278458, 14622.622981384156, 8820.110120786443, -9328.925231567053, 8828.000286579167, -8846.46282749925, -187500.02235174447, 35499.44287531887, -24745.549231237084, 25172.199329399984, 3713.1835476378856, -2121.4934732310144, 11477.754888266909, 181.45146148818273, -114508.97032129411, -9616.033389095473, 0.148, 0.996, -0.192, 192.0, 2.0, 80.0, 15.5, 16.0, 125.0, 0.0, 0.0, 0.0, 0.0, 1.696023939303231E9, 0.0, 2023-09-29 16:45:39.303
50.0, 26835.526744786115, 14160.768885704147, 8890.652226287393, -9263.591082524192, 8946.53158742566, -8764.141352670355, -187500.02235174447, 35138.35044364339, -24737.36849276644, 24646.329837599977, 3420.554509229006, -2498.612105680955, 11535.891775595162, 219.98586892913212, -114972.23257687481, -9518.825652459342, 0.148, 0.996, -0.192, 192.0, 0.0, 0.0, 0.0, 0.0, 0.0, 0.0, 0.0, 0.0, 0.0, 1.696023939303235E9, 0.0, 2023-09-29 16:45:39.303
52.0, 27259.53933710329, 14676.580092499269, 8801.669931610815, -9348.572414943268, 8842.886548386401, -8857.75045844918, -187500.02235174447, 35558.02679753623, -24732.920495619834, 25140.728073206912, 3708.467329557816, -2132.289365802928, 11495.971559997985, 200.9421826532105, -114668.74059066064, -9605.908048857218, 0.148, 0.996, -0.192, 192.0, 0.0, 0.0, 0.0, 0.0, 0.0, 0.0, 0.0, 0.0, 0.0, 1.696023939303238E9, 0.0, 2023-09-29 16:45:39.303
54.0, 26786.86699710691, 14106.811774589036, 8892.306255377085, -9263.255806357362, 8919.843604546024, -8771.897407996346, -187500.02235174447, 35120.22317889013, -24758.20031859879, 24685.579500863496, 3414.765407415081, -2484.9328380743073, 11506.432176403068, 192.49322324910443, -114999.7475742993, -9549.827522018853, 0.148, 0.996, -0.192, 192.0, 0.0, 0.0, 0.0, 0.0, 0.0, 0.0, 0.0, 0.0, 0.0, 1.696023939303241E9, 0.0, 2023-09-29 16:45:39.303
56.0, 27290.384744451614, 14711.314703382815, 8785.107288969433, -9364.240987806439, 8842.394810008385, -8872.65907200087, -187500.02235174447, 35608.63114698305, -24721.252885014164, 25084.804008579733, 3692.441128783361, -2160.7207847500786, 11499.503135621922, 197.90234540728872, -114824.7557669587, -9604.43283372317, 0.148, 0.996, -0.192, 192.0, 0.0, 0.0, 0.0, 0.0, 0.0, 0.0, 0.0, 0.0, 0.0, 1.696023939303245E9, 0.0, 2023-09-29 16:45:39.303
58.0, 26766.079874763476, 14083.208332444232, 8919.016590001178, -9233.818558909721, 8913.316895165073, -8747.042268162044, -187500.02235174447, 35089.08719886389, -24775.56762404056, 24741.90589689087, 3438.748829215626, -2454.400355148358, 11500.128984466672, 194.08019710543124, -115012.44336514991, -9554.789609287931, 0.154, 0.994, -0.188, 192.0, 2.0, 104.0, 15.5, 8.0, 125.0, 16.0, 0.0, 0.0, 0.0, 1.696023939303248E9, 0.0, 2023-09-29 16:45:39.303
60.0, 27307.752049893388, 14732.43710189308, 8775.049003964545, -9381.273017081383, 8857.191664837797, -8876.548275536094, -187500.02235174447, 35610.66515572848, -24712.848629098968, 25043.8109092487, 3684.4168525239056, -2184.078357705874, 11517.764510841907, 219.80705497348964, -114985.82243750364, -9586.685548625654, 0.154, 0.994, -0.188, 192.0, 0.0, 0.0, 0.0, 0.0, 0.0, 0.0, 0.0, 0.0, 0.0, 1.696023939363606E9, 0.0, 2023-09-29 16:45:39.363
62.0, 26749.47252863318, 14076.860437018924, 8911.461700375283, -9243.608622981146, 8878.694043003803, -8757.815808989502, -187500.02235174447, 35072.99394285607, -24797.584092329038, 24800.08748770803, 3453.344518344941, -2425.2313286341823, 11476.32437662177, 168.0851183039091, -115016.26551345177, -9589.367757960292, 0.154, 0.994, -0.188, 192.0, 0.0, 0.0, 0.0, 0.0, 0.0, 0.0, 0.0, 0.0, 0.0, 1.696023939363618E9, 0.0, 2023-09-29 16:45:39.363
64.0, 27310.07663131674, 14731.453625137046, 8764.16370441481, -9386.682139239567, 8859.359784049962, -8881.935045949824, -187500.02235174447, 35600.07042885666, -24708.914722074835, 24968.016143800753, 3643.3566979595066, -2231.218186762117, 11523.128929511182, 219.44942706220473, -115136.89787827706, -9582.058737523406, 0.154, 0.994, -0.188, 192.0, 0.0, 0.0, 0.0, 0.0, 0.0, 0.0, 0.0, 0.0, 0.0, 1.696023939363622E9, 0.0, 2023-09-29 16:45:39.363
66.0, 26767.175110241787, 14094.115983738422, 8928.67254360587, -9221.413340737026, 8878.962263937266, -8745.991736172646, -187500.02235174447, 35068.70240792065, -24794.656013805394, 24860.52660471518, 3483.5640768485164, -2376.1245460658724, 11469.641205029631, 170.65556891626943, -115027.5531444017, -9596.788537119453, 0.154, 0.994, -0.188, 192.0, 0.0, 0.0, 0.0, 0.0, 0.0, 0.0, 0.0, 0.0, 0.0, 1.696023939363625E9, 0.0, 2023-09-29 16:45:39.363
68.0, 27291.703497374478, 14703.357482356727, 8774.132582441876, -9380.311892069805, 8886.919484963357, -8881.622121527449, -187500.02235174447, 35576.48933845632, -24684.1266374739, 24893.54013127567, 3612.5112906111826, -2272.4795070266136, 11537.255232006935, 237.10730518189732, -115304.0665750583, -9561.048097735416, 0.156, 0.998, -0.192, 192.0, 2.0, 112.0, 15.5, 24.0, 125.0, 0.0, 0.0, 0.0, 0.0, 1.696023939363628E9, 0.0, 2023-09-29 16:45:39.363
70.0, 26797.72994491219, 14135.533766214105, 8936.853282076512, -9202.213192249917, 8870.245083599697, -8745.58940477245, -187500.02235174447, 35111.41659157474, -24791.794990515114, 24954.359227938563, 3526.8147023695356, -2317.339458148415, 11464.813228227285, 169.85090611587836, -115057.7056476719, -9601.23653426606, 0.156, 0.998, -0.192, 192.0, 0.0, 0.0, 0.0, 0.0, 0.0, 0.0, 0.0, 0.0, 0.0, 1.696023939363632E9, 0.0, 2023-09-29 16:45:39.363
72.0, 27259.02524698082, 14664.24192955994, 8797.110175741933, -9350.047630077319, 8921.207060957797, -8849.636775211904, -187500.02235174447, 35556.01514053525, -24674.090704213468, 24846.556764430617, 3591.858278734479, -2298.385178850315, 11555.181331060092, 265.4269654067714, -115465.69203921463, -9519.138576881716, 0.156, 0.998, -0.192, 192.0, 0.0, 0.0, 0.0, 0.0, 0.0, 0.0, 0.0, 0.0, 0.0, 1.696023939363635E9, 0.0, 2023-09-29 16:45:39.363
74.0, 26841.762881489147, 14194.899999487401, 8923.352828425506, -9217.121805801607, 8856.163484592853, -8755.133599654866, -187500.02235174447, 35163.11617649987, -24790.364478869975, 25021.66033049349, 3573.663958747859, -2253.3240620284155, 11456.900710690106, 169.9626648381549, -115087.54522651974, -9605.148089545739, 0.156, 0.998, -0.192, 192.0, 0.0, 0.0, 0.0, 0.0, 0.0, 0.0, 0.0, 0.0, 0.0, 1.696023939363638E9, 0.0, 2023-09-29 16:45:39.363
76.0, 27202.452981764436, 14601.165306707062, 8812.912859071834, -9340.168159028073, 8945.77162811418, -8837.119798316931, -187500.02235174447, 35498.25823286274, -24659.897346484348, 24772.930118194836, 3548.9652811247447, -2349.2577492305936, 11565.641947465176, 274.92645680027687, -115611.26895085204, -9502.151251095684, 0.156, 0.998, -0.192, 192.0, 0.0, 0.0, 0.0, 0.0, 0.0, 0.0, 0.0, 0.0, 0.0, 1.696023939423934E9, 0.0, 2023-09-29 16:45:39.423
78.0, 26896.569358893557, 14268.01255560071, 8906.432557872839, -9241.127579346607, 8844.629984453915, -8776.993605732156, -187500.02235174447, 35219.82255218298, -24765.71050473577, 25090.123723760098, 3612.7124563112807, -2202.384436414771, 11465.439077072035, 176.95876085266602, -115163.8317303457, -9601.437699966156, 0.152, 1.002, -0.192, 192.0, 2.0, 96.0, 15.5, 40.0, 125.0, 0.0, 0.0, 0.0, 0.0, 1.696023939423954E9, 0.0, 2023-09-29 16:45:39.423
80.0, 27132.246152430314, 14525.638762192579, 8801.669931610815, -9355.836731891242, 8931.91354655189, -8846.395772265885, -187500.02235174447, 35454.62762768598, -24674.425980380296, 24714.525009933117, 3501.5348793905832, -2398.051607376529, 11549.19106354607, 256.0392327355424, -115725.03933012956, -9505.615771486257, 0.152, 1.002, -0.192, 192.0, 0.0, 0.0, 0.0, 0.0, 0.0, 0.0, 0.0, 0.0, 0.0, 1.696023939423958E9, 0.0, 2023-09-29 16:45:39.423
82.0, 26960.38358931346, 14347.7859315617, 8887.791202997114, -9266.988547681398, 8832.358876747952, -8794.047986751555, -187500.02235174447, 35304.580367157505, -24762.84948144549, 25130.625084713112, 3636.5617676450934, -2174.735328523556, 11452.810341454786, 166.7216618921354, -115195.99589061689, -9606.37743549078, 0.152, 1.002, -0.192, 192.0, 0.0, 0.0, 0.0, 0.0, 0.0, 0.0, 0.0, 0.0, 0.0, 1.696023939423961E9, 0.0, 2023-09-29 16:45:39.423
84.0, 27060.094721328584, 14442.579679796658, 8814.164556761332, -9340.838711361732, 8940.451912933817, -8829.721370902225, -187500.02235174447, 35400.067019470574, -24681.51148337263, 24669.59800357795, 3462.888713227357, -2445.9290439997967, 11545.659487922132, 241.24237790612912, -115799.73886009918, -9493.188201569104, 0.152, 1.002, -0.192, 192.0, 0.0, 0.0, 0.0, 0.0, 0.0, 0.0, 0.0, 0.0, 0.0, 1.696023939423964E9, 0.0, 2023-09-29 16:45:39.423
86.0, 27031.7303576148, 14438.891641961533, 8883.164391894865, -9260.148913878074, 8849.27914730062, -8782.201562190243, -187500.02235174447, 35365.51122254267, -24744.923382392335, 25169.986506698908, 3659.7852301341572, -2146.4827235320477, 11463.114495648682, 173.36012999536158, -115271.4106764091, -9587.400804448223, 0.152, 1.002, -0.192, 192.0, 0.0, 0.0, 0.0, 0.0, 0.0, 0.0, 0.0, 0.0, 0.0, 1.696023939423968E9, 0.0, 2023-09-29 16:45:39.423
88.0, 26985.48459833677, 14358.738286344802, 8849.726182189725, -9307.758129567877, 8969.710346425814, -8790.494059383162, -187500.02235174447, 35310.68239339381, -24661.283154640576, 24653.79532024805, 3444.15795137381, -2458.1107447279387, 11565.396078276168, 268.75737533061215, -115915.52089637768, -9453.267985971926, 0.154, 1.006, -0.19, 192.0, 2.0, 104.0, 15.5, 56.0, 125.0, 8.0, 0.0, 0.0, 0.0, 1.696023939423971E9, 0.0, 2023-09-29 16:45:39.423
90.0, 27094.672870000944, 14517.860355122133, 8833.834091882001, -9318.84459481771, 8832.22476628122, -8827.0838650565, -187500.02235174447, 35433.37111870899, -24729.32186476253, 25195.75806805588, 3681.175849577886, -2117.7160284180677, 11469.976481196461, 187.15115632428603, -115403.59889311779, -9585.500906169524, 0.154, 1.006, -0.19, 192.0, 0.0, 0.0, 0.0, 0.0, 0.0, 0.0, 0.0, 0.0, 0.0, 1.696023939483999E9, 0.0, 2023-09-29 16:45:39.483
92.0, 26909.689832888824, 14276.975605127289, 8847.088676344, -9308.22751620144, 8959.316785254096, -8788.482402382184, -187500.02235174447, 35243.895380961345, -24691.435657910784, 24633.946971171736, 3402.6954654092156, -2490.4090154658575, 11537.523452940399, 237.30847088199508, -115966.21465280231, -9480.268893273938, 0.154, 1.006, -0.19, 192.0, 0.0, 0.0, 0.0, 0.0, 0.0, 0.0, 0.0, 0.0, 0.0, 1.69602393948401E9, 0.0, 2023-09-29 16:45:39.484
94.0, 27160.051722532717, 14596.27027467135, 8808.017827036123, -9338.782350871845, 8827.039161567589, -8846.976917621723, -187500.02235174447, 35481.874404177004, -24722.392823981387, 25196.070992478253, 3681.175849577886, -2109.89291785871, 11473.93273996505, 190.43686275921618, -115509.79203102495, -9585.6126648918, 0.154, 1.006, -0.19, 192.0, 0.0, 0.0, 0.0, 0.0, 0.0, 0.0, 0.0, 0.0, 0.0, 1.696023939484014E9, 0.0, 2023-09-29 16:45:39.484
96.0, 26846.412044335848, 14204.175973436353, 8847.84863565548, -9304.74064406641, 8941.569500156582, -8793.466841395717, -187500.02235174447, 35172.325095215456, -24703.03621328309, 24641.41245381981, 3378.868505819858, -2494.722902145732, 11524.872365578696, 224.97030794266558, -116000.4798770523, -9494.506954491968, 0.154, 1.006, -0.19, 192.0, 0.0, 0.0, 0.0, 0.0, 0.0, 0.0, 0.0, 0.0, 0.0, 1.696023939484017E9, 0.0, 2023-09-29 16:45:39.484
98.0, 27215.796973204255, 14665.605385971712, 8805.425024679307, -9345.063191063786, 8855.291766559098, -8846.686344943804, -187500.02235174447, 35520.45351510686, -24698.007070780644, 25158.60946877116, 3675.789079164157, -2121.4934732310144, 11491.925894251573, 204.0714268769535, -115633.88891624082, -9575.263807208992, 0.154, 1.006, -0.192, 192.0, 2.0, 104.0, 15.5, 56.0, 125.0, 0.0, 0.0, 0.0, 0.0, 1.69602393948402E9, 0.0, 2023-09-29 16:45:39.484
100.0, 26789.996241330653, 14147.17902507532, 8890.071080931555, -9262.674661001523, 8965.687032423859, -8746.192901872742, -187500.02235174447, 35106.94624268368, -24704.51142841714, 24670.201500678242, 3389.7538053695926, -2476.9532653037627, 11533.701304638542, 239.47659009415986, -116041.89765952798, -9477.318463005837, 0.154, 1.006, -0.192, 192.0, 0.0, 0.0, 0.0, 0.0, 0.0, 0.0, 0.0, 0.0, 0.0, 1.696023939484024E9, 0.0, 2023-09-29 16:45:39.484
102.0, 27258.06412196924, 14709.750081270944, 8773.752602786137, -9369.203075075517, 8869.37336556594, -8851.827246168525, -187500.02235174447, 35555.88103006852, -24679.03043973809, 25132.770852180824, 3680.795869922146, -2125.0474005994083, 11510.768414827397, 227.67486902175773, -115812.21113350525, -9544.686620794133, 0.154, 1.006, -0.192, 192.0, 0.0, 0.0, 0.0, 0.0, 0.0, 0.0, 0.0, 0.0, 0.0, 1.696023939484027E9, 0.0, 2023-09-29 16:45:39.484
104.0, 26762.05656076152, 14108.957542056745, 8882.404432583384, -9256.97496616542, 8949.392610715939, -8744.069486149489, -187500.02235174447, 35079.207727814646, -24722.75045189267, 24718.481268701707, 3396.7275496396483, -2459.205980206249, 11504.509926379911, 216.27547934955115, -116065.27758422824, -9495.870410903743, 0.154, 1.006, -0.192, 192.0, 0.0, 0.0, 0.0, 0.0, 0.0, 0.0, 0.0, 0.0, 0.0, 1.69602393948403E9, 0.0, 2023-09-29 16:45:39.484
106.0, 27288.6413083841, 14733.688799582578, 8748.852759462925, -9386.52567702838, 8879.677519759836, -8871.876760944935, -187500.02235174447, 35589.743922918315, -24668.480416355185, 25065.514453114803, 3661.729831901769, -2166.509886564003, 11506.387472914157, 222.89159570832203, -115959.53148121017, -9536.438827090124, 0.154, 1.006, -0.192, 192.0, 0.0, 0.0, 0.0, 0.0, 0.0, 0.0, 0.0, 0.0, 0.0, 1.696023939543548E9, 0.0, 2023-09-29 16:45:39.543
108.0, 26743.616371585893, 14086.538742368073, 8889.534639064626, -9243.943899147976, 8932.204119229807, -8747.288137351054, -187500.02235174447, 35064.00854158503, -24735.692111932294, 24767.655106503382, 3413.6254684478604, -2438.9329479852854, 11488.640187816643, 203.24441233210712, -116076.16288377797, -9508.83442268782, 0.154, 1.0, -0.192, 192.0, 2.0, 104.0, 15.5, 32.0, 125.0, 0.0, 0.0, 0.0, 0.0, 1.696023939543559E9, 0.0, 2023-09-29 16:45:39.543
110.0, 27298.565482922255, 14745.423465421614, 8754.35128859893, -9379.507229269413, 8898.14006067992, -8868.27813008763, -187500.02235174447, 35587.73226591734, -24658.198613905744, 25012.63022573355, 3634.9747937887664, -2201.24449744755, 11526.749912112942, 242.24820640661795, -116123.19095411194, -9521.776082727443, 0.154, 1.0, -0.192, 192.0, 0.0, 0.0, 0.0, 0.0, 0.0, 0.0, 0.0, 0.0, 0.0, 1.696023939543562E9, 0.0, 2023-09-29 16:45:39.543
112.0, 26748.399644899328, 14096.775841328603, 8908.913601507378, -9227.314201273228, 8923.106959236498, -8741.074352392478, -187500.02235174447, 35052.72091063511, -24728.76307115115, 24852.12234879999, 3455.646748023838, -2383.94765662523, 11496.239780931448, 206.3289530669395, -116100.23571255634, -9517.752768725488, 0.154, 1.0, -0.192, 192.0, 0.0, 0.0, 0.0, 0.0, 0.0, 0.0, 0.0, 0.0, 0.0, 1.696023939543565E9, 0.0, 2023-09-29 16:45:39.543
114.0, 27294.184541009017, 14730.939535014575, 8743.980079171668, -9392.694758498044, 8909.76296779668, -8876.749441236192, -187500.02235174447, 35576.55639368968, -24640.071349152488, 24957.75669309577, 3614.0312092341437, -2233.5874716743797, 11538.238708762969, 254.1393344568413, -116284.81641826827, -9511.717797722555, 0.154, 1.0, -0.192, 192.0, 0.0, 0.0, 0.0, 0.0, 0.0, 0.0, 0.0, 0.0, 0.0, 1.696023939543568E9, 0.0, 2023-09-29 16:45:39.543
116.0, 26767.935069553267, 14120.759263129148, 8889.489935575717, -9244.525044503815, 8893.401490855395, -8760.1180386684, -187500.02235174447, 35070.95993411064, -24752.27710631813, 24921.636274055993, 3476.5903325784607, -2344.206254983694, 11462.64510901512, 175.6847114187135, -116096.54767472121, -9556.980080244552, 0.154, 1.0, -0.192, 192.0, 0.0, 0.0, 0.0, 0.0, 0.0, 0.0, 0.0, 0.0, 0.0, 1.696023939543572E9, 0.0, 2023-09-29 16:45:39.543
118.0, 27262.71328481594, 14692.963921185008, 8745.231776861165, -9390.660749752611, 8916.803767300102, -8872.56966502305, -187500.02235174447, 35535.16096295846, -24646.508651555618, 24873.982354877277, 3572.546371525094, -2287.857507211865, 11536.51762443991, 253.93816875674355, -116427.93463801559, -9502.26300981796, 0.154, 1.0, -0.192, 192.0, 2.0, 104.0, 15.5, 32.0, 125.0, 0.0, 0.0, 0.0, 0.0, 1.696023939543575E9, 0.0, 2023-09-29 16:45:39.543
120.0, 26804.502523482148, 14165.485103784216, 8892.753290266191, -9242.200463080462, 8873.016699912156, -8755.334765354964, -187500.02235174447, 35100.575995513915, -24759.452016288284, 24976.979193327334, 3507.45809167124, -2299.6145247953564, 11449.301117575302, 167.88395260381134, -116116.41837554198, -9563.976176259062, 0.154, 1.0, -0.192, 192.0, 0.0, 0.0, 0.0, 0.0, 0.0, 0.0, 0.0, 0.0, 0.0, 1.696023939603258E9, 0.0, 2023-09-29 16:45:39.603
122.0, 27217.741574971864, 14635.18466176804, 8767.78468701657, -9381.675348481578, 8945.682221136358, -8849.681478700815, -187500.02235174447, 35492.08915139308, -24661.104340684935, 24804.58018834355, 3526.7923506250804, -2339.9370717927304, 11544.228976276992, 264.0411572505423, -116562.71565708109, -9474.368032737737, 0.154, 1.0, -0.192, 192.0, 0.0, 0.0, 0.0, 0.0, 0.0, 0.0, 0.0, 0.0, 0.0, 1.696023939603281E9, 0.0, 2023-09-29 16:45:39.603
124.0, 26851.776463005124, 14223.219659712275, 8888.305293119585, -9262.674661001523, 8868.635757998914, -8764.16370441481, -187500.02235174447, 35146.08414722492, -24772.12545539444, 25043.43092959296, 3546.9089206348567, -2258.308501041949, 11454.531425777845, 167.99571132608787, -116143.88866947756, -9562.009222746996, 0.154, 1.0, -0.192, 192.0, 0.0, 0.0, 0.0, 0.0, 0.0, 0.0, 0.0, 0.0, 0.0, 1.696023939603284E9, 0.0, 2023-09-29 16:45:39.603
126.0, 27157.436568431447, 14561.200387620973, 8791.544591372562, -9367.191418074539, 8960.188503287853, -8826.502719700662, -187500.02235174447, 35419.42363016887, -24663.183052919278, 24739.246039300688, 3486.693321072259, -2397.5151655096015, 11559.137589828682, 260.33076767096134, -116679.90585326026, -9465.24852099997, 0.154, 1.0, -0.192, 192.0, 0.0, 0.0, 0.0, 0.0, 0.0, 0.0, 0.0, 0.0, 0.0, 1.696023939603287E9, 0.0, 2023-09-29 16:45:39.603
128.0, 26917.982330081744, 14305.965817685821, 8887.970016952755, -9258.07020164373, 8857.124609604432, -8765.549512571039, -187500.02235174447, 35186.94313608923, -24758.446187787795, 25121.34911076416, 3590.2266013892418, -2200.216317202606, 11464.835579971741, 179.0821765759202, -116194.31420496873, -9571.173437973672, 0.156, 1.0, -0.196, 192.0, 2.0, 112.0, 15.5, 32.0, 124.5, 112.0, 0.0, 0.0, 0.0, 1.69602393960329E9, 0.0, 2023-09-29 16:45:39.603
130.0, 27099.277329358738, 14495.016872288808, 8806.296742713064, -9343.811493374287, 8957.662756164404, -8817.629077151905, -187500.02235174447, 35340.27610305263, -24668.905099499836, 24715.642597155882, 3461.0558701820223, -2415.1059883959283, 11563.339717786279, 269.74085208664565, -116792.2680726371, -9462.879236087709, 0.156, 1.0, -0.196, 192.0, 0.0, 0.0, 0.0, 0.0, 0.0, 0.0, 0.0, 0.0, 0.0, 1.696023939603294E9, 0.0, 2023-09-29 16:45:39.603
132.0, 26995.609938575024, 14397.496211230304, 8867.965205665256, -9263.8369517132, 8838.550309962071, -8788.325940170997, -187500.02235174447, 35244.253008872634, -24761.731894222725, 25180.93886148201, 3623.6424593499255, -2147.6897177326346, 11462.019260170373, 187.0393976020095, -116267.71733375995, -9578.616568877289, 0.156, 1.0, -0.196, 192.0, 0.0, 0.0, 0.0, 0.0, 0.0, 0.0, 0.0, 0.0, 0.0, 1.696023939603299E9, 0.0, 2023-09-29 16:45:39.603
134.0, 27031.9315233149, 14410.951961392399, 8828.670838912825, -9318.017580272863, 8956.075782308077, -8803.636885122882, -187500.02235174447, 35271.03039873009, -24692.866169555924, 24670.35796288943, 3428.221157577176, -2444.230311421193, 11542.865519865218, 259.01201474809824, -116873.51666373214, -9466.723736134021, 0.156, 1.0, -0.196, 192.0, 0.0, 0.0, 0.0, 0.0, 0.0, 0.0, 0.0, 0.0, 0.0, 1.696023939603303E9, 0.0, 2023-09-29 16:45:39.603
136.0, 27074.109265102063, 14488.15488674103, 8852.408391524363, -9284.355853123172, 8831.285993014097, -8796.59608561946, -187500.02235174447, 35318.214931275244, -24750.287801061608, 25192.002974987387, 3657.9076835999113, -2121.448769742104, 11464.120324149171, 194.79545292800105, -116348.74240741043, -9579.309472955403, 0.156, 1.0, -0.196, 192.0, 0.0, 0.0, 0.0, 0.0, 0.0, 0.0, 0.0, 0.0, 0.0, 1.696023939663465E9, 0.0, 2023-09-29 16:45:39.663
138.0, 26959.53422302416, 14326.350608629062, 8831.50951045865, -9317.503490150391, 8958.221549775786, -8796.104347241444, -187500.02235174447, 35210.278357300565, -24694.542550390073, 24657.550413316538, 3405.7129509106817, -2470.4489076672685, 11548.431104234589, 263.6164741058915, -116948.43971114633, -9472.669300159134, 0.152, 0.998, -0.196, 192.0, 2.0, 96.0, 15.5, 24.0, 124.5, 112.0, 0.0, 0.0, 0.0, 1.696023939663474E9, 0.0, 2023-09-29 16:45:39.663
140.0, 27133.967236753375, 14560.149855631573, 8822.658219654348, -9327.13709201063, 8843.534748975606, -8830.637792424894, -187500.02235174447, 35371.7473592457, -24743.917553891846, 25207.246864705907, 3665.3508145035285, -2118.1407115627185, 11467.115457906182, 184.1560225672749, -116443.02206552292, -9601.504755199523, 0.152, 0.998, -0.196, 192.0, 0.0, 0.0, 0.0, 0.0, 0.0, 0.0, 0.0, 0.0, 0.0, 1.696023939663477E9, 0.0, 2023-09-29 16:45:39.663
142.0, 26882.577166864536, 14237.256555230208, 8847.446304255283, -9309.568620868757, 8965.329404512573, -8782.715652312714, -187500.02235174447, 35108.823789217924, -24710.70286163126, 24647.179203889278, 3382.064805276967, -2504.5800214505225, 11542.463188465023, 236.21323540368505, -116997.72530767028, -9495.512782992457, 0.152, 0.998, -0.196, 192.0, 0.0, 0.0, 0.0, 0.0, 0.0, 0.0, 0.0, 0.0, 0.0, 1.69602393966348E9, 0.0, 2023-09-29 16:45:39.663
144.0, 27196.37330727259, 14623.8523273292, 8795.344387929963, -9361.201150560517, 8837.477426228217, -8850.262624056653, -187500.02235174447, 35411.62287135397, -24725.365605993942, 25181.430599860025, 3671.497544228738, -2128.9366041346316, 11481.979367968961, 187.3746737688391, -116577.2666427215, -9600.543630187945, 0.152, 0.998, -0.196, 192.0, 0.0, 0.0, 0.0, 0.0, 0.0, 0.0, 0.0, 0.0, 0.0, 1.696023939663483E9, 0.0, 2023-09-29 16:45:39.663
146.0, 26827.8824481824, 14165.99919390669, 8879.722223248747, -9278.11971642014, 8963.29539576714, -8758.419306089796, -187500.02235174447, 35048.921114077704, -24706.344271462476, 24661.73018952968, 3377.8850290638247, -2507.709265674265, 11538.417522718612, 226.2443573766181, -117036.52793604469, -9501.324236550838, 0.152, 0.998, -0.196, 192.0, 0.0, 0.0, 0.0, 0.0, 0.0, 0.0, 0.0, 0.0, 0.0, 1.696023939663487E9, 0.0, 2023-09-29 16:45:39.663
148.0, 27243.20021190646, 14676.133057610163, 8792.528068128595, -9361.491723238436, 8851.983708379712, -8860.209150339264, -187500.02235174447, 35456.79574689815, -24693.98375677869, 25156.106073392162, 3677.174887320386, -2134.6810024596457, 11506.700397336532, 202.1938803427077, -116732.72302540817, -9579.84591482233, 0.15, 0.998, -0.196, 192.0, 2.0, 88.0, 15.5, 24.0, 124.5, 112.0, 0.0, 0.0, 0.0, 1.69602393966349E9, 0.0, 2023-09-29 16:45:39.663
150.0, 26779.267403992108, 14113.070263036521, 8869.306310332575, -9281.919512977543, 8931.622973873971, -8781.21808543421, -187500.02235174447, 35018.96977650759, -24727.690187417295, 24692.396782922362, 3384.5234971670507, -2490.140794532394, 11513.718845095498, 206.12778736684174, -117064.69113405838, -9525.844100218308, 0.15, 0.998, -0.196, 192.0, 0.0, 0.0, 0.0, 0.0, 0.0, 0.0, 0.0, 0.0, 0.0, 1.696023939723904E9, 0.0, 2023-09-29 16:45:39.723
152.0, 27275.25261345537, 14712.7228632835, 8756.228835133175, -9387.57620901778, 8851.313156046052, -8884.840772729012, -187500.02235174447, 35489.65281124745, -24698.49880915866, 25101.59016866567, 3649.81635210709, -2170.354386610316, 11498.676121077076, 201.23275533112948, -116876.17652132233, -9590.977083561074, 0.15, 0.998, -0.196, 192.0, 0.0, 0.0, 0.0, 0.0, 0.0, 0.0, 0.0, 0.0, 0.0, 1.696023939723916E9, 0.0, 2023-09-29 16:45:39.723
154.0, 26753.182918212762, 14088.796268558059, 8887.120650663453, -9256.93026267651, 8919.821252801568, -8759.961576457212, -187500.02235174447, 34986.60445053631, -24750.399559783884, 24744.476347503227, 3392.81599435997, -2467.3196634435253, 11493.736385552453, 199.24345007460715, -117074.74941906327, -9538.852815491296, 0.15, 0.998, -0.196, 192.0, 0.0, 0.0, 0.0, 0.0, 0.0, 0.0, 0.0, 0.0, 0.0, 1.69602393972392E9, 0.0, 2023-09-29 16:45:39.723
156.0, 27300.465381200956, 14737.309782184337, 8763.291986381053, -9380.155429858618, 8874.178990623832, -8868.032260898623, -187500.02235174447, 35507.243634133774, -24682.36084966193, 25042.916839470487, 3638.439314179339, -2194.114290966307, 11508.622647359687, 232.18992140172978, -117033.86807845451, -9560.086972723839, 0.15, 0.998, -0.196, 192.0, 0.0, 0.0, 0.0, 0.0, 0.0, 0.0, 0.0, 0.0, 0.0, 1.696023939723923E9, 0.0, 2023-09-29 16:45:39.723
158.0, 26743.012874485597, 14082.336614410475, 8908.846546274013, -9233.885614143088, 8916.200270199808, -8734.301773822519, -187500.02235174447, 34978.46841555458, -24767.297478592096, 24803.596711587517, 3422.0520761075113, -2424.627831533889, 11481.957016224505, 204.0937786214088, -117085.27709070171, -9533.622507288756, 0.154, 1.002, -0.198, 192.0, 2.0, 104.0, 15.5, 40.0, 124.5, 104.0, 0.0, 0.0, 0.0, 1.696023939723926E9, 0.0, 2023-09-29 16:45:39.723
160.0, 27296.956157321474, 14735.387532161181, 8758.866340978902, -9389.297293340838, 8892.9991594552, -8869.105144632476, -187500.02235174447, 35510.77520975771, -24688.17230322031, 24984.51173120877, 3609.6279155764482, -2230.614689661824, 11527.867499335707, 256.26275018009545, -117207.49642938333, -9519.987943171018, 0.154, 1.002, -0.198, 192.0, 0.0, 0.0, 0.0, 0.0, 0.0, 0.0, 0.0, 0.0, 0.0, 1.696023939723929E9, 0.0, 2023-09-29 16:45:39.723
162.0, 26762.235374717162, 14109.024597290112, 8898.363578124474, -9241.574614235713, 8881.443307571806, -8756.407649088818, -187500.02235174447, 35010.766686292496, -24800.08748770803, 24867.701514685337, 3435.5972332474275, -2382.2265723021715, 11447.803550696797, 171.63904567230293, -117068.3344684046, -9565.294929181926, 0.154, 1.002, -0.198, 192.0, 0.0, 0.0, 0.0, 0.0, 0.0, 0.0, 0.0, 0.0, 0.0, 1.696023939723932E9, 0.0, 2023-09-29 16:45:39.723
164.0, 27292.55286366378, 14722.222354677006, 8776.703033054237, -9372.622891977178, 8910.791148041624, -8853.302461302574, -187500.02235174447, 35502.907395709444, -24684.528968874096, 24912.87439022951, 3574.6921389928034, -2270.959588403653, 11524.358275456223, 261.3812996603608, -117323.94901799549, -9519.719722237554, 0.154, 1.002, -0.198, 192.0, 0.0, 0.0, 0.0, 0.0, 0.0, 0.0, 0.0, 0.0, 0.0, 1.696023939723936E9, 0.0, 2023-09-29 16:45:39.723
166.0, 26798.556959457037, 14147.424894264328, 8908.95830499629, -9243.07218111422, 8876.637682513916, -8754.127771154377, -187500.02235174447, 35053.257352502034, -24774.226519373242, 24956.08031226162, 3496.8410130549687, -2316.5794988369344, 11460.834617714241, 188.2463918025961, -117093.97191929484, -9562.478609380558, 0.154, 1.002, -0.198, 192.0, 0.0, 0.0, 0.0, 0.0, 0.0, 0.0, 0.0, 0.0, 0.0, 1.696023939784111E9, 0.0, 2023-09-29 16:45:39.784
168.0, 27262.020380737828, 14673.272034319883, 8763.806076503524, -9390.347825330236, 8917.854299289502, -8866.735859720215, -187500.02235174447, 35502.81798873162, -24678.35988740443, 24844.12042428499, 3544.3831735114068, -2319.082894215929, 11530.013266803417, 252.5523606005145, -117462.1722057071, -9522.379579827737, 0.152, 1.004, -0.202, 192.0, 2.0, 96.0, 15.5, 48.0, 124.5, 88.0, 0.0, 0.0, 0.0, 1.69602393978412E9, 0.0, 2023-09-29 16:45:39.784
170.0, 26850.860041482454, 14200.71145304578, 8918.748369067713, -9236.97015487792, 8875.162467379865, -8745.455294305719, -187500.02235174447, 35128.91800748325, -24782.519016566162, 25029.930475941954, 3529.31809774853, -2273.239466338094, 11462.600405526211, 182.34553126639503, -117100.31981472013, -9577.119001998783, 0.152, 1.004, -0.202, 192.0, 0.0, 0.0, 0.0, 0.0, 0.0, 0.0, 0.0, 0.0, 0.0, 1.696023939784124E9, 0.0, 2023-09-29 16:45:39.784
172.0, 27209.203208589937, 14601.902914274087, 8802.116966499922, -9364.553912228814, 8946.755104870213, -8835.599879693971, -187500.02235174447, 35472.53137499468, -24667.049904710046, 24775.411161829372, 3524.154844779354, -2361.886484847842, 11552.968508359018, 268.26563695259534, -117597.6014253618, -9488.226114300027, 0.152, 1.004, -0.202, 192.0, 0.0, 0.0, 0.0, 0.0, 0.0, 0.0, 0.0, 0.0, 0.0, 1.696023939784127E9, 0.0, 2023-09-29 16:45:39.784
174.0, 26910.740364878224, 14271.141799824454, 8918.390741156429, -9244.390934037083, 8864.254816085675, -8763.224931147686, -187500.02235174447, 35203.4610752417, -24763.028295401135, 25086.927424302987, 3586.0691769205546, -2218.5894511448682, 11466.60136778371, 184.33483652291736, -117153.96400141288, -9579.510638655502, 0.152, 1.004, -0.202, 192.0, 0.0, 0.0, 0.0, 0.0, 0.0, 0.0, 0.0, 0.0, 0.0, 1.69602393978413E9, 0.0, 2023-09-29 16:45:39.784
176.0, 27155.24609747483, 14538.803939676756, 8830.280164513608, -9340.503435194902, 8965.15059055693, -8827.195623778776, -187500.02235174447, 35439.987235067754, -24669.866224511414, 24732.60757119746, 3489.4872891291725, -2394.497680008135, 11555.293089782368, 270.74668058713445, -117711.26004591705, -9485.11922182074, 0.152, 1.004, -0.202, 192.0, 0.0, 0.0, 0.0, 0.0, 0.0, 0.0, 0.0, 0.0, 0.0, 1.696023939784133E9, 0.0, 2023-09-29 16:45:39.784
178.0, 26980.410752345415, 14360.101742756575, 8916.200270199808, -9251.811713196244, 8863.696022474292, -8777.328881898986, -187500.02235174447, 35275.94778251026, -24752.254754573674, 25161.35873333916, 3630.1691687308753, -2163.961787696098, 11476.570245810777, 195.22013607265188, -117206.02121424928, -9581.678757867665, 0.154, 1.006, -0.196, 192.0, 2.0, 104.0, 15.5, 56.0, 124.5, 112.0, 0.0, 0.0, 0.0, 1.696023939784137E9, 0.0, 2023-09-29 16:45:39.784
180.0, 27086.17920710793, 14460.394020127538, 8858.912749160856, -9316.452958160991, 8981.757936687223, -8798.138355986877, -187500.02235174447, 35351.67549272484, -24678.561053104528, 24693.8272945675, 3463.7827830055694, -2431.3557066149365, 11563.563235230833, 272.35600618791653, -117800.37645106035, -9479.866561873741, 0.154, 1.006, -0.196, 192.0, 0.0, 0.0, 0.0, 0.0, 0.0, 0.0, 0.0, 0.0, 0.0, 1.69602393978414E9, 0.0, 2023-09-29 16:45:39.784
182.0, 27047.823613622622, 14443.786673997245, 8899.414110113872, -9264.283986602306, 8863.271339329642, -8784.302626169041, -187500.02235174447, 35309.31893698203, -24738.888411389402, 25198.261463434872, 3667.9436168603443, -2131.641165213724, 11486.561475582299, 213.6826769927355, -117295.71876474844, -9583.019862534984, 0.154, 1.006, -0.196, 192.0, 0.0, 0.0, 0.0, 0.0, 0.0, 0.0, 0.0, 0.0, 0.0, 1.696023939844539E9, 0.0, 2023-09-29 16:45:39.844
184.0, 27008.23867419227, 14369.333013216617, 8870.490952788705, -9300.762033553367, 8981.623826220492, -8783.810887791025, -187500.02235174447, 35258.379311368386, -24684.685431085283, 24672.347268145953, 3441.96748041719, -2452.34399465847, 11566.04427886537, 282.72721561517903, -117911.50932449214, -9477.184352539105, 0.154, 1.006, -0.196, 192.0, 0.0, 0.0, 0.0, 0.0, 0.0, 0.0, 0.0, 0.0, 0.0, 1.696023939844549E9, 0.0, 2023-09-29 16:45:39.844
186.0, 27116.04113770022, 14523.02360809131, 8873.016699912156, -9291.821335771243, 8840.60667045196, -8804.955638045745, -187500.02235174447, 35372.06028366808, -24746.778577182125, 25214.89116130962, 3680.684111199869, -2102.650952655191, 11475.631472543655, 211.02281940255398, -117398.87206540968, -9591.513525428001, 0.154, 1.006, -0.196, 192.0, 0.0, 0.0, 0.0, 0.0, 0.0, 0.0, 0.0, 0.0, 0.0, 1.696023939844552E9, 0.0, 2023-09-29 16:45:39.844
188.0, 26935.32728377906, 14286.050413376142, 8875.006005168678, -9294.816469528256, 8953.05829680661, -8783.028576735089, -187500.02235174447, 35199.41540949528, -24708.46768718573, 24649.1685091458, 3405.6235439328607, -2474.8074978360532, 11540.697400653053, 264.6223026063803, -117966.22639491873, -9485.275684031927, 0.148, 1.002, -0.194, 192.0, 2.0, 80.0, 15.5, 40.0, 124.5, 120.0, 0.0, 0.0, 0.0, 1.696023939844557E9, 0.0, 2023-09-29 16:45:39.844
190.0, 27178.827187875177, 14598.84072528371, 8854.509455503161, -9315.111853493674, 8833.252946526163, -8823.708751643748, -187500.02235174447, 35449.62083692799, -24755.71927496425, 25199.490809379913, 3678.2477710542407, -2109.490586458515, 11465.148504394116, 203.42322628774957, -117484.94863330707, -9593.301664984425, 0.148, 1.002, -0.194, 192.0, 0.0, 0.0, 0.0, 0.0, 0.0, 0.0, 0.0, 0.0, 0.0, 1.69602393984456E9, 0.0, 2023-09-29 16:45:39.844
192.0, 26869.88137601392, 14210.769738050669, 8909.114767207477, -9257.7349254769, 8959.607357932015, -8750.417381574796, -187500.02235174447, 35150.75566181608, -24733.03225434211, 24658.64564879485, 3391.0502065480005, -2485.335169474503, 11523.911240567119, 254.58636934594745, -117981.6490985929, -9488.896666633686, 0.148, 1.002, -0.194, 192.0, 0.0, 0.0, 0.0, 0.0, 0.0, 0.0, 0.0, 0.0, 0.0, 1.696023939844566E9, 0.0, 2023-09-29 16:45:39.844
194.0, 27241.30031362776, 14671.059211618807, 8835.868100627435, -9329.886356578632, 8845.971089121234, -8834.45994072675, -187500.02235174447, 35517.033698205196, -24736.653236943872, 25192.65117557659, 3698.632561997481, -2098.113548530763, 11485.55564708181, 227.96544169967675, -117606.67623361066, -9572.5592461299, 0.148, 1.002, -0.194, 192.0, 0.0, 0.0, 0.0, 0.0, 0.0, 0.0, 0.0, 0.0, 0.0, 1.696023939844569E9, 0.0, 2023-09-29 16:45:39.844
196.0, 26830.92228542832, 14165.015717150656, 8934.640459375436, -9232.008067608842, 8955.315822996596, -8731.016067387589, -187500.02235174447, 35099.34664956888, -24754.489929019204, 24696.397745179864, 3402.024913075556, -2466.9620355322404, 11515.417577674101, 246.2044651752073, -117982.2972991821, -9496.138631837206, 0.148, 1.002, -0.194, 192.0, 0.0, 0.0, 0.0, 0.0, 0.0, 0.0, 0.0, 0.0, 0.0, 1.696023939904272E9, 0.0, 2023-09-29 16:45:39.904
198.0, 27295.860921843163, 14720.121290698205, 8820.244231253175, -9351.411086489092, 8856.118781103944, -8845.904033887868, -187500.02235174447, 35537.6867100819, -24707.84183834098, 25157.022494914832, 3699.0572451421317, -2109.0435515694085, 11503.504097879422, 241.95763372869897, -117744.1394620108, -9562.232740191548, 0.15, 1.0, -0.19, 192.0, 2.0, 88.0, 15.5, 32.0, 125.0, 8.0, 0.0, 0.0, 0.0, 1.696023939904284E9, 0.0, 2023-09-29 16:45:39.904
200.0, 26792.097305309453, 14107.661140878337, 8933.031133774655, -9240.322916546216, 8940.38485770045, -8732.15600635481, -187500.02235174447, 35037.879352316784, -24749.99722838369, 24714.055623299555, 3410.9432591132236, -2463.206942463749, 11508.689702593054, 220.99169742962093, -118006.90656982739, -9522.379579827737, 0.15, 1.0, -0.19, 192.0, 0.0, 0.0, 0.0, 0.0, 0.0, 0.0, 0.0, 0.0, 0.0, 1.696023939904287E9, 0.0, 2023-09-29 16:45:39.904
202.0, 27316.201009297492, 14738.717942085023, 8794.74089082967, -9378.277883324372, 8861.550255006583, -8860.298557317086, -187500.02235174447, 35556.328064957626, -24695.41426842383, 25076.019773008797, 3674.3362157745623, -2159.446735316126, 11505.381644413668, 233.2628051355845, -117894.00790858363, -9567.999490261018, 0.15, 1.0, -0.19, 192.0, 0.0, 0.0, 0.0, 0.0, 0.0, 0.0, 0.0, 0.0, 0.0, 1.696023939904291E9, 0.0, 2023-09-29 16:45:39.904
204.0, 26765.945764296743, 14085.957597012235, 8937.143854754431, -9240.92641364651, 8921.587040613538, -8738.414494802297, -187500.02235174447, 35036.80646858293, -24784.128342166943, 24768.03508615912, 3418.4310935057515, -2443.492703854168, 11478.358385367203, 196.11420585086418, -117993.83079932103, -9545.513635338979, 0.15, 1.0, -0.19, 192.0, 0.0, 0.0, 0.0, 0.0, 0.0, 0.0, 0.0, 0.0, 0.0, 1.696023939904294E9, 0.0, 2023-09-29 16:45:39.904
206.0, 27313.87642787414, 14735.789863561376, 8824.088731299487, -9366.230293062961, 8902.990389226721, -8852.184874079809, -187500.02235174447, 35555.70221611288, -24712.51335293214, 25009.433926276437, 3634.5948141330264, -2209.112311495818, 11528.403941202634, 237.64374704882468, -118037.41670100889, -9551.190978430626, 0.15, 1.0, -0.19, 192.0, 0.0, 0.0, 0.0, 0.0, 0.0, 0.0, 0.0, 0.0, 0.0, 1.696023939904297E9, 0.0, 2023-09-29 16:45:39.904
208.0, 26757.67561884828, 14078.581521341983, 8956.232244519264, -9223.849680882655, 8912.847508531513, -8738.101570379922, -187500.02235174447, 35030.86090455781, -24779.166254897864, 24844.790976618646, 3457.8819224693684, -2392.9777613851743, 11493.669330319088, 197.2094413291742, -118024.34093050253, -9546.69827779511, 0.15, 1.004, -0.194, 192.0, 2.0, 88.0, 15.5, 48.0, 124.5, 120.0, 0.0, 0.0, 0.0, 1.6960239399043E9, 0.0, 2023-09-29 16:45:39.904
210.0, 27297.626709655135, 14713.05813945033, 8799.83708856548, -9379.57428450278, 8896.933066479334, -8865.752382964181, -187500.02235174447, 35541.55356187267, -24694.184922478787, 24945.351474923074, 3610.14200569892, -2248.853713137354, 11533.075455793794, 239.09661043841965, -118197.76811573126, -9546.117132439273, 0.15, 1.004, -0.194, 192.0, 0.0, 0.0, 0.0, 0.0, 0.0, 0.0, 0.0, 0.0, 0.0, 1.696023939904303E9, 0.0, 2023-09-29 16:45:39.904
212.0, 26774.282964978574, 14104.487193165683, 8926.347962182517, -9242.379277036105, 8872.36849932295, -8757.368774100396, -187500.02235174447, 35046.39536695425, -24793.828999260546, 24902.83845696908, 3478.3561203904296, -2359.18192376875, 11462.734515992943, 174.74593815159062, -118013.61209316399, -9584.584484646855, 0.15, 1.004, -0.194, 192.0, 0.0, 0.0, 0.0, 0.0, 0.0, 0.0, 0.0, 0.0, 0.0, 1.696023939964537E9, 0.0, 2023-09-29 16:45:39.964
214.0, 27270.379933164113, 14685.744307725945, 8794.249152451654, -9375.550970500824, 8907.57249684006, -8862.444324784796, -187500.02235174447, 35504.874349221514, -24696.75537309115, 24857.598526191538, 3563.5609702540605, -2310.432769111725, 11526.593449901755, 244.23751166314028, -118319.98745441288, -9544.150178927204, 0.15, 1.004, -0.194, 192.0, 0.0, 0.0, 0.0, 0.0, 0.0, 0.0, 0.0, 0.0, 0.0, 1.696023939964547E9, 0.0, 2023-09-29 16:45:39.964
216.0, 26806.983567116687, 14158.779580447625, 8953.43827646235, -9207.622314408101, 8876.414165069362, -8738.34743956893, -187500.02235174447, 35053.59262866886, -24800.311005152584, 24983.349440497095, 3514.990629552678, -2299.793338750999, 11457.571263023767, 185.36301676786147, -118027.02313983717, -9593.70399638462, 0.15, 1.004, -0.194, 192.0, 0.0, 0.0, 0.0, 0.0, 0.0, 0.0, 0.0, 0.0, 0.0, 1.69602393996455E9, 0.0, 2023-09-29 16:45:39.964
218.0, 27228.20219137695, 14640.504376948402, 8806.587315390983, -9365.291519795837, 8925.029209259656, -8852.698964202282, -187500.02235174447, 35463.94830512384, -24689.26753869862, 24810.86102853549, 3542.5503304660715, -2326.5930803529122, 11547.38057224519, 278.27921846857294, -118482.14936043613, -9509.795547699398, 0.154, 0.998, -0.188, 192.0, 2.0, 104.0, 15.5, 24.0, 125.0, 16.0, 0.0, 0.0, 0.0, 1.696023939964554E9, 0.0, 2023-09-29 16:45:39.964
220.0, 26864.584012578012, 14229.634610370947, 8947.313898481596, -9222.888555871077, 8856.051725870577, -8747.288137351054, -187500.02235174447, 35122.16778065774, -24809.76579305718, 25051.76813027479, 3551.9380631373006, -2244.271605524016, 11431.531480733334, 167.03458631450968, -118034.71213992979, -9609.730197159077, 0.154, 0.998, -0.188, 192.0, 0.0, 0.0, 0.0, 0.0, 0.0, 0.0, 0.0, 0.0, 0.0, 1.696023939964557E9, 0.0, 2023-09-29 16:45:39.964
222.0, 27171.942850582942, 14566.900082457076, 8835.443417482784, -9348.930042854554, 8944.519930424683, -8827.732065645703, -187500.02235174447, 35413.366307421486, -24684.081933984988, 24745.41512077035, 3508.0168852826223, -2381.6454269463334, 11548.542862956867, 279.2403434801511, -118581.25699535097, -9497.859716160265, 0.154, 0.998, -0.188, 192.0, 0.0, 0.0, 0.0, 0.0, 0.0, 0.0, 0.0, 0.0, 0.0, 1.69602393996456E9, 0.0, 2023-09-29 16:45:39.964
224.0, 26926.94537960832, 14301.942503683866, 8932.472340163273, -9247.184902093995, 8855.403525281374, -8765.370698615396, -187500.02235174447, 35190.89939485781, -24775.65703101838, 25116.342320006173, 3605.850470763501, -2199.5234131244915, 11457.861835701686, 185.69829293469107, -118086.34466962155, -9605.28220001247, 0.154, 0.998, -0.188, 192.0, 0.0, 0.0, 0.0, 0.0, 0.0, 0.0, 0.0, 0.0, 0.0, 1.696023939964563E9, 0.0, 2023-09-29 16:45:39.964
226.0, 27101.35604159308, 14488.221941974396, 8845.144074576387, -9349.801760888311, 8952.544206684137, -8829.430798224306, -187500.02235174447, 35367.43347256583, -24698.49880915866, 24690.49688464366, 3473.8410680104575, -2424.5384245560676, 11544.698362910553, 255.21221819069603, -118667.512377204, -9508.20857384307, 0.154, 0.998, -0.188, 192.0, 0.0, 0.0, 0.0, 0.0, 0.0, 0.0, 0.0, 0.0, 0.0, 1.696023940024796E9, 0.0, 2023-09-29 16:45:40.024
228.0, 26992.123066439995, 14389.22606578184, 8918.793072556624, -9261.69118424549, 8841.36662976344, -8781.955693001235, -187500.02235174447, 35262.782605026085, -24790.409182358886, 25147.567707010236, 3629.342154186029, -2170.0414621879413, 11447.73649546343, 164.59824616888122, -118124.61085612905, -9626.315191544914, 0.158, 1.0, -0.19, 192.0, 2.0, 120.0, 15.5, 32.0, 125.0, 8.0, 0.0, 0.0, 0.0, 1.696023940024806E9, 0.0, 2023-09-29 16:45:40.024
230.0, 27028.310540713137, 14404.08997584462, 8853.74949619168, -9330.869833334666, 8947.135084525953, -8814.455129439251, -187500.02235174447, 35302.65811713435, -24708.55709416355, 24664.300640142043, 3440.089933882944, -2456.8590470384415, 11539.266889007913, 253.1558577008078, -118738.2780001495, -9509.97436165504, 0.158, 1.0, -0.19, 192.0, 0.0, 0.0, 0.0, 0.0, 0.0, 0.0, 0.0, 0.0, 0.0, 1.69602394002481E9, 0.0, 2023-09-29 16:45:40.024
232.0, 27064.296849286184, 14470.027621987776, 8899.928200236345, -9273.31409136225, 8827.977934834711, -8794.293855940563, -187500.02235174447, 35344.81350717706, -24788.419877102362, 25177.07200969124, 3655.3595847320066, -2141.1406566072296, 11444.897823917607, 177.45049923068277, -118182.30070856819, -9632.976011392595, 0.158, 1.0, -0.19, 192.0, 0.0, 0.0, 0.0, 0.0, 0.0, 0.0, 0.0, 0.0, 0.0, 1.696023940024814E9, 0.0, 2023-09-29 16:45:40.024
234.0, 26951.57700199807, 14312.492527066772, 8891.792165254614, -9293.40830962757, 8958.780343387169, -8786.537800614573, -187500.02235174447, 35231.49016278865, -24716.760184378647, 24638.149099129332, 3418.632259205849, -2480.2836752276035, 11549.593394946265, 264.8011165620228, -118793.75502988757, -9501.011312128463, 0.158, 1.0, -0.19, 192.0, 0.0, 0.0, 0.0, 0.0, 0.0, 0.0, 0.0, 0.0, 0.0, 1.696023940024817E9, 0.0, 2023-09-29 16:45:40.024
236.0, 27124.825373271153, 14544.570689746224, 8888.729976264236, -9290.904914248576, 8836.628059938916, -8817.07028354052, -187500.02235174447, 35403.7550573057, -24758.781463954623, 25185.208044672974, 3678.337178032062, -2118.0066010959868, 11469.618853285177, 190.4592145036715, -118297.99333786886, -9625.599935722345, 0.158, 1.0, -0.19, 192.0, 0.0, 0.0, 0.0, 0.0, 0.0, 0.0, 0.0, 0.0, 0.0, 1.696023940024821E9, 0.0, 2023-09-29 16:45:40.024
238.0, 26878.307983673574, 14233.836738328546, 8915.797938799613, -9274.45403032947, 8959.316785254096, -8772.322091140997, -187500.02235174447, 35178.76239761858, -24725.32090250503, 24627.084985623955, 3405.601192188405, -2484.01641655164, 11545.10069431075, 249.9595582436989, -118857.16692890727, -9506.800413942387, 0.158, 0.996, -0.188, 192.0, 2.0, 120.0, 15.5, 16.0, 125.0, 16.0, 0.0, 0.0, 0.0, 1.696023940024824E9, 0.0, 2023-09-29 16:45:40.024
240.0, 27193.311118282214, 14622.019484283863, 8868.501647532183, -9312.787272070322, 8835.912804116346, -8834.236423282198, -187500.02235174447, 35496.51479679523, -24754.311115063563, 25169.919451465543, 3694.072806128598, -2102.8297666108333, 11472.859856231196, 198.52819425203734, -118417.37400500465, -9616.033389095473, 0.158, 0.996, -0.188, 192.0, 0.0, 0.0, 0.0, 0.0, 0.0, 0.0, 0.0, 0.0, 0.0, 1.696023940024828E9, 0.0, 2023-09-29 16:45:40.024
242.0, 26830.385843561395, 14174.0458219106, 8931.24299421823, -9256.25971034285, 8940.116636766987, -8760.45331483523, -187500.02235174447, 35151.80619380548, -24761.46367328926, 24655.98579120467, 3399.610924674383, -2476.2603612256485, 11516.825737574785, 224.7244387536572, -118853.52359456106, -9520.636143760223, 0.158, 0.996, -0.188, 192.0, 0.0, 0.0, 0.0, 0.0, 0.0, 0.0, 0.0, 0.0, 0.0, 1.696023940085133E9, 0.0, 2023-09-29 16:45:40.085
244.0, 27252.185613177495, 14686.504267037424, 8874.827191213035, -9312.541402881314, 8846.619289710437, -8826.972106334222, -187500.02235174447, 35545.420413663436, -24744.096367847487, 25150.473433789426, 3694.564544506615, -2111.189319037118, 11482.448754602523, 214.68850549322434, -118529.6244656592, -9598.867249353796, 0.158, 0.996, -0.188, 192.0, 0.0, 0.0, 0.0, 0.0, 0.0, 0.0, 0.0, 0.0, 0.0, 1.696023940085143E9, 0.0, 2023-09-29 16:45:40.085
246.0, 26791.560863442526, 14129.051760322067, 8967.430468491373, -9220.809843636733, 8942.57532865707, -8732.424227288273, -187500.02235174447, 35093.7810651995, -24740.65419920137, 24708.355928463454, 3423.7284569416593, -2450.779372546598, 11517.585696886266, 250.40659313280503, -118881.73149606366, -9511.427225044636, 0.158, 0.996, -0.188, 192.0, 0.0, 0.0, 0.0, 0.0, 0.0, 0.0, 0.0, 0.0, 0.0, 1.696023940085147E9, 0.0, 2023-09-29 16:45:40.085
248.0, 27291.815256096754, 14731.25245943695, 8854.218882825242, -9324.454882675993, 8858.979804394223, -8835.197548293776, -187500.02235174447, 35559.054977781176, -24720.425870469317, 25129.105166090154, 3699.280762586685, -2115.0114673389753, 11498.810231543808, 244.68454655224642, -118673.2120720401, -9576.291987453937, 0.158, 1.002, -0.186, 192.0, 2.0, 120.0, 15.5, 40.0, 125.0, 24.0, 0.0, 0.0, 0.0, 1.69602394008515E9, 0.0, 2023-09-29 16:45:40.085
250.0, 26767.733903853168, 14103.727233854204, 8975.320634284095, -9202.526116672292, 8924.246898203719, -8717.090930591934, -187500.02235174447, 35047.44589894365, -24771.14197863841, 24765.062304146566, 3428.6011372329162, -2420.470407065202, 11486.293254648836, 227.47370332165997, -118855.91523121778, -9531.36498109877, 0.158, 1.002, -0.186, 192.0, 0.0, 0.0, 0.0, 0.0, 0.0, 0.0, 0.0, 0.0, 0.0, 1.696023940085153E9, 0.0, 2023-09-29 16:45:40.085
252.0, 27304.39928822509, 14744.171767732118, 8853.70479270277, -9327.628830388645, 8886.271284374152, -8831.218937780732, -187500.02235174447, 35537.32908217062, -24705.807829595546, 25062.832243780165, 3676.6160937090035, -2150.9083689341987, 11513.741196839954, 259.8390292929446, -118817.80550692148, -9551.615661575277, 0.158, 1.002, -0.186, 192.0, 0.0, 0.0, 0.0, 0.0, 0.0, 0.0, 0.0, 0.0, 0.0, 1.696023940085156E9, 0.0, 2023-09-29 16:45:40.085
254.0, 26753.7640635686, 14095.50179189465, 8985.267160566707, -9189.00331127683, 8918.748369067713, -8716.643895702828, -187500.02235174447, 35009.35852639181, -24773.935946695325, 24816.426612904863, 3460.54178005955, -2385.1322990813615, 11484.303949392313, 219.60588927339188, -118863.29130688803, -9541.400914359203, 0.158, 1.002, -0.186, 192.0, 0.0, 0.0, 0.0, 0.0, 0.0, 0.0, 0.0, 0.0, 0.0, 1.69602394008516E9, 0.0, 2023-09-29 16:45:40.085
0.0, 27310.83659062822, 14749.849110823765, 8848.116856588944, -9325.907746065586, 8901.090490948021, -8837.298612272574, -187500.02235174447, 35521.07936395161, -24684.461913640727, 24995.397030758504, 3661.1039830570203, -2181.5526105824247, 11534.99770581695, 276.46872716769303, -118968.0315814056, -9531.052056676395, 0.158, 1.002, -0.186, 192.0, 0.0, 0.0, 0.0, 0.0, 0.0, 0.0, 0.0, 0.0, 0.0, 1.696023940144677E9, 0.0, 2023-09-29 16:45:40.144
2.0, 26765.632839874368, 14109.337521712485, 8997.247695594751, -9173.67001458049, 8902.945685737812, -8712.307657278498, -187500.02235174447, 34994.22639539557, -24782.541368310616, 24886.521683516705, 3493.778824064592, -2329.655269343289, 11476.12321092167, 216.4542933051936, -118859.98324870864, -9554.186112187637, 0.156, 0.996, -0.184, 192.0, 2.0, 112.0, 15.5, 16.0, 125.0, 32.0, 0.0, 0.0, 0.0, 1.696023940144691E9, 0.0, 2023-09-29 16:45:40.144
4.0, 27294.653927642576, 14720.747139542955, 8862.600786995983, -9319.783368084833, 8912.936915509334, -8835.488120971695, -187500.02235174447, 35479.080436120086, -24661.193747662754, 24923.044433956675, 3636.2041397338085, -2220.2658319790166, 11553.661412437132, 291.33263723047224, -119120.33636812406, -9515.852870446786, 0.156, 0.996, -0.184, 192.0, 0.0, 0.0, 0.0, 0.0, 0.0, 0.0, 0.0, 0.0, 0.0, 1.696023940144694E9, 0.0, 2023-09-29 16:45:40.144
6.0, 26788.29750875205, 14137.74658891518, 8992.933808914877, -9185.561142630713, 8880.258665115674, -8743.667154749293, -187500.02235174447, 35001.535415832455, -24758.13326336542, 24948.12309123553, 3543.1091240774545, -2277.575704762424, 11484.639225559144, 205.92662166674396, -118873.75192329311, -9569.877036795264, 0.156, 0.996, -0.184, 192.0, 0.0, 0.0, 0.0, 0.0, 0.0, 0.0, 0.0, 0.0, 0.0, 1.696023940144697E9, 0.0, 2023-09-29 16:45:40.144
8.0, 27242.417900850523, 14664.599557471223, 8838.572661706527, -9344.593804430224, 8920.514156879683, -8860.700888717281, -187500.02235174447, 35440.121345534484, -24684.104285729445, 24844.902735340922, 3579.8777437064346, -2281.9342949312086, 11547.984069345483, 258.9673112591876, -119243.62859053953, -9530.716780509565, 0.156, 0.996, -0.184, 192.0, 0.0, 0.0, 0.0, 0.0, 0.0, 0.0, 0.0, 0.0, 0.0, 1.696023940144701E9, 0.0, 2023-09-29 16:45:40.144
10.0, 26824.797907447566, 14191.122554674454, 8975.745317428746, -9205.208326006928, 8858.8903974164, -8758.39695434534, -187500.02235174447, 35042.88614307477, -24791.66088004838, 25007.53402799774, 3550.3287375365185, -2251.3347567718934, 11459.404106069102, 170.2532375160739, -118868.43220811275, -9605.818641879398, 0.156, 0.996, -0.184, 192.0, 0.0, 0.0, 0.0, 0.0, 0.0, 0.0, 0.0, 0.0, 0.0, 1.696023940144704E9, 0.0, 2023-09-29 16:45:40.144
12.0, 27187.94669961294, 14600.60651309568, 8839.109103573455, -9346.47135096447, 8924.626877859459, -8848.698001944782, -187500.02235174447, 35381.51507157267, -24689.200483465254, 24763.05064714559, 3536.180083296309, -2339.17711248125, 11543.089037309772, 258.67673858126864, -119348.5700307572, -9520.054998404385, 0.152, 0.996, -0.192, 192.0, 2.0, 96.0, 15.5, 16.0, 125.0, 0.0, 0.0, 0.0, 0.0, 1.696023940144707E9, 0.0, 2023-09-29 16:45:40.144
14.0, 26869.389637635904, 14249.77353212518, 8943.402343201917, -9231.426922253004, 8835.063437827044, -8771.36096612942, -187500.02235174447, 35093.64695473277, -24792.95728122679, 25055.56792683219, 3578.9166186948564, -2217.673029622201, 11431.21855631096, 154.2046849971634, -118872.16494943679, -9625.018790366506, 0.152, 0.996, -0.192, 192.0, 0.0, 0.0, 0.0, 0.0, 0.0, 0.0, 0.0, 0.0, 0.0, 1.69602394014471E9, 0.0, 2023-09-29 16:45:40.144
16.0, 27117.203428411893, 14519.648494678557, 8861.259682328664, -9323.158481497585, 8952.141875283942, -8819.88660334189, -187500.02235174447, 35321.500637710174, -24688.798152065057, 24712.17807676531, 3481.0383297250664, -2395.5482119975345, 11542.552595442843, 263.7058810837127, -119448.03529358332, -9509.192050599106, 0.152, 0.996, -0.192, 192.0, 0.0, 0.0, 0.0, 0.0, 0.0, 0.0, 0.0, 0.0, 0.0, 1.696023940204316E9, 0.0, 2023-09-29 16:45:40.204
18.0, 26942.390435026937, 14336.744169800779, 8952.186578772853, -9231.002239108353, 8835.041086082589, -8766.35417537143, -187500.02235174447, 35161.03746426552, -24759.407312799372, 25142.337398807693, 3627.084627996043, -2159.37968008276, 11449.435228042035, 187.97817086913238, -118932.96169435522, -9607.830298880375, 0.152, 0.996, -0.192, 192.0, 0.0, 0.0, 0.0, 0.0, 0.0, 0.0, 0.0, 0.0, 0.0, 1.696023940204324E9, 0.0, 2023-09-29 16:45:40.204
20.0, 27059.334762017104, 14445.932441464955, 8885.533676807127, -9309.568620868757, 8953.39357297344, -8800.753510088147, -187500.02235174447, 35267.878802761894, -24659.472663339697, 24674.805960036036, 3480.434832624773, -2410.1662528713055, 11553.482598481489, 282.9060295708215, -119543.74546334094, -9479.888913618197, 0.152, 0.996, -0.192, 192.0, 0.0, 0.0, 0.0, 0.0, 0.0, 0.0, 0.0, 0.0, 0.0, 1.696023940204328E9, 0.0, 2023-09-29 16:45:40.204
22.0, 27019.079270253096, 14427.156976122496, 8944.207006002309, -9236.478416499904, 8832.560042448049, -8769.885750995369, -187500.02235174447, 35230.03729939905, -24751.42774002883, 25166.924317708534, 3670.1564395614196, -2112.7539411489893, 11447.110646618683, 190.95095288168824, -118989.06457293805, -9595.626246407777, 0.15, 1.0, -0.196, 192.0, 2.0, 88.0, 15.5, 32.0, 124.5, 112.0, 0.0, 0.0, 0.0, 1.696023940204331E9, 0.0, 2023-09-29 16:45:40.204
24.0, 26994.514703096713, 14367.969556804843, 8916.870822533469, -9273.31409136225, 8975.231227306274, -8771.808001018524, -187500.02235174447, 35208.26670029959, -24653.013009192113, 24661.327858129487, 3454.2385881231535, -2423.532596055579, 11558.355278772746, 285.94586681674326, -119616.72390898752, -9454.832608083798, 0.15, 1.0, -0.196, 192.0, 0.0, 0.0, 0.0, 0.0, 0.0, 0.0, 0.0, 0.0, 0.0, 1.696023940204334E9, 0.0, 2023-09-29 16:45:40.204
26.0, 27096.7962857242, 14517.502727210847, 8921.855261547002, -9263.680489502012, 8837.723295417225, -8794.159745473831, -187500.02235174447, 35325.72511741223, -24717.766012879136, 25222.356643957693, 3700.241887598263, -2077.214667465051, 11467.875417217663, 215.71668573816845, -119083.92537640636, -9563.260920436493, 0.15, 1.0, -0.196, 192.0, 0.0, 0.0, 0.0, 0.0, 0.0, 0.0, 0.0, 0.0, 0.0, 1.696023940204338E9, 0.0, 2023-09-29 16:45:40.204
28.0, 26923.458507473293, 14283.949349397344, 8922.011723758189, -9266.653271514568, 8962.9154161114, -8771.226855662688, -187500.02235174447, 35159.8975252983, -24660.389084862363, 24660.858471495925, 3434.0549628800113, -2446.9572242447407, 11538.641040163166, 270.38905267584954, -119653.9395635056, -9453.916186561131, 0.15, 1.0, -0.196, 192.0, 0.0, 0.0, 0.0, 0.0, 0.0, 0.0, 0.0, 0.0, 0.0, 1.696023940204341E9, 0.0, 2023-09-29 16:45:40.204
30.0, 27168.165405769996, 14594.593893837202, 8888.238237886218, -9302.12548996514, 8841.120760574433, -8824.044027810578, -187500.02235174447, 35406.83959804053, -24693.98375677869, 25202.396536159104, 3704.600477767048, -2076.3653011757497, 11463.628585771154, 206.6865809782244, -119173.91349958343, -9565.56315011539, 0.15, 1.0, -0.196, 192.0, 0.0, 0.0, 0.0, 0.0, 0.0, 0.0, 0.0, 0.0, 0.0, 1.696023940264583E9, 0.0, 2023-09-29 16:45:40.264
32.0, 26861.901803243378, 14213.496650874216, 8933.209947730296, -9261.35590807866, 8961.261387021708, -8763.336689869964, -187500.02235174447, 35120.53610331251, -24693.737887589683, 24640.20545961922, 3412.284363780542, -2460.3235674290145, 11507.438004903557, 241.42119186177158, -119654.65481932818, -9470.59058792479, 0.146, 0.998, -0.194, 192.0, 2.0, 72.0, 15.5, 24.0, 124.5, 120.0, 0.0, 0.0, 0.0, 1.696023940264594E9, 0.0, 2023-09-29 16:45:40.264
34.0, 27228.269246610314, 14665.225406315973, 8883.700833761792, -9305.701769077989, 8879.9457406933, -8816.9808765627, -187500.02235174447, 35465.11059583552, -24695.74954459066, 25186.057410962276, 3710.5236900477043, -2081.8191268228443, 11483.834562758751, 230.42413358976052, -119277.51383513378, -9549.201673174104, 0.146, 0.998, -0.194, 192.0, 0.0, 0.0, 0.0, 0.0, 0.0, 0.0, 0.0, 0.0, 0.0, 1.696023940264597E9, 0.0, 2023-09-29 16:45:40.264
36.0, 26803.36258451493, 14151.939946644301, 8941.837721090045, -9250.425905040014, 8950.130218282964, -8752.272576364587, -187500.02235174447, 35066.71310266413, -24695.078992257, 24692.7767625781, 3420.9791923736566, -2442.173950931305, 11518.837394575763, 249.66898556577988, -119669.18345322412, -9468.668337901634, 0.146, 0.998, -0.194, 192.0, 0.0, 0.0, 0.0, 0.0, 0.0, 0.0, 0.0, 0.0, 0.0, 1.696023940264601E9, 0.0, 2023-09-29 16:45:40.264
38.0, 27256.611258579644, 14704.989159701963, 8838.483254728706, -9349.935871355043, 8864.9924236527, -8851.827246168525, -187500.02235174447, 35504.85199747705, -24678.538701360074, 25144.751387208868, 3701.5159370322153, -2103.5897259223134, 11481.353519124214, 226.31141260998402, -119407.51158088584, -9549.894577252218, 0.146, 0.998, -0.194, 192.0, 0.0, 0.0, 0.0, 0.0, 0.0, 0.0, 0.0, 0.0, 0.0, 1.696023940264604E9, 0.0, 2023-09-29 16:45:40.264
40.0, 26760.76015958311, 14111.595047902472, 8947.604471159515, -9239.58530897919, 8951.404267716916, -8741.186111114754, -187500.02235174447, 35036.895875560745, -24741.816489913046, 24716.17903902281, 3403.0530933205005, -2439.134113685383, 11484.594522070232, 224.23270037564046, -119653.42547338313, -9494.529306236424, 0.146, 0.998, -0.194, 192.0, 0.0, 0.0, 0.0, 0.0, 0.0, 0.0, 0.0, 0.0, 0.0, 1.696023940264607E9, 0.0, 2023-09-29 16:45:40.264
42.0, 27287.568424650246, 14742.026000264408, 8841.567795463538, -9338.827054360754, 8895.122575178453, -8843.199472808776, -187500.02235174447, 35523.51570409724, -24664.770026775604, 25090.794276093755, 3682.4946025007494, -2124.823883154855, 11504.688740335554, 253.5134856120927, -119528.09924222223, -9521.798434471899, 0.146, 0.992, -0.188, 192.0, 2.0, 72.0, 15.5, 0.0, 125.0, 16.0, 0.0, 0.0, 0.0, 1.69602394026461E9, 0.0, 2023-09-29 16:45:40.264
44.0, 26743.10228146342, 14096.082937250489, 8972.146686571443, -9205.096567284652, 8961.596663188537, -8724.645820217827, -187500.02235174447, 34999.90373848721, -24734.865097387446, 24784.10599042249, 3456.406707335318, -2383.277104291571, 11496.75387105392, 241.75646802860118, -119663.7966828104, -9473.965701337542, 0.146, 0.992, -0.188, 192.0, 0.0, 0.0, 0.0, 0.0, 0.0, 0.0, 0.0, 0.0, 0.0, 1.696023940264613E9, 0.0, 2023-09-29 16:45:40.264
46.0, 27294.944500320496, 14750.698477113066, 8831.911841858846, -9338.111798538184, 8949.392610715939, -8845.412295509852, -187500.02235174447, 35507.71302076733, -24676.79526529256, 25035.652522522512, 3682.718119945302, -2141.542988007425, 11516.401054430135, 274.9711602891875, -119686.57311041035, -9485.812125898854, 0.146, 0.992, -0.188, 192.0, 0.0, 0.0, 0.0, 0.0, 0.0, 0.0, 0.0, 0.0, 0.0, 1.696023940324837E9, 0.0, 2023-09-29 16:45:40.324
48.0, 26736.642627315836, 14096.798193073058, 8953.974718329277, -9212.472642954903, 8949.906700838412, -8740.82848320347, -187500.02235174447, 34959.26826706747, -24758.20031859879, 24842.68991263985, 3481.351254147441, -2343.0663160164736, 11468.79183874033, 210.732246724635, -119645.04356921239, -9496.898591148685, 0.146, 0.992, -0.188, 192.0, 0.0, 0.0, 0.0, 0.0, 0.0, 0.0, 0.0, 0.0, 0.0, 1.696023940324847E9, 0.0, 2023-09-29 16:45:40.324
50.0, 27286.048506027284, 14733.554689115846, 8837.633888439404, -9331.674496135056, 8969.553884214627, -8847.267490299642, -187500.02235174447, 35437.79676411114, -24661.059637196024, 24949.8888790475, 3649.0116893066993, -2198.986971257564, 11521.385493443668, 265.65048285132445, -119818.69427188567, -9478.614864184245, 0.146, 0.992, -0.188, 192.0, 0.0, 0.0, 0.0, 0.0, 0.0, 0.0, 0.0, 0.0, 0.0, 1.696023940324851E9, 0.0, 2023-09-29 16:45:40.324
52.0, 26754.43461590226, 14116.445376449274, 8972.884294138466, -9186.455212408926, 8955.002898574221, -8730.814901687492, -187500.02235174447, 34905.735839097004, -24765.75520822468, 24925.92780899141, 3534.771923395625, -2289.0868531569067, 11463.472123559968, 209.30173507949533, -119647.90459250267, -9501.435995273114, 0.15, 0.99, -0.184, 192.0, 2.0, 88.0, 15.0, 120.0, 125.0, 32.0, 0.0, 0.0, 0.0, 1.69602394032486E9, 0.0, 2023-09-29 16:45:40.324
54.0, 27253.90669750055, 14689.700566494534, 8823.574641177016, -9344.504397452403, 8982.473192509793, -8847.423952510828, -187500.02235174447, 35353.32952181453, -24670.0226867226, 24865.667505939902, 3620.513215126183, -2238.8848351102874, 11529.096845280748, 281.43081443677124, -119973.72597142769, -9460.35348896426, 0.15, 0.99, -0.184, 192.0, 0.0, 0.0, 0.0, 0.0, 0.0, 0.0, 0.0, 0.0, 0.0, 1.696023940324865E9, 0.0, 2023-09-29 16:45:40.324
56.0, 26793.840741376967, 14159.248967081186, 8959.62970967647, -9205.722416129402, 8936.160377998398, -8745.857625705914, -187500.02235174447, 34912.93310081161, -24770.493778049207, 24972.57589966964, 3561.437554530806, -2250.217169549128, 11446.060114629283, 200.40574078628313, -119658.5440228634, -9524.145367639705, 0.15, 0.99, -0.184, 192.0, 0.0, 0.0, 0.0, 0.0, 0.0, 0.0, 0.0, 0.0, 0.0, 1.696023940324869E9, 0.0, 2023-09-29 16:45:40.324
58.0, 27216.33341507118, 14629.507318676391, 8845.188778065298, -9331.786254857332, 9000.10871888503, -8828.26850751263, -187500.02235174447, 35278.160605211335, -24685.1771694633, 24810.39164190193, 3579.855391961979, -2290.182088635217, 11534.036580805372, 274.0100352776093, -120077.41571395585, -9449.401134181158, 0.15, 0.99, -0.184, 192.0, 0.0, 0.0, 0.0, 0.0, 0.0, 0.0, 0.0, 0.0, 0.0, 1.696023940324872E9, 0.0, 2023-09-29 16:45:40.324
60.0, 26855.55390781807, 14221.409168411396, 8965.977605101778, -9202.72728237239, 8920.29063943513, -8743.622451260382, -187500.02235174447, 34930.16629578666, -24769.957336182277, 25048.728293028867, 3615.886404023934, -2200.350427669338, 11445.613079740177, 199.26580181906246, -119671.03864801391, -9525.955858940586, 0.15, 0.99, -0.184, 192.0, 0.0, 0.0, 0.0, 0.0, 0.0, 0.0, 0.0, 0.0, 0.0, 1.696023940385266E9, 0.0, 2023-09-29 16:45:40.385
62.0, 27163.538594667745, 14559.434599809003, 8863.293691074097, -9319.51514715137, 8999.818146207112, -8817.494966685172, -187500.02235174447, 35194.274508270566, -24672.391971634865, 24740.296571290088, 3556.2295980727195, -2333.4103624117806, 11541.010325075427, 288.76218661811197, -120198.49511367026, -9428.524604859902, 0.152, 1.0, -0.192, 192.0, 2.0, 96.0, 15.5, 32.0, 125.0, 0.0, 0.0, 0.0, 0.0, 1.696023940385277E9, 0.0, 2023-09-29 16:45:40.385
64.0, 26914.18253352434, 14289.40317504444, 8954.667622407393, -9222.709741915434, 8896.262514145674, -8753.211349631709, -187500.02235174447, 34946.88540063923, -24787.77167651316, 25096.695136629958, 3650.15162827392, -2155.311662591894, 11431.956163877985, 189.2745720475402, -119704.76743039697, -9540.685658536633, 0.152, 1.0, -0.192, 192.0, 0.0, 0.0, 0.0, 0.0, 0.0, 0.0, 0.0, 0.0, 0.0, 1.696023940385281E9, 0.0, 2023-09-29 16:45:40.385
66.0, 27101.534855548725, 14480.376479670584, 8882.76206049467, -9302.84074578771, 9006.50131779925, -8795.567905374517, -187500.02235174447, 35106.43215256121, -24672.615489079417, 24698.387050436384, 3513.9400975632784, -2376.9962640996296, 11536.115293039715, 281.34140745895, -120296.68632706242, -9430.156282205138, 0.152, 1.0, -0.192, 192.0, 0.0, 0.0, 0.0, 0.0, 0.0, 0.0, 0.0, 0.0, 0.0, 1.696023940385284E9, 0.0, 2023-09-29 16:45:40.385
68.0, 26992.145418184453, 14376.217350508852, 8948.878520593467, -9229.839948396677, 8889.646397786904, -8758.575768300983, -187500.02235174447, 34995.27692738497, -24761.106045377976, 25172.51225382236, 3690.5188787602046, -2105.0649410563638, 11449.234062341937, 214.35322932639474, -119756.84699497784, -9528.45925431958, 0.152, 1.0, -0.192, 192.0, 0.0, 0.0, 0.0, 0.0, 0.0, 0.0, 0.0, 0.0, 0.0, 1.696023940385288E9, 0.0, 2023-09-29 16:45:40.385
70.0, 27031.238619236785, 14396.110403074075, 8888.059423930577, -9304.874754533143, 9001.338064830074, -8799.41240542083, -187500.02235174447, 35024.78123006597, -24698.54351264757, 24662.467797096706, 3484.033463482078, -2403.9971714016406, 11526.034656290372, 275.82052657848914, -120348.36356024309, -9430.759779305432, 0.152, 1.0, -0.192, 192.0, 0.0, 0.0, 0.0, 0.0, 0.0, 0.0, 0.0, 0.0, 0.0, 1.696023940385291E9, 0.0, 2023-09-29 16:45:40.385
72.0, 27066.084988842606, 14457.845921259634, 8942.731790868258, -9249.129503861608, 8889.42288034235, -8775.518390598107, -187500.02235174447, 35038.68401511717, -24772.818359472556, 25173.898061978587, 3696.956181163333, -2093.8443653398, 11432.02321911135, 204.49611002160432, -119799.44941990965, -9549.782818529942, 0.14200000000000002, 0.998, -0.19, 192.0, 2.0, 56.0, 15.5, 24.0, 125.0, 8.0, 0.0, 0.0, 0.0, 1.696023940385294E9, 0.0, 2023-09-29 16:45:40.385
74.0, 26965.256269604717, 14306.099928152553, 8936.428598931861, -9262.49584704588, 9017.319562115617, -8763.962538714712, -187500.02235174447, 34923.639586405705, -24697.1800562358, 24619.798316931527, 3461.905236471324, -2432.205072904238, 11532.42725520459, 278.01099753510925, -120416.93871223197, -9419.516851844413, 0.14200000000000002, 0.998, -0.19, 192.0, 0.0, 0.0, 0.0, 0.0, 0.0, 0.0, 0.0, 0.0, 0.0, 1.696023940385298E9, 0.0, 2023-09-29 16:45:40.385
76.0, 27142.684417090943, 14541.419093778026, 8926.124444737965, -9262.987585423898, 8886.76302275217, -8793.377434417896, -187500.02235174447, 35096.35151581187, -24741.90589689087, 25207.000995516897, 3733.9706699813214, -2056.6510625661685, 11454.710239733487, 216.54370028301483, -119904.7037845497, -9535.321239867359, 0.14200000000000002, 0.998, -0.19, 192.0, 0.0, 0.0, 0.0, 0.0, 0.0, 0.0, 0.0, 0.0, 0.0, 1.696023940444549E9, 0.0, 2023-09-29 16:45:40.444
78.0, 26899.385678694925, 14230.059293515598, 8933.165244241387, -9263.479323801914, 8995.280742082685, -8768.946977728245, -187500.02235174447, 34868.78840551239, -24738.642542200392, 24647.35801784492, 3447.264843853098, -2432.3168316265146, 11502.408862401113, 256.4639158801932, -120426.99699723686, -9442.092113744273, 0.14200000000000002, 0.998, -0.19, 192.0, 0.0, 0.0, 0.0, 0.0, 0.0, 0.0, 0.0, 0.0, 0.0, 1.696023940444559E9, 0.0, 2023-09-29 16:45:40.444
80.0, 27205.291653310258, 14611.335350434227, 8902.878630504445, -9287.775670024834, 8889.087604175522, -8806.296742713064, -187500.02235174447, 35148.98987400411, -24749.57254523904, 25170.83587298821, 3727.6451263004697, -2068.2963214273836, 11439.26518431487, 216.87897644984443, -119978.0175063631, -9548.978155729552, 0.14200000000000002, 0.998, -0.19, 192.0, 0.0, 0.0, 0.0, 0.0, 0.0, 0.0, 0.0, 0.0, 0.0, 1.696023940444563E9, 0.0, 2023-09-29 16:45:40.444
82.0, 26840.421776821826, 14160.746533959691, 8965.329404512573, -9224.49788147186, 9004.087329398077, -8728.691485964238, -187500.02235174447, 34792.568956919786, -24739.246039300688, 24664.07712269749, 3437.4300762927624, -2437.077753195495, 11495.301007664324, 265.471668895682, -120440.92213403252, -9444.506102145446, 0.148, 0.998, -0.19, 192.0, 2.0, 80.0, 15.5, 24.0, 125.0, 8.0, 0.0, 0.0, 0.0, 1.696023940444566E9, 0.0, 2023-09-29 16:45:40.444
84.0, 27255.225450423415, 14666.611214472201, 8881.689176760814, -9307.288742934315, 8894.004987955688, -8815.080978283999, -187500.02235174447, 35193.87217687037, -24731.020597341132, 25160.509367049857, 3733.0095449697433, -2067.089327226797, 11452.564472265778, 249.62428207686926, -120109.2445980602, -9525.039437417918, 0.148, 0.998, -0.19, 192.0, 0.0, 0.0, 0.0, 0.0, 0.0, 0.0, 0.0, 0.0, 0.0, 1.696023940444569E9, 0.0, 2023-09-29 16:45:40.444
86.0, 26795.204197788742, 14108.801079845558, 8977.578160474082, -9219.044055824765, 8989.983378646777, -8720.287230049042, -187500.02235174447, 34747.127860442146, -24747.382074282417, 24694.90017830136, 3436.9830414036564, -2425.6113082899224, 11477.46431558899, 248.99843323212068, -120438.06111074223, -9457.760686607444, 0.148, 0.998, -0.19, 192.0, 0.0, 0.0, 0.0, 0.0, 0.0, 0.0, 0.0, 0.0, 0.0, 1.696023940444573E9, 0.0, 2023-09-29 16:45:40.444
88.0, 27289.915357818052, 14704.318607368305, 8861.483199773216, -9325.37130419866, 8899.27999964714, -8825.65335341136, -187500.02235174447, 35217.83324692646, -24724.113908304444, 25099.042069797764, 3718.235041884785, -2098.024141552942, 11468.79183874033, 251.56888384448098, -120240.91872464643, -9517.797472214399, 0.148, 0.998, -0.19, 192.0, 0.0, 0.0, 0.0, 0.0, 0.0, 0.0, 0.0, 0.0, 0.0, 1.696023940444576E9, 0.0, 2023-09-29 16:45:40.444
90.0, 26767.644496875346, 14075.966367240711, 8989.089308868564, -9197.452270680937, 8970.380898759473, -8708.038474087534, -187500.02235174447, 34714.65077574859, -24772.12545539444, 24746.2421353152, 3447.600120019927, -2403.95246791273, 11459.98525142494, 235.27446213656214, -120425.25356116935, -9475.910303105153, 0.148, 0.998, -0.19, 192.0, 0.0, 0.0, 0.0, 0.0, 0.0, 0.0, 0.0, 0.0, 0.0, 1.696023940504217E9, 0.0, 2023-09-29 16:45:40.504
92.0, 27311.373032495147, 14723.96579074452, 8850.352031034474, -9341.598670673213, 8907.393682884418, -8845.479350743217, -187500.02235174447, 35231.84779069994, -24707.283044729596, 25051.92459248598, 3699.3478178200508, -2124.9803453660425, 11478.648958045122, 268.31034044150596, -120380.75123795883, -9501.234829573015, 0.15, 0.998, -0.194, 192.0, 2.0, 88.0, 15.5, 24.0, 124.5, 120.0, 0.0, 0.0, 0.0, 1.69602394050423E9, 0.0, 2023-09-29 16:45:40.504
94.0, 26759.687275849257, 14072.010108472123, 9006.21074512133, -9192.49018341186, 8950.420790960883, -8717.135634080843, -187500.02235174447, 34703.11727560965, -24788.263414891175, 24791.884397492933, 3462.1734574047873, -2370.916589607786, 11435.755960435386, 208.65353449029143, -120402.79005799176, -9506.26397207546, 0.15, 0.998, -0.194, 192.0, 0.0, 0.0, 0.0, 0.0, 0.0, 0.0, 0.0, 0.0, 0.0, 1.696023940504233E9, 0.0, 2023-09-29 16:45:40.504
96.0, 27318.25736978738, 14728.637305335678, 8867.987557409711, -9335.295478736816, 8936.71917160978, -8843.311231531052, -187500.02235174447, 35226.05868888601, -24669.59800357795, 24986.18811204292, 3679.767689677202, -2160.184342883151, 11506.834507803263, 274.4347184222601, -120513.47589653444, -9482.168791552638, 0.15, 0.998, -0.194, 192.0, 0.0, 0.0, 0.0, 0.0, 0.0, 0.0, 0.0, 0.0, 0.0, 1.696023940504236E9, 0.0, 2023-09-29 16:45:40.504
98.0, 26770.594927143447, 14087.745736568659, 9007.663608510926, -9187.014006020308, 8932.986430285744, -8717.649724203317, -187500.02235174447, 34708.52639776783, -24785.491798578718, 24870.361372275518, 3513.962449307734, -2315.327801147437, 11436.761788935875, 210.50872928008192, -120396.79979047773, -9511.047245388896, 0.15, 0.998, -0.194, 192.0, 0.0, 0.0, 0.0, 0.0, 0.0, 0.0, 0.0, 0.0, 0.0, 1.696023940504239E9, 0.0, 2023-09-29 16:45:40.504
100.0, 27295.346831720693, 14697.7695462429, 8862.17610385133, -9342.917423596076, 8953.125352039975, -8841.970126863735, -187500.02235174447, 35206.61267120989, -24686.674736341804, 24897.272872599708, 3638.14874150142, -2215.348448198849, 11499.99487399994, 278.5250876575813, -120642.60192425275, -9478.97249209553, 0.15, 0.998, -0.194, 192.0, 0.0, 0.0, 0.0, 0.0, 0.0, 0.0, 0.0, 0.0, 0.0, 1.696023940504243E9, 0.0, 2023-09-29 16:45:40.504
102.0, 26796.9252821118, 14123.396768974873, 9019.420626094416, -9185.404680419526, 8932.00295352971, -8715.705122435704, -187500.02235174447, 34732.71098526847, -24788.1516561689, 24943.74214932229, 3549.859350902957, -2268.5232482580245, 11428.40223650959, 199.46696751916022, -120382.42761879298, -9522.871318205753, 0.15, 1.0, -0.188, 192.0, 2.0, 88.0, 15.5, 32.0, 125.0, 16.0, 0.0, 0.0, 0.0, 1.696023940504246E9, 0.0, 2023-09-29 16:45:40.504
104.0, 27262.646229582577, 14658.788103912844, 8872.837885956513, -9333.686153136034, 8967.475171980283, -8832.89531861488, -187500.02235174447, 35185.06558955498, -24686.85355029745, 24841.0135318057, 3608.9797149872443, -2251.8711986388207, 11513.495327650944, 286.59406740594716, -120763.63662047824, -9453.44679992757, 0.15, 1.0, -0.188, 192.0, 0.0, 0.0, 0.0, 0.0, 0.0, 0.0, 0.0, 0.0, 0.0, 1.696023940504249E9, 0.0, 2023-09-29 16:45:40.504
106.0, 26846.188526891296, 14189.602636051493, 9021.007599950743, -9184.398851919039, 8914.52388936566, -8716.934468380747, -187500.02235174447, 34801.84493086874, -24812.604464603006, 25026.7565282293, 3580.123612895443, -2210.095788251852, 11407.481003699422, 194.12490059434185, -120351.87278412256, -9536.036495689928, 0.15, 1.0, -0.188, 192.0, 0.0, 0.0, 0.0, 0.0, 0.0, 0.0, 0.0, 0.0, 0.0, 1.696023940564585E9, 0.0, 2023-09-29 16:45:40.564
108.0, 27215.52875227079, 14604.629827097635, 8909.67356081886, -9305.277085933338, 8995.21368684932, -8795.59025711897, -187500.02235174447, 35140.42915587773, -24677.15289320384, 24776.461693818772, 3575.608560515471, -2292.9984084365856, 11524.984124300972, 304.6095734369247, -120853.51298493303, -9427.071741470307, 0.15, 1.0, -0.188, 192.0, 0.0, 0.0, 0.0, 0.0, 0.0, 0.0, 0.0, 0.0, 0.0, 1.696023940564594E9, 0.0, 2023-09-29 16:45:40.564
110.0, 26904.794800853113, 14261.798770642135, 9011.128128901497, -9197.809898592222, 8897.223639157253, -8722.544756239027, -187500.02235174447, 34865.413292099634, -24795.1030486945, 25091.59893889415, 3630.929128042356, -2151.131886378752, 11418.433358482524, 209.9052321797886, -120378.06902862419, -9531.432036332135, 0.15, 1.0, -0.188, 192.0, 0.0, 0.0, 0.0, 0.0, 0.0, 0.0, 0.0, 0.0, 0.0, 1.696023940564598E9, 0.0, 2023-09-29 16:45:40.564
112.0, 27154.106158507606, 14529.997352361364, 8936.942689054333, -9287.485097346915, 9009.78702423418, -8772.053870207534, -187500.02235174447, 35084.23687031709, -24684.886596785378, 24704.913759817337, 3535.0177925846333, -2332.8068653114874, 11516.80338583033, 308.11879731640784, -120935.32036963945, -9423.227241423994, 0.156, 1.002, -0.186, 192.0, 2.0, 112.0, 15.5, 40.0, 125.0, 24.0, 0.0, 0.0, 0.0, 1.696023940564601E9, 0.0, 2023-09-29 16:45:40.564
114.0, 26975.873348220986, 14350.959879274355, 9021.611097051036, -9194.39008169056, 8904.487956105228, -8724.444654517729, -187500.02235174447, 34927.14881028519, -24780.641470031915, 25131.474451002414, 3674.8726576414897, -2098.761749119967, 11432.000867366894, 218.0189154170651, -120422.88427625709, -9521.194937371605, 0.156, 1.002, -0.186, 192.0, 0.0, 0.0, 0.0, 0.0, 0.0, 0.0, 0.0, 0.0, 0.0, 1.696023940564604E9, 0.0, 2023-09-29 16:45:40.564
116.0, 27089.107285631573, 14460.14815093853, 8957.975680586778, -9264.082820902207, 9007.507146299738, -8756.385297344363, -187500.02235174447, 35026.52466613348, -24692.41913466682, 24695.682489357292, 3512.0401992845777, -2348.27427247456, 11522.65954287762, 301.36857049090514, -121013.39501302184, -9412.744273274455, 0.156, 1.002, -0.186, 192.0, 0.0, 0.0, 0.0, 0.0, 0.0, 0.0, 0.0, 0.0, 0.0, 1.696023940564608E9, 0.0, 2023-09-29 16:45:40.564
118.0, 27057.747788160777, 14447.407656599005, 9018.481852827294, -9199.91096257102, 8888.059423930577, -8733.675924977772, -187500.02235174447, 34988.32553485937, -24766.358705324976, 25195.109867466675, 3717.3856755954835, -2049.7667252739343, 11436.69473370251, 237.44258134872692, -120471.45461695846, -9523.45246356159, 0.156, 1.002, -0.186, 192.0, 0.0, 0.0, 0.0, 0.0, 0.0, 0.0, 0.0, 0.0, 0.0, 1.696023940564611E9, 0.0, 2023-09-29 16:45:40.564
120.0, 27024.73426160029, 14381.134734289019, 8989.402233290939, -9240.099399101664, 9015.911402214933, -8732.178358099265, -187500.02235174447, 34943.95732211558, -24687.434695653286, 24660.836119751468, 3499.970257278712, -2364.725156393666, 11530.683819137075, 317.7076956877346, -121090.66499360383, -9398.640322523157, 0.156, 1.002, -0.186, 192.0, 0.0, 0.0, 0.0, 0.0, 0.0, 0.0, 0.0, 0.0, 0.0, 1.69602394062419E9, 0.0, 2023-09-29 16:45:40.624
122.0, 27127.32876865015, 14531.204346561952, 8990.54217225816, -9225.861337883633, 8875.363633079962, -8755.424172332785, -187500.02235174447, 35057.61594267082, -24760.144920366398, 25203.335309426227, 3741.7714287962235, -2019.3907045591718, 11431.285611544325, 241.66706105077995, -120549.59631557422, -9526.715818252065, 0.15, 1.002, -0.184, 192.0, 2.0, 88.0, 15.5, 40.0, 125.0, 32.0, 0.0, 0.0, 0.0, 1.696023940624202E9, 0.0, 2023-09-29 16:45:40.624
124.0, 26953.99099039924, 14300.914323438923, 8999.751090973747, -9227.224794295405, 8993.202029848342, -8729.071465619978, -187500.02235174447, 34878.824338772814, -24716.89429484538, 24652.185994647265, 3467.426117351785, -2386.7863281710543, 11505.202830458025, 293.9030878428326, -121111.22859850271, -9415.135909931172, 0.15, 1.002, -0.184, 192.0, 0.0, 0.0, 0.0, 0.0, 0.0, 0.0, 0.0, 0.0, 0.0, 1.696023940624205E9, 0.0, 2023-09-29 16:45:40.624
126.0, 27201.42480151949, 14616.208030725484, 8968.01161384721, -9252.884596930098, 8873.79901096809, -8776.010128976122, -187500.02235174447, 35121.81015274646, -24746.599763226484, 25209.482039151437, 3752.0979347345756, -2018.451931292049, 11434.996001123905, 240.70593603920176, -120625.972226378, -9533.108417166284, 0.15, 1.002, -0.184, 192.0, 0.0, 0.0, 0.0, 0.0, 0.0, 0.0, 0.0, 0.0, 0.0, 1.696023940624208E9, 0.0, 2023-09-29 16:45:40.624
128.0, 26895.47412341525, 14230.774549338168, 9017.543079560171, -9210.349227231649, 8994.386672304472, -8716.889764891836, -187500.02235174447, 34824.08491660177, -24726.617303683437, 24644.586401532462, 3457.8819224693684, -2398.14101435435, 11491.210638429004, 290.37151221889405, -121110.66980489134, -9432.346753161759, 0.15, 1.002, -0.184, 192.0, 0.0, 0.0, 0.0, 0.0, 0.0, 0.0, 0.0, 0.0, 0.0, 1.696023940624212E9, 0.0, 2023-09-29 16:45:40.624
130.0, 27256.54420334628, 14676.870665177186, 8952.790075873147, -9267.994376181887, 8874.268397601652, -8792.50571638414, -187500.02235174447, 35159.11521424237, -24735.80387065457, 25194.573425599745, 3757.6411673594916, -2021.2011958600517, 11443.467312272467, 246.8526657644112, -120718.41904144514, -9529.93446945363, 0.15, 1.002, -0.184, 192.0, 0.0, 0.0, 0.0, 0.0, 0.0, 0.0, 0.0, 0.0, 0.0, 1.696023940624215E9, 0.0, 2023-09-29 16:45:40.624
132.0, 26836.577276775515, 14167.13913287391, 9019.35357086105, -9204.738939373367, 8965.709384168315, -8716.174509069266, -187500.02235174447, 34755.509764612885, -24763.631792501426, 24689.60281486545, 3446.929567686268, -2393.201278829727, 11476.570245810777, 269.9643695311987, -121114.15667702636, -9450.071686514817, 0.15, 1.0, -0.188, 192.0, 2.0, 88.0, 15.5, 32.0, 125.0, 16.0, 0.0, 0.0, 0.0, 1.696023940624218E9, 0.0, 2023-09-29 16:45:40.624
134.0, 27294.36335496466, 14721.5741540878, 8931.287697707141, -9293.65417881658, 8876.391813324906, -8806.341446201974, -187500.02235174447, 35185.62438316636, -24733.94867586478, 25137.062387116242, 3733.233062414296, -2047.419792106127, 11442.327373305247, 252.15002920031898, -120827.9202375317, -9528.79453048641, 0.15, 1.0, -0.188, 192.0, 0.0, 0.0, 0.0, 0.0, 0.0, 0.0, 0.0, 0.0, 0.0, 1.696023940624221E9, 0.0, 2023-09-29 16:45:40.624
136.0, 26794.846569877456, 14123.866155608435, 9028.674248298914, -9196.446442180448, 8957.39453523094, -8706.071520575468, -187500.02235174447, 34715.030755404325, -24766.917498936356, 24721.029367569612, 3450.5281985435727, -2379.119679822884, 11455.291385089326, 257.2909304250396, -121085.59114761247, -9463.482733188002, 0.15, 1.0, -0.188, 192.0, 0.0, 0.0, 0.0, 0.0, 0.0, 0.0, 0.0, 0.0, 0.0, 1.696023940684336E9, 0.0, 2023-09-29 16:45:40.684
138.0, 27307.34971849319, 14741.82483456431, 8914.725055065759, -9305.701769077989, 8900.934028736834, -8811.303533471053, -187500.02235174447, 35197.1578833053, -24732.31699851954, 25076.39975266454, 3703.3487800775506, -2080.3439116887944, 11464.79087648283, 269.38322417536074, -120951.41362564727, -9506.867469175753, 0.15, 1.0, -0.188, 192.0, 0.0, 0.0, 0.0, 0.0, 0.0, 0.0, 0.0, 0.0, 0.0, 1.696023940684346E9, 0.0, 2023-09-29 16:45:40.684
140.0, 26759.284944449064, 14093.64659710486, 9031.132940188998, -9195.507668913326, 8937.859110577001, -8711.570049711472, -187500.02235174447, 34679.871461376126, -24795.974766728257, 24779.926214209347, 3445.230835107665, -2359.047813302018, 11433.36432377867, 224.52327305355945, -121073.38709513989, -9490.26012304546, 0.15, 1.0, -0.188, 192.0, 0.0, 0.0, 0.0, 0.0, 0.0, 0.0, 0.0, 0.0, 0.0, 1.696023940684349E9, 0.0, 2023-09-29 16:45:40.684
142.0, 27314.211704040972, 14751.078456768806, 8891.18866815432, -9338.22355726046, 8896.24016240122, -8840.60667045196, -187500.02235174447, 35210.79244742304, -24730.79707989658, 25032.970313187878, 3670.625826194981, -2124.823883154855, 11457.683021746043, 250.3171861549838, -121070.39196138288, -9518.333914081326, 0.15, 0.996, -0.192, 192.0, 2.0, 88.0, 15.5, 16.0, 125.0, 0.0, 0.0, 0.0, 0.0, 1.696023940684353E9, 0.0, 2023-09-29 16:45:40.684
144.0, 26759.061427004508, 14096.17234422831, 9057.999737024276, -9177.916846027, 8928.896061050424, -8702.472889718163, -187500.02235174447, 34681.123159065624, -24812.157429713898, 24851.027113321677, 3474.4892685996615, -2324.469664629658, 11425.049474841295, 215.15789212678578, -121027.7671847066, -9516.009332657974, 0.15, 0.996, -0.192, 192.0, 0.0, 0.0, 0.0, 0.0, 0.0, 0.0, 0.0, 0.0, 0.0, 1.696023940684356E9, 0.0, 2023-09-29 16:45:40.684
146.0, 27307.68499466002, 14732.05712223734, 8917.943706267322, -9325.527766409847, 8922.235241202741, -8822.41235046534, -187500.02235174447, 35196.308517016, -24701.44923942676, 24948.436015657906, 3654.398459720428, -2161.7936684839333, 11485.98033022646, 277.72042485719027, -121191.65017505291, -9496.228038815027, 0.15, 0.996, -0.192, 192.0, 0.0, 0.0, 0.0, 0.0, 0.0, 0.0, 0.0, 0.0, 0.0, 1.696023940684359E9, 0.0, 2023-09-29 16:45:40.684
148.0, 26779.11094178092, 14118.144109027877, 9076.551684922182, -9167.165656943997, 8918.323685923062, -8694.58272392544, -187500.02235174447, 34690.53324348131, -24814.52671462616, 24898.993956922764, 3528.4910832036835, -2272.0995273708736, 11419.97562884994, 201.9703628981546, -121002.59912044993, -9525.553527540389, 0.15, 0.996, -0.192, 192.0, 0.0, 0.0, 0.0, 0.0, 0.0, 0.0, 0.0, 0.0, 0.0, 1.696023940684362E9, 0.0, 2023-09-29 16:45:40.684
150.0, 27278.35950593466, 14697.7695462429, 8939.803712344612, -9305.098271977697, 8960.72494515478, -8802.385187433385, -187500.02235174447, 35144.22895243513, -24687.725268331204, 24890.008555651733, 3628.984526274744, -2201.1550904697287, 11508.287371192859, 294.75245413213423, -121335.75187155628, -9461.87340758722, 0.15, 0.996, -0.192, 192.0, 0.0, 0.0, 0.0, 0.0, 0.0, 0.0, 0.0, 0.0, 0.0, 1.696023940744657E9, 0.0, 2023-09-29 16:45:40.744
152.0, 26810.31397704053, 14165.641565995404, 9076.328167477628, -9162.605901075114, 8915.52971786615, -8695.856773359392, -187500.02235174447, 34711.454476291474, -24792.890225993422, 24979.013202072765, 3569.439479045806, -2208.9111457957206, 11426.323524275247, 206.41836004476073, -121016.3677950344, -9524.45829206208, 0.15, 0.998, -0.192, 192.0, 2.0, 88.0, 15.5, 24.0, 125.0, 0.0, 0.0, 0.0, 0.0, 1.696023940744666E9, 0.0, 2023-09-29 16:45:40.744
154.0, 27234.48303156889, 14640.124397292662, 8941.234223989752, -9300.851440531187, 8970.470305737294, -8795.947885030257, -187500.02235174447, 35103.50407403756, -24685.691259585772, 24796.734726039736, 3590.0701391780544, -2246.1268003138066, 11507.907391537117, 292.4949279421482, -121444.49310833134, -9451.278680715404, 0.15, 0.998, -0.192, 192.0, 0.0, 0.0, 0.0, 0.0, 0.0, 0.0, 0.0, 0.0, 0.0, 1.696023940744669E9, 0.0, 2023-09-29 16:45:40.744
156.0, 26864.22638466673, 14226.684180102848, 9059.162027735953, -9173.513552369304, 8890.652226287393, -8706.809128142491, -187500.02235174447, 34762.34939841621, -24818.52767688366, 25051.365798874594, 3606.6104300749817, -2161.1231161502737, 11406.430471710024, 195.68952270621332, -121002.062678583, -9533.242527633016, 0.15, 0.998, -0.192, 192.0, 0.0, 0.0, 0.0, 0.0, 0.0, 0.0, 0.0, 0.0, 0.0, 1.696023940744672E9, 0.0, 2023-09-29 16:45:40.744
158.0, 27173.52982443927, 14569.001146435876, 8947.91739558189, -9291.351949137683, 8977.354643029528, -8785.241399436165, -187500.02235174447, 35049.1222797778, -24705.874884828914, 24737.144975321888, 3544.0702490890326, -2296.529984060524, 11505.381644413668, 292.00318956413145, -121529.89912389507, -9439.164035220629, 0.15, 0.998, -0.192, 192.0, 0.0, 0.0, 0.0, 0.0, 0.0, 0.0, 0.0, 0.0, 0.0, 1.696023940744675E9, 0.0, 2023-09-29 16:45:40.744
160.0, 26929.784051154144, 14305.83170721909, 9046.466236885339, -9185.382328675072, 8867.629929498426, -8722.187128327743, -187500.02235174447, 34823.056736356826, -24813.967921014777, 25105.032337311786, 3635.9359188003446, -2117.8501388847994, 11390.560733146756, 203.40087454329426, -121016.79247817905, -9553.113228453783, 0.15, 0.998, -0.192, 192.0, 0.0, 0.0, 0.0, 0.0, 0.0, 0.0, 0.0, 0.0, 0.0, 1.696023940744679E9, 0.0, 2023-09-29 16:45:40.744
162.0, 27114.78944001072, 14497.654378134535, 8972.727831927281, -9267.972024437431, 8986.16123034492, -8761.503846824628, -187500.02235174447, 34987.051485425414, -24700.331652203997, 24683.88076828489, 3514.6553533858482, -2332.3821821668366, 11496.776222798375, 300.69801815724594, -121600.97767126295, -9428.166976948616, 0.15, 1.004, -0.194, 192.0, 2.0, 88.0, 15.5, 48.0, 124.5, 120.0, 0.0, 0.0, 0.0, 1.696023940744687E9, 0.0, 2023-09-29 16:45:40.744
164.0, 27009.31155792613, 14399.641978698013, 9060.391373680994, -9173.37944190257, 8873.150810378887, -8709.223116543664, -187500.02235174447, 34885.10517896476, -24785.67061253436, 25156.687218748, 3685.690901957858, -2065.7035190705683, 11400.171983262539, 209.45819729068248, -121050.320094862, -9544.016068460473, 0.15, 1.004, -0.194, 192.0, 0.0, 0.0, 0.0, 0.0, 0.0, 0.0, 0.0, 0.0, 0.0, 1.69602394074469E9, 0.0, 2023-09-29 16:45:40.744
166.0, 27052.517479958235, 14420.406749296993, 9010.457576567838, -9234.287945543283, 9002.790928219669, -8732.088951121445, -187500.02235174447, 34919.88449333722, -24702.83504758299, 24669.061561711023, 3504.59706838096, -2345.1003247619064, 11504.465222891, 317.7523991766452, -121666.64709647265, -9408.139813916661, 0.15, 1.004, -0.194, 192.0, 0.0, 0.0, 0.0, 0.0, 0.0, 0.0, 0.0, 0.0, 0.0, 1.696023940804995E9, 0.0, 2023-09-29 16:45:40.804
168.0, 27083.139369862005, 14486.43380241797, 9016.78312024869, -9210.617448165112, 8859.42683928333, -8742.638974504349, -187500.02235174447, 34973.79690096342, -24779.34506885351, 25173.138102667108, 3729.723838534813, -2028.420809319116, 11414.298285758292, 230.3347266119393, -121108.1887612568, -9536.349420112303, 0.15, 1.004, -0.194, 192.0, 0.0, 0.0, 0.0, 0.0, 0.0, 0.0, 0.0, 0.0, 0.0, 1.696023940805005E9, 0.0, 2023-09-29 16:45:40.805
170.0, 26987.138627426462, 14344.008486748755, 9025.12032093052, -9216.8759366126, 8990.117489113509, -8718.63320095935, -187500.02235174447, 34874.912783493135, -24722.906914103856, 24644.474642810186, 3474.7798412775805, -2374.85049663192, 11478.313681878291, 283.9342098157656, -121662.89200340415, -9432.7267328175, 0.15, 1.004, -0.194, 192.0, 0.0, 0.0, 0.0, 0.0, 0.0, 0.0, 0.0, 0.0, 0.0, 1.696023940805009E9, 0.0, 2023-09-29 16:45:40.805
172.0, 27164.834995846155, 14576.332518617215, 9027.73547503179, -9210.438634209471, 8885.75719425168, -8735.933451167757, -187500.02235174447, 35042.215590741114, -24769.24208035971, 25206.822181561256, 3749.751001566768, -2006.6278584751915, 11424.937716119019, 240.8176947614783, -121152.42286353385, -9526.469949063057, 0.152, 1.006, -0.194, 192.0, 2.0, 96.0, 15.5, 56.0, 124.5, 120.0, 0.0, 0.0, 0.0, 1.696023940805012E9, 0.0, 2023-09-29 16:45:40.805
174.0, 26914.227237013252, 14259.362430496507, 9034.9327367464, -9210.617448165112, 8983.791945432657, -8711.123014822366, -187500.02235174447, 34798.60392792272, -24716.760184378647, 24638.439671807253, 3463.089878927455, -2382.5171449800905, 11492.283522162857, 292.986666320165, -121687.70243974954, -9422.824910023799, 0.152, 1.006, -0.194, 192.0, 0.0, 0.0, 0.0, 0.0, 0.0, 0.0, 0.0, 0.0, 0.0, 1.696023940805015E9, 0.0, 2023-09-29 16:45:40.805
176.0, 27212.57832200269, 14634.000019311909, 9009.004713178243, -9241.664021213535, 8878.0458424146, -8769.997509717645, -187500.02235174447, 35077.06196034693, -24734.8874491319, 25184.336326639215, 3745.6829840759024, -2010.7405794549682, 11432.693771445009, 239.2977761385174, -121248.6694751584, -9531.07440842085, 0.152, 1.006, -0.194, 192.0, 0.0, 0.0, 0.0, 0.0, 0.0, 0.0, 0.0, 0.0, 0.0, 1.696023940805019E9, 0.0, 2023-09-29 16:45:40.805
178.0, 26843.707483256756, 14175.185760877821, 9082.65371115848, -9179.883799539066, 9003.93086718689, -8690.715872134671, -187500.02235174447, 34709.308708823766, -24738.821356156037, 24671.184977434277, 3452.517503800095, -2382.4500897467246, 11485.645054059632, 270.74668058713445, -121705.49442833597, -9439.700477087556, 0.152, 1.006, -0.194, 192.0, 0.0, 0.0, 0.0, 0.0, 0.0, 0.0, 0.0, 0.0, 0.0, 1.696023940805022E9, 0.0, 2023-09-29 16:45:40.805
180.0, 27257.684142313497, 14682.793877457843, 8988.239942579263, -9274.45403032947, 8892.976807710744, -8786.582504103482, -187500.02235174447, 35110.164893885245, -24732.719329919735, 25154.854375702667, 3752.701431834869, -2011.2993730663507, 11466.89194046163, 253.93816875674355, -121395.0063461073, -9514.064730890363, 0.152, 1.006, -0.194, 192.0, 0.0, 0.0, 0.0, 0.0, 0.0, 0.0, 0.0, 0.0, 0.0, 1.696023940865338E9, 0.0, 2023-09-29 16:45:40.865
182.0, 26795.49477046666, 14120.334579984497, 9078.339824478606, -9181.381366417572, 8974.694785439347, -8691.140555279322, -187500.02235174447, 34671.17663278301, -24764.90584193538, 24665.529986087084, 3447.220140364187, -2375.655159432311, 11465.863760216685, 238.76133427159004, -121711.97643422801, -9459.034736041396, 0.156, 1.008, -0.188, 192.0, 2.0, 112.0, 15.5, 64.0, 125.0, 16.0, 0.0, 0.0, 0.0, 1.696023940865349E9, 0.0, 2023-09-29 16:45:40.865
184.0, 27295.03390729832, 14721.752968043444, 8977.39934651844, -9272.487076817402, 8902.275133404151, -8779.765222044614, -187500.02235174447, 35139.602141332885, -24719.26357975764, 25095.376383707095, 3730.8414257575782, -2036.8250652343113, 11455.827826956252, 254.56401760149214, -121497.28792873478, -9509.147347110194, 0.156, 1.008, -0.188, 192.0, 0.0, 0.0, 0.0, 0.0, 0.0, 0.0, 0.0, 0.0, 0.0, 1.696023940865352E9, 0.0, 2023-09-29 16:45:40.865
186.0, 26767.040999775054, 14092.372547670908, 9083.503077447782, -9170.607825590114, 8961.663718421903, -8681.015215041067, -187500.02235174447, 34648.08728076068, -24759.452016288284, 24743.42581551383, 3459.4241928367846, -2335.0643915014734, 11456.654841501098, 246.8303140199559, -121682.24861410244, -9458.006555796452, 0.156, 1.008, -0.188, 192.0, 0.0, 0.0, 0.0, 0.0, 0.0, 0.0, 0.0, 0.0, 0.0, 1.696023940865356E9, 0.0, 2023-09-29 16:45:40.865
188.0, 27310.25544527238, 14740.729599086, 8978.002843618733, -9287.440393858004, 8922.570517369571, -8782.179210445787, -187500.02235174447, 35151.62737984984, -24724.918571104834, 25040.279333624763, 3697.11264337452, -2067.804583049367, 11456.565434523278, 265.0693374954865, -121604.01750850887, -9500.765442939453, 0.156, 1.008, -0.188, 192.0, 0.0, 0.0, 0.0, 0.0, 0.0, 0.0, 0.0, 0.0, 0.0, 1.696023940865359E9, 0.0, 2023-09-29 16:45:40.865
190.0, 26756.20040371423, 14088.59510285796, 9094.388376997516, -9166.09277321014, 8938.283793721652, -8677.61774988386, -187500.02235174447, 34639.41480391202, -24794.454848105295, 24801.54035109763, 3484.5699053490052, -2299.368655606348, 11435.912422646574, 226.66904052126893, -121639.10974730371, -9476.469096716535, 0.156, 1.008, -0.188, 192.0, 0.0, 0.0, 0.0, 0.0, 0.0, 0.0, 0.0, 0.0, 0.0, 1.696023940865363E9, 0.0, 2023-09-29 16:45:40.865
192.0, 27309.316672005258, 14743.456511909548, 8957.953328842323, -9304.494774877403, 8924.783340070646, -8792.170440217309, -187500.02235174447, 35162.35621718839, -24720.51527744714, 24977.22506251634, 3666.4907534707495, -2106.294287001406, 11464.857931716197, 268.33269218596126, -121703.90745447963, -9483.040509586395, 0.156, 1.004, -0.184, 192.0, 2.0, 112.0, 15.5, 48.0, 125.0, 32.0, 0.0, 0.0, 0.0, 1.696023940865366E9, 0.0, 2023-09-29 16:45:40.865
194.0, 26758.77085432659, 14103.347254198463, 9106.234801558829, -9157.152075428019, 8918.614258600981, -8676.947197550202, -187500.02235174447, 34642.29817894676, -24805.67542382186, 24873.557671732626, 3497.1092339884326, -2255.7827539184996, 11409.380901978124, 222.1092846523863, -121573.79795000529, -9504.7440534525, 0.156, 1.004, -0.184, 192.0, 0.0, 0.0, 0.0, 0.0, 0.0, 0.0, 0.0, 0.0, 0.0, 1.69602394086537E9, 0.0, 2023-09-29 16:45:40.865
196.0, 27284.036849026306, 14714.19807841755, 8962.446029477838, -9305.098271977697, 8941.547148412126, -8790.248190194154, -187500.02235174447, 35128.02393770504, -24699.99637603717, 24874.719962444302, 3636.2488432227187, -2143.800514197411, 11489.55660933931, 286.728177872679, -121832.18411590865, -9462.58866340979, 0.156, 1.004, -0.184, 192.0, 0.0, 0.0, 0.0, 0.0, 0.0, 0.0, 0.0, 0.0, 0.0, 1.696023940924587E9, 0.0, 2023-09-29 16:45:40.924
198.0, 26784.87769185039, 14140.205280805265, 9121.836319188633, -9146.087961922642, 8915.753235310702, -8663.603206110383, -187500.02235174447, 34647.59554238267, -24816.314854182587, 24932.141593949986, 3538.057629830555, -2196.14829971174, 11416.376997992635, 227.74192425512365, -121573.79795000529, -9506.733358709022, 0.156, 1.004, -0.184, 192.0, 0.0, 0.0, 0.0, 0.0, 0.0, 0.0, 0.0, 0.0, 0.0, 1.696023940924596E9, 0.0, 2023-09-29 16:45:40.924
200.0, 27249.838680009685, 14669.360479040204, 8976.214704062308, -9300.762033553367, 8950.689011894347, -8786.627207592393, -187500.02235174447, 35074.04447484547, -24669.79916927805, 24841.862898095, 3608.532680098138, -2178.736290781056, 11503.437042646055, 289.43273895177117, -121959.99139070409, -9448.462360914036, 0.156, 1.004, -0.184, 192.0, 0.0, 0.0, 0.0, 0.0, 0.0, 0.0, 0.0, 0.0, 0.0, 1.696023940924599E9, 0.0, 2023-09-29 16:45:40.924
202.0, 26828.575352260516, 14192.888342486423, 9108.157051581986, -9158.761401028802, 8895.234333900731, -8685.016177298568, -187500.02235174447, 34677.45747297496, -24808.24587443422, 25042.603915048116, 3589.3325316110295, -2134.926871648654, 11410.520840945344, 208.67588623474674, -121570.15461565908, -9528.012219430473, 0.158, 0.992, -0.178, 192.0, 2.0, 120.0, 15.5, 0.0, 125.0, 56.0, 0.0, 0.0, 0.0, 1.696023940924603E9, 0.0, 2023-09-29 16:45:40.924
204.0, 27201.804781175233, 14605.881524787132, 9003.461480553327, -9278.387937353604, 8980.34977678654, -8766.622396304894, -187500.02235174447, 35015.39349739474, -24687.144122975365, 24776.260528118673, 3571.048804646588, -2222.3221924689046, 11509.13673748216, 302.68732341376824, -122052.68407496026, -9437.19708170856, 0.158, 0.992, -0.178, 192.0, 0.0, 0.0, 0.0, 0.0, 0.0, 0.0, 0.0, 0.0, 0.0, 1.696023940924606E9, 0.0, 2023-09-29 16:45:40.924
206.0, 26889.148579734396, 14262.379915997974, 9114.415540029471, -9164.841075520644, 8897.313046135074, -8693.1522122803, -187500.02235174447, 34728.88883696662, -24776.66285951887, 25059.90416525652, 3636.405305433906, -2085.417757680149, 11417.271067770847, 207.021857145054, -121589.91355775757, -9522.625449016745, 0.158, 0.992, -0.178, 192.0, 0.0, 0.0, 0.0, 0.0, 0.0, 0.0, 0.0, 0.0, 0.0, 1.696023940924609E9, 0.0, 2023-09-29 16:45:40.924
208.0, 27139.13048972255, 14537.105207098151, 9011.552812046148, -9272.040041928298, 8995.481907782783, -8756.385297344363, -187500.02235174447, 34962.241049080025, -24684.640727596372, 24728.271332773133, 3543.667917688837, -2254.5310562290024, 11497.983216998962, 289.32098022949464, -122127.85299156344, -9432.123235717207, 0.158, 0.992, -0.178, 192.0, 0.0, 0.0, 0.0, 0.0, 0.0, 0.0, 0.0, 0.0, 0.0, 1.696023940924613E9, 0.0, 2023-09-29 16:45:40.924
210.0, 26957.030827645165, 14343.025009992722, 9102.770281168256, -9178.788564060756, 8898.363578124474, -8702.003503084601, -187500.02235174447, 34791.42901795256, -24793.940757982822, 25116.07409907271, 3667.3848232489618, -2037.4285623346047, 11407.548058932789, 205.88191817783334, -121594.16038920407, -9537.779931757443, 0.158, 0.992, -0.178, 192.0, 0.0, 0.0, 0.0, 0.0, 0.0, 0.0, 0.0, 0.0, 0.0, 1.696023940984386E9, 0.0, 2023-09-29 16:45:40.984
212.0, 27066.777892920723, 14451.699191534424, 9044.991021751288, -9243.742733447878, 9033.591632079082, -8721.53892773854, -187500.02235174447, 34884.345219653274, -24655.516404571106, 24662.691314541258, 3508.083940515988, -2285.8011467219767, 11521.072569021293, 309.57166070600283, -122207.73812624671, -9403.535354558868, 0.16, 1.002, -0.18, 192.0, 2.5, 0.0, 15.5, 40.0, 125.0, 48.0, 0.0, 0.0, 0.0, 1.696023940984395E9, 0.0, 2023-09-29 16:45:40.984
214.0, 27024.466040666826, 14432.297877347217, 9064.817019083146, -9210.796262120755, 8889.311121620074, -8729.92083190928, -187500.02235174447, 34867.40259735615, -24776.081714163032, 25185.230396417428, 3692.9105154169224, -1975.3130644933065, 11400.59666640719, 200.04811287499822, -121631.3089884888, -9537.668173035167, 0.16, 1.002, -0.18, 192.0, 0.0, 0.0, 0.0, 0.0, 0.0, 0.0, 0.0, 0.0, 0.0, 1.696023940984399E9, 0.0, 2023-09-29 16:45:40.984
216.0, 26993.91120599642, 14367.567225404648, 9043.292289172685, -9241.552262491257, 9023.64510579647, -8723.170605083777, -187500.02235174447, 34828.59996898174, -24728.36073975095, 24666.580518076484, 3443.8003234625253, -2296.172356149239, 11486.762641282397, 279.083881268964, -122222.49027758722, -9418.555726832834, 0.16, 1.002, -0.18, 192.0, 0.0, 0.0, 0.0, 0.0, 0.0, 0.0, 0.0, 0.0, 0.0, 1.696023940984402E9, 0.0, 2023-09-29 16:45:40.984
218.0, 27099.187922380916, 14517.77094814431, 9061.598367881581, -9229.839948396677, 8877.978787181233, -8745.20942511671, -187500.02235174447, 34937.63177843473, -24724.292722260085, 25169.27125087634, 3695.8162421961124, -1949.8991310476222, 11411.504317701378, 205.34547631090598, -121676.68302973307, -9527.699295008098, 0.16, 1.002, -0.18, 192.0, 0.0, 0.0, 0.0, 0.0, 0.0, 0.0, 0.0, 0.0, 0.0, 1.696023940984405E9, 0.0, 2023-09-29 16:45:40.984
220.0, 26925.358405751995, 14290.051375633642, 9059.497303902783, -9233.572689720713, 8994.789003704667, -8724.176433584265, -187500.02235174447, 34771.871241554174, -24715.37437622242, 24617.138459341346, 3428.1541023438103, -2302.609658552368, 11479.140696423137, 263.2588461946066, -122226.26772240017, -9416.141738431661, 0.16, 1.002, -0.18, 192.0, 0.0, 0.0, 0.0, 0.0, 0.0, 0.0, 0.0, 0.0, 0.0, 1.696023940984408E9, 0.0, 2023-09-29 16:45:40.984
222.0, 27171.786388371755, 14602.439356141014, 9054.423457911427, -9247.676640472013, 8887.299464619096, -8756.385297344363, -187500.02235174447, 35006.139875190245, -24753.23823132971, 25194.953405255488, 3705.472195800805, -1922.8982237456114, 11412.107814801671, 198.34938029639488, -121726.63917859069, -9522.759559483477, 0.156, 1.006, -0.186, 192.0, 2.0, 112.0, 15.5, 56.0, 125.0, 24.0, 0.0, 0.0, 0.0, 1.696023940984412E9, 0.0, 2023-09-29 16:45:40.984
224.0, 26869.903727758377, 14219.330456177051, 9112.180365583941, -9194.837116579667, 9023.153367418452, -8676.947197550202, -187500.02235174447, 34705.41950528855, -24711.574579665015, 24646.240430622154, 3415.7265324266596, -2295.0994724153843, 11478.626606300666, 263.12473572787474, -122215.58358855052, -9404.697645270544, 0.156, 1.006, -0.186, 192.0, 0.0, 0.0, 0.0, 0.0, 0.0, 0.0, 0.0, 0.0, 0.0, 1.696023940984415E9, 0.0, 2023-09-29 16:45:40.984
226.0, 27231.689063511978, 14670.455714518514, 9031.155291933454, -9274.252864629372, 8901.604581070493, -8765.25893989312, -187500.02235174447, 35057.79475662646, -24700.42105918182, 25175.865015490654, 3716.40219883945, -1911.0294474398434, 11443.73553320593, 235.60973830339174, -121831.8041362529, -9488.40492825567, 0.156, 1.006, -0.186, 192.0, 0.0, 0.0, 0.0, 0.0, 0.0, 0.0, 0.0, 0.0, 0.0, 1.696023941044761E9, 0.0, 2023-09-29 16:45:41.044
228.0, 26816.68422421029, 14161.551196760083, 9112.806214428689, -9203.151965517041, 8996.8230124501, -8686.156116265789, -187500.02235174447, 34658.30202797676, -24720.627036169415, 24645.659285266316, 3408.5292707120507, -2286.5834577779124, 11464.120324149171, 233.5757295579588, -122198.14922787539, -9417.125215187694, 0.156, 1.006, -0.186, 192.0, 0.0, 0.0, 0.0, 0.0, 0.0, 0.0, 0.0, 0.0, 0.0, 1.69602394104477E9, 0.0, 2023-09-29 16:45:41.044
230.0, 27278.605375123665, 14728.458491380035, 9018.50420457175, -9298.83978353021, 8903.303313649096, -8782.35802440143, -187500.02235174447, 35102.542949025985, -24693.670832356314, 25106.664014657024, 3708.5567365356374, -1924.3510871352062, 11437.387637780625, 228.32306961096165, -121910.99636685806, -9491.78004166842, 0.156, 1.006, -0.186, 192.0, 0.0, 0.0, 0.0, 0.0, 0.0, 0.0, 0.0, 0.0, 0.0, 1.696023941044773E9, 0.0, 2023-09-29 16:45:41.044
232.0, 26783.15660752733, 14137.23249879271, 9144.702153766413, -9168.998499989331, 9009.831727723089, -8649.700421059182, -187500.02235174447, 34624.148562449045, -24742.57644922453, 24703.907931316848, 3431.193939589732, -2240.337698499882, 11461.952204937006, 236.43675284823811, -122167.14735831588, -9413.928915730587, 0.154, 0.998, -0.19, 192.0, 2.0, 104.0, 15.5, 24.0, 125.0, 8.0, 0.0, 0.0, 0.0, 1.696023941044777E9, 0.0, 2023-09-29 16:45:41.044
234.0, 27310.903645861585, 14768.155189532661, 9019.442977838871, -9303.265428932362, 8928.873709305968, -8774.199637675243, -187500.02235174447, 35125.85581849287, -24675.856492025436, 25108.988596080377, 3695.5033177737378, -1911.5435375623154, 11474.871513232174, 258.632035092358, -122039.809470154, -9447.501235902457, 0.154, 0.998, -0.19, 192.0, 0.0, 0.0, 0.0, 0.0, 0.0, 0.0, 0.0, 0.0, 0.0, 1.696023941044781E9, 0.0, 2023-09-29 16:45:41.044
236.0, 26761.855395061422, 14115.864231093436, 9156.012136460799, -9176.732203570868, 8984.06016636612, -8658.28349093002, -187500.02235174447, 34605.57426280669, -24725.186792038297, 24778.09337116401, 3455.0432509235443, -2182.5584390829135, 11457.370097323668, 231.09468592341972, -122143.92389582681, -9427.183500192583, 0.154, 0.998, -0.19, 192.0, 0.0, 0.0, 0.0, 0.0, 0.0, 0.0, 0.0, 0.0, 0.0, 1.696023941044784E9, 0.0, 2023-09-29 16:45:41.044
238.0, 27316.938616864518, 14774.25721576896, 9012.849213224556, -9323.471405919958, 8942.15064551242, -8780.234608678176, -187500.02235174447, 35132.315472640454, -24637.63500900686, 24983.550606197194, 3682.025215867188, -1945.0264507563652, 11490.718900050986, 254.20638969020723, -122161.1347390574, -9441.86859629972, 0.154, 0.998, -0.19, 192.0, 0.0, 0.0, 0.0, 0.0, 0.0, 0.0, 0.0, 0.0, 0.0, 1.696023941044788E9, 0.0, 2023-09-29 16:45:41.044
240.0, 26763.978810784676, 14130.526975456116, 9167.724450555379, -9155.855674249611, 8978.271064552197, -8633.361295862353, -187500.02235174447, 34600.522768559786, -24737.301437533075, 24836.207906747808, 3486.939190261268, -2138.4360955281372, 11446.373039051658, 223.4280375752494, -122117.79470655856, -9433.509043873435, 0.154, 0.998, -0.19, 192.0, 0.0, 0.0, 0.0, 0.0, 0.0, 0.0, 0.0, 0.0, 0.0, 1.696023941105022E9, 0.0, 2023-09-29 16:45:41.105
242.0, 27307.12620104864, 14769.54099768889, 9025.455597097349, -9308.31692317926, 8980.707404697825, -8752.518445553595, -187500.02235174447, 35109.18141712921, -24642.82061372049, 24952.302867448674, 3660.2993202566295, -1970.3509772242282, 11507.236839203459, 277.5416109015478, -122280.113074793, -9405.926991215587, 0.152, 1.004, -0.192, 192.0, 2.0, 96.0, 15.5, 48.0, 125.0, 0.0, 0.0, 0.0, 0.0, 1.696023941105037E9, 0.0, 2023-09-29 16:45:41.105
244.0, 26776.920470824298, 14158.690173469804, 9146.04325843373, -9173.491200624849, 8952.410096217405, -8651.399153637785, -187500.02235174447, 34617.77831527928, -24753.774673196636, 24912.717928018326, 3529.563966937538, -2077.6840540986127, 11433.811358667775, 208.69823797920205, -122090.19030215626, -9442.427389911103, 0.152, 1.004, -0.192, 192.0, 0.0, 0.0, 0.0, 0.0, 0.0, 0.0, 0.0, 0.0, 0.0, 1.696023941105041E9, 0.0, 2023-09-29 16:45:41.105
246.0, 27283.72392460393, 14742.696552598067, 8994.207858348831, -9331.89801357961, 8968.39159350295, -8776.21129467622, -187500.02235174447, 35099.50311178006, -24664.434750608772, 24871.858939154023, 3613.3830086449398, -2014.9650591570212, 11487.94728373853, 267.8186020634892, -122373.96804976084, -9414.711226786521, 0.152, 1.004, -0.192, 192.0, 0.0, 0.0, 0.0, 0.0, 0.0, 0.0, 0.0, 0.0, 0.0, 1.696023941105045E9, 0.0, 2023-09-29 16:45:41.105
248.0, 26809.375203773405, 14198.342168133518, 9143.450456076915, -9183.281264696272, 8927.219680216274, -8661.882121787325, -187500.02235174447, 34653.2281819854, -24760.301382577585, 24954.51569014975, 3553.1003538489767, -2031.773570987412, 11415.214707280958, 196.1365575953195, -122050.91828714828, -9468.10954429025, 0.152, 1.004, -0.192, 192.0, 0.0, 0.0, 0.0, 0.0, 0.0, 0.0, 0.0, 0.0, 0.0, 1.696023941105048E9, 0.0, 2023-09-29 16:45:41.105
250.0, 27235.175935647007, 14684.47025829199, 9019.890012727978, -9314.575411626747, 8990.072785624598, -8754.708916510215, -187500.02235174447, 35046.752994865536, -24644.608753276916, 24777.847501975, 3574.8486012039903, -2067.4022516491714, 11500.285446677857, 259.4590496372044, -122477.50133007781, -9402.931857458576, 0.152, 1.004, -0.192, 192.0, 0.0, 0.0, 0.0, 0.0, 0.0, 0.0, 0.0, 0.0, 0.0, 1.696023941105051E9, 0.0, 2023-09-29 16:45:41.105
252.0, 26865.433378867314, 14279.836628417568, 9146.825569489667, -9170.496066867838, 8914.121557965465, -8657.1435519628, -187500.02235174447, 34705.888891922106, -24757.172138353842, 25056.752569288325, 3605.2693254076635, -1962.5278666648708, 11410.5431926898, 192.51557499355974, -122044.03394985605, -9478.324291506326, 0.152, 1.002, -0.192, 192.0, 2.0, 96.0, 15.5, 40.0, 125.0, 0.0, 0.0, 0.0, 0.0, 1.696023941105054E9, 0.0, 2023-09-29 16:45:41.105
254.0, 27178.313097752703, 14633.08359778924, 9046.756809563258, -9283.55119032278, 9011.105777157043, -8725.361076040397, -187500.02235174447, 34988.14672090372, -24650.464910324208, 24748.1420335939, 3542.2597577881525, -2086.714158858557, 11512.534202639366, 292.5843349199695, -122562.03562760778, -9377.294406568339, 0.152, 1.002, -0.192, 192.0, 0.0, 0.0, 0.0, 0.0, 0.0, 0.0, 0.0, 0.0, 0.0, 1.696023941105058E9, 0.0, 2023-09-29 16:45:41.105
0.0, 26923.078527817554, 14359.498245656283, 9135.157958883996, -9187.751613587334, 8908.511270107183, -8673.437973670718, -187500.02235174447, 34758.102566969705, -24757.79798719859, 25068.509586871816, 3636.7182298562802, -1916.326810875751, 11413.203050279983, 191.10741509287539, -122063.88229893235, -9485.49920147648, 0.152, 1.002, -0.192, 192.0, 0.0, 0.0, 0.0, 0.0, 0.0, 0.0, 0.0, 0.0, 0.0, 1.696023941165211E9, 0.0, 2023-09-29 16:45:41.165
