%OpenBCI Raw EXG Data
%Number of channels = 16
%Sample Rate = 125 Hz
%Board = OpenBCI_GUI$BoardCytonSerialDaisy
Sample Index, EXG Channel 0, EXG Channel 1, EXG Channel 2, EXG Channel 3, EXG Channel 4, EXG Channel 5, EXG Channel 6, EXG Channel 7, EXG Channel 8, EXG Channel 9, EXG Channel 10, EXG Channel 11, EXG Channel 12, EXG Channel 13, EXG Channel 14, EXG Channel 15, Accel Channel 0, Accel Channel 1, Accel Channel 2, Other, Other, Other, Other, Other, Other, Other, Analog Channel 0, Analog Channel 1, Analog Channel 2, Timestamp, Other, Timestamp (Formatted)
208.0, 26696.9012256743, 14261.105866564021, 9081.625530913536, -9395.108746899217, 9636.395828294257, -9140.18710138644, -187500.02235174447, 34372.7137890713, -24889.896796929457, 24555.67116208925, 2322.0333244840294, -3603.2576684066858, 11611.239506154003, -160.55258042247064, -117000.25105479373, -12763.918967714188, 0.0, 0.0, 0.0, 192.0, 0.0, 0.0, 0.0, 0.0, 0.0, 0.0, 0.0, 0.0, 0.0, 1.69602389713775E9, 0.0, 2023-09-29 16:44:57.137
210.0, 27154.083806763152, 14821.687617503121, 8980.416832019906, -9488.203762555571, 9528.436902575124, -9244.480341014903, -187500.02235174447, 34768.33966593023, -24870.137854830966, 25019.8051357037, 2599.4631766633006, -3240.9582425306135, 11582.204590106558, -177.98694109761013, -116726.46453696067, -12834.34931449286, 0.0, 0.0, 0.0, 192.0, 0.0, 0.0, 0.0, 0.0, 0.0, 0.0, 0.0, 0.0, 0.0, 1.696023897137758E9, 0.0, 2023-09-29 16:44:57.137
212.0, 26660.13260604532, 14224.67252310187, 9089.51569670626, -9372.220560576983, 9617.910935629718, -9129.771188470268, -187500.02235174447, 34346.49519282523, -24911.823858240114, 24613.785697673047, 2326.6824873307332, -3569.5512377680825, 11588.23956110949, -172.01902532804314, -116991.37741224497, -12779.67694755518, 0.0, 0.0, 0.0, 192.0, 0.0, 0.0, 0.0, 0.0, 0.0, 0.0, 0.0, 0.0, 0.0, 1.696023897137761E9, 0.0, 2023-09-29 16:44:57.137
214.0, 27183.14107455505, 14853.158873696195, 8971.140858070954, -9498.060881860361, 9549.872225507765, -9248.458951527948, -187500.02235174447, 34794.82648310977, -24877.58098573458, 24969.0443240457, 2589.3825399139573, -3266.103955042834, 11593.179296634115, -161.0443188004874, -116850.69553264327, -12818.792500351967, 0.156, 1.014, -0.098, 192.0, 2.0, 112.0, 15.5, 88.0, 126.0, 120.0, 0.0, 0.0, 0.0, 1.696023897137765E9, 0.0, 2023-09-29 16:44:57.137
216.0, 26642.60883839236, 14196.039938454622, 9092.220257785351, -9381.18361010356, 9597.101461541828, -9140.321211853172, -187500.02235174447, 34346.76341375869, -24918.50702983225, 24623.128726855368, 2340.384106681837, -3544.673746189326, 11570.514627756433, -199.26580181906246, -116970.79145560163, -12804.666197856212, 0.156, 1.014, -0.098, 192.0, 0.0, 0.0, 0.0, 0.0, 0.0, 0.0, 0.0, 0.0, 0.0, 1.696023897137768E9, 0.0, 2023-09-29 16:44:57.137
218.0, 27204.57639748769, 14870.034440759951, 8978.338119785562, -9497.502088248979, 9571.12873448476, -9242.267518313827, -187500.02235174447, 34814.92070137509, -24858.62670643648, 24930.97930323831, 2569.93652223784, -3300.458586270641, 11606.813860751852, -152.93063556321093, -116961.22490897476, -12808.443642669159, 0.156, 1.014, -0.098, 192.0, 0.0, 0.0, 0.0, 0.0, 0.0, 0.0, 0.0, 0.0, 0.0, 1.696023897137771E9, 0.0, 2023-09-29 16:44:57.137
220.0, 26631.94705628718, 14187.032185439133, 9085.17945828193, -9390.23606660796, 9577.677795610165, -9153.687555037446, -187500.02235174447, 34341.66721602288, -24936.41077714095, 24701.382184193397, 2361.6406156588337, -3494.3599694204295, 11569.3299853003, -203.5573367544814, -116955.32404843856, -12820.893564330765, 0.156, 1.014, -0.098, 192.0, 0.0, 0.0, 0.0, 0.0, 0.0, 0.0, 0.0, 0.0, 0.0, 1.696023897137774E9, 0.0, 2023-09-29 16:44:57.137
222.0, 27186.560891456713, 14847.481530604546, 8946.643346147937, -9530.537966553924, 9562.411554147191, -9264.283986602306, -187500.02235174447, 34814.116038574706, -24869.936689130867, 24799.03695571863, 2519.108655346472, -3367.1785434697326, 11593.089889656292, -175.28238001851798, -117075.26350918574, -12818.34546546286, 0.156, 1.014, -0.098, 192.0, 0.0, 0.0, 0.0, 0.0, 0.0, 0.0, 0.0, 0.0, 0.0, 1.696023897137778E9, 0.0, 2023-09-29 16:44:57.137
224.0, 26650.476652440626, 14212.602581096004, 9092.935513607921, -9384.446964794037, 9561.495132624523, -9152.637023048046, -187500.02235174447, 34362.342579644035, -24963.009353042766, 24752.880603418424, 2375.521048965579, -3464.833314994969, 11529.342714469758, -244.01399421858721, -116914.86739097445, -12853.393000768781, 0.16, 1.016, -0.098, 192.0, 2.5, 0.0, 15.5, 96.0, 126.0, 120.0, 0.0, 0.0, 0.0, 1.696023897137781E9, 0.0, 2023-09-29 16:44:57.137
0.0, 13530.494395553398, 7263.445229941039, 4297.8828308442635, -4699.588382195042, 4671.2687219701675, -4573.613950444931, -93750.01117587223, 17187.68682333074, -12428.955725306956, 12242.631583527516, 1178.5404298949754, -1800.7235885529028, 5822.808244563133, -66.74230894354689, -58697.849058848515, -6375.723347154063, 0.157, 1.014, -0.10200000000000001, 192.0, 2.0, 104.0, 15.5, 80.0, 126.0, 88.0, 0.0, 0.0, 0.0, 1.696023897295542E9, 0.0, 2023-09-29 16:44:57.295
2.0, 26768.985601542667, 14152.65520246687, 8656.070668228946, -9341.442208462026, 9479.397175240181, -9061.374850437029, -187500.02235174447, 34109.52199811006, -24914.528419319206, 24523.37289135133, 2111.2116707815735, -3627.084627996043, 11634.77589306544, -121.41467588122796, -118096.87234126001, -12753.458351309104, 0.157, 1.014, -0.10200000000000001, 192.0, 0.0, 0.0, 0.0, 0.0, 0.0, 0.0, 0.0, 0.0, 0.0, 1.696023897295551E9, 0.0, 2023-09-29 16:44:57.295
4.0, 27242.172031661517, 14724.524584355902, 8550.92806231118, -9446.115427746228, 9411.671389540601, -9160.124857440574, -187500.02235174447, 34507.4948081368, -24868.48382574127, 24927.9841694813, 2376.951560610719, -3311.098016631367, 11637.703971589086, -101.20869889363038, -117938.42082481633, -12782.470915612092, 0.157, 1.014, -0.10200000000000001, 192.0, 0.0, 0.0, 0.0, 0.0, 0.0, 0.0, 0.0, 0.0, 0.0, 1.696023897295555E9, 0.0, 2023-09-29 16:44:57.295
6.0, 26737.916676749788, 14119.373454972918, 8636.155263919267, -9348.795932387822, 9456.866616829231, -9072.103687775576, -187500.02235174447, 34089.24896588909, -24905.677128514904, 24573.57490939795, 2134.189264081629, -3593.9816944577333, 11632.585422108821, -124.7003823161581, -118108.65171058795, -12752.966612931086, 0.157, 1.014, -0.10200000000000001, 192.0, 0.0, 0.0, 0.0, 0.0, 0.0, 0.0, 0.0, 0.0, 0.0, 1.696023897295558E9, 0.0, 2023-09-29 16:44:57.295
8.0, 27264.076741227716, 14750.698477113066, 8513.131262437257, -9467.282529745404, 9395.600485277235, -9177.20159020443, -187500.02235174447, 34532.79698286021, -24876.329288045086, 24867.50034898524, 2348.3860311968365, -3352.8510752738807, 11620.180203936125, -106.10373092934263, -118027.80545089311, -12785.443697624649, 0.156, 1.012, -0.108, 192.0, 2.0, 112.0, 15.5, 80.0, 126.0, 80.0, 0.0, 0.0, 0.0, 1.696023897295561E9, 0.0, 2023-09-29 16:44:57.295
10.0, 26742.90111576332, 14121.60862941845, 8663.223226454644, -9315.804757571788, 9452.910358060642, -9041.638260082991, -187500.02235174447, 34083.03518093052, -24940.389387653995, 24636.584477017463, 2153.8811509467546, -3554.08383060501, 11602.164697905147, -133.37285916481724, -118059.50022453073, -12769.506903828014, 0.156, 1.012, -0.108, 192.0, 0.0, 0.0, 0.0, 0.0, 0.0, 0.0, 0.0, 0.0, 0.0, 1.696023897295565E9, 0.0, 2023-09-29 16:44:57.295
12.0, 27275.096151244183, 14754.431218437103, 8521.40140788572, -9455.570215650823, 9419.96388673352, -9158.314366139695, -187500.02235174447, 34532.64052064902, -24845.081549296567, 24814.66082509289, 2351.8952550763197, -3376.387462185319, 11656.367678209268, -67.90459965522285, -118150.40476923046, -12746.7081244836, 0.156, 1.012, -0.108, 192.0, 0.0, 0.0, 0.0, 0.0, 0.0, 0.0, 0.0, 0.0, 0.0, 1.696023897295568E9, 0.0, 2023-09-29 16:44:57.295
14.0, 26754.032284502064, 14139.51237672715, 8652.203816438177, -9326.891222821621, 9422.601392579245, -9053.931719533412, -187500.02235174447, 34097.18383517073, -24949.71006509186, 24713.56388492154, 2185.374758884282, -3501.870155557413, 11591.05588091086, -136.993841766577, -118030.46530848328, -12786.360119147315, 0.156, 1.012, -0.108, 192.0, 0.0, 0.0, 0.0, 0.0, 0.0, 0.0, 0.0, 0.0, 0.0, 1.696023897295571E9, 0.0, 2023-09-29 16:44:57.295
16.0, 27259.360523147647, 14732.504157126446, 8515.54525083843, -9459.749991863966, 9429.597488593756, -9160.52718884077, -187500.02235174447, 34520.70468910989, -24851.92118309989, 24750.041931872598, 2306.6553242987784, -3431.909195412302, 11653.663117130174, -67.03288162146588, -118237.04013073923, -12747.80335996191, 0.156, 1.012, -0.108, 192.0, 0.0, 0.0, 0.0, 0.0, 0.0, 0.0, 0.0, 0.0, 0.0, 1.696023897355578E9, 0.0, 2023-09-29 16:44:57.355
18.0, 26784.900043594844, 14172.771772476646, 8668.364127679364, -9308.763958068366, 9422.28846815687, -9045.080428729108, -187500.02235174447, 34117.166294713774, -24948.972457524833, 24780.9990979432, 2216.4660354216144, -3460.295910870542, 11587.72547098702, -145.06282151494284, -118002.14564825842, -12791.948055261142, 0.156, 1.012, -0.108, 192.0, 2.0, 112.0, 15.5, 80.0, 126.0, 80.0, 0.0, 0.0, 0.0, 1.696023897355591E9, 0.0, 2023-09-29 16:44:57.355
20.0, 27222.7260139854, 14680.625758245678, 8529.716256823094, -9451.72571560451, 9458.29712847437, -9152.391153859038, -187500.02235174447, 34483.44433110289, -24834.19624974683, 24678.85162578245, 2284.1694693767395, -3482.6923588147592, 11674.293777262423, -64.66359670920333, -118355.8396525192, -12723.059978849886, 0.156, 1.012, -0.108, 192.0, 0.0, 0.0, 0.0, 0.0, 0.0, 0.0, 0.0, 0.0, 0.0, 1.696023897355597E9, 0.0, 2023-09-29 16:44:57.355
22.0, 26824.48498302519, 14220.135118977443, 8649.409848381263, -9326.84651933271, 9410.263229639915, -9066.26988247274, -187500.02235174447, 34157.89117311134, -24948.65953310246, 24838.7113021268, 2253.9499108731643, -3414.966573115179, 11583.925674429616, -153.154153007764, -118008.851171595, -12795.949017518642, 0.156, 1.012, -0.108, 192.0, 0.0, 0.0, 0.0, 0.0, 0.0, 0.0, 0.0, 0.0, 0.0, 1.696023897355603E9, 0.0, 2023-09-29 16:44:57.355
24.0, 27181.867025121097, 14626.266315730372, 8532.443169646642, -9444.193177723071, 9461.940462820587, -9149.284261379751, -187500.02235174447, 34456.510479034245, -24847.92022084239, 24603.615653945883, 2236.4261432202034, -3534.0343158285996, 11660.346288722312, -70.18447758966418, -118415.36234800368, -12723.417606761172, 0.156, 1.012, -0.108, 192.0, 0.0, 0.0, 0.0, 0.0, 0.0, 0.0, 0.0, 0.0, 0.0, 1.696023897355608E9, 0.0, 2023-09-29 16:44:57.355
26.0, 26890.020297768155, 14298.142707126464, 8633.204833651165, -9338.961164827486, 9383.888171182654, -9089.001606583788, -187500.02235174447, 34217.704441273745, -24948.391312168995, 24907.487619815784, 2285.331760088415, -3365.457459146674, 11557.774133416908, -152.21537974064108, -117970.51792985415, -12812.57871539339, 0.156, 1.012, -0.108, 192.0, 0.0, 0.0, 0.0, 0.0, 0.0, 0.0, 0.0, 0.0, 0.0, 1.696023897355614E9, 0.0, 2023-09-29 16:44:57.355
28.0, 27120.444431357915, 14552.371448561127, 8559.488780437563, -9418.8239477663, 9492.674111446633, -9129.681781492447, -187500.02235174447, 34394.4173329374, -24854.96102034581, 24546.52929860703, 2202.0938637368517, -3577.4190518163505, 11659.921605577661, -68.55280024442676, -118470.59350855275, -12720.556583470892, 0.154, 1.012, -0.106, 192.0, 2.0, 104.0, 15.5, 80.0, 126.0, 88.0, 0.0, 0.0, 0.0, 1.696023897355619E9, 0.0, 2023-09-29 16:44:57.355
30.0, 26956.67319973388, 14376.440867953404, 8623.705342257661, -9359.815342404288, 9383.217618848994, -9100.199830555895, -187500.02235174447, 34265.671284874836, -24938.735358564303, 24946.625524357027, 2326.4813216306356, -3323.8608627153476, 11576.795467948374, -151.2319029846076, -117996.15538074439, -12817.786671851478, 0.154, 1.012, -0.106, 192.0, 0.0, 0.0, 0.0, 0.0, 0.0, 0.0, 0.0, 0.0, 0.0, 1.696023897416318E9, 0.0, 2023-09-29 16:44:57.416
32.0, 27056.40668349346, 14469.29001442075, 8560.785181615971, -9424.635401324678, 9482.682881675111, -9123.04331338922, -187500.02235174447, 34334.22408511926, -24857.509119213715, 24498.115420116836, 2174.444755845637, -3610.9466684993113, 11664.459009702088, -76.30885557041832, -118527.2775324914, -12724.289324794929, 0.154, 1.012, -0.106, 192.0, 0.0, 0.0, 0.0, 0.0, 0.0, 0.0, 0.0, 0.0, 0.0, 1.696023897416339E9, 0.0, 2023-09-29 16:44:57.416
34.0, 27021.06857550962, 14450.134569422553, 8607.41092054974, -9377.339110057248, 9376.04270887884, -9109.408749271483, -187500.02235174447, 34303.87041614895, -24946.960800523855, 24967.74792286729, 2338.663022358778, -3308.7287317191044, 11567.675956210609, -160.95491182266616, -118028.18543054885, -12836.316268004926, 0.154, 1.012, -0.106, 192.0, 0.0, 0.0, 0.0, 0.0, 0.0, 0.0, 0.0, 0.0, 0.0, 1.696023897416343E9, 0.0, 2023-09-29 16:44:57.416
36.0, 26986.49042683726, 14382.56524593416, 8574.039766077967, -9415.270020397904, 9483.44284098659, -9104.647827702502, -187500.02235174447, 34264.50899416316, -24872.998878121245, 24464.543099944964, 2145.0075083979978, -3639.8027705911127, 11663.140256779225, -76.75589045952445, -118587.06844890934, -12722.009446860488, 0.154, 1.012, -0.106, 192.0, 0.0, 0.0, 0.0, 0.0, 0.0, 0.0, 0.0, 0.0, 0.0, 1.696023897416346E9, 0.0, 2023-09-29 16:44:57.416
38.0, 27091.096590888097, 14534.311239041239, 8588.858972651837, -9398.014473678408, 9363.928063384064, -9121.054008132698, -187500.02235174447, 34358.4086726199, -24934.913210262446, 24988.17741729944, 2363.0934790484284, -3285.371158763309, 11572.079249868304, -150.0919640173869, -118094.5254080922, -12834.908108104242, 0.15, 1.004, -0.10400000000000001, 192.0, 2.0, 88.0, 15.5, 48.0, 126.0, 96.0, 0.0, 0.0, 0.0, 1.696023897416349E9, 0.0, 2023-09-29 16:44:57.416
40.0, 26920.597484183014, 14315.085329423588, 8595.788013432983, -9398.305046356327, 9482.392308997192, -9095.438908986916, -187500.02235174447, 34214.03875518307, -24877.60333747904, 24463.336105744376, 2135.0609821153857, -3650.1963317628306, 11659.206349755092, -87.86470745381206, -118623.0994609713, -12723.059978849886, 0.15, 1.004, -0.10400000000000001, 192.0, 0.0, 0.0, 0.0, 0.0, 0.0, 0.0, 0.0, 0.0, 0.0, 1.696023897416352E9, 0.0, 2023-09-29 16:44:57.416
42.0, 27164.32090572368, 14626.89216457512, 8566.775449129993, -9413.5712878193, 9357.401354003114, -9136.90139495151, -187500.02235174447, 34426.89441763096, -24923.133840934497, 25003.66717620697, 2390.51906949509, -3268.227370766088, 11572.794505690874, -135.56333012143733, -118161.58064145812, -12823.821642854411, 0.15, 1.004, -0.10400000000000001, 192.0, 0.0, 0.0, 0.0, 0.0, 0.0, 0.0, 0.0, 0.0, 0.0, 1.696023897416355E9, 0.0, 2023-09-29 16:44:57.416
44.0, 26866.819187023546, 14251.047581559133, 8596.011530877535, -9386.14569737264, 9455.369049950725, -9092.443775229905, -187500.02235174447, 34165.9154493708, -24901.78792497968, 24479.518768730017, 2123.6615924431794, -3645.0777822825653, 11629.724398818542, -101.23105063808569, -118604.18988516211, -12734.28055456645, 0.15, 1.004, -0.10400000000000001, 192.0, 0.0, 0.0, 0.0, 0.0, 0.0, 0.0, 0.0, 0.0, 0.0, 1.69602389741636E9, 0.0, 2023-09-29 16:44:57.416
46.0, 27215.05936563723, 14685.207865859016, 8544.043725018946, -9434.291354929372, 9355.90378712461, -9150.960642213899, -187500.02235174447, 34469.00510418476, -24919.9822449663, 24974.40874271497, 2376.169249554783, -3290.713225688127, 11566.781886432396, -141.1512662352641, -118232.63683708155, -12826.906183589243, 0.15, 1.004, -0.10400000000000001, 192.0, 0.0, 0.0, 0.0, 0.0, 0.0, 0.0, 0.0, 0.0, 0.0, 1.696023897476239E9, 0.0, 2023-09-29 16:44:57.476
48.0, 26816.460706765738, 14192.262493641674, 8627.773359748526, -9357.066077836285, 9471.752878636466, -9065.889902817, -187500.02235174447, 34126.97871052966, -24910.46040182834, 24509.023071411022, 2117.648973184702, -3639.333383957551, 11621.476605114533, -104.80732975093481, -118591.91877745614, -12738.840310435333, 0.158, 1.008, -0.10200000000000001, 192.0, 2.0, 120.0, 15.5, 64.0, 126.0, 104.0, 0.0, 0.0, 0.0, 1.696023897476247E9, 0.0, 2023-09-29 16:44:57.476
50.0, 27257.259459168847, 14724.993970989462, 8535.237137703554, -9444.170825978617, 9388.738499729456, -9161.510665596803, -187500.02235174447, 34500.63282258902, -24892.131971374987, 24942.22223069933, 2384.2605810476043, -3306.4041502957525, 11598.454308325567, -114.93266998918891, -118341.46748083443, -12802.341616432861, 0.158, 1.008, -0.10200000000000001, 192.0, 0.0, 0.0, 0.0, 0.0, 0.0, 0.0, 0.0, 0.0, 0.0, 1.696023897476251E9, 0.0, 2023-09-29 16:44:57.476
52.0, 26779.848549347946, 14147.044914608588, 8644.0901332009, -9332.412103702081, 9474.144515293183, -9053.283518944207, -187500.02235174447, 34093.56285256897, -24905.766535492723, 24540.13669969281, 2126.0755808443523, -3617.5851366025377, 11620.247259169491, -121.16880669221959, -118586.24143436449, -12749.14446462923, 0.158, 1.008, -0.10200000000000001, 192.0, 0.0, 0.0, 0.0, 0.0, 0.0, 0.0, 0.0, 0.0, 0.0, 1.696023897476254E9, 0.0, 2023-09-29 16:44:57.476
54.0, 27282.11459900315, 14758.186311505595, 8524.35183815382, -9443.455570156048, 9413.39247386366, -9157.219130661384, -187500.02235174447, 34522.40342168849, -24862.940593116356, 24909.45457332785, 2370.693072163233, -3326.7889412389927, 11618.302657401879, -94.72669300159133, -118460.3564095922, -12778.022918465485, 0.158, 1.008, -0.10200000000000001, 192.0, 0.0, 0.0, 0.0, 0.0, 0.0, 0.0, 0.0, 0.0, 0.0, 1.696023897476258E9, 0.0, 2023-09-29 16:44:57.476
56.0, 26757.072121747988, 14133.544460957582, 8645.721810546138, -9330.646315890112, 9456.933672062596, -9055.205768967364, -187500.02235174447, 34087.259660632575, -24914.953102463856, 24619.530095998063, 2140.6936217181233, -3573.1945721142974, 11608.378482863724, -118.21837642411906, -118555.44073050508, -12751.312583841394, 0.158, 1.008, -0.10200000000000001, 192.0, 0.0, 0.0, 0.0, 0.0, 0.0, 0.0, 0.0, 0.0, 0.0, 1.696023897476261E9, 0.0, 2023-09-29 16:44:57.476
58.0, 27287.7919420948, 14774.190160535594, 8505.106986177801, -9475.865599616242, 9403.803575492331, -9182.700119340434, -187500.02235174447, 34539.3013404967, -24863.789959405658, 24851.787072633157, 2340.4511619152026, -3367.580874869928, 11611.306561387368, -91.08335865537629, -118546.92471586762, -12768.38931660525, 0.154, 1.012, -0.10200000000000001, 192.0, 2.0, 104.0, 15.5, 80.0, 126.0, 104.0, 0.0, 0.0, 0.0, 1.696023897476265E9, 0.0, 2023-09-29 16:44:57.476
60.0, 26760.76015958311, 14145.167368074342, 8640.312688387954, -9345.979612586452, 9436.235956696983, -9070.919045319444, -187500.02235174447, 34095.32864038094, -24926.06191945814, 24672.92841350179, 2152.540046279436, -3537.543539708083, 11579.611787749744, -147.72267910512437, -118493.79461929735, -12773.95490097462, 0.154, 1.012, -0.10200000000000001, 192.0, 0.0, 0.0, 0.0, 0.0, 0.0, 0.0, 0.0, 0.0, 0.0, 1.696023897534922E9, 0.0, 2023-09-29 16:44:57.534
62.0, 27283.20983448146, 14760.287375484393, 8511.678399047662, -9477.49727696148, 9442.53914863338, -9174.877008781077, -187500.02235174447, 34523.208084488884, -24821.701624596313, 24768.43741755932, 2309.091664444407, -3421.24741330712, 11637.614564611265, -90.99395167755505, -118642.43371992515, -12740.650801736212, 0.154, 1.012, -0.10200000000000001, 192.0, 0.0, 0.0, 0.0, 0.0, 0.0, 0.0, 0.0, 0.0, 0.0, 1.696023897534931E9, 0.0, 2023-09-29 16:44:57.534
64.0, 26782.329592982485, 14167.161484618366, 8646.101790201878, -9337.061266548786, 9437.889985786675, -9062.201864981875, -187500.02235174447, 34100.111913694374, -24908.985186694288, 24733.32282702003, 2194.158994455218, -3487.7885565505694, 11587.680767498108, -145.37574593731713, -118483.22224416999, -12765.662403781702, 0.154, 1.012, -0.10200000000000001, 192.0, 0.0, 0.0, 0.0, 0.0, 0.0, 0.0, 0.0, 0.0, 0.0, 1.696023897534935E9, 0.0, 2023-09-29 16:44:57.534
66.0, 27257.907659758053, 14727.050331479351, 8498.602628541306, -9481.051204329873, 9452.575081893812, -9172.753593057823, -187500.02235174447, 34501.57159585614, -24811.643339591425, 24697.89531205837, 2281.5990187643793, -3458.865399225402, 11648.768085094463, -81.78503296196854, -118753.85716603484, -12713.80635664539, 0.154, 1.012, -0.10200000000000001, 192.0, 0.0, 0.0, 0.0, 0.0, 0.0, 0.0, 0.0, 0.0, 0.0, 1.696023897534939E9, 0.0, 2023-09-29 16:44:57.534
68.0, 26817.421831777316, 14218.771662565669, 8644.671278556738, -9333.395580458115, 9430.24568918296, -9055.541045134192, -187500.02235174447, 34129.07977450845, -24907.107640160044, 24816.09133673803, 2222.6127651468237, -3432.0433058790336, 11576.236674336991, -142.29120520248475, -118465.65377302811, -12766.534121815459, 0.158, 1.012, -0.10400000000000001, 192.0, 2.0, 120.0, 15.5, 80.0, 126.0, 96.0, 0.0, 0.0, 0.0, 1.696023897534942E9, 0.0, 2023-09-29 16:44:57.534
70.0, 27216.936912171474, 14679.57522625628, 8507.319808878876, -9471.216436769539, 9476.558503694356, -9145.372706100072, -187500.02235174447, 34462.67956050391, -24787.61521430197, 24653.057712681024, 2249.6807276822005, -3497.019827010611, 11665.889521347228, -50.11261106879844, -118868.052228457, -12679.496428906492, 0.158, 1.012, -0.10400000000000001, 192.0, 0.0, 0.0, 0.0, 0.0, 0.0, 0.0, 0.0, 0.0, 0.0, 1.696023897534946E9, 0.0, 2023-09-29 16:44:57.534
72.0, 26874.754056305177, 14286.028061631689, 8633.450702840175, -9348.192435287528, 9410.553802317834, -9056.613928868048, -187500.02235174447, 34177.27013555409, -24908.940483205377, 24887.907491672933, 2253.3017102839603, -3379.516706409062, 11565.105505598249, -138.0443737559764, -118462.39041833764, -12771.965595718098, 0.158, 1.012, -0.10400000000000001, 192.0, 0.0, 0.0, 0.0, 0.0, 0.0, 0.0, 0.0, 0.0, 0.0, 1.69602389753495E9, 0.0, 2023-09-29 16:44:57.534
74.0, 27166.89135633604, 14613.347007435204, 8519.188585184644, -9465.226169255517, 9493.523477735935, -9134.353296083606, -187500.02235174447, 34414.17627503589, -24782.63077528844, 24590.405772972797, 2221.4281226906924, -3539.443437986784, 11671.276291760958, -37.88620685174547, -118957.23568883368, -12662.889082776199, 0.158, 1.012, -0.10400000000000001, 192.0, 0.0, 0.0, 0.0, 0.0, 0.0, 0.0, 0.0, 0.0, 0.0, 1.696023897534953E9, 0.0, 2023-09-29 16:44:57.534
76.0, 26936.28840879064, 14355.586690376604, 8588.009606362535, -9387.419746806592, 9392.761813731411, -9094.835411886623, -187500.02235174447, 34224.45466809925, -24898.189294122374, 24931.247524171773, 2288.1704316342393, -3337.495426833085, 11563.272662552914, -145.86748431533388, -118489.4136773841, -12784.43786912416, 0.158, 1.012, -0.10400000000000001, 192.0, 0.0, 0.0, 0.0, 0.0, 0.0, 0.0, 0.0, 0.0, 0.0, 1.696023897595264E9, 0.0, 2023-09-29 16:44:57.595
78.0, 27106.31812886216, 14527.985695360387, 8506.470442589574, -9469.942387335586, 9486.97441661053, -9143.249290376818, -187500.02235174447, 34368.04227448014, -24818.77354607267, 24523.84227798489, 2160.050232416419, -3593.311142124074, 11646.555262393387, -74.02897763597699, -119003.25793066717, -12691.566370912358, 0.15, 1.002, -0.106, 192.0, 2.0, 88.0, 15.5, 40.0, 126.0, 88.0, 0.0, 0.0, 0.0, 1.696023897595277E9, 0.0, 2023-09-29 16:44:57.595
80.0, 27010.54090387117, 14431.493214546826, 8591.183554075189, -9379.529581013869, 9395.712243999511, -9098.322284021651, -187500.02235174447, 34285.1396542954, -24901.743221490768, 24957.51082390676, 2305.9624202206637, -3317.5129672900403, 11559.830493906797, -148.08030701640928, -118504.47875314699, -12784.549627846436, 0.15, 1.002, -0.106, 192.0, 0.0, 0.0, 0.0, 0.0, 0.0, 0.0, 0.0, 0.0, 0.0, 1.696023897595281E9, 0.0, 2023-09-29 16:44:57.595
82.0, 27046.214288021838, 14449.53107232226, 8534.074846991878, -9440.952174777052, 9501.190126084104, -9122.66333373348, -187500.02235174447, 34308.92191039585, -24803.082621465044, 24495.61202473784, 2147.890883432732, -3618.3003924251075, 11659.385163710735, -59.500343740027404, -119065.44048374183, -12673.08147824782, 0.15, 1.002, -0.106, 192.0, 0.0, 0.0, 0.0, 0.0, 0.0, 0.0, 0.0, 0.0, 0.0, 1.696023897595284E9, 0.0, 2023-09-29 16:44:57.595
84.0, 27084.16755010695, 14520.028474334298, 8557.343012969854, -9412.632514552179, 9386.52567702838, -9125.323191323661, -187500.02235174447, 34350.89848648292, -24885.985241649778, 24992.692469679412, 2344.9662142951747, -3286.1758215636996, 11564.569063731322, -141.28537670199594, -118553.45142524857, -12785.667215069201, 0.15, 1.002, -0.106, 192.0, 0.0, 0.0, 0.0, 0.0, 0.0, 0.0, 0.0, 0.0, 0.0, 1.696023897595287E9, 0.0, 2023-09-29 16:44:57.595
86.0, 26980.34369711205, 14372.12698127353, 8548.201149487633, -9424.590697835767, 9507.560373253868, -9105.56424922517, -187500.02235174447, 34252.997845768674, -24832.028130534665, 24469.259318025033, 2120.644106941713, -3642.730849114758, 11645.795303081906, -81.69562598414731, -119079.09739960401, -12691.588722656814, 0.15, 1.002, -0.106, 192.0, 0.0, 0.0, 0.0, 0.0, 0.0, 0.0, 0.0, 0.0, 0.0, 1.696023897595291E9, 0.0, 2023-09-29 16:44:57.595
88.0, 27155.08963526364, 14599.958312506476, 8552.984422801068, -9419.33803788877, 9406.865764482709, -9128.988877414331, -187500.02235174447, 34397.27835622768, -24854.11165405651, 24999.018013360266, 2367.072089561473, -3273.032995823979, 11586.20555236406, -127.11437071733127, -118629.6485220967, -12781.979177234076, 0.154, 1.006, -0.106, 192.0, 2.0, 104.0, 15.5, 56.0, 126.0, 88.0, 0.0, 0.0, 0.0, 1.696023897595294E9, 0.0, 2023-09-29 16:44:57.595
90.0, 26916.529466692147, 14295.281683836185, 8570.441135220664, -9393.991159676452, 9512.947143667596, -9082.56430418066, -187500.02235174447, 34188.4683595262, -24823.020377519177, 24467.627640679795, 2125.673249444157, -3640.5850816470484, 11646.801131582395, -78.8122509494127, -119119.71051927931, -12687.006615043476, 0.154, 1.006, -0.106, 192.0, 0.0, 0.0, 0.0, 0.0, 0.0, 0.0, 0.0, 0.0, 0.0, 1.696023897656044E9, 0.0, 2023-09-29 16:44:57.656
92.0, 27214.925255170496, 14670.90274940762, 8521.1108352078, -9436.884157286186, 9395.064043410308, -9141.975240942866, -187500.02235174447, 34453.26947608822, -24852.457624966817, 24993.251263290796, 2381.2877990350485, -3263.8240771083924, 11585.66911049713, -114.41857986671685, -118717.82615397288, -12772.47968584057, 0.154, 1.006, -0.106, 192.0, 0.0, 0.0, 0.0, 0.0, 0.0, 0.0, 0.0, 0.0, 0.0, 1.696023897656068E9, 0.0, 2023-09-29 16:44:57.656
94.0, 26864.36049513346, 14235.602526140516, 8580.164144058723, -9381.965921159497, 9484.269855531438, -9075.992891310798, -187500.02235174447, 34155.23131552116, -24864.326401272585, 24496.997832894067, 2103.5673741778583, -3633.0078402766994, 11617.430939368121, -94.74904474604664, -119089.49096077574, -12705.849135619299, 0.154, 1.006, -0.106, 192.0, 0.0, 0.0, 0.0, 0.0, 0.0, 0.0, 0.0, 0.0, 0.0, 1.696023897656072E9, 0.0, 2023-09-29 16:44:57.656
96.0, 27261.036903981796, 14723.205831433039, 8509.286762390944, -9458.766515107933, 9397.43332832257, -9159.43195336246, -187500.02235174447, 34490.17220618394, -24849.39543597644, 24966.42916994443, 2368.9272843512636, -3290.4673564991185, 11591.547619288876, -110.7752455205018, -118784.79198036098, -12772.457334096114, 0.154, 1.006, -0.106, 192.0, 0.0, 0.0, 0.0, 0.0, 0.0, 0.0, 0.0, 0.0, 0.0, 1.696023897656075E9, 0.0, 2023-09-29 16:44:57.656
98.0, 26822.74154695768, 14182.941816203811, 8600.526583257506, -9373.449906522024, 9486.236809043505, -9070.874341830533, -187500.02235174447, 34111.48895162212, -24867.366238518505, 24517.42732732622, 2106.7413218905117, -3626.347020429018, 11619.330837646823, -111.3787426207951, -119086.4064200409, -12717.628504947246, 0.148, 1.014, -0.106, 192.0, 2.0, 80.0, 15.5, 88.0, 126.0, 88.0, 0.0, 0.0, 0.0, 1.696023897656078E9, 0.0, 2023-09-29 16:44:57.656
100.0, 27301.40415446808, 14763.72954413051, 8497.596800040817, -9467.796619867877, 9407.737482516466, -9164.036412720254, -187500.02235174447, 34517.55309314169, -24830.619970633983, 24916.249503642262, 2370.268389018582, -3313.8696329438253, 11608.244372396992, -102.50510007203819, -118896.0142607706, -12762.220235135585, 0.148, 1.014, -0.106, 192.0, 0.0, 0.0, 0.0, 0.0, 0.0, 0.0, 0.0, 0.0, 0.0, 1.696023897656081E9, 0.0, 2023-09-29 16:44:57.656
102.0, 26796.858226878434, 14158.734876958713, 8618.653848010761, -9352.7074876675, 9470.322366991326, -9056.79274282369, -187500.02235174447, 34092.6464310463, -24878.25153806824, 24564.81302557147, 2124.198034310107, -3592.9311624683337, 11604.310465372857, -121.16880669221959, -119061.93125986234, -12730.972496387065, 0.148, 1.014, -0.106, 192.0, 0.0, 0.0, 0.0, 0.0, 0.0, 0.0, 0.0, 0.0, 0.0, 1.696023897656085E9, 0.0, 2023-09-29 16:44:57.656
104.0, 27317.83268664273, 14781.11920131674, 8497.39563434072, -9472.624596670223, 9426.132968203185, -9158.403773117516, -187500.02235174447, 34532.9534450714, -24818.415918161383, 24866.226299551287, 2356.298548734015, -3343.396287369286, 11626.081064472326, -80.44392829465012, -119016.78073606262, -12737.05217087891, 0.148, 1.014, -0.106, 192.0, 0.0, 0.0, 0.0, 0.0, 0.0, 0.0, 0.0, 0.0, 0.0, 1.696023897656088E9, 0.0, 2023-09-29 16:44:57.656
106.0, 26788.766895385612, 14146.977859375223, 8626.119330658834, -9342.693906151522, 9458.051259285363, -9048.50024563077, -187500.02235174447, 34084.42098908675, -24890.053259140645, 24626.59324724594, 2146.4603717875925, -3551.1334003369097, 11596.86733446924, -123.31457415992907, -119048.9448963338, -12738.102702868307, 0.148, 1.014, -0.106, 192.0, 0.0, 0.0, 0.0, 0.0, 0.0, 0.0, 0.0, 0.0, 0.0, 1.696023897714967E9, 0.0, 2023-09-29 16:44:57.714
108.0, 27317.497410475902, 14774.525436702424, 8481.212971355078, -9488.15905906666, 9425.14949144715, -9170.071383723187, -187500.02235174447, 34524.660947878474, -24815.621950104472, 24802.680290064847, 2323.50853961808, -3386.5351541680284, 11635.960535521572, -79.10282362733169, -119145.1691562139, -12736.627487734258, 0.15, 1.016, -0.108, 192.0, 2.0, 88.0, 15.5, 96.0, 126.0, 80.0, 0.0, 0.0, 0.0, 1.696023897714976E9, 0.0, 2023-09-29 16:44:57.714
110.0, 26801.93207286979, 14157.013792635655, 8626.074627169923, -9342.001002073408, 9436.638288097178, -9056.859798057056, -187500.02235174447, 34085.82914898743, -24917.79177400968, 24698.11882950292, 2171.2708081329833, -3508.083940515988, 11577.890703426685, -140.97245227962165, -119028.73891934621, -12772.949072474132, 0.15, 1.016, -0.108, 192.0, 0.0, 0.0, 0.0, 0.0, 0.0, 0.0, 0.0, 0.0, 0.0, 1.696023897714979E9, 0.0, 2023-09-29 16:44:57.714
112.0, 27298.140799777604, 14742.294221197872, 8475.356814307788, -9494.506954491968, 9430.53626186088, -9178.252122193828, -187500.02235174447, 34503.493845879304, -24810.458697135295, 24726.28202751661, 2302.699065530189, -3435.6866402252485, 11646.577614137843, -76.44296603715016, -119254.62564881155, -12731.643048720724, 0.15, 1.016, -0.108, 192.0, 0.0, 0.0, 0.0, 0.0, 0.0, 0.0, 0.0, 0.0, 0.0, 1.696023897714982E9, 0.0, 2023-09-29 16:44:57.714
114.0, 26822.383919046395, 14184.886417971424, 8628.600374293372, -9341.643374162124, 9430.491558371968, -9059.74317309179, -187500.02235174447, 34100.98363172813, -24916.27185538672, 24758.17796685433, 2206.251288205539, -3466.1744196622876, 11581.131706372704, -146.15805699325287, -119022.9945210212, -12780.369851633293, 0.15, 1.016, -0.108, 192.0, 0.0, 0.0, 0.0, 0.0, 0.0, 0.0, 0.0, 0.0, 0.0, 1.696023897714986E9, 0.0, 2023-09-29 16:44:57.714
116.0, 27259.785206292298, 14692.181610129073, 8471.758183450484, -9499.916076650152, 9452.664488871633, -9184.465907152404, -187500.02235174447, 34470.79324374119, -24815.554894871104, 24657.908041227824, 2264.7234517006223, -3488.3249984174968, 11655.607718897787, -74.0736811248876, -119360.90819369652, -12723.842289905822, 0.15, 1.016, -0.108, 192.0, 0.0, 0.0, 0.0, 0.0, 0.0, 0.0, 0.0, 0.0, 0.0, 1.696023897714989E9, 0.0, 2023-09-29 16:44:57.714
118.0, 26863.578184077523, 14233.970848795278, 8617.648019510272, -9349.622946932668, 9405.815232493309, -9069.60029239658, -187500.02235174447, 34134.26537922208, -24932.678035816913, 24818.281807694653, 2226.8372448488767, -3426.2765558095643, 11567.497142254966, -162.49718219008236, -119007.48241036921, -12804.733253089578, 0.154, 1.008, -0.10400000000000001, 192.0, 2.0, 104.0, 15.5, 64.0, 126.0, 96.0, 0.0, 0.0, 0.0, 1.696023897714992E9, 0.0, 2023-09-29 16:44:57.714
120.0, 27214.746441214855, 14632.860080344688, 8490.131317392745, -9483.040509586395, 9466.835494856297, -9161.018927218787, -187500.02235174447, 34427.4755629868, -24808.849371534514, 24589.712868894683, 2236.180274031195, -3536.0459728295773, 11665.755410880496, -61.51200074100504, -119458.60766871068, -12705.379748985739, 0.154, 1.008, -0.10400000000000001, 192.0, 0.0, 0.0, 0.0, 0.0, 0.0, 0.0, 0.0, 0.0, 0.0, 1.696023897774786E9, 0.0, 2023-09-29 16:44:57.774
122.0, 26920.46337371628, 14302.009558917232, 8598.224353578611, -9371.348842543226, 9384.80459270532, -9086.22999027133, -187500.02235174447, 34187.507234514625, -24931.716910805335, 24882.230148581286, 2272.2559895820605, -3377.0356627745227, 11550.934499613584, -163.41360371274993, -119005.60486383497, -12815.596200894857, 0.154, 1.008, -0.10400000000000001, 192.0, 0.0, 0.0, 0.0, 0.0, 0.0, 0.0, 0.0, 0.0, 0.0, 1.696023897774796E9, 0.0, 2023-09-29 16:44:57.774
124.0, 27147.60180087111, 14556.26065209635, 8499.653160530706, -9477.5866839393, 9468.847151857275, -9152.458209092405, -187500.02235174447, 34371.6632570819, -24822.52863914116, 24539.890830503802, 2187.274657162983, -3586.896191465401, 11656.367678209268, -75.34773055884011, -119524.32179740928, -12715.639199690724, 0.154, 1.008, -0.10400000000000001, 192.0, 0.0, 0.0, 0.0, 0.0, 0.0, 0.0, 0.0, 0.0, 0.0, 1.6960238977748E9, 0.0, 2023-09-29 16:44:57.774
126.0, 26973.079380164076, 14374.853894097078, 8582.93576037118, -9388.135002629162, 9377.18264784606, -9101.116252078564, -187500.02235174447, 34231.115487946925, -24929.280570659706, 24936.32137016313, 2293.3113328589598, -3348.6265955718277, 11554.264909537425, -165.96170258065493, -119042.48524218623, -12820.088901530375, 0.154, 1.008, -0.10400000000000001, 192.0, 0.0, 0.0, 0.0, 0.0, 0.0, 0.0, 0.0, 0.0, 0.0, 1.696023897774803E9, 0.0, 2023-09-29 16:44:57.774
128.0, 27074.712762202354, 14474.63208134557, 8516.528727594463, -9446.383648679692, 9482.682881675111, -9120.718731965868, -187500.02235174447, 34303.28927079312, -24835.336188714053, 24497.444867783175, 2153.5682265243804, -3630.7056105978027, 11654.803056097397, -72.75492820202449, -119606.50916177145, -12704.060996062875, 0.156, 1.01, -0.106, 192.0, 2.0, 112.0, 15.5, 72.0, 126.0, 88.0, 0.0, 0.0, 0.0, 1.696023897774807E9, 0.0, 2023-09-29 16:44:57.774
130.0, 27049.16471828994, 14463.165636439997, 8557.566530414406, -9398.349749845238, 9368.085487852752, -9112.180365583941, -187500.02235174447, 34289.498244464194, -24921.524515333716, 24982.23185327433, 2326.3248594194483, -3315.009571911046, 11551.269775780413, -151.09779251787575, -119093.33546082205, -12818.278410229494, 0.156, 1.01, -0.106, 192.0, 0.0, 0.0, 0.0, 0.0, 0.0, 0.0, 0.0, 0.0, 0.0, 1.69602389777481E9, 0.0, 2023-09-29 16:44:57.774
132.0, 27013.334871928084, 14393.271731528252, 8534.1642539697, -9428.837529282277, 9481.609997941256, -9111.018074872265, -187500.02235174447, 34247.92399977732, -24843.740444629246, 24482.402143764753, 2136.4914937605254, -3645.591872405037, 11654.467779930566, -71.30206481242953, -119649.55862159237, -12703.122222795751, 0.156, 1.01, -0.106, 192.0, 0.0, 0.0, 0.0, 0.0, 0.0, 0.0, 0.0, 0.0, 0.0, 1.696023897774814E9, 0.0, 2023-09-29 16:44:57.774
134.0, 27119.528009835245, 14541.30733505575, 8547.821169831894, -9414.398302364149, 9364.017470361885, -9132.051066404709, -187500.02235174447, 34345.31055036909, -24910.25923612824, 24992.46895223486, 2354.376298710859, -3293.328379789398, 11558.355278772746, -152.7965250964791, -119164.05638027863, -12817.697264873656, 0.156, 1.01, -0.106, 192.0, 0.0, 0.0, 0.0, 0.0, 0.0, 0.0, 0.0, 0.0, 0.0, 1.696023897774817E9, 0.0, 2023-09-29 16:44:57.774
136.0, 26947.553687996115, 14314.727701512302, 8547.083562264868, -9416.164090176117, 9469.450648957569, -9108.738196937824, -187500.02235174447, 34196.82791195249, -24860.839529137556, 24464.721913900605, 2114.743246405512, -3658.265311511196, 11634.574727365343, -97.8112337364237, -119678.16885449516, -12717.695560180613, 0.156, 1.01, -0.106, 192.0, 0.0, 0.0, 0.0, 0.0, 0.0, 0.0, 0.0, 0.0, 0.0, 1.696023897834974E9, 0.0, 2023-09-29 16:44:57.834
138.0, 27184.638641433557, 14621.550097650303, 8524.173024198179, -9434.604279351744, 9357.311947025293, -9157.353241128116, -187500.02235174447, 34403.13451327497, -24901.16207613493, 24990.03261208923, 2368.703766906711, -3290.0426733544678, 11569.777020189407, -141.24067321308533, -119234.41967182395, -12812.958695049132, 0.16, 1.012, -0.11, 192.0, 2.5, 0.0, 15.5, 80.0, 126.0, 72.0, 0.0, 0.0, 0.0, 1.696023897834983E9, 0.0, 2023-09-29 16:44:57.834
140.0, 26885.50524538818, 14245.951383823322, 8563.26622525051, -9393.074738153784, 9464.846189599775, -9098.411690999472, -187500.02235174447, 34144.368367715884, -24885.314689316117, 24461.346800487852, 2108.41770272466, -3662.4227359798833, 11622.929468504128, -110.21645190911913, -119673.76556083746, -12737.186281345641, 0.16, 1.012, -0.11, 192.0, 0.0, 0.0, 0.0, 0.0, 0.0, 0.0, 0.0, 0.0, 0.0, 1.696023897834987E9, 0.0, 2023-09-29 16:44:57.834
142.0, 27234.7289007579, 14679.284653578361, 8512.997151970525, -9438.605241609244, 9378.456697280013, -9156.168598671986, -187500.02235174447, 34447.01098764074, -24876.53045374518, 24966.965611811356, 2377.108022821906, -3299.005722881046, 11586.853752953262, -128.477827129105, -119335.0695771062, -12803.950942033642, 0.16, 1.012, -0.11, 192.0, 0.0, 0.0, 0.0, 0.0, 0.0, 0.0, 0.0, 0.0, 0.0, 1.69602389783499E9, 0.0, 2023-09-29 16:44:57.834
144.0, 26832.26339009564, 14183.835885982024, 8570.351728242842, -9377.652034479623, 9464.756782621955, -9083.212504769863, -187500.02235174447, 34109.92432951026, -24885.64996548295, 24505.849123698372, 2111.546946948403, -3649.145799773431, 11618.034436468415, -108.49536758606048, -119690.86464534578, -12737.208633090095, 0.16, 1.012, -0.11, 192.0, 0.0, 0.0, 0.0, 0.0, 0.0, 0.0, 0.0, 0.0, 0.0, 1.696023897834993E9, 0.0, 2023-09-29 16:44:57.834
146.0, 27273.419770410037, 14725.418654134113, 8482.576427766851, -9463.616843654734, 9377.629682735167, -9174.653491336525, -187500.02235174447, 34491.37920038452, -24875.72579094479, 24935.874335274024, 2363.6746244042665, -3321.4468743141742, 11587.747822731475, -120.61001308083691, -119442.78263363632, -12802.989817022064, 0.16, 1.012, -0.11, 192.0, 0.0, 0.0, 0.0, 0.0, 0.0, 0.0, 0.0, 0.0, 0.0, 1.696023897834996E9, 0.0, 2023-09-29 16:44:57.834
148.0, 26797.484075723183, 14148.207205320265, 8603.834641436892, -9344.884377108143, 9472.714003648043, -9064.705260360868, -187500.02235174447, 34084.175119897736, -24906.235922126285, 24538.48267060312, 2116.08435107283, -3625.8776337954564, 11603.14817466118, -118.44189386867212, -119679.73347660703, -12748.608022762302, 0.166, 1.016, -0.112, 192.0, 2.5, 24.0, 15.5, 96.0, 126.0, 64.0, 0.0, 0.0, 0.0, 1.696023897834999E9, 0.0, 2023-09-29 16:44:57.834
150.0, 27294.855093342674, 14752.933651558596, 8483.045814400413, -9462.655718643156, 9393.85704920972, -9172.105392468618, -187500.02235174447, 34512.5463023837, -24857.06208432461, 24889.49446552926, 2363.875790104364, -3342.0775344464228, 11609.563125319853, -96.8501087248455, -119565.6725246516, -12775.921854486687, 0.166, 1.016, -0.112, 192.0, 0.0, 0.0, 0.0, 0.0, 0.0, 0.0, 0.0, 0.0, 0.0, 1.696023897895286E9, 0.0, 2023-09-29 16:44:57.895
152.0, 26777.613374902416, 14129.923478355824, 8604.639304237284, -9343.297403251816, 9445.489578901479, -9066.180475494919, -187500.02235174447, 34072.708674992165, -24925.0337392132, 24588.081191549445, 2138.2796333169504, -3591.2994851230965, 11590.474735555023, -128.2096061956413, -119667.21649971206, -12759.783894989956, 0.166, 1.016, -0.112, 192.0, 0.0, 0.0, 0.0, 0.0, 0.0, 0.0, 0.0, 0.0, 0.0, 1.696023897895303E9, 0.0, 2023-09-29 16:44:57.895
154.0, 27311.730660406432, 14763.193102263584, 8486.331520835343, -9465.829666355809, 9413.81715700831, -9170.227845934372, -187500.02235174447, 34515.96611928536, -24843.472223695782, 24824.473240908774, 2346.3296707069485, -3384.8587733338804, 11615.955724234072, -87.75294873153553, -119679.44290392911, -12765.036554936953, 0.166, 1.016, -0.112, 192.0, 0.0, 0.0, 0.0, 0.0, 0.0, 0.0, 0.0, 0.0, 0.0, 1.696023897895306E9, 0.0, 2023-09-29 16:44:57.895
156.0, 26783.916566838812, 14133.052722579567, 8632.958964462157, -9315.380074427138, 9447.76945683592, -9049.394315408983, -187500.02235174447, 34072.19458486969, -24914.751936763758, 24655.471701082195, 2174.511811079003, -3544.0031938556667, 11590.698252999575, -131.24944344156307, -119660.8909560312, -12761.013240934997, 0.166, 1.016, -0.112, 192.0, 0.0, 0.0, 0.0, 0.0, 0.0, 0.0, 0.0, 0.0, 0.0, 1.69602389789531E9, 0.0, 2023-09-29 16:44:57.895
158.0, 27304.73456439192, 14750.720828857522, 8482.82229695586, -9470.25531175796, 9423.406055379637, -9179.123840227585, -187500.02235174447, 34511.07108724965, -24836.163203258897, 24767.878623947934, 2331.8680920443644, -3416.5088434825952, 11634.798244809896, -78.85695443832331, -119802.46690541111, -12747.602194261814, 0.158, 1.014, -0.106, 192.0, 2.0, 120.0, 15.5, 88.0, 126.0, 88.0, 0.0, 0.0, 0.0, 1.696023897895313E9, 0.0, 2023-09-29 16:44:57.895
160.0, 26805.44129674927, 14162.244100838197, 8607.008589149546, -9349.019449832374, 9398.014473678408, -9083.36896698105, -187500.02235174447, 34093.473445591146, -24942.98219001081, 24723.756280393158, 2195.8130235449107, -3499.545574134061, 11565.641947465176, -160.93256007821086, -119624.21174338004, -12805.023825767497, 0.158, 1.014, -0.106, 192.0, 0.0, 0.0, 0.0, 0.0, 0.0, 0.0, 0.0, 0.0, 0.0, 1.696023897895317E9, 0.0, 2023-09-29 16:44:57.895
162.0, 27282.963965292452, 14724.301066911348, 8486.10800339079, -9473.228093770516, 9423.96484899102, -9171.367784901595, -187500.02235174447, 34485.07600844813, -24830.28469446715, 24695.70484110175, 2285.599981021879, -3478.132602945877, 11642.844872813806, -79.46045153861661, -119898.8476275024, -12754.575938531869, 0.158, 1.014, -0.106, 192.0, 0.0, 0.0, 0.0, 0.0, 0.0, 0.0, 0.0, 0.0, 0.0, 1.69602389789532E9, 0.0, 2023-09-29 16:44:57.895
164.0, 26838.812451221045, 14209.361578149985, 8629.025057438022, -9335.518996181368, 9402.618933036201, -9067.722745862335, -187500.02235174447, 34117.389812158326, -24936.880163774513, 24804.8037057881, 2233.3639542298265, -3450.7517159881254, 11563.138552086182, -157.6021501543701, -119615.87454269822, -12810.276485714494, 0.158, 1.014, -0.106, 192.0, 0.0, 0.0, 0.0, 0.0, 0.0, 0.0, 0.0, 0.0, 0.0, 1.696023897895324E9, 0.0, 2023-09-29 16:44:57.895
166.0, 27236.092357169673, 14670.276900562872, 8504.145861166222, -9456.330174962304, 9450.630480126201, -9149.798351502222, -187500.02235174447, 34445.111089362035, -24821.656921107402, 24630.63891299235, 2258.0626318529407, -3520.2879929885858, 11664.503713191, -60.684986196158675, -120018.47416382721, -12724.08815909483, 0.158, 1.014, -0.106, 192.0, 0.0, 0.0, 0.0, 0.0, 0.0, 0.0, 0.0, 0.0, 0.0, 1.696023897955478E9, 0.0, 2023-09-29 16:44:57.955
168.0, 26893.015431525164, 14276.863846405013, 8616.977467176614, -9344.012659074386, 9371.348842543226, -9076.641091900003, -187500.02235174447, 34163.94849585873, -24943.7868528112, 24862.717075671804, 2268.769117447033, -3398.806261873992, 11555.114275826727, -158.76444086604607, -119615.53926653138, -12822.838166098378, 0.16, 1.012, -0.106, 192.0, 2.5, 0.0, 15.5, 80.0, 126.0, 88.0, 0.0, 0.0, 0.0, 1.696023897955485E9, 0.0, 2023-09-29 16:44:57.955
170.0, 27185.644469934046, 14606.775594565344, 8514.986457227047, -9446.651869613155, 9461.269910486926, -9146.33383111165, -187500.02235174447, 34401.18991150736, -24826.77547058767, 24572.211452986176, 2226.6807826376894, -3562.242217331197, 11660.189826511125, -68.351634544329, -120096.54880720959, -12722.098853838308, 0.16, 1.012, -0.106, 192.0, 0.0, 0.0, 0.0, 0.0, 0.0, 0.0, 0.0, 0.0, 0.0, 1.696023897955489E9, 0.0, 2023-09-29 16:44:57.955
172.0, 26956.22616484477, 14352.256280452762, 8612.46241479664, -9346.739571897933, 9379.149601358129, -9086.900542604988, -187500.02235174447, 34213.41290633832, -24925.614884569037, 24927.581838081103, 2308.9575539776747, -3354.1474764522886, 11565.485485253988, -149.60022563937017, -119640.46146159906, -12817.853727084843, 0.16, 1.012, -0.106, 192.0, 0.0, 0.0, 0.0, 0.0, 0.0, 0.0, 0.0, 0.0, 0.0, 1.696023897955492E9, 0.0, 2023-09-29 16:44:57.955
174.0, 27122.56784708117, 14528.20921280494, 8531.504396379518, -9424.501290857947, 9469.316538490837, -9128.072455891665, -187500.02235174447, 34346.674006780864, -24837.92899107087, 24518.500211060073, 2196.416520645204, -3603.3023718955965, 11658.133466021236, -69.9386084006558, -120167.51559585519, -12720.511879981981, 0.16, 1.012, -0.106, 192.0, 0.0, 0.0, 0.0, 0.0, 0.0, 0.0, 0.0, 0.0, 0.0, 1.696023897955495E9, 0.0, 2023-09-29 16:44:57.955
176.0, 27016.44176440737, 14422.686627231435, 8591.719995942116, -9355.814380146789, 9375.394508289637, -9097.003531098788, -187500.02235174447, 34262.45263367327, -24922.77621302321, 24960.058922774664, 2338.3500979364035, -3325.2690226160316, 11563.540883486377, -145.06282151494284, -119678.66059287317, -12822.279372486993, 0.16, 1.012, -0.106, 192.0, 0.0, 0.0, 0.0, 0.0, 0.0, 0.0, 0.0, 0.0, 0.0, 1.696023897955498E9, 0.0, 2023-09-29 16:44:57.955
178.0, 27055.713779415346, 14439.271621617274, 8548.02233553199, -9407.268095882904, 9486.505029976968, -9114.70611270739, -187500.02235174447, 34282.52450019414, -24830.619970633983, 24484.480855999096, 2167.3369011088494, -3636.9417473008334, 11665.755410880496, -65.15533508722008, -120242.81862292513, -12713.784004900934, 0.16, 1.012, -0.108, 192.0, 2.5, 0.0, 15.5, 80.0, 126.0, 80.0, 0.0, 0.0, 0.0, 1.696023897955502E9, 0.0, 2023-09-29 16:44:57.955
180.0, 27091.27540484374, 14507.377386972594, 8571.201094532144, -9370.968862887486, 9367.705508197012, -9112.448586517405, -187500.02235174447, 34321.61770124647, -24906.12416340401, 24988.691507421914, 2373.308226264504, -3297.2175833246215, 11571.922787657117, -134.57985336540384, -119737.93741916865, -12821.854689342343, 0.16, 1.012, -0.108, 192.0, 0.0, 0.0, 0.0, 0.0, 0.0, 0.0, 0.0, 0.0, 0.0, 1.696023898015797E9, 0.0, 2023-09-29 16:44:58.015
182.0, 26985.842226248056, 14358.224196222329, 8552.827960589882, -9398.327398100782, 9483.174620053127, -9115.08609236313, -187500.02235174447, 34226.95806347824, -24846.95909583081, 24460.430378965186, 2149.321395077872, -3653.996128320233, 11655.026573541949, -78.67814048268086, -120280.52601582123, -12727.7538451855, 0.16, 1.012, -0.108, 192.0, 0.0, 0.0, 0.0, 0.0, 0.0, 0.0, 0.0, 0.0, 0.0, 1.696023898015807E9, 0.0, 2023-09-29 16:44:58.015
184.0, 27161.81751034469, 14590.235303668416, 8545.474236664086, -9399.646151023646, 9370.14184834264, -9145.52916831126, -187500.02235174447, 34384.85078631053, -24905.878294215, 24988.825617888644, 2384.2605810476043, -3289.8638593988253, 11573.710927213542, -145.44280117068305, -119805.5737978904, -12836.53978544948, 0.16, 1.012, -0.108, 192.0, 0.0, 0.0, 0.0, 0.0, 0.0, 0.0, 0.0, 0.0, 0.0, 1.696023898015811E9, 0.0, 2023-09-29 16:44:58.015
186.0, 26929.873458131966, 14288.77732619969, 8562.394507216753, -9381.541238014846, 9472.557541436856, -9103.75375792429, -187500.02235174447, 34190.9717549052, -24870.651944953435, 24459.13397778678, 2138.3913920392265, -3663.093288313543, 11640.430884412634, -90.56926853290422, -120285.10812343456, -12736.09104586733, 0.16, 1.012, -0.108, 192.0, 0.0, 0.0, 0.0, 0.0, 0.0, 0.0, 0.0, 0.0, 0.0, 1.696023898015814E9, 0.0, 2023-09-29 16:44:58.015
188.0, 27232.516078056822, 14665.203054571517, 8531.392637657242, -9407.871592983198, 9363.61513896169, -9146.66910727848, -187500.02235174447, 34440.7301474488, -24892.467247541816, 24977.47093170535, 2402.6784184787775, -3291.6967024441606, 11579.790601705385, -130.80240855245694, -119869.05275214349, -12823.307552731938, 0.154, 1.006, -0.108, 192.0, 2.0, 104.0, 15.5, 56.0, 126.0, 80.0, 0.0, 0.0, 0.0, 1.696023898015818E9, 0.0, 2023-09-29 16:44:58.015
190.0, 26877.57037610655, 14228.092340003532, 8588.344882529365, -9353.601557445712, 9472.177561781116, -9074.763545365757, -187500.02235174447, 34136.16527750078, -24878.005668879232, 24479.18349256319, 2137.854950172299, -3654.2196457647856, 11637.212233211068, -87.26121035351878, -120285.42104785694, -12734.23585107754, 0.154, 1.006, -0.108, 192.0, 0.0, 0.0, 0.0, 0.0, 0.0, 0.0, 0.0, 0.0, 0.0, 1.696023898015821E9, 0.0, 2023-09-29 16:44:58.015
192.0, 27276.012572766853, 14718.869593008709, 8519.769730540482, -9424.031904224385, 9382.591770004246, -9153.419334103983, -187500.02235174447, 34472.871955975526, -24877.804503179133, 24947.22902145732, 2406.2770493360817, -3303.1184438608225, 11597.135555402703, -113.12217868830905, -119982.04082036506, -12810.902334559243, 0.154, 1.006, -0.108, 192.0, 0.0, 0.0, 0.0, 0.0, 0.0, 0.0, 0.0, 0.0, 0.0, 1.696023898015825E9, 0.0, 2023-09-29 16:44:58.015
194.0, 26832.375148817915, 14175.677499255837, 8622.990086435091, -9329.774597856354, 9473.339852492792, -9053.596443366581, -187500.02235174447, 34094.456922347184, -24883.660660226426, 24506.76554522104, 2149.209636355595, -3634.6395176219366, 11633.63595409822, -98.03475118097678, -120295.12170495055, -12742.684810481645, 0.154, 1.006, -0.108, 192.0, 0.0, 0.0, 0.0, 0.0, 0.0, 0.0, 0.0, 0.0, 0.0, 1.696023898015828E9, 0.0, 2023-09-29 16:44:58.015
196.0, 27312.35650925118, 14759.192140006084, 8523.748341053528, -9428.703418815545, 9396.896886455643, -9151.027697447265, -187500.02235174447, 34510.35583142708, -24852.837604622557, 24906.571198293117, 2409.853328448931, -3320.932784191702, 11613.899363744184, -97.85593722533432, -120106.54003698113, -12790.562247104914, 0.154, 1.006, -0.108, 192.0, 0.0, 0.0, 0.0, 0.0, 0.0, 0.0, 0.0, 0.0, 0.0, 1.696023898074639E9, 0.0, 2023-09-29 16:44:58.074
198.0, 26815.097250353963, 14155.382115290418, 8642.011420966557, -9313.591934870712, 9465.91907333363, -9040.721838560325, -187500.02235174447, 34089.18191065573, -24890.34383181856, 24560.47678714714, 2173.7518517675226, -3596.3286276255403, 11626.863375528263, -104.31559137291806, -120281.06245768815, -12748.339801828839, 0.156, 1.01, -0.106, 192.0, 2.0, 112.0, 15.5, 72.0, 126.0, 88.0, 0.0, 0.0, 0.0, 1.696023898074646E9, 0.0, 2023-09-29 16:44:58.074
200.0, 27343.000750899406, 14783.801410651377, 8530.297402178932, -9422.847261768255, 9409.704436028533, -9145.439761333439, -187500.02235174447, 34523.72217461135, -24835.24678173623, 24864.8181396506, 2405.874717935886, -3347.9560432381686, 11635.893480288207, -71.72674795708036, -120221.53976220367, -12774.200770163628, 0.156, 1.01, -0.106, 192.0, 0.0, 0.0, 0.0, 0.0, 0.0, 0.0, 0.0, 0.0, 0.0, 1.69602389807465E9, 0.0, 2023-09-29 16:44:58.074
202.0, 26811.185695074284, 14149.235385565209, 8661.032755498023, -9297.230457929429, 9449.468189414525, -9036.40795188045, -187500.02235174447, 34072.68632324771, -24891.282605085686, 24631.331817070462, 2205.6254393607906, -3548.3841357689066, 11627.77979705093, -100.22522213759687, -120275.76509425225, -12754.263014109494, 0.156, 1.01, -0.106, 192.0, 0.0, 0.0, 0.0, 0.0, 0.0, 0.0, 0.0, 0.0, 0.0, 1.696023898074653E9, 0.0, 2023-09-29 16:44:58.074
204.0, 27336.518745007368, 14776.492390214491, 8516.036989216445, -9447.903567302654, 9420.254459411439, -9165.9139592545, -187500.02235174447, 34517.55309314169, -24815.979578015755, 24803.552008098606, 2381.3548542684143, -3382.9141715662686, 11655.741829364519, -67.21169557710834, -120362.02047610527, -12760.432095579159, 0.156, 1.01, -0.106, 192.0, 0.0, 0.0, 0.0, 0.0, 0.0, 0.0, 0.0, 0.0, 0.0, 1.696023898074657E9, 0.0, 2023-09-29 16:44:58.074
206.0, 26808.659947950837, 14152.834016422514, 8647.71111580266, -9319.917478551564, 9428.39049439317, -9057.08331550161, -187500.02235174447, 34077.827224472436, -24919.378747866005, 24688.775800320604, 2219.572927900902, -3514.990629552678, 11599.01310193695, -133.28345218699602, -120259.91770743343, -12791.545723860947, 0.156, 1.01, -0.106, 192.0, 0.0, 0.0, 0.0, 0.0, 0.0, 0.0, 0.0, 0.0, 0.0, 1.69602389807466E9, 0.0, 2023-09-29 16:44:58.074
208.0, 27307.036794070817, 14744.551747387857, 8508.236230401544, -9463.415677954636, 9427.652886826145, -9170.38430814556, -187500.02235174447, 34500.49871212229, -24839.78418586066, 24707.75243136316, 2336.2266822131496, -3450.34938458793, 11648.410457183178, -85.60718126382605, -120472.61690767013, -12769.350441616827, 0.154, 1.012, -0.10200000000000001, 192.0, 2.0, 104.0, 15.5, 80.0, 126.0, 104.0, 0.0, 0.0, 0.0, 1.696023898074664E9, 0.0, 2023-09-29 16:44:58.074
210.0, 26835.057358152553, 14187.456868583784, 8648.33696464741, -9313.390769170615, 9409.011531950418, -9052.769428821735, -187500.02235174447, 34102.145922439806, -24938.735358564303, 24747.002094626678, 2249.8148381489323, -3475.159820933321, 11580.81878195033, -150.42724018421654, -120233.36383502053, -12814.836241583376, 0.154, 1.012, -0.10200000000000001, 192.0, 0.0, 0.0, 0.0, 0.0, 0.0, 0.0, 0.0, 0.0, 0.0, 1.696023898135039E9, 0.0, 2023-09-29 16:44:58.135
212.0, 27277.040753011795, 14700.228238132982, 8501.910686720692, -9465.092058788785, 9438.672296842611, -9167.635043577558, -187500.02235174447, 34474.52598506522, -24822.77450833017, 24644.519346299094, 2312.690295301711, -3497.757434577636, 11664.548416679909, -63.970692631088816, -120585.44851368053, -12742.796569203922, 0.154, 1.012, -0.10200000000000001, 192.0, 0.0, 0.0, 0.0, 0.0, 0.0, 0.0, 0.0, 0.0, 0.0, 1.69602389813505E9, 0.0, 2023-09-29 16:44:58.135
214.0, 26873.61411733796, 14235.423712184873, 8645.833569268414, -9313.189603470517, 9398.372101589692, -9057.17272247943, -187500.02235174447, 34131.6055216319, -24943.898611533477, 24807.307101167098, 2275.049957638974, -3438.033573393056, 11558.489389239478, -155.97047280913267, -120233.31913153162, -12829.342523734871, 0.154, 1.012, -0.10200000000000001, 192.0, 0.0, 0.0, 0.0, 0.0, 0.0, 0.0, 0.0, 0.0, 0.0, 1.696023898135054E9, 0.0, 2023-09-29 16:44:58.135
216.0, 27224.447098308457, 14633.888260589632, 8517.668666561683, -9449.132913247695, 9454.810256339342, -9152.994650959332, -187500.02235174447, 34426.4250309974, -24832.698682868326, 24586.047182804014, 2272.8371349378986, -3549.769943925136, 11661.419172456166, -65.75883218751338, -120684.3326311508, -12732.51476675448, 0.154, 1.012, -0.10200000000000001, 192.0, 0.0, 0.0, 0.0, 0.0, 0.0, 0.0, 0.0, 0.0, 0.0, 1.696023898135057E9, 0.0, 2023-09-29 16:44:58.135
218.0, 26933.00270235571, 14305.921114196912, 8629.293278371488, -9335.295478736816, 9386.838601450754, -9089.31453100616, -187500.02235174447, 34186.83668218097, -24942.088120232598, 24873.870596155, 2313.606716824379, -3392.0560350484893, 11560.344584029268, -168.19687702618566, -120236.20250656636, -12834.25990751504, 0.158, 1.012, -0.10400000000000001, 192.0, 2.0, 120.0, 15.5, 80.0, 126.0, 96.0, 0.0, 0.0, 0.0, 1.69602389813506E9, 0.0, 2023-09-29 16:44:58.135
220.0, 27165.349085968624, 14560.753352731866, 8539.238099961054, -9426.28943041437, 9479.77715489592, -9137.169615884974, -187500.02235174447, 34376.55828911761, -24833.324531713075, 24520.400109338774, 2237.856654865343, -3598.764967771169, 11669.778724882452, -70.49740201203848, -120751.00788486098, -12727.37386552976, 0.158, 1.012, -0.10400000000000001, 192.0, 0.0, 0.0, 0.0, 0.0, 0.0, 0.0, 0.0, 0.0, 0.0, 1.696023898135063E9, 0.0, 2023-09-29 16:44:58.135
222.0, 26994.447647863348, 14377.223179009341, 8615.65871425375, -9342.582147429246, 9384.37990956067, -9093.047272330197, -187500.02235174447, 34238.960950250745, -24932.20864918335, 24912.650872784958, 2347.3802026963476, -3353.18635144071, 11568.927653900106, -154.98699605309918, -120265.55034703617, -12829.141358034774, 0.158, 1.012, -0.10400000000000001, 192.0, 0.0, 0.0, 0.0, 0.0, 0.0, 0.0, 0.0, 0.0, 0.0, 1.696023898135067E9, 0.0, 2023-09-29 16:44:58.135
224.0, 27097.93622469142, 14477.090773235652, 8535.97474527058, -9428.256383926439, 9479.307768262359, -9141.550557798215, -187500.02235174447, 34323.78582045863, -24845.081549296567, 24473.014411093525, 2200.5292416249804, -3633.76779958818, 11663.564939923875, -73.78310844696861, -120811.58111233487, -12729.050246363908, 0.158, 1.012, -0.10400000000000001, 192.0, 0.0, 0.0, 0.0, 0.0, 0.0, 0.0, 0.0, 0.0, 0.0, 1.69602389813507E9, 0.0, 2023-09-29 16:44:58.135
226.0, 27063.469834741336, 14462.182159683964, 8585.774431917003, -9369.828923920266, 9369.963034386998, -9120.025827887754, -187500.02235174447, 34297.43311374582, -24923.290303145684, 24945.016198756242, 2372.2576942751043, -3330.7675517520374, 11565.418430020623, -153.66824313023605, -120297.28982416271, -12843.44647448617, 0.158, 1.012, -0.10400000000000001, 192.0, 0.0, 0.0, 0.0, 0.0, 0.0, 0.0, 0.0, 0.0, 0.0, 1.696023898195326E9, 0.0, 2023-09-29 16:44:58.195
228.0, 27029.606941891547, 14399.530219975737, 8546.860044820314, -9404.921162715098, 9475.776192638421, -9117.455377275393, -187500.02235174447, 34264.330180207515, -24850.82594762158, 24445.767634602504, 2179.451546603626, -3662.9591778468107, 11657.194692754114, -76.77824220397976, -120852.21658375462, -12731.821862676366, 0.162, 1.012, -0.10200000000000001, 192.0, 2.5, 8.0, 15.5, 80.0, 126.0, 104.0, 0.0, 0.0, 0.0, 1.696023898195335E9, 0.0, 2023-09-29 16:44:58.195
230.0, 27131.08386171864, 14539.519195499326, 8562.148638027744, -9387.307988084316, 9355.389697002138, -9135.604993773102, -187500.02235174447, 34356.397015618924, -24922.865620001034, 24964.529271665728, 2392.0613398625064, -3316.7530079785597, 11554.935461871084, -149.26494947254056, -120355.53847021324, -12843.580584952902, 0.162, 1.012, -0.10200000000000001, 192.0, 0.0, 0.0, 0.0, 0.0, 0.0, 0.0, 0.0, 0.0, 0.0, 1.696023898195338E9, 0.0, 2023-09-29 16:44:58.195
232.0, 26956.85201368952, 14311.710216010835, 8601.018321635524, -9348.639470176635, 9498.26204756046, -9072.438963942404, -187500.02235174447, 34189.49653977115, -24858.62670643648, 24432.55775362942, 2162.240703373039, -3679.5665239771038, 11654.423076441655, -72.08437586836527, -120888.22524407212, -12718.991961359021, 0.162, 1.012, -0.10200000000000001, 192.0, 0.0, 0.0, 0.0, 0.0, 0.0, 0.0, 0.0, 0.0, 0.0, 1.696023898195341E9, 0.0, 2023-09-29 16:44:58.195
234.0, 27193.4675804934, 14612.765862079366, 8562.461562450118, -9387.263284595405, 9375.14863910063, -9134.688572250436, -187500.02235174447, 34406.71079238782, -24881.73841020327, 24984.154103297486, 2427.555910057534, -3289.685045443183, 11598.923694959129, -111.0881699428761, -120474.60621292666, -12804.979122278586, 0.162, 1.012, -0.10200000000000001, 192.0, 0.0, 0.0, 0.0, 0.0, 0.0, 0.0, 0.0, 0.0, 0.0, 1.696023898195346E9, 0.0, 2023-09-29 16:44:58.195
236.0, 26905.554760164592, 14244.073837289077, 8581.058213836934, -9372.019394876885, 9461.359317464749, -9096.064757831664, -187500.02235174447, 34166.20602204872, -24874.45174151084, 24452.853137594837, 2152.5623980238915, -3666.2895877706515, 11630.797282552396, -99.53231805948235, -120896.20481684266, -12740.539043013936, 0.162, 1.012, -0.10200000000000001, 192.0, 0.0, 0.0, 0.0, 0.0, 0.0, 0.0, 0.0, 0.0, 0.0, 1.696023898195352E9, 0.0, 2023-09-29 16:44:58.195
238.0, 27255.024284723317, 14674.657842476112, 8543.194358729645, -9409.793843006355, 9382.547066515335, -9145.775037500267, -187500.02235174447, 34453.76121446624, -24886.991070150267, 24945.64204760099, 2412.915517439308, -3308.7957869524703, 11584.931502930105, -128.4331236401944, -120529.61385603117, -12817.652561384746, 0.162, 1.012, -0.10400000000000001, 192.0, 2.5, 8.0, 15.5, 80.0, 126.0, 96.0, 0.0, 0.0, 0.0, 1.696023898195356E9, 0.0, 2023-09-29 16:44:58.195
240.0, 26858.191413663797, 14186.383984849928, 8626.32049635893, -9328.768769355866, 9492.607056213266, -9050.064867742643, -187500.02235174447, 34108.09148646492, -24861.06304658211, 24478.490588485074, 2152.182418368151, -3656.8347998660565, 11644.744771092508, -85.40601556372829, -120917.6401397753, -12721.271839293462, 0.162, 1.012, -0.10400000000000001, 192.0, 0.0, 0.0, 0.0, 0.0, 0.0, 0.0, 0.0, 0.0, 0.0, 1.696023898255633E9, 0.0, 2023-09-29 16:44:58.255
242.0, 27297.939634077506, 14725.15043320065, 8527.615192844296, -9428.234032181983, 9398.930895201076, -9149.507778824303, -187500.02235174447, 34489.658116061466, -24850.647133665938, 24925.234904913297, 2411.6414680053554, -3315.389551566786, 11604.846907239784, -101.70043727164713, -120662.45027332906, -12784.19199993515, 0.162, 1.012, -0.10400000000000001, 192.0, 0.0, 0.0, 0.0, 0.0, 0.0, 0.0, 0.0, 0.0, 0.0, 1.696023898255659E9, 0.0, 2023-09-29 16:44:58.255
244.0, 26823.345044057973, 14147.000211119677, 8632.89190922879, -9330.534557167835, 9483.576951453322, -9049.573129364626, -187500.02235174447, 34079.3918465843, -24879.45853226883, 24518.65667327126, 2147.242682843528, -3628.246918707719, 11626.639858083709, -101.16399540471977, -120905.2349216026, -12726.032760862443, 0.162, 1.012, -0.10400000000000001, 192.0, 0.0, 0.0, 0.0, 0.0, 0.0, 0.0, 0.0, 0.0, 0.0, 1.696023898255664E9, 0.0, 2023-09-29 16:44:58.255
246.0, 27326.236942557927, 14759.01332605044, 8507.789195512438, -9459.414715697136, 9410.665561040112, -9169.19966568943, -187500.02235174447, 34500.87869177803, -24828.183630488355, 24870.316668786607, 2391.56960148449, -3346.3690693818417, 11625.902250516683, -100.91812621571138, -120779.2604898525, -12763.538988058448, 0.162, 1.012, -0.10400000000000001, 192.0, 0.0, 0.0, 0.0, 0.0, 0.0, 0.0, 0.0, 0.0, 0.0, 1.69602389825567E9, 0.0, 2023-09-29 16:44:58.255
248.0, 26800.43450599128, 14132.9856673462, 8630.969659205635, -9339.966993327975, 9469.182428024105, -9051.204806709864, -187500.02235174447, 34057.26361957355, -24874.094113599553, 24570.132740751833, 2162.9783109400646, -3598.273229393152, 11612.558259076866, -120.63236482529221, -120889.70045920617, -12738.326220312862, 0.156, 1.016, -0.10400000000000001, 192.0, 2.0, 112.0, 15.5, 96.0, 126.0, 96.0, 0.0, 0.0, 0.0, 1.696023898255673E9, 0.0, 2023-09-29 16:44:58.255
250.0, 27328.226247814448, 14768.44576221058, 8493.618189527773, -9475.150343793672, 9425.976505991997, -9168.015023233298, -187500.02235174447, 34512.83687506162, -24818.81824956158, 24810.458697135295, 2361.573560425468, -3392.1007385374, 11628.763273806962, -89.27286735449641, -120900.786924456, -12742.19307210363, 0.156, 1.016, -0.10400000000000001, 192.0, 0.0, 0.0, 0.0, 0.0, 0.0, 0.0, 0.0, 0.0, 0.0, 1.696023898255676E9, 0.0, 2023-09-29 16:44:58.255
252.0, 26798.333442012485, 14140.138225571898, 8612.887097941291, -9355.210883046495, 9456.710154618044, -9069.622644141036, -187500.02235174447, 34073.960372681664, -24900.916206945923, 24640.428977063773, 2172.030767444464, -3559.917635907845, 11592.329930344813, -136.0774202439094, -120855.83756635638, -12743.914156426688, 0.156, 1.016, -0.10400000000000001, 192.0, 0.0, 0.0, 0.0, 0.0, 0.0, 0.0, 0.0, 0.0, 0.0, 1.69602389825568E9, 0.0, 2023-09-29 16:44:58.255
254.0, 27313.608206940677, 14752.151340502662, 8489.416061570175, -9480.78298339641, 9462.141628520683, -9169.691404067446, -187500.02235174447, 34498.71057256586, -24812.693871580825, 24741.972952124233, 2312.690295301711, -3446.415477563796, 11637.011067510972, -84.80251846343499, -120999.91691111529, -12726.390388773727, 0.156, 1.016, -0.10400000000000001, 192.0, 0.0, 0.0, 0.0, 0.0, 0.0, 0.0, 0.0, 0.0, 0.0, 1.696023898255683E9, 0.0, 2023-09-29 16:44:58.255
0.0, 26812.906779397345, 14160.053629881577, 8616.932763687702, -9350.047630077319, 9451.345735948771, -9063.118286504541, -187500.02235174447, 34084.30923036447, -24896.155285376943, 24711.216951753733, 2202.6526573482347, -3511.2355364841865, 11588.619540765232, -137.6420423557809, -120852.03776979898, -12749.502092540515, 0.156, 1.016, -0.10400000000000001, 192.0, 0.0, 0.0, 0.0, 0.0, 0.0, 0.0, 0.0, 0.0, 0.0, 1.696023898315267E9, 0.0, 2023-09-29 16:44:58.315
2.0, 27292.35169796368, 14719.070758708807, 8490.108965648289, -9471.574064680823, 9477.11729730574, -9154.939252726943, -187500.02235174447, 34477.96815371134, -24789.515112580673, 24674.51538735812, 2292.0149316805523, -3483.608780337427, 11650.01978278396, -67.45756476611672, -121117.17416252782, -12703.926885596144, 0.154, 1.018, -0.11, 192.0, 2.0, 104.0, 15.5, 104.0, 126.0, 72.0, 0.0, 0.0, 0.0, 1.696023898315275E9, 0.0, 2023-09-29 16:44:58.315
4.0, 26848.848384481476, 14201.627874568449, 8627.572194048429, -9335.116664781173, 9453.357392949747, -9050.377792165016, -187500.02235174447, 34102.72706779565, -24863.052351838633, 24787.503455579696, 2244.1598468017396, -3451.131695643866, 11597.314369358346, -124.49921661606034, -120861.1796332812, -12736.33691505634, 0.154, 1.018, -0.11, 192.0, 0.0, 0.0, 0.0, 0.0, 0.0, 0.0, 0.0, 0.0, 0.0, 1.696023898315279E9, 0.0, 2023-09-29 16:44:58.315
6.0, 27250.82215676572, 14667.482932505958, 8473.501619517996, -9486.102698576773, 9477.139649050194, -9165.064592965198, -187500.02235174447, 34445.64753122896, -24783.346031111007, 24616.177334329765, 2272.8147831934434, -3522.6349261563932, 11662.760277123485, -58.919198384189414, -121239.72877737628, -12678.98233878402, 0.154, 1.018, -0.11, 192.0, 0.0, 0.0, 0.0, 0.0, 0.0, 0.0, 0.0, 0.0, 0.0, 1.696023898315282E9, 0.0, 2023-09-29 16:44:58.315
8.0, 26903.18547525233, 14273.309919036617, 8589.685987196683, -9355.635566191146, 9415.739407031466, -9076.954016322377, -187500.02235174447, 34160.95336210172, -24896.93759643288, 24840.857069594513, 2270.5125535145467, -3414.050151592511, 11557.416505505624, -160.88785658930024, -120820.67827232818, -12773.552569574425, 0.154, 1.018, -0.11, 192.0, 0.0, 0.0, 0.0, 0.0, 0.0, 0.0, 0.0, 0.0, 0.0, 1.696023898315285E9, 0.0, 2023-09-29 16:44:58.315
10.0, 27202.251816064338, 14613.212896968473, 8485.77272722396, -9459.437067441591, 9494.886934147708, -9143.47280782137, -187500.02235174447, 34411.6728796569, -24787.257586390686, 24562.175519725744, 2232.1122565403293, -3565.572627255038, 11656.322974720357, -55.074698337876605, -121290.95897566785, -12663.64904208768, 0.154, 1.018, -0.11, 192.0, 0.0, 0.0, 0.0, 0.0, 0.0, 0.0, 0.0, 0.0, 0.0, 1.696023898315288E9, 0.0, 2023-09-29 16:44:58.315
12.0, 26966.28444984966, 14349.55171937367, 8581.304083025943, -9359.569473215279, 9412.67721804109, -9083.413670469961, -187500.02235174447, 34214.35167960545, -24879.83851192457, 24905.36420409253, 2313.405551124281, -3362.7976015564923, 11559.4281625066, -141.1736179797194, -120825.95328401963, -12761.415572335192, 0.158, 1.012, -0.1, 192.0, 2.0, 120.0, 15.5, 80.0, 126.0, 112.0, 0.0, 0.0, 0.0, 1.696023898315291E9, 0.0, 2023-09-29 16:44:58.315
14.0, 27137.94584726642, 14533.059541351742, 8499.183773897144, -9445.556634134846, 9512.03072214493, -9128.586546014136, -187500.02235174447, 34355.078262696064, -24793.247853904708, 24504.70918473115, 2202.2056224591283, -3605.0234562186547, 11650.131541506236, -64.93181764266701, -121350.92870604144, -12662.55380660937, 0.158, 1.012, -0.1, 192.0, 0.0, 0.0, 0.0, 0.0, 0.0, 0.0, 0.0, 0.0, 0.0, 1.696023898375472E9, 0.0, 2023-09-29 16:44:58.375
16.0, 27039.77698561871, 14436.611764027091, 8568.652995664239, -9363.123400583674, 9415.940572731564, -9090.342711251105, -187500.02235174447, 34278.70235189228, -24885.001764893743, 24947.40783541296, 2342.1275427493506, -3326.476016816618, 11555.293089782368, -137.93261503369988, -120848.59560115286, -12768.90340672772, 0.158, 1.012, -0.1, 192.0, 0.0, 0.0, 0.0, 0.0, 0.0, 0.0, 0.0, 0.0, 0.0, 1.696023898375484E9, 0.0, 2023-09-29 16:44:58.375
18.0, 27079.764256449256, 14455.588395069648, 8531.929079524169, -9402.48482256947, 9534.628335789244, -9092.577885696637, -187500.02235174447, 34298.371887012945, -24791.459714348282, 24488.37005953432, 2174.154183167718, -3625.05061925061, 11659.11694277727, -51.61017794730401, -121400.95191013241, -12646.415847112637, 0.158, 1.012, -0.1, 192.0, 0.0, 0.0, 0.0, 0.0, 0.0, 0.0, 0.0, 0.0, 0.0, 1.696023898375488E9, 0.0, 2023-09-29 16:44:58.375
20.0, 27111.816657998166, 14516.295733010262, 8555.64428039125, -9376.37798504567, 9419.203927422039, -9096.914124120965, -187500.02235174447, 34334.29114035262, -24856.77151164669, 24990.03261208923, 2376.504525721613, -3288.880382642792, 11575.00732839195, -117.59252757937045, -120911.62752051682, -12749.680906496156, 0.158, 1.012, -0.1, 192.0, 0.0, 0.0, 0.0, 0.0, 0.0, 0.0, 0.0, 0.0, 0.0, 1.696023898375491E9, 0.0, 2023-09-29 16:44:58.375
22.0, 27005.310595668627, 14369.757696361268, 8535.862986548304, -9403.177726647584, 9523.541870539411, -9088.152240294487, -187500.02235174447, 34245.107679975954, -24808.402336645406, 24473.93083261619, 2148.6508427442127, -3647.4247154503723, 11652.88080607424, -60.014433862499466, -121444.89543973154, -12653.903681505166, 0.16, 1.002, -0.10200000000000001, 192.0, 2.5, 0.0, 15.5, 40.0, 126.0, 104.0, 0.0, 0.0, 0.0, 1.696023898375495E9, 0.0, 2023-09-29 16:44:58.375
24.0, 27177.508434952313, 14595.622074082146, 8536.086503992856, -9398.707377756522, 9413.325418630293, -9111.75568243929, -187500.02235174447, 34397.010135294215, -24861.264212282207, 24997.22987380384, 2383.5229734805794, -3284.968827363113, 11574.5826452473, -119.51477760252686, -120970.63612587884, -12757.883996711254, 0.16, 1.002, -0.10200000000000001, 192.0, 0.0, 0.0, 0.0, 0.0, 0.0, 0.0, 0.0, 0.0, 0.0, 1.696023898375498E9, 0.0, 2023-09-29 16:44:58.375
26.0, 26947.956019396308, 14297.561561770626, 8573.41391723322, -9358.250720292417, 9534.74009451152, -9047.650879341469, -187500.02235174447, 34186.90373741433, -24823.66857810838, 24470.153387803246, 2131.5517582359025, -3650.4869044407496, 11648.768085094463, -60.684986196158675, -121459.89346026105, -12657.301146662372, 0.16, 1.002, -0.10200000000000001, 192.0, 0.0, 0.0, 0.0, 0.0, 0.0, 0.0, 0.0, 0.0, 0.0, 1.696023898375502E9, 0.0, 2023-09-29 16:44:58.375
28.0, 27235.354749602648, 14664.465447004492, 8527.436378888653, -9416.38760762067, 9417.549898332345, -9121.232822088341, -187500.02235174447, 34435.03045261269, -24839.605371905014, 24998.168647070965, 2403.013694645607, -3272.451850468141, 11598.3872530922, -96.02309417999913, -121077.61157484194, -12740.650801736212, 0.16, 1.002, -0.10200000000000001, 192.0, 0.0, 0.0, 0.0, 0.0, 0.0, 0.0, 0.0, 0.0, 0.0, 1.696023898375505E9, 0.0, 2023-09-29 16:44:58.375
30.0, 26886.712239588767, 14232.205060983308, 8588.434289507186, -9361.603481960712, 9517.5963065143, -9050.17662646492, -187500.02235174447, 34130.62204487587, -24837.079624781567, 24485.79960892196, 2134.9492233931096, -3649.8387038515457, 11636.787550066418, -76.84529743734568, -121490.44829493146, -12676.255425960473, 0.16, 1.002, -0.10200000000000001, 192.0, 0.0, 0.0, 0.0, 0.0, 0.0, 0.0, 0.0, 0.0, 0.0, 1.696023898435826E9, 0.0, 2023-09-29 16:44:58.435
32.0, 27292.865788086154, 14729.5760786028, 8514.606477571306, -9435.230128196494, 9421.237936167472, -9137.214319373885, -187500.02235174447, 34479.376313612025, -24836.990217803745, 24969.08902753461, 2403.57248825699, -3292.881344900292, 11604.19870665058, -95.33019010188463, -121181.14485515891, -12748.831540206855, 0.162, 1.008, -0.10400000000000001, 192.0, 2.5, 8.0, 15.5, 64.0, 126.0, 96.0, 0.0, 0.0, 0.0, 1.696023898435835E9, 0.0, 2023-09-29 16:44:58.435
34.0, 26851.441186838292, 14194.408261109384, 8596.995007633568, -9352.61808068968, 9498.306751049371, -9047.181492707909, -187500.02235174447, 34107.55504459799, -24853.39639823394, 24533.408824611764, 2140.157179851196, -3620.155587214898, 11627.06454122836, -87.95411443163329, -121464.11793996311, -12693.80154535789, 0.162, 1.008, -0.10400000000000001, 192.0, 0.0, 0.0, 0.0, 0.0, 0.0, 0.0, 0.0, 0.0, 0.0, 1.696023898435839E9, 0.0, 2023-09-29 16:44:58.435
36.0, 27321.07368958875, 14772.133800045705, 8492.321788349365, -9453.916186561131, 9413.347770374749, -9146.222072389373, -187500.02235174447, 34513.485075650824, -24832.54222065714, 24927.671245058926, 2390.0943863504394, -3314.964868422135, 11604.511631072955, -88.06587315390982, -121266.10383583354, -12748.85389195131, 0.162, 1.008, -0.10400000000000001, 192.0, 0.0, 0.0, 0.0, 0.0, 0.0, 0.0, 0.0, 0.0, 0.0, 1.696023898435842E9, 0.0, 2023-09-29 16:44:58.435
38.0, 26817.086555610487, 14161.931176415823, 8620.285525356, -9330.065170534273, 9492.83057365782, -9025.902631986455, -187500.02235174447, 34080.55413729598, -24869.15437807493, 24565.707095349684, 2148.874360188766, -3597.2226974037526, 11611.731244532019, -96.60423953583712, -121441.74384376334, -12710.967685099566, 0.162, 1.008, -0.10400000000000001, 192.0, 0.0, 0.0, 0.0, 0.0, 0.0, 0.0, 0.0, 0.0, 0.0, 1.696023898435845E9, 0.0, 2023-09-29 16:44:58.435
40.0, 27333.970646139463, 14787.064765341851, 8501.486003576041, -9449.602299881257, 9448.037677769385, -9136.18613912894, -187500.02235174447, 34523.74452635581, -24811.352766913507, 24865.846319895547, 2381.4889647351465, -3346.4361246152075, 11639.603869867788, -61.93668388565587, -121403.81293342268, -12722.836461405333, 0.162, 1.008, -0.10400000000000001, 192.0, 0.0, 0.0, 0.0, 0.0, 0.0, 0.0, 0.0, 0.0, 0.0, 1.696023898435848E9, 0.0, 2023-09-29 16:44:58.435
42.0, 26798.892235623865, 14151.090580355, 8623.593583535383, -9327.114740266174, 9486.952064866075, -9024.941506974877, -187500.02235174447, 34078.98951518411, -24876.798674678645, 24634.528116527574, 2179.6974157926343, -3554.08383060501, 11616.53686958991, -101.83454773837897, -121442.83907924165, -12715.147461312708, 0.162, 1.004, -0.10200000000000001, 192.0, 2.5, 8.0, 15.5, 48.0, 126.0, 104.0, 0.0, 0.0, 0.0, 1.696023898435851E9, 0.0, 2023-09-29 16:44:58.435
44.0, 27331.31078854928, 14785.746012418987, 8466.974910137047, -9479.866561873741, 9443.500273644957, -9158.336717884149, -187500.02235174447, 34538.02729106275, -24828.161278743897, 24806.211865688787, 2351.3141097204816, -3396.6157909173717, 11632.250145941991, -69.11159385580943, -121506.83212361719, -12723.104682338797, 0.162, 1.004, -0.10200000000000001, 192.0, 0.0, 0.0, 0.0, 0.0, 0.0, 0.0, 0.0, 0.0, 0.0, 1.696023898495123E9, 0.0, 2023-09-29 16:44:58.495
46.0, 26809.419907262316, 14165.909786928867, 8606.852126938358, -9336.234252003938, 9447.478884158003, -9040.8335972826, -187500.02235174447, 34095.03806770302, -24904.671300014415, 24706.12075401792, 2190.1133287088073, -3523.350181978963, 11572.392174290679, -125.12506546080894, -121387.0491250812, -12748.675077995667, 0.162, 1.004, -0.10200000000000001, 192.0, 0.0, 0.0, 0.0, 0.0, 0.0, 0.0, 0.0, 0.0, 0.0, 1.696023898495142E9, 0.0, 2023-09-29 16:44:58.495
48.0, 27304.980433580928, 14754.25240448146, 8470.238264827522, -9476.804372883365, 9464.488561688491, -9153.911072481998, -187500.02235174447, 34513.395668673, -24817.09716523852, 24741.88354514641, 2323.1285599623398, -3450.438791565751, 11638.128654733737, -61.33318678536258, -121610.85714231219, -12712.353493255794, 0.162, 1.004, -0.10200000000000001, 192.0, 0.0, 0.0, 0.0, 0.0, 0.0, 0.0, 0.0, 0.0, 0.0, 1.696023898495145E9, 0.0, 2023-09-29 16:44:58.495
50.0, 26824.999073147665, 14191.077851185544, 8610.316647328931, -9331.94271706852, 9448.529416147401, -9043.292289172685, -187500.02235174447, 34115.914597024275, -24918.775250765713, 24763.69884773479, 2221.24930873505, -3480.390129135863, 11565.15020908716, -133.9316527761999, -121373.52631968574, -12762.779028746967, 0.162, 1.004, -0.10200000000000001, 192.0, 0.0, 0.0, 0.0, 0.0, 0.0, 0.0, 0.0, 0.0, 0.0, 1.696023898495149E9, 0.0, 2023-09-29 16:44:58.495
52.0, 27266.334267417704, 14702.776337000889, 8472.182866595134, -9471.35054723627, 9473.049279814873, -9148.09961892362, -187500.02235174447, 34485.61245031506, -24814.996101259723, 24662.11016918542, 2281.2637425975495, -3503.0995015024546, 11647.270518215957, -52.19132330314199, -121711.77526852791, -12697.914266337666, 0.16, 1.008, -0.10200000000000001, 192.0, 2.5, 0.0, 15.5, 64.0, 126.0, 104.0, 0.0, 0.0, 0.0, 1.696023898495153E9, 0.0, 2023-09-29 16:44:58.495
54.0, 26866.863890512454, 14240.095226776031, 8618.251516610566, -9319.090464006718, 9441.91329978863, -9032.764617534234, -187500.02235174447, 34143.94368457123, -24920.831611255602, 24817.09716523852, 2257.3920795192817, -3433.451465779718, 11562.445648008066, -129.1036759738536, -121369.57006091716, -12768.836351494356, 0.16, 1.008, -0.10200000000000001, 192.0, 0.0, 0.0, 0.0, 0.0, 0.0, 0.0, 0.0, 0.0, 0.0, 1.696023898495156E9, 0.0, 2023-09-29 16:44:58.495
56.0, 27218.81445870572, 14645.354705495205, 8485.63861675723, -9451.233977226493, 9495.333969036814, -9125.323191323661, -187500.02235174447, 34443.926446905905, -24800.758040041692, 24602.76628765658, 2265.483411012103, -3535.2413100291865, 11662.760277123485, -30.845407348323747, -121819.01893842447, -12672.142704980697, 0.16, 1.008, -0.10200000000000001, 192.0, 0.0, 0.0, 0.0, 0.0, 0.0, 0.0, 0.0, 0.0, 0.0, 1.69602389849516E9, 0.0, 2023-09-29 16:44:58.495
58.0, 26925.47016447427, 14315.599419546059, 8600.75010070206, -9330.109874023185, 9425.305953658337, -9049.371963664527, -187500.02235174447, 34200.56065327652, -24901.318538346117, 24897.563445277625, 2305.247164398094, -3376.230999974132, 11563.987918375484, -130.19891145216363, -121379.98597383333, -12769.976290461576, 0.16, 1.008, -0.10200000000000001, 192.0, 0.0, 0.0, 0.0, 0.0, 0.0, 0.0, 0.0, 0.0, 0.0, 1.696023898495163E9, 0.0, 2023-09-29 16:44:58.495
60.0, 27163.47153943438, 14578.768858762844, 8502.804756498905, -9432.704381073045, 9505.816937186353, -9117.120101108563, -187500.02235174447, 34402.15103651894, -24812.760926814193, 24558.599240612893, 2227.798369860455, -3576.0332436601216, 11662.246187001014, -33.304099238407524, -121885.62713690128, -12667.158265967164, 0.16, 1.008, -0.10200000000000001, 192.0, 0.0, 0.0, 0.0, 0.0, 0.0, 0.0, 0.0, 0.0, 0.0, 1.696023898554928E9, 0.0, 2023-09-29 16:44:58.554
62.0, 26994.984089730275, 14394.769298406756, 8589.574228474406, -9343.409161974092, 9412.073720940796, -9066.9404348064, -187500.02235174447, 34262.00559878416, -24913.232018140796, 24950.69354184789, 2338.1936357252166, -3333.159188408755, 11547.246461778459, -131.56236786393737, -121386.17740704745, -12780.414555122205, 0.16, 1.014, -0.1, 192.0, 2.5, 0.0, 15.5, 88.0, 126.0, 112.0, 0.0, 0.0, 0.0, 1.696023898554936E9, 0.0, 2023-09-29 16:44:58.554
64.0, 27099.210274125373, 14500.001311302341, 8540.199224972634, -9397.209810878017, 9523.02778041694, -9079.9938535683, -187500.02235174447, 34342.337768356534, -24808.357633156495, 24518.94724594918, 2209.0452562624523, -3605.8728225079567, 11655.898291575706, -31.42655270416173, -121941.84177420638, -12659.849245530278, 0.16, 1.014, -0.1, 192.0, 0.0, 0.0, 0.0, 0.0, 0.0, 0.0, 0.0, 0.0, 0.0, 1.696023898554939E9, 0.0, 2023-09-29 16:44:58.554
66.0, 27058.373637005527, 14478.767154069801, 8588.590751718373, -9344.593804430224, 9419.069816955307, -9063.140638248997, -187500.02235174447, 34320.678927979345, -24889.36035506253, 24999.822676160657, 2380.4831362346576, -3294.22244956761, 11568.055935866349, -102.8627279833231, -121447.912925233, -12758.576900789369, 0.16, 1.014, -0.1, 192.0, 0.0, 0.0, 0.0, 0.0, 0.0, 0.0, 0.0, 0.0, 0.0, 1.696023898554942E9, 0.0, 2023-09-29 16:44:58.554
68.0, 27025.650683122956, 14418.417444040471, 8554.437286190663, -9387.196229362038, 9539.188091658127, -9069.98027205232, -187500.02235174447, 34291.241680531704, -24816.404261160405, 24497.75779220555, 2187.408767629715, -3626.279965195652, 11665.30837599139, -27.224424746564, -122013.30030123, -12647.376972124217, 0.16, 1.014, -0.1, 192.0, 0.0, 0.0, 0.0, 0.0, 0.0, 0.0, 0.0, 0.0, 0.0, 1.696023898554946E9, 0.0, 2023-09-29 16:44:58.554
70.0, 27124.199524426407, 14558.898157942076, 8556.426591447185, -9381.652996737123, 9405.23408713747, -9088.778089139234, -187500.02235174447, 34391.13162650247, -24907.73348900479, 25002.035498861733, 2392.441319518247, -3282.2866180284764, 11555.628365949198, -117.99485897956599, -121503.99345207137, -12773.351403874327, 0.16, 1.014, -0.1, 192.0, 0.0, 0.0, 0.0, 0.0, 0.0, 0.0, 0.0, 0.0, 0.0, 1.696023898554949E9, 0.0, 2023-09-29 16:44:58.554
72.0, 26964.09397889304, 14342.801492548168, 8572.586902688374, -9370.18655183155, 9528.101626408295, -9054.557568378159, -187500.02235174447, 34244.63829334239, -24841.43821495035, 24460.028047564992, 2155.7810492254557, -3655.180770776364, 11639.91679429016, -57.42163150568384, -122023.0009583236, -12660.519797863937, 0.162, 1.02, -0.108, 192.0, 2.5, 8.0, 15.5, 112.0, 126.0, 80.0, 0.0, 0.0, 0.0, 1.696023898554952E9, 0.0, 2023-09-29 16:44:58.554
74.0, 27198.094391595652, 14641.577260682257, 8567.848332863849, -9363.302214539315, 9429.038694982373, -9081.17849602443, -187500.02235174447, 34440.88660965999, -24850.2671540102, 24998.41451625997, 2420.492758809657, -3268.584998677373, 11588.753651231964, -83.34965507384004, -121584.90676699959, -12742.394237803726, 0.162, 1.02, -0.108, 192.0, 0.0, 0.0, 0.0, 0.0, 0.0, 0.0, 0.0, 0.0, 0.0, 1.696023898615198E9, 0.0, 2023-09-29 16:44:58.615
76.0, 26900.36915545096, 14271.477075991283, 8589.797745918959, -9352.260452778393, 9520.502033293491, -9052.255338699262, -187500.02235174447, 34186.18848159176, -24837.213735248297, 24489.621757223817, 2167.895694720232, -3631.152645486909, 11637.525157633443, -55.25351229351906, -122037.28372303054, -12661.257405430963, 0.162, 1.02, -0.108, 192.0, 0.0, 0.0, 0.0, 0.0, 0.0, 0.0, 0.0, 0.0, 0.0, 1.696023898615212E9, 0.0, 2023-09-29 16:44:58.615
78.0, 27247.514098586336, 14701.14465965565, 8515.679361305161, -9420.276811155893, 9408.38568310567, -9124.272659334261, -187500.02235174447, 34490.10515095057, -24877.0221921232, 24984.355268997584, 2422.2808983660816, -3275.4693359696075, 11583.81391570734, -93.49734705654944, -121671.25155583043, -12754.24066236504, 0.162, 1.02, -0.108, 192.0, 0.0, 0.0, 0.0, 0.0, 0.0, 0.0, 0.0, 0.0, 0.0, 1.696023898615215E9, 0.0, 2023-09-29 16:44:58.615
80.0, 26851.26237288265, 14208.489860116228, 8596.547972744462, -9346.337240497738, 9500.83249817282, -9042.912309516943, -187500.02235174447, 34148.972827073674, -24891.506122530238, 24496.75196370506, 2141.7888571964336, -3642.0379450366436, 11608.132613674714, -79.92983817217805, -122008.15940000527, -12696.46140294807, 0.162, 1.02, -0.108, 192.0, 0.0, 0.0, 0.0, 0.0, 0.0, 0.0, 0.0, 0.0, 0.0, 1.696023898615218E9, 0.0, 2023-09-29 16:44:58.615
82.0, 27289.31186071776, 14746.295183455371, 8542.210881973611, -9399.489688812459, 9448.685878358589, -9103.463185246372, -187500.02235174447, 34513.909758795475, -24848.613124920503, 24944.144480722487, 2417.7434942416544, -3306.0465223844676, 11607.909096230162, -70.76562294550216, -121782.33972577332, -12735.37579004476, 0.16, 1.012, -0.108, 192.0, 2.5, 0.0, 15.5, 80.0, 126.0, 80.0, 0.0, 0.0, 0.0, 1.696023898615222E9, 0.0, 2023-09-29 16:44:58.615
84.0, 26810.671604951815, 14167.496760785194, 8630.097941171878, -9313.971914526453, 9514.668227990654, -9016.425492337405, -187500.02235174447, 34112.27126267806, -24866.04748559564, 24558.934516779726, 2181.8431832603437, -3598.541450326616, 11626.639858083709, -58.60627396181512, -122039.809470154, -12672.880312547722, 0.16, 1.012, -0.108, 192.0, 0.0, 0.0, 0.0, 0.0, 0.0, 0.0, 0.0, 0.0, 0.0, 1.696023898615225E9, 0.0, 2023-09-29 16:44:58.615
86.0, 27312.110640062172, 14770.122143044728, 8501.195430898122, -9444.997840523463, 9434.15724446264, -9141.215281631385, -187500.02235174447, 34544.73281439934, -24850.20009877683, 24898.815142967123, 2413.0272761615847, -3325.0231534270233, 11602.72349151653, -72.17378284618651, -121895.12662829479, -12732.447711521116, 0.16, 1.012, -0.108, 192.0, 0.0, 0.0, 0.0, 0.0, 0.0, 0.0, 0.0, 0.0, 0.0, 1.696023898615228E9, 0.0, 2023-09-29 16:44:58.615
88.0, 26794.511293710628, 14146.910804141857, 8615.032865409, -9319.090464006718, 9476.916131605642, -9036.78793153619, -187500.02235174447, 34113.120628967365, -24912.02502394021, 24600.173485299765, 2173.863610489799, -3581.5764762850376, 11583.568046518332, -97.56536454741533, -121984.33244041592, -12718.522574725459, 0.16, 1.012, -0.108, 192.0, 0.0, 0.0, 0.0, 0.0, 0.0, 0.0, 0.0, 0.0, 0.0, 1.696023898615232E9, 0.0, 2023-09-29 16:44:58.615
90.0, 27327.26512280287, 14779.755744904965, 8506.649256545217, -9426.982334492486, 9456.10665751775, -9125.770226212768, -187500.02235174447, 34553.56175345919, -24832.743386357237, 24844.813328363103, 2378.3150170224926, -3369.1454969817996, 11621.409549881168, -54.69471868213638, -121984.95828926067, -12718.723740425557, 0.16, 1.012, -0.108, 192.0, 0.0, 0.0, 0.0, 0.0, 0.0, 0.0, 0.0, 0.0, 0.0, 1.69602389867542E9, 0.0, 2023-09-29 16:44:58.675
92.0, 26801.038003091577, 14151.582318733015, 8638.390438364797, -9300.449109130992, 9474.904474604664, -9025.545004075171, -187500.02235174447, 34110.28195742154, -24915.17661990841, 24659.204442406233, 2206.8100818169214, -3533.564929195038, 11580.617616250232, -98.86176572582313, -121954.49286156808, -12725.071635850863, 0.156, 1.01, -0.106, 192.0, 2.0, 112.0, 15.5, 72.0, 126.0, 88.0, 0.0, 0.0, 0.0, 1.696023898675446E9, 0.0, 2023-09-29 16:44:58.675
94.0, 27323.957064623486, 14774.078401813318, 8502.380073354254, -9433.352581662248, 9464.801486110866, -9132.431046060448, -187500.02235174447, 34546.208029533394, -24813.09620298102, 24766.93985068081, 2374.202296042716, -3408.3951602453185, 11631.49018663051, -37.997965574022004, -122100.85208426144, -12701.445841961604, 0.156, 1.01, -0.106, 192.0, 0.0, 0.0, 0.0, 0.0, 0.0, 0.0, 0.0, 0.0, 0.0, 1.696023898675449E9, 0.0, 2023-09-29 16:44:58.675
96.0, 26821.7804219461, 14177.778563234635, 8636.959926719657, -9294.45884161697, 9454.58673889479, -9020.337047617084, -187500.02235174447, 34128.61038787489, -24926.12897469151, 24729.768899651637, 2243.601053190357, -3484.122870459899, 11565.999575376462, -108.51771933051579, -121925.99438738757, -12736.359266800793, 0.156, 1.01, -0.106, 192.0, 0.0, 0.0, 0.0, 0.0, 0.0, 0.0, 0.0, 0.0, 0.0, 1.696023898675452E9, 0.0, 2023-09-29 16:44:58.675
98.0, 27303.102887046683, 14738.24855545146, 8502.290666376432, -9430.6256688387, 9481.855867130264, -9125.367894812573, -187500.02235174447, 34529.421869447455, -24825.09908975352, 24697.537684147082, 2336.0031647685964, -3459.021861436589, 11635.289983187913, -35.65103240621477, -122201.5466930326, -12688.437126688616, 0.156, 1.01, -0.106, 192.0, 0.0, 0.0, 0.0, 0.0, 0.0, 0.0, 0.0, 0.0, 0.0, 1.696023898675456E9, 0.0, 2023-09-29 16:44:58.675
100.0, 26857.878489241422, 14219.598677110514, 8629.42738883822, -9305.590010355712, 9448.507064402946, -9035.066847213131, -187500.02235174447, 34159.58990568994, -24908.716965760825, 24806.502438366704, 2279.185030363206, -3436.3348408144525, 11565.396078276168, -106.84133849636775, -121914.14796282626, -12742.081313381352, 0.156, 1.01, -0.106, 192.0, 0.0, 0.0, 0.0, 0.0, 0.0, 0.0, 0.0, 0.0, 0.0, 1.696023898675459E9, 0.0, 2023-09-29 16:44:58.675
102.0, 27252.6326480666, 14676.021298887885, 8513.466538604085, -9422.57904083479, 9497.63619871571, -9115.957810396887, -187500.02235174447, 34484.5395665812, -24836.230258492265, 24633.701101982726, 2293.892478214798, -3515.862347586435, 11640.63205011273, -36.83567486234604, -122292.89827262143, -12685.486696420516, 0.16, 1.012, -0.106, 192.0, 2.5, 0.0, 15.5, 80.0, 126.0, 88.0, 0.0, 0.0, 0.0, 1.696023898675462E9, 0.0, 2023-09-29 16:44:58.675
104.0, 26903.744268863713, 14276.841494660557, 8637.921051731235, -9297.543382351801, 9440.81806431032, -9027.288440142685, -187500.02235174447, 34196.023249152095, -24914.617826297024, 24865.48869198426, 2315.5066151030796, -3392.570125170961, 11563.607938719742, -107.98127746358843, -121919.02064311752, -12752.072543152875, 0.16, 1.012, -0.106, 192.0, 0.0, 0.0, 0.0, 0.0, 0.0, 0.0, 0.0, 0.0, 0.0, 1.696023898735929E9, 0.0, 2023-09-29 16:44:58.735
106.0, 27204.12936259858, 14615.649237114101, 8532.68903883565, -9410.352636617738, 9521.50786179398, -9100.624513700546, -187500.02235174447, 34445.22284808431, -24813.699700081313, 24568.523415151052, 2282.090757142396, -3549.2558538026638, 11664.883692846739, -14.819206573868582, -122388.00494527876, -12660.497446119482, 0.16, 1.012, -0.106, 192.0, 0.0, 0.0, 0.0, 0.0, 0.0, 0.0, 0.0, 0.0, 0.0, 1.696023898735941E9, 0.0, 2023-09-29 16:44:58.735
108.0, 26961.344714325038, 14346.198957705374, 8620.531394545007, -9320.386865185126, 9425.797692036354, -9049.774295064724, -187500.02235174447, 34254.182488224804, -24934.421471884427, 24921.256294400253, 2353.9739673106633, -3350.3029764059756, 11554.175502559603, -121.2135101811302, -121914.88557039328, -12767.964633460599, 0.16, 1.012, -0.106, 192.0, 0.0, 0.0, 0.0, 0.0, 0.0, 0.0, 0.0, 0.0, 0.0, 1.696023898735945E9, 0.0, 2023-09-29 16:44:58.735
110.0, 27135.822431543165, 14529.013875605331, 8550.123399510789, -9395.131098643673, 9526.872280463253, -9084.41949897045, -187500.02235174447, 34389.58935613505, -24833.101014268523, 24524.356368107365, 2236.604957175846, -3600.3295898830406, 11651.07031477336, -37.37211672927341, -122449.0475593862, -12667.113562478253, 0.16, 1.012, -0.106, 192.0, 0.0, 0.0, 0.0, 0.0, 0.0, 0.0, 0.0, 0.0, 0.0, 1.696023898735948E9, 0.0, 2023-09-29 16:44:58.735
112.0, 27035.865430339032, 14424.921801676966, 8622.677162012717, -9318.665780862068, 9429.798654293854, -9048.32143167513, -187500.02235174447, 34303.4457330043, -24912.896741973967, 24968.23966124531, 2383.075938591473, -3315.4342550556967, 11567.854770166252, -99.19704189265275, -121964.19351866169, -12759.962708945599, 0.166, 1.016, -0.106, 192.0, 2.5, 24.0, 15.5, 96.0, 126.0, 88.0, 0.0, 0.0, 0.0, 1.696023898735951E9, 0.0, 2023-09-29 16:44:58.735
114.0, 27081.150064605485, 14454.67197354698, 8576.654920179239, -9364.822133162277, 9530.672077020656, -9062.760658593257, -187500.02235174447, 34333.48647755224, -24830.128232255964, 24498.048364883467, 2221.182253501684, -3615.796997046113, 11657.149989265203, -28.342011969329356, -122501.08242047817, -12660.050411230375, 0.166, 1.016, -0.106, 192.0, 0.0, 0.0, 0.0, 0.0, 0.0, 0.0, 0.0, 0.0, 0.0, 1.696023898735955E9, 0.0, 2023-09-29 16:44:58.735
116.0, 27103.300643360693, 14510.841907363167, 8603.499365270063, -9331.629792646145, 9423.96484899102, -9062.9394725489, -187500.02235174447, 34360.97912323226, -24886.0746486276, 24994.592367958114, 2418.1905291307603, -3283.4042052512414, 11585.49029654149, -92.62562902279247, -122013.76968786356, -12756.833464721854, 0.166, 1.016, -0.106, 192.0, 0.0, 0.0, 0.0, 0.0, 0.0, 0.0, 0.0, 0.0, 0.0, 1.696023898735958E9, 0.0, 2023-09-29 16:44:58.735
118.0, 27001.68961306687, 14365.399106192483, 8574.620911433805, -9362.229330805461, 9515.472890791047, -9064.615853383048, -187500.02235174447, 34273.20382275627, -24854.9163168569, 24468.655820924738, 2191.4097298872152, -3639.042811279632, 11652.009088040482, -32.38767771573993, -122550.61388619113, -12669.259329945962, 0.166, 1.016, -0.106, 192.0, 0.0, 0.0, 0.0, 0.0, 0.0, 0.0, 0.0, 0.0, 0.0, 1.696023898735961E9, 0.0, 2023-09-29 16:44:58.735
120.0, 27172.009905816307, 14587.441335611504, 8569.591768931361, -9370.231255320461, 9396.673369011089, -9105.296028291707, -187500.02235174447, 34425.64271994147, -24911.175657650907, 24988.020955088254, 2424.5831280449784, -3282.3089697729315, 11555.985993860484, -103.24270763906333, -122063.88229893235, -12784.057889468419, 0.166, 1.016, -0.106, 192.0, 0.0, 0.0, 0.0, 0.0, 0.0, 0.0, 0.0, 0.0, 0.0, 1.696023898796102E9, 0.0, 2023-09-29 16:44:58.796
122.0, 26943.262153060696, 14291.012500645222, 8590.401243019252, -9349.622946932668, 9512.723626223044, -9058.133847491008, -187500.02235174447, 34227.36039487844, -24876.753971189737, 24450.08152128238, 2178.8480495033323, -3657.952387088822, 11625.58932609431, -61.288483296451965, -122531.21257200392, -12688.794754599901, 0.17, 1.018, -0.108, 192.0, 2.5, 40.0, 15.5, 104.0, 126.0, 80.0, 0.0, 0.0, 0.0, 1.696023898796127E9, 0.0, 2023-09-29 16:44:58.796
124.0, 27231.845525723165, 14657.7599236679, 8541.674440106683, -9393.007682920419, 9404.787052248366, -9117.634191231036, -187500.02235174447, 34487.02061021574, -24913.299073374164, 24978.56616718366, 2431.0651339370174, -3286.8687256418143, 11557.975299117006, -107.57894606339289, -122119.38168041488, -12782.090935956352, 0.17, 1.018, -0.108, 192.0, 0.0, 0.0, 0.0, 0.0, 0.0, 0.0, 0.0, 0.0, 0.0, 1.696023898796131E9, 0.0, 2023-09-29 16:44:58.796
126.0, 26898.201036238795, 14237.949459308322, 8619.99495267808, -9317.950525039498, 9523.005428672484, -9031.110588444542, -187500.02235174447, 34190.167092104806, -24902.525532546704, 24487.65480371175, 2164.185305140651, -3646.083610783054, 11613.653494555176, -55.45467799361682, -122520.19316198745, -12684.50321966448, 0.17, 1.018, -0.108, 192.0, 0.0, 0.0, 0.0, 0.0, 0.0, 0.0, 0.0, 0.0, 0.0, 1.696023898796134E9, 0.0, 2023-09-29 16:44:58.796
128.0, 27303.50521844688, 14727.609125090734, 8579.784164402981, -9354.98736560194, 9441.980355021997, -9082.56430418066, -187500.02235174447, 34519.05066002019, -24851.340037744052, 24986.724553909848, 2454.5121138706345, -3277.972731348602, 11598.186087392103, -54.56060821540454, -122217.1035071735, -12738.706199968601, 0.17, 1.018, -0.108, 192.0, 0.0, 0.0, 0.0, 0.0, 0.0, 0.0, 0.0, 0.0, 0.0, 1.696023898796137E9, 0.0, 2023-09-29 16:44:58.796
130.0, 26869.344934146993, 14195.257627398685, 8658.529360119028, -9283.640597300602, 9530.917946209664, -9009.429396322894, -187500.02235174447, 34150.604504418916, -24867.34388677405, 24549.85970853087, 2212.5544801419355, -3601.4471771058056, 11629.478529629532, -40.65782316420355, -122533.33598772717, -12671.785077069411, 0.17, 1.018, -0.108, 192.0, 0.0, 0.0, 0.0, 0.0, 0.0, 0.0, 0.0, 0.0, 0.0, 1.696023898796142E9, 0.0, 2023-09-29 16:44:58.796
132.0, 27335.602323484698, 14766.769381376433, 8542.434399418164, -9398.796784734343, 9430.446854883057, -9126.887813435533, -187500.02235174447, 34545.6045324331, -24841.0135318057, 24946.60317261257, 2457.4178406498245, -3295.585905979384, 11597.381424591711, -47.98919534554426, -122326.53764802667, -12736.582784245347, 0.17, 1.014, -0.10400000000000001, 192.0, 2.5, 40.0, 15.5, 88.0, 126.0, 96.0, 0.0, 0.0, 0.0, 1.696023898796145E9, 0.0, 2023-09-29 16:44:58.796
134.0, 26835.236172108194, 14159.070153125544, 8674.108526004378, -9267.726155248423, 9530.873242720752, -9004.579067776092, -187500.02235174447, 34107.95737599819, -24901.340890090574, 24572.72554310865, 2209.112311495818, -3588.2596478771748, 11601.136517660203, -63.3001402974296, -122516.6168828746, -12700.305902994383, 0.17, 1.014, -0.10400000000000001, 192.0, 0.0, 0.0, 0.0, 0.0, 0.0, 0.0, 0.0, 0.0, 0.0, 1.696023898854913E9, 0.0, 2023-09-29 16:44:58.854
136.0, 27352.097910892717, 14785.746012418987, 8537.584070871362, -9400.674331268589, 9464.130933777205, -9129.435912303437, -187500.02235174447, 34554.589933704134, -24848.322552242586, 24879.63734622447, 2450.131171957394, -3326.520720305529, 11611.4406718541, -44.83759937734597, -122457.42946355695, -12715.438033990626, 0.17, 1.014, -0.10400000000000001, 192.0, 0.0, 0.0, 0.0, 0.0, 0.0, 0.0, 0.0, 0.0, 0.0, 1.696023898854925E9, 0.0, 2023-09-29 16:44:58.854
138.0, 26821.087517867985, 14150.263565810154, 8672.38744168132, -9277.225646641928, 9502.061844117861, -9024.717989530325, -187500.02235174447, 34103.62113757386, -24915.69071003088, 24635.422186305786, 2227.083114037885, -3541.5892054544934, 11584.23859885199, -85.00368416353275, -122492.18642618496, -12716.197993302107, 0.17, 1.014, -0.10400000000000001, 192.0, 0.0, 0.0, 0.0, 0.0, 0.0, 0.0, 0.0, 0.0, 0.0, 1.696023898854929E9, 0.0, 2023-09-29 16:44:58.854
140.0, 27348.991018413428, 14782.370899006237, 8542.948489540637, -9406.128156915684, 9484.761593909454, -9124.496176778815, -187500.02235174447, 34548.867887123575, -24826.48489790975, 24813.38677565894, 2426.2148053902156, -3369.056090003978, 11623.018875481948, -43.94352959913368, -122563.89082239757, -12712.956990356088, 0.17, 1.014, -0.10400000000000001, 192.0, 0.0, 0.0, 0.0, 0.0, 0.0, 0.0, 0.0, 0.0, 0.0, 1.696023898854932E9, 0.0, 2023-09-29 16:44:58.854
142.0, 26829.380015060906, 14162.42291479384, 8684.636197642827, -9266.541512792292, 9496.608018470766, -9007.283628855184, -187500.02235174447, 34108.53852135402, -24908.538151805184, 24703.863227827936, 2265.9975011345746, -3489.3531786624408, 11578.494200526977, -90.03282666597684, -122471.24284163033, -12725.809243417889, 0.17, 1.01, -0.10200000000000001, 192.0, 2.5, 40.0, 15.5, 72.0, 126.0, 104.0, 0.0, 0.0, 0.0, 1.696023898854935E9, 0.0, 2023-09-29 16:44:58.854
144.0, 27332.875410661152, 14755.168826004128, 8528.68807657815, -9420.634439067178, 9505.235791830515, -9124.764397712279, -187500.02235174447, 34546.96798884487, -24835.738520114246, 24734.842745642993, 2389.6697032057887, -3411.77027365807, 11634.798244809896, -24.072828778365707, -122676.47655921897, -12695.388519214215, 0.17, 1.01, -0.10200000000000001, 192.0, 0.0, 0.0, 0.0, 0.0, 0.0, 0.0, 0.0, 0.0, 0.0, 1.696023898854938E9, 0.0, 2023-09-29 16:44:58.854
146.0, 26839.348893087972, 14182.204208636787, 8664.564331121961, -9286.300454890783, 9472.043451314385, -9017.58778304908, -187500.02235174447, 34137.931065312754, -24952.79460582669, 24742.12941433542, 2274.178239605217, -3460.8547044819243, 11554.71194442653, -112.89866124375597, -122436.06119585768, -12752.027839663964, 0.17, 1.01, -0.10200000000000001, 192.0, 0.0, 0.0, 0.0, 0.0, 0.0, 0.0, 0.0, 0.0, 0.0, 1.696023898854942E9, 0.0, 2023-09-29 16:44:58.854
148.0, 27286.3390787052, 14697.05429042033, 8533.247832447032, -9422.400226879148, 9511.293114577904, -9116.8518801751, -187500.02235174447, 34503.11386622356, -24829.949418300323, 24627.800241446526, 2332.3598304223815, -3490.7613385631253, 11631.266669185958, -41.37307898677337, -122779.8310255803, -12693.510972679971, 0.17, 1.01, -0.10200000000000001, 192.0, 0.0, 0.0, 0.0, 0.0, 0.0, 0.0, 0.0, 0.0, 0.0, 1.696023898854945E9, 0.0, 2023-09-29 16:44:58.854
150.0, 26884.52176863215, 14233.859090073001, 8668.118258490356, -9288.625036314135, 9467.908378590153, -9020.426454594904, -187500.02235174447, 34166.67540868228, -24943.18335571091, 24796.66767080637, 2310.2986586449933, -3417.6934859387266, 11544.631307677188, -120.98999273657714, -122432.52962023373, -12763.159008402707, 0.17, 1.01, -0.10200000000000001, 192.0, 0.0, 0.0, 0.0, 0.0, 0.0, 0.0, 0.0, 0.0, 0.0, 1.696023898915128E9, 0.0, 2023-09-29 16:44:58.915
152.0, 27238.260476381838, 14643.454807216503, 8559.30996648192, -9398.997950434441, 9537.712876524076, -9092.443775229905, -187500.02235174447, 34462.67956050391, -24824.20501997531, 24570.11038900738, 2315.1936906807055, -3524.6018796684602, 11646.711724604575, -28.07379103586567, -122873.52953833695, -12671.874484047234, 0.16, 1.012, -0.10200000000000001, 192.0, 2.5, 0.0, 15.5, 80.0, 126.0, 104.0, 0.0, 0.0, 0.0, 1.696023898915139E9, 0.0, 2023-09-29 16:44:58.915
154.0, 26944.111519349997, 14311.576105544103, 8686.178468010243, -9269.35783259366, 9478.25723627296, -9003.260314853229, -187500.02235174447, 34218.397345351856, -24925.816050269135, 24874.719962444302, 2371.3189210079818, -3348.7830577830146, 11562.28918579688, -93.6985127566472, -122451.61800999856, -12747.132807628252, 0.16, 1.012, -0.10200000000000001, 192.0, 0.0, 0.0, 0.0, 0.0, 0.0, 0.0, 0.0, 0.0, 0.0, 1.696023898915143E9, 0.0, 2023-09-29 16:44:58.915
156.0, 27182.537577454757, 14578.970024462942, 8575.514981212018, -9381.876514181677, 9557.404763389202, -9082.430193713928, -187500.02235174447, 34419.250121027246, -24813.766755314682, 24530.503097832574, 2300.1733184067393, -3537.6552984303594, 11660.055716044393, -13.120473995265245, -122961.64011497976, -12648.427504113615, 0.16, 1.012, -0.10200000000000001, 192.0, 0.0, 0.0, 0.0, 0.0, 0.0, 0.0, 0.0, 0.0, 0.0, 1.696023898915146E9, 0.0, 2023-09-29 16:44:58.915
158.0, 27003.947139256852, 14393.003510594788, 8659.222264197144, -9286.54632407979, 9448.037677769385, -9034.463350112837, -187500.02235174447, 34280.93752633781, -24926.75482353626, 24937.729530063814, 2393.8047759300207, -3291.517888488518, 11554.466075237522, -110.4623210981275, -122460.22343161386, -12761.415572335192, 0.16, 1.012, -0.10200000000000001, 192.0, 0.0, 0.0, 0.0, 0.0, 0.0, 0.0, 0.0, 0.0, 0.0, 1.696023898915149E9, 0.0, 2023-09-29 16:44:58.915
160.0, 27116.108192933585, 14504.941046826965, 8605.265153082031, -9345.04083931933, 9569.675871095165, -9055.094010245086, -187500.02235174447, 34361.292047654635, -24836.85610733701, 24515.66153951425, 2264.634044722801, -3553.0109468711553, 11649.483340917033, -22.396447944217677, -122999.10163868686, -12642.437236599593, 0.16, 1.012, -0.10200000000000001, 192.0, 0.0, 0.0, 0.0, 0.0, 0.0, 0.0, 0.0, 0.0, 0.0, 1.696023898915152E9, 0.0, 2023-09-29 16:44:58.915
162.0, 27069.638916211003, 14472.039278988754, 8635.954098219168, -9301.052606231286, 9462.745125620977, -9042.59938509457, -187500.02235174447, 34334.53700954164, -24925.972512480323, 24950.067693003144, 2415.977706429685, -3249.943643801647, 11548.341697256768, -98.59354479235945, -122502.28941467874, -12753.793627475934, 0.16, 1.014, -0.10400000000000001, 192.0, 2.5, 0.0, 15.5, 88.0, 126.0, 96.0, 0.0, 0.0, 0.0, 1.696023898915155E9, 0.0, 2023-09-29 16:44:58.915
164.0, 27046.281343255207, 14420.920839419467, 8622.85597596836, -9328.254679233394, 9588.943074815641, -9038.844292026079, -187500.02235174447, 34306.418515016856, -24819.891133295434, 24479.69758268566, 2220.7128668681225, -3575.250932604186, 11644.230680970035, -20.09421826532105, -123046.8449648434, -12638.928012720111, 0.16, 1.014, -0.10400000000000001, 192.0, 0.0, 0.0, 0.0, 0.0, 0.0, 0.0, 0.0, 0.0, 0.0, 1.696023898975584E9, 0.0, 2023-09-29 16:44:58.975
166.0, 27146.55126888171, 14562.675602755024, 8631.349638861375, -9314.016618015363, 9468.10954429025, -9051.69654508788, -187500.02235174447, 34404.073286542094, -24897.004651666244, 24993.787705157723, 2450.9581865022406, -3215.3431433848314, 11552.879101381195, -88.89288769875618, -122544.26599076582, -12745.098798882818, 0.16, 1.014, -0.10400000000000001, 192.0, 0.0, 0.0, 0.0, 0.0, 0.0, 0.0, 0.0, 0.0, 0.0, 1.696023898975604E9, 0.0, 2023-09-29 16:44:58.975
168.0, 26979.695496522847, 14341.974478003322, 8637.250499397576, -9314.284838948828, 9597.32497898638, -9016.134919659486, -187500.02235174447, 34258.85400281596, -24857.375008746985, 24463.313753999922, 2206.161881227718, -3578.447232061295, 11622.795358037396, -33.505264938505285, -123052.58936316842, -12643.845396500277, 0.16, 1.014, -0.10400000000000001, 192.0, 0.0, 0.0, 0.0, 0.0, 0.0, 0.0, 0.0, 0.0, 0.0, 1.696023898975607E9, 0.0, 2023-09-29 16:44:58.975
170.0, 27210.991348146363, 14636.771635624365, 8628.756836504559, -9324.566641398269, 9520.345571082304, -9047.203844452362, -187500.02235174447, 34460.44438605838, -24891.461419041327, 24980.42136197345, 2454.7356313151877, -3203.0496839344128, 11568.637081222187, -75.43713753666134, -122610.02482295333, -12724.602249217302, 0.16, 1.014, -0.10400000000000001, 192.0, 0.0, 0.0, 0.0, 0.0, 0.0, 0.0, 0.0, 0.0, 0.0, 1.696023898975611E9, 0.0, 2023-09-29 16:44:58.975
172.0, 26910.740364878224, 14263.162227053908, 8641.184406421711, -9322.487929163924, 9608.277333769482, -9020.895841228466, -187500.02235174447, 34209.41194408083, -24840.186517260852, 24464.811320878427, 2195.5224508669917, -3575.89913319339, 11630.618468596753, -34.488741694538795, -123075.20932855718, -12629.36146609324, 0.16, 1.016, -0.108, 192.0, 2.5, 0.0, 15.5, 96.0, 126.0, 80.0, 0.0, 0.0, 0.0, 1.696023898975621E9, 0.0, 2023-09-29 16:44:58.975
174.0, 27251.5821160772, 14689.544104283346, 8574.576207944896, -9379.976615902975, 9497.703253949077, -9087.101708305087, -187500.02235174447, 34508.61239535957, -24880.419657280407, 24936.74605330778, 2435.423724105802, -3224.3061929114097, 11554.890758382173, -96.55953604692651, -122688.6135564582, -12731.732455698546, 0.16, 1.016, -0.108, 192.0, 0.0, 0.0, 0.0, 0.0, 0.0, 0.0, 0.0, 0.0, 0.0, 1.696023898975624E9, 0.0, 2023-09-29 16:44:58.975
176.0, 26868.629678324425, 14209.115708960977, 8654.014307739057, -9306.148803967095, 9613.127662316283, -9000.801622963147, -187500.02235174447, 34172.62097270739, -24852.144700544442, 24474.489626227576, 2170.443793588137, -3571.317025580052, 11606.299770629379, -68.53044849997146, -123054.10928179137, -12642.347829621773, 0.16, 1.016, -0.108, 192.0, 0.0, 0.0, 0.0, 0.0, 0.0, 0.0, 0.0, 0.0, 0.0, 1.696023898975628E9, 0.0, 2023-09-29 16:44:58.975
178.0, 27311.64125342861, 14756.44287543808, 8572.69866141065, -9384.29050258285, 9535.723571267554, -9082.56430418066, -187500.02235174447, 34551.237172035835, -24821.835735063047, 24912.628521040504, 2453.372174903414, -3219.7911405314376, 11583.992729662983, -77.22527709308591, -122785.46366518304, -12695.41087095867, 0.16, 1.016, -0.108, 192.0, 0.0, 0.0, 0.0, 0.0, 0.0, 0.0, 0.0, 0.0, 0.0, 1.696023898975631E9, 0.0, 2023-09-29 16:44:58.975
180.0, 26835.325579086017, 14175.632795766925, 8656.070668228946, -9301.074957975741, 9600.14129878775, -8996.35362581654, -187500.02235174447, 34145.32949272746, -24862.58296520507, 24532.157126922266, 2201.1327387252736, -3517.1140452759323, 11596.219133880037, -59.902675140222925, -123030.46113615765, -12624.220564868518, 0.16, 1.016, -0.108, 192.0, 0.0, 0.0, 0.0, 0.0, 0.0, 0.0, 0.0, 0.0, 0.0, 1.696023899035768E9, 0.0, 2023-09-29 16:44:59.035
182.0, 27338.530402008346, 14781.476829228024, 8539.618079616796, -9419.762721033421, 9529.26391711997, -9103.08320559063, -187500.02235174447, 34573.56656474669, -24831.29052296764, 24867.05331409613, 2425.5442530565565, -3239.147751229734, 11561.976261374506, -76.19709684814178, -122870.10972143528, -12686.246655731995, 0.162, 1.016, -0.108, 192.0, 2.5, 8.0, 15.5, 96.0, 126.0, 80.0, 0.0, 0.0, 0.0, 1.696023899035777E9, 0.0, 2023-09-29 16:44:59.035
184.0, 26821.154573101354, 14163.406391549874, 8678.422412684253, -9285.674606046034, 9619.43085425268, -8972.794887160646, -187500.02235174447, 34132.968978043675, -24860.951287859833, 24568.76928434006, 2220.3999424457484, -3473.1481639323433, 11580.304691827858, -81.11448062830934, -122985.60118503585, -12631.708399261046, 0.162, 1.016, -0.108, 192.0, 0.0, 0.0, 0.0, 0.0, 0.0, 0.0, 0.0, 0.0, 0.0, 1.69602389903578E9, 0.0, 2023-09-29 16:44:59.035
186.0, 27356.23298361695, 14800.07348061484, 8539.863948805803, -9420.790901278366, 9578.571865388378, -9083.167801280952, -187500.02235174447, 34582.39550380653, -24775.880548462934, 24828.898886310923, 2447.180741689294, -3243.461637909608, 11609.92075323114, -37.3497649848181, -122988.70807751514, -12633.36242835074, 0.162, 1.016, -0.108, 192.0, 0.0, 0.0, 0.0, 0.0, 0.0, 0.0, 0.0, 0.0, 0.0, 1.696023899035784E9, 0.0, 2023-09-29 16:44:59.035
188.0, 26829.245904594172, 14172.011813165167, 8672.38744168132, -9296.448146873492, 9601.594162177344, -8966.424639990884, -187500.02235174447, 34143.00491130411, -24855.475110468284, 24649.906116712824, 2259.4707917536252, -3406.4282067332515, 11558.154113072647, -93.6985127566472, -122946.41857700571, -12650.93089949261, 0.162, 1.016, -0.108, 192.0, 0.0, 0.0, 0.0, 0.0, 0.0, 0.0, 0.0, 0.0, 0.0, 1.696023899035788E9, 0.0, 2023-09-29 16:44:59.035
190.0, 27346.085291634237, 14787.511800230957, 8532.219652202088, -9421.14852918965, 9591.200601005627, -9059.586710880603, -187500.02235174447, 34588.139902131545, -24767.38688556992, 24758.960277910268, 2430.014601947618, -3272.228333023588, 11610.993636964993, -41.68600340914767, -123074.06938958996, -12635.441140585082, 0.162, 1.016, -0.108, 192.0, 0.0, 0.0, 0.0, 0.0, 0.0, 0.0, 0.0, 0.0, 0.0, 1.696023899035791E9, 0.0, 2023-09-29 16:44:59.035
192.0, 26839.103023898962, 14189.33441511803, 8669.168790479755, -9278.522047820336, 9601.907086599718, -8929.946593039822, -187500.02235174447, 34167.994161605144, -24849.797767376636, 24703.796172594568, 2288.4163008232476, -3355.37682239733, 11552.09679032526, -96.24661162455222, -122908.88999806523, -12675.048431759888, 0.166, 1.012, -0.10400000000000001, 192.0, 2.5, 24.0, 15.5, 80.0, 126.0, 96.0, 0.0, 0.0, 0.0, 1.696023899035795E9, 0.0, 2023-09-29 16:44:59.035
194.0, 27316.35747150868, 14755.079419026306, 8534.477178392075, -9416.946401232053, 9625.041142110962, -9031.26705065573, -187500.02235174447, 34583.44603579593, -24772.639545516915, 24692.41913466682, 2389.9602758837077, -3317.8258917124144, 11630.551413363388, -21.14475025472048, -123174.62988789439, -12617.157413620642, 0.166, 1.012, -0.10400000000000001, 192.0, 0.0, 0.0, 0.0, 0.0, 0.0, 0.0, 0.0, 0.0, 0.0, 1.696023899096032E9, 0.0, 2023-09-29 16:44:59.096
196.0, 26868.31675390205, 14231.62391562747, 8671.046337014, -9278.007957697864, 9588.227818993071, -8933.791093086134, -187500.02235174447, 34212.56354004902, -24864.88519488397, 24789.24689164721, 2316.0877604589177, -3309.3098770749425, 11532.404903460134, -113.83743451087886, -122872.34489588081, -12696.41669945916, 0.166, 1.012, -0.10400000000000001, 192.0, 0.0, 0.0, 0.0, 0.0, 0.0, 0.0, 0.0, 0.0, 0.0, 1.696023899096043E9, 0.0, 2023-09-29 16:44:59.096
198.0, 27274.87263379963, 14697.747194498445, 8554.59374840185, -9391.37600557518, 9653.025526169005, -9014.570297547614, -187500.02235174447, 34550.90189586901, -24729.79125139609, 24594.58554918594, 2357.37143246787, -3376.5662761409612, 11639.000372767494, -21.74824735501377, -123259.72297903574, -12616.173936864609, 0.166, 1.012, -0.10400000000000001, 192.0, 0.0, 0.0, 0.0, 0.0, 0.0, 0.0, 0.0, 0.0, 0.0, 1.696023899096047E9, 0.0, 2023-09-29 16:44:59.096
200.0, 26911.589731167525, 14293.046509390655, 8664.407868910774, -9270.40836458306, 9597.123813286284, -8940.921299567379, -187500.02235174447, 34262.519688906636, -24839.068930038087, 24865.533395473172, 2373.956426853708, -3254.123420014789, 11551.04625833586, -93.74321624555782, -122885.46536987608, -12688.526533666436, 0.166, 1.012, -0.10400000000000001, 192.0, 0.0, 0.0, 0.0, 0.0, 0.0, 0.0, 0.0, 0.0, 0.0, 1.69602389909605E9, 0.0, 2023-09-29 16:44:59.096
202.0, 27207.795048689255, 14627.22744074195, 8555.688983880162, -9388.671444496089, 9670.638700799787, -9019.286515627684, -187500.02235174447, 34509.35000292659, -24764.458807046274, 24581.129799023845, 2332.3821821668366, -3411.323238768964, 11638.843910556307, -17.613174630781966, -123343.49731725424, -12605.892134415166, 0.17400000000000002, 1.008, -0.1, 192.0, 2.5, 56.0, 15.5, 64.0, 126.0, 112.0, 0.0, 0.0, 0.0, 1.696023899096053E9, 0.0, 2023-09-29 16:44:59.096
204.0, 26965.70330449382, 14364.12505675853, 8650.348621648387, -9291.55311483778, 9591.357063216814, -8960.881407365967, -187500.02235174447, 34317.102648866494, -24857.48676746926, 24909.40986983894, 2414.7483604846434, -3221.8251492768704, 11546.262985022424, -101.9463064606555, -122883.6548785752, -12701.199972772596, 0.17400000000000002, 1.008, -0.1, 192.0, 0.0, 0.0, 0.0, 0.0, 0.0, 0.0, 0.0, 0.0, 0.0, 1.696023899096056E9, 0.0, 2023-09-29 16:44:59.096
206.0, 27142.32678917966, 14554.830140451211, 8561.634547905272, -9383.061156637807, 9668.537636820989, -9016.44784408186, -187500.02235174447, 34469.40743558496, -24767.81156871457, 24530.458394343663, 2304.9789434646304, -3454.640919523349, 11629.858509285274, -28.67728813615896, -123386.23385265277, -12599.745404689957, 0.17400000000000002, 1.008, -0.1, 192.0, 0.0, 0.0, 0.0, 0.0, 0.0, 0.0, 0.0, 0.0, 0.0, 1.696023899096059E9, 0.0, 2023-09-29 16:44:59.096
208.0, 27033.250276237763, 14439.741008250834, 8643.039601211502, -9301.164364953562, 9589.010130049006, -8972.39255576045, -187500.02235174447, 34379.396960663435, -24855.318648257096, 24954.0910070051, 2443.7832765320873, -3186.464689548575, 11548.319345512313, -108.18244316368619, -122878.31281165038, -12699.635350660725, 0.17400000000000002, 1.008, -0.1, 192.0, 0.0, 0.0, 0.0, 0.0, 0.0, 0.0, 0.0, 0.0, 0.0, 1.696023899096062E9, 0.0, 2023-09-29 16:44:59.096
210.0, 27078.445503526393, 14462.539787595248, 8610.964847918136, -9355.009717346396, 9702.44523315969, -8988.083480368075, -187500.02235174447, 34402.70983013032, -24748.454958016275, 24465.772445890005, 2280.3249693304265, -3490.2696001851086, 11646.152930993192, -17.34495369731828, -123445.60008592607, -12581.416974236605, 0.17400000000000002, 1.008, -0.1, 192.0, 0.0, 0.0, 0.0, 0.0, 0.0, 0.0, 0.0, 0.0, 0.0, 1.696023899154944E9, 0.0, 2023-09-29 16:44:59.154
212.0, 27092.50475078878, 14511.803032374744, 8635.685877285705, -9331.6521443906, 9590.41828994969, -9001.516878785716, -187500.02235174447, 34433.5775892231, -24831.78226134566, 24974.9451845819, 2480.820117094531, -3160.424907258142, 11560.210473562536, -94.0114371790215, -122942.57407695938, -12693.756841868979, 0.17, 1.016, -0.1, 192.0, 2.5, 40.0, 15.5, 96.0, 126.0, 112.0, 0.0, 0.0, 0.0, 1.696023899154954E9, 0.0, 2023-09-29 16:44:59.154
214.0, 27001.175522944395, 14376.8431993536, 8623.191252135188, -9347.432475976047, 9704.591000627399, -8986.518858256204, -187500.02235174447, 34348.88682948194, -24795.90771149489, 24451.0202945495, 2256.6544719522562, -3513.403655696351, 11641.213195468568, -34.5110934389941, -123479.5970892426, -12591.028224352387, 0.17, 1.016, -0.1, 192.0, 0.0, 0.0, 0.0, 0.0, 0.0, 0.0, 0.0, 0.0, 0.0, 1.696023899154958E9, 0.0, 2023-09-29 16:44:59.154
216.0, 27163.069208034183, 14591.308187402272, 8623.727694002115, -9349.801760888311, 9596.810888863909, -9006.344855588062, -187500.02235174447, 34496.18482544242, -24816.225447204764, 24978.32029799465, 2491.7277683887205, -3148.24320653, 11571.408697534645, -87.08239639787632, -122998.29697588646, -12691.678129634634, 0.17, 1.016, -0.1, 192.0, 0.0, 0.0, 0.0, 0.0, 0.0, 0.0, 0.0, 0.0, 0.0, 1.696023899154961E9, 0.0, 2023-09-29 16:44:59.154
218.0, 26933.85206864501, 14300.31082633863, 8640.245633154587, -9343.766789885378, 9699.718320336142, -8977.756974429723, -187500.02235174447, 34295.80143640059, -24794.499551594206, 24443.51010841252, 2231.6205181623122, -3518.41044645434, 11640.140311734714, -45.73166915555825, -123486.61553700156, -12592.592846464258, 0.17, 1.016, -0.1, 192.0, 0.0, 0.0, 0.0, 0.0, 0.0, 0.0, 0.0, 0.0, 0.0, 1.696023899154964E9, 0.0, 2023-09-29 16:44:59.154
220.0, 27216.758098215832, 14657.245833545428, 8591.228257564098, -9393.14179338715, 9557.427115133658, -9055.429286411916, -187500.02235174447, 34551.795965647216, -24829.569438644583, 24973.246452003295, 2492.554782933567, -3148.310261763366, 11568.994709133472, -100.9851814490773, -123056.65738065928, -12697.489583193015, 0.17, 1.016, -0.1, 192.0, 0.0, 0.0, 0.0, 0.0, 0.0, 0.0, 0.0, 0.0, 0.0, 1.696023899154967E9, 0.0, 2023-09-29 16:44:59.154
222.0, 26877.011582495164, 14226.795938825124, 8658.261139185564, -9329.573432156258, 9685.055575973462, -8976.39351801795, -187500.02235174447, 34244.280665431106, -24806.927121511355, 24430.657855350717, 2230.301765239449, -3522.210243011742, 11615.374578878234, -77.06881488189875, -123469.18117632643, -12612.374140307205, 0.16, 1.006, -0.098, 192.0, 2.5, 0.0, 15.5, 56.0, 126.0, 120.0, 0.0, 0.0, 0.0, 1.69602389915497E9, 0.0, 2023-09-29 16:44:59.154
224.0, 27268.368276163135, 14718.131985441683, 8580.387661503275, -9401.546049302346, 9577.789554332443, -9059.474952158327, -187500.02235174447, 34588.02814340927, -24820.62874086246, 24929.146460192977, 2499.2156027812484, -3157.407421756676, 11576.594302248277, -99.44291108166112, -123139.9176287553, -12692.013405801465, 0.16, 1.006, -0.098, 192.0, 0.0, 0.0, 0.0, 0.0, 0.0, 0.0, 0.0, 0.0, 0.0, 1.696023899215096E9, 0.0, 2023-09-29 16:44:59.215
226.0, 26835.102061641464, 14190.943740718812, 8670.934578291724, -9311.93790578102, 9684.161506195249, -8965.44116323485, -187500.02235174447, 34214.32932786099, -24834.19624974683, 24475.428399494696, 2234.9062245972427, -3491.6777600857927, 11606.232715396014, -71.77145144599098, -123447.32117024914, -12619.772567721911, 0.16, 1.006, -0.098, 192.0, 0.0, 0.0, 0.0, 0.0, 0.0, 0.0, 0.0, 0.0, 0.0, 1.696023899215106E9, 0.0, 2023-09-29 16:44:59.215
228.0, 27296.06208754326, 14760.376782462214, 8564.003832817536, -9419.695665800056, 9592.832278350865, -9074.22710349883, -187500.02235174447, 34622.87451301509, -24798.411106873886, 24882.431314281384, 2492.6218381669332, -3179.6697592341616, 11581.444630795078, -88.80348072093496, -123235.76190897965, -12681.530437651925, 0.16, 1.006, -0.098, 192.0, 0.0, 0.0, 0.0, 0.0, 0.0, 0.0, 0.0, 0.0, 0.0, 1.69602389921511E9, 0.0, 2023-09-29 16:44:59.215
230.0, 26803.027308348097, 14160.210092092764, 8690.559409923484, -9291.329597393227, 9673.119744434327, -8947.716229881791, -187500.02235174447, 34195.17388286279, -24833.078662524065, 24517.159106392755, 2254.799277162466, -3463.492210327651, 11584.52917152991, -81.22623935058587, -123411.96071052084, -12637.02811444141, 0.16, 1.006, -0.098, 192.0, 0.0, 0.0, 0.0, 0.0, 0.0, 0.0, 0.0, 0.0, 0.0, 1.696023899215113E9, 0.0, 2023-09-29 16:44:59.215
232.0, 27315.619863941654, 14781.365070505748, 8558.348841470342, -9422.154357690139, 9619.252040297037, -9064.504094660771, -187500.02235174447, 34639.61596961212, -24811.777450058158, 24876.865729912013, 2493.851184111975, -3194.936000697136, 11600.57772404882, -62.29431179694078, -123335.02600610568, -12655.200082683574, 0.158, 1.006, -0.092, 192.0, 2.0, 120.0, 15.5, 56.0, 126.5, 16.0, 0.0, 0.0, 0.0, 1.696023899215117E9, 0.0, 2023-09-29 16:44:59.215
234.0, 26792.365526242917, 14151.17998733282, 8706.026817086557, -9276.689204775, 9682.619235827833, -8937.188558243342, -187500.02235174447, 34189.943574660254, -24864.34875301704, 24610.14236332683, 2277.4192425512365, -3415.1006835819107, 11570.559331245344, -94.36906509030642, -123363.68094249738, -12647.242861657485, 0.158, 1.006, -0.092, 192.0, 0.0, 0.0, 0.0, 0.0, 0.0, 0.0, 0.0, 0.0, 0.0, 1.69602389921512E9, 0.0, 2023-09-29 16:44:59.215
236.0, 27323.040643100816, 14785.88012288572, 8569.345899742353, -9412.565459318812, 9645.090656887372, -9053.372925922027, -187500.02235174447, 34643.12519349161, -24757.172138353842, 24782.42960958834, 2472.0358815235954, -3234.319774427387, 11616.648628312187, -43.22827377656386, -123439.02867305621, -12626.634553269692, 0.158, 1.006, -0.092, 192.0, 0.0, 0.0, 0.0, 0.0, 0.0, 0.0, 0.0, 0.0, 0.0, 1.696023899215123E9, 0.0, 2023-09-29 16:44:59.215
238.0, 26807.095325838964, 14172.436496309818, 8718.476738748162, -9260.439486555993, 9668.649395543265, -8934.86397681999, -187500.02235174447, 34200.94063293227, -24854.15635754542, 24677.085837970477, 2307.6611527992673, -3360.5624271109614, 11568.234749821991, -103.86855648381191, -123340.23396256375, -12646.125274434718, 0.158, 1.006, -0.092, 192.0, 0.0, 0.0, 0.0, 0.0, 0.0, 0.0, 0.0, 0.0, 0.0, 1.696023899215126E9, 0.0, 2023-09-29 16:44:59.215
240.0, 27310.83659062822, 14763.282509241404, 8580.208847547632, -9407.71513077201, 9666.749497264564, -9055.362231178551, -187500.02235174447, 34634.005681753835, -24757.306248820576, 24714.927341333314, 2441.5033985976456, -3267.847391110348, 11625.63402958322, -28.409067202695276, -123547.41228192, -12601.175916335096, 0.158, 1.006, -0.092, 192.0, 0.0, 0.0, 0.0, 0.0, 0.0, 0.0, 0.0, 0.0, 0.0, 1.696023899276476E9, 0.0, 2023-09-29 16:44:59.276
242.0, 26833.626846507414, 14205.248857170209, 8730.189052842743, -9252.012878896341, 9660.33454660589, -8937.948517554822, -187500.02235174447, 34229.46145885724, -24869.668468197404, 24737.055568344065, 2347.849589329909, -3305.711246217638, 11560.121066584716, -108.40596060823925, -123306.3040144806, -12648.181634924607, 0.16, 1.012, -0.098, 192.0, 2.5, 0.0, 15.5, 80.0, 126.0, 120.0, 0.0, 0.0, 0.0, 1.696023899276487E9, 0.0, 2023-09-29 16:44:59.276
244.0, 27284.014497281853, 14728.637305335678, 8604.527545515008, -9379.641339736145, 9696.767890068042, -9034.619812324025, -187500.02235174447, 34604.38962035056, -24725.365605993942, 24666.625221565395, 2425.0301629340843, -3307.4323305406965, 11647.494035660511, -22.59761364431544, -123634.58408529569, -12576.901921856634, 0.16, 1.012, -0.098, 192.0, 0.0, 0.0, 0.0, 0.0, 0.0, 0.0, 0.0, 0.0, 0.0, 1.69602389927649E9, 0.0, 2023-09-29 16:44:59.276
246.0, 26879.537329618615, 14259.384782240963, 8704.506898463595, -9275.191637896496, 9639.279203328992, -8958.86975036499, -187500.02235174447, 34276.75775012466, -24850.781244132668, 24823.847392064024, 2398.4762905211796, -3241.651146608728, 11555.874235138206, -100.11346341532034, -123296.26808122017, -12645.16414942314, 0.16, 1.012, -0.098, 192.0, 0.0, 0.0, 0.0, 0.0, 0.0, 0.0, 0.0, 0.0, 0.0, 1.696023899276493E9, 0.0, 2023-09-29 16:44:59.276
248.0, 27232.739595501378, 14663.169045826084, 8581.728766170594, -9407.759834260922, 9681.72516604962, -9052.545911377181, -187500.02235174447, 34576.27112582578, -24766.157539624877, 24570.311554707474, 2369.888409362842, -3371.358319682875, 11621.856584770274, -38.95909058560021, -123697.72776338193, -12589.553009218336, 0.16, 1.012, -0.098, 192.0, 0.0, 0.0, 0.0, 0.0, 0.0, 0.0, 0.0, 0.0, 0.0, 1.696023899276497E9, 0.0, 2023-09-29 16:44:59.276
