%OpenBCI Raw EXG Data
%Number of channels = 16
%Sample Rate = 125 Hz
%Board = OpenBCI_GUI$BoardCytonSerialDaisy
Sample Index, EXG Channel 0, EXG Channel 1, EXG Channel 2, EXG Channel 3, EXG Channel 4, EXG Channel 5, EXG Channel 6, EXG Channel 7, EXG Channel 8, EXG Channel 9, EXG Channel 10, EXG Channel 11, EXG Channel 12, EXG Channel 13, EXG Channel 14, EXG Channel 15, Accel Channel 0, Accel Channel 1, Accel Channel 2, Other, Other, Other, Other, Other, Other, Other, Analog Channel 0, Analog Channel 1, Analog Channel 2, Timestamp, Other, Timestamp (Formatted)
0.0, 10023.617449237998, 16360.29229882864, -187500.02235174447, -52262.7371266767, -2085.797737335889, -9983.607826662997, -187500.02235174447, -22435.317627825454, 0.0, 0.0, 0.0, 0.0, 0.0, 0.0, 0.0, 0.0, 0.0, 0.0, 0.0, 192.0, 0.0, 0.0, 0.0, 0.0, 0.0, 0.0, 0.0, 0.0, 0.0, 1.695336423920299E9, 0.0, 2023-09-21 17:47:03.920
230.0, 10018.163623590903, 16369.590624522047, -187500.02235174447, -52246.01802182413, -2086.4012344361827, -9964.273567709157, -187500.02235174447, -22420.72193869614, -13651.864367945716, 25068.8672147831, -40294.04852319342, -187500.02235174447, -15098.759841771109, -36524.33741382807, -63801.713443006694, -1960.873837575178, 0.0, 0.0, 0.0, 192.0, 0.0, 0.0, 0.0, 0.0, 0.0, 0.0, 0.0, 0.0, 0.0, 1.695336423920309E9, 0.0, 2023-09-21 17:47:03.920
232.0, 10014.430882266866, 16350.122255101474, -187500.02235174447, -52252.74589690517, -2065.234132437007, -9975.4047364479, -187500.02235174447, -22427.91920041075, -13657.809931970827, 25059.30066815623, -40304.44208436514, -187500.02235174447, -15096.815240003496, -36527.84663770755, -63821.40532987182, -1955.2411979724407, 0.073, 0.498, 0.061, 192.0, 2.0, 72.0, 15.5, 16.0, 1.5, 104.0, 0.0, 0.0, 0.0, 1.695336423920313E9, 0.0, 2023-09-21 17:47:03.920
234.0, 10014.587344478054, 16357.85595868301, -187500.02235174447, -52242.553501433555, -2071.3361586733054, -9957.411582161378, -187500.02235174447, -22413.85995314836, -13660.55919653883, 25055.05383670972, -40312.15343620222, -187500.02235174447, -15100.905609238818, -36538.374309346, -63768.007012368085, -1958.9739392964768, 0.073, 0.498, 0.061, 192.0, 0.0, 0.0, 0.0, 0.0, 0.0, 0.0, 0.0, 0.0, 0.0, 1.695336423920317E9, 0.0, 2023-09-21 17:47:03.920
236.0, 10010.27345779818, 16341.494481741725, -187500.02235174447, -52250.89070211539, -2059.377975389716, -9964.474733409255, -187500.02235174447, -22420.319607295944, -13649.070399888802, 25053.19864191993, -40302.07279945288, -187500.02235174447, -15082.800696230019, -36526.594940018054, -63814.54334432404, -1940.6902123320358, 0.073, 0.498, 0.061, 192.0, 0.0, 0.0, 0.0, 0.0, 0.0, 0.0, 0.0, 0.0, 0.0, 1.69533642392032E9, 0.0, 2023-09-21 17:47:03.920
238.0, 10014.587344478054, 16350.502234757214, -187500.02235174447, -52246.97914683571, -2073.370167418738, -9950.102561724492, -187500.02235174447, -22411.222447302636, -13655.977088925492, 25049.711769784903, -40309.27006116749, -187500.02235174447, -15085.773478242574, -36536.98850118977, -63760.72034367566, -1949.00506126941, 0.073, 0.498, 0.061, 192.0, 0.0, 0.0, 0.0, 0.0, 0.0, 0.0, 0.0, 0.0, 0.0, 1.695336423920324E9, 0.0, 2023-09-21 17:47:03.920
240.0, 10023.908021915917, 16360.739333717745, -187500.02235174447, -52238.709001387244, -2047.0174607059314, -9943.68761106582, -187500.02235174447, -22405.142772810792, -13639.101521861736, 25041.218106891884, -40292.64036329274, -187500.02235174447, -15070.708402479697, -36523.443344049854, -63807.43548958725, -1939.2373489424408, 0.073, 0.498, 0.061, 192.0, 0.0, 0.0, 0.0, 0.0, 0.0, 0.0, 0.0, 0.0, 0.0, 1.695336423920327E9, 0.0, 2023-09-21 17:47:03.920
242.0, 10023.818614938094, 16365.299089586628, -187500.02235174447, -52242.66526015583, -2062.6636818246466, -9950.370782657956, -187500.02235174447, -22410.104860079868, -13637.089864860758, 25053.042179708744, -40291.32161036988, -187500.02235174447, -15071.155437368803, -36525.79027721766, -63767.91760539027, -1930.9448517495218, 0.10750000000000001, 0.748, 0.0915, 192.0, 2.0, 56.0, 15.5, 24.0, 1.5, 104.0, 0.0, 0.0, 0.0, 1.695336423920331E9, 0.0, 2023-09-21 17:47:03.920
244.0, 10018.677713713374, 16351.552766746614, -187500.02235174447, -52253.617614938936, -2058.3050916558614, -9968.810971833584, -187500.02235174447, -22429.193249844702, -13633.31242004781, 25035.272542866773, -40286.00189518951, -187500.02235174447, -15062.840588431429, -36527.66782375191, -63812.03994894504, -1938.1421134641307, 0.10750000000000001, 0.748, 0.0915, 192.0, 0.0, 0.0, 0.0, 0.0, 0.0, 0.0, 0.0, 0.0, 0.0, 1.695336423920334E9, 0.0, 2023-09-21 17:47:03.920
0.0, 4646.123009457947, 8337.088923107258, -93750.01117587223, -25801.95972942826, 5877.033576611707, -4920.669486602484, -93750.01117587223, -9762.213797833181, -6820.344247859031, 12519.636752562137, -20147.393065380224, -93750.01117587223, -7535.734180895589, -18269.37714450087, -31872.224136856097, -974.245485573469, 0.13775, 0.868, 0.12475, 192.0, 2.5, 32.0, 15.0, 112.0, 2.0, 120.0, 0.0, 0.0, 0.0, 1.695336424089921E9, 0.0, 2023-09-21 17:47:04.089
2.0, 9298.415100385559, 16685.4878289089, -187500.02235174447, -51596.096348297164, 11743.31596414041, -9822.69761832924, -187500.02235174447, -19506.501496613204, -5356.975538370078, 28874.944612377243, -39708.38811497547, -187500.02235174447, -8500.30136111991, -40111.27830878238, -99389.7586333464, -5092.263828785876, 0.13775, 0.868, 0.12475, 192.0, 0.0, 0.0, 0.0, 0.0, 0.0, 0.0, 0.0, 0.0, 0.0, 1.695336424089934E9, 0.0, 2023-09-21 17:47:04.089
4.0, 9287.485097346915, 16681.19629397348, -187500.02235174447, -51607.16046180254, 11746.13228394178, -9838.187377236769, -187500.02235174447, -19519.644322352928, -5351.029974344966, 28858.94076334724, -39695.35704795802, -187500.02235174447, -8492.120622649267, -40099.67775341008, -99371.76547905988, -5087.011168838879, 0.13775, 0.868, 0.12475, 192.0, 0.0, 0.0, 0.0, 0.0, 0.0, 0.0, 0.0, 0.0, 0.0, 1.695336424089938E9, 0.0, 2023-09-21 17:47:04.089
6.0, 9295.08469046172, 16683.5879306302, -187500.02235174447, -51615.967049117935, 11744.478254852087, -9840.936641804772, -187500.02235174447, -19523.041787510134, -5368.464335020106, 28866.339190761948, -39710.51153069872, -187500.02235174447, -8513.578297326363, -40126.94688164555, -99247.37802116609, -5111.240459828432, 0.13775, 0.868, 0.12475, 192.0, 0.0, 0.0, 0.0, 0.0, 0.0, 0.0, 0.0, 0.0, 0.0, 1.695336424089942E9, 0.0, 2023-09-21 17:47:04.089
8.0, 9285.31697813475, 16675.340136926192, -187500.02235174447, -51622.381999776604, 11742.533653084476, -9850.27967098709, -187500.02235174447, -19529.412034679895, -5355.67913719167, 28846.42378645227, -39698.463940437316, -187500.02235174447, -8509.599686813317, -40127.975061890495, -99205.15557589002, -5115.174366852566, 0.182, 0.982, 0.176, 192.0, 2.5, 88.0, 15.0, 88.0, 2.5, 64.0, 0.0, 0.0, 0.0, 1.695336424089946E9, 0.0, 2023-09-21 17:47:04.089
10.0, 9297.722196307444, 16690.96400630045, -187500.02235174447, -51615.944697373474, 11753.75422880104, -9849.005621553139, -187500.02235174447, -19524.606409622003, -5356.193227314142, 28857.95728659121, -39684.829376319576, -187500.02235174447, -8508.079768190357, -40128.15387584613, -99109.93714451042, -5116.984858153446, 0.182, 0.982, 0.176, 192.0, 0.0, 0.0, 0.0, 0.0, 0.0, 0.0, 0.0, 0.0, 0.0, 1.69533642408995E9, 0.0, 2023-09-21 17:47:04.089
12.0, 9290.055547959275, 16693.132125512617, -187500.02235174447, -51615.72117992892, 11731.693057023653, -9867.758735151141, -187500.02235174447, -19529.881421313457, -5348.526578965972, 28844.769757362577, -39668.15497495591, -187500.02235174447, -8506.671608289673, -40123.705878699526, -99065.83715270009, -5117.074265131267, 0.182, 0.982, 0.176, 192.0, 0.0, 0.0, 0.0, 0.0, 0.0, 0.0, 0.0, 0.0, 0.0, 1.695336424089954E9, 0.0, 2023-09-21 17:47:04.089
14.0, 9305.232382444428, 16711.05822456577, -187500.02235174447, -51606.28874376878, 11731.60365004583, -9858.818037369017, -187500.02235174447, -19517.2079822073, -5360.0377273604545, 28861.42180698178, -39669.85370753452, -187500.02235174447, -8518.652143317717, -40132.33365205928, -98979.89469526944, -5129.457131559508, 0.182, 0.982, 0.176, 192.0, 0.0, 0.0, 0.0, 0.0, 0.0, 0.0, 0.0, 0.0, 0.0, 1.695336424089958E9, 0.0, 2023-09-21 17:47:04.089
16.0, 9290.681396804022, 16697.513067425858, -187500.02235174447, -51621.756150931855, 11718.46082430611, -9876.565322466531, -187500.02235174447, -19527.780357334657, -5344.480913219561, 28873.55880422101, -39655.81681201659, -187500.02235174447, -8508.169175168177, -40120.82250366479, -98938.2980988381, -5123.355105323209, 0.182, 0.982, 0.176, 192.0, 0.0, 0.0, 0.0, 0.0, 0.0, 0.0, 0.0, 0.0, 0.0, 1.695336424150314E9, 0.0, 2023-09-21 17:47:04.150
18.0, 9311.870850547653, 16709.65006466509, -187500.02235174447, -51615.6317729511, 11745.28291765248, -9871.849104386461, -187500.02235174447, -19528.227392223765, -5349.286538277453, 28867.300315773526, -39668.3114371671, -187500.02235174447, -8523.2118991866, -40141.98960566397, -98844.9795657372, -5146.086829434255, 0.196, 0.976, 0.182, 192.0, 3.0, 16.0, 15.0, 64.0, 2.5, 88.0, 0.0, 0.0, 0.0, 1.695336424150326E9, 0.0, 2023-09-21 17:47:04.150
20.0, 9310.932077280531, 16720.87064038165, -187500.02235174447, -51609.01565659233, 11725.434568576165, -9864.51773220512, -187500.02235174447, -19519.15258397491, -5338.915328850189, 28860.393626736837, -39647.59137005703, -187500.02235174447, -8508.213878657089, -40125.315204300314, -98774.95155035873, -5128.96539318149, 0.196, 0.976, 0.182, 192.0, 0.0, 0.0, 0.0, 0.0, 0.0, 0.0, 0.0, 0.0, 0.0, 1.69533642415033E9, 0.0, 2023-09-21 17:47:04.150
22.0, 9312.004961014385, 16720.803585148285, -187500.02235174447, -51618.22457530792, 11735.358743114322, -9872.921988120317, -187500.02235174447, -19524.941685788835, -5343.229215530064, 28877.626821711878, -39650.02771020266, -187500.02235174447, -8517.646314817228, -40137.78747770637, -98721.53088111054, -5131.357029838208, 0.196, 0.976, 0.182, 192.0, 0.0, 0.0, 0.0, 0.0, 0.0, 0.0, 0.0, 0.0, 0.0, 1.695336424150333E9, 0.0, 2023-09-21 17:47:04.150
24.0, 9303.198373698995, 16721.518840970857, -187500.02235174447, -51618.626906708116, 11721.590068529853, -9866.261168272635, -187500.02235174447, -19522.415938665385, -5346.805494642913, 28866.80857739551, -39652.575809070564, -187500.02235174447, -8520.417931129687, -40139.41915505161, -98640.12582780431, -5134.486274061951, 0.196, 0.976, 0.182, 192.0, 0.0, 0.0, 0.0, 0.0, 0.0, 0.0, 0.0, 0.0, 0.0, 1.695336424150336E9, 0.0, 2023-09-21 17:47:04.150
26.0, 9310.753263324888, 16720.803585148285, -187500.02235174447, -51621.2867642983, 11750.110894454825, -9871.223255541714, -187500.02235174447, -19528.517964901683, -5341.038744573444, 28870.13898731935, -39652.79932651512, -187500.02235174447, -8519.926192751669, -40138.30156782884, -98592.87424002579, -5130.485311804451, 0.196, 0.976, 0.182, 192.0, 0.0, 0.0, 0.0, 0.0, 0.0, 0.0, 0.0, 0.0, 0.0, 1.69533642415034E9, 0.0, 2023-09-21 17:47:04.150
28.0, 9301.901972520587, 16723.441090994012, -187500.02235174447, -51617.442264251986, 11719.60076327333, -9862.439019970778, -187500.02235174447, -19524.606409622003, -5337.797741627424, 28868.03792334055, -39660.75654754121, -187500.02235174447, -8526.274088176977, -40142.90602718664, -98504.62955291625, -5136.9226142075795, 0.2, 0.978, 0.192, 192.0, 3.0, 32.0, 15.0, 72.0, 3.0, 0.0, 0.0, 0.0, 0.0, 1.695336424150343E9, 0.0, 2023-09-21 17:47:04.150
30.0, 9307.467556889958, 16718.68016942503, -187500.02235174447, -51612.815453149735, 11753.888339267773, -9862.23785427068, -187500.02235174447, -19525.38872067794, -5330.667535146182, 28869.379028007872, -39658.20844867331, -187500.02235174447, -8522.183718941656, -40134.94880616055, -98480.78024158243, -5129.278317603865, 0.2, 0.978, 0.192, 192.0, 0.0, 0.0, 0.0, 0.0, 0.0, 0.0, 0.0, 0.0, 0.0, 1.695336424210614E9, 0.0, 2023-09-21 17:47:04.210
32.0, 9296.22462942894, 16718.657817680578, -187500.02235174447, -51619.6327352086, 11731.201318645635, -9865.277691516601, -187500.02235174447, -19527.981523034756, -5351.789933656447, 28867.345019262437, -39669.13845171195, -187500.02235174447, -8533.806626058415, -40146.10232664375, -98377.82810662128, -5147.047954445834, 0.2, 0.978, 0.192, 192.0, 0.0, 0.0, 0.0, 0.0, 0.0, 0.0, 0.0, 0.0, 0.0, 1.695336424210629E9, 0.0, 2023-09-21 17:47:04.210
34.0, 9302.214896942962, 16722.97170436045, -187500.02235174447, -51618.17987181901, 11764.460714395133, -9881.393299268879, -187500.02235174447, -19544.00772380921, -5333.685020647647, 28869.736655919154, -39659.81777427409, -187500.02235174447, -8516.908707250202, -40133.786515448875, -98367.3227867273, -5140.141265409144, 0.2, 0.978, 0.192, 192.0, 0.0, 0.0, 0.0, 0.0, 0.0, 0.0, 0.0, 0.0, 0.0, 1.695336424210633E9, 0.0, 2023-09-21 17:47:04.210
36.0, 9308.74160632391, 16733.231155065438, -187500.02235174447, -51613.66481943904, 11738.242118149057, -9879.694566690274, -187500.02235174447, -19540.00676155171, -5332.075695046866, 28882.43244676977, -39666.03155923266, -187500.02235174447, -8522.675457319672, -40146.19173362157, -98268.7515936794, -5156.949777239535, 0.2, 0.978, 0.192, 192.0, 0.0, 0.0, 0.0, 0.0, 0.0, 0.0, 0.0, 0.0, 0.0, 1.695336424210637E9, 0.0, 2023-09-21 17:47:04.210
38.0, 9298.057472474275, 16716.132070557127, -187500.02235174447, -51630.11570335814, 11767.299385940956, -9895.519601764632, -187500.02235174447, -19558.759875149713, -5331.360439224296, 28857.55495519101, -39663.03642547565, -187500.02235174447, -8515.411140371698, -40142.19077136407, -98251.3395847487, -5149.283128891365, 0.2, 0.974, 0.188, 192.0, 3.0, 32.0, 15.0, 56.0, 2.5, 112.0, 0.0, 0.0, 0.0, 1.695336424210641E9, 0.0, 2023-09-21 17:47:04.210
40.0, 9299.867963775154, 16722.055282837784, -187500.02235174447, -51626.3382585452, 11737.124530926292, -9887.629435971909, -187500.02235174447, -19544.879441842968, -5348.839503388346, 28849.240106253637, -39686.4163501759, -187500.02235174447, -8535.058323747913, -40158.664007027626, -98119.59840292913, -5164.437611632063, 0.2, 0.974, 0.188, 192.0, 0.0, 0.0, 0.0, 0.0, 0.0, 0.0, 0.0, 0.0, 0.0, 1.695336424210645E9, 0.0, 2023-09-21 17:47:04.210
42.0, 9301.991379498408, 16725.899782884095, -187500.02235174447, -51620.683267198, 11759.364516659321, -9886.020110371126, -187500.02235174447, -19544.11948253149, -5335.786084626447, 28837.550143903514, -39671.03834999065, -187500.02235174447, -8511.521936836474, -40138.14510561766, -98116.73737963884, -5148.389059113152, 0.2, 0.974, 0.188, 192.0, 0.0, 0.0, 0.0, 0.0, 0.0, 0.0, 0.0, 0.0, 0.0, 1.695336424210648E9, 0.0, 2023-09-21 17:47:04.210
44.0, 9291.910742749065, 16714.813317634264, -187500.02235174447, -51635.30130807177, 11725.479272065077, -9895.586656997999, -187500.02235174447, -19558.022267582688, -5353.175741812675, 28853.978676078164, -39692.56307990111, -187500.02235174447, -8534.611288858807, -40154.61834128122, -97996.75321540276, -5170.226713445987, 0.2, 0.974, 0.188, 192.0, 0.0, 0.0, 0.0, 0.0, 0.0, 0.0, 0.0, 0.0, 0.0, 1.695336424210652E9, 0.0, 2023-09-21 17:47:04.210
46.0, 9294.83882127271, 16716.69086416851, -187500.02235174447, -51632.797912692775, 11748.613327576319, -9896.413671542845, -187500.02235174447, -19555.58592743706, -5339.67528816167, 28829.391757177327, -39682.77301582968, -187500.02235174447, -8526.1623294547, -40144.49300104297, -97968.96999704481, -5164.6834808210715, 0.2, 0.974, 0.188, 192.0, 0.0, 0.0, 0.0, 0.0, 0.0, 0.0, 0.0, 0.0, 0.0, 1.695336424270944E9, 0.0, 2023-09-21 17:47:04.270
48.0, 9298.862135274665, 16718.07667232474, -187500.02235174447, -51635.2342528384, 11746.758132786528, -9898.96177041075, -187500.02235174447, -19558.31284026061, -5334.959070081601, 28858.38196973586, -39688.49506241024, -187500.02235174447, -8535.50535863702, -40145.2753120989, -97858.19475152431, -5173.244198947454, 0.194, 0.984, 0.188, 192.0, 3.0, 8.0, 15.0, 96.0, 2.5, 112.0, 0.0, 0.0, 0.0, 1.695336424270956E9, 0.0, 2023-09-21 17:47:04.270
50.0, 9302.952504509987, 16730.88422189763, -187500.02235174447, -51623.76780793283, 11754.983574746082, -9887.987063883194, -187500.02235174447, -19547.360485477508, -5332.38861946924, 28826.396623420314, -39688.22684147678, -187500.02235174447, -8532.957259769113, -40147.33167258879, -97823.21427145175, -5178.8321350612805, 0.194, 0.984, 0.188, 192.0, 0.0, 0.0, 0.0, 0.0, 0.0, 0.0, 0.0, 0.0, 0.0, 1.69533642427096E9, 0.0, 2023-09-21 17:47:04.270
52.0, 9301.097309720197, 16721.36237875967, -187500.02235174447, -51627.1876248345, 11763.164313216725, -9891.317473807034, -187500.02235174447, -19549.953287834323, -5334.243814259031, 28868.41790299629, -39672.7147308248, -187500.02235174447, -8524.731817809561, -40134.92645441609, -97745.83253214748, -5163.16356219811, 0.194, 0.984, 0.188, 192.0, 0.0, 0.0, 0.0, 0.0, 0.0, 0.0, 0.0, 0.0, 0.0, 1.695336424270964E9, 0.0, 2023-09-21 17:47:04.270
54.0, 9288.781498525323, 16714.72391065644, -187500.02235174447, -51635.323659816226, 11744.634717063274, -9896.950113409772, -187500.02235174447, -19561.285622273164, -5351.521712722983, 28836.43255668075, -39688.85269032153, -187500.02235174447, -8545.183663986167, -40151.91378020213, -97681.52656334956, -5177.334568182775, 0.194, 0.984, 0.188, 192.0, 0.0, 0.0, 0.0, 0.0, 0.0, 0.0, 0.0, 0.0, 0.0, 1.695336424270967E9, 0.0, 2023-09-21 17:47:04.270
56.0, 9315.290667449317, 16735.868660911165, -187500.02235174447, -51618.55985147475, 11748.56862408741, -9882.376776024912, -187500.02235174447, -19547.7628168777, -5339.921157350678, 28855.18567027875, -39683.93530654136, -187500.02235174447, -8536.22061445959, -40148.69512900056, -97573.52293414151, -5172.0819082357775, 0.194, 0.984, 0.188, 192.0, 0.0, 0.0, 0.0, 0.0, 0.0, 0.0, 0.0, 0.0, 0.0, 1.695336424270971E9, 0.0, 2023-09-21 17:47:04.270
58.0, 9314.038969759818, 16737.16506208957, -187500.02235174447, -51614.40242700606, 11743.964164729616, -9880.543932979577, -187500.02235174447, -19542.174880763876, -5317.837633828835, 28849.664789398288, -39668.82552728958, -187500.02235174447, -8521.870794519282, -40133.58534974878, -97537.53662556848, -5164.795239543348, 0.196, 0.976, 0.186, 192.0, 3.0, 16.0, 15.0, 64.0, 2.5, 104.0, 0.0, 0.0, 0.0, 1.695336424270974E9, 0.0, 2023-09-21 17:47:04.270
60.0, 9312.56375462577, 16729.811338163774, -187500.02235174447, -51627.65701146806, 11762.247891694056, -9895.854877931462, -187500.02235174447, -19556.144721048444, -5327.9853258115445, 28870.697780930732, -39677.52035588269, -187500.02235174447, -8530.342105667843, -40140.46968704101, -97466.61454041179, -5172.238370446965, 0.196, 0.976, 0.186, 192.0, 0.0, 0.0, 0.0, 0.0, 0.0, 0.0, 0.0, 0.0, 0.0, 1.695336424331136E9, 0.0, 2023-09-21 17:47:04.331
62.0, 9289.02736771433, 16714.433337978524, -187500.02235174447, -51640.777485463324, 11751.519054355509, -9904.348540824478, -187500.02235174447, -19565.577157208583, -5334.444979959128, 28844.23331549565, -39688.182137987875, -187500.02235174447, -8531.660858590705, -40146.45995455503, -97412.09863568528, -5185.269437464409, 0.196, 0.976, 0.186, 192.0, 0.0, 0.0, 0.0, 0.0, 0.0, 0.0, 0.0, 0.0, 0.0, 1.695336424331151E9, 0.0, 2023-09-21 17:47:04.331
64.0, 9296.537553851313, 16719.21661129196, -187500.02235174447, -51640.777485463324, 11775.457772667143, -9903.72269197973, -187500.02235174447, -19567.119427576, -5344.39150624174, 28856.303257501517, -39706.89054809696, -187500.02235174447, -8539.528672638973, -40156.786460493386, -97328.68192537808, -5199.775719615904, 0.196, 0.976, 0.186, 192.0, 0.0, 0.0, 0.0, 0.0, 0.0, 0.0, 0.0, 0.0, 0.0, 1.695336424331155E9, 0.0, 2023-09-21 17:47:04.331
66.0, 9292.827164271732, 16723.97753286094, -187500.02235174447, -51630.18275859151, 11763.164313216725, -9886.668310960331, -187500.02235174447, -19550.0650465566, -5324.632564143249, 28842.311065472495, -39698.4192369484, -187500.02235174447, -8526.743474810539, -40142.39193706417, -97282.05618644432, -5186.767004342914, 0.196, 0.976, 0.186, 192.0, 0.0, 0.0, 0.0, 0.0, 0.0, 0.0, 0.0, 0.0, 0.0, 1.695336424331158E9, 0.0, 2023-09-21 17:47:04.331
68.0, 9294.235324172418, 16710.16415478756, -187500.02235174447, -51644.44317155399, 11781.403336692256, -9904.147375124381, -187500.02235174447, -19566.381820008974, -5337.10483754931, 28852.503460944114, -39711.025620821194, -187500.02235174447, -8536.131207481767, -40153.25488486944, -97219.67246766954, -5188.353978199241, 0.192, 0.978, 0.188, 192.0, 3.0, 0.0, 15.0, 72.0, 2.5, 112.0, 0.0, 0.0, 0.0, 1.695336424331161E9, 0.0, 2023-09-21 17:47:04.331
70.0, 9283.797059511788, 16710.097099554194, -187500.02235174447, -51641.7386104749, 11745.484083352576, -9898.872363432929, -187500.02235174447, -19568.996974110243, -5344.3020992639185, 28828.654149610302, -39718.021716835705, -187500.02235174447, -8548.379963443276, -40162.35204486275, -97122.19651009995, -5205.1848417740875, 0.192, 0.978, 0.188, 192.0, 0.0, 0.0, 0.0, 0.0, 0.0, 0.0, 0.0, 0.0, 0.0, 1.695336424331165E9, 0.0, 2023-09-21 17:47:04.331
72.0, 9292.916571249554, 16710.432375721022, -187500.02235174447, -51640.06222964075, 11777.022394779015, -9897.486555276699, -187500.02235174447, -19566.091247331053, -5331.069866546377, 28839.65120788231, -39704.20833876233, -187500.02235174447, -8537.047629004435, -40147.73400398898, -97078.52120143428, -5192.287885223375, 0.192, 0.978, 0.188, 192.0, 0.0, 0.0, 0.0, 0.0, 0.0, 0.0, 0.0, 0.0, 0.0, 1.695336424331168E9, 0.0, 2023-09-21 17:47:04.331
74.0, 9296.93988525151, 16721.40708224858, -187500.02235174447, -51630.62979348061, 11741.416065861711, -9885.930703393306, -187500.02235174447, -19558.134026304964, -5336.836616615846, 28828.631797865844, -39708.38811497547, -187500.02235174447, -8547.2176727316, -40152.80784998034, -96978.94417988589, -5198.7922428598695, 0.192, 0.978, 0.188, 192.0, 0.0, 0.0, 0.0, 0.0, 0.0, 0.0, 0.0, 0.0, 0.0, 1.695336424331172E9, 0.0, 2023-09-21 17:47:04.331
76.0, 9308.02635050134, 16728.179660818536, -187500.02235174447, -51631.769732447836, 11763.65605159474, -9891.786860440596, -187500.02235174447, -19564.86190138601, -5314.082540760343, 28838.354806703905, -39697.52516717019, -187500.02235174447, -8537.986402271557, -40138.65919574013, -96945.10363878055, -5191.237353233976, 0.192, 0.978, 0.188, 192.0, 0.0, 0.0, 0.0, 0.0, 0.0, 0.0, 0.0, 0.0, 0.0, 1.695336424390425E9, 0.0, 2023-09-21 17:47:04.390
78.0, 9320.409216929582, 16746.239870338424, -187500.02235174447, -51630.65214522507, 11734.643487291753, -9887.830601672007, -187500.02235174447, -19557.10584606002, -5302.8619650437795, 28840.70173987171, -39688.83033857708, -187500.02235174447, -8526.564660854896, -40141.408460308136, -96861.19519009533, -5195.506536424939, 0.194, 0.976, 0.184, 192.0, 3.0, 8.0, 15.0, 64.0, 2.5, 96.0, 0.0, 0.0, 0.0, 1.695336424390438E9, 0.0, 2023-09-21 17:47:04.390
80.0, 9316.475309905447, 16735.153405088593, -187500.02235174447, -51633.11083711515, 11769.534560386486, -9895.586656997999, -187500.02235174447, -19560.212738539307, -5309.589840124827, 28837.572495647968, -39687.15395774293, -187500.02235174447, -8530.297402178932, -40140.201466107545, -96845.59367246553, -5201.921487083613, 0.194, 0.976, 0.184, 192.0, 0.0, 0.0, 0.0, 0.0, 0.0, 0.0, 0.0, 0.0, 0.0, 1.695336424390442E9, 0.0, 2023-09-21 17:47:04.390
82.0, 9301.589048098213, 16724.938657872517, -187500.02235174447, -51646.588939021705, 11740.901975739238, -9906.628418758919, -187500.02235174447, -19567.320593276097, -5328.208843256098, 28829.101184499406, -39696.40757994742, -187500.02235174447, -8538.209919716111, -40148.538666789376, -96747.60362477346, -5210.661019165638, 0.194, 0.976, 0.184, 192.0, 0.0, 0.0, 0.0, 0.0, 0.0, 0.0, 0.0, 0.0, 0.0, 1.695336424390445E9, 0.0, 2023-09-21 17:47:04.390
84.0, 9285.920475235043, 16709.15832628707, -187500.02235174447, -51659.88822697261, 11760.750324815552, -9925.850918990483, -187500.02235174447, -19585.20198884034, -5341.619889929282, 28808.738745300623, -39706.80114111914, -187500.02235174447, -8550.771600099994, -40156.16061164864, -96713.4278075013, -5224.563804216838, 0.194, 0.976, 0.184, 192.0, 0.0, 0.0, 0.0, 0.0, 0.0, 0.0, 0.0, 0.0, 0.0, 1.695336424390448E9, 0.0, 2023-09-21 17:47:04.390
86.0, 9286.635731057613, 16715.193297290003, -187500.02235174447, -51654.50145655888, 11737.549214070943, -9913.132776395414, -187500.02235174447, -19574.67431720189, -5357.959015126111, 28822.08273674044, -39726.96241461783, -187500.02235174447, -8567.244835763555, -40165.660103042144, -96586.89458213981, -5237.371353789729, 0.194, 0.976, 0.184, 192.0, 0.0, 0.0, 0.0, 0.0, 0.0, 0.0, 0.0, 0.0, 0.0, 1.695336424390452E9, 0.0, 2023-09-21 17:47:04.390
88.0, 9287.88742874711, 16712.891067611108, -187500.02235174447, -51655.77550599283, 11756.503493369042, -9915.166785140847, -187500.02235174447, -19574.339041035062, -5340.167026539687, 28802.636719064325, -39718.49110346927, -187500.02235174447, -8556.31483272491, -40164.251943141455, -96553.81400034596, -5233.683315954604, 0.20400000000000001, 0.978, 0.178, 192.0, 3.0, 48.0, 15.0, 72.0, 2.5, 72.0, 0.0, 0.0, 0.0, 1.695336424390455E9, 0.0, 2023-09-21 17:47:04.390
90.0, 9298.392748641105, 16728.850213152196, -187500.02235174447, -51640.86689244115, 11737.415103604211, -9892.39035754089, -187500.02235174447, -19553.753084391723, -5338.311831749897, 28841.864030583387, -39716.47944646829, -187500.02235174447, -8551.330393711376, -40153.05371916935, -96440.62476642428, -5223.55797571635, 0.20400000000000001, 0.978, 0.178, 192.0, 0.0, 0.0, 0.0, 0.0, 0.0, 0.0, 0.0, 0.0, 0.0, 1.695336424450215E9, 0.0, 2023-09-21 17:47:04.450
92.0, 9295.129393950629, 16725.363341017168, -187500.02235174447, -51645.113723887654, 11764.28190043949, -9902.694511734786, -187500.02235174447, -19559.63159318347, -5322.397389697718, 28826.150754231305, -39703.00134456174, -187500.02235174447, -8526.788178299448, -40139.3744515627, -96442.18938853615, -5211.488033710484, 0.20400000000000001, 0.978, 0.178, 192.0, 0.0, 0.0, 0.0, 0.0, 0.0, 0.0, 0.0, 0.0, 0.0, 1.695336424450238E9, 0.0, 2023-09-21 17:47:04.450
94.0, 9297.945713751998, 16728.716102685466, -187500.02235174447, -51647.17008437754, 11748.076885709392, -9908.193040870792, -187500.02235174447, -19566.515930475703, -5333.86383460329, 28837.103109014406, -39719.96631860332, -187500.02235174447, -8544.110780252311, -40157.94875120506, -96325.91561387964, -5229.637650208193, 0.20400000000000001, 0.978, 0.178, 192.0, 0.0, 0.0, 0.0, 0.0, 0.0, 0.0, 0.0, 0.0, 0.0, 1.695336424450242E9, 0.0, 2023-09-21 17:47:04.450
96.0, 9291.50841134887, 16717.987265346917, -187500.02235174447, -51652.0427646688, 11743.092446695859, -9915.502061307676, -187500.02235174447, -19568.505235732227, -5329.371133967774, 28816.003062248597, -39712.76905688871, -187500.02235174447, -8543.842559318848, -40154.059547669836, -96290.15282275114, -5230.710533942049, 0.20400000000000001, 0.978, 0.178, 192.0, 0.0, 0.0, 0.0, 0.0, 0.0, 0.0, 0.0, 0.0, 0.0, 1.695336424450245E9, 0.0, 2023-09-21 17:47:04.450
98.0, 9304.31596092176, 16732.135919587126, -187500.02235174447, -51639.54813951828, 11754.13420845678, -9897.553610510065, -187500.02235174447, -19551.87553785748, -5338.222424772075, 28826.843658309423, -39723.18496980488, -187500.02235174447, -8561.276919993988, -40162.91083847414, -96161.78675434433, -5236.790208433892, 0.2, 0.98, 0.176, 192.0, 3.0, 32.0, 15.0, 80.0, 2.5, 64.0, 0.0, 0.0, 0.0, 1.695336424450248E9, 0.0, 2023-09-21 17:47:04.450
100.0, 9296.381091640127, 16725.11747182816, -187500.02235174447, -51646.164255877055, 11766.874702796305, -9912.998665928682, -187500.02235174447, -19569.041677599154, -5320.072808274366, 28832.364539189883, -39707.06936205261, -187500.02235174447, -8549.318736710398, -40143.24130335347, -96136.01519298735, -5217.858280880247, 0.2, 0.98, 0.176, 192.0, 0.0, 0.0, 0.0, 0.0, 0.0, 0.0, 0.0, 0.0, 0.0, 1.695336424450252E9, 0.0, 2023-09-21 17:47:04.450
102.0, 9311.043836002807, 16745.36815230467, -187500.02235174447, -51635.681287727515, 11755.832941035384, -9894.87140117543, -187500.02235174447, -19556.25647977072, -5334.936718337145, 28843.875687584365, -39716.59120519057, -187500.02235174447, -8555.800742602438, -40152.89725695816, -96027.45277016793, -5232.118693842733, 0.2, 0.98, 0.176, 192.0, 0.0, 0.0, 0.0, 0.0, 0.0, 0.0, 0.0, 0.0, 0.0, 1.695336424450255E9, 0.0, 2023-09-21 17:47:04.450
104.0, 9297.7445480519, 16737.254469067393, -187500.02235174447, -51642.252700597375, 11736.163405914713, -9906.069625147536, -187500.02235174447, -19575.54603523565, -5328.4547124451055, 28834.46560316868, -39709.46099870932, -187500.02235174447, -8556.806571102927, -40146.86228595523, -95995.24390640784, -5232.8339496653025, 0.2, 0.98, 0.176, 192.0, 0.0, 0.0, 0.0, 0.0, 0.0, 0.0, 0.0, 0.0, 0.0, 1.695336424450259E9, 0.0, 2023-09-21 17:47:04.450
106.0, 9305.120623722152, 16735.019294621863, -187500.02235174447, -51639.03404939581, 11754.08950496787, -9898.62649424392, -187500.02235174447, -19571.81329391161, -5323.693790876126, 28872.642382698345, -39705.84001610756, -187500.02235174447, -8553.319698967898, -40145.83410571028, -95906.48512917581, -5230.799940919869, 0.2, 0.98, 0.176, 192.0, 0.0, 0.0, 0.0, 0.0, 0.0, 0.0, 0.0, 0.0, 0.0, 1.695336424510587E9, 0.0, 2023-09-21 17:47:04.510
108.0, 9292.625998571635, 16722.479965982435, -187500.02235174447, -51645.180779121016, 11739.426760605189, -9905.041444902594, -187500.02235174447, -19572.036811356167, -5325.43722694364, 28838.757138104098, -39710.4221237209, -187500.02235174447, -8556.426591447185, -40147.01874816642, -95858.65239604145, -5234.2421095659865, 0.198, 0.978, 0.176, 192.0, 3.0, 24.0, 15.0, 72.0, 2.5, 64.0, 0.0, 0.0, 0.0, 1.6953364245106E9, 0.0, 2023-09-21 17:47:04.510
110.0, 9302.527821365336, 16730.481890497435, -187500.02235174447, -51641.78331396381, 11764.885397539783, -9906.986046670205, -187500.02235174447, -19565.26423278621, -5331.0922182908325, 28845.61912365188, -39724.54842621666, -187500.02235174447, -8564.607329917828, -40159.75924250594, -95765.82560131856, -5250.871807440735, 0.198, 0.978, 0.176, 192.0, 0.0, 0.0, 0.0, 0.0, 0.0, 0.0, 0.0, 0.0, 0.0, 1.695336424510604E9, 0.0, 2023-09-21 17:47:04.510
112.0, 9294.36943463915, 16733.387617276625, -187500.02235174447, -51634.40723829356, 11756.36938290231, -9897.799479699073, -187500.02235174447, -19552.47903495777, -5310.372151180763, 28844.23331549565, -39708.164597530915, -187500.02235174447, -8548.558777398917, -40135.261730582926, -95721.72560950824, -5224.496748983473, 0.198, 0.978, 0.176, 192.0, 0.0, 0.0, 0.0, 0.0, 0.0, 0.0, 0.0, 0.0, 0.0, 1.695336424510607E9, 0.0, 2023-09-21 17:47:04.510
114.0, 9306.394673156105, 16737.16506208957, -187500.02235174447, -51634.764866204845, 11770.160409231235, -9896.525430265121, -187500.02235174447, -19554.311878003107, -5320.028104785455, 28859.18663253625, -39717.731144157784, -187500.02235174447, -8559.332318226376, -40138.30156782884, -95648.34483246146, -5224.65321119466, 0.198, 0.978, 0.176, 192.0, 0.0, 0.0, 0.0, 0.0, 0.0, 0.0, 0.0, 0.0, 0.0, 1.695336424510611E9, 0.0, 2023-09-21 17:47:04.510
116.0, 9295.17409743954, 16733.320562043256, -187500.02235174447, -51638.1399796176, 11753.955394501138, -9895.452546531265, -187500.02235174447, -19552.54609019114, -5322.8220728423685, 28844.702702129212, -39719.228711036296, -187500.02235174447, -8565.07671655139, -40136.155800361135, -95570.04667163453, -5231.202272320065, 0.198, 0.978, 0.176, 192.0, 0.0, 0.0, 0.0, 0.0, 0.0, 0.0, 0.0, 0.0, 0.0, 1.695336424510614E9, 0.0, 2023-09-21 17:47:04.510
118.0, 9306.752301067389, 16730.526593986346, -187500.02235174447, -51631.903842914566, 11778.676423868708, -9892.636226729897, -187500.02235174447, -19552.54609019114, -5317.14472975072, 28853.263420255593, -39719.31811801411, -187500.02235174447, -8563.377983972787, -40144.2247801095, -95501.40446441228, -5230.46466475304, 0.196, 0.986, 0.176, 192.0, 3.0, 16.0, 15.0, 104.0, 2.5, 64.0, 0.0, 0.0, 0.0, 1.695336424510618E9, 0.0, 2023-09-21 17:47:04.510
120.0, 9303.332484165727, 16738.863794668174, -187500.02235174447, -51621.331467787204, 11765.555949873442, -9875.33597652149, -187500.02235174447, -19536.05050278312, -5314.328409949352, 28849.865955098387, -39716.88177786848, -187500.02235174447, -8556.203074002633, -40131.260768325425, -95415.01497209251, -5220.451083237062, 0.196, 0.986, 0.176, 192.0, 0.0, 0.0, 0.0, 0.0, 0.0, 0.0, 0.0, 0.0, 0.0, 1.695336424570848E9, 0.0, 2023-09-21 17:47:04.570
122.0, 9313.658990104079, 16745.83753893823, -187500.02235174447, -51618.22457530792, 11797.04955781097, -9878.152296322858, -187500.02235174447, -19537.749235361724, -5296.603476596293, 28873.916432132297, -39699.13449277097, -187500.02235174447, -8535.572413870384, -40111.546529715844, -95391.43388169217, -5208.090568553277, 0.196, 0.986, 0.176, 192.0, 0.0, 0.0, 0.0, 0.0, 0.0, 0.0, 0.0, 0.0, 0.0, 1.695336424570871E9, 0.0, 2023-09-21 17:47:04.570
124.0, 9311.22264995845, 16752.632469252643, -187500.02235174447, -51621.5326334873, 11765.623005106809, -9877.235874800192, -187500.02235174447, -19539.71618887379, -5305.588877867327, 28869.84841464143, -39705.70590564083, -187500.02235174447, -8545.697754108638, -40122.76710543241, -95308.21833708505, -5223.468568738529, 0.196, 0.986, 0.176, 192.0, 0.0, 0.0, 0.0, 0.0, 0.0, 0.0, 0.0, 0.0, 0.0, 1.695336424570875E9, 0.0, 2023-09-21 17:47:04.570
126.0, 9320.051589018296, 16747.35745756119, -187500.02235174447, -51625.84652016718, 11801.788127635495, -9890.266941817636, -187500.02235174447, -19549.148625033933, -5288.556848592383, 28881.158397335817, -39689.031504277176, -187500.02235174447, -8532.376114413275, -40115.59219546225, -95290.33694152081, -5219.780530903403, 0.196, 0.986, 0.176, 192.0, 0.0, 0.0, 0.0, 0.0, 0.0, 0.0, 0.0, 0.0, 0.0, 1.695336424570878E9, 0.0, 2023-09-21 17:47:04.570
128.0, 9312.004961014385, 16735.958067888983, -187500.02235174447, -51629.109874857655, 11756.972880002604, -9895.206677342258, -187500.02235174447, -19555.474168714783, -5299.777424308947, 28873.42469375428, -39719.362821503026, -187500.02235174447, -8555.97955655808, -40136.356966061234, -95179.76286170041, -5243.316917814841, 0.2, 0.984, 0.168, 192.0, 3.0, 32.0, 15.0, 96.0, 2.5, 32.0, 0.0, 0.0, 0.0, 1.695336424570882E9, 0.0, 2023-09-21 17:47:04.570
130.0, 9313.658990104079, 16727.866736396165, -187500.02235174447, -51632.61909873714, 11771.277996454, -9908.148337381881, -187500.02235174447, -19564.414866496907, -5311.579145381349, 28856.75029239062, -39723.16261806043, -187500.02235174447, -8558.862931592814, -40137.74277421746, -95141.98841357094, -5241.864054425247, 0.2, 0.984, 0.168, 192.0, 0.0, 0.0, 0.0, 0.0, 0.0, 0.0, 0.0, 0.0, 0.0, 1.695336424570886E9, 0.0, 2023-09-21 17:47:04.570
132.0, 9310.596801113701, 16738.059131867783, -187500.02235174447, -51622.09142709868, 11748.747438043052, -9889.10465110596, -187500.02235174447, -19545.54999417663, -5317.032971028444, 28860.684199414754, -39721.95562385984, -187500.02235174447, -8561.858065349825, -40137.340442817265, -95009.1296445286, -5247.027307394423, 0.2, 0.984, 0.168, 192.0, 0.0, 0.0, 0.0, 0.0, 0.0, 0.0, 0.0, 0.0, 0.0, 1.695336424570889E9, 0.0, 2023-09-21 17:47:04.570
134.0, 9294.771766039345, 16719.708349669978, -187500.02235174447, -51625.57829923371, 11775.56953138942, -9900.593447755988, -187500.02235174447, -19555.9659070928, -5308.271087201963, 28852.99519932213, -39718.446399980356, -187500.02235174447, -8549.631661132773, -40125.42696302259, -94992.20937397593, -5235.404400277663, 0.2, 0.984, 0.168, 192.0, 0.0, 0.0, 0.0, 0.0, 0.0, 0.0, 0.0, 0.0, 0.0, 1.695336424570892E9, 0.0, 2023-09-21 17:47:04.570
136.0, 9282.947693222486, 16714.947428100997, -187500.02235174447, -51620.05741835325, 11746.534615341976, -9883.114383591937, -187500.02235174447, -19545.10295928752, -5328.208843256098, 28857.353789490917, -39739.92642640191, -187500.02235174447, -8569.636472420272, -40141.02848065239, -94860.75876483426, -5244.367449804241, 0.2, 0.984, 0.168, 192.0, 0.0, 0.0, 0.0, 0.0, 0.0, 0.0, 0.0, 0.0, 0.0, 1.695336424631103E9, 0.0, 2023-09-21 17:47:04.631
138.0, 9278.49969607588, 16713.31575075576, -187500.02235174447, -51610.289706026284, 11767.858179552339, -9881.326244035512, -187500.02235174447, -19537.413959194895, -5310.998000025511, 28853.352827233415, -39714.0207545782, -187500.02235174447, -8550.838655333358, -40117.782666418876, -94854.90260778698, -5221.613373948739, 0.196, 0.986, 0.164, 192.0, 3.0, 16.0, 15.0, 104.0, 2.5, 16.0, 0.0, 0.0, 0.0, 1.695336424631118E9, 0.0, 2023-09-21 17:47:04.631
140.0, 9263.434620313004, 16701.491677938902, -187500.02235174447, -51629.84748242468, 11749.596804332354, -9896.368968053934, -187500.02235174447, -19549.148625033933, -5327.180663011153, 28872.217699553694, -39726.64949019546, -187500.02235174447, -8565.009661318023, -40129.89731191365, -94746.38488845645, -5240.612356735749, 0.196, 0.986, 0.164, 192.0, 0.0, 0.0, 0.0, 0.0, 0.0, 0.0, 0.0, 0.0, 0.0, 1.695336424631122E9, 0.0, 2023-09-21 17:47:04.631
142.0, 9245.7320387044, 16687.521837654334, -187500.02235174447, -51638.9893459069, 11772.395583676765, -9899.609970999953, -187500.02235174447, -19557.217604782298, -5344.369154497284, 28837.259571225593, -39744.12855435951, -187500.02235174447, -8575.693795167661, -40140.31322482982, -94711.42676012835, -5256.012708665456, 0.196, 0.986, 0.164, 192.0, 0.0, 0.0, 0.0, 0.0, 0.0, 0.0, 0.0, 0.0, 0.0, 1.695336424631125E9, 0.0, 2023-09-21 17:47:04.631
144.0, 9244.949727648465, 16688.415907432547, -187500.02235174447, -51638.36349706215, 11766.427667907199, -9896.525430265121, -187500.02235174447, -19549.930936089866, -5351.275843533975, 28845.172088762774, -39761.29469410118, -187500.02235174447, -8585.953245872646, -40148.739832489475, -94587.3298749125, -5264.0593366693665, 0.196, 0.986, 0.164, 192.0, 0.0, 0.0, 0.0, 0.0, 0.0, 0.0, 0.0, 0.0, 0.0, 1.695336424631129E9, 0.0, 2023-09-21 17:47:04.631
146.0, 9241.798131680267, 16691.947483056483, -187500.02235174447, -51630.76390394734, 11774.451944166654, -9902.359235567956, -187500.02235174447, -19553.90954660291, -5328.074732789366, 28831.64928336731, -39743.52505725921, -187500.02235174447, -8567.535408441474, -40133.58534974878, -94568.55440957003, -5253.196388864087, 0.196, 0.986, 0.164, 192.0, 0.0, 0.0, 0.0, 0.0, 0.0, 0.0, 0.0, 0.0, 0.0, 1.695336424631132E9, 0.0, 2023-09-21 17:47:04.631
148.0, 9246.424942782514, 16693.802677846274, -187500.02235174447, -51637.782351706315, 11784.219656493624, -9903.543878024087, -187500.02235174447, -19557.575232693584, -5359.791858171447, 28850.603562665412, -39751.77285096322, -187500.02235174447, -8580.566475458918, -40148.382204578185, -94459.85787628387, -5270.742508261503, 0.19, 0.98, 0.17400000000000002, 192.0, 2.5, 120.0, 15.0, 80.0, 2.5, 56.0, 0.0, 0.0, 0.0, 1.695336424631136E9, 0.0, 2023-09-21 17:47:04.631
150.0, 9250.06827712873, 16701.20110526098, -187500.02235174447, -51635.70363947197, 11789.025281551514, -9900.638151244897, -187500.02235174447, -19551.897889601933, -5327.650049644715, 28820.115783228375, -39735.992519377774, -187500.02235174447, -8569.480010209085, -40137.92158817311, -94422.19518687668, -5260.974795934534, 0.19, 0.98, 0.17400000000000002, 192.0, 0.0, 0.0, 0.0, 0.0, 0.0, 0.0, 0.0, 0.0, 0.0, 1.695336424690513E9, 0.0, 2023-09-21 17:47:04.690
152.0, 9251.856416685154, 16698.407137204067, -187500.02235174447, -51644.30906108726, 11796.356653732855, -9913.445700817789, -187500.02235174447, -19563.699610674335, -5342.089276562843, 28858.04669356903, -39744.84381018207, -187500.02235174447, -8584.545085971962, -40154.3277686033, -94315.9126419917, -5269.42375533864, 0.19, 0.98, 0.17400000000000002, 192.0, 0.0, 0.0, 0.0, 0.0, 0.0, 0.0, 0.0, 0.0, 0.0, 1.695336424690535E9, 0.0, 2023-09-21 17:47:04.690
154.0, 9262.227626112417, 16717.540230457813, -187500.02235174447, -51623.32077304373, 11785.650168138764, -9888.635264472397, -187500.02235174447, -19541.101997030022, -5344.860892875301, 28837.080757269952, -39731.83509490909, -187500.02235174447, -8582.265208037521, -40145.20825686553, -94254.66886218416, -5264.729889003025, 0.19, 0.98, 0.17400000000000002, 192.0, 0.0, 0.0, 0.0, 0.0, 0.0, 0.0, 0.0, 0.0, 0.0, 1.695336424690539E9, 0.0, 2023-09-21 17:47:04.690
156.0, 9289.586161325713, 16732.337085287225, -187500.02235174447, -51608.613325192135, 11786.208961750146, -9870.843275885973, -187500.02235174447, -19533.63651438195, -5317.703523362104, 28864.305182016516, -39713.08198131109, -187500.02235174447, -8563.914425839714, -40126.432791523075, -94178.4270618471, -5246.535569016406, 0.19, 0.98, 0.17400000000000002, 192.0, 0.0, 0.0, 0.0, 0.0, 0.0, 0.0, 0.0, 0.0, 0.0, 1.695336424690543E9, 0.0, 2023-09-21 17:47:04.690
158.0, 9300.113832964164, 16744.205861592993, -187500.02235174447, -51594.844650607665, 11786.588941405886, -9861.85787461494, -187500.02235174447, -19530.95430504731, -5300.224459198053, 28868.104978573916, -39701.593184661055, -187500.02235174447, -8557.611233903317, -40108.03730583636, -94131.64486070214, -5239.293603812886, 0.19, 0.984, 0.18, 192.0, 2.5, 120.0, 15.0, 96.0, 2.5, 80.0, 0.0, 0.0, 0.0, 1.695336424690547E9, 0.0, 2023-09-21 17:47:04.690
160.0, 9315.089501749218, 16750.956088418494, -187500.02235174447, -51598.08565355369, 11808.38189224981, -9866.238816528179, -187500.02235174447, -19541.101997030022, -5304.136014477732, 28910.908569205832, -39707.114065541515, -187500.02235174447, -8562.55096942794, -40114.832236150774, -94039.33215610172, -5249.75422021797, 0.19, 0.984, 0.18, 192.0, 0.0, 0.0, 0.0, 0.0, 0.0, 0.0, 0.0, 0.0, 0.0, 1.695336424690551E9, 0.0, 2023-09-21 17:47:04.690
162.0, 9325.304248965294, 16774.894806730128, -187500.02235174447, -51581.143031256564, 11776.441249423176, -9849.027973297594, -187500.02235174447, -19520.113708986486, -5274.0952699297995, 28897.832798699477, -39680.5154896397, -187500.02235174447, -8538.25462320502, -40084.29975322483, -93974.28857973678, -5232.297507798375, 0.19, 0.984, 0.18, 192.0, 0.0, 0.0, 0.0, 0.0, 0.0, 0.0, 0.0, 0.0, 0.0, 1.695336424690555E9, 0.0, 2023-09-21 17:47:04.690
164.0, 9319.93983029602, 16755.64995475411, -187500.02235174447, -51612.10019732716, 11777.447077923665, -9877.928778878306, -187500.02235174447, -19546.891098843946, -5287.506316602983, 28905.410040069826, -39697.43576019237, -187500.02235174447, -8557.387716458765, -40104.617488934695, -93924.2206721569, -5247.183769605609, 0.19, 0.984, 0.18, 192.0, 0.0, 0.0, 0.0, 0.0, 0.0, 0.0, 0.0, 0.0, 0.0, 1.695336424690558E9, 0.0, 2023-09-21 17:47:04.690
166.0, 9300.985550997919, 16742.015390636374, -187500.02235174447, -51624.39365677758, 11742.980687973582, -9886.444793515777, -187500.02235174447, -19554.267174514196, -5298.771595808458, 28869.7143041747, -39707.35993473053, -187500.02235174447, -8575.336167256375, -40126.589253734266, -93838.88171182653, -5267.814429737858, 0.19, 0.984, 0.18, 192.0, 0.0, 0.0, 0.0, 0.0, 0.0, 0.0, 0.0, 0.0, 0.0, 1.695336424750906E9, 0.0, 2023-09-21 17:47:04.750
168.0, 9308.339274923715, 16745.256393582393, -187500.02235174447, -51623.54429048828, 11747.22751942009, -9886.668310960331, -187500.02235174447, -19550.400322723428, -5310.796834325413, 28865.33336226146, -39716.74766740175, -187500.02235174447, -8589.03778660748, -40142.1237161307, -93759.71183296584, -5281.538400833417, 0.19, 0.984, 0.178, 192.0, 2.5, 120.0, 15.0, 96.0, 2.5, 72.0, 0.0, 0.0, 0.0, 1.695336424750918E9, 0.0, 2023-09-21 17:47:04.750
170.0, 9309.07688249074, 16757.16987337707, -187500.02235174447, -51608.479214725405, 11728.742626755551, -9874.665424187831, -187500.02235174447, -19537.212793494797, -5289.294456159408, 28870.85424314192, -39691.043161278154, -187500.02235174447, -8566.797800874449, -40120.95661413153, -93689.03561699815, -5268.127354160232, 0.19, 0.984, 0.178, 192.0, 0.0, 0.0, 0.0, 0.0, 0.0, 0.0, 0.0, 0.0, 0.0, 1.695336424750922E9, 0.0, 2023-09-21 17:47:04.750
172.0, 9316.140033738619, 16758.26510885538, -187500.02235174447, -51606.06522632423, 11758.582205603387, -9877.52644747811, -187500.02235174447, -19540.409092951908, -5282.119546189255, 28884.53351074857, -39691.42314093389, -187500.02235174447, -8561.545140927452, -40115.5698437178, -93662.79466900762, -5263.925226202635, 0.19, 0.984, 0.178, 192.0, 0.0, 0.0, 0.0, 0.0, 0.0, 0.0, 0.0, 0.0, 0.0, 1.695336424750925E9, 0.0, 2023-09-21 17:47:04.750
174.0, 9301.879620776132, 16750.576108762754, -187500.02235174447, -51617.62107820762, 11725.74749299854, -9888.255284816658, -187500.02235174447, -19549.707418645314, -5292.401348638696, 28879.124388590386, -39701.68259163888, -187500.02235174447, -8571.893998610258, -40123.25884381042, -93562.16711546983, -5273.849400740791, 0.19, 0.984, 0.178, 192.0, 0.0, 0.0, 0.0, 0.0, 0.0, 0.0, 0.0, 0.0, 0.0, 1.695336424750928E9, 0.0, 2023-09-21 17:47:04.750
176.0, 9303.578353354735, 16743.714123214977, -187500.02235174447, -51620.81737766473, 11764.37130741731, -9895.29608432008, -187500.02235174447, -19549.908584345412, -5299.531555119938, 28866.540356462046, -39709.05866730913, -187500.02235174447, -8575.671443423205, -40133.56299800432, -93512.90387069034, -5280.979607222033, 0.19, 0.984, 0.178, 192.0, 0.0, 0.0, 0.0, 0.0, 0.0, 0.0, 0.0, 0.0, 0.0, 1.695336424750932E9, 0.0, 2023-09-21 17:47:04.750
178.0, 9311.267353447362, 16749.994963406916, -187500.02235174447, -51604.50060421236, 11754.357725901333, -9866.104706061447, -187500.02235174447, -19517.543258374128, -5284.37707237924, 28870.541318719545, -39700.3191352271, -187500.02235174447, -8564.02618456199, -40121.56011123182, -93417.46192186618, -5265.378089592229, 0.19, 0.978, 0.184, 192.0, 2.5, 120.0, 15.0, 72.0, 2.5, 96.0, 0.0, 0.0, 0.0, 1.695336424750935E9, 0.0, 2023-09-21 17:47:04.750
180.0, 9308.071053990252, 16742.842405181218, -187500.02235174447, -51605.21586003493, 11780.732784358595, -9868.47399097371, -187500.02235174447, -19525.81340382259, -5281.6725113001485, 28864.036961083053, -39697.23459449227, -187500.02235174447, -8561.88041709428, -40111.41241924911, -93392.42796807623, -5257.890255199702, 0.19, 0.978, 0.184, 192.0, 0.0, 0.0, 0.0, 0.0, 0.0, 0.0, 0.0, 0.0, 0.0, 1.695336424810598E9, 0.0, 2023-09-21 17:47:04.810
182.0, 9290.45787935947, 16735.332219044234, -187500.02235174447, -51615.22944155091, 11753.240138678568, -9871.089145074982, -187500.02235174447, -19535.20113649382, -5293.206011439087, 28888.62387998389, -39708.34341148656, -187500.02235174447, -8571.98340558808, -40111.94886111604, -93279.23873415455, -5264.484019814017, 0.19, 0.978, 0.184, 192.0, 0.0, 0.0, 0.0, 0.0, 0.0, 0.0, 0.0, 0.0, 0.0, 1.695336424810612E9, 0.0, 2023-09-21 17:47:04.810
184.0, 9295.419966628548, 16739.154367346095, -187500.02235174447, -51616.101159584665, 11765.913577784728, -9879.33693877899, -187500.02235174447, -19537.34690396153, -5308.628715113248, 28848.56955391998, -39715.6747836679, -187500.02235174447, -8586.087356339378, -40126.90217815664, -93221.63828869323, -5275.548133319394, 0.19, 0.978, 0.184, 192.0, 0.0, 0.0, 0.0, 0.0, 0.0, 0.0, 0.0, 0.0, 0.0, 1.695336424810616E9, 0.0, 2023-09-21 17:47:04.810
186.0, 9310.46269064697, 16756.633431510145, -187500.02235174447, -51602.5783541892, 11742.645411806752, -9869.077488074005, -187500.02235174447, -19524.405243921905, -5284.064147956866, 28877.626821711878, -39695.06647528011, -187500.02235174447, -8569.725879398095, -40111.85945413822, -93115.84748218626, -5262.740583746503, 0.19, 0.978, 0.184, 192.0, 0.0, 0.0, 0.0, 0.0, 0.0, 0.0, 0.0, 0.0, 0.0, 1.695336424810619E9, 0.0, 2023-09-21 17:47:04.810
188.0, 9309.635676102123, 16749.860852940186, -187500.02235174447, -51603.91945885652, 11750.46852236611, -9872.832581142495, -187500.02235174447, -19526.64041836744, -5269.46845882755, 28861.84649012643, -39684.896431552945, -187500.02235174447, -8559.93581532667, -40105.86918662419, -93106.41504602613, -5255.699784243082, 0.196, 0.976, 0.184, 192.0, 3.0, 16.0, 15.0, 64.0, 2.5, 96.0, 0.0, 0.0, 0.0, 1.695336424810623E9, 0.0, 2023-09-21 17:47:04.810
190.0, 9308.473385390447, 16746.664553483075, -187500.02235174447, -51614.849461895166, 11731.693057023653, -9881.348595779968, -187500.02235174447, -19529.367331190984, -5281.471345600051, 28879.32555429048, -39703.29191723966, -187500.02235174447, -8573.212751533121, -40122.76710543241, -92990.43184404753, -5276.75512751998, 0.196, 0.976, 0.184, 192.0, 0.0, 0.0, 0.0, 0.0, 0.0, 0.0, 0.0, 0.0, 0.0, 1.695336424810626E9, 0.0, 2023-09-21 17:47:04.810
192.0, 9294.682359061522, 16728.090253840717, -187500.02235174447, -51623.857214910655, 11742.734818784575, -9898.268866332635, -187500.02235174447, -19541.593735408038, -5285.8969910022015, 28842.199306750215, -39711.740876643766, -187500.02235174447, -8571.156391043234, -40122.387125776666, -92962.58157045623, -5278.766784520958, 0.196, 0.976, 0.184, 192.0, 0.0, 0.0, 0.0, 0.0, 0.0, 0.0, 0.0, 0.0, 0.0, 1.69533642481063E9, 0.0, 2023-09-21 17:47:04.810
194.0, 9313.346065681704, 16746.46338778298, -187500.02235174447, -51605.79700539077, 11745.998173475049, -9875.023052099115, -187500.02235174447, -19518.213810707788, -5292.915438761168, 28853.21871676668, -39716.770019146206, -187500.02235174447, -8572.229274777088, -40121.694221698555, -92839.5128654853, -5286.925171247145, 0.196, 0.976, 0.184, 192.0, 0.0, 0.0, 0.0, 0.0, 0.0, 0.0, 0.0, 0.0, 0.0, 1.695336424810633E9, 0.0, 2023-09-21 17:47:04.810
196.0, 9301.633751587124, 16737.92502140105, -187500.02235174447, -51612.43547349399, 11755.452961379644, -9879.806325412552, -187500.02235174447, -19525.56753463358, -5275.592836808305, 28851.251763254615, -39702.04021955016, -187500.02235174447, -8556.337184469365, -40104.908061612616, -92828.09112406864, -5274.207028652076, 0.196, 0.976, 0.184, 192.0, 0.0, 0.0, 0.0, 0.0, 0.0, 0.0, 0.0, 0.0, 0.0, 1.695336424870825E9, 0.0, 2023-09-21 17:47:04.870
198.0, 9302.214896942962, 16734.818128921765, -187500.02235174447, -51617.218746807426, 11751.496702611053, -9880.253360301658, -187500.02235174447, -19529.92612480237, -5296.089386473821, 28868.082626829462, -39721.15096105945, -187500.02235174447, -8572.631606177283, -40124.264672310914, -92718.34405879308, -5292.33429340533, 0.196, 0.98, 0.192, 192.0, 3.0, 16.0, 15.0, 80.0, 3.0, 0.0, 0.0, 0.0, 0.0, 1.695336424870837E9, 0.0, 2023-09-21 17:47:04.870
200.0, 9294.414138128059, 16735.220460321958, -187500.02235174447, -51611.07201708222, 11749.261528165523, -9876.341805021979, -187500.02235174447, -19523.824098566067, -5290.881430015735, 28842.80280385051, -39711.89733885495, -187500.02235174447, -8562.998004317047, -40113.13350357217, -92679.94376181887, -5283.527706089939, 0.196, 0.98, 0.192, 192.0, 0.0, 0.0, 0.0, 0.0, 0.0, 0.0, 0.0, 0.0, 0.0, 1.69533642487084E9, 0.0, 2023-09-21 17:47:04.870
202.0, 9294.88352476162, 16728.98432361893, -187500.02235174447, -51618.3810375191, 11746.892243253262, -9888.545857494577, -187500.02235174447, -19537.97275280628, -5298.324560919352, 28867.65794368481, -39722.223844793305, -187500.02235174447, -8564.830847362382, -40116.46391349601, -92585.03825486163, -5288.780366036936, 0.196, 0.98, 0.192, 192.0, 0.0, 0.0, 0.0, 0.0, 0.0, 0.0, 0.0, 0.0, 0.0, 1.695336424870844E9, 0.0, 2023-09-21 17:47:04.870
204.0, 9291.217838670951, 16725.40804450608, -187500.02235174447, -51616.63760145159, 11740.097312938848, -9882.913217891839, -187500.02235174447, -19528.652075368416, -5295.552944606894, 28847.51902193058, -39719.18400754738, -187500.02235174447, -8561.120457782801, -40111.345364015746, -92535.48443740421, -5285.964046235567, 0.196, 0.98, 0.192, 192.0, 0.0, 0.0, 0.0, 0.0, 0.0, 0.0, 0.0, 0.0, 0.0, 1.695336424870847E9, 0.0, 2023-09-21 17:47:04.870
206.0, 9293.944751494499, 16714.12041355615, -187500.02235174447, -51631.32269755873, 11755.94469975766, -9901.375758811922, -187500.02235174447, -19546.064084299098, -5309.85806105829, 28863.366408749393, -39731.790391420174, -187500.02235174447, -8572.385736988275, -40135.77582070539, -92441.67416592529, -5308.941639535623, 0.196, 0.98, 0.192, 192.0, 0.0, 0.0, 0.0, 0.0, 0.0, 0.0, 0.0, 0.0, 0.0, 1.695336424870851E9, 0.0, 2023-09-21 17:47:04.870
208.0, 9288.714443291956, 16714.88037286763, -187500.02235174447, -51626.31590680074, 11743.60653681833, -9886.064813860037, -187500.02235174447, -19532.38481669245, -5291.753148049492, 28853.08460629995, -39712.5231876997, -187500.02235174447, -8554.392582701754, -40122.96827113251, -92390.26515367809, -5300.269162686964, 0.198, 0.972, 0.196, 192.0, 3.0, 24.0, 15.0, 48.0, 3.0, 16.0, 0.0, 0.0, 0.0, 1.695336424870854E9, 0.0, 2023-09-21 17:47:04.870
210.0, 9299.51033586387, 16719.574239203244, -187500.02235174447, -51632.19441559249, 11754.558891601431, -9886.71301444924, -187500.02235174447, -19533.34594170403, -5293.2954184169075, 28869.647248941335, -39715.56302494562, -187500.02235174447, -8559.712297882115, -40133.56299800432, -92326.294461047, -5312.6073256262935, 0.198, 0.972, 0.196, 192.0, 0.0, 0.0, 0.0, 0.0, 0.0, 0.0, 0.0, 0.0, 0.0, 1.695336424931174E9, 0.0, 2023-09-21 17:47:04.931
212.0, 9294.570600339246, 16722.92700087154, -187500.02235174447, -51629.378095791115, 11739.873795494295, -9877.951130622761, -187500.02235174447, -19526.77452883417, -5289.495621859506, 28853.48693770015, -39700.341486971556, -187500.02235174447, -8551.106876266824, -40124.46583801101, -92269.49867838607, -5307.824052312858, 0.198, 0.972, 0.196, 192.0, 0.0, 0.0, 0.0, 0.0, 0.0, 0.0, 0.0, 0.0, 0.0, 1.695336424931189E9, 0.0, 2023-09-21 17:47:04.931
214.0, 9305.724120822444, 16732.31473354277, -187500.02235174447, -51626.20414807846, 11759.610385848331, -9883.159087080847, -187500.02235174447, -19526.19338347833, -5300.112700475776, 28865.825100639475, -39702.017867805705, -187500.02235174447, -8560.561664171419, -40130.79138169186, -92196.96726762858, -5315.043665771922, 0.198, 0.972, 0.196, 192.0, 0.0, 0.0, 0.0, 0.0, 0.0, 0.0, 0.0, 0.0, 0.0, 1.695336424931193E9, 0.0, 2023-09-21 17:47:04.931
216.0, 9308.428681901536, 16752.252489596904, -187500.02235174447, -51605.55113620176, 11756.928176513693, -9873.52548522061, -187500.02235174447, -19509.94366525932, -5277.023348453445, 28864.28283027206, -39669.5631348566, -187500.02235174447, -8541.875605806781, -40107.8137883918, -92142.80899081338, -5297.072863229855, 0.198, 0.972, 0.196, 192.0, 0.0, 0.0, 0.0, 0.0, 0.0, 0.0, 0.0, 0.0, 0.0, 1.695336424931196E9, 0.0, 2023-09-21 17:47:04.931
218.0, 9301.924324265043, 16741.45659702499, -187500.02235174447, -51617.285802040795, 11776.038918022981, -9895.229029086713, -187500.02235174447, -19524.315836944086, -5284.757052034981, 28874.117597832395, -39668.669065078386, -187500.02235174447, -8546.1671407422, -40118.34146003026, -92107.96262120755, -5303.867793544268, 0.2, 0.98, 0.198, 192.0, 3.0, 32.0, 15.0, 80.0, 3.0, 24.0, 0.0, 0.0, 0.0, 1.695336424931201E9, 0.0, 2023-09-21 17:47:04.931
220.0, 9310.730911580433, 16761.751980990408, -187500.02235174447, -51601.773691388815, 11737.616269304308, -9880.454526001755, -187500.02235174447, -19511.9553222603, -5293.80950853938, 28869.736655919154, -39664.690454565345, -187500.02235174447, -8556.046611791446, -40110.04896283734, -92006.95508801403, -5306.840575556824, 0.2, 0.98, 0.198, 192.0, 0.0, 0.0, 0.0, 0.0, 0.0, 0.0, 0.0, 0.0, 0.0, 1.695336424931205E9, 0.0, 2023-09-21 17:47:04.931
222.0, 9314.84363256021, 16756.096989643214, -187500.02235174447, -51602.533650700294, 11779.123458757813, -9887.785898183096, -187500.02235174447, -19516.313912429086, -5281.247828155498, 28867.18855705125, -39653.67104454888, -187500.02235174447, -8561.589844416361, -40117.22387280749, -91971.99695968593, -5306.415892412173, 0.2, 0.98, 0.198, 192.0, 0.0, 0.0, 0.0, 0.0, 0.0, 0.0, 0.0, 0.0, 0.0, 1.695336424931219E9, 0.0, 2023-09-21 17:47:04.931
224.0, 9312.966086025965, 16766.37879209266, -187500.02235174447, -51595.85047910816, 11756.302327668946, -9875.827714899508, -187500.02235174447, -19508.96018850329, -5274.497601329995, 28876.933917633763, -39639.56709379758, -187500.02235174447, -8556.31483272491, -40106.53973895785, -91885.02632201032, -5299.799776053403, 0.2, 0.98, 0.198, 192.0, 0.0, 0.0, 0.0, 0.0, 0.0, 0.0, 0.0, 0.0, 0.0, 1.695336424931223E9, 0.0, 2023-09-21 17:47:04.931
226.0, 9309.188641213017, 16756.991059421427, -187500.02235174447, -51599.85144136566, 11790.321682729922, -9871.223255541714, -187500.02235174447, -19503.796935534112, -5290.9484852491005, 28877.805635667522, -39646.451431089816, -187500.02235174447, -8557.275957736487, -40108.48434072547, -91861.5793420767, -5293.09425271681, 0.2, 0.98, 0.198, 192.0, 0.0, 0.0, 0.0, 0.0, 0.0, 0.0, 0.0, 0.0, 0.0, 1.695336424990672E9, 0.0, 2023-09-21 17:47:04.990
228.0, 9311.692036592012, 16767.094047915227, -187500.02235174447, -51597.370397731116, 11773.401412177254, -9855.28646174508, -187500.02235174447, -19494.52096158516, -5273.514124573961, 28878.47618800118, -39647.94899796832, -187500.02235174447, -8550.011640788513, -40111.1665500601, -91762.33759669514, -5288.758014292481, 0.192, 0.974, 0.198, 192.0, 3.0, 0.0, 15.0, 56.0, 3.0, 24.0, 0.0, 0.0, 0.0, 1.695336424990684E9, 0.0, 2023-09-21 17:47:04.990
230.0, 9303.354835910182, 16754.107684386694, -187500.02235174447, -51612.658990938544, 11802.10105205787, -9872.720822420219, -187500.02235174447, -19511.19536294882, -5266.093345414799, 28864.439292483246, -39645.93734096734, -187500.02235174447, -8544.490759908052, -40113.17820706108, -91755.11798323608, -5291.172002693654, 0.192, 0.974, 0.198, 192.0, 0.0, 0.0, 0.0, 0.0, 0.0, 0.0, 0.0, 0.0, 0.0, 1.695336424990688E9, 0.0, 2023-09-21 17:47:04.990
232.0, 9296.671664318046, 16750.397294807113, -187500.02235174447, -51622.49375849888, 11775.055441266948, -9879.851028901461, -187500.02235174447, -19520.784261320146, -5274.89993273019, 28870.586022208456, -39656.46501260579, -187500.02235174447, -8552.939719312159, -40121.15777983162, -91657.99965357778, -5302.90666853269, 0.192, 0.974, 0.198, 192.0, 0.0, 0.0, 0.0, 0.0, 0.0, 0.0, 0.0, 0.0, 0.0, 1.695336424990691E9, 0.0, 2023-09-21 17:47:04.990
234.0, 9305.768824311355, 16750.643163996123, -187500.02235174447, -51633.580223748715, 11779.324624457911, -9893.664406974842, -187500.02235174447, -19528.92029630188, -5288.2439241700085, 28843.071024783974, -39673.02765524717, -187500.02235174447, -8574.956187600636, -40132.244245081456, -91619.88992928147, -5323.134997264743, 0.192, 0.974, 0.198, 192.0, 0.0, 0.0, 0.0, 0.0, 0.0, 0.0, 0.0, 0.0, 0.0, 1.695336424990695E9, 0.0, 2023-09-21 17:47:04.990
236.0, 9295.352911395183, 16735.26516381087, -187500.02235174447, -51633.62492723762, 11759.65508933724, -9899.989950655694, -187500.02235174447, -19532.38481669245, -5289.607380581782, 28850.648266154323, -39675.41929190389, -187500.02235174447, -8575.246760278555, -40140.067355640815, -91501.78331157962, -5332.38861946924, 0.192, 0.974, 0.198, 192.0, 0.0, 0.0, 0.0, 0.0, 0.0, 0.0, 0.0, 0.0, 0.0, 1.695336424990698E9, 0.0, 2023-09-21 17:47:04.990
238.0, 9295.799946284289, 16732.806471920787, -187500.02235174447, -51634.45194178247, 11782.252702981557, -9912.484575806211, -187500.02235174447, -19542.554860419616, -5289.607380581782, 28821.970978018166, -39669.74194881224, -187500.02235174447, -8569.83763812037, -40141.43081205259, -91481.71144505877, -5339.362363739296, 0.186, 0.982, 0.2, 192.0, 2.5, 104.0, 15.0, 88.0, 3.0, 32.0, 0.0, 0.0, 0.0, 1.695336424990702E9, 0.0, 2023-09-21 17:47:04.990
240.0, 9297.163402696062, 16737.433283023034, -187500.02235174447, -51632.70850571496, 11776.24008372308, -9906.96369492575, -187500.02235174447, -19536.05050278312, -5273.42471759614, 28850.692969643234, -39666.6127045885, -187500.02235174447, -8566.261359007522, -40138.256864339935, -91382.60381014393, -5333.997945070022, 0.186, 0.982, 0.2, 192.0, 0.0, 0.0, 0.0, 0.0, 0.0, 0.0, 0.0, 0.0, 0.0, 1.695336425050341E9, 0.0, 2023-09-21 17:47:05.050
242.0, 9288.826202014232, 16726.30211428429, -187500.02235174447, -51635.12249411613, 11788.108860028848, -9915.34559909649, -187500.02235174447, -19539.15739526241, -5267.188580893109, 28827.447155409714, -39670.01016974571, -187500.02235174447, -8562.103934538834, -40144.068317898316, -91363.09073723445, -5335.271994503974, 0.186, 0.982, 0.2, 192.0, 0.0, 0.0, 0.0, 0.0, 0.0, 0.0, 0.0, 0.0, 0.0, 1.695336425050356E9, 0.0, 2023-09-21 17:47:05.050
244.0, 9300.337350408716, 16735.55573648879, -187500.02235174447, -51628.08169461271, 11784.62198789382, -9904.035616402105, -187500.02235174447, -19533.0106655372, -5279.750261276992, 28840.411167193794, -39685.723446097785, -187500.02235174447, -8574.911484111724, -40151.15382089065, -91249.36506144585, -5338.088314305343, 0.186, 0.982, 0.2, 192.0, 0.0, 0.0, 0.0, 0.0, 0.0, 0.0, 0.0, 0.0, 0.0, 1.69533642505036E9, 0.0, 2023-09-21 17:47:05.050
246.0, 9302.974856254443, 16740.36136154668, -187500.02235174447, -51615.16238631754, 11796.3343019884, -9890.781031940107, -187500.02235174447, -19523.220601465775, -5258.627862766727, 28823.535600130035, -39663.75168129822, -187500.02235174447, -8551.464504178108, -40127.639785723666, -91235.12700022782, -5319.134035007243, 0.186, 0.982, 0.2, 192.0, 0.0, 0.0, 0.0, 0.0, 0.0, 0.0, 0.0, 0.0, 0.0, 1.695336425050364E9, 0.0, 2023-09-21 17:47:05.050
248.0, 9306.50643187838, 16736.159233589082, -187500.02235174447, -51625.60065097817, 11796.624874666319, -9892.256247074158, -187500.02235174447, -19527.9591712903, -5274.676415285638, 28841.260533483095, -39672.08888198005, -187500.02235174447, -8557.36536471431, -40135.75346896094, -91151.82204864289, -5322.218575742076, 0.19, 0.98, 0.198, 192.0, 2.5, 120.0, 15.0, 80.0, 3.0, 24.0, 0.0, 0.0, 0.0, 1.695336425050367E9, 0.0, 2023-09-21 17:47:05.050
250.0, 9297.006940484875, 16727.151480573593, -187500.02235174447, -51631.03212488081, 11777.603540134853, -9891.608046484953, -187500.02235174447, -19529.188517235343, -5265.221627381043, 28815.6007308484, -39672.7147308248, -187500.02235174447, -8559.93581532667, -40139.910893429624, -91119.27790871596, -5324.274936231964, 0.19, 0.98, 0.198, 192.0, 0.0, 0.0, 0.0, 0.0, 0.0, 0.0, 0.0, 0.0, 0.0, 1.695336425050371E9, 0.0, 2023-09-21 17:47:05.050
252.0, 9290.323768892738, 16714.83566937872, -187500.02235174447, -51652.71331700245, 11768.796952819463, -9909.020055415638, -187500.02235174447, -19548.880404100466, -5274.117621674254, 28833.28096071255, -39689.14326299945, -187500.02235174447, -8566.417821218709, -40150.86324821273, -91027.00990760446, -5332.187453769142, 0.19, 0.98, 0.198, 192.0, 0.0, 0.0, 0.0, 0.0, 0.0, 0.0, 0.0, 0.0, 0.0, 1.695336425050375E9, 0.0, 2023-09-21 17:47:05.050
254.0, 9287.26157990236, 16721.384730504124, -187500.02235174447, -51642.453866297474, 11747.451036864644, -9899.609970999953, -187500.02235174447, -19537.324552217073, -5281.359586877774, 28788.018678190554, -39702.48725443927, -187500.02235174447, -8576.900789368246, -40159.31220761684, -90969.00713074293, -5348.951262110622, 0.19, 0.98, 0.198, 192.0, 0.0, 0.0, 0.0, 0.0, 0.0, 0.0, 0.0, 0.0, 0.0, 1.695336425050378E9, 0.0, 2023-09-21 17:47:05.050
0.0, 9296.31403640676, 16721.6976549265, -187500.02235174447, -51649.382907078616, 11771.792086576474, -9917.20079388628, -187500.02235174447, -19551.406151223917, -5281.896028744702, 28823.714414085676, -39697.7710363592, -187500.02235174447, -8582.332263270888, -40155.62416978171, -90897.97328686397, -5354.785067413458, 0.19, 0.98, 0.198, 192.0, 0.0, 0.0, 0.0, 0.0, 0.0, 0.0, 0.0, 0.0, 0.0, 1.695336425110612E9, 0.0, 2023-09-21 17:47:05.110
2.0, 9304.427719644036, 16738.394408034612, -187500.02235174447, -51636.75417146137, 11763.90192078375, -9916.86551771945, -187500.02235174447, -19543.739502875746, -5274.363490863263, 28804.201341176195, -39684.471748408294, -187500.02235174447, -8568.98827183107, -40144.76122197643, -90841.80335304778, -5355.254454047019, 0.198, 0.98, 0.198, 192.0, 3.0, 24.0, 15.0, 80.0, 3.0, 24.0, 0.0, 0.0, 0.0, 1.695336425110623E9, 0.0, 2023-09-21 17:47:05.110
4.0, 9315.424777916049, 16743.51295751488, -187500.02235174447, -51635.256604582864, 11782.744441359573, -9926.744988768696, -187500.02235174447, -19552.948421591333, -5256.70561274357, 28837.214867736682, -39673.54174536964, -187500.02235174447, -8565.45669620713, -40144.51535278742, -90787.75683495484, -5359.30011979343, 0.198, 0.98, 0.198, 192.0, 0.0, 0.0, 0.0, 0.0, 0.0, 0.0, 0.0, 0.0, 0.0, 1.695336425110627E9, 0.0, 2023-09-21 17:47:05.110
6.0, 9315.402426171593, 16752.476007041456, -187500.02235174447, -51626.47236901193, 11751.56375784442, -9922.274639877634, -187500.02235174447, -19551.316744246094, -5244.099228870778, 28824.429669908248, -39657.85082076202, -187500.02235174447, -8556.046611791446, -40137.18398060608, -90726.89303480304, -5358.026070359478, 0.198, 0.98, 0.198, 192.0, 0.0, 0.0, 0.0, 0.0, 0.0, 0.0, 0.0, 0.0, 0.0, 1.695336425110631E9, 0.0, 2023-09-21 17:47:05.110
8.0, 9329.819301345266, 16760.924966445564, -187500.02235174447, -51618.336334030195, 11762.13613297178, -9914.742101996197, -187500.02235174447, -19537.30220047262, -5242.646365481182, 28843.272190484073, -39656.06268120559, -187500.02235174447, -8556.98538505857, -40132.78068694838, -90675.39461557801, -5356.975538370078, 0.198, 0.98, 0.198, 192.0, 0.0, 0.0, 0.0, 0.0, 0.0, 0.0, 0.0, 0.0, 0.0, 1.695336425110634E9, 0.0, 2023-09-21 17:47:05.110
10.0, 9319.202222728994, 16754.88999544263, -187500.02235174447, -51618.51514798584, 11733.99528670255, -9917.87134621994, -187500.02235174447, -19538.35273246202, -5242.489903269995, 28844.300370729015, -39653.33576838205, -187500.02235174447, -8559.2205595041, -40131.819561936805, -90612.38504795851, -5349.1747795551755, 0.198, 0.98, 0.198, 192.0, 0.0, 0.0, 0.0, 0.0, 0.0, 0.0, 0.0, 0.0, 0.0, 1.695336425110638E9, 0.0, 2023-09-21 17:47:05.110
12.0, 9318.934001795531, 16744.876413926653, -187500.02235174447, -51625.89122365609, 11758.716316070118, -9935.663334806364, -187500.02235174447, -19553.417808224895, -5243.540435259394, 28840.433518938247, -39667.976161000275, -187500.02235174447, -8564.182646773177, -40144.15772487614, -90577.98571324178, -5351.67817493417, 0.216, 0.98, 0.198, 192.0, 3.0, 96.0, 15.0, 80.0, 3.0, 24.0, 0.0, 0.0, 0.0, 1.695336425110641E9, 0.0, 2023-09-21 17:47:05.110
14.0, 9315.31301919377, 16754.353553575704, -187500.02235174447, -51612.97191536092, 11732.877699479783, -9903.432119301811, -187500.02235174447, -19531.78131959216, -5259.723098245036, 28827.357748431892, -39679.73317858377, -187500.02235174447, -8572.251626521544, -40147.73400398898, -90485.02480805217, -5355.9250063806785, 0.216, 0.98, 0.198, 192.0, 0.0, 0.0, 0.0, 0.0, 0.0, 0.0, 0.0, 0.0, 0.0, 1.695336425170886E9, 0.0, 2023-09-21 17:47:05.170
16.0, 9319.358684940182, 16750.643163996123, -187500.02235174447, -51616.14586307357, 11767.768772574518, -9905.443776302789, -187500.02235174447, -19534.24001148224, -5244.65802248216, 28836.074928769463, -39671.530088368665, -187500.02235174447, -8558.550007170441, -40135.95463466104, -90470.83145032305, -5335.450808459617, 0.216, 0.98, 0.198, 192.0, 0.0, 0.0, 0.0, 0.0, 0.0, 0.0, 0.0, 0.0, 0.0, 1.695336425170906E9, 0.0, 2023-09-21 17:47:05.170
18.0, 9304.964161510965, 16741.367190047167, -187500.02235174447, -51628.349915546176, 11750.736743299574, -9907.187212370303, -187500.02235174447, -19539.984409807257, -5246.9826039055115, 28835.18085899125, -39683.0188850187, -187500.02235174447, -8563.400335717242, -40142.68250974209, -90373.24373403117, -5340.256433517508, 0.216, 0.98, 0.198, 192.0, 0.0, 0.0, 0.0, 0.0, 0.0, 0.0, 0.0, 0.0, 0.0, 1.69533642517091E9, 0.0, 2023-09-21 17:47:05.170
20.0, 9303.287780676816, 16732.515899242866, -187500.02235174447, -51632.32852605922, 11774.13901974428, -9918.787767742608, -187500.02235174447, -19546.377008721473, -5255.409211565163, 28815.868951781864, -39692.56307990111, -187500.02235174447, -8568.474181708596, -40148.6280737672, -90347.27100697412, -5345.509093464505, 0.216, 0.98, 0.198, 192.0, 0.0, 0.0, 0.0, 0.0, 0.0, 0.0, 0.0, 0.0, 0.0, 1.695336425170913E9, 0.0, 2023-09-21 17:47:05.170
22.0, 9306.193507456006, 16738.662628968075, -187500.02235174447, -51629.512206257845, 11749.909728754727, -9907.969523426238, -187500.02235174447, -19533.81532833759, -5259.432525567117, 28821.590998362422, -39700.29678348265, -187500.02235174447, -8569.323547997898, -40155.11007965924, -90245.88349412484, -5355.835599402857, 0.21, 0.976, 0.19, 192.0, 3.0, 72.0, 15.0, 64.0, 2.5, 120.0, 0.0, 0.0, 0.0, 1.695336425170916E9, 0.0, 2023-09-21 17:47:05.170
24.0, 9307.51226037887, 16736.226288822447, -187500.02235174447, -51632.14971210357, 11768.796952819463, -9917.781939242119, -187500.02235174447, -19540.1632237629, -5258.761973233459, 28808.04584122251, -39696.13935901396, -187500.02235174447, -8560.382850215776, -40143.68833824257, -90250.17502906025, -5351.164084811698, 0.21, 0.976, 0.19, 192.0, 0.0, 0.0, 0.0, 0.0, 0.0, 0.0, 0.0, 0.0, 0.0, 1.69533642517092E9, 0.0, 2023-09-21 17:47:05.170
26.0, 9295.576428839735, 16726.391521262114, -187500.02235174447, -51648.824113467235, 11746.624022319796, -9934.992782472704, -187500.02235174447, -19552.389627979952, -5250.827103951825, 28819.266416939074, -39707.22582426379, -187500.02235174447, -8571.335204998875, -40157.56877154932, -90155.56009478094, -5367.637320475259, 0.21, 0.976, 0.19, 192.0, 0.0, 0.0, 0.0, 0.0, 0.0, 0.0, 0.0, 0.0, 0.0, 1.695336425170923E9, 0.0, 2023-09-21 17:47:05.170
28.0, 9295.442318373003, 16729.230192807936, -187500.02235174447, -51642.96795641994, 11759.409220148233, -9940.647773819897, -187500.02235174447, -19556.323535004085, -5270.0496041833885, 28793.092524181906, -39716.88177786848, -187500.02235174447, -8582.868705137815, -40161.815602995826, -90118.65736468523, -5376.645073490748, 0.21, 0.976, 0.19, 192.0, 0.0, 0.0, 0.0, 0.0, 0.0, 0.0, 0.0, 0.0, 0.0, 1.695336425170927E9, 0.0, 2023-09-21 17:47:05.170
30.0, 9295.062338717264, 16731.465367253466, -187500.02235174447, -51643.77261922033, 11745.975821730593, -9932.243517904702, -187500.02235174447, -19553.0154768247, -5272.262426884464, 28818.46175413868, -39720.055725581136, -187500.02235174447, -8584.299216782954, -40160.16157390614, -90015.7946367019, -5378.813192702913, 0.21, 0.976, 0.19, 192.0, 0.0, 0.0, 0.0, 0.0, 0.0, 0.0, 0.0, 0.0, 0.0, 1.695336425231235E9, 0.0, 2023-09-21 17:47:05.231
32.0, 9290.07789970373, 16726.525631728844, -187500.02235174447, -51642.02918315282, 11748.121589198303, -9931.260041148667, -187500.02235174447, -19552.456683213317, -5269.311996616363, 28792.332564870427, -39718.580510447086, -187500.02235174447, -8582.488725482073, -40151.91378020213, -89990.98420035651, -5374.745175212047, 0.21, 0.982, 0.186, 192.0, 3.0, 72.0, 15.0, 88.0, 2.5, 104.0, 0.0, 0.0, 0.0, 1.695336425231247E9, 0.0, 2023-09-21 17:47:05.231
34.0, 9297.901010263087, 16735.89101265562, -187500.02235174447, -51636.441247038994, 11739.583222816376, -9922.341695111001, -187500.02235174447, -19552.009648324212, -5267.479153571028, 28814.304329669994, -39724.01198434973, -187500.02235174447, -8583.315740026921, -40156.96527444902, -89887.85325143972, -5380.44487004815, 0.21, 0.982, 0.186, 192.0, 0.0, 0.0, 0.0, 0.0, 0.0, 0.0, 0.0, 0.0, 0.0, 1.695336425231251E9, 0.0, 2023-09-21 17:47:05.231
36.0, 9297.498678862892, 16736.852137667196, -187500.02235174447, -51631.16623534754, 11760.146827715258, -9914.719750251741, -187500.02235174447, -19547.516947688695, -5262.092383157299, 28808.09054471142, -39711.6738214104, -187500.02235174447, -8575.805553889937, -40148.91864644511, -89874.93394314456, -5370.118364109799, 0.21, 0.982, 0.186, 192.0, 0.0, 0.0, 0.0, 0.0, 0.0, 0.0, 0.0, 0.0, 0.0, 1.695336425231255E9, 0.0, 2023-09-21 17:47:05.231
38.0, 9308.02635050134, 16746.955126160996, -187500.02235174447, -51627.277031812315, 11771.121534242813, -9910.24940136068, -187500.02235174447, -19541.280810985663, -5260.393650578696, 28834.242085724127, -39711.29384175466, -187500.02235174447, -8579.225370791599, -40153.52310580291, -89782.48712807741, -5371.794744943946, 0.21, 0.982, 0.186, 192.0, 0.0, 0.0, 0.0, 0.0, 0.0, 0.0, 0.0, 0.0, 0.0, 1.695336425231258E9, 0.0, 2023-09-21 17:47:05.231
40.0, 9303.064263232263, 16745.83753893823, -187500.02235174447, -51633.80374119327, 11778.363499446334, -9920.128872409925, -187500.02235174447, -19549.68506690086, -5241.908757914157, 28817.23240819364, -39698.88862358197, -187500.02235174447, -8565.45669620713, -40134.99350964946, -89772.5406017948, -5365.424497774184, 0.21, 0.982, 0.186, 192.0, 0.0, 0.0, 0.0, 0.0, 0.0, 0.0, 0.0, 0.0, 0.0, 1.695336425231262E9, 0.0, 2023-09-21 17:47:05.231
42.0, 9302.728987065433, 16735.6004399777, -187500.02235174447, -51650.768715234844, 11777.33531920139, -9935.283355150623, -187500.02235174447, -19564.39251475245, -5263.724060502536, 28826.731899587143, -39718.513455213724, -187500.02235174447, -8577.07960332389, -40161.61443729573, -89693.97422003439, -5387.955056185134, 0.21, 0.976, 0.178, 192.0, 3.0, 72.0, 15.0, 64.0, 2.5, 72.0, 0.0, 0.0, 0.0, 1.695336425231266E9, 0.0, 2023-09-21 17:47:05.231
44.0, 9300.672626575546, 16743.334143559237, -187500.02235174447, -51648.466485555946, 11755.65412707974, -9935.596279572997, -187500.02235174447, -19562.559671707117, -5246.0885341273, 28793.40544860428, -39722.76028666023, -187500.02235174447, -8586.355577272841, -40169.30343738836, -89654.83631549316, -5401.455509836139, 0.21, 0.976, 0.178, 192.0, 0.0, 0.0, 0.0, 0.0, 0.0, 0.0, 0.0, 0.0, 0.0, 1.695336425291585E9, 0.0, 2023-09-21 17:47:05.291
46.0, 9317.7493593394, 16754.733533231443, -187500.02235174447, -51636.46359878345, 11774.630758122297, -9933.271698149645, -187500.02235174447, -19560.34684900604, -5235.762028188948, 28825.726071086654, -39706.17529227439, -187500.02235174447, -8574.1738765447, -40155.177134892605, -89599.60515494409, -5386.166916628709, 0.21, 0.976, 0.178, 192.0, 0.0, 0.0, 0.0, 0.0, 0.0, 0.0, 0.0, 0.0, 0.0, 1.695336425291602E9, 0.0, 2023-09-21 17:47:05.291
48.0, 9298.54921085229, 16741.590707491723, -187500.02235174447, -51643.303232586775, 11750.51322585502, -9934.188119672313, -187500.02235174447, -19557.664639671402, -5254.2022173645755, 28809.588111589925, -39714.91482435642, -187500.02235174447, -8589.015434863024, -40160.51920181742, -89556.80156431218, -5399.935591213178, 0.21, 0.976, 0.178, 192.0, 0.0, 0.0, 0.0, 0.0, 0.0, 0.0, 0.0, 0.0, 0.0, 1.695336425291607E9, 0.0, 2023-09-21 17:47:05.291
50.0, 9305.478251633436, 16738.88614641263, -187500.02235174447, -51648.37707857813, 11767.008813263037, -9939.597241830497, -187500.02235174447, -19561.553843206628, -5261.354775590275, 28828.274169954562, -39728.99642336326, -187500.02235174447, -8597.598504733862, -40167.112966431734, -89477.47522324028, -5402.729559270091, 0.21, 0.976, 0.178, 192.0, 0.0, 0.0, 0.0, 0.0, 0.0, 0.0, 0.0, 0.0, 0.0, 1.695336425291611E9, 0.0, 2023-09-21 17:47:05.291
52.0, 9300.918495764554, 16742.30596331429, -187500.02235174447, -51639.01169765135, 11752.256661922534, -9934.29987839459, -187500.02235174447, -19552.456683213317, -5238.354830545763, 28814.349033158906, -39716.211225534826, -187500.02235174447, -8584.723899927605, -40156.004149437445, -89433.28582445215, -5392.805384731935, 0.216, 0.98, 0.176, 192.0, 3.0, 96.0, 15.0, 80.0, 2.5, 64.0, 0.0, 0.0, 0.0, 1.695336425291615E9, 0.0, 2023-09-21 17:47:05.291
54.0, 9306.953466767487, 16738.5508702458, -187500.02235174447, -51639.32462207373, 11783.325586715411, -9940.290145908612, -187500.02235174447, -19563.63255544097, -5238.533644501405, 28832.833925823445, -39721.28507152618, -187500.02235174447, -8587.65197845125, -40159.60278029475, -89388.6493907749, -5395.35348359984, 0.216, 0.98, 0.176, 192.0, 0.0, 0.0, 0.0, 0.0, 0.0, 0.0, 0.0, 0.0, 0.0, 1.695336425291618E9, 0.0, 2023-09-21 17:47:05.291
56.0, 9307.244039445406, 16754.80058846481, -187500.02235174447, -51626.69588645648, 11756.592900346865, -9923.794558500596, -187500.02235174447, -19549.0145145672, -5240.522949757928, 28822.283902440537, -39719.832208136584, -187500.02235174447, -8586.802612161948, -40155.91474245963, -89319.20252075225, -5395.509945811027, 0.216, 0.98, 0.176, 192.0, 0.0, 0.0, 0.0, 0.0, 0.0, 0.0, 0.0, 0.0, 0.0, 1.695336425291625E9, 0.0, 2023-09-21 17:47:05.291
58.0, 9314.664818604568, 16752.006620407894, -187500.02235174447, -51626.36061028965, 11790.075813540914, -9926.92380272434, -187500.02235174447, -19557.552880949126, -5236.633746222705, 28833.549181646013, -39719.89926336995, -187500.02235174447, -8583.36044351583, -40150.3268063458, -89274.78960451957, -5390.167878886209, 0.216, 0.98, 0.176, 192.0, 0.0, 0.0, 0.0, 0.0, 0.0, 0.0, 0.0, 0.0, 0.0, 1.695336425291629E9, 0.0, 2023-09-21 17:47:05.291
60.0, 9305.277085933338, 16748.966783161974, -187500.02235174447, -51625.62300272263, 11758.336336414379, -9915.3903025854, -187500.02235174447, -19543.940668575844, -5233.392743276685, 28829.436460666235, -39718.04406858016, -187500.02235174447, -8582.265208037521, -40141.78843996387, -89184.55561215349, -5379.237875847563, 0.216, 0.98, 0.176, 192.0, 0.0, 0.0, 0.0, 0.0, 0.0, 0.0, 0.0, 0.0, 0.0, 1.695336425350896E9, 0.0, 2023-09-21 17:47:05.350
62.0, 9315.089501749218, 16753.705352986497, -187500.02235174447, -51624.99715387788, 11785.113726271837, -9908.997703671183, -187500.02235174447, -19541.459624941304, -5228.7882839188915, 28818.662919838778, -39719.96631860332, -187500.02235174447, -8584.008644105035, -40142.19077136407, -89144.54598957849, -5379.953131670133, 0.20800000000000002, 0.978, 0.178, 192.0, 3.0, 64.0, 15.0, 72.0, 2.5, 72.0, 0.0, 0.0, 0.0, 1.695336425350915E9, 0.0, 2023-09-21 17:47:05.350
64.0, 9307.199335956495, 16750.08437038474, -187500.02235174447, -51632.70850571496, 11750.312060154924, -9913.15512813987, -187500.02235174447, -19551.897889601933, -5230.397609519674, 28815.6007308484, -39718.446399980356, -187500.02235174447, -8586.199115061656, -40147.73400398898, -89075.63556142278, -5388.938532941167, 0.20800000000000002, 0.978, 0.178, 192.0, 0.0, 0.0, 0.0, 0.0, 0.0, 0.0, 0.0, 0.0, 0.0, 1.695336425350921E9, 0.0, 2023-09-21 17:47:05.350
66.0, 9313.144899981608, 16747.871547683662, -187500.02235174447, -51631.12153185863, 11781.269226225522, -9918.340732853501, -187500.02235174447, -19558.089322816053, -5227.290717040386, 28798.61340506237, -39712.500835955245, -187500.02235174447, -8585.50621098354, -40145.69999524355, -89055.1166600128, -5391.553687042438, 0.20800000000000002, 0.978, 0.178, 192.0, 0.0, 0.0, 0.0, 0.0, 0.0, 0.0, 0.0, 0.0, 0.0, 1.695336425350926E9, 0.0, 2023-09-21 17:47:05.350
68.0, 9310.105062735685, 16744.60819299319, -187500.02235174447, -51648.13120938912, 11751.362592144322, -9940.290145908612, -187500.02235174447, -19574.942538135354, -5217.657115180149, 28808.55993134498, -39716.30063251265, -187500.02235174447, -8589.641283707771, -40153.076070913805, -88969.97886538254, -5406.8199285054125, 0.20800000000000002, 0.978, 0.178, 192.0, 0.0, 0.0, 0.0, 0.0, 0.0, 0.0, 0.0, 0.0, 0.0, 1.69533642535093E9, 0.0, 2023-09-21 17:47:05.350
70.0, 9318.352856439693, 16751.69369598552, -187500.02235174447, -51635.50247377187, 11784.845505338371, -9937.965564485261, -187500.02235174447, -19569.309898532618, -5225.100246083766, 28808.761097045077, -39717.7758476467, -187500.02235174447, -8603.477013525608, -40154.59598953676, -88944.22965577003, -5412.899602997256, 0.20800000000000002, 0.978, 0.178, 192.0, 0.0, 0.0, 0.0, 0.0, 0.0, 0.0, 0.0, 0.0, 0.0, 1.695336425350933E9, 0.0, 2023-09-21 17:47:05.350
72.0, 9320.6997896075, 16761.617870523678, -187500.02235174447, -51631.635621981106, 11770.56274063143, -9944.58168084403, -187500.02235174447, -19562.87259612949, -5221.166339059632, 28838.153641003806, -39710.4221237209, -187500.02235174447, -8601.353597802354, -40143.66598649812, -88851.2687505804, -5404.651809293247, 0.2, 0.978, 0.182, 192.0, 3.0, 32.0, 15.0, 72.0, 2.5, 88.0, 0.0, 0.0, 0.0, 1.695336425350937E9, 0.0, 2023-09-21 17:47:05.350
74.0, 9315.916516294064, 16748.78796920633, -187500.02235174447, -51632.17206384803, 11790.344034474378, -9949.744933813206, -187500.02235174447, -19566.717096175802, -5223.110940827244, 28834.644417124324, -39707.62815566399, -187500.02235174447, -8602.98527514759, -40142.68250974209, -88832.15800907112, -5401.0084749470325, 0.2, 0.978, 0.182, 192.0, 0.0, 0.0, 0.0, 0.0, 0.0, 0.0, 0.0, 0.0, 0.0, 1.695336425410707E9, 0.0, 2023-09-21 17:47:05.410
76.0, 9307.534612123325, 16742.417722036567, -187500.02235174447, -51631.88149117011, 11768.551083630453, -9947.77798030114, -187500.02235174447, -19562.559671707117, -5246.490865527495, 28844.255667240104, -39731.49981874225, -187500.02235174447, -8627.013400437047, -40162.508507073944, -88700.52858597382, -5414.106597197842, 0.2, 0.978, 0.182, 192.0, 0.0, 0.0, 0.0, 0.0, 0.0, 0.0, 0.0, 0.0, 0.0, 1.695336425410722E9, 0.0, 2023-09-21 17:47:05.410
78.0, 9311.423815658549, 16749.302059328802, -187500.02235174447, -51618.626906708116, 11787.304197228455, -9941.027753475637, -187500.02235174447, -19555.83179662607, -5219.579365203305, 28823.66971059677, -39713.19374003336, -187500.02235174447, -8604.952228659658, -40137.049870139344, -88680.90375434206, -5394.034730676977, 0.2, 0.978, 0.182, 192.0, 0.0, 0.0, 0.0, 0.0, 0.0, 0.0, 0.0, 0.0, 0.0, 1.695336425410725E9, 0.0, 2023-09-21 17:47:05.410
80.0, 9317.302324450293, 16754.197091364516, -187500.02235174447, -51615.40825550655, 11777.022394779015, -9935.640983061909, -187500.02235174447, -19558.67046817189, -5220.160510559143, 28858.314914502495, -39713.61842317801, -187500.02235174447, -8610.137833373288, -40134.725288716, -88576.05172110221, -5388.78207072998, 0.2, 0.978, 0.182, 192.0, 0.0, 0.0, 0.0, 0.0, 0.0, 0.0, 0.0, 0.0, 0.0, 1.695336425410729E9, 0.0, 2023-09-21 17:47:05.410
82.0, 9320.073940762752, 16761.684925757043, -187500.02235174447, -51603.27125826732, 11773.982557533092, -9917.021979930638, -187500.02235174447, -19546.175843021374, -5219.244089036476, 28830.889324055832, -39713.39490573346, -187500.02235174447, -8618.162109632744, -40123.88469265517, -88535.46095317138, -5389.899657952745, 0.20400000000000001, 0.982, 0.18, 192.0, 3.0, 48.0, 15.0, 88.0, 2.5, 80.0, 0.0, 0.0, 0.0, 1.695336425410732E9, 0.0, 2023-09-21 17:47:05.410
84.0, 9328.344086211215, 16767.630489782154, -187500.02235174447, -51601.483118710894, 11760.035068992982, -9907.522488537132, -187500.02235174447, -19542.800729608625, -5204.849565607258, 28851.967019077187, -39699.983859060274, -187500.02235174447, -8605.108690870844, -40117.40268676313, -88443.48352473778, -5379.595503758848, 0.20400000000000001, 0.982, 0.18, 192.0, 0.0, 0.0, 0.0, 0.0, 0.0, 0.0, 0.0, 0.0, 0.0, 1.695336425410736E9, 0.0, 2023-09-21 17:47:05.410
86.0, 9310.820318558255, 16751.090198885227, -187500.02235174447, -51612.12254907162, 11755.743534057563, -9920.553555554576, -187500.02235174447, -19551.87553785748, -5210.973943588012, 28828.452983910203, -39703.4707311953, -187500.02235174447, -8608.059121138946, -40123.97409963299, -88424.1716175284, -5391.888963209268, 0.20400000000000001, 0.982, 0.18, 192.0, 0.0, 0.0, 0.0, 0.0, 0.0, 0.0, 0.0, 0.0, 0.0, 1.695336425410739E9, 0.0, 2023-09-21 17:47:05.410
88.0, 9321.146824496607, 16750.531405273843, -187500.02235174447, -51612.70369442746, 11779.346976202367, -9914.272715362635, -187500.02235174447, -19537.995104550733, -5217.277135524409, 28842.17695500576, -39709.840978365064, -187500.02235174447, -8610.651923495761, -40135.55230326084, -88326.80741868108, -5397.499251067549, 0.20400000000000001, 0.982, 0.18, 192.0, 0.0, 0.0, 0.0, 0.0, 0.0, 0.0, 0.0, 0.0, 0.0, 1.695336425410742E9, 0.0, 2023-09-21 17:47:05.410
90.0, 9306.864059789665, 16739.422588279558, -187500.02235174447, -51626.11474110064, 11774.295481955467, -9928.577831814031, -187500.02235174447, -19557.150549548933, -5217.813577391336, 28826.79895482051, -39708.34341148656, -187500.02235174447, -8605.332208315398, -40136.4240212946, -88304.5450812036, -5400.628495291293, 0.20400000000000001, 0.982, 0.18, 192.0, 0.0, 0.0, 0.0, 0.0, 0.0, 0.0, 0.0, 0.0, 0.0, 1.69533642547084E9, 0.0, 2023-09-21 17:47:05.470
92.0, 9315.469481404958, 16745.658724982586, -187500.02235174447, -51637.67059298403, 11775.882455811794, -9946.347468656, -187500.02235174447, -19571.38861076696, -5215.645458179171, 28838.399510192816, -39710.4221237209, -187500.02235174447, -8606.89683042727, -40147.1752103776, -88229.71144076723, -5419.135739700287, 0.20600000000000002, 0.978, 0.184, 192.0, 3.0, 56.0, 15.0, 72.0, 2.5, 96.0, 0.0, 0.0, 0.0, 1.695336425470852E9, 0.0, 2023-09-21 17:47:05.470
94.0, 9299.286818419316, 16736.002771377895, -187500.02235174447, -51645.381944821114, 11746.378153130789, -9954.170579215357, -187500.02235174447, -19578.675279459392, -5227.402475762663, 28807.308233655483, -39719.40752499193, -187500.02235174447, -8620.687856756194, -40157.18879189358, -88185.27617279008, -5440.749876588568, 0.20600000000000002, 0.978, 0.184, 192.0, 0.0, 0.0, 0.0, 0.0, 0.0, 0.0, 0.0, 0.0, 0.0, 1.695336425470856E9, 0.0, 2023-09-21 17:47:05.470
96.0, 9315.692998849512, 16751.246661096415, -187500.02235174447, -51634.921328416036, 11754.447132879155, -9945.162826199869, -187500.02235174447, -19571.43331425587, -5220.518138470428, 28829.16823973277, -39721.41918199291, -187500.02235174447, -8616.46337705414, -40156.09355641527, -88110.86721549837, -5439.878158554811, 0.20600000000000002, 0.978, 0.184, 192.0, 0.0, 0.0, 0.0, 0.0, 0.0, 0.0, 0.0, 0.0, 0.0, 1.695336425470859E9, 0.0, 2023-09-21 17:47:05.470
98.0, 9301.812565542767, 16743.35649530369, -187500.02235174447, -51632.239119081394, 11745.573490330398, -9947.286241923124, -187500.02235174447, -19568.192311309853, -5214.550222700861, 28823.692062341222, -39717.79819939115, -187500.02235174447, -8606.449795538163, -40151.265579612926, -88083.82160470744, -5438.827626565412, 0.20600000000000002, 0.978, 0.184, 192.0, 0.0, 0.0, 0.0, 0.0, 0.0, 0.0, 0.0, 0.0, 0.0, 1.695336425470863E9, 0.0, 2023-09-21 17:47:05.470
100.0, 9307.109928978674, 16747.715085472475, -187500.02235174447, -51626.20414807846, 11783.414993693232, -9940.603070330986, -187500.02235174447, -19559.832758883567, -5238.064257867844, 28844.56859166248, -39720.48040872579, -187500.02235174447, -8605.265153082031, -40139.35209981824, -88041.75562164254, -5426.958850259644, 0.20600000000000002, 0.978, 0.184, 192.0, 0.0, 0.0, 0.0, 0.0, 0.0, 0.0, 0.0, 0.0, 0.0, 1.695336425470866E9, 0.0, 2023-09-21 17:47:05.470
102.0, 9288.915608992054, 16733.27585855435, -187500.02235174447, -51630.67449696952, 11767.99229001907, -9950.68370708033, -187500.02235174447, -19564.34781126354, -5222.328629771308, 28829.123536243864, -39716.36768774602, -187500.02235174447, -8604.058158881446, -40136.625186994694, -87984.89278374825, -5426.444760137172, 0.2, 0.982, 0.182, 192.0, 3.0, 32.0, 15.0, 88.0, 2.5, 88.0, 0.0, 0.0, 0.0, 1.69533642547087E9, 0.0, 2023-09-21 17:47:05.470
104.0, 9295.710539306467, 16734.46050101048, -187500.02235174447, -51629.69102021349, 11792.735671131095, -9944.626384332942, -187500.02235174447, -19560.816235639602, -5230.107036841755, 28831.403414178305, -39725.934234372886, -187500.02235174447, -8618.60914452185, -40155.33359710379, -87917.0552393264, -5437.240652709085, 0.2, 0.982, 0.182, 192.0, 0.0, 0.0, 0.0, 0.0, 0.0, 0.0, 0.0, 0.0, 0.0, 1.695336425530614E9, 0.0, 2023-09-21 17:47:05.530
106.0, 9281.047794943786, 16729.900745141596, -187500.02235174447, -51629.40044753557, 11774.89897905576, -9932.243517904702, -187500.02235174447, -19554.11071230301, -5228.341249029786, 28811.197437190705, -39721.70975467083, -187500.02235174447, -8610.98719966259, -40141.36375681922, -87839.91936921113, -5426.087132225887, 0.2, 0.982, 0.182, 192.0, 0.0, 0.0, 0.0, 0.0, 0.0, 0.0, 0.0, 0.0, 0.0, 1.695336425530632E9, 0.0, 2023-09-21 17:47:05.530
108.0, 9281.919512977543, 16722.256448537883, -187500.02235174447, -51645.60546226567, 11792.534505430998, -9939.753704041685, -187500.02235174447, -19566.426523497885, -5241.796999191881, 28811.398602890804, -39735.433725766394, -187500.02235174447, -8613.110615385845, -40150.975006935005, -87796.51228147892, -5430.26690843903, 0.2, 0.982, 0.182, 192.0, 0.0, 0.0, 0.0, 0.0, 0.0, 0.0, 0.0, 0.0, 0.0, 1.695336425530636E9, 0.0, 2023-09-21 17:47:05.530
110.0, 9288.826202014232, 16731.443015509012, -187500.02235174447, -51639.168159862544, 11758.604557347842, -9925.895622479395, -187500.02235174447, -19555.362409992507, -5256.638557510204, 28803.106105697883, -39740.08288861309, -187500.02235174447, -8619.056179410956, -40155.08772791478, -87711.08391417074, -5440.906338799756, 0.2, 0.982, 0.182, 192.0, 0.0, 0.0, 0.0, 0.0, 0.0, 0.0, 0.0, 0.0, 0.0, 1.695336425530639E9, 0.0, 2023-09-21 17:47:05.530
112.0, 9312.295533692304, 16747.6033267502, -187500.02235174447, -51634.16136910455, 11792.735671131095, -9936.57975632903, -187500.02235174447, -19567.387648509462, -5216.427769235107, 28829.27999845505, -39719.74280115876, -187500.02235174447, -8613.289429341487, -40142.68250974209, -87666.84981189368, -5436.480693397605, 0.2, 0.98, 0.18, 192.0, 3.0, 32.0, 15.0, 80.0, 2.5, 80.0, 0.0, 0.0, 0.0, 1.695336425530643E9, 0.0, 2023-09-21 17:47:05.530
114.0, 9316.631772116634, 16756.812245465786, -187500.02235174447, -51633.66963072654, 11759.878606781795, -9944.045238977104, -187500.02235174447, -19571.478017744783, -5203.419053962119, 28836.23139098065, -39714.40073423395, -187500.02235174447, -8613.624705508317, -40135.395841049656, -87565.35054032214, -5443.432085923206, 0.2, 0.98, 0.18, 192.0, 0.0, 0.0, 0.0, 0.0, 0.0, 0.0, 0.0, 0.0, 0.0, 1.695336425530646E9, 0.0, 2023-09-21 17:47:05.530
116.0, 9314.620115115657, 16752.520710530367, -187500.02235174447, -51641.403334308074, 11775.90480755625, -9968.4533439223, -187500.02235174447, -19583.615014984014, -5216.114844812732, 28819.199361705705, -39722.13443781548, -187500.02235174447, -8623.75004574657, -40145.85645745474, -87526.43615322544, -5460.978205320622, 0.2, 0.98, 0.18, 192.0, 0.0, 0.0, 0.0, 0.0, 0.0, 0.0, 0.0, 0.0, 0.0, 1.69533642553065E9, 0.0, 2023-09-21 17:47:05.530
118.0, 9321.146824496607, 16770.335050861246, -187500.02235174447, -51623.097255599176, 11762.896092283261, -9950.460189635776, -187500.02235174447, -19567.72292467629, -5205.408359218641, 28839.248876482117, -39703.962469573315, -187500.02235174447, -8603.477013525608, -40133.60770149323, -87436.62684400403, -5448.50593191456, 0.2, 0.98, 0.18, 192.0, 0.0, 0.0, 0.0, 0.0, 0.0, 0.0, 0.0, 0.0, 0.0, 1.695336425530653E9, 0.0, 2023-09-21 17:47:05.530
120.0, 9307.422853401047, 16745.658724982586, -187500.02235174447, -51638.02822089532, 11784.487877427087, -9965.949948543304, -187500.02235174447, -19578.429410270383, -5202.815556861825, 28837.99717879262, -39709.88568185397, -187500.02235174447, -8609.1320048728, -40134.99350964946, -87448.9426551989, -5449.9587953041555, 0.2, 0.98, 0.18, 192.0, 0.0, 0.0, 0.0, 0.0, 0.0, 0.0, 0.0, 0.0, 0.0, 1.695336425592676E9, 0.0, 2023-09-21 17:47:05.592
122.0, 9292.111908449162, 16729.945448630508, -187500.02235174447, -51651.193398379495, 11756.65995558023, -9958.573872873054, -187500.02235174447, -19573.06499160111, -5238.868920668236, 28831.246951967118, -39742.58628399209, -187500.02235174447, -8629.002705693569, -40155.579466292795, -87340.58139807956, -5466.812010623456, 0.202, 0.976, 0.182, 192.0, 3.0, 40.0, 15.0, 64.0, 2.5, 88.0, 0.0, 0.0, 0.0, 1.695336425592686E9, 0.0, 2023-09-21 17:47:05.592
124.0, 9288.960312480964, 16725.87743113964, -187500.02235174447, -51647.55006403328, 11783.437345437687, -9956.562215872076, -187500.02235174447, -19578.25059631474, -5221.099283826266, 28818.305291927492, -39735.90311239995, -187500.02235174447, -8620.978429434113, -40148.89629470066, -87317.53674954614, -5456.753725618569, 0.202, 0.976, 0.182, 192.0, 0.0, 0.0, 0.0, 0.0, 0.0, 0.0, 0.0, 0.0, 0.0, 1.695336425592689E9, 0.0, 2023-09-21 17:47:05.592
126.0, 9281.78540251081, 16719.954218858984, -187500.02235174447, -51653.003889680374, 11755.631775335285, -9956.405753660889, -187500.02235174447, -19584.263215573217, -5231.850472909269, 28827.290693198527, -39743.10037411456, -187500.02235174447, -8634.434179596208, -40157.18879189358, -87183.38157932539, -5467.124935045831, 0.202, 0.976, 0.182, 192.0, 0.0, 0.0, 0.0, 0.0, 0.0, 0.0, 0.0, 0.0, 0.0, 1.695336425592692E9, 0.0, 2023-09-21 17:47:05.592
128.0, 9291.061376459764, 16732.091216098215, -187500.02235174447, -51628.59578473518, 11772.775563332507, -9938.613765074464, -187500.02235174447, -19568.259366543218, -5224.876728639213, 28797.07113469495, -39734.96433913283, -187500.02235174447, -8625.202909136166, -40146.86228595523, -87168.18239309579, -5458.586568663904, 0.202, 0.976, 0.182, 192.0, 0.0, 0.0, 0.0, 0.0, 0.0, 0.0, 0.0, 0.0, 0.0, 1.695336425592696E9, 0.0, 2023-09-21 17:47:05.592
130.0, 9298.951542252487, 16744.652896482097, -187500.02235174447, -51617.59872646317, 11774.608406377842, -9920.464148576755, -187500.02235174447, -19551.160282034907, -5217.813577391336, 28822.060384995984, -39724.50372272774, -187500.02235174447, -8615.435196809196, -40131.23841658097, -87094.46633988219, -5437.799446320468, 0.202, 0.976, 0.182, 192.0, 0.0, 0.0, 0.0, 0.0, 0.0, 0.0, 0.0, 0.0, 0.0, 1.695336425592699E9, 0.0, 2023-09-21 17:47:05.592
132.0, 9280.287835632305, 16725.095120083704, -187500.02235174447, -51629.46750276894, 11782.677386126208, -9933.651677805386, -187500.02235174447, -19562.045581584644, -5215.93603085709, 28809.856332523388, -39724.727240172295, -187500.02235174447, -8611.300124084964, -40127.25980606792, -87095.82979629395, -5427.249422937563, 0.2, 0.974, 0.182, 192.0, 3.0, 32.0, 15.0, 56.0, 2.5, 88.0, 0.0, 0.0, 0.0, 1.695336425592703E9, 0.0, 2023-09-21 17:47:05.592
134.0, 9291.463707859959, 16732.27003005386, -187500.02235174447, -51632.90967141506, 11773.177894732702, -9932.690552793807, -187500.02235174447, -19560.72682866178, -5241.506426513962, 28821.23337045114, -39755.05855739815, -187500.02235174447, -8641.206758166165, -40153.03136742489, -86972.47051864512, -5451.657527882759, 0.2, 0.974, 0.182, 192.0, 0.0, 0.0, 0.0, 0.0, 0.0, 0.0, 0.0, 0.0, 0.0, 1.695336425650994E9, 0.0, 2023-09-21 17:47:05.650
136.0, 9291.821335771243, 16739.98138189094, -187500.02235174447, -51631.30034581427, 11773.937854044183, -9938.502006352188, -187500.02235174447, -19564.370163007996, -5218.417074491629, 28801.45207660819, -39731.34335653107, -187500.02235174447, -8624.264135869043, -40140.335576574274, -86948.46474510012, -5452.171618005231, 0.2, 0.974, 0.182, 192.0, 0.0, 0.0, 0.0, 0.0, 0.0, 0.0, 0.0, 0.0, 0.0, 1.695336425651005E9, 0.0, 2023-09-21 17:47:05.651
138.0, 9286.769841524345, 16732.806471920787, -187500.02235174447, -51644.82315120973, 11772.797915076962, -9950.661355335875, -187500.02235174447, -19572.01445961171, -5227.424827507118, 28842.892210828333, -39739.412336279434, -187500.02235174447, -8633.875385984826, -40145.94586443256, -86856.64377887771, -5466.096754800887, 0.2, 0.974, 0.182, 192.0, 0.0, 0.0, 0.0, 0.0, 0.0, 0.0, 0.0, 0.0, 0.0, 1.695336425651009E9, 0.0, 2023-09-21 17:47:05.651
140.0, 9278.700861775978, 16735.667495211066, -187500.02235174447, -51637.17885460602, 11767.098220240858, -9945.386343644423, -187500.02235174447, -19563.699610674335, -5223.9156036276345, 28818.52880937205, -39736.48425775579, -187500.02235174447, -8628.980353949113, -40139.70972772953, -86824.3902116287, -5472.243484526096, 0.2, 0.974, 0.182, 192.0, 0.0, 0.0, 0.0, 0.0, 0.0, 0.0, 0.0, 0.0, 0.0, 1.695336425651012E9, 0.0, 2023-09-21 17:47:05.651
142.0, 9272.64353902859, 16721.205916548482, -187500.02235174447, -51645.82897971022, 11774.161371488735, -9954.192930959813, -187500.02235174447, -19571.567424722605, -5230.174092075121, 28846.46848994118, -39745.31319681564, -187500.02235174447, -8636.043505196989, -40142.54839927535, -86753.69164391657, -5475.395080494294, 0.198, 0.968, 0.188, 192.0, 3.0, 24.0, 15.0, 32.0, 2.5, 112.0, 0.0, 0.0, 0.0, 1.695336425651016E9, 0.0, 2023-09-21 17:47:05.651
144.0, 9257.220835354428, 16711.773480388343, -187500.02235174447, -51639.79400870729, 11749.3732868878, -9947.44270413431, -187500.02235174447, -19558.715171660802, -5251.430601052118, 28818.12647797185, -39754.097432386574, -187500.02235174447, -8638.055162197967, -40139.48621028497, -86704.71897181499, -5473.785754893513, 0.198, 0.968, 0.188, 192.0, 0.0, 0.0, 0.0, 0.0, 0.0, 0.0, 0.0, 0.0, 0.0, 1.695336425651019E9, 0.0, 2023-09-21 17:47:05.651
146.0, 9267.592044781692, 16710.231210020927, -187500.02235174447, -51637.558834261756, 11769.132228986291, -9951.443666391811, -187500.02235174447, -19563.140817062955, -5224.809673405847, 28838.08658577044, -39751.90696142995, -187500.02235174447, -8631.193176650188, -40138.77095446241, -86655.38867180212, -5473.025795582032, 0.198, 0.968, 0.188, 192.0, 0.0, 0.0, 0.0, 0.0, 0.0, 0.0, 0.0, 0.0, 0.0, 1.695336425651022E9, 0.0, 2023-09-21 17:47:05.651
148.0, 9235.114960088129, 16689.06410802175, -187500.02235174447, -51647.10302914418, 11759.453923637144, -9958.26094845068, -187500.02235174447, -19567.767628165202, -5238.019554378933, 28819.847562294908, -39751.661092240945, -187500.02235174447, -8633.294240628988, -40135.61935849421, -86611.691011392, -5464.442725711194, 0.198, 0.968, 0.188, 192.0, 0.0, 0.0, 0.0, 0.0, 0.0, 0.0, 0.0, 0.0, 0.0, 1.695336425651025E9, 0.0, 2023-09-21 17:47:05.651
150.0, 9228.543547218269, 16680.659852106553, -187500.02235174447, -51657.138962404606, 11777.871761068316, -9961.390192674422, -187500.02235174447, -19576.887139902967, -5258.538455788906, 28813.767887803067, -39776.471528586335, -187500.02235174447, -8639.575080820929, -40158.82046923882, -86568.82036552673, -5490.37074927935, 0.198, 0.968, 0.188, 192.0, 0.0, 0.0, 0.0, 0.0, 0.0, 0.0, 0.0, 0.0, 0.0, 1.695336425711378E9, 0.0, 2023-09-21 17:47:05.711
152.0, 9212.293828999262, 16666.645308333078, -187500.02235174447, -51661.341090362206, 11751.764923544517, -9964.340622942522, -187500.02235174447, -19581.06691611611, -5261.75710699047, 28797.965204473163, -39783.15470017847, -187500.02235174447, -8641.184406421711, -40157.56877154932, -86505.27435604029, -5489.901362645789, 0.20400000000000001, 0.974, 0.184, 192.0, 3.0, 48.0, 15.0, 56.0, 2.5, 96.0, 0.0, 0.0, 0.0, 1.695336425711391E9, 0.0, 2023-09-21 17:47:05.711
154.0, 9224.296715771761, 16671.897968280075, -187500.02235174447, -51643.37028782014, 11778.721127357618, -9954.036468748625, -187500.02235174447, -19567.119427576, -5271.144839661699, 28802.7484777866, -39788.45206361438, -187500.02235174447, -8641.094999443889, -40159.40161459465, -86455.11704148258, -5489.364920778861, 0.20400000000000001, 0.974, 0.184, 192.0, 0.0, 0.0, 0.0, 0.0, 0.0, 0.0, 0.0, 0.0, 0.0, 1.695336425711395E9, 0.0, 2023-09-21 17:47:05.711
156.0, 9227.11303557313, 16683.051488763274, -187500.02235174447, -51642.40916280856, 11749.08271420988, -9954.77407631565, -187500.02235174447, -19573.847302657046, -5258.069069155344, 28806.97295748865, -39770.34715060558, -187500.02235174447, -8629.449740582675, -40144.94003593207, -86378.38350276751, -5475.238618283108, 0.20400000000000001, 0.974, 0.184, 192.0, 0.0, 0.0, 0.0, 0.0, 0.0, 0.0, 0.0, 0.0, 0.0, 1.695336425711398E9, 0.0, 2023-09-21 17:47:05.711
158.0, 9244.972079392921, 16693.35564295717, -187500.02235174447, -51635.45777028296, 11782.006833792548, -9953.030640248136, -187500.02235174447, -19566.24770954224, -5279.660854299171, 28807.7999720335, -39774.8398512411, -187500.02235174447, -8631.32728711692, -40158.14991690516, -86327.04154575367, -5490.840135912912, 0.20400000000000001, 0.974, 0.184, 192.0, 0.0, 0.0, 0.0, 0.0, 0.0, 0.0, 0.0, 0.0, 0.0, 1.695336425711402E9, 0.0, 2023-09-21 17:47:05.711
160.0, 9252.146989363073, 16707.861925108664, -187500.02235174447, -51642.27505234183, 11744.388847874267, -9958.283300195135, -187500.02235174447, -19569.265195043707, -5239.360659046252, 28823.356786174394, -39753.87391494202, -187500.02235174447, -8618.407978821753, -40154.50658255894, -86243.93775986884, -5486.123917832842, 0.20400000000000001, 0.974, 0.184, 192.0, 0.0, 0.0, 0.0, 0.0, 0.0, 0.0, 0.0, 0.0, 0.0, 1.695336425711405E9, 0.0, 2023-09-21 17:47:05.711
162.0, 9270.7883442388, 16720.244791536905, -187500.02235174447, -51637.38002030612, 11772.105010998846, -9956.11518098297, -187500.02235174447, -19561.665601928904, -5236.1196561002325, 28826.664844353778, -39744.35207180406, -187500.02235174447, -8616.150452631766, -40151.1761726351, -86200.6424308589, -5486.436842255216, 0.198, 0.982, 0.188, 192.0, 3.0, 24.0, 15.0, 88.0, 2.5, 112.0, 0.0, 0.0, 0.0, 1.695336425711408E9, 0.0, 2023-09-21 17:47:05.711
164.0, 9267.614396526145, 16718.523707213844, -187500.02235174447, -51643.996136664886, 11746.355801386333, -9954.148227470903, -187500.02235174447, -19551.897889601933, -5241.75229570297, 28831.448117667213, -39742.96626364783, -187500.02235174447, -8620.531394545007, -40154.14895464766, -86103.63585992287, -5494.014083625565, 0.198, 0.982, 0.188, 192.0, 0.0, 0.0, 0.0, 0.0, 0.0, 0.0, 0.0, 0.0, 0.0, 1.695336425771767E9, 0.0, 2023-09-21 17:47:05.771
166.0, 9282.523010077835, 16734.594611477212, -187500.02235174447, -51631.99324989239, 11780.933950058694, -9948.426180890345, -187500.02235174447, -19547.53929943315, -5236.589042733794, 28823.714414085676, -39716.68061216839, -187500.02235174447, -8613.848222952869, -40142.54839927535, -86091.5212144281, -5479.932484618722, 0.198, 0.982, 0.188, 192.0, 0.0, 0.0, 0.0, 0.0, 0.0, 0.0, 0.0, 0.0, 0.0, 1.695336425771798E9, 0.0, 2023-09-21 17:47:05.771
168.0, 9276.420983841537, 16732.851175409698, -187500.02235174447, -51647.773581477835, 11758.962185259126, -9965.25704446519, -187500.02235174447, -19566.381820008974, -5231.649307209171, 28846.28967598554, -39715.76419064572, -187500.02235174447, -8624.532356802507, -40154.61834128122, -85995.27460280355, -5496.964513893666, 0.198, 0.982, 0.188, 192.0, 0.0, 0.0, 0.0, 0.0, 0.0, 0.0, 0.0, 0.0, 0.0, 1.695336425771809E9, 0.0, 2023-09-21 17:47:05.771
170.0, 9281.494829832893, 16740.160195846584, -187500.02235174447, -51643.37028782014, 11772.932025543694, -9965.16763748737, -187500.02235174447, -19560.995049595243, -5234.040943865889, 28817.500629127102, -39715.495969712254, -187500.02235174447, -8631.595508050385, -40158.1275651607, -85978.06375957296, -5505.905211675788, 0.198, 0.982, 0.188, 192.0, 0.0, 0.0, 0.0, 0.0, 0.0, 0.0, 0.0, 0.0, 0.0, 1.695336425771813E9, 0.0, 2023-09-21 17:47:05.771
172.0, 9290.681396804022, 16761.21553912348, -187500.02235174447, -51626.91940390103, 11750.781446788484, -9950.415486146867, -187500.02235174447, -19542.465453441793, -5230.151740330665, 28840.47822242716, -39695.24528923575, -187500.02235174447, -8624.130025402312, -40144.76122197643, -85884.25348809404, -5497.456252271682, 0.202, 0.976, 0.186, 192.0, 3.0, 40.0, 15.0, 64.0, 2.5, 104.0, 0.0, 0.0, 0.0, 1.695336425771817E9, 0.0, 2023-09-21 17:47:05.771
174.0, 9294.07886196123, 16763.853044969208, -187500.02235174447, -51613.26248803884, 11764.773638817507, -9933.20464291628, -187500.02235174447, -19520.359578175496, -5216.025437834912, 28839.42769043776, -39676.358065171014, -187500.02235174447, -8608.953190917158, -40125.4716665115, -85899.60913653483, -5473.428126982228, 0.202, 0.976, 0.186, 192.0, 0.0, 0.0, 0.0, 0.0, 0.0, 0.0, 0.0, 0.0, 0.0, 1.695336425771821E9, 0.0, 2023-09-21 17:47:05.771
176.0, 9291.217838670951, 16753.638297753132, -187500.02235174447, -51626.450017267474, 11750.982612488582, -9937.183253429324, -187500.02235174447, -19525.701645100315, -5222.708609427048, 28852.592867921936, -39683.4659199078, -187500.02235174447, -8606.740368216082, -40132.19954159255, -85834.67731889217, -5471.192952536697, 0.202, 0.976, 0.186, 192.0, 0.0, 0.0, 0.0, 0.0, 0.0, 0.0, 0.0, 0.0, 0.0, 1.695336425771824E9, 0.0, 2023-09-21 17:47:05.771
178.0, 9283.484135089415, 16739.288477812825, -187500.02235174447, -51643.727915731426, 11766.695888840663, -9945.721619811251, -187500.02235174447, -19539.62678189597, -5216.65128667966, 28829.503515899603, -39693.65831537942, -187500.02235174447, -8611.903621185258, -40144.44829755405, -85828.7094031226, -5479.150173562786, 0.202, 0.976, 0.186, 192.0, 0.0, 0.0, 0.0, 0.0, 0.0, 0.0, 0.0, 0.0, 0.0, 1.695336425771828E9, 0.0, 2023-09-21 17:47:05.771
180.0, 9284.378204867626, 16739.511995257377, -187500.02235174447, -51651.41691582405, 11761.644394593763, -9943.084113965526, -187500.02235174447, -19537.570421406082, -5231.269327553431, 28838.22069623717, -39709.41629522041, -187500.02235174447, -8627.303973114966, -40159.222800639014, -85722.42685823761, -5490.728377190635, 0.202, 0.976, 0.186, 192.0, 0.0, 0.0, 0.0, 0.0, 0.0, 0.0, 0.0, 0.0, 0.0, 1.695336425830605E9, 0.0, 2023-09-21 17:47:05.830
182.0, 9274.252864629372, 16732.82882366524, -187500.02235174447, -51649.40525882307, 11767.634662107786, -9934.836320261516, -187500.02235174447, -19536.29637197213, -5221.41220824864, 28814.66195758128, -39701.50377768323, -187500.02235174447, -8614.429368308707, -40146.03527141038, -85712.43562846609, -5482.346473019895, 0.2, 0.978, 0.194, 192.0, 3.0, 32.0, 15.0, 72.0, 3.0, 8.0, 0.0, 0.0, 0.0, 1.695336425830615E9, 0.0, 2023-09-21 17:47:05.830
184.0, 9279.438469343004, 16733.78994867682, -187500.02235174447, -51656.714279259955, 11749.216824676612, -9936.356238884478, -187500.02235174447, -19539.090340029044, -5247.22847309452, 28818.03707099403, -39725.151923316946, -187500.02235174447, -8634.635345296305, -40166.01773095343, -85608.8576446602, -5501.680731973735, 0.2, 0.978, 0.194, 192.0, 0.0, 0.0, 0.0, 0.0, 0.0, 0.0, 0.0, 0.0, 0.0, 1.695336425830618E9, 0.0, 2023-09-21 17:47:05.830
186.0, 9291.59781832669, 16758.13099838865, -187500.02235174447, -51634.139017360096, 11758.336336414379, -9926.879099235428, -187500.02235174447, -19521.566572376083, -5216.897155868668, 28815.354861659394, -39692.85365257903, -187500.02235174447, -8619.078531155412, -40133.22772183749, -85579.57685942375, -5480.334816018917, 0.2, 0.978, 0.194, 192.0, 0.0, 0.0, 0.0, 0.0, 0.0, 0.0, 0.0, 0.0, 0.0, 1.695336425830622E9, 0.0, 2023-09-21 17:47:05.830
188.0, 9297.453975373981, 16750.643163996123, -187500.02235174447, -51647.79593322229, 11756.235272435579, -9959.937329284827, -187500.02235174447, -19547.427540710873, -5232.766894431937, 28851.207059765704, -39701.101446283035, -187500.02235174447, -8631.841377239392, -40153.29958835836, -85490.12517811361, -5507.112205876375, 0.2, 0.978, 0.194, 192.0, 0.0, 0.0, 0.0, 0.0, 0.0, 0.0, 0.0, 0.0, 0.0, 1.695336425830625E9, 0.0, 2023-09-21 17:47:05.830
190.0, 9310.015655757863, 16773.732516018452, -187500.02235174447, -51617.285802040795, 11750.624984577296, -9938.367895885456, -187500.02235174447, -19527.66859861238, -5213.589097689283, 28825.614312364378, -39679.28614369466, -187500.02235174447, -8614.854051453358, -40136.82635269479, -85450.80845961672, -5499.557316250482, 0.2, 0.978, 0.194, 192.0, 0.0, 0.0, 0.0, 0.0, 0.0, 0.0, 0.0, 0.0, 0.0, 1.695336425830629E9, 0.0, 2023-09-21 17:47:05.830
192.0, 9313.45782440398, 16774.291309629836, -187500.02235174447, -51619.56567997524, 11771.143885987269, -9946.861558778472, -187500.02235174447, -19534.463528926794, -5193.718396868515, 28868.261440785103, -39665.20454468782, -187500.02235174447, -8605.578077504406, -40125.42696302259, -85405.52382535028, -5485.967455621655, 0.21, 0.972, 0.196, 192.0, 3.0, 72.0, 15.0, 48.0, 3.0, 16.0, 0.0, 0.0, 0.0, 1.695336425830632E9, 0.0, 2023-09-21 17:47:05.830
194.0, 9283.126507178129, 16746.709256971986, -187500.02235174447, -51638.9893459069, 11738.555042571432, -9962.440724663822, -187500.02235174447, -19540.520851674184, -5214.594926189772, 28844.836812595942, -39682.70596059632, -187500.02235174447, -8621.693685256683, -40144.94003593207, -85362.09438587361, -5500.607848239881, 0.21, 0.972, 0.196, 192.0, 0.0, 0.0, 0.0, 0.0, 0.0, 0.0, 0.0, 0.0, 0.0, 1.69533642589087E9, 0.0, 2023-09-21 17:47:05.890
196.0, 9295.88935326211, 16754.04062915333, -187500.02235174447, -51631.68032547001, 11755.430609635188, -9952.695364081308, -187500.02235174447, -19529.143813746432, -5238.89127241269, 28846.624952152368, -39698.39688520395, -187500.02235174447, -8628.130987659812, -40154.46187907003, -85298.57072813163, -5505.480528531138, 0.21, 0.972, 0.196, 192.0, 0.0, 0.0, 0.0, 0.0, 0.0, 0.0, 0.0, 0.0, 0.0, 1.695336425890885E9, 0.0, 2023-09-21 17:47:05.890
198.0, 9284.177039167529, 16746.97747790545, -187500.02235174447, -51633.82609293772, 11738.89031873826, -9947.219186689757, -187500.02235174447, -19526.081624756054, -5214.259650022942, 28835.471431669168, -39689.85851882202, -187500.02235174447, -8623.973563191124, -40147.398727822154, -85251.7214717533, -5489.633141712326, 0.21, 0.972, 0.196, 192.0, 0.0, 0.0, 0.0, 0.0, 0.0, 0.0, 0.0, 0.0, 0.0, 1.695336425890889E9, 0.0, 2023-09-21 17:47:05.890
200.0, 9293.11773694965, 16743.959992403983, -187500.02235174447, -51633.93785166, 11758.559853858931, -9948.247366934702, -187500.02235174447, -19532.518927159184, -5220.384028003697, 28837.75130960361, -39702.91193758392, -187500.02235174447, -8635.395304607786, -40164.16253616363, -85192.13172103545, -5497.27743831604, 0.21, 0.972, 0.196, 192.0, 0.0, 0.0, 0.0, 0.0, 0.0, 0.0, 0.0, 0.0, 0.0, 1.695336425890892E9, 0.0, 2023-09-21 17:47:05.890
202.0, 9288.557981080769, 16751.626640752154, -187500.02235174447, -51626.40531377856, 11737.169234415202, -9930.969468470748, -187500.02235174447, -19510.323644915065, -5213.007952333445, 28824.116745485873, -39689.41148393291, -187500.02235174447, -8617.335095087898, -40144.78357372088, -85149.48459261472, -5484.313426531962, 0.212, 0.968, 0.19, 192.0, 3.0, 80.0, 15.0, 32.0, 2.5, 120.0, 0.0, 0.0, 0.0, 1.695336425890896E9, 0.0, 2023-09-21 17:47:05.890
204.0, 9296.246981173395, 16746.441036038523, -187500.02235174447, -51631.68032547001, 11752.99426948956, -9943.508797110177, -187500.02235174447, -19524.62876136646, -5212.940897100079, 28831.02343452256, -39692.13839675646, -187500.02235174447, -8621.939554445691, -40149.432736567585, -85121.74607774569, -5488.426147511738, 0.212, 0.968, 0.19, 192.0, 0.0, 0.0, 0.0, 0.0, 0.0, 0.0, 0.0, 0.0, 0.0, 1.695336425890899E9, 0.0, 2023-09-21 17:47:05.890
206.0, 9276.108059419163, 16733.87935565464, -187500.02235174447, -51646.18660762151, 11714.83984170435, -9953.25415769269, -187500.02235174447, -19540.1632237629, -5228.944746130079, 28823.51324838558, -39716.23357727928, -187500.02235174447, -8639.753894776572, -40161.21210589554, -85040.13985873936, -5510.2414501001185, 0.212, 0.968, 0.19, 192.0, 0.0, 0.0, 0.0, 0.0, 0.0, 0.0, 0.0, 0.0, 0.0, 1.695336425890902E9, 0.0, 2023-09-21 17:47:05.890
208.0, 9296.045815473297, 16748.117416872672, -187500.02235174447, -51636.46359878345, 11744.612365318819, -9944.089942466015, -187500.02235174447, -19527.82506082357, -5238.265423567942, 28820.875742539854, -39722.782638404686, -187500.02235174447, -8647.37583963583, -40159.938056461586, -84992.5082913051, -5515.427054813749, 0.212, 0.968, 0.19, 192.0, 0.0, 0.0, 0.0, 0.0, 0.0, 0.0, 0.0, 0.0, 0.0, 1.695336425890906E9, 0.0, 2023-09-21 17:47:05.890
210.0, 9311.982609269931, 16773.240777640436, -187500.02235174447, -51618.31398228574, 11743.092446695859, -9926.409712601866, -187500.02235174447, -19508.66961582537, -5208.738769142481, 28844.255667240104, -39688.09273101005, -187500.02235174447, -8620.889022456291, -40132.579521248284, -84930.72806963064, -5490.728377190635, 0.212, 0.968, 0.19, 192.0, 0.0, 0.0, 0.0, 0.0, 0.0, 0.0, 0.0, 0.0, 0.0, 1.695336425951149E9, 0.0, 2023-09-21 17:47:05.951
212.0, 9303.801870799289, 16750.30788782929, -187500.02235174447, -51632.93202315951, 11773.513170899532, -9948.53793961262, -187500.02235174447, -19527.690950356835, -5213.902022111657, 28840.455870682705, -39692.5183764122, -187500.02235174447, -8632.064894683945, -40145.588236521275, -84911.32675544343, -5501.0325313845315, 0.21, 0.972, 0.194, 192.0, 3.0, 72.0, 15.0, 48.0, 3.0, 8.0, 0.0, 0.0, 0.0, 1.695336425951161E9, 0.0, 2023-09-21 17:47:05.951
214.0, 9300.40440564208, 16763.674231013567, -187500.02235174447, -51621.35381953166, 11742.757170529028, -9934.72456153924, -187500.02235174447, -19514.190496705833, -5210.12457729871, 28845.194440507228, -39693.88183282397, -187500.02235174447, -8630.299106871977, -40146.61641676622, -84819.75165841004, -5507.045150643009, 0.21, 0.972, 0.194, 192.0, 0.0, 0.0, 0.0, 0.0, 0.0, 0.0, 0.0, 0.0, 0.0, 1.695336425951165E9, 0.0, 2023-09-21 17:47:05.951
216.0, 9287.216876413451, 16744.69759997101, -187500.02235174447, -51622.49375849888, 11771.210941220636, -9933.91989873885, -187500.02235174447, -19515.062214739588, -5206.995333074968, 28846.28967598554, -39684.13647224146, -187500.02235174447, -8620.419635822731, -40135.28408232738, -84821.49509447755, -5493.097662102898, 0.21, 0.972, 0.194, 192.0, 0.0, 0.0, 0.0, 0.0, 0.0, 0.0, 0.0, 0.0, 0.0, 1.695336425951169E9, 0.0, 2023-09-21 17:47:05.951
218.0, 9263.389916824093, 16723.083463082727, -187500.02235174447, -51633.98255514891, 11748.009830476027, -9942.234747676224, -187500.02235174447, -19526.52865964516, -5235.8290834223135, 28846.64730389682, -39703.38132421748, -187500.02235174447, -8632.757798762059, -40145.65529175464, -84739.95593070459, -5504.497051775104, 0.21, 0.972, 0.194, 192.0, 0.0, 0.0, 0.0, 0.0, 0.0, 0.0, 0.0, 0.0, 0.0, 1.695336425951172E9, 0.0, 2023-09-21 17:47:05.951
220.0, 9254.87390218662, 16712.26521876636, -187500.02235174447, -51636.4859505279, 11761.286766682479, -9947.979146001238, -187500.02235174447, -19536.25166848322, -5243.585138748305, 28820.831039050943, -39718.647565680454, -187500.02235174447, -8645.610051823862, -40154.73010000349, -84733.42922132365, -5516.030551914043, 0.21, 0.972, 0.194, 192.0, 0.0, 0.0, 0.0, 0.0, 0.0, 0.0, 0.0, 0.0, 0.0, 1.695336425951176E9, 0.0, 2023-09-21 17:47:05.951
222.0, 9249.822407939722, 16707.705462897477, -187500.02235174447, -51641.67155524153, 11742.935984484671, -9947.48740762322, -187500.02235174447, -19540.945534818835, -5250.290662084897, 28830.41993742227, -39724.77194366121, -187500.02235174447, -8654.61780483935, -40157.45701282704, -84621.4246298581, -5524.613621784881, 0.21, 0.97, 0.198, 192.0, 3.0, 72.0, 15.0, 40.0, 3.0, 24.0, 0.0, 0.0, 0.0, 1.69533642595118E9, 0.0, 2023-09-21 17:47:05.951
224.0, 9235.78551242179, 16692.036890034306, -187500.02235174447, -51648.44413381149, 11747.004001975538, -9953.857654792984, -187500.02235174447, -19543.359523220006, -5241.75229570297, 28790.343259613903, -39729.15288557445, -187500.02235174447, -8646.28060415752, -40158.440489583074, -84618.13892342316, -5524.054828173498, 0.21, 0.97, 0.198, 192.0, 0.0, 0.0, 0.0, 0.0, 0.0, 0.0, 0.0, 0.0, 0.0, 1.695336426011405E9, 0.0, 2023-09-21 17:47:06.011
226.0, 9247.542530005281, 16706.006730318873, -187500.02235174447, -51634.11666561564, 11754.693002068163, -9939.3960761304, -187500.02235174447, -19529.412034679895, -5256.146819132187, 28823.26737919657, -39736.95364438935, -187500.02235174447, -8651.779133293527, -40164.050777441356, -84520.01476526436, -5529.218081142674, 0.21, 0.97, 0.198, 192.0, 0.0, 0.0, 0.0, 0.0, 0.0, 0.0, 0.0, 0.0, 0.0, 1.695336426011418E9, 0.0, 2023-09-21 17:47:06.011
228.0, 9225.30254427225, 16682.69386085199, -187500.02235174447, -51657.60834903817, 11766.718240585118, -9966.754611343697, -187500.02235174447, -19551.361447735006, -5260.885388956713, 28821.881571040343, -39733.15384783195, -187500.02235174447, -8647.040563469001, -40163.693149530074, -84518.0478117523, -5529.218081142674, 0.21, 0.97, 0.198, 192.0, 0.0, 0.0, 0.0, 0.0, 0.0, 0.0, 0.0, 0.0, 0.0, 1.695336426011422E9, 0.0, 2023-09-21 17:47:06.011
230.0, 9249.889463173087, 16707.616055919654, -187500.02235174447, -51636.19537784999, 11769.020470264015, -9945.274584922146, -187500.02235174447, -19536.09520627203, -5260.259540111964, 28831.738690345133, -39742.96626364783, -187500.02235174447, -8658.417601396752, -40175.517222346934, -84414.29101399076, -5543.187921427241, 0.21, 0.97, 0.198, 192.0, 0.0, 0.0, 0.0, 0.0, 0.0, 0.0, 0.0, 0.0, 0.0, 1.695336426011426E9, 0.0, 2023-09-21 17:47:06.011
232.0, 9239.562957234735, 16704.375052973635, -187500.02235174447, -51634.29547957129, 11770.071002253415, -9945.900433766894, -187500.02235174447, -19535.983447549756, -5234.867958410735, 28821.769812318067, -39719.89926336995, -187500.02235174447, -8635.037676696502, -40155.11007965924, -84399.91884230601, -5526.133540407842, 0.22, 0.978, 0.194, 192.0, 3.0, 112.0, 15.0, 72.0, 3.0, 8.0, 0.0, 0.0, 0.0, 1.695336426011429E9, 0.0, 2023-09-21 17:47:06.011
234.0, 9231.941012375477, 16692.52862841232, -187500.02235174447, -51643.146770375584, 11784.554932660454, -9947.018020989659, -187500.02235174447, -19531.62485738097, -5251.408249307662, 28837.17016424777, -39736.21603682233, -187500.02235174447, -8638.435141853708, -40163.53668731888, -84324.23583558033, -5534.984831212143, 0.22, 0.978, 0.194, 192.0, 0.0, 0.0, 0.0, 0.0, 0.0, 0.0, 0.0, 0.0, 0.0, 1.695336426011432E9, 0.0, 2023-09-21 17:47:06.011
236.0, 9232.388047264581, 16699.144744771093, -187500.02235174447, -51638.87758718462, 11796.423708966222, -9945.028715733137, -187500.02235174447, -19528.585020135048, -5262.47236281304, 28806.078887710442, -39729.73403093029, -187500.02235174447, -8639.128045931822, -40157.389957593674, -84299.96184110187, -5529.933336965244, 0.22, 0.978, 0.194, 192.0, 0.0, 0.0, 0.0, 0.0, 0.0, 0.0, 0.0, 0.0, 0.0, 1.695336426011436E9, 0.0, 2023-09-21 17:47:06.011
238.0, 9263.12169589063, 16708.21955301995, -187500.02235174447, -51634.74251446039, 11799.083566556403, -9949.811989046573, -187500.02235174447, -19532.653037625914, -5251.721173730037, 28833.12449850136, -39728.638795451974, -187500.02235174447, -8649.23103442562, -40170.51043158894, -84206.64330800096, -5542.249148160118, 0.22, 0.978, 0.194, 192.0, 0.0, 0.0, 0.0, 0.0, 0.0, 0.0, 0.0, 0.0, 0.0, 1.695336426011439E9, 0.0, 2023-09-21 17:47:06.011
240.0, 9257.176131865517, 16709.761823387365, -187500.02235174447, -51639.95047091848, 11774.362537188834, -9953.321212926056, -187500.02235174447, -19542.756026119714, -5233.973888632523, 28810.616291834867, -39711.53971094367, -187500.02235174447, -8637.563423819951, -40153.009015680436, -84184.58213622357, -5538.806979514001, 0.22, 0.978, 0.194, 192.0, 0.0, 0.0, 0.0, 0.0, 0.0, 0.0, 0.0, 0.0, 0.0, 1.695336426071935E9, 0.0, 2023-09-21 17:47:06.071
242.0, 9284.489963589904, 16734.05816961028, -187500.02235174447, -51629.62396498013, 11791.103993785859, -9941.720657553751, -187500.02235174447, -19534.664694626892, -5245.149760860177, 28832.47629791216, -39712.500835955245, -187500.02235174447, -8642.436104111208, -40156.004149437445, -84117.83982728003, -5544.663136561291, 0.20800000000000002, 0.972, 0.188, 192.0, 3.0, 64.0, 15.0, 48.0, 2.5, 112.0, 0.0, 0.0, 0.0, 1.695336426071949E9, 0.0, 2023-09-21 17:47:06.071
244.0, 9275.079879174218, 16731.688884698022, -187500.02235174447, -51632.529691759315, 11782.163296003735, -9949.432009390834, -187500.02235174447, -19538.598601651025, -5209.275211009409, 28837.483088670146, -39693.09952176804, -187500.02235174447, -8632.936612717702, -40143.017785908916, -84090.83891997802, -5529.799226498512, 0.20800000000000002, 0.972, 0.188, 192.0, 0.0, 0.0, 0.0, 0.0, 0.0, 0.0, 0.0, 0.0, 0.0, 1.695336426071953E9, 0.0, 2023-09-21 17:47:06.071
246.0, 9292.22366717144, 16743.088274370228, -187500.02235174447, -51631.85913942566, 11799.284732256501, -9943.77701804364, -187500.02235174447, -19529.76966259118, -5224.161472816643, 28843.94274281773, -39705.21416726281, -187500.02235174447, -8643.039601211502, -40160.58625705079, -84037.84293387449, -5542.807941771501, 0.20800000000000002, 0.972, 0.188, 192.0, 0.0, 0.0, 0.0, 0.0, 0.0, 0.0, 0.0, 0.0, 0.0, 1.695336426071956E9, 0.0, 2023-09-21 17:47:06.071
248.0, 9273.69407101799, 16717.316713013257, -187500.02235174447, -51653.585035036216, 11776.41889767872, -9961.904282796893, -187500.02235174447, -19549.0145145672, -5215.623106434716, 28831.22460022266, -39704.00717306223, -187500.02235174447, -8641.94436573319, -40155.42300408161, -84000.51552063413, -5543.120866193875, 0.20800000000000002, 0.972, 0.188, 192.0, 0.0, 0.0, 0.0, 0.0, 0.0, 0.0, 0.0, 0.0, 0.0, 1.69533642607196E9, 0.0, 2023-09-21 17:47:06.071
250.0, 9298.593914341202, 16738.863794668174, -187500.02235174447, -51636.62006099464, 11785.449002438665, -9950.68370708033, -187500.02235174447, -19538.598601651025, -5236.700801456071, 28825.815478064476, -39727.811780907134, -187500.02235174447, -8664.184351466221, -40180.27814391591, -83917.38938300483, -5567.573674627981, 0.20800000000000002, 0.972, 0.188, 192.0, 0.0, 0.0, 0.0, 0.0, 0.0, 0.0, 0.0, 0.0, 0.0, 1.695336426071963E9, 0.0, 2023-09-21 17:47:06.071
