%OpenBCI Raw EXG Data
%Number of channels = 16
%Sample Rate = 125 Hz
%Board = OpenBCI_GUI$BoardCytonSerialDaisy
Sample Index, EXG Channel 0, EXG Channel 1, EXG Channel 2, EXG Channel 3, EXG Channel 4, EXG Channel 5, EXG Channel 6, EXG Channel 7, EXG Channel 8, EXG Channel 9, EXG Channel 10, EXG Channel 11, EXG Channel 12, EXG Channel 13, EXG Channel 14, EXG Channel 15, Accel Channel 0, Accel Channel 1, Accel Channel 2, Other, Other, Other, Other, Other, Other, Other, Analog Channel 0, Analog Channel 1, Analog Channel 2, Timestamp, Other, Timestamp (Formatted)
12.0, 25393.88393090772, 19375.028535727088, -53715.91344069403, -28053.585058878074, -33924.6060162313, -33047.81413648297, -187500.02235174447, -48621.66030665163, -23972.961184139396, -27291.904663074576, -57176.343462031306, -65237.38834111552, -29631.99819707849, -53841.35143057721, -48784.1127853528, -32232.400147008917, 0.0, 0.0, 0.0, 192.0, 0.0, 0.0, 0.0, 0.0, 0.0, 0.0, 0.0, 0.0, 0.0, 1.695337880191646E9, 0.0, 2023-09-21 18:11:20.191
14.0, 25416.570951529855, 19381.756410808135, -53729.2797838783, -28053.965038533814, -33950.19876363263, -33042.40501432479, -187500.02235174447, -48627.538815443375, -23997.592806529145, -27300.93476783452, -57205.51248854548, -65262.66816409447, -29585.461865122543, -53747.02706897582, -48736.682383618645, -32169.88231776742, 0.0, 0.0, 0.0, 192.0, 0.0, 0.0, 0.0, 0.0, 0.0, 0.0, 0.0, 0.0, 0.0, 1.695337880191655E9, 0.0, 2023-09-21 18:11:20.191
16.0, 25372.5380149529, 19385.042117243065, -53709.118510379616, -28041.35865466102, -33926.01417613199, -33034.067813642956, -187500.02235174447, -48609.25508847894, -23973.519977750777, -27286.473189171935, -57175.09176434181, -65232.761530013275, -29637.697891914595, -53828.27566007086, -48781.22941031807, -32225.00171959421, -0.031, 0.506, 0.041, 192.0, 127.0, 8.0, 15.5, 80.0, 1.0, 72.0, 0.0, 0.0, 0.0, 1.695337880191659E9, 0.0, 2023-09-21 18:11:20.191
18.0, 25416.347434085303, 19381.912873019322, -53727.17871989951, -28057.11663450201, -33947.27068510898, -33051.65863652928, -187500.02235174447, -48633.5290829574, -23985.299347078722, -27288.328383961725, -57191.18502034963, -65249.36887614356, -29574.50951033944, -53756.81713304724, -48733.329621950346, -32179.22534694974, -0.031, 0.506, 0.041, 192.0, 0.0, 0.0, 0.0, 0.0, 0.0, 0.0, 0.0, 0.0, 0.0, 1.695337880191662E9, 0.0, 2023-09-21 18:11:20.191
20.0, 25361.45154970307, 19382.091686974967, -53715.71227499393, -28050.20994546532, -33934.083155880355, -33043.45554631419, -187500.02235174447, -48620.29685023986, -23971.195396327425, -27292.441104941503, -57173.616549207756, -65234.706131780884, -29642.034130338925, -53827.470997270466, -48791.44415753415, -32232.467202242282, -0.031, 0.506, 0.041, 192.0, 0.0, 0.0, 0.0, 0.0, 0.0, 0.0, 0.0, 0.0, 0.0, 1.695337880191666E9, 0.0, 2023-09-21 18:11:20.191
22.0, 25420.817782976366, 19385.444448643262, -53721.836652974685, -28054.233259467277, -33942.21919086209, -33052.12802316285, -187500.02235174447, -48625.84008286477, -23991.04374540374, -27292.77638110833, -57199.92455243165, -65258.77896055925, -29586.87002502323, -53761.28748193831, -48743.946700566616, -32183.8968615409, -0.031, 0.506, 0.041, 192.0, 0.0, 0.0, 0.0, 0.0, 0.0, 0.0, 0.0, 0.0, 0.0, 1.695337880191669E9, 0.0, 2023-09-21 18:11:20.191
24.0, 25352.19792749857, 19396.441506915275, -53697.0709201182, -28031.367424889497, -33926.97530114357, -33030.53623801902, -187500.02235174447, -48602.05782676433, -23965.763922424787, -27284.752104848874, -57165.25699678147, -65229.58758230062, -29636.222676780544, -53824.56527049128, -48791.22064008959, -32229.42736499636, -0.031, 0.506, 0.041, 192.0, 0.0, 0.0, 0.0, 0.0, 0.0, 0.0, 0.0, 0.0, 0.0, 1.695337880191672E9, 0.0, 2023-09-21 18:11:20.191
26.0, 25424.908152211687, 19394.78747782558, -53714.929963938, -28048.153584975433, -33928.51757151098, -33050.4516423287, -187500.02235174447, -48628.0752573103, -23978.4597132754, -27275.274965199827, -57184.01011037947, -65244.11621619657, -29577.035257462892, -53787.908409584576, -48737.91172956368, -32194.04455352361, -0.0475, 0.759, 0.057499999999999996, 192.0, 127.0, 0.0, 15.5, 80.0, 1.0, 40.0, 0.0, 0.0, 0.0, 1.695337880191676E9, 0.0, 2023-09-21 18:11:20.191
28.0, 25341.53614539339, 19409.293759977074, -53682.74345192235, -28013.866008980993, -33920.24742606252, -33014.06300235546, -187500.02235174447, -48585.0705009783, -23954.990381597327, -27277.756008834363, -57150.88482509671, -65217.584695528116, -29623.1916097631, -53833.550671762314, -48784.17984058617, -32232.71307143129, -0.0475, 0.759, 0.057499999999999996, 192.0, 0.0, 0.0, 0.0, 0.0, 0.0, 0.0, 0.0, 0.0, 0.0, 1.695337880191679E9, 0.0, 2023-09-21 18:11:20.191
0.0, 12661.749143808978, 9757.207007075192, -26841.628771022413, -13986.447630697206, -17005.095422875336, -16518.78851876122, -93750.01117587223, -24313.71352836055, -11972.398993062854, -13626.428082755576, -28573.777207586434, -32605.74133464591, -14787.578855464322, -26932.7568331667, -24375.694915735116, -16120.636894778836, -0.064, 1.008, 0.07200000000000001, 192.0, 127.0, 0.0, 15.5, 64.0, 1.0, 32.0, 0.0, 0.0, 0.0, 1.695337880273062E9, 0.0, 2023-09-21 18:11:20.273
2.0, 25230.492678939427, 19517.990293263232, -53671.74639365034, -27956.757301897684, -34023.7807063795, -33019.96386289166, -187500.02235174447, -48608.83040533429, -23919.696977102398, -27240.138022916082, -57121.49228113798, -65129.4741188853, -29881.19779601071, -53713.96883892642, -48734.62602312875, -32357.949895614376, -0.064, 1.008, 0.07200000000000001, 192.0, 0.0, 0.0, 0.0, 0.0, 0.0, 0.0, 0.0, 0.0, 0.0, 1.695337880332913E9, 0.0, 2023-09-21 18:11:20.332
4.0, 25299.492514072957, 19520.761909575693, -53675.90381811903, -27969.96718287077, -33994.49992114305, -33041.04155791301, -187500.02235174447, -48629.28225151089, -23915.4948491448, -27225.363519831124, -57120.97819101551, -65126.926020017396, -29855.806214309483, -53753.6878888235, -48717.236365942525, -32371.293887054195, -0.064, 1.008, 0.07200000000000001, 192.0, 0.0, 0.0, 0.0, 0.0, 0.0, 0.0, 0.0, 0.0, 0.0, 1.695337880332929E9, 0.0, 2023-09-21 18:11:20.332
6.0, 25232.236115006937, 19520.85131655351, -53676.21674254141, -27959.551269954598, -34025.01005232454, -33029.44100254071, -187500.02235174447, -48626.30946949834, -23921.64157887001, -27236.494688569866, -57121.89461253818, -65131.530479375186, -29868.47965341564, -53704.558754510734, -48719.09156073232, -32345.4329187194, -0.064, 1.008, 0.07200000000000001, 192.0, 0.0, 0.0, 0.0, 0.0, 0.0, 0.0, 0.0, 0.0, 0.0, 1.695337880332936E9, 0.0, 2023-09-21 18:11:20.332
8.0, 25289.255415112428, 19518.705549085804, -53678.831896642674, -27977.075037607556, -33998.612642122825, -33045.48955505962, -187500.02235174447, -48634.19963529106, -23923.16149749297, -27228.179839632496, -57127.460196907545, -65134.30209568764, -29868.300839459996, -53749.55281609927, -48716.02937174194, -32365.77300617373, -0.068, 1.006, 0.062, 192.0, 126.5, 112.0, 15.5, 56.0, 0.5, 120.0, 0.0, 0.0, 0.0, 1.695337880332943E9, 0.0, 2023-09-21 18:11:20.332
10.0, 25235.879449353153, 19521.700682842813, -53681.223533299395, -27967.642601447416, -34027.55815119245, -33033.48666828712, -187500.02235174447, -48624.94601308656, -23919.607570124575, -27235.7794327473, -57122.00637126045, -65132.69277008686, -29863.67402835775, -53687.370263024604, -48709.614421083264, -32340.40377621696, -0.068, 1.006, 0.062, 192.0, 0.0, 0.0, 0.0, 0.0, 0.0, 0.0, 0.0, 0.0, 0.0, 1.695337880332949E9, 0.0, 2023-09-21 18:11:20.332
12.0, 25275.57614750578, 19517.990293263232, -53681.82703039969, -27978.505549252695, -33999.529063645496, -33051.59158129592, -187500.02235174447, -48639.496998726965, -23922.468593414855, -27235.757081002845, -57128.33191494131, -65138.571278878604, -29876.25806048609, -53748.2340631764, -48728.21107247008, -32376.233622578817, -0.068, 1.006, 0.062, 192.0, 0.0, 0.0, 0.0, 0.0, 0.0, 0.0, 0.0, 0.0, 0.0, 1.695337880332956E9, 0.0, 2023-09-21 18:11:20.332
14.0, 25235.499469697414, 19520.49368864223, -53684.15161182304, -27966.815586902572, -34034.822468140424, -33035.878304943835, -187500.02235174447, -48624.34251598627, -23919.629921869033, -27239.646284538067, -57125.515595139936, -65135.41968291041, -29851.849955540893, -53685.15744032353, -48716.78933105342, -32348.83038387661, -0.068, 1.006, 0.062, 192.0, 0.0, 0.0, 0.0, 0.0, 0.0, 0.0, 0.0, 0.0, 0.0, 1.695337880332962E9, 0.0, 2023-09-21 18:11:20.332
16.0, 25259.929926387063, 19508.401394891906, -53695.17102183951, -27986.82039819007, -34019.712688888634, -33062.40982561229, -187500.02235174447, -48645.174341818616, -23923.854401571083, -27240.54035431628, -57130.45533066456, -65138.1242439895, -29879.14143552082, -53758.71703132594, -48743.656127888695, -32389.644669252, -0.068, 1.006, 0.062, 192.0, 0.0, 0.0, 0.0, 0.0, 0.0, 0.0, 0.0, 0.0, 0.0, 1.695337880393192E9, 0.0, 2023-09-21 18:11:20.393
18.0, 25243.70255991251, 19515.9562845178, -53694.567524739214, -27970.458921248784, -34044.16549732274, -33039.655749756785, -187500.02235174447, -48630.93628060058, -23937.84659360011, -27246.642380552577, -57144.69339188259, -65154.1280930195, -29866.937383048225, -53665.912588347506, -48720.72323807755, -32336.268703492726, -0.066, 1.006, 0.07200000000000001, 192.0, 126.5, 120.0, 15.5, 56.0, 1.0, 32.0, 0.0, 0.0, 0.0, 1.695337880393209E9, 0.0, 2023-09-21 18:11:20.393
20.0, 25241.04270232233, 19512.402357149407, -53688.44314675846, -27976.069209107067, -34013.61066265233, -33053.93851446373, -187500.02235174447, -48641.106324327746, -23915.941884033906, -27230.30325535575, -57121.22406020452, -65132.82688055359, -29885.71284839068, -53759.11936272614, -48751.16631402568, -32393.019782664753, -0.066, 1.006, 0.07200000000000001, 192.0, 0.0, 0.0, 0.0, 0.0, 0.0, 0.0, 0.0, 0.0, 0.0, 1.695337880393216E9, 0.0, 2023-09-21 18:11:20.393
22.0, 25248.441129737035, 19530.887249813946, -53683.34694902265, -27961.495871722207, -34033.97310185112, -33034.626607254344, -187500.02235174447, -48629.46106546654, -23927.72125336185, -27234.59479029117, -57136.57970864531, -65147.13199700499, -29850.866478784857, -53680.307111776725, -48711.78254029543, -32348.629218176513, -0.066, 1.006, 0.07200000000000001, 192.0, 0.0, 0.0, 0.0, 0.0, 0.0, 0.0, 0.0, 0.0, 0.0, 1.695337880393222E9, 0.0, 2023-09-21 18:11:20.393
24.0, 25234.47128945247, 19513.564647861083, -53692.24294331586, -27982.05947662109, -34017.29870048746, -33055.72665402015, -187500.02235174447, -48643.22974005101, -23908.63286359702, -27225.408223320035, -57117.31250492484, -65124.333217660576, -29883.38826696733, -53769.06588900875, -48737.799970841406, -32403.07806766964, -0.066, 1.006, 0.07200000000000001, 192.0, 0.0, 0.0, 0.0, 0.0, 0.0, 0.0, 0.0, 0.0, 0.0, 1.695337880393228E9, 0.0, 2023-09-21 18:11:20.393
26.0, 25259.169967075584, 19512.44706063832, -53708.35855106814, -27982.417104532375, -34048.524087491525, -33050.22812488415, -187500.02235174447, -48645.979004619, -23952.01759958477, -27256.991238235383, -57166.754563659975, -65169.50609320475, -29862.221164968156, -53660.36935572259, -48700.316095389855, -32333.474735435815, -0.066, 1.006, 0.07200000000000001, 192.0, 0.0, 0.0, 0.0, 0.0, 0.0, 0.0, 0.0, 0.0, 0.0, 1.695337880393235E9, 0.0, 2023-09-21 18:11:20.393
28.0, 25210.018481018364, 19526.595714878527, -53676.21674254141, -27959.551269954598, -34005.69814511516, -33030.31272057447, -187500.02235174447, -48617.59228916077, -23907.850552541084, -27234.81830773572, -57115.4796618795, -65121.941581003855, -29902.409601498795, -53760.16989471554, -48759.12353505177, -32406.07320142665, -0.064, 1.01, 0.07200000000000001, 192.0, 127.0, 0.0, 15.5, 72.0, 1.0, 32.0, 0.0, 0.0, 0.0, 1.695337880393241E9, 0.0, 2023-09-21 18:11:20.393
30.0, 25261.114568843197, 19525.120499744477, -53695.10396660614, -27970.838900904528, -34026.440563969685, -33041.130964890835, -187500.02235174447, -48632.34444050127, -23925.284913216223, -27230.415014078026, -57136.87028132323, -65142.03579926918, -29841.94813274719, -53694.76869043931, -48699.71259828957, -32364.096625339585, -0.064, 1.01, 0.07200000000000001, 192.0, 0.0, 0.0, 0.0, 0.0, 0.0, 0.0, 0.0, 0.0, 0.0, 1.695337880393247E9, 0.0, 2023-09-21 18:11:20.393
32.0, 25204.050565248795, 19517.699720585315, -53691.86296366012, -27971.91178463838, -34022.81958136792, -33040.92979919074, -187500.02235174447, -48627.65057416565, -23918.199410223893, -27238.796918248765, -57122.94514452758, -65130.815223552614, -29890.652583915304, -53756.6383190916, -48750.49576169202, -32410.83412299563, -0.064, 1.01, 0.07200000000000001, 192.0, 0.0, 0.0, 0.0, 0.0, 0.0, 0.0, 0.0, 0.0, 0.0, 1.69533788045211E9, 0.0, 2023-09-21 18:11:20.452
34.0, 25269.80939743631, 19523.33236018805, -53704.49169927737, -27978.706714952794, -34034.06250882894, -33048.86466847237, -187500.02235174447, -48642.82740865081, -23937.243096499813, -27237.34405485917, -57146.03449654991, -65148.62956388349, -29846.44083338271, -53689.09134734766, -48704.33940939181, -32363.291962539195, -0.064, 1.01, 0.07200000000000001, 192.0, 0.0, 0.0, 0.0, 0.0, 0.0, 0.0, 0.0, 0.0, 0.0, 1.695337880452124E9, 0.0, 2023-09-21 18:11:20.452
36.0, 25193.612300588167, 19533.34594170403, -53674.786230896265, -27950.632923916928, -34016.3822789648, -33020.72382220314, -187500.02235174447, -48608.42807393409, -23921.73098584783, -27238.01460719283, -57120.66526659313, -65123.349740904545, -29901.515531720586, -53740.232138661406, -48748.908787835695, -32401.535797302226, -0.064, 1.01, 0.07200000000000001, 192.0, 0.0, 0.0, 0.0, 0.0, 0.0, 0.0, 0.0, 0.0, 0.0, 1.69533788045213E9, 0.0, 2023-09-21 18:11:20.452
38.0, 25274.65972598311, 19530.395511435927, -53693.606399727636, -27973.029371861147, -34017.58927316538, -33046.093052159915, -187500.02235174447, -48634.82548413581, -23925.86605857206, -27221.027281406794, -57131.952897543066, -65130.30113343014, -29839.109461201366, -53707.643295245565, -48685.76510974945, -32370.064541109154, -0.064, 1.012, 0.068, 192.0, 127.0, 0.0, 15.5, 80.0, 1.0, 16.0, 0.0, 0.0, 0.0, 1.695337880452137E9, 0.0, 2023-09-21 18:11:20.452
40.0, 25190.997146486898, 19547.740465133247, -53669.60062618263, -27943.793290113605, -34019.06448829943, -33014.06300235546, -187500.02235174447, -48605.90232681064, -23915.4948491448, -27231.778470489797, -57113.33389441179, -65116.487755356764, -29893.96064209469, -53731.693772279476, -48726.758209080486, -32386.627183750534, -0.064, 1.012, 0.068, 192.0, 0.0, 0.0, 0.0, 0.0, 0.0, 0.0, 0.0, 0.0, 0.0, 1.695337880452143E9, 0.0, 2023-09-21 18:11:20.452
42.0, 25270.8152259368, 19550.10975004551, -53679.614207698614, -27958.232517031734, -34000.57959563489, -33031.11738337486, -187500.02235174447, -48621.92852758509, -23907.11294497406, -27206.61040623312, -57112.842156033774, -65111.03392970967, -29831.755737275573, -53730.46442633444, -48682.47940331452, -32372.657343465966, -0.064, 1.012, 0.068, 192.0, 0.0, 0.0, 0.0, 0.0, 0.0, 0.0, 0.0, 0.0, 0.0, 1.695337880452149E9, 0.0, 2023-09-21 18:11:20.452
44.0, 25189.03019297483, 19539.62678189597, -53692.37705378259, -27960.177118799344, -34038.06347108644, -33033.374909564845, -187500.02235174447, -48626.95767008754, -23919.339349191112, -27233.58896179068, -57120.2852869374, -65122.3215606596, -29879.856691343393, -53726.12818791011, -48713.034237984924, -32372.41147427696, -0.064, 1.012, 0.068, 192.0, 0.0, 0.0, 0.0, 0.0, 0.0, 0.0, 0.0, 0.0, 0.0, 1.695337880452156E9, 0.0, 2023-09-21 18:11:20.452
46.0, 25277.81132195131, 19535.759930105203, -53707.35272256765, -27984.272299322165, -34026.03823256949, -33058.945305221714, -187500.02235174447, -48652.46101051105, -23927.453032428388, -27229.900923955553, -57135.97621154502, -65135.59849686605, -29847.357254905375, -53717.81333897273, -48692.22476389704, -32355.848831635576, -0.064, 1.012, 0.068, 192.0, 0.0, 0.0, 0.0, 0.0, 0.0, 0.0, 0.0, 0.0, 0.0, 1.695337880512378E9, 0.0, 2023-09-21 18:11:20.512
48.0, 25191.980623242933, 19546.756988377212, -53692.60057122714, -27958.813662387573, -34042.33265427741, -33034.17957236523, -187500.02235174447, -48633.95376610205, -23928.59297139561, -27250.77745327681, -57130.92471729812, -65134.61502011002, -29884.19292976772, -53687.39261476906, -48724.34422067931, -32347.13165129801, -0.064, 1.002, 0.068, 192.0, 127.0, 0.0, 15.5, 40.0, 1.0, 16.0, 0.0, 0.0, 0.0, 1.695337880512393E9, 0.0, 2023-09-21 18:11:20.512
50.0, 25261.852176410222, 19566.49357873125, -53675.43443148547, -27952.219897773255, -34002.85947356933, -33031.0950316304, -187500.02235174447, -48625.303640997845, -23899.669814070443, -27215.327586570693, -57108.505917609444, -65108.664644797405, -29840.696435057693, -53734.62185080312, -48711.4472641286, -32373.819634177642, -0.064, 1.002, 0.068, 192.0, 0.0, 0.0, 0.0, 0.0, 0.0, 0.0, 0.0, 0.0, 0.0, 1.6953378805124E9, 0.0, 2023-09-21 18:11:20.512
52.0, 25191.734754053923, 19561.263270528707, -53687.32555953569, -27954.097444307503, -34040.20923855415, -33029.35159556289, -187500.02235174447, -48625.795379375864, -23902.173209449436, -27222.122516885105, -57104.326141396305, -65107.83763025256, -29857.52729863254, -53707.375074312105, -48708.02744722694, -32360.185070059906, -0.064, 1.002, 0.068, 192.0, 0.0, 0.0, 0.0, 0.0, 0.0, 0.0, 0.0, 0.0, 0.0, 1.695337880512406E9, 0.0, 2023-09-21 18:11:20.512
54.0, 25249.961048359997, 19574.428448012884, -53680.016539098804, -27957.42785423134, -34000.53489214598, -33043.67906375874, -187500.02235174447, -48631.115094556226, -23896.473514613335, -27212.75713595833, -57100.50399309445, -65103.8143162506, -29852.073472985445, -53761.15337147157, -48714.576508352344, -32383.587346504613, -0.064, 1.002, 0.068, 192.0, 0.0, 0.0, 0.0, 0.0, 0.0, 0.0, 0.0, 0.0, 0.0, 1.695337880512412E9, 0.0, 2023-09-21 18:11:20.512
56.0, 25188.851379019186, 19580.664584715912, -53678.563675709214, -27939.81467960056, -34029.8827326158, -33021.975519892636, -187500.02235174447, -48608.80805358983, -23901.63676758251, -27221.831944207188, -57101.55452508385, -65106.74239477425, -29851.045292740502, -53716.09225464967, -48706.35106639279, -32358.84396539259, -0.064, 1.002, 0.068, 192.0, 0.0, 0.0, 0.0, 0.0, 0.0, 0.0, 0.0, 0.0, 0.0, 1.695337880512418E9, 0.0, 2023-09-21 18:11:20.512
58.0, 25243.99313259043, 19569.220491554795, -53689.80660317023, -27966.882642135937, -34006.97219454911, -33050.87632547335, -187500.02235174447, -48630.91392885613, -23901.189732693405, -27209.516133012312, -57103.34266464027, -65103.54609531714, -29843.400996136785, -53771.748098343385, -48706.99926698199, -32383.609698249067, -0.066, 1.01, 0.07200000000000001, 192.0, 126.5, 120.0, 15.5, 72.0, 1.0, 32.0, 0.0, 0.0, 0.0, 1.695337880512425E9, 0.0, 2023-09-21 18:11:20.512
60.0, 25195.60160584469, 19574.383744523973, -53687.01263511332, -27956.42202573085, -34040.410404254246, -33032.36908106435, -187500.02235174447, -48617.257012993934, -23912.633825854522, -27228.917447199517, -57113.35624615625, -65119.19231643586, -29847.759586305572, -53700.66955097551, -48703.177118680134, -32349.009197832253, -0.066, 1.01, 0.07200000000000001, 192.0, 0.0, 0.0, 0.0, 0.0, 0.0, 0.0, 0.0, 0.0, 0.0, 1.695337880512431E9, 0.0, 2023-09-21 18:11:20.512
62.0, 25230.604437661703, 19569.60047121054, -53686.83382115768, -27970.81654916007, -34009.94497656167, -33049.669331272766, -187500.02235174447, -48631.606832934245, -23910.599817109087, -27224.29063609727, -57111.54575485537, -65115.54898208964, -29861.61766786786, -53774.43030767803, -48725.97589802455, -32388.46002679587, -0.066, 1.01, 0.07200000000000001, 192.0, 0.0, 0.0, 0.0, 0.0, 0.0, 0.0, 0.0, 0.0, 0.0, 1.695337880572627E9, 0.0, 2023-09-21 18:11:20.572
64.0, 25202.687108837024, 19579.614052726516, -53682.29641703325, -27952.73398789573, -34035.00128209606, -33021.23791232561, -187500.02235174447, -48609.18803324557, -23907.62703509653, -27219.19443836146, -57106.96364724203, -65110.40808086492, -29836.360196633363, -53699.66372247502, -48702.975952980036, -32343.488316951793, -0.066, 1.01, 0.07200000000000001, 192.0, 0.0, 0.0, 0.0, 0.0, 0.0, 0.0, 0.0, 0.0, 0.0, 1.695337880572639E9, 0.0, 2023-09-21 18:11:20.572
66.0, 25224.52476316986, 19563.543148463148, -53687.236152557874, -27969.497796237207, -34014.86236034183, -33047.277694616045, -187500.02235174447, -48630.28808001138, -23902.93316876092, -27214.344109814658, -57106.76248154193, -65109.53636283116, -29861.550612634495, -53779.370043202645, -48730.4015434267, -32387.11892212855, -0.066, 1.01, 0.07200000000000001, 192.0, 0.0, 0.0, 0.0, 0.0, 0.0, 0.0, 0.0, 0.0, 0.0, 1.695337880572643E9, 0.0, 2023-09-21 18:11:20.572
68.0, 25221.775498601855, 19565.510101975215, -53685.693882190455, -27955.371493741455, -34041.952674621665, -33030.87151418585, -187500.02235174447, -48620.565071173325, -23917.618264868055, -27229.38683383308, -57127.21432771854, -65131.75399681974, -29839.601199579385, -53682.20701005543, -48695.82339475434, -32327.81974408862, -0.064, 1.008, 0.066, 192.0, 127.0, 0.0, 15.5, 64.0, 1.0, 8.0, 0.0, 0.0, 0.0, 1.695337880572646E9, 0.0, 2023-09-21 18:11:20.572
70.0, 25217.819239833265, 19556.658811170913, -53664.48207670237, -27954.902107107893, -34005.11699975932, -33039.186363123226, -187500.02235174447, -48625.10247529775, -23886.929319730916, -27209.449077778947, -57099.654626805146, -65106.20595290732, -29870.58071739444, -53777.60425539068, -48732.43555217214, -32392.37158207555, -0.064, 1.008, 0.066, 192.0, 0.0, 0.0, 0.0, 0.0, 0.0, 0.0, 0.0, 0.0, 0.0, 1.69533788057265E9, 0.0, 2023-09-21 18:11:20.572
72.0, 25243.6578564236, 19547.58400292206, -53665.89023660305, -27946.38609247042, -34023.579540679406, -33022.958996648675, -187500.02235174447, -48606.23760297747, -23900.295662915192, -27211.840714435664, -57120.620563104225, -65124.71319731632, -29827.598312806884, -53695.21572532842, -48681.71944400304, -32340.202610516862, -0.064, 1.008, 0.066, 192.0, 0.0, 0.0, 0.0, 0.0, 0.0, 0.0, 0.0, 0.0, 0.0, 1.695337880572653E9, 0.0, 2023-09-21 18:11:20.572
74.0, 25222.915437569078, 19515.643360095426, -53661.91162609001, -27955.349141996998, -34016.76225862053, -33037.04059565551, -187500.02235174447, -48618.64282115016, -23911.225665953836, -27222.524848285302, -57129.49420565298, -65131.08344448608, -29885.73520013514, -53758.56056911476, -48716.00701999748, -32372.54558474369, -0.064, 1.008, 0.066, 192.0, 0.0, 0.0, 0.0, 0.0, 0.0, 0.0, 0.0, 0.0, 0.0, 1.695337880572657E9, 0.0, 2023-09-21 18:11:20.572
76.0, 25268.04360962434, 19512.514115871683, -53651.62982364057, -27942.742758124205, -34017.85749409885, -33024.00952863807, -187500.02235174447, -48605.49999541044, -23910.242189197805, -27207.750345200344, -57132.645801621176, -65133.67624684289, -29839.91412400176, -53690.56656248171, -48677.49496430099, -32329.25025573376, -0.064, 1.008, 0.066, 192.0, 0.0, 0.0, 0.0, 0.0, 0.0, 0.0, 0.0, 0.0, 0.0, 1.695337880632966E9, 0.0, 2023-09-21 18:11:20.632
78.0, 25233.733681885446, 19499.70656629879, -53634.57544262117, -27933.556191153075, -34001.406610179736, -33022.13198210383, -187500.02235174447, -48597.14044298416, -23905.503619373278, -27212.310101069226, -57124.666228850634, -65127.08248222858, -29885.511682690583, -53758.15823771456, -48722.69019158962, -32378.289983068706, -0.068, 1.008, 0.076, 192.0, 126.5, 112.0, 15.5, 64.0, 1.0, 48.0, 0.0, 0.0, 0.0, 1.69533788063298E9, 0.0, 2023-09-21 18:11:20.632
80.0, 25310.087240944773, 19491.9505109728, -53638.218776967384, -27940.99932205669, -34005.56403464842, -33028.77045020705, -187500.02235174447, -48602.39310293116, -23911.471535142846, -27200.10604859663, -57136.44559817858, -65132.2233834533, -29824.960806961157, -53696.310960806724, -48668.53191477441, -32333.832363347097, -0.068, 1.008, 0.076, 192.0, 0.0, 0.0, 0.0, 0.0, 0.0, 0.0, 0.0, 0.0, 0.0, 1.695337880632984E9, 0.0, 2023-09-21 18:11:20.632
82.0, 25269.630583480666, 19477.444228821307, -53624.00306749381, -27930.181077740323, -34002.032459024485, -33016.7452116901, -187500.02235174447, -48587.73035856848, -23901.63676758251, -27204.732859698877, -57123.2357172055, -65119.23701992477, -29874.849900585403, -53746.75884804235, -48715.78350255293, -32370.10924459806, -0.068, 1.008, 0.076, 192.0, 0.0, 0.0, 0.0, 0.0, 0.0, 0.0, 0.0, 0.0, 0.0, 1.695337880632988E9, 0.0, 2023-09-21 18:11:20.632
84.0, 25360.713942136044, 19466.111894382466, -53634.82131181018, -27941.759281368173, -34008.22389223861, -33025.752964705585, -187500.02235174447, -48599.174451729596, -23920.92632304744, -27201.313042797214, -57148.224967506525, -65138.01248526722, -29826.257208139567, -53683.92809437848, -48669.22481885253, -32326.411584187936, -0.068, 1.008, 0.076, 192.0, 0.0, 0.0, 0.0, 0.0, 0.0, 0.0, 0.0, 0.0, 0.0, 1.695337880632991E9, 0.0, 2023-09-21 18:11:20.632
86.0, 25299.939548962066, 19457.61823148945, -53621.43261688145, -27928.169420739345, -34009.90027307275, -33014.01829886655, -187500.02235174447, -48584.824631789284, -23905.436564139913, -27209.09144986766, -57125.35913292875, -65118.00767397972, -29882.96358382268, -53727.223423388416, -48722.01963925596, -32367.583497474614, -0.068, 1.008, 0.076, 192.0, 0.0, 0.0, 0.0, 0.0, 0.0, 0.0, 0.0, 0.0, 0.0, 1.695337880632994E9, 0.0, 2023-09-21 18:11:20.632
88.0, 25389.659451205665, 19459.629888490428, -53623.91366051599, -27932.751528352685, -33998.053848511445, -33020.992043136604, -187500.02235174447, -48586.99275100145, -23918.825259068642, -27196.865045650607, -57144.44752269358, -65131.26225844172, -29838.103632700877, -53695.86392591762, -48682.88173471472, -32340.269665750227, -0.062, 1.0, 0.074, 192.0, 127.0, 8.0, 15.5, 32.0, 1.0, 40.0, 0.0, 0.0, 0.0, 1.695337880632998E9, 0.0, 2023-09-21 18:11:20.632
90.0, 25320.458450372036, 19464.167292614853, -53609.787358020236, -27912.076164731523, -34008.469761427616, -33000.62960393782, -187500.02235174447, -48569.29016939285, -23906.82237229614, -27202.54238874226, -57124.15213872816, -65114.40904312242, -29882.33773497793, -53717.58982152818, -48718.8009880544, -32361.704988682868, -0.062, 1.0, 0.074, 192.0, 0.0, 0.0, 0.0, 0.0, 0.0, 0.0, 0.0, 0.0, 0.0, 1.695337880633001E9, 0.0, 2023-09-21 18:11:20.633
92.0, 25410.78184971593, 19470.917519440358, -53607.529831830245, -27919.206371212767, -33975.21036567812, -33007.13396157431, -187500.02235174447, -48575.23573341796, -23885.543511574688, -27171.495815693834, -57110.74109205498, -65096.95233070283, -29821.3398243594, -53730.68794377899, -48686.72623476103, -32364.186032317408, -0.062, 1.0, 0.074, 192.0, 0.0, 0.0, 0.0, 0.0, 0.0, 0.0, 0.0, 0.0, 0.0, 1.695337880693254E9, 0.0, 2023-09-21 18:11:20.693
94.0, 25347.615819885235, 19450.17510058583, -53623.28781167124, -27927.25299921668, -34008.4250579387, -33013.01247036606, -187500.02235174447, -48583.148250955135, -23906.73296531832, -27203.414106776014, -57124.666228850634, -65113.44791811084, -29867.2503074706, -53721.769597741324, -48707.870985015754, -32364.20838406186, -0.062, 1.0, 0.074, 192.0, 0.0, 0.0, 0.0, 0.0, 0.0, 0.0, 0.0, 0.0, 0.0, 1.695337880693266E9, 0.0, 2023-09-21 18:11:20.693
96.0, 25433.64768429371, 19454.533690754615, -53625.52298611677, -27936.28310397662, -33978.183147690674, -33024.97065364965, -187500.02235174447, -48593.05007374884, -23916.411270667468, -27194.7192781829, -57139.08310402431, -65123.30503741563, -29846.150260704788, -53724.16123439804, -48692.38122610822, -32356.809956647154, -0.062, 1.0, 0.074, 192.0, 0.0, 0.0, 0.0, 0.0, 0.0, 0.0, 0.0, 0.0, 0.0, 1.69533788069327E9, 0.0, 2023-09-21 18:11:20.693
98.0, 25362.792654370387, 19446.46471100625, -53632.04969549772, -27935.366682453954, -34013.16362776323, -33018.6451099688, -187500.02235174447, -48586.83628879026, -23916.746546834296, -27203.794086431753, -57132.44463592108, -65118.20883967982, -29870.67012437226, -53696.44507127346, -48710.06145597237, -32349.34447399908, -0.062, 1.004, 0.074, 192.0, 127.0, 8.0, 15.5, 48.0, 1.0, 40.0, 0.0, 0.0, 0.0, 1.695337880693274E9, 0.0, 2023-09-21 18:11:20.693
100.0, 25435.65934129469, 19450.398618030384, -53627.82521579567, -27942.38513021292, -33986.520348372505, -33035.610084010375, -187500.02235174447, -48603.68950410956, -23914.310206688668, -27191.500626981335, -57134.00925803295, -65118.14178444646, -29850.978237507134, -53723.803606486756, -48700.11492968976, -32360.92267762693, -0.062, 1.004, 0.074, 192.0, 0.0, 0.0, 0.0, 0.0, 0.0, 0.0, 0.0, 0.0, 0.0, 1.695337880693277E9, 0.0, 2023-09-21 18:11:20.693
102.0, 25366.16776778314, 19447.69405695129, -53628.294602429225, -27932.036272530113, -34026.082936058396, -33016.7452116901, -187500.02235174447, -48590.09964348074, -23924.524953904744, -27213.517095269814, -57139.39602844668, -65129.22824969629, -29864.210470224676, -53678.58602745367, -48703.758264035976, -32346.30463675316, -0.062, 1.004, 0.074, 192.0, 0.0, 0.0, 0.0, 0.0, 0.0, 0.0, 0.0, 0.0, 0.0, 1.695337880693281E9, 0.0, 2023-09-21 18:11:20.693
104.0, 25429.154983658194, 19451.60561223097, -53618.81746278018, -27938.048891788592, -33984.35222916034, -33028.01049089557, -187500.02235174447, -48588.80324230233, -23907.4929246298, -27191.947661870443, -57124.15213872816, -65111.92799948788, -29858.175499221743, -53736.07471419272, -48710.68730481712, -32376.993581890296, -0.062, 1.004, 0.074, 192.0, 0.0, 0.0, 0.0, 0.0, 0.0, 0.0, 0.0, 0.0, 0.0, 1.695337880693284E9, 0.0, 2023-09-21 18:11:20.693
106.0, 25375.711962665555, 19450.42096977484, -53622.72901805986, -27933.511487664164, -34022.35019473436, -33020.433249525224, -187500.02235174447, -48591.70896908152, -23923.11679400406, -27208.823228934198, -57136.289135967396, -65127.64127583996, -29854.53216487553, -53664.169152279996, -48698.75147327799, -32344.382386730005, -0.062, 1.004, 0.074, 192.0, 0.0, 0.0, 0.0, 0.0, 0.0, 0.0, 0.0, 0.0, 0.0, 1.695337880752385E9, 0.0, 2023-09-21 18:11:20.752
108.0, 25419.186105631128, 19450.242155819196, -53614.257706911296, -27934.405557442376, -33982.809958792925, -33026.89290367281, -187500.02235174447, -48591.127823725685, -23906.285930429214, -27187.611423446113, -57119.81590030383, -65107.904685485926, -29854.95684802018, -53739.047496205276, -48715.895261275204, -32391.477512297337, -0.066, 1.004, 0.076, 192.0, 126.5, 120.0, 15.5, 48.0, 1.0, 48.0, 0.0, 0.0, 0.0, 1.6953378807524E9, 0.0, 2023-09-21 18:11:20.752
110.0, 25383.6915354361, 19448.208147073765, -53622.52785235976, -27926.358929438466, -34020.40559296675, -33015.85114191188, -187500.02235174447, -48585.04814923384, -23933.06332028667, -27207.929159155985, -57141.1394645142, -65128.91532527391, -29846.03850198251, -53655.11669577559, -48688.6931882731, -32338.92856108291, -0.066, 1.004, 0.076, 192.0, 0.0, 0.0, 0.0, 0.0, 0.0, 0.0, 0.0, 0.0, 0.0, 1.695337880752404E9, 0.0, 2023-09-21 18:11:20.752
112.0, 25416.280378851938, 19440.116815580943, -53636.698858344425, -27950.610572172474, -34000.266671212514, -33048.3505783499, -187500.02235174447, -48615.67003913761, -23924.949637049394, -27198.787295673766, -57133.71868535503, -65119.46053736932, -29864.031656269035, -53721.05434191875, -48712.698961818096, -32376.524195256734, -0.066, 1.004, 0.076, 192.0, 0.0, 0.0, 0.0, 0.0, 0.0, 0.0, 0.0, 0.0, 0.0, 1.695337880752408E9, 0.0, 2023-09-21 18:11:20.752
114.0, 25391.626404717736, 19441.52497548163, -53636.63180311106, -27935.456089431776, -34033.25784602855, -33024.94830190519, -187500.02235174447, -48606.304658210836, -23940.08176804564, -27210.7231272129, -57153.83525536481, -65140.60528762404, -29845.077376970934, -53624.383047149546, -48695.19754590959, -32323.05882251964, -0.066, 1.004, 0.076, 192.0, 0.0, 0.0, 0.0, 0.0, 0.0, 0.0, 0.0, 0.0, 0.0, 1.695337880752411E9, 0.0, 2023-09-21 18:11:20.752
116.0, 25388.765381427456, 19447.403484273374, -53613.698913299915, -27922.983816025713, -33984.19576694915, -33015.761734934065, -187500.02235174447, -48585.78575680086, -23910.711575831363, -27199.01081311832, -57120.911135782146, -65107.949388974834, -29866.95973479268, -53722.86483321963, -48723.047819500905, -32388.750599473788, -0.066, 1.004, 0.076, 192.0, 0.0, 0.0, 0.0, 0.0, 0.0, 0.0, 0.0, 0.0, 0.0, 1.695337880752414E9, 0.0, 2023-09-21 18:11:20.752
118.0, 25388.564215727358, 19444.520109238638, -53634.910718788, -27932.86328707496, -34026.17234303622, -33026.78114495053, -187500.02235174447, -48606.14819599965, -23929.889372574016, -27207.549179500245, -57147.06267679485, -65132.849232298046, -29821.38452784831, -53642.219739224885, -48676.064452655846, -32336.961607570844, -0.064, 1.002, 0.076, 192.0, 127.0, 0.0, 15.5, 40.0, 1.0, 48.0, 0.0, 0.0, 0.0, 1.695337880752418E9, 0.0, 2023-09-21 18:11:20.752
120.0, 25364.69255264909, 19456.94767915579, -53606.88163124104, -27913.774897310126, -33974.94214474465, -33006.664574940754, -187500.02235174447, -48573.67111130609, -23896.227645424326, -27202.788257931265, -57112.64099033368, -65104.35075811753, -29854.28629568652, -53739.42747586101, -48724.74655207951, -32402.31810835816, -0.064, 1.002, 0.076, 192.0, 0.0, 0.0, 0.0, 0.0, 0.0, 0.0, 0.0, 0.0, 0.0, 1.695337880752421E9, 0.0, 2023-09-21 18:11:20.752
122.0, 25392.632233218224, 19459.89810942389, -53629.74746581882, -27926.515391649653, -34009.162665505726, -33017.92985414623, -187500.02235174447, -48593.76532957141, -23919.40640442448, -27209.650243479045, -57139.53013891341, -65129.295304929656, -29801.826751449917, -53653.30620447471, -48661.96050190455, -32345.70113965287, -0.064, 1.002, 0.076, 192.0, 0.0, 0.0, 0.0, 0.0, 0.0, 0.0, 0.0, 0.0, 0.0, 1.695337880812435E9, 0.0, 2023-09-21 18:11:20.812
124.0, 25350.007456541953, 19469.598766517494, -53615.1070732006, -27915.294815933088, -33986.18507220568, -33007.4915894856, -187500.02235174447, -48579.035529975365, -23896.3394041466, -27203.95054864294, -57111.389292644184, -65101.802659249624, -29853.705150330683, -53735.5829758147, -48710.77671179494, -32401.066410668664, -0.064, 1.002, 0.076, 192.0, 0.0, 0.0, 0.0, 0.0, 0.0, 0.0, 0.0, 0.0, 0.0, 1.695337880812451E9, 0.0, 2023-09-21 18:11:20.812
126.0, 25387.424276760135, 19482.56277830157, -53624.40539889401, -27916.077126989025, -33998.76910433401, -33005.681098184716, -187500.02235174447, -48582.880030021675, -23908.990491508306, -27197.42383926199, -57127.52725214091, -65116.08542395657, -29806.94530093018, -53666.82900987018, -48662.563999004844, -32351.19966878887, -0.064, 1.002, 0.076, 192.0, 0.0, 0.0, 0.0, 0.0, 0.0, 0.0, 0.0, 0.0, 0.0, 1.695337880812455E9, 0.0, 2023-09-21 18:11:20.812
128.0, 25336.507002890947, 19465.821321704545, -53635.73773333285, -27930.024615529135, -34003.39591543626, -33025.3953367943, -187500.02235174447, -48594.681751094075, -23908.38699440801, -27205.917502155007, -57120.39704565967, -65109.17873491988, -29855.940324776213, -53722.328391352705, -48706.57458383734, -32388.303564584683, -0.066, 1.012, 0.07200000000000001, 192.0, 126.5, 120.0, 15.5, 80.0, 1.0, 32.0, 0.0, 0.0, 0.0, 1.695337880812459E9, 0.0, 2023-09-21 18:11:20.812
130.0, 25392.20755007357, 19476.10312415399, -53636.274175199775, -27932.14803125239, -34009.00620329454, -33024.03188038253, -187500.02235174447, -48601.76725408641, -23923.65323587099, -27211.863066180118, -57141.11711276974, -65132.55865962013, -29819.52933305852, -53649.417000939495, -48668.2860455854, -32340.046148305675, -0.066, 1.012, 0.07200000000000001, 192.0, 0.0, 0.0, 0.0, 0.0, 0.0, 0.0, 0.0, 0.0, 0.0, 1.695337880812463E9, 0.0, 2023-09-21 18:11:20.812
132.0, 25321.39722363916, 19480.439362578316, -53617.2081371794, -27914.601911854974, -33998.54558688946, -33003.512978972554, -187500.02235174447, -48577.783832285866, -23888.806866265164, -27202.90001665354, -57101.10749019474, -65099.63454003746, -29863.405807424286, -53713.76767322632, -48716.543461864414, -32389.756427974276, -0.066, 1.012, 0.07200000000000001, 192.0, 0.0, 0.0, 0.0, 0.0, 0.0, 0.0, 0.0, 0.0, 0.0, 1.695337880812466E9, 0.0, 2023-09-21 18:11:20.812
134.0, 25391.179369828627, 19478.248891621697, -53633.547262376225, -27931.455127174275, -33999.663174112226, -33022.98134839313, -187500.02235174447, -48601.00729477493, -23901.189732693405, -27196.172141572493, -57124.174490472615, -65116.912438501415, -29801.692640983183, -53670.740565149856, -48669.493039785986, -32353.166622300938, -0.066, 1.012, 0.07200000000000001, 192.0, 0.0, 0.0, 0.0, 0.0, 0.0, 0.0, 0.0, 0.0, 0.0, 1.69533788081247E9, 0.0, 2023-09-21 18:11:20.812
136.0, 25312.635339812678, 19481.288728867617, -53621.34320990363, -27914.2889874326, -33993.53879613147, -33007.33512727441, -187500.02235174447, -48583.774099799884, -23882.39191560649, -27205.515170754814, -57100.59340007227, -65100.57331330459, -29860.164804478267, -53711.86777494762, -48719.29272643241, -32388.012991906762, -0.066, 1.012, 0.07200000000000001, 192.0, 0.0, 0.0, 0.0, 0.0, 0.0, 0.0, 0.0, 0.0, 0.0, 1.695337880872615E9, 0.0, 2023-09-21 18:11:20.872
138.0, 25398.935425154617, 19476.05842066508, -53641.48213165786, -27937.892429577405, -33993.96347927612, -33029.28454032952, -187500.02235174447, -48607.51165241142, -23902.329671660624, -27202.43063001998, -57128.19780447457, -65122.94740950435, -29809.068716653434, -53681.80467865523, -48676.33267358931, -32358.84396539259, -0.06, 1.01, 0.068, 192.0, 127.0, 16.0, 15.5, 72.0, 1.0, 16.0, 0.0, 0.0, 0.0, 1.695337880872629E9, 0.0, 2023-09-21 18:11:20.872
140.0, 25318.49149685997, 19460.211033846266, -53642.93499504745, -27938.58533365552, -34016.426982453704, -33030.357424063375, -187500.02235174447, -48609.97034430151, -23901.25678792677, -27218.97092091691, -57119.39121715918, -65117.91826700191, -29857.1473189768, -53688.979588625385, -48719.136264221226, -32373.01497137725, -0.06, 1.01, 0.068, 192.0, 0.0, 0.0, 0.0, 0.0, 0.0, 0.0, 0.0, 0.0, 0.0, 1.695337880872633E9, 0.0, 2023-09-21 18:11:20.872
142.0, 25395.269739063948, 19463.586147259015, -53647.159474749504, -27945.648484903395, -33998.053848511445, -33038.22523811165, -187500.02235174447, -48614.887728081674, -23922.78151783723, -27221.742537229366, -57145.229833749516, -65140.80645332414, -29831.84514425339, -53669.64532967155, -48695.73398777652, -32352.965456600843, -0.06, 1.01, 0.068, 192.0, 0.0, 0.0, 0.0, 0.0, 0.0, 0.0, 0.0, 0.0, 0.0, 1.695337880872637E9, 0.0, 2023-09-21 18:11:20.872
144.0, 25308.276749643894, 19472.37038282995, -53624.740675060835, -27914.065469988047, -34010.213197495126, -33002.21657779415, -187500.02235174447, -48580.0637102203, -23904.453087383878, -27220.021452906305, -57118.653609592155, -65119.66170306942, -29857.370836421353, -53672.75222215083, -48726.15471198019, -32367.87407015253, -0.06, 1.01, 0.068, 192.0, 0.0, 0.0, 0.0, 0.0, 0.0, 0.0, 0.0, 0.0, 0.0, 1.69533788087264E9, 0.0, 2023-09-21 18:11:20.872
146.0, 25388.98889887201, 19462.379153058428, -53643.672602614475, -27948.084825049023, -33998.54558688946, -33040.3486538349, -187500.02235174447, -48617.90521358314, -23907.40351765198, -27209.225560334395, -57129.717723097536, -65128.20006945135, -29816.04246092349, -53694.858097417135, -48696.73981627701, -32369.863375409055, -0.06, 1.01, 0.068, 192.0, 0.0, 0.0, 0.0, 0.0, 0.0, 0.0, 0.0, 0.0, 0.0, 1.695337880872644E9, 0.0, 2023-09-21 18:11:20.872
148.0, 25305.169857164605, 19471.27514735164, -53630.954460019406, -27924.727252093227, -34018.14806677676, -33017.81809542395, -187500.02235174447, -48597.00633251743, -23905.458915884366, -27221.608426762632, -57122.81103406085, -65123.193278693354, -29850.486499129118, -53667.49956220383, -48722.891357289715, -32367.963477130354, -0.064, 1.018, 0.066, 192.0, 127.0, 0.0, 15.5, 104.0, 1.0, 8.0, 0.0, 0.0, 0.0, 1.695337880872647E9, 0.0, 2023-09-21 18:11:20.872
150.0, 25375.063762076352, 19469.174083372844, -53636.1624164775, -27939.278237733633, -33990.38720016327, -33031.0950316304, -187500.02235174447, -48604.76238784342, -23905.749488562287, -27206.67746146649, -57128.13074924121, -65122.3215606596, -29831.80044076448, -53714.080597648695, -48709.5473658499, -32389.823483207645, -0.064, 1.018, 0.066, 192.0, 0.0, 0.0, 0.0, 0.0, 0.0, 0.0, 0.0, 0.0, 0.0, 1.695337880872651E9, 0.0, 2023-09-21 18:11:20.872
152.0, 25312.501229345948, 19473.085638652523, -53639.559881634705, -27926.358929438466, -34030.37447099382, -33012.610138965865, -187500.02235174447, -48596.11226273922, -23914.891352044506, -27222.48014479639, -57133.71868535503, -65129.31765667411, -29845.52441186004, -53662.22455051239, -48711.514319361966, -32364.02957010622, -0.064, 1.018, 0.066, 192.0, 0.0, 0.0, 0.0, 0.0, 0.0, 0.0, 0.0, 0.0, 0.0, 1.695337880932967E9, 0.0, 2023-09-21 18:11:20.932
154.0, 25374.035581831406, 19471.543368285103, -53638.576404878666, -27935.187868498313, -33993.650554853746, -33025.10476411638, -187500.02235174447, -48602.013123275414, -23901.368546649046, -27203.369403287103, -57124.174490472615, -65117.65004606844, -29835.220257666144, -53722.23898437488, -48720.00798225498, -32395.701991999387, -0.064, 1.018, 0.066, 192.0, 0.0, 0.0, 0.0, 0.0, 0.0, 0.0, 0.0, 0.0, 0.0, 1.695337880932982E9, 0.0, 2023-09-21 18:11:20.932
156.0, 25324.39235739617, 19465.12841762643, -53643.829064825666, -27933.466784175253, -34026.50761920305, -33019.6956419582, -187500.02235174447, -48598.50389939593, -23910.152782219982, -27215.573455759702, -57130.768255086936, -65125.62961883898, -29838.327150145433, -53654.781419608764, -48701.433682612624, -32359.64862819298, -0.064, 1.018, 0.066, 192.0, 0.0, 0.0, 0.0, 0.0, 0.0, 0.0, 0.0, 0.0, 0.0, 1.695337880932987E9, 0.0, 2023-09-21 18:11:20.932
158.0, 25361.429197958612, 19456.433589033317, -53653.395611452535, -27955.23738327472, -34004.91583405922, -33040.706281746185, -187500.02235174447, -48612.6749053806, -23917.461802656868, -27223.15069713005, -57141.810016847856, -65134.27974394319, -29852.945191019204, -53718.01450467283, -48720.522072377455, -32394.517349543257, -0.06, 1.016, 0.068, 192.0, 127.0, 16.0, 15.5, 96.0, 1.0, 16.0, 0.0, 0.0, 0.0, 1.695337880932991E9, 0.0, 2023-09-21 18:11:20.932
160.0, 25327.96863650902, 19462.08858038051, -53653.37325970808, -27942.653351146386, -34032.162610550244, -33024.36715654936, -187500.02235174447, -48604.09183550976, -23926.246038227804, -27231.644360023067, -57149.32020298484, -65141.521709146706, -29838.1930396787, -53639.04579151223, -48700.0925779453, -32355.178279301916, -0.06, 1.016, 0.068, 192.0, 0.0, 0.0, 0.0, 0.0, 0.0, 0.0, 0.0, 0.0, 0.0, 1.695337880932995E9, 0.0, 2023-09-21 18:11:20.932
162.0, 25346.8335088293, 19465.910728682367, -53642.46560841389, -27938.473574933243, -33990.141330974264, -33025.77531645004, -187500.02235174447, -48595.84404180575, -23905.7941920512, -27212.131287113585, -57128.48837715249, -65117.73945304626, -29854.129833475334, -53725.25646987635, -48722.35491542279, -32406.408477593483, -0.06, 1.016, 0.068, 192.0, 0.0, 0.0, 0.0, 0.0, 0.0, 0.0, 0.0, 0.0, 0.0, 1.695337880932998E9, 0.0, 2023-09-21 18:11:20.932
164.0, 25336.372892424213, 19463.85436819248, -53660.950501078434, -27942.04985404609, -34031.35794774985, -33027.40699379528, -187500.02235174447, -48607.824576833795, -23916.746546834296, -27214.947606914953, -57143.64285989319, -65129.60822935203, -29822.680929026716, -53639.135198490054, -48684.938095204605, -32352.339607756094, -0.06, 1.016, 0.068, 192.0, 0.0, 0.0, 0.0, 0.0, 0.0, 0.0, 0.0, 0.0, 0.0, 1.695337880933002E9, 0.0, 2023-09-21 18:11:20.933
166.0, 25328.281560931395, 19465.776618215637, -53653.105038774615, -27943.167441268855, -34000.51254040153, -33031.45265954169, -187500.02235174447, -48611.959649558026, -23916.120697989547, -27224.603560519645, -57141.00535404746, -65128.33417991808, -29872.57002265096, -53713.6782662485, -48724.27716544595, -32395.79139897721, -0.06, 1.016, 0.068, 192.0, 0.0, 0.0, 0.0, 0.0, 0.0, 0.0, 0.0, 0.0, 0.0, 1.695337880993331E9, 0.0, 2023-09-21 18:11:20.993
168.0, 25339.92681979261, 19478.248891621697, -53658.514160932806, -27935.701958620783, -34023.08780230139, -33022.82488618194, -187500.02235174447, -48610.350323957246, -23913.77376482174, -27215.729917970886, -57139.418380191135, -65126.81426129511, -29827.75477501807, -53643.98552703685, -48682.54645854789, -32355.625314191024, -0.06, 1.01, 0.07200000000000001, 192.0, 127.0, 16.0, 15.5, 72.0, 1.0, 32.0, 0.0, 0.0, 0.0, 1.695337880993343E9, 0.0, 2023-09-21 18:11:20.993
170.0, 25319.318511404814, 19473.867949708456, -53658.87178884409, -27940.887563334414, -34010.7272876176, -33030.15625836328, -187500.02235174447, -48612.09376002476, -23911.471535142846, -27215.349938315147, -57130.611792875745, -65119.32642690259, -29873.01705754007, -53716.15930988304, -48718.75628456548, -32399.50178855679, -0.06, 1.01, 0.07200000000000001, 192.0, 0.0, 0.0, 0.0, 0.0, 0.0, 0.0, 0.0, 0.0, 0.0, 1.695337880993347E9, 0.0, 2023-09-21 18:11:20.993
172.0, 25352.35438970976, 19462.08858038051, -53695.72981545089, -27967.128511324947, -34053.26265731605, -33054.96669470867, -187500.02235174447, -48638.64763243766, -23943.188660524924, -27226.503458798346, -57165.3911072482, -65149.076598772604, -29830.90637098627, -53617.07402671266, -48681.49592655849, -32331.463078434837, -0.06, 1.01, 0.07200000000000001, 192.0, 0.0, 0.0, 0.0, 0.0, 0.0, 0.0, 0.0, 0.0, 0.0, 1.69533788099335E9, 0.0, 2023-09-21 18:11:20.993
174.0, 25296.49738031595, 19478.226539877243, -53663.94563483544, -27940.686397634316, -34025.25592151355, -33028.81515369596, -187500.02235174447, -48613.25605073644, -23927.11775626156, -27236.159412403038, -57142.994659303986, -65130.815223552614, -29885.824607112958, -53680.88825713257, -48746.62890990126, -32379.005238891274, -0.06, 1.01, 0.07200000000000001, 192.0, 0.0, 0.0, 0.0, 0.0, 0.0, 0.0, 0.0, 0.0, 0.0, 1.695337880993354E9, 0.0, 2023-09-21 18:11:20.993
176.0, 25349.11338676374, 19476.9971939322, -53683.10107983364, -27955.1479762969, -34038.26463678654, -33043.63436026983, -187500.02235174447, -48636.01012659194, -23930.939904563416, -27219.32854882819, -57149.94605182959, -65137.252525955744, -29823.127963915824, -53622.68431457094, -48687.955580706075, -32342.080157051107, -0.06, 1.01, 0.07200000000000001, 192.0, 0.0, 0.0, 0.0, 0.0, 0.0, 0.0, 0.0, 0.0, 0.0, 1.695337880993358E9, 0.0, 2023-09-21 18:11:20.993
178.0, 25280.538234774856, 19492.174028417354, -53655.13904752005, -27929.71169110676, -34015.5776161644, -33015.31470004495, -187500.02235174447, -48601.38727443067, -23920.188715480414, -27225.14000238657, -57127.54960388537, -65119.572296091595, -29878.001496553603, -53678.54132396476, -48737.7552673525, -32382.201538348385, -0.066, 1.006, 0.07, 192.0, 126.5, 120.0, 15.5, 56.0, 1.0, 24.0, 0.0, 0.0, 0.0, 1.695337880993362E9, 0.0, 2023-09-21 18:11:20.993
180.0, 25342.36315993824, 19498.164295931376, -53664.95146333593, -27940.462880189763, -34017.38810746528, -33028.189304851214, -187500.02235174447, -48615.4241699486, -23920.36752943606, -27206.520999255303, -57136.37854294522, -65124.75790080523, -29811.2368358656, -53637.34705893363, -48682.211182381056, -32351.40083448897, -0.066, 1.006, 0.07, 192.0, 0.0, 0.0, 0.0, 0.0, 0.0, 0.0, 0.0, 0.0, 0.0, 1.695337880993366E9, 0.0, 2023-09-21 18:11:20.993
182.0, 25265.60726947871, 19501.695871555316, -53648.54528290573, -27925.174286982336, -34010.95080506215, -33016.25347331208, -187500.02235174447, -48606.014085532915, -23906.35298566258, -27213.561798758725, -57115.14438571267, -65110.69865354284, -29857.10261548789, -53692.71232994942, -48723.58426136783, -32393.690334998413, -0.066, 1.006, 0.07, 192.0, 0.0, 0.0, 0.0, 0.0, 0.0, 0.0, 0.0, 0.0, 0.0, 1.695337881052576E9, 0.0, 2023-09-21 18:11:21.052
184.0, 25345.425348928613, 19495.459734852284, -53674.85328612963, -27947.906011093382, -34018.34923247686, -33040.90744744628, -187500.02235174447, -48629.215196277524, -23913.036157254715, -27200.91071139702, -57130.768255086936, -65121.9192292594, -29806.61002476335, -53660.23524525586, -48671.951731676076, -32366.711779440855, -0.066, 1.006, 0.07, 192.0, 0.0, 0.0, 0.0, 0.0, 0.0, 0.0, 0.0, 0.0, 0.0, 1.69533788105259E9, 0.0, 2023-09-21 18:11:21.052
186.0, 25267.23894682395, 19495.169162174363, -53665.89023660305, -27932.282141719123, -34026.5299709475, -33019.71799370265, -187500.02235174447, -48603.10835875373, -23909.705747330874, -27214.835848192677, -57118.89947878117, -65114.677264055885, -29866.37858943684, -53678.429565242484, -48713.391865896214, -32384.816692449655, -0.066, 1.006, 0.07, 192.0, 0.0, 0.0, 0.0, 0.0, 0.0, 0.0, 0.0, 0.0, 0.0, 1.695337881052594E9, 0.0, 2023-09-21 18:11:21.052
188.0, 25349.96275305304, 19483.65801377988, -53690.097175848154, -27962.546403711607, -34032.11790706133, -33047.34474984941, -187500.02235174447, -48635.49603646947, -23932.92920981994, -27220.20026686195, -57151.62243266373, -65142.10285450255, -29830.928722730725, -53648.90291081702, -48674.43277531061, -32351.60200018907, -0.064, 1.006, 0.076, 192.0, 127.0, 0.0, 15.5, 56.0, 1.0, 48.0, 0.0, 0.0, 0.0, 1.695337881052597E9, 0.0, 2023-09-21 18:11:21.052
190.0, 25254.029065850864, 19485.155580658386, -53681.648216444046, -27945.044987803103, -34050.80396542596, -33029.731575218626, -187500.02235174447, -48624.63308866419, -23926.06722427216, -27234.170107146518, -57138.993697046484, -65133.02804625369, -29878.694400631717, -53653.14974226353, -48725.350049179804, -32368.87989865302, -0.064, 1.006, 0.076, 192.0, 0.0, 0.0, 0.0, 0.0, 0.0, 0.0, 0.0, 0.0, 0.0, 1.695337881052601E9, 0.0, 2023-09-21 18:11:21.052
192.0, 25337.15520348015, 19478.248891621697, -53699.10492886364, -27971.129473582445, -34031.7826308945, -33051.613933040375, -187500.02235174447, -48634.69137366908, -23931.319884219156, -27227.3751768321, -57155.06460130985, -65144.740360348274, -29837.835411767413, -53656.413096954006, -48700.11492968976, -32362.911982883452, -0.064, 1.006, 0.076, 192.0, 0.0, 0.0, 0.0, 0.0, 0.0, 0.0, 0.0, 0.0, 0.0, 1.695337881052605E9, 0.0, 2023-09-21 18:11:21.052
194.0, 25249.983400104455, 19485.51320856967, -53684.73275717888, -27946.251982003687, -34044.76899442304, -33026.84820018389, -187500.02235174447, -48610.32797221279, -23925.664892871966, -27244.854240996152, -57144.76044711596, -65141.14172949097, -29879.00732505409, -53636.698858344425, -48725.12653173525, -32362.97903811682, -0.064, 1.006, 0.076, 192.0, 0.0, 0.0, 0.0, 0.0, 0.0, 0.0, 0.0, 0.0, 0.0, 1.695337881052609E9, 0.0, 2023-09-21 18:11:21.052
196.0, 25324.124136462706, 19496.689080797325, -53678.54132396476, -27951.996380328703, -34009.74381086157, -33030.69270023021, -187500.02235174447, -48614.73126587049, -23911.426831653935, -27222.591903518667, -57139.06075227985, -65134.05622649864, -29842.70809205867, -53677.647254186544, -48702.908897746674, -32375.227794078328, -0.064, 1.006, 0.076, 192.0, 0.0, 0.0, 0.0, 0.0, 0.0, 0.0, 0.0, 0.0, 0.0, 1.695337881112393E9, 0.0, 2023-09-21 18:11:21.112
198.0, 25249.648123937623, 19494.029223207144, -53684.59864671215, -27944.95558082528, -34045.61836071234, -33022.310796059464, -187500.02235174447, -48614.66421063712, -23906.174171706938, -27232.046691423264, -57130.16475798664, -65128.04360724016, -29853.369874163855, -53652.92622481898, -48702.93124949113, -32360.945029371385, -0.066, 1.006, 0.074, 192.0, 126.5, 120.0, 15.5, 56.0, 1.0, 40.0, 0.0, 0.0, 0.0, 1.695337881112404E9, 0.0, 2023-09-21 18:11:21.112
200.0, 25309.14846767765, 19507.06029022459, -53673.57923669568, -27947.078996548535, -34001.65247936875, -33027.83167693993, -187500.02235174447, -48617.86051009423, -23902.06145072716, -27221.317854084715, -57127.884880052196, -65122.3215606596, -29844.317417659455, -53704.33523706618, -48700.27139190095, -32377.328858057128, -0.066, 1.006, 0.074, 192.0, 0.0, 0.0, 0.0, 0.0, 0.0, 0.0, 0.0, 0.0, 0.0, 1.695337881112408E9, 0.0, 2023-09-21 18:11:21.112
202.0, 25254.297286784327, 19497.091412197522, -53689.78425142578, -27951.77286288415, -34040.38805250979, -33028.01049089557, -187500.02235174447, -48615.06654203732, -23910.041023497706, -27226.883438454086, -57133.003429532466, -65129.161194462926, -29841.85872576937, -53660.34700397814, -48690.63779004071, -32351.22202053333, -0.066, 1.006, 0.074, 192.0, 0.0, 0.0, 0.0, 0.0, 0.0, 0.0, 0.0, 0.0, 0.0, 1.695337881112411E9, 0.0, 2023-09-21 18:11:21.112
204.0, 25297.078525671786, 19503.104031455998, -53681.44705074395, -27955.840880375017, -34006.703973615644, -33036.97354042215, -187500.02235174447, -48624.65544040864, -23915.293683444703, -27225.832906464686, -57137.11615051224, -65131.32931367509, -29860.880060300835, -53715.9804959274, -48707.62511582674, -32379.31816331365, -0.066, 1.006, 0.074, 192.0, 0.0, 0.0, 0.0, 0.0, 0.0, 0.0, 0.0, 0.0, 0.0, 1.695337881112415E9, 0.0, 2023-09-21 18:11:21.112
206.0, 25253.33616177275, 19505.607426834995, -53686.47619324639, -27950.141185538912, -34041.8856193883, -33025.01535713856, -187500.02235174447, -48616.09472228226, -23917.30534044568, -27225.944665186962, -57135.73034235601, -65127.46246188432, -29848.452490383686, -53656.748373120834, -48690.68249352962, -32349.947971099376, -0.066, 1.006, 0.074, 192.0, 0.0, 0.0, 0.0, 0.0, 0.0, 0.0, 0.0, 0.0, 0.0, 1.695337881112418E9, 0.0, 2023-09-21 18:11:21.112
208.0, 25279.599461507736, 19524.271133455175, -53666.605492425624, -27940.976970312237, -34000.06550551242, -33016.47699075663, -187500.02235174447, -48606.23760297747, -23906.4423926404, -27216.10989762663, -57121.536984626895, -65114.20787742232, -29864.009304524578, -53735.180644414504, -48710.955525750585, -32390.985773919318, -0.064, 1.002, 0.068, 192.0, 127.0, 0.0, 15.5, 40.0, 1.0, 16.0, 0.0, 0.0, 0.0, 1.695337881112421E9, 0.0, 2023-09-21 18:11:21.112
210.0, 25264.892013656143, 19514.9057525284, -53683.168135067004, -27949.783557627627, -34040.87979088781, -33028.122249617845, -187500.02235174447, -48622.55437642984, -23912.477363643335, -27217.205133104937, -57126.85669980726, -65119.12526120249, -29825.541952316995, -53662.85039935713, -48672.73404273201, -32342.750709384767, -0.064, 1.002, 0.068, 192.0, 0.0, 0.0, 0.0, 0.0, 0.0, 0.0, 0.0, 0.0, 0.0, 1.695337881112425E9, 0.0, 2023-09-21 18:11:21.112
212.0, 25274.458560283016, 19515.71041532879, -53675.769707652296, -27951.86226986197, -34011.777819607, -33033.53137177603, -187500.02235174447, -48614.820672848306, -23906.844724040595, -27225.810554720232, -57119.05594099235, -65112.509144843716, -29862.221164968156, -53736.32058338173, -48711.380208895236, -32384.392009305004, -0.064, 1.002, 0.068, 192.0, 0.0, 0.0, 0.0, 0.0, 0.0, 0.0, 0.0, 0.0, 0.0, 1.695337881173582E9, 0.0, 2023-09-21 18:11:21.173
214.0, 25271.888109670654, 19523.71233984379, -53681.82703039969, -27947.86130760447, -34051.07218635943, -33027.89873217329, -187500.02235174447, -48616.474701938, -23927.609494639575, -27234.505383313346, -57142.50292092597, -65133.74330207626, -29835.868458255347, -53645.348983448624, -48678.74666199049, -32325.763383598733, -0.064, 1.002, 0.068, 192.0, 0.0, 0.0, 0.0, 0.0, 0.0, 0.0, 0.0, 0.0, 0.0, 1.695337881173603E9, 0.0, 2023-09-21 18:11:21.173
216.0, 25260.622830465178, 19529.836717824546, -53665.82318136969, -27944.463842447265, -34020.38324122229, -33022.02022338155, -187500.02235174447, -48604.04713202085, -23902.35202340508, -27222.18957211847, -57112.30571416685, -65104.17194416189, -29865.3504091919, -53739.56158632775, -48717.68340083163, -32384.906099427477, -0.064, 1.002, 0.068, 192.0, 0.0, 0.0, 0.0, 0.0, 0.0, 0.0, 0.0, 0.0, 0.0, 1.695337881173606E9, 0.0, 2023-09-21 18:11:21.173
218.0, 25283.376906320682, 19527.042749767632, -53683.70457693393, -27948.978894827236, -34052.435642771205, -33030.53623801902, -187500.02235174447, -48622.017934562915, -23921.999206781293, -27226.123479142607, -57132.17641498762, -65121.4721943703, -29819.819905736436, -53652.99328005234, -48675.572714277834, -32328.490296422282, -0.062, 1.004, 0.074, 192.0, 127.0, 8.0, 15.5, 48.0, 1.0, 40.0, 0.0, 0.0, 0.0, 1.69533788117361E9, 0.0, 2023-09-21 18:11:21.173
220.0, 25250.117510571185, 19512.62587459396, -53692.98055088289, -27963.06049383408, -34044.254904300564, -33046.048348671, -187500.02235174447, -48630.10926605574, -23924.904933560483, -27239.087490926682, -57131.14823474267, -65121.02515948119, -29882.114217533377, -53718.21567037293, -48717.07990373134, -32366.46591025185, -0.062, 1.004, 0.074, 192.0, 0.0, 0.0, 0.0, 0.0, 0.0, 0.0, 0.0, 0.0, 0.0, 1.695337881173613E9, 0.0, 2023-09-21 18:11:21.173
222.0, 25283.600423765234, 19525.232258466753, -53695.618056728614, -27958.701903665296, -34058.91764866324, -33038.15818287828, -187500.02235174447, -48634.400800991156, -23939.45591920089, -27241.792052005774, -57148.60494716227, -65136.67138059991, -29845.077376970934, -53635.916547288485, -48685.295723115894, -32315.7274503383, -0.062, 1.004, 0.074, 192.0, 0.0, 0.0, 0.0, 0.0, 0.0, 0.0, 0.0, 0.0, 0.0, 1.695337881173617E9, 0.0, 2023-09-21 18:11:21.173
224.0, 25231.297341739817, 19520.38192991995, -53687.59378046916, -27960.78061589964, -34041.058604843456, -33042.941456191715, -187500.02235174447, -48627.963498588026, -23921.395709681, -27241.054444438752, -57125.89557479568, -65118.454708868834, -29890.540825193028, -53709.96787666892, -48732.86023531679, -32366.734131185312, -0.062, 1.004, 0.074, 192.0, 0.0, 0.0, 0.0, 0.0, 0.0, 0.0, 0.0, 0.0, 0.0, 1.695337881173621E9, 0.0, 2023-09-21 18:11:21.173
226.0, 25283.600423765234, 19532.071892270076, -53690.67832120399, -27958.076054820547, -34042.66793044424, -33038.4487555562, -187500.02235174447, -48627.31529799882, -23930.40346269649, -27242.283790383794, -57141.96647905904, -65132.98334276478, -29838.595371078896, -53641.32566944667, -48680.82537422483, -32318.49906665076, -0.062, 1.004, 0.074, 192.0, 0.0, 0.0, 0.0, 0.0, 0.0, 0.0, 0.0, 0.0, 0.0, 1.695337881173624E9, 0.0, 2023-09-21 18:11:21.173
228.0, 25223.854210836198, 19512.44706063832, -53701.74243470937, -27974.236366061734, -34056.66012247326, -33058.4535668437, -187500.02235174447, -48644.83906565179, -23930.291703974213, -27250.308066643247, -57135.95385980057, -65128.20006945135, -29886.316345490977, -53687.05733860223, -48722.131397978235, -32352.518421711735, -0.064, 1.004, 0.076, 192.0, 127.0, 0.0, 15.5, 48.0, 1.0, 48.0, 0.0, 0.0, 0.0, 1.695337881233927E9, 0.0, 2023-09-21 18:11:21.233
230.0, 25283.399258065136, 19527.042749767632, -53700.15546085304, -27970.101293337502, -34048.8370119139, -33051.189249895724, -187500.02235174447, -48638.71468767103, -23944.194489025413, -27252.476185855412, -57156.49511295499, -65147.08729351608, -29842.730443803128, -53628.62987859605, -48688.2908568729, -32313.268758448216, -0.064, 1.004, 0.076, 192.0, 0.0, 0.0, 0.0, 0.0, 0.0, 0.0, 0.0, 0.0, 0.0, 1.695337881233937E9, 0.0, 2023-09-21 18:11:21.233
232.0, 25204.877579793643, 19526.729825345257, -53687.54907698025, -27955.125624552446, -34051.3404072929, -33035.40891831028, -187500.02235174447, -48626.53298694289, -23924.70376786039, -27247.938781730987, -57131.528214398415, -65122.88035427098, -29885.31051699049, -53675.568541952205, -48727.40640966969, -32355.960590357852, -0.064, 1.004, 0.076, 192.0, 0.0, 0.0, 0.0, 0.0, 0.0, 0.0, 0.0, 0.0, 0.0, 1.695337881233941E9, 0.0, 2023-09-21 18:11:21.233
234.0, 25285.612080766212, 19534.508232415705, -53689.98541712588, -27957.49490946471, -34038.35404376436, -33040.12513639035, -187500.02235174447, -48633.59613819077, -23930.35875920758, -27231.44319432297, -57141.31827846984, -65128.28947642916, -29837.63424606732, -53652.23332074086, -48683.261714370456, -32332.044223790675, -0.064, 1.004, 0.076, 192.0, 0.0, 0.0, 0.0, 0.0, 0.0, 0.0, 0.0, 0.0, 0.0, 1.695337881233945E9, 0.0, 2023-09-21 18:11:21.233
236.0, 25196.205102944983, 19539.559726662603, -53677.35668150862, -27938.227705744233, -34045.998340368074, -33021.57318849244, -187500.02235174447, -48622.88965259668, -23920.903971302985, -27240.227429893905, -57118.96653401453, -65111.659778554415, -29882.941232078225, -53672.72987040638, -48720.387961910725, -32353.54660195668, -0.064, 1.004, 0.076, 192.0, 0.0, 0.0, 0.0, 0.0, 0.0, 0.0, 0.0, 0.0, 0.0, 1.695337881233949E9, 0.0, 2023-09-21 18:11:21.233
238.0, 25277.118417873196, 19531.71426435879, -53698.926114908, -27963.373418256455, -34039.62809319831, -33039.47693580114, -187500.02235174447, -48629.05873406634, -23930.06818652966, -27226.659921009534, -57133.606926632754, -65120.37695889199, -29835.846106510893, -53669.37710873808, -48685.25101962698, -32339.040319805186, -0.058, 1.01, 0.07200000000000001, 192.0, 127.0, 24.0, 15.5, 72.0, 1.0, 32.0, 0.0, 0.0, 0.0, 1.695337881233952E9, 0.0, 2023-09-21 18:11:21.233
240.0, 25188.27023366335, 19551.339095990552, -53672.551056450735, -27926.33657769401, -34042.444412999685, -33004.40704875076, -187500.02235174447, -48601.968419786506, -23923.966160293363, -27240.518002571822, -57121.536984626895, -65110.7210052873, -29876.570984908463, -53661.576349923176, -48713.23540368502, -32341.74488088428, -0.058, 1.01, 0.07200000000000001, 192.0, 0.0, 0.0, 0.0, 0.0, 0.0, 0.0, 0.0, 0.0, 0.0, 1.695337881233956E9, 0.0, 2023-09-21 18:11:21.233
242.0, 25269.38471429166, 19557.329363504574, -53675.702652418935, -27942.38513021292, -34015.35409871985, -33026.71408971716, -187500.02235174447, -48626.354172987245, -23908.565808363655, -27209.382022545582, -57113.982095000996, -65099.232208637266, -29822.546818559986, -53695.43924277297, -48680.601856780275, -32351.7361106558, -0.058, 1.01, 0.07200000000000001, 192.0, 0.0, 0.0, 0.0, 0.0, 0.0, 0.0, 0.0, 0.0, 0.0, 1.695337881294304E9, 0.0, 2023-09-21 18:11:21.294
244.0, 25198.5967396017, 19544.812386609603, -53688.59960896965, -27948.01776981566, -34054.9390381502, -33031.07267988595, -187500.02235174447, -48630.91392885613, -23907.135296718516, -27224.782374475286, -57109.60115308776, -65099.12044991499, -29846.306722915975, -53672.50635296183, -48698.14797617769, -32341.275494250716, -0.058, 1.01, 0.07200000000000001, 192.0, 0.0, 0.0, 0.0, 0.0, 0.0, 0.0, 0.0, 0.0, 0.0, 1.695337881294318E9, 0.0, 2023-09-21 18:11:21.294
246.0, 25268.58005149127, 19548.83570061156, -53690.07482410369, -27958.25486877619, -34030.486229716094, -33046.2495143711, -187500.02235174447, -48643.74383017347, -23927.2965702172, -27235.041825180273, -57132.86931906573, -65122.925057759894, -29845.099728715388, -53689.8736584036, -48697.79034826641, -32339.86733435003, -0.058, 1.01, 0.07200000000000001, 192.0, 0.0, 0.0, 0.0, 0.0, 0.0, 0.0, 0.0, 0.0, 0.0, 1.695337881294322E9, 0.0, 2023-09-21 18:11:21.294
248.0, 25199.69197508001, 19547.360485477508, -53684.53159147878, -27946.43079595933, -34049.909895647754, -33030.8938659303, -187500.02235174447, -48629.5281206999, -23913.505543888277, -27231.510249556333, -57114.96557175703, -65108.664644797405, -29852.00641775208, -53658.96119582191, -48700.87488900124, -32334.614674403034, -0.06, 1.008, 0.068, 192.0, 127.0, 16.0, 15.5, 64.0, 1.0, 16.0, 0.0, 0.0, 0.0, 1.695337881294325E9, 0.0, 2023-09-21 18:11:21.294
250.0, 25256.86773739669, 19546.131139532466, -53685.202143812436, -27957.33844725352, -34020.427944711206, -33042.89675270281, -187500.02235174447, -48629.014030577426, -23914.690186344407, -27224.402394819546, -57120.061769492844, -65112.509144843716, -29849.592429350905, -53711.93483018099, -48696.67276104364, -32357.078177580617, -0.06, 1.008, 0.068, 192.0, 0.0, 0.0, 0.0, 0.0, 0.0, 0.0, 0.0, 0.0, 0.0, 1.695337881294329E9, 0.0, 2023-09-21 18:11:21.294
252.0, 25199.379050657637, 19549.282735500663, -53687.75024268034, -27944.217973258255, -34053.84380267189, -33024.63537748282, -187500.02235174447, -48618.888690339176, -23923.317959704156, -27237.768738003822, -57124.71093233954, -65118.521764102195, -29848.51954561705, -53651.20514049592, -48687.62030453925, -32325.78573534319, -0.06, 1.008, 0.068, 192.0, 0.0, 0.0, 0.0, 0.0, 0.0, 0.0, 0.0, 0.0, 0.0, 1.695337881294332E9, 0.0, 2023-09-21 18:11:21.294
254.0, 25241.42268197807, 19552.434331468863, -53679.83772514317, -27951.661104161874, -34014.84000859738, -33034.80542120998, -187500.02235174447, -48618.50871068343, -23902.93316876092, -27219.239141850372, -57105.44372861907, -65096.61705453599, -29853.05694974148, -53735.962955470444, -48703.8476710138, -32371.56210798766, -0.06, 1.008, 0.068, 192.0, 0.0, 0.0, 0.0, 0.0, 0.0, 0.0, 0.0, 0.0, 0.0, 1.695337881294335E9, 0.0, 2023-09-21 18:11:21.294
0.0, 25210.666681607567, 19551.406151223917, -53687.794946169255, -27947.749548882195, -34052.97208463813, -33027.63051123983, -187500.02235174447, -48619.53689092838, -23921.440413169912, -27238.640456037578, -57121.380522415704, -65114.49845010024, -29839.780013535026, -53656.815428354195, -48674.90216194417, -32324.846962076066, -0.06, 1.008, 0.068, 192.0, 0.0, 0.0, 0.0, 0.0, 0.0, 0.0, 0.0, 0.0, 0.0, 1.695337881294339E9, 0.0, 2023-09-21 18:11:21.294
2.0, 25237.33231274275, 19542.9124883309, -53688.51020199183, -27962.904031622893, -34025.21121802464, -33046.718901004664, -187500.02235174447, -48634.5796149468, -23908.230532196827, -27228.358653588137, -57106.76248154193, -65099.65689178192, -29855.158013720276, -53735.53827232579, -48697.388016866214, -32370.17629983143, -0.064, 1.008, 0.07, 192.0, 127.0, 0.0, 15.5, 64.0, 1.0, 24.0, 0.0, 0.0, 0.0, 1.695337881353145E9, 0.0, 2023-09-21 18:11:21.353
4.0, 25221.976664301954, 19540.654962140914, -53706.83863244518, -27965.809758402083, -34076.17319538274, -33042.15914513578, -187500.02235174447, -48635.29487076937, -23948.083692560638, -27257.281810913304, -57144.60398490477, -65136.336104433074, -29845.56911534895, -53628.96515476289, -48667.168458362634, -32306.40677290044, -0.064, 1.008, 0.07, 192.0, 0.0, 0.0, 0.0, 0.0, 0.0, 0.0, 0.0, 0.0, 0.0, 1.695337881353158E9, 0.0, 2023-09-21 18:11:21.353
6.0, 25219.674434623055, 19548.567479678095, -53686.56560022421, -27954.38801698542, -34034.55424720696, -33032.48083978663, -187500.02235174447, -48622.24145200747, -23918.31116894617, -27240.406243849546, -57112.573935100314, -65105.40129010693, -29881.466016944174, -53718.5285947953, -48708.25096467149, -32363.873107895033, -0.064, 1.008, 0.07, 192.0, 0.0, 0.0, 0.0, 0.0, 0.0, 0.0, 0.0, 0.0, 0.0, 1.695337881353162E9, 0.0, 2023-09-21 18:11:21.353
8.0, 25223.876562580655, 19563.721962418793, -53679.83772514317, -27935.701958620783, -34054.0896718609, -33018.46629601315, -187500.02235174447, -48612.76431235842, -23930.69403537441, -27242.06027293924, -57129.22598471952, -65121.36043564802, -29844.786804293017, -53639.29166070124, -48664.173324605625, -32313.738145081777, -0.064, 1.008, 0.07, 192.0, 0.0, 0.0, 0.0, 0.0, 0.0, 0.0, 0.0, 0.0, 0.0, 1.695337881353166E9, 0.0, 2023-09-21 18:11:21.353
10.0, 25204.81052456028, 19570.02515435519, -53661.48694294536, -27926.358929438466, -34012.8283515964, -33012.319566287944, -187500.02235174447, -48595.91109703912, -23888.985680220805, -27210.231388834884, -57082.443783574556, -65074.22060659178, -29865.886851058825, -53751.5868248447, -48698.572659322344, -32384.012029649264, -0.064, 1.008, 0.07, 192.0, 0.0, 0.0, 0.0, 0.0, 0.0, 0.0, 0.0, 0.0, 0.0, 1.69533788135317E9, 0.0, 2023-09-21 18:11:21.353
12.0, 25234.42658596356, 19558.938689105355, -53691.639446215566, -27947.973066326747, -34054.51435500555, -33025.68590947222, -187500.02235174447, -48615.8265013488, -23921.708634103376, -27225.09529889766, -57121.939316027085, -65110.07280469809, -29820.423402836732, -53667.320748248196, -48637.86532138173, -32325.204589987352, -0.062, 1.004, 0.082, 192.0, 127.0, 8.0, 15.5, 48.0, 1.0, 72.0, 0.0, 0.0, 0.0, 1.695337881353174E9, 0.0, 2023-09-21 18:11:21.353
14.0, 25194.975756999942, 19560.458607728317, -53678.13899256456, -27944.128566280433, -34036.67766293021, -33024.143639104805, -187500.02235174447, -48610.059751279325, -23908.83402929712, -27232.314912356727, -57106.44955711956, -65096.572351047085, -29871.11715926137, -53742.176740429015, -48689.7437202625, -32376.099512112083, -0.062, 1.004, 0.082, 192.0, 0.0, 0.0, 0.0, 0.0, 0.0, 0.0, 0.0, 0.0, 0.0, 1.695337881353177E9, 0.0, 2023-09-21 18:11:21.353
16.0, 25240.14863254412, 19573.73554393477, -53679.32363502069, -27939.837031345014, -34042.578523466414, -33018.53335124652, -187500.02235174447, -48606.304658210836, -23913.885523544017, -27223.44126980797, -57116.776063057914, -65103.6131505505, -29822.256245882065, -53674.27214077379, -48640.16755106063, -32329.227903989307, -0.062, 1.004, 0.082, 192.0, 0.0, 0.0, 0.0, 0.0, 0.0, 0.0, 0.0, 0.0, 0.0, 1.695337881413868E9, 0.0, 2023-09-21 18:11:21.413
18.0, 25185.297451650793, 19563.297279274142, -53682.698748433446, -27950.208240772277, -34036.52120071903, -33029.57511300744, -187500.02235174447, -48616.09472228226, -23909.05754674167, -27233.96894144642, -57104.259086162936, -65093.152534145425, -29872.368856950863, -53735.09123743668, -48677.02557766743, -32371.495052754293, -0.062, 1.004, 0.082, 192.0, 0.0, 0.0, 0.0, 0.0, 0.0, 0.0, 0.0, 0.0, 0.0, 1.695337881413899E9, 0.0, 2023-09-21 18:11:21.413
20.0, 25252.352685016715, 19558.044619327142, -53706.883335934086, -27974.77280792866, -34060.191698097195, -33054.29614237501, -187500.02235174447, -48641.888635383686, -23929.241171984813, -27232.404319334546, -57128.75659808596, -65113.291455899656, -29828.76060351856, -53664.035041813266, -48638.53587371539, -32324.221113231317, -0.062, 1.004, 0.082, 192.0, 0.0, 0.0, 0.0, 0.0, 0.0, 0.0, 0.0, 0.0, 0.0, 1.695337881413903E9, 0.0, 2023-09-21 18:11:21.413
22.0, 25178.971907969943, 19560.033924583666, -53697.89793466305, -27960.668857177363, -34058.64942772978, -33041.04155791301, -187500.02235174447, -48628.65640266614, -23924.50260216029, -27250.553935832257, -57119.145347970174, -65108.19525816385, -29890.943156593225, -53699.14963235255, -48700.606668067776, -32353.367788001036, -0.066, 1.008, 0.08, 192.0, 126.5, 120.0, 15.5, 64.0, 1.0, 64.0, 0.0, 0.0, 0.0, 1.695337881413906E9, 0.0, 2023-09-21 18:11:21.413
24.0, 25247.94939135902, 19563.7666659077, -53709.453786546444, -27971.464749749273, -34053.061491615954, -33051.21160164018, -187500.02235174447, -48642.53683597289, -23932.616285397566, -27236.44998508096, -57133.763388843945, -65118.63352282447, -29832.67215879824, -53662.22455051239, -48659.18888559209, -32325.405755687447, -0.066, 1.008, 0.08, 192.0, 0.0, 0.0, 0.0, 0.0, 0.0, 0.0, 0.0, 0.0, 0.0, 1.69533788141391E9, 0.0, 2023-09-21 18:11:21.413
26.0, 25163.973887440432, 19571.545072978148, -53688.75607118083, -27949.00124657169, -34050.893372403785, -33028.63633974032, -187500.02235174447, -48615.40181820415, -23919.40640442448, -27242.86493573963, -57114.8314612903, -65102.07088018309, -29878.62734539835, -53695.618056728614, -48701.61249656827, -32353.524250212224, -0.066, 1.008, 0.08, 192.0, 0.0, 0.0, 0.0, 0.0, 0.0, 0.0, 0.0, 0.0, 0.0, 1.695337881413915E9, 0.0, 2023-09-21 18:11:21.413
28.0, 25247.32354251427, 19561.73265716227, -53715.24288836037, -27981.210110331787, -34055.90016316178, -33062.789805268025, -187500.02235174447, -48651.56694073283, -23935.92434357695, -27239.311008371238, -57140.67007788063, -65124.0202932382, -29829.9899494636, -53669.93590234946, -48654.65148146766, -32329.8314010896, -0.066, 1.008, 0.08, 192.0, 0.0, 0.0, 0.0, 0.0, 0.0, 0.0, 0.0, 0.0, 0.0, 1.695337881413921E9, 0.0, 2023-09-21 18:11:21.413
30.0, 25161.02345717233, 19561.620898439993, -53703.28470507678, -27964.736874668226, -34070.29468659099, -33038.15818287828, -187500.02235174447, -48628.11996079922, -23927.74360510631, -27249.10107244266, -57125.96263002904, -65113.89495299995, -29881.01898205507, -53676.261446030316, -48702.21599366856, -32351.914924611443, -0.066, 1.008, 0.08, 192.0, 0.0, 0.0, 0.0, 0.0, 0.0, 0.0, 0.0, 0.0, 0.0, 1.695337881413924E9, 0.0, 2023-09-21 18:11:21.413
32.0, 25245.37894074666, 19553.82013962509, -53712.44892030346, -27984.24994757771, -34051.20629682616, -33059.14647092181, -187500.02235174447, -48641.55335921686, -23937.01957905526, -27241.188554905482, -57144.60398490477, -65129.74233981876, -29841.076414713436, -53673.91451286251, -48666.29674032888, -32349.657398421456, -0.062, 1.008, 0.08, 192.0, 127.0, 8.0, 15.5, 64.0, 1.0, 64.0, 0.0, 0.0, 0.0, 1.695337881473756E9, 0.0, 2023-09-21 18:11:21.473
34.0, 25160.866994961143, 19573.40026776794, -53673.08749831766, -27937.557153410573, -34051.049834614976, -33009.190322064205, -187500.02235174447, -48599.59913487425, -23905.704785073376, -27236.606447292146, -57111.25518217745, -65102.27204588319, -29857.57200212145, -53674.89798961854, -48690.97306620754, -32370.332762042617, -0.062, 1.008, 0.08, 192.0, 0.0, 0.0, 0.0, 0.0, 0.0, 0.0, 0.0, 0.0, 0.0, 1.695337881473769E9, 0.0, 2023-09-21 18:11:21.473
36.0, 25245.624809935667, 19558.804578638625, -53685.559771723725, -27964.87098513496, -34030.82150588292, -33039.25341835659, -187500.02235174447, -48623.11317004123, -23892.941938989396, -27214.992310403864, -57119.704141581555, -65107.23413315227, -29818.121173157833, -53714.281763348794, -48662.072260626825, -32387.387143062017, -0.062, 1.008, 0.08, 192.0, 0.0, 0.0, 0.0, 0.0, 0.0, 0.0, 0.0, 0.0, 0.0, 1.695337881473774E9, 0.0, 2023-09-21 18:11:21.473
38.0, 25176.915547480054, 19553.52956694717, -53659.74350687784, -27930.851630073983, -34046.04304385699, -33004.362345261856, -187500.02235174447, -48596.69340809505, -23904.3413286616, -27226.078775653696, -57118.653609592155, -65106.36241511851, -29846.150260704788, -53674.87563787409, -48666.22968509552, -32373.93139289992, -0.062, 1.008, 0.08, 192.0, 0.0, 0.0, 0.0, 0.0, 0.0, 0.0, 0.0, 0.0, 0.0, 1.695337881473777E9, 0.0, 2023-09-21 18:11:21.473
40.0, 25261.069865354286, 19531.71426435879, -53666.82900987018, -27957.2490402757, -34024.29479650197, -33036.57120902195, -187500.02235174447, -48622.777893874394, -23900.697994315386, -27209.560836501223, -57122.3863509162, -65107.904685485926, -29826.95011221768, -53721.45667331895, -48649.75644943195, -32395.433771065924, -0.062, 1.008, 0.08, 192.0, 0.0, 0.0, 0.0, 0.0, 0.0, 0.0, 0.0, 0.0, 0.0, 1.695337881473781E9, 0.0, 2023-09-21 18:11:21.473
42.0, 25211.80662057479, 19526.752177089715, -53652.74741086333, -27933.310321964065, -34055.49783176158, -33013.34774653289, -187500.02235174447, -48600.0238180189, -23920.523991647246, -27228.135136143585, -57133.69633361058, -65121.85217402604, -29843.75862404807, -53651.62982364057, -48651.34342328828, -32362.93433462791, -0.06, 1.004, 0.07200000000000001, 192.0, 127.0, 16.0, 15.5, 48.0, 1.0, 32.0, 0.0, 0.0, 0.0, 1.695337881473784E9, 0.0, 2023-09-21 18:11:21.473
44.0, 25278.6159847517, 19522.550049132115, -53634.55309087671, -27932.14803125239, -34014.057697541444, -33020.097973358395, -187500.02235174447, -48596.40283541714, -23906.174171706938, -27206.99038588886, -57122.81103406085, -65108.4187756084, -29841.09876645789, -53716.606344772146, -48662.29577807138, -32398.07127691165, -0.06, 1.004, 0.07200000000000001, 192.0, 0.0, 0.0, 0.0, 0.0, 0.0, 0.0, 0.0, 0.0, 0.0, 1.695337881473788E9, 0.0, 2023-09-21 18:11:21.473
46.0, 25253.984362361953, 19518.906714785902, -53625.41122739449, -27915.361871166453, -34042.42206125522, -33002.52950221652, -187500.02235174447, -48582.41064338811, -23906.285930429214, -27208.845580678655, -57118.72066482552, -65104.2166476508, -29827.71007152916, -53652.05450678522, -48651.67869945511, -32364.677770695424, -0.06, 1.004, 0.07200000000000001, 192.0, 0.0, 0.0, 0.0, 0.0, 0.0, 0.0, 0.0, 0.0, 0.0, 1.695337881534059E9, 0.0, 2023-09-21 18:11:21.534
48.0, 25309.707261289033, 19502.880514011445, -53620.672657569965, -27928.169420739345, -34009.028555038996, -33023.13781060431, -187500.02235174447, -48595.441710405554, -23903.4919623723, -27201.827132919687, -57118.85477529225, -65101.176810404875, -29828.80530700747, -53722.596612286165, -48670.70003398658, -32401.200521135394, -0.06, 1.004, 0.07200000000000001, 192.0, 0.0, 0.0, 0.0, 0.0, 0.0, 0.0, 0.0, 0.0, 0.0, 1.695337881534075E9, 0.0, 2023-09-21 18:11:21.534
50.0, 25299.91719721761, 19489.894150482913, -53626.417055894985, -27926.67185386084, -34043.09261358889, -33015.38175527832, -187500.02235174447, -48589.98788475846, -23917.148878234493, -27210.81253419072, -57132.86931906573, -65111.30215064313, -29816.75771674606, -53641.99622178033, -48650.896388399175, -32357.324046769627, -0.06, 1.004, 0.07200000000000001, 192.0, 0.0, 0.0, 0.0, 0.0, 0.0, 0.0, 0.0, 0.0, 0.0, 1.695337881534079E9, 0.0, 2023-09-21 18:11:21.534
52.0, 25328.34861616476, 19485.803781247592, -53609.96617197587, -27924.86136255996, -34008.805037594444, -33015.58292097842, -187500.02235174447, -48581.74009105445, -23908.45404964138, -27205.20224633244, -57122.02872300491, -65100.752127260224, -29845.367949648855, -53718.39448432857, -48681.093595158294, -32405.246186881806, -0.062, 0.998, 0.076, 192.0, 127.0, 8.0, 15.5, 24.0, 1.0, 48.0, 0.0, 0.0, 0.0, 1.695337881534083E9, 0.0, 2023-09-21 18:11:21.534
54.0, 25338.652770358654, 19471.453961307285, -53625.12065471657, -27933.645598130894, -34044.41136651175, -33023.786011193515, -187500.02235174447, -48593.13948072666, -23920.702805602887, -27212.891246425064, -57138.367848201735, -65117.98532223527, -29807.526446286018, -53638.174073478476, -48646.269577296924, -32359.559221215157, -0.062, 0.998, 0.076, 192.0, 0.0, 0.0, 0.0, 0.0, 0.0, 0.0, 0.0, 0.0, 0.0, 1.695337881534087E9, 0.0, 2023-09-21 18:11:21.534
56.0, 25341.15616573765, 19465.933080426825, -53615.17412843396, -27935.76901385415, -34011.53195041799, -33026.26705482806, -187500.02235174447, -48586.99275100145, -23909.370471164046, -27215.796973204255, -57127.21432771854, -65108.798755264135, -29847.737234561115, -53721.702542507956, -48688.24615338399, -32411.102343929095, -0.062, 0.998, 0.076, 192.0, 0.0, 0.0, 0.0, 0.0, 0.0, 0.0, 0.0, 0.0, 0.0, 1.695337881534091E9, 0.0, 2023-09-21 18:11:21.534
58.0, 25370.571061440834, 19466.223653104742, -53625.25476518331, -27932.796231841592, -34032.69905241717, -33019.00273788008, -187500.02235174447, -48587.28332367937, -23921.887448059017, -27218.166258116515, -57143.37463895973, -65122.70154031534, -29801.402068305266, -53635.46951239938, -48643.4309057511, -32354.73124441281, -0.062, 0.998, 0.076, 192.0, 0.0, 0.0, 0.0, 0.0, 0.0, 0.0, 0.0, 0.0, 0.0, 1.695337881534094E9, 0.0, 2023-09-21 18:11:21.534
60.0, 25350.655657131156, 19468.525882783637, -53610.256744653794, -27924.61549337095, -34002.90417705824, -33012.900711643786, -187500.02235174447, -48579.99665498694, -23894.193636678894, -27204.37523178759, -57109.91407751013, -65091.40909807791, -29852.18523170772, -53726.91049896604, -48686.65917952766, -32414.835085253133, -0.062, 0.998, 0.076, 192.0, 0.0, 0.0, 0.0, 0.0, 0.0, 0.0, 0.0, 0.0, 0.0, 1.695337881534098E9, 0.0, 2023-09-21 18:11:21.534
62.0, 25400.477695522037, 19467.81062696107, -53627.84756754012, -27930.80692658507, -34031.49205821658, -33019.85210416938, -187500.02235174447, -48588.28915217986, -23927.453032428388, -27214.701737725944, -57146.70504888357, -65124.377921149484, -29804.0842776399, -53633.0108205093, -48632.12092305672, -32353.434843234405, -0.056, 1.004, 0.08, 192.0, 127.0, 32.0, 15.5, 48.0, 1.0, 64.0, 0.0, 0.0, 0.0, 1.695337881594344E9, 0.0, 2023-09-21 18:11:21.594
64.0, 25361.786825869898, 19468.369420572453, -53614.77179703377, -27926.515391649653, -34016.40463070925, -33016.00760412307, -187500.02235174447, -48584.690521322555, -23897.814619280653, -27206.096316110652, -57110.94225775507, -65093.2642928677, -29851.20175495169, -53709.00675165734, -48680.82537422483, -32407.973099705352, -0.056, 1.004, 0.08, 192.0, 0.0, 0.0, 0.0, 0.0, 0.0, 0.0, 0.0, 0.0, 0.0, 1.695337881594357E9, 0.0, 2023-09-21 18:11:21.594
66.0, 25423.142364399715, 19471.69983049629, -53626.64057333954, -27932.259789974665, -34024.13833429079, -33019.24860706909, -187500.02235174447, -48592.13365222617, -23914.265503199756, -27208.331490556182, -57131.84113882079, -65111.1680401764, -29799.390411304288, -53637.324707189175, -48630.64570792267, -32363.56018347266, -0.056, 1.004, 0.08, 192.0, 0.0, 0.0, 0.0, 0.0, 0.0, 0.0, 0.0, 0.0, 0.0, 1.695337881594361E9, 0.0, 2023-09-21 18:11:21.594
68.0, 25360.713942136044, 19472.415086318862, -53617.29754415721, -27924.99547302669, -34016.6281481538, -33013.5936157219, -187500.02235174447, -48583.84115503325, -23900.563883848656, -27204.509342254325, -57110.204650188054, -65090.24680736623, -29850.061815984467, -53698.993170141366, -48685.228667882526, -32414.030422452743, -0.056, 1.004, 0.08, 192.0, 0.0, 0.0, 0.0, 0.0, 0.0, 0.0, 0.0, 0.0, 0.0, 1.695337881594365E9, 0.0, 2023-09-21 18:11:21.594
70.0, 25427.500954568502, 19473.75619098618, -53627.735808817844, -27934.91964756485, -34021.947863334164, -33024.59067399391, -187500.02235174447, -48595.866393550205, -23919.96519803586, -27204.12936259858, -57136.71381911205, -65111.77153727669, -29803.61489100634, -53644.43256192596, -48640.32401327181, -32377.50767201277, -0.056, 1.004, 0.08, 192.0, 0.0, 0.0, 0.0, 0.0, 0.0, 0.0, 0.0, 0.0, 0.0, 1.695337881594368E9, 0.0, 2023-09-21 18:11:21.594
72.0, 25356.623572900724, 19462.692077480802, -53625.23241343885, -27935.590199898506, -34025.25592151355, -33028.79280195151, -187500.02235174447, -48598.52625114039, -23903.268444927748, -27209.53848475677, -57111.27753392191, -65089.55390328812, -29853.57103986395, -53693.24877181635, -48682.92643820363, -32418.098439943606, -0.062, 1.008, 0.076, 192.0, 127.0, 8.0, 15.5, 64.0, 1.0, 48.0, 0.0, 0.0, 0.0, 1.695337881594372E9, 0.0, 2023-09-21 18:11:21.594
74.0, 25440.08498669684, 19455.71833321075, -53647.47239917188, -27956.511432708674, -34032.05085182796, -33045.176630637245, -187500.02235174447, -48614.73126587049, -23937.533669177734, -27218.032147649785, -57151.98006057502, -65127.23894443976, -29814.924873700726, -53636.967079277885, -48644.10145808476, -32371.7409219433, -0.062, 1.008, 0.076, 192.0, 0.0, 0.0, 0.0, 0.0, 0.0, 0.0, 0.0, 0.0, 0.0, 1.695337881594375E9, 0.0, 2023-09-21 18:11:21.594
76.0, 25349.806290841854, 19468.928214183834, -53624.874785527565, -27930.15872599587, -34034.30837801795, -33019.807400680475, -187500.02235174447, -48593.13948072666, -23921.418061425455, -27223.91065644153, -57129.76242658644, -65110.475136098285, -29866.75856909258, -53659.14000977755, -48688.44731908409, -32398.339497845114, -0.062, 1.008, 0.076, 192.0, 0.0, 0.0, 0.0, 0.0, 0.0, 0.0, 0.0, 0.0, 0.0, 1.695337881653827E9, 0.0, 2023-09-21 18:11:21.653
78.0, 25433.714739527077, 19470.604595017983, -53632.31791643118, -27943.703883135782, -34012.023688796005, -33038.761679978576, -187500.02235174447, -48605.83527157728, -23914.265503199756, -27196.462714250414, -57128.48837715249, -65106.65298779643, -29811.303891098964, -53662.403364468024, -48647.78949591989, -32396.104323399584, -0.062, 1.008, 0.076, 192.0, 0.0, 0.0, 0.0, 0.0, 0.0, 0.0, 0.0, 0.0, 0.0, 1.695337881653841E9, 0.0, 2023-09-21 18:11:21.653
80.0, 25351.77324435392, 19479.120609655456, -53615.7552737898, -27923.833182315015, -34021.59023542288, -33010.03968835351, -187500.02235174447, -48581.13659395416, -23915.852477056083, -27217.138077871572, -57124.956801528555, -65106.921208729895, -29856.029731754035, -53653.64148064155, -48676.422080567136, -32395.299660599194, -0.062, 1.008, 0.076, 192.0, 0.0, 0.0, 0.0, 0.0, 0.0, 0.0, 0.0, 0.0, 0.0, 1.695337881653845E9, 0.0, 2023-09-21 18:11:21.653
82.0, 25433.066538937874, 19480.349955600497, -53626.26059368379, -27940.641694145408, -34005.56403464842, -33034.96188342117, -187500.02235174447, -48604.538870398865, -23906.330633918125, -27196.14978982804, -57123.25806894995, -65099.25456038172, -29803.90546368426, -53667.946597092945, -48646.71661218603, -32397.333669344625, -0.062, 1.006, 0.064, 192.0, 127.0, 8.0, 15.5, 56.0, 1.0, 0.0, 0.0, 0.0, 0.0, 1.695337881653849E9, 0.0, 2023-09-21 18:11:21.653
84.0, 25350.78976759789, 19493.51513308467, -53613.49774759982, -27915.875961288926, -34025.032404068996, -33009.07856334192, -187500.02235174447, -48584.24348643345, -23909.21400895286, -27215.61815924861, -57118.944182270076, -65099.70159527083, -29838.260094912064, -53645.72896310437, -48664.06156588335, -32391.32105008615, -0.062, 1.006, 0.064, 192.0, 0.0, 0.0, 0.0, 0.0, 0.0, 0.0, 0.0, 0.0, 0.0, 1.695337881653853E9, 0.0, 2023-09-21 18:11:21.653
86.0, 25429.71377726958, 19486.31787137006, -53623.42192213797, -27938.96531331126, -33998.41147642273, -33034.60425550988, -187500.02235174447, -48598.749768584945, -23899.289834414703, -27197.58030147318, -57115.859641535244, -65094.15836264591, -29813.80728647796, -53687.303207791236, -48642.31331852834, -32407.906044471987, -0.062, 1.006, 0.064, 192.0, 0.0, 0.0, 0.0, 0.0, 0.0, 0.0, 0.0, 0.0, 0.0, 1.695337881653857E9, 0.0, 2023-09-21 18:11:21.653
88.0, 25363.93259333761, 19482.696888768303, -53627.89227102903, -27931.678644618827, -34036.61060769685, -33022.2437408261, -187500.02235174447, -48596.53694588387, -23911.627997354033, -27218.94856917245, -57122.8333858053, -65105.513048829205, -29834.95203673268, -53631.46855014188, -48644.6826034406, -32381.910965670464, -0.062, 1.006, 0.064, 192.0, 0.0, 0.0, 0.0, 0.0, 0.0, 0.0, 0.0, 0.0, 0.0, 1.69533788165386E9, 0.0, 2023-09-21 18:11:21.653
90.0, 25423.52234405546, 19495.124458685455, -53623.064294226686, -27934.04792953109, -34006.32399395991, -33031.832639197426, -187500.02235174447, -48604.71768435451, -23910.130430475525, -27207.459772522423, -57122.07342649382, -65104.2166476508, -29829.788783763503, -53673.042794828754, -48650.3822982767, -32402.519274058257, -0.062, 1.006, 0.064, 192.0, 0.0, 0.0, 0.0, 0.0, 0.0, 0.0, 0.0, 0.0, 0.0, 1.695337881653863E9, 0.0, 2023-09-21 18:11:21.653
92.0, 25362.68089564811, 19502.455830866795, -53618.906869758, -27917.95467352327, -34033.54841870647, -33008.09508658589, -187500.02235174447, -48584.8693352782, -23905.54832286219, -27205.738688199366, -57111.054016477356, -65095.61122603551, -29820.781030748014, -53622.05846572619, -48646.24722555247, -32382.626221493036, -0.058, 1.006, 0.068, 192.0, 127.0, 24.0, 15.5, 56.0, 1.0, 16.0, 0.0, 0.0, 0.0, 1.69533788171353E9, 0.0, 2023-09-21 18:11:21.713
94.0, 25400.902378666688, 19503.215790178274, -53618.57159359117, -27929.309359706567, -33998.14325548926, -33022.02022338155, -187500.02235174447, -48596.38048367268, -23898.35106114758, -27196.216845061404, -57107.45538562005, -65092.727851000775, -29829.297045385487, -53694.61222822812, -48657.06546986884, -32420.177152177952, -0.058, 1.006, 0.068, 192.0, 0.0, 0.0, 0.0, 0.0, 0.0, 0.0, 0.0, 0.0, 0.0, 1.69533788171354E9, 0.0, 2023-09-21 18:11:21.713
96.0, 25359.77516886892, 19512.827040294058, -53617.83398602415, -27912.120868220434, -34020.40559296675, -32999.0873335704, -187500.02235174447, -48575.57100958479, -23892.047869211183, -27193.691097937954, -57102.381539628695, -65086.849342209025, -29809.09106839789, -53635.290698443736, -48633.3279172573, -32389.421151807448, -0.058, 1.006, 0.068, 192.0, 0.0, 0.0, 0.0, 0.0, 0.0, 0.0, 0.0, 0.0, 0.0, 1.695337881713544E9, 0.0, 2023-09-21 18:11:21.713
98.0, 25390.665279706154, 19497.04670870861, -53629.94863151892, -27935.321978965043, -34001.07133401291, -33029.06102288497, -187500.02235174447, -48596.8722220507, -23891.73494478881, -27195.32277528319, -57106.40485363065, -65090.135048643955, -29827.240684895598, -53701.496565520356, -48638.69233592658, -32424.17811443545, -0.058, 1.006, 0.068, 192.0, 0.0, 0.0, 0.0, 0.0, 0.0, 0.0, 0.0, 0.0, 0.0, 1.695337881713548E9, 0.0, 2023-09-21 18:11:21.713
100.0, 25374.34850625378, 19495.727955785747, -53643.829064825666, -27934.42790918683, -34039.918665876234, -33023.42838328223, -187500.02235174447, -48596.447538906046, -23906.420040895944, -27214.81349644822, -57123.25806894995, -65106.429470351875, -29812.555588788462, -53604.95938121789, -48617.65934439413, -32368.298753297182, -0.058, 1.006, 0.068, 192.0, 0.0, 0.0, 0.0, 0.0, 0.0, 0.0, 0.0, 0.0, 0.0, 1.695337881713552E9, 0.0, 2023-09-21 18:11:21.713
102.0, 25367.6876864061, 19493.984519718233, -53637.101189744615, -27936.05958653207, -34007.5756916494, -33026.98231065062, -187500.02235174447, -48601.81195757532, -23900.228607681824, -27209.04674637875, -57118.1842229586, -65099.992167948745, -29852.319342174455, -53685.0233298568, -48660.686452470596, -32421.07122195616, -0.058, 1.014, 0.066, 192.0, 127.0, 24.0, 15.5, 88.0, 1.0, 8.0, 0.0, 0.0, 0.0, 1.695337881713555E9, 0.0, 2023-09-21 18:11:21.713
104.0, 25367.553575939368, 19497.359633130985, -53640.20808222391, -27927.141240494402, -34034.35308150686, -33010.84435115389, -187500.02235174447, -48583.12589921068, -23910.555113620176, -27208.353842300636, -57127.77312132992, -65109.17873491988, -29807.32528058592, -53606.16637541847, -48628.38818173268, -32375.89834641199, -0.058, 1.014, 0.066, 192.0, 0.0, 0.0, 0.0, 0.0, 0.0, 0.0, 0.0, 0.0, 0.0, 1.695337881713559E9, 0.0, 2023-09-21 18:11:21.713
106.0, 25348.30872396335, 19490.497647583205, -53638.46464615639, -27936.685435376818, -34016.27052024252, -33021.88611291481, -187500.02235174447, -48594.078253993786, -23905.838895540106, -27208.10797311163, -57117.22309794702, -65098.78517374816, -29848.944228761702, -53681.290588532764, -48664.888580428196, -32420.668890555968, -0.058, 1.014, 0.066, 192.0, 0.0, 0.0, 0.0, 0.0, 0.0, 0.0, 0.0, 0.0, 0.0, 1.695337881773673E9, 0.0, 2023-09-21 18:11:21.773
108.0, 25364.826663115822, 19503.23814192273, -53634.57544262117, -27924.168458481847, -34030.530933205, -33006.01637435155, -187500.02235174447, -48582.79062304385, -23917.394747423503, -27215.416993548515, -57133.56222314385, -65115.996016978745, -29802.877283439313, -53593.22471537885, -48629.215196277524, -32368.902250397477, -0.058, 1.014, 0.066, 192.0, 0.0, 0.0, 0.0, 0.0, 0.0, 0.0, 0.0, 0.0, 0.0, 1.695337881773686E9, 0.0, 2023-09-21 18:11:21.773
110.0, 25334.942380779074, 19499.460697109782, -53624.33834366064, -27921.32978693602, -34007.15100850475, -33014.93472038922, -187500.02235174447, -48588.37855915768, -23886.124656930526, -27198.921406140496, -57100.615751816724, -65081.39551656193, -29840.942304246702, -53688.30903629173, -48672.33171133181, -32435.175172707462, -0.058, 1.014, 0.066, 192.0, 0.0, 0.0, 0.0, 0.0, 0.0, 0.0, 0.0, 0.0, 0.0, 1.69533788177369E9, 0.0, 2023-09-21 18:11:21.773
112.0, 25381.948099368587, 19499.57245583206, -53634.910718788, -27927.76708933915, -34030.66504367173, -33021.52848500353, -187500.02235174447, -48596.04520750585, -23909.571636864144, -27206.118667855106, -57128.71189459704, -65106.496525585244, -29797.80343744796, -53608.11097718609, -48620.74388512896, -32375.36190454506, -0.06, 1.01, 0.07200000000000001, 192.0, 127.0, 16.0, 15.5, 72.0, 1.0, 32.0, 0.0, 0.0, 0.0, 1.695337881773693E9, 0.0, 2023-09-21 18:11:21.773
114.0, 25322.58186609529, 19509.96601700378, -53603.73003527284, -27906.018841984136, -34001.63012762429, -33000.517845215545, -187500.02235174447, -48568.59726531473, -23877.83215973761, -27195.32277528319, -57089.506934822435, -65071.87367342397, -29845.23383918212, -53683.525762978294, -48674.92451368863, -32428.492001115326, -0.06, 1.01, 0.07200000000000001, 192.0, 0.0, 0.0, 0.0, 0.0, 0.0, 0.0, 0.0, 0.0, 0.0, 1.6953378817737E9, 0.0, 2023-09-21 18:11:21.773
116.0, 25380.91991912364, 19506.166220446376, -53621.76789304828, -27919.362833423955, -34016.27052024252, -33016.07465935644, -187500.02235174447, -48593.11712898221, -23900.474476870833, -27195.546292727744, -57115.993752001974, -65094.180714390364, -29790.114437355332, -53619.80093953621, -48623.828425863794, -32388.03534365122, -0.06, 1.01, 0.07200000000000001, 192.0, 0.0, 0.0, 0.0, 0.0, 0.0, 0.0, 0.0, 0.0, 0.0, 1.695337881773705E9, 0.0, 2023-09-21 18:11:21.773
118.0, 25312.031842712386, 19501.986444233233, -53614.63768656703, -27909.86334203045, -34020.04796505546, -33002.887130127805, -187500.02235174447, -48578.07440496379, -23891.667889555443, -27206.498647510845, -57101.35335938375, -65082.64721425143, -29838.1930396787, -53678.34015826466, -48668.174286863126, -32433.789364551234, -0.06, 1.01, 0.07200000000000001, 192.0, 0.0, 0.0, 0.0, 0.0, 0.0, 0.0, 0.0, 0.0, 0.0, 1.695337881773709E9, 0.0, 2023-09-21 18:11:21.773
120.0, 25393.16867508515, 19489.29065338262, -53641.638593869044, -27940.306417978576, -34024.69712790217, -33038.135831133826, -187500.02235174447, -48611.892594324665, -23905.615378095554, -27195.993327616852, -57121.29111543788, -65095.231246379764, -29787.879262909802, -53632.09439898663, -48624.14135028617, -32395.79139897721, -0.06, 1.01, 0.07200000000000001, 192.0, 0.0, 0.0, 0.0, 0.0, 0.0, 0.0, 0.0, 0.0, 0.0, 1.695337881773712E9, 0.0, 2023-09-21 18:11:21.773
122.0, 25315.608121825233, 19487.256644637186, -53633.36844842058, -27928.28117946162, -34041.6844536882, -33023.56249374896, -187500.02235174447, -48604.31535295431, -23920.21106722487, -27228.984502432886, -57128.64483936368, -65106.5188773297, -29860.745949834105, -53639.44812291243, -48677.02557766743, -32408.956576461387, -0.062, 1.01, 0.076, 192.0, 127.0, 8.0, 15.5, 72.0, 1.0, 48.0, 0.0, 0.0, 0.0, 1.69533788183406E9, 0.0, 2023-09-21 18:11:21.834
124.0, 25391.715811695554, 19490.989385961224, -53637.257651955806, -27937.490098177208, -34022.238436012085, -33034.82777295444, -187500.02235174447, -48610.93146931309, -23914.265503199756, -27204.889321910065, -57130.4329789201, -65105.40129010693, -29811.393298076786, -53623.51132911579, -48643.81088540684, -32395.545529788204, -0.062, 1.01, 0.076, 192.0, 0.0, 0.0, 0.0, 0.0, 0.0, 0.0, 0.0, 0.0, 0.0, 1.695337881834073E9, 0.0, 2023-09-21 18:11:21.834
126.0, 25300.297176873348, 19498.700737798303, -53620.58325059214, -27911.562074609054, -34028.27340701502, -33006.82103715194, -187500.02235174447, -48584.824631789284, -23904.050755983684, -27216.266359837817, -57112.5292316114, -65092.8172579786, -29850.37474040684, -53644.4102101815, -48676.91381894515, -32423.08287895714, -0.062, 1.01, 0.076, 192.0, 0.0, 0.0, 0.0, 0.0, 0.0, 0.0, 0.0, 0.0, 0.0, 1.695337881834077E9, 0.0, 2023-09-21 18:11:21.834
128.0, 25380.092904578796, 19495.459734852284, -53636.45298915541, -27931.58923764101, -34014.39297370827, -33030.58094150793, -187500.02235174447, -48605.23177447698, -23907.984663007817, -27201.514208497312, -57122.00637126045, -65096.706461513815, -29795.52355951352, -53651.07103002918, -48639.83227489379, -32419.484248099834, -0.062, 1.01, 0.076, 192.0, 0.0, 0.0, 0.0, 0.0, 0.0, 0.0, 0.0, 0.0, 0.0, 1.695337881834081E9, 0.0, 2023-09-21 18:11:21.834
130.0, 25300.096011173253, 19491.52582782815, -53631.736771075346, -27923.922589292837, -34040.902142632265, -33023.45073502669, -187500.02235174447, -48600.13557674117, -23917.528857890233, -27223.217752363416, -57122.00637126045, -65100.95329296032, -29831.62162680884, -53633.8601867986, -48667.48138278501, -32412.868131741066, -0.062, 1.01, 0.076, 192.0, 0.0, 0.0, 0.0, 0.0, 0.0, 0.0, 0.0, 0.0, 0.0, 1.695337881834084E9, 0.0, 2023-09-21 18:11:21.834
132.0, 25370.235785274006, 19506.970883246766, -53625.165358205486, -27924.36962418194, -34009.788514350475, -33024.94830190519, -187500.02235174447, -48599.59913487425, -23911.96327352086, -27206.25277832184, -57119.77119681492, -65097.756993503215, -29806.073582896424, -53656.90483533202, -48649.80115292087, -32418.299605643704, -0.062, 1.01, 0.062, 192.0, 127.0, 8.0, 15.5, 72.0, 0.5, 120.0, 0.0, 0.0, 0.0, 1.695337881834088E9, 0.0, 2023-09-21 18:11:21.834
134.0, 25290.037726168364, 19511.731804815747, -53620.73971280333, -27913.193751954288, -34031.42500298322, -33005.681098184716, -187500.02235174447, -48585.76340505641, -23889.611529065554, -27197.37913577308, -57091.27272263441, -65076.366374059486, -29811.8850364548, -53655.362564964606, -48660.86526642624, -32428.46964937087, -0.062, 1.01, 0.062, 192.0, 0.0, 0.0, 0.0, 0.0, 0.0, 0.0, 0.0, 0.0, 0.0, 1.695337881834091E9, 0.0, 2023-09-21 18:11:21.834
136.0, 25360.110445035752, 19513.855220539, -53628.87574778507, -27933.48913591971, -34003.082991013885, -33025.77531645004, -187500.02235174447, -48602.102530253236, -23905.883599029017, -27197.58030147318, -57113.19978394506, -65094.65010102393, -29805.3359753294, -53686.99028336886, -48643.140333073185, -32434.906951774, -0.062, 1.01, 0.062, 192.0, 0.0, 0.0, 0.0, 0.0, 0.0, 0.0, 0.0, 0.0, 0.0, 1.695337881894237E9, 0.0, 2023-09-21 18:11:21.894
138.0, 25295.469200071002, 19519.01847350818, -53630.44036989694, -27923.453202659275, -34040.18688680969, -33009.41383950876, -187500.02235174447, -48593.11712898221, -23906.665910084954, -27209.136153356572, -57110.003484487956, -65095.29830161313, -29814.902521956268, -53639.559881634705, -48644.72730692951, -32415.08095444214, -0.062, 1.01, 0.062, 192.0, 0.0, 0.0, 0.0, 0.0, 0.0, 0.0, 0.0, 0.0, 0.0, 1.695337881894261E9, 0.0, 2023-09-21 18:11:21.894
140.0, 25352.01911354293, 19515.978636262254, -53641.90681480251, -27945.76024362567, -34015.935244075685, -33037.130002633334, -187500.02235174447, -48618.39695196116, -23902.463782127357, -27204.844618421153, -57113.08802522279, -65095.521819057685, -29816.46714406814, -53701.89889692055, -48657.177228591114, -32453.391844438538, -0.062, 1.01, 0.062, 192.0, 0.0, 0.0, 0.0, 0.0, 0.0, 0.0, 0.0, 0.0, 0.0, 1.695337881894265E9, 0.0, 2023-09-21 18:11:21.894
142.0, 25300.990080951462, 19520.24781945322, -53638.55405313421, -27926.62715037193, -34043.51729673354, -33012.185455821214, -187500.02235174447, -48595.91109703912, -23922.4462416704, -27219.373252317102, -57120.195879959574, -65104.08253718407, -29816.0871644124, -53626.79703555072, -48647.58833021979, -32412.801076507698, -0.064, 1.014, 0.066, 192.0, 127.0, 0.0, 15.5, 88.0, 1.0, 8.0, 0.0, 0.0, 0.0, 1.695337881894269E9, 0.0, 2023-09-21 18:11:21.894
144.0, 25338.20573546955, 19514.10108972801, -53647.450047427425, -27945.827298859036, -34013.565959163425, -33030.49153453011, -187500.02235174447, -48611.17733850209, -23912.812639810163, -27205.00108063234, -57109.62350483221, -65093.44310682334, -29826.65953953976, -53701.09423412016, -48662.67575772712, -32451.536649648748, -0.064, 1.014, 0.066, 192.0, 0.0, 0.0, 0.0, 0.0, 0.0, 0.0, 0.0, 0.0, 0.0, 1.695337881894272E9, 0.0, 2023-09-21 18:11:21.894
146.0, 25307.516790332415, 19509.742499559226, -53659.5646929222, -27941.088729034513, -34054.29083756099, -33022.310796059464, -187500.02235174447, -48612.29492572486, -23940.037064556727, -27231.376139089603, -57136.51265341195, -65120.26520016971, -29821.205713892665, -53604.51234632878, -48646.04605985237, -32393.913852442965, -0.064, 1.014, 0.066, 192.0, 0.0, 0.0, 0.0, 0.0, 0.0, 0.0, 0.0, 0.0, 0.0, 1.695337881894276E9, 0.0, 2023-09-21 18:11:21.894
148.0, 25315.921046247608, 19522.080662498556, -53641.32566944667, -27933.019749286148, -34008.313299216425, -33017.996909379595, -187500.02235174447, -48598.63800986267, -23910.130430475525, -27207.750345200344, -57105.73430129699, -65089.97858643277, -29839.131812945823, -53695.059263117226, -48682.92643820363, -32449.27912345876, -0.064, 1.014, 0.066, 192.0, 0.0, 0.0, 0.0, 0.0, 0.0, 0.0, 0.0, 0.0, 0.0, 1.69533788189428E9, 0.0, 2023-09-21 18:11:21.894
150.0, 25299.671328028602, 19531.423691680873, -53644.745486348336, -27923.989644526202, -34037.10234607486, -33002.66361268325, -187500.02235174447, -48593.653570849136, -23912.678529343433, -27210.85723767963, -57113.04332173387, -65098.248731881235, -29797.222292092123, -53629.501596629816, -48645.71078368554, -32412.555207318692, -0.064, 1.014, 0.066, 192.0, 0.0, 0.0, 0.0, 0.0, 0.0, 0.0, 0.0, 0.0, 0.0, 1.695337881894283E9, 0.0, 2023-09-21 18:11:21.894
152.0, 25299.358403606228, 19526.171031733877, -53641.52683514677, -27930.58340914052, -34008.24624398306, -33016.25347331208, -187500.02235174447, -48594.88291679417, -23896.96525299135, -27202.76590618681, -57095.8771819922, -65078.668603738384, -29827.799478506982, -53716.807510472245, -48671.6388072537, -32461.393768953538, -0.056, 1.01, 0.066, 192.0, 127.0, 32.0, 15.5, 72.0, 1.0, 8.0, 0.0, 0.0, 0.0, 1.695337881953699E9, 0.0, 2023-09-21 18:11:21.953
154.0, 25309.81902001131, 19536.47518592777, -53646.66773637149, -27926.33657769401, -34033.8836948733, -33006.28459528501, -187500.02235174447, -48593.60886736022, -23914.377261922036, -27210.678423723988, -57117.69248458058, -65101.042699938145, -29795.41180079124, -53625.52298611677, -48631.6291846787, -32404.329765359136, -0.056, 1.01, 0.066, 192.0, 0.0, 0.0, 0.0, 0.0, 0.0, 0.0, 0.0, 0.0, 0.0, 1.69533788195371E9, 0.0, 2023-09-21 18:11:21.953
156.0, 25285.723839488488, 19538.82211909558, -53638.308183945206, -27926.113060249456, -34006.32399395991, -33007.75981041906, -187500.02235174447, -48589.20557370253, -23883.263633640247, -27195.188664816462, -57086.02006268741, -65068.49856001122, -29826.301911628478, -53721.076693663206, -48676.44443231159, -32464.70182713292, -0.056, 1.01, 0.066, 192.0, 0.0, 0.0, 0.0, 0.0, 0.0, 0.0, 0.0, 0.0, 0.0, 1.695337881953714E9, 0.0, 2023-09-21 18:11:21.953
158.0, 25314.15525843564, 19543.560688920104, -53647.025364282774, -27930.426946929332, -34029.54745644897, -33012.453676754674, -187500.02235174447, -48597.29690519535, -23906.21887519585, -27206.744516699855, -57114.183260701095, -65096.50529581372, -29787.208710576146, -53640.118675246085, -48628.589347432775, -32413.47162884136, -0.056, 1.01, 0.066, 192.0, 0.0, 0.0, 0.0, 0.0, 0.0, 0.0, 0.0, 0.0, 0.0, 1.695337881953718E9, 0.0, 2023-09-21 18:11:21.953
160.0, 25271.0163916369, 19533.882383570955, -53644.8125415817, -27936.014883043157, -34021.031441811494, -33021.23791232561, -187500.02235174447, -48600.42614941909, -23893.701898300875, -27213.539447014267, -57097.93354248209, -65084.99414741924, -29833.074490198433, -53711.30898133624, -48665.31326357285, -32460.164423008493, -0.056, 1.01, 0.066, 192.0, 0.0, 0.0, 0.0, 0.0, 0.0, 0.0, 0.0, 0.0, 0.0, 1.695337881953721E9, 0.0, 2023-09-21 18:11:21.953
162.0, 25319.09499396026, 19543.91831683139, -53651.495713173834, -27931.790403341103, -34033.54841870647, -33017.43811576821, -187500.02235174447, -48603.644800620656, -23905.30245367318, -27213.986481903376, -57115.97140025752, -65099.79100224865, -29789.75680944405, -53639.7610473348, -48620.11803628421, -32413.47162884136, -0.052000000000000005, 1.008, 0.07, 192.0, 127.0, 48.0, 15.5, 64.0, 1.0, 24.0, 0.0, 0.0, 0.0, 1.695337881953725E9, 0.0, 2023-09-21 18:11:21.953
164.0, 25257.113606585695, 19547.114616288498, -53642.44325666944, -27925.040176515602, -34022.797229623466, -33015.78408667852, -187500.02235174447, -48605.92467855509, -23879.128560916015, -27205.693984710455, -57086.26593187642, -65068.185635588845, -29833.163897176255, -53711.53249878079, -48672.17524912063, -32466.691132389446, -0.052000000000000005, 1.008, 0.07, 192.0, 0.0, 0.0, 0.0, 0.0, 0.0, 0.0, 0.0, 0.0, 0.0, 1.695337881953729E9, 0.0, 2023-09-21 18:11:21.953
166.0, 25322.15718295064, 19560.995049595243, -53645.706611359914, -27923.877885803926, -34022.75252613456, -33011.73842093211, -187500.02235174447, -48601.409626175126, -23895.378279135024, -27202.698850953442, -57109.82467053231, -65085.731754986264, -29782.55954772944, -53657.41892545449, -48629.81869337782, -32423.529913846247, -0.052000000000000005, 1.008, 0.07, 192.0, 0.0, 0.0, 0.0, 0.0, 0.0, 0.0, 0.0, 0.0, 0.0, 1.695337882014275E9, 0.0, 2023-09-21 18:11:22.014
168.0, 25248.061150081296, 19563.45374148533, -53635.782436821755, -27913.372565909933, -34026.37350873632, -33005.055249339974, -187500.02235174447, -48593.005370259925, -23872.91477595744, -27198.18379857347, -57079.649815517645, -65059.244937806725, -29831.129888430823, -53716.025199416305, -48665.76029846195, -32463.80775735471, -0.052000000000000005, 1.008, 0.07, 192.0, 0.0, 0.0, 0.0, 0.0, 0.0, 0.0, 0.0, 0.0, 0.0, 1.695337882014289E9, 0.0, 2023-09-21 18:11:22.014
170.0, 25324.414709140627, 19558.782226894167, -53657.84360859914, -27937.28893247711, -34027.91577910373, -33025.037708883014, -187500.02235174447, -48610.12680651269, -23894.461857612358, -27198.921406140496, -57106.96364724203, -65082.91543518489, -29781.531367484495, -53668.974777337884, -48613.85954783673, -32424.51339060228, -0.052000000000000005, 1.008, 0.07, 192.0, 0.0, 0.0, 0.0, 0.0, 0.0, 0.0, 0.0, 0.0, 0.0, 1.695337882014293E9, 0.0, 2023-09-21 18:11:22.014
172.0, 25239.56748718828, 19543.53833717565, -53659.967024322395, -27935.590199898506, -34046.490078746094, -33024.85889492737, -187500.02235174447, -48608.49512916746, -23896.67468031343, -27218.076851138696, -57101.86744950622, -65080.36733631699, -29837.36602513385, -53684.33042577868, -48663.6368827387, -32443.445318155926, -0.052000000000000005, 1.01, 0.066, 192.0, 127.0, 48.0, 15.5, 72.0, 1.0, 8.0, 0.0, 0.0, 0.0, 1.695337882014296E9, 0.0, 2023-09-21 18:11:22.014
174.0, 25314.177610180093, 19554.11071230301, -53661.308128989716, -27939.56881041155, -34037.10234607486, -33031.273845586045, -187500.02235174447, -48616.76527461592, -23907.090593229605, -27213.20417084744, -57117.401911902656, -65094.38188009046, -29803.592539261885, -53660.65992840051, -48634.95959460254, -32421.719422545368, -0.052000000000000005, 1.01, 0.066, 192.0, 0.0, 0.0, 0.0, 0.0, 0.0, 0.0, 0.0, 0.0, 0.0, 1.6953378820143E9, 0.0, 2023-09-21 18:11:22.014
176.0, 25223.56363815828, 19567.49940723174, -53641.68329735796, -27914.46780138824, -34046.423023512725, -33006.57516796293, -187500.02235174447, -48585.673998078586, -23893.29956690068, -27213.539447014267, -57094.29020813587, -65074.488827525245, -29837.880115256325, -53667.298396503735, -48669.80596420836, -32438.527934375757, -0.052000000000000005, 1.01, 0.066, 192.0, 0.0, 0.0, 0.0, 0.0, 0.0, 0.0, 0.0, 0.0, 0.0, 1.695337882014303E9, 0.0, 2023-09-21 18:11:22.014
178.0, 25299.939548962066, 19576.663622458414, -53647.3606404496, -27928.884676561916, -34024.98770058009, -33018.4439442687, -187500.02235174447, -48609.09862626775, -23882.995412706783, -27187.745533912843, -57090.40100460065, -65066.03986812114, -29788.527463499006, -53689.06899560321, -48642.939167373086, -32446.731024590856, -0.052000000000000005, 1.01, 0.066, 192.0, 0.0, 0.0, 0.0, 0.0, 0.0, 0.0, 0.0, 0.0, 0.0, 1.695337882014307E9, 0.0, 2023-09-21 18:11:22.014
180.0, 25216.768707843865, 19581.089267860567, -53639.559881634705, -27911.070336231034, -34043.65140720027, -32993.27588001202, -187500.02235174447, -48580.086061964765, -23877.25101438177, -27192.57351071519, -57073.972472426, -65051.37712375845, -29808.889902697792, -53679.3683385096, -48666.74377521798, -32454.151803750017, -0.052000000000000005, 1.01, 0.066, 192.0, 0.0, 0.0, 0.0, 0.0, 0.0, 0.0, 0.0, 0.0, 0.0, 1.69533788201431E9, 0.0, 2023-09-21 18:11:22.014
182.0, 25292.42936282508, 19569.712229932815, -53654.28968123075, -27934.941999309303, -34026.12763954731, -33023.718955960154, -187500.02235174447, -48608.71864661201, -23893.05369771167, -27195.121609583093, -57096.68184479259, -65069.97377514527, -29790.829693177904, -53700.2225160864, -48647.6330337087, -32453.70476886091, -0.06, 1.01, 0.064, 192.0, 127.0, 16.0, 15.5, 72.0, 1.0, 0.0, 0.0, 0.0, 0.0, 1.695337882074503E9, 0.0, 2023-09-21 18:11:22.074
184.0, 25217.93099855554, 19572.528549734183, -53650.48988467335, -27917.105307233967, -34057.77770969602, -33006.86574064085, -187500.02235174447, -48598.9732860295, -23896.764087291253, -27210.320795812702, -57096.32421688131, -65073.68416472485, -29811.840332965894, -53658.73767837736, -48660.97702514852, -32435.197524451916, -0.06, 1.01, 0.064, 192.0, 0.0, 0.0, 0.0, 0.0, 0.0, 0.0, 0.0, 0.0, 0.0, 1.695337882074516E9, 0.0, 2023-09-21 18:11:22.074
186.0, 25280.091199885752, 19580.93280564938, -53639.78339907926, -27917.127658978425, -34015.06352604193, -33011.80547616547, -187500.02235174447, -48596.514594139415, -23874.591156791586, -27183.453998977424, -57075.62650151569, -65054.21579530428, -29793.333088556898, -53721.18845238548, -48654.897350656676, -32468.166347523493, -0.06, 1.01, 0.064, 192.0, 0.0, 0.0, 0.0, 0.0, 0.0, 0.0, 0.0, 0.0, 0.0, 1.69533788207452E9, 0.0, 2023-09-21 18:11:22.074
188.0, 25221.66373987958, 19575.411924768916, -53648.075896272174, -27913.081993232012, -34052.50269800457, -32999.98140334862, -187500.02235174447, -48586.97039925699, -23895.31122390166, -27207.280958566782, -57091.58564705678, -65071.82896993506, -29801.782047961005, -53652.65800388551, -48637.619452192725, -32429.74369880482, -0.06, 1.01, 0.064, 192.0, 0.0, 0.0, 0.0, 0.0, 0.0, 0.0, 0.0, 0.0, 0.0, 1.695337882074524E9, 0.0, 2023-09-21 18:11:22.074
190.0, 25264.690847956044, 19575.903663146935, -53645.03605902625, -27923.363795681453, -34014.7282498751, -33019.24860706909, -187500.02235174447, -48607.44459717806, -23876.133427159006, -27190.070115336195, -57074.8218387153, -65056.74154242773, -29803.413725306244, -53729.033914689295, -48653.22096982253, -32471.384998725058, -0.06, 1.01, 0.064, 192.0, 0.0, 0.0, 0.0, 0.0, 0.0, 0.0, 0.0, 0.0, 0.0, 1.695337882074528E9, 0.0, 2023-09-21 18:11:22.074
192.0, 25228.03398704934, 19565.800674653136, -53662.24690225684, -27930.404595184875, -34054.179078838715, -33020.25443556958, -187500.02235174447, -48604.00242853194, -23903.268444927748, -27214.746441214855, -57100.16871692762, -65080.23322585026, -29797.93754791469, -53648.210006738904, -48631.15979804514, -32420.71359404488, -0.06, 1.004, 0.066, 192.0, 127.0, 16.0, 15.5, 48.0, 1.0, 8.0, 0.0, 0.0, 0.0, 1.695337882074532E9, 0.0, 2023-09-21 18:11:22.074
194.0, 25254.789025162343, 19562.9172996184, -53658.648271399536, -27939.05472028908, -34026.9323023477, -33034.80542120998, -187500.02235174447, -48618.888690339176, -23895.802962279675, -27209.76200220132, -57094.35726336924, -65074.77940020316, -29819.70814701416, -53712.09129239217, -48661.647577482174, -32455.60466713961, -0.06, 1.004, 0.066, 192.0, 0.0, 0.0, 0.0, 0.0, 0.0, 0.0, 0.0, 0.0, 0.0, 1.695337882074536E9, 0.0, 2023-09-21 18:11:22.074
196.0, 25230.47032719497, 19566.828854898078, -53662.58217842367, -27932.23743823021, -34062.136299864804, -33021.86376117036, -187500.02235174447, -48608.51748091191, -23907.53762811871, -27218.43447904998, -57106.76248154193, -65088.10103989852, -29803.927815428713, -53631.513253630794, -48647.14129533068, -32413.762201519276, -0.06, 1.004, 0.066, 192.0, 0.0, 0.0, 0.0, 0.0, 0.0, 0.0, 0.0, 0.0, 0.0, 1.695337882134442E9, 0.0, 2023-09-21 18:11:22.134
198.0, 25239.61219067719, 19562.984354851767, -53658.93884407746, -27938.920609822348, -34034.86717162933, -33031.9443979197, -187500.02235174447, -48614.99948680395, -23899.938035003906, -27218.43447904998, -57100.23577216098, -65080.54615027263, -29830.839315752903, -53708.11268187913, -48681.76414749195, -32461.99726605383, -0.06, 1.004, 0.066, 192.0, 0.0, 0.0, 0.0, 0.0, 0.0, 0.0, 0.0, 0.0, 0.0, 1.695337882134454E9, 0.0, 2023-09-21 18:11:22.134
200.0, 25235.94650458652, 19576.52951199168, -53651.54041666275, -27920.10044099098, -34052.03331137101, -33012.63249071032, -187500.02235174447, -48600.73907384146, -23893.83600876761, -27213.226522591893, -57097.79943201535, -65079.29445258313, -29795.389449046786, -53633.4578553984, -48643.967347618025, -32421.94293998992, -0.06, 1.004, 0.066, 192.0, 0.0, 0.0, 0.0, 0.0, 0.0, 0.0, 0.0, 0.0, 0.0, 1.695337882134457E9, 0.0, 2023-09-21 18:11:22.134
202.0, 25219.160344500586, 19577.58004398108, -53643.31497470319, -27923.117926492447, -34022.730174390104, -33014.4429820112, -187500.02235174447, -48601.00729477493, -23873.451217824368, -27204.28582480977, -57077.906379450134, -65059.84843490701, -29819.50698131406, -53725.81526348773, -48675.371548577736, -32479.029295328775, -0.058, 1.004, 0.068, 192.0, 127.0, 24.0, 15.5, 48.0, 1.0, 16.0, 0.0, 0.0, 0.0, 1.695337882134461E9, 0.0, 2023-09-21 18:11:22.134
204.0, 25238.159327287594, 19593.78505871118, -53647.49475091634, -27914.847781043984, -34042.69028218869, -33005.01054585106, -187500.02235174447, -48593.45240514904, -23889.231549409815, -27208.085621367172, -57096.45832734804, -65076.299318826124, -29781.799588417958, -53643.5608438922, -48631.4280189786, -32426.32388190316, -0.058, 1.004, 0.068, 192.0, 0.0, 0.0, 0.0, 0.0, 0.0, 0.0, 0.0, 0.0, 0.0, 1.695337882134464E9, 0.0, 2023-09-21 18:11:22.134
206.0, 25212.119544997164, 19582.452724272338, -53653.28385273026, -27936.23840048771, -34029.100421559866, -33029.306892073975, -187500.02235174447, -48604.31535295431, -23872.713610257342, -27198.452019506934, -57074.754783481934, -65054.59577496002, -29818.47880106912, -53732.118455424126, -48677.89729570119, -32482.538519208258, -0.058, 1.004, 0.068, 192.0, 0.0, 0.0, 0.0, 0.0, 0.0, 0.0, 0.0, 0.0, 0.0, 1.695337882134468E9, 0.0, 2023-09-21 18:11:22.134
208.0, 25253.023237350375, 19601.49641054826, -53657.70949813241, -27931.52218240764, -34048.41232876925, -33020.1426768473, -187500.02235174447, -48608.91981231211, -23900.87680827103, -27218.702699983445, -57108.21534493153, -65087.765763731695, -29785.688791953184, -53636.6094513666, -48635.49603646947, -32416.6008730651, -0.058, 1.004, 0.068, 192.0, 0.0, 0.0, 0.0, 0.0, 0.0, 0.0, 0.0, 0.0, 0.0, 1.695337882134471E9, 0.0, 2023-09-21 18:11:22.134
210.0, 25197.59091110121, 19612.269951375718, -53628.87574778507, -27912.09851647598, -34019.220950510615, -32999.735534159605, -187500.02235174447, -48589.00440800243, -23850.67479022441, -27194.652222949535, -57054.39234428315, -65039.84362361952, -29826.614836050852, -53735.15829267005, -48685.51924056045, -32484.4160657425, -0.058, 1.004, 0.068, 192.0, 0.0, 0.0, 0.0, 0.0, 0.0, 0.0, 0.0, 0.0, 0.0, 1.695337882134476E9, 0.0, 2023-09-21 18:11:22.134
212.0, 25254.252583295416, 19601.898741948455, -53655.071992286685, -27931.075147518535, -34037.8846571308, -33013.928891888725, -187500.02235174447, -48601.45432966403, -23875.52993005871, -27193.221711304395, -57084.79071674237, -65067.04569662162, -29764.298172509454, -53677.33432976417, -48621.28032699589, -32436.046890741218, -0.056, 1.006, 0.076, 192.0, 127.0, 32.0, 15.5, 56.0, 1.0, 48.0, 0.0, 0.0, 0.0, 1.695337882193664E9, 0.0, 2023-09-21 18:11:22.193
214.0, 25188.73962029691, 19575.434276513373, -53668.55009419323, -27951.236421017224, -34053.66498871625, -33038.11347938937, -187500.02235174447, -48621.43678920708, -23885.67762204142, -27219.19443836146, -57088.34464411076, -65071.09136236804, -29829.587618063408, -53721.0319901743, -48672.59993226528, -32467.294629489737, -0.056, 1.006, 0.076, 192.0, 0.0, 0.0, 0.0, 0.0, 0.0, 0.0, 0.0, 0.0, 0.0, 1.695337882193674E9, 0.0, 2023-09-21 18:11:22.193
216.0, 25264.109702600206, 19577.669450958903, -53682.00584435533, -27963.44047348982, -34065.13143362182, -33046.16010739328, -187500.02235174447, -48629.55047244435, -23918.93701779092, -27234.48303156889, -57125.11326373974, -65103.277874383675, -29795.2329868356, -53649.394649195034, -48638.7817429044, -32416.42205910946, -0.056, 1.006, 0.076, 192.0, 0.0, 0.0, 0.0, 0.0, 0.0, 0.0, 0.0, 0.0, 0.0, 1.695337882193678E9, 0.0, 2023-09-21 18:11:22.193
218.0, 25184.40338187258, 19590.432297042884, -53650.08755327315, -27930.58340914052, -34051.60862822636, -33013.034822110516, -187500.02235174447, -48596.20166971704, -23886.19171216389, -27224.760022730832, -57084.09781266425, -65066.46455126579, -29838.975350734636, -53689.82895491469, -48684.647522526684, -32449.681454858957, -0.056, 1.006, 0.076, 192.0, 0.0, 0.0, 0.0, 0.0, 0.0, 0.0, 0.0, 0.0, 0.0, 1.695337882193681E9, 0.0, 2023-09-21 18:11:22.193
220.0, 25264.266164811394, 19579.234073070773, -53674.18273379597, -27953.40454022939, -34053.486174760605, -33038.739328234115, -187500.02235174447, -48627.71762939902, -23896.808790780164, -27213.450040036445, -57103.476775107, -65079.585025261054, -29781.531367484495, -53665.15262903603, -48635.227815536, -32427.150896448005, -0.056, 1.006, 0.076, 192.0, 0.0, 0.0, 0.0, 0.0, 0.0, 0.0, 0.0, 0.0, 0.0, 1.695337882193685E9, 0.0, 2023-09-21 18:11:22.193
222.0, 25174.903890479076, 19579.01055562622, -53666.44903021443, -27936.86424933246, -34069.288858090506, -33019.96386289166, -187500.02235174447, -48608.80805358983, -23897.456991369367, -27227.285769854283, -57097.128879681695, -65075.74052521474, -29834.549705332483, -53673.735698906865, -48680.06541491335, -32439.13143147605, -0.058, 1.01, 0.064, 192.0, 127.0, 24.0, 15.5, 72.0, 1.0, 0.0, 0.0, 0.0, 0.0, 1.695337882193688E9, 0.0, 2023-09-21 18:11:22.193
224.0, 25254.364342017692, 19579.099962604043, -53670.36058549411, -27951.05760706158, -34048.591142724894, -33039.40988056778, -187500.02235174447, -48626.62239392071, -23901.01091873776, -27211.34897605765, -57104.34849314076, -65078.22156884928, -29796.90936766975, -53671.7687453948, -48648.8847313982, -32428.581408093145, -0.058, 1.01, 0.064, 192.0, 0.0, 0.0, 0.0, 0.0, 0.0, 0.0, 0.0, 0.0, 0.0, 1.695337882193692E9, 0.0, 2023-09-21 18:11:22.193
226.0, 25173.9427654675, 19572.05916310062, -53673.15455355103, -27948.934191338325, -34077.469596561146, -33032.883171186826, -187500.02235174447, -48618.21813800551, -23910.666872342455, -27234.885362969086, -57105.84606001926, -65083.04954565162, -29835.868458255347, -53654.82612309768, -48668.33074907431, -32426.41328888098, -0.058, 1.01, 0.064, 192.0, 0.0, 0.0, 0.0, 0.0, 0.0, 0.0, 0.0, 0.0, 0.0, 1.695337882253966E9, 0.0, 2023-09-21 18:11:22.253
228.0, 25248.95521985951, 19578.83174167058, -53681.17882981048, -27959.126586809947, -34058.35885505186, -33042.82969746944, -187500.02235174447, -48632.299737012356, -23919.696977102398, -27229.118612899616, -57119.97236251502, -65094.38188009046, -29811.52740854352, -53659.38587896656, -48651.946920388575, -32417.673756798955, -0.058, 1.01, 0.064, 192.0, 0.0, 0.0, 0.0, 0.0, 0.0, 0.0, 0.0, 0.0, 0.0, 1.695337882253981E9, 0.0, 2023-09-21 18:11:22.253
230.0, 25166.61139328616, 19593.941520922366, -53661.68810864545, -27929.063490517558, -34069.154747623776, -33013.28069129952, -187500.02235174447, -48606.48347216648, -23896.764087291253, -27226.302293098248, -57089.95396971154, -65069.81731293408, -29832.24747565359, -53650.15460850652, -48678.76901373494, -32424.915722002475, -0.058, 1.01, 0.064, 192.0, 0.0, 0.0, 0.0, 0.0, 0.0, 0.0, 0.0, 0.0, 0.0, 1.695337882253985E9, 0.0, 2023-09-21 18:11:22.253
232.0, 25241.04270232233, 19588.040660386167, -53671.16524829451, -27946.676665148338, -34040.8350873989, -33038.0017206671, -187500.02235174447, -48627.60587067674, -23893.21015992286, -27210.90194116854, -57088.47875457749, -65065.190501831836, -29805.000699162567, -53692.95819913843, -48656.14904834617, -32439.511411131793, -0.058, 1.004, 0.062, 192.0, 127.0, 24.0, 15.5, 48.0, 0.5, 120.0, 0.0, 0.0, 0.0, 1.695337882253988E9, 0.0, 2023-09-21 18:11:22.253
234.0, 25168.958326453965, 19594.790887211668, -53663.02921331277, -27927.454164916777, -34063.45505278767, -33019.58388323592, -187500.02235174447, -48612.518443169414, -23897.97108149184, -27229.81151697773, -57091.38448135668, -65069.526740256166, -29818.925835958224, -53641.39272468004, -48655.165571590136, -32414.052774197196, -0.058, 1.004, 0.062, 192.0, 0.0, 0.0, 0.0, 0.0, 0.0, 0.0, 0.0, 0.0, 0.0, 1.695337882253992E9, 0.0, 2023-09-21 18:11:22.253
236.0, 25225.530591670347, 19597.718965735312, -53665.8678848586, -27939.367644711456, -34030.910912860745, -33027.20582809518, -187500.02235174447, -48614.686562381576, -23889.276252898726, -27210.34314755716, -57087.62938828819, -65062.3071267971, -29808.107591641856, -53702.7259114654, -48653.690356456085, -32442.819469311176, -0.058, 1.004, 0.062, 192.0, 0.0, 0.0, 0.0, 0.0, 0.0, 0.0, 0.0, 0.0, 0.0, 1.695337882253995E9, 0.0, 2023-09-21 18:11:22.253
238.0, 25170.25472763237, 19608.87248621851, -53661.91162609001, -27924.101403248478, -34068.01480865655, -33010.48672324261, -187500.02235174447, -48605.47764366599, -23893.165456433948, -27219.44030755047, -57090.19983890055, -65065.2575570652, -29811.2368358656, -53642.04092526924, -48650.96344363254, -32411.325861373647, -0.058, 1.004, 0.062, 192.0, 0.0, 0.0, 0.0, 0.0, 0.0, 0.0, 0.0, 0.0, 0.0, 1.695337882253998E9, 0.0, 2023-09-21 18:11:22.253
240.0, 25212.588931630726, 19611.50999206424, -53656.59191090964, -27932.975045797237, -34034.50954371805, -33022.28844431501, -187500.02235174447, -48608.65159137864, -23880.715534772342, -27199.18962707396, -57078.71104225052, -65050.19248130232, -29812.242664366087, -53718.77446398431, -48663.838048438796, -32456.364626451093, -0.058, 1.004, 0.062, 192.0, 0.0, 0.0, 0.0, 0.0, 0.0, 0.0, 0.0, 0.0, 0.0, 1.695337882254002E9, 0.0, 2023-09-21 18:11:22.254
242.0, 25176.535567824314, 19624.004617214756, -53650.42282943998, -27913.2384554432, -34059.923477163735, -32992.113589300345, -187500.02235174447, -48584.64581783365, -23888.024555209227, -27201.380098030582, -57080.38742308467, -65051.06419933608, -29798.496341526075, -53644.14198924804, -48641.82158015032, -32414.7009747864, -0.058, 1.006, 0.06, 192.0, 127.0, 24.0, 15.5, 56.0, 0.5, 112.0, 0.0, 0.0, 0.0, 1.695337882314205E9, 0.0, 2023-09-21 18:11:22.314
244.0, 25196.875655278644, 19615.913285721934, -53653.127390519076, -27930.046967273593, -34028.653386670754, -33016.320528545446, -187500.02235174447, -48603.73420759848, -23869.96434568934, -27186.918519368, -57062.528379264884, -65033.4510247053, -29818.590559791395, -53734.420685103025, -48663.279254827416, -32463.405425954516, -0.058, 1.006, 0.06, 192.0, 0.0, 0.0, 0.0, 0.0, 0.0, 0.0, 0.0, 0.0, 0.0, 1.69533788231422E9, 0.0, 2023-09-21 18:11:22.314
