%OpenBCI Raw EXG Data
%Number of channels = 16
%Sample Rate = 125 Hz
%Board = OpenBCI_GUI$BoardCytonSerialDaisy
Sample Index, EXG Channel 0, EXG Channel 1, EXG Channel 2, EXG Channel 3, EXG Channel 4, EXG Channel 5, EXG Channel 6, EXG Channel 7, EXG Channel 8, EXG Channel 9, EXG Channel 10, EXG Channel 11, EXG Channel 12, EXG Channel 13, EXG Channel 14, EXG Channel 15, Accel Channel 0, Accel Channel 1, Accel Channel 2, Other, Other, Other, Other, Other, Other, Other, Analog Channel 0, Analog Channel 1, Analog Channel 2, Timestamp, Other, Timestamp (Formatted)
0.0, 9328.61230714468, 17383.57751173705, -187500.02235174447, -50393.12546171254, 12134.225622919277, -10853.381258652362, -187500.02235174447, -19386.673794588303, 0.0, 0.0, 0.0, 0.0, 0.0, 0.0, 0.0, 0.0, 0.112, 0.487, 0.073, 192.0, 3.5, 0.0, 15.0, 56.0, 2.0, 72.0, 0.0, 0.0, 0.0, 1.695336472520525E9, 0.0, 2023-09-21 17:47:52.520
224.0, 9324.253716975894, 17394.619273497974, -187500.02235174447, -50391.918467511954, 12114.645494776429, -10847.100418460419, -187500.02235174447, -19381.287024174577, -6022.342267315658, 26023.71138616936, -39495.33128682748, -187500.02235174447, -10973.164257188351, -40487.97225808767, 3753.4390394018938, -8665.927787533736, 0.112, 0.487, 0.073, 192.0, 0.0, 0.0, 0.0, 0.0, 0.0, 0.0, 0.0, 0.0, 0.0, 1.695336472520536E9, 0.0, 2023-09-21 17:47:52.520
226.0, 9311.8484988032, 17380.940005891323, -187500.02235174447, -50391.985522745315, 12116.657151777406, -10859.259767444108, -187500.02235174447, -19396.08387900399, -6029.248956352349, 25996.509313167255, -39498.54993802905, -187500.02235174447, -10976.449963623281, -40485.31240049749, 3708.5120330467266, -8663.983185766123, 0.112, 0.487, 0.073, 192.0, 0.0, 0.0, 0.0, 0.0, 0.0, 0.0, 0.0, 0.0, 0.0, 1.695336472520541E9, 0.0, 2023-09-21 17:47:52.520
228.0, 9314.7989290713, 17384.82920942655, -187500.02235174447, -50391.47143262284, 12121.35101811302, -10861.785514567557, -187500.02235174447, -19395.346271436963, -6032.6240697651, 26018.302264011178, -39502.01445841962, -187500.02235174447, -10976.293501412094, -40489.64863892182, 3752.4108591569498, -8669.57112187995, 0.112, 0.487, 0.073, 192.0, 0.0, 0.0, 0.0, 0.0, 0.0, 0.0, 0.0, 0.0, 0.0, 1.695336472520545E9, 0.0, 2023-09-21 17:47:52.520
230.0, 9304.561830110768, 17381.699965202806, -187500.02235174447, -50391.20321168938, 12119.719340767782, -10862.14314247884, -187500.02235174447, -19397.201466226754, -6033.987526176873, 25995.19056024439, -39502.93087994229, -187500.02235174447, -10975.131210700418, -40488.084016809946, 3715.508129061238, -8665.19017996671, 0.112, 0.487, 0.073, 192.0, 0.0, 0.0, 0.0, 0.0, 0.0, 0.0, 0.0, 0.0, 0.0, 1.695336472520548E9, 0.0, 2023-09-21 17:47:52.520
232.0, 9308.071053990252, 17378.324851790054, -187500.02235174447, -50399.24983969329, 12113.527907553662, -10858.611566854903, -187500.02235174447, -19400.710690106236, -6044.895177471063, 26006.746412127784, -39517.794790005064, -187500.02235174447, -10991.850315552989, -40505.58543271845, 3772.6391878890026, -8675.807258582981, 0.165, 0.7344999999999999, 0.11149999999999999, 192.0, 3.0, 104.0, 15.0, 88.0, 2.0, 88.0, 0.0, 0.0, 0.0, 1.695336472520552E9, 0.0, 2023-09-21 17:47:52.520
234.0, 9306.953466767487, 17388.897226917416, -187500.02235174447, -50389.3927203885, 12113.751424998216, -10843.747656792124, -187500.02235174447, -19386.807905055037, -6043.91170071503, 25982.1818449714, -39503.31085959803, -187500.02235174447, -10988.65401609588, -40488.12872029885, 3757.55176038167, -8660.876293286836, 0.165, 0.7344999999999999, 0.11149999999999999, 192.0, 0.0, 0.0, 0.0, 0.0, 0.0, 0.0, 0.0, 0.0, 0.0, 1.695336472520556E9, 0.0, 2023-09-21 17:47:52.520
236.0, 9319.671609362556, 17385.67857571585, -187500.02235174447, -50389.77270004424, 12117.998256444724, -10846.921604504778, -187500.02235174447, -19384.9750620097, -6048.1585321615385, 26002.588987659095, -39507.58004278899, -187500.02235174447, -10994.465469654258, -40499.461054737694, 3798.5448597127033, -8669.504066646585, 0.165, 0.7344999999999999, 0.11149999999999999, 192.0, 0.0, 0.0, 0.0, 0.0, 0.0, 0.0, 0.0, 0.0, 0.0, 1.69533647252056E9, 0.0, 2023-09-21 17:47:52.520
238.0, 9338.51412993838, 17418.334474365052, -187500.02235174447, -50362.32475785312, 12110.599829030018, -10824.301639116007, -187500.02235174447, -19362.57861406548, -6013.178052088982, 25989.982603786302, -39476.689931951754, -187500.02235174447, -10969.40916411986, -40470.98493230164, 3760.569245883137, -8649.700421059182, 0.165, 0.7344999999999999, 0.11149999999999999, 192.0, 0.0, 0.0, 0.0, 0.0, 0.0, 0.0, 0.0, 0.0, 0.0, 1.695336472520563E9, 0.0, 2023-09-21 17:47:52.520
0.0, 4679.270646485168, 8745.142369883344, -93750.01117587223, -25116.38702349508, 6738.961546297258, -5491.3989295242945, -93750.01117587223, -9887.249456316169, -3005.2590972494004, 13025.747302263655, -19738.467900570384, -93750.01117587223, -5484.760461421069, -20242.231517104094, 1888.387130306617, -4326.694229447154, 0.1855, 0.86025, 0.13174999999999998, 192.0, 3.0, 56.0, 15.0, 104.0, 2.0, 96.0, 0.0, 0.0, 0.0, 1.695336472682098E9, 0.0, 2023-09-21 17:47:52.682
2.0, 9382.547066515335, 17516.928019157414, -187500.02235174447, -50215.94318341532, 13470.412906457534, -10963.530655328113, -187500.02235174447, -19755.410522867503, -6186.135850684149, 25543.35004608036, -39424.476256904156, -187500.02235174447, -11366.95729100195, -40687.171004673364, -53626.26059368379, -7137.113170279643, 0.1855, 0.86025, 0.13174999999999998, 192.0, 0.0, 0.0, 0.0, 0.0, 0.0, 0.0, 0.0, 0.0, 0.0, 1.695336472682109E9, 0.0, 2023-09-21 17:47:52.682
4.0, 9374.969825144986, 17508.434356264395, -187500.02235174447, -50225.21915736427, 13461.919243564516, -10985.725937572233, -187500.02235174447, -19772.978994009376, -6163.270016106369, 25523.456993515134, -39402.3480298934, -187500.02235174447, -11350.037020449285, -40674.36345510047, -53796.51383119987, -7145.137446539098, 0.1855, 0.86025, 0.13174999999999998, 192.0, 0.0, 0.0, 0.0, 0.0, 0.0, 0.0, 0.0, 0.0, 0.0, 1.695336472682113E9, 0.0, 2023-09-21 17:47:52.682
6.0, 9393.34295908725, 17522.80652794916, -187500.02235174447, -50219.98884916173, 13491.647063690074, -10983.535466615614, -187500.02235174447, -19764.932366005465, -6156.989175914428, 25537.069205888416, -39400.157558936786, -187500.02235174447, -11349.545282071267, -40679.61611504747, -53917.12384428071, -7158.392031001095, 0.1855, 0.86025, 0.13174999999999998, 192.0, 0.0, 0.0, 0.0, 0.0, 0.0, 0.0, 0.0, 0.0, 0.0, 1.695336472682117E9, 0.0, 2023-09-21 17:47:52.682
8.0, 9386.056290394818, 17521.867754682036, -187500.02235174447, -50225.040343408626, 13468.915339579027, -10998.399376678393, -187500.02235174447, -19777.069363244696, -6154.798704957808, 25521.15476383624, -39397.497701346605, -187500.02235174447, -11349.05354369325, -40678.364417357974, -54057.42574422667, -7170.283159051319, 0.20600000000000002, 0.988, 0.152, 192.0, 3.0, 56.0, 15.0, 112.0, 2.0, 96.0, 0.0, 0.0, 0.0, 1.695336472682121E9, 0.0, 2023-09-21 17:47:52.682
10.0, 9392.80651722032, 17516.61509473504, -187500.02235174447, -50231.09766615602, 13493.815182902239, -11012.70449312979, -187500.02235174447, -19787.842904072157, -6157.7491352259085, 25539.282028589492, -39395.41898911226, -187500.02235174447, -11343.510311068334, -40677.33623711303, -54179.55567593047, -7173.166534086054, 0.20600000000000002, 0.988, 0.152, 192.0, 0.0, 0.0, 0.0, 0.0, 0.0, 0.0, 0.0, 0.0, 0.0, 1.695336472682124E9, 0.0, 2023-09-21 17:47:52.682
12.0, 9377.339110057248, 17509.328426042608, -187500.02235174447, -50234.696297013325, 13463.819141843218, -11016.079606542542, -187500.02235174447, -19792.648529130045, -6161.638338761132, 25520.663025458223, -39400.425779870246, -187500.02235174447, -11346.86307273663, -40689.92026924137, -54298.95869481072, -7187.47165053745, 0.20600000000000002, 0.988, 0.152, 192.0, 0.0, 0.0, 0.0, 0.0, 0.0, 0.0, 0.0, 0.0, 0.0, 1.695336472682128E9, 0.0, 2023-09-21 17:47:52.682
14.0, 9386.279807839372, 17515.31869355663, -187500.02235174447, -50234.31631735758, 13484.360394997644, -11009.597600650502, -187500.02235174447, -19785.048936015242, -6163.292367850825, 25526.38507203878, -39407.488931118125, -187500.02235174447, -11351.623994305612, -40696.402275133405, -54414.76308283366, -7194.1324703851315, 0.20600000000000002, 0.988, 0.152, 192.0, 0.0, 0.0, 0.0, 0.0, 0.0, 0.0, 0.0, 0.0, 0.0, 1.695336472682132E9, 0.0, 2023-09-21 17:47:52.682
16.0, 9372.466429765991, 17509.820164420624, -187500.02235174447, -50234.405724335404, 13458.365316196123, -10996.208905721773, -187500.02235174447, -19775.48238938837, -6164.231141117948, 25496.925472846684, -39413.09921897641, -187500.02235174447, -11352.361601872635, -40694.032990221145, -54526.09712196555, -7191.562019772771, 0.20600000000000002, 0.988, 0.152, 192.0, 0.0, 0.0, 0.0, 0.0, 0.0, 0.0, 0.0, 0.0, 0.0, 1.695336472742484E9, 0.0, 2023-09-21 17:47:52.742
18.0, 9384.245799093938, 17512.770594688725, -187500.02235174447, -50226.69437249832, 13496.184467814503, -10990.41980390785, -187500.02235174447, -19772.129627720074, -6152.898806679107, 25503.519237461, -39407.488931118125, -187500.02235174447, -11344.694953524466, -40684.868774994466, -54671.428164413956, -7180.788478945313, 0.20400000000000001, 0.986, 0.154, 192.0, 3.0, 48.0, 15.0, 104.0, 2.0, 104.0, 0.0, 0.0, 0.0, 1.695336472742516E9, 0.0, 2023-09-21 17:47:52.742
20.0, 9372.600540232723, 17506.646216707974, -187500.02235174447, -50223.60983176349, 13476.157304782548, -10982.060251481564, -187500.02235174447, -19764.351220649627, -6158.799667215308, 25504.23449328357, -39406.61721308437, -187500.02235174447, -11344.873767480109, -40681.13603367043, -54769.79819176176, -7184.074185380243, 0.20400000000000001, 0.986, 0.154, 192.0, 0.0, 0.0, 0.0, 0.0, 0.0, 0.0, 0.0, 0.0, 0.0, 1.69533647274252E9, 0.0, 2023-09-21 17:47:52.742
22.0, 9382.591770004246, 17507.674396952916, -187500.02235174447, -50220.502939284204, 13520.033779148314, -10991.60444636398, -187500.02235174447, -19774.498912632338, -6162.6218155171655, 25504.368603750303, -39410.08173347494, -187500.02235174447, -11344.382029102091, -40680.04079819212, -54914.72690280997, -7183.694205724502, 0.20400000000000001, 0.986, 0.154, 192.0, 0.0, 0.0, 0.0, 0.0, 0.0, 0.0, 0.0, 0.0, 0.0, 1.695336472742524E9, 0.0, 2023-09-21 17:47:52.742
24.0, 9393.09708989824, 17523.454728538363, -187500.02235174447, -50206.62250597746, 13500.230133560914, -10978.260454924162, -187500.02235174447, -19754.695267044935, -6147.690850221021, 25503.04985082744, -39394.70373328969, -187500.02235174447, -11332.6250115186, -40669.31196085358, -55016.896726715175, -7183.202467346486, 0.20400000000000001, 0.986, 0.154, 192.0, 0.0, 0.0, 0.0, 0.0, 0.0, 0.0, 0.0, 0.0, 0.0, 1.695336472742527E9, 0.0, 2023-09-21 17:47:52.742
26.0, 9398.14858414514, 17519.565525003138, -187500.02235174447, -50216.099645626506, 13535.367075844655, -10998.46643191176, -187500.02235174447, -19771.526130619783, -6138.839559416719, 25508.61543519681, -39389.384018109326, -187500.02235174447, -11329.160491128026, -40670.898934709905, -55183.73014732959, -7181.213162089964, 0.20400000000000001, 0.986, 0.154, 192.0, 0.0, 0.0, 0.0, 0.0, 0.0, 0.0, 0.0, 0.0, 0.0, 1.695336472742531E9, 0.0, 2023-09-21 17:47:52.742
28.0, 9398.930895201076, 17523.298266327176, -187500.02235174447, -50217.86543343848, 13509.461404020954, -10996.901809799887, -187500.02235174447, -19765.938194505954, -6139.241890816915, 25510.91766487571, -39395.821320512456, -187500.02235174447, -11335.083703408684, -40682.67830403785, -55256.37331680934, -7200.390958832617, 0.2, 0.99, 0.154, 192.0, 3.0, 32.0, 15.0, 120.0, 2.0, 104.0, 0.0, 0.0, 0.0, 1.695336472742534E9, 0.0, 2023-09-21 17:47:52.742
30.0, 9394.639360265655, 17513.88818191149, -187500.02235174447, -50225.44267480882, 13538.429264835033, -11008.480013427738, -187500.02235174447, -19770.162674208008, -6138.5489867388, 25502.826333382887, -39394.86019550088, -187500.02235174447, -11332.24503186286, -40683.125338926955, -55417.9317257323, -7204.213107134475, 0.2, 0.99, 0.154, 192.0, 0.0, 0.0, 0.0, 0.0, 0.0, 0.0, 0.0, 0.0, 0.0, 1.695336472801843E9, 0.0, 2023-09-21 17:47:52.801
32.0, 9397.05334866683, 17520.50429827026, -187500.02235174447, -50223.94510793032, 13505.795717930285, -10994.867801054455, -187500.02235174447, -19760.976107236875, -6143.265204818869, 25512.079955587382, -39402.70565780469, -187500.02235174447, -11338.19059588797, -40685.71814128377, -55492.51949697966, -7203.18492688953, 0.2, 0.99, 0.154, 192.0, 0.0, 0.0, 0.0, 0.0, 0.0, 0.0, 0.0, 0.0, 0.0, 1.695336472801855E9, 0.0, 2023-09-21 17:47:52.801
34.0, 9381.80945894831, 17505.595684718573, -187500.02235174447, -50233.84693072402, 13532.349590343189, -11000.455737168282, -187500.02235174447, -19768.57570035168, -6138.4372280165235, 25502.42400198269, -39397.31888739096, -187500.02235174447, -11333.161453385526, -40678.09619642451, -55660.47050481683, -7196.054720408288, 0.2, 0.99, 0.154, 192.0, 0.0, 0.0, 0.0, 0.0, 0.0, 0.0, 0.0, 0.0, 0.0, 1.695336472801859E9, 0.0, 2023-09-21 17:47:52.801
36.0, 9380.647168236634, 17509.507239998253, -187500.02235174447, -50237.57967204806, 13522.648933249586, -10994.756042332177, -187500.02235174447, -19767.927499762478, -6160.788972471831, 25506.96140610712, -39420.05061150201, -187500.02235174447, -11355.043811207273, -40692.64718206492, -55693.81930754415, -7213.66789503907, 0.2, 0.99, 0.154, 192.0, 0.0, 0.0, 0.0, 0.0, 0.0, 0.0, 0.0, 0.0, 0.0, 1.695336472801863E9, 0.0, 2023-09-21 17:47:52.801
38.0, 9367.6608047081, 17490.21768453332, -187500.02235174447, -50253.7623350337, 13542.921965470548, -11016.280772242639, -187500.02235174447, -19791.97797679639, -6157.056231147794, 25483.872054084786, -39422.241082458626, -187500.02235174447, -11351.020497205318, -40694.7035425548, -55836.15521623555, -7215.746607273413, 0.198, 0.988, 0.156, 192.0, 3.0, 24.0, 15.0, 112.0, 2.0, 112.0, 0.0, 0.0, 0.0, 1.695336472801866E9, 0.0, 2023-09-21 17:47:52.801
40.0, 9384.826944449776, 17511.563600488138, -187500.02235174447, -50237.95965170379, 13538.362209601666, -10996.36536793296, -187500.02235174447, -19768.95568000742, -6168.634434775643, 25492.969214078097, -39436.501495421115, -187500.02235174447, -11364.878578767608, -40705.61119384899, -55863.20082702647, -7232.331601659251, 0.198, 0.988, 0.156, 192.0, 0.0, 0.0, 0.0, 0.0, 0.0, 0.0, 0.0, 0.0, 0.0, 1.69533647280187E9, 0.0, 2023-09-21 17:47:52.801
42.0, 9388.783203218365, 17513.239981322287, -187500.02235174447, -50225.30856434209, 13555.885977254628, -10990.486859141214, -187500.02235174447, -19759.009153724808, -6143.734591452431, 25482.03921103945, -39412.115742220376, -187500.02235174447, -11341.744523256366, -40681.29249588162, -56015.86324165622, -7214.8525374952005, 0.198, 0.988, 0.156, 192.0, 0.0, 0.0, 0.0, 0.0, 0.0, 0.0, 0.0, 0.0, 0.0, 1.695336472801874E9, 0.0, 2023-09-21 17:47:52.801
44.0, 9387.687967740056, 17511.787117932694, -187500.02235174447, -50234.31631735758, 13554.522520842853, -11004.36729244796, -187500.02235174447, -19770.319136419195, -6142.505245507389, 25497.596025180344, -39410.81934104196, -187500.02235174447, -11341.565709300723, -40685.494623839215, -56083.320806422336, -7217.870022996667, 0.198, 0.988, 0.156, 192.0, 0.0, 0.0, 0.0, 0.0, 0.0, 0.0, 0.0, 0.0, 0.0, 1.695336472801879E9, 0.0, 2023-09-21 17:47:52.801
46.0, 9385.385738061159, 17511.205972576856, -187500.02235174447, -50230.762389989184, 13554.58957607622, -11007.8988680719, -187500.02235174447, -19774.141284721052, -6146.975594398451, 25465.923603287174, -39411.51224512008, -187500.02235174447, -11345.432561091491, -40687.97566747376, -56206.45656662662, -7233.315078415285, 0.198, 0.988, 0.156, 192.0, 0.0, 0.0, 0.0, 0.0, 0.0, 0.0, 0.0, 0.0, 0.0, 1.69533647286226E9, 0.0, 2023-09-21 17:47:52.862
48.0, 9395.756947488422, 17516.458632523852, -187500.02235174447, -50224.92858468635, 13570.21344545048, -11002.266228469161, -187500.02235174447, -19759.389133380548, -6143.555777496788, 25504.994452595052, -39412.22750094265, -187500.02235174447, -11347.041886692274, -40685.31580988358, -56263.78879115448, -7229.872909769168, 0.2, 0.986, 0.158, 192.0, 3.0, 32.0, 15.0, 104.0, 2.0, 120.0, 0.0, 0.0, 0.0, 1.695336472862269E9, 0.0, 2023-09-21 17:47:52.862
50.0, 9386.391566561648, 17514.223458078322, -187500.02235174447, -50221.66522999588, 13561.54096860182, -11010.201097750796, -187500.02235174447, -19765.178235194475, -6136.40321927109, 25478.37352494878, -39410.99815499761, -187500.02235174447, -11339.218776132915, -40680.51018482568, -56371.56890291797, -7236.019639494377, 0.2, 0.986, 0.158, 192.0, 0.0, 0.0, 0.0, 0.0, 0.0, 0.0, 0.0, 0.0, 0.0, 1.695336472862273E9, 0.0, 2023-09-21 17:47:52.862
52.0, 9393.588828276257, 17515.899838912468, -187500.02235174447, -50224.839177708534, 13568.335898916233, -11007.809461094077, -187500.02235174447, -19763.501854360326, -6146.1262281091485, 25504.94974910614, -39418.262471945585, -187500.02235174447, -11343.756180257342, -40688.19918491831, -56439.138226406365, -7240.110008729698, 0.2, 0.986, 0.158, 192.0, 0.0, 0.0, 0.0, 0.0, 0.0, 0.0, 0.0, 0.0, 0.0, 1.695336472862277E9, 0.0, 2023-09-21 17:47:52.862
54.0, 9386.972711917486, 17516.771556946227, -187500.02235174447, -50221.15113987341, 13553.449637108999, -10999.069929012052, -187500.02235174447, -19758.29389790224, -6143.376963541146, 25494.332670489868, -39413.076867231954, -187500.02235174447, -11338.280002865793, -40679.86198423648, -56554.51793128466, -7234.566776104782, 0.2, 0.986, 0.158, 192.0, 0.0, 0.0, 0.0, 0.0, 0.0, 0.0, 0.0, 0.0, 0.0, 1.69533647286228E9, 0.0, 2023-09-21 17:47:52.862
56.0, 9395.958113188519, 17518.67145522493, -187500.02235174447, -50229.1530643884, 13565.58663434823, -10997.527658644636, -187500.02235174447, -19761.914880504, -6156.162161369582, 25512.795211409953, -39431.07002151848, -187500.02235174447, -11345.4772645804, -40691.59665007552, -56618.75684484922, -7244.021564009377, 0.2, 0.986, 0.158, 192.0, 0.0, 0.0, 0.0, 0.0, 0.0, 0.0, 0.0, 0.0, 0.0, 1.695336472862284E9, 0.0, 2023-09-21 17:47:52.862
58.0, 9381.071851381284, 17510.04368186518, -187500.02235174447, -50231.74586674522, 13545.514767827364, -10998.645245867401, -187500.02235174447, -19765.804084039224, -6142.125265851649, 25495.629071668278, -39419.55887312399, -187500.02235174447, -11333.317915596714, -40678.11854816897, -56727.00634324626, -7239.5065116294045, 0.198, 0.986, 0.158, 192.0, 3.0, 24.0, 15.0, 104.0, 2.0, 120.0, 0.0, 0.0, 0.0, 1.69533647286229E9, 0.0, 2023-09-21 17:47:52.862
60.0, 9386.682139239567, 17509.194315575878, -187500.02235174447, -50234.495131313226, 13567.933567516038, -11005.216658737261, -187500.02235174447, -19770.296784674738, -6149.747210710909, 25513.599874210344, -39433.19343724173, -187500.02235174447, -11342.571537801212, -40689.24971690771, -56792.47460275586, -7251.174122235075, 0.198, 0.986, 0.158, 192.0, 0.0, 0.0, 0.0, 0.0, 0.0, 0.0, 0.0, 0.0, 0.0, 1.695336472922494E9, 0.0, 2023-09-21 17:47:52.922
62.0, 9389.118479385195, 17524.862888439045, -187500.02235174447, -50215.2055758483, 13550.275689396345, -10986.150620716884, -187500.02235174447, -19754.941136233945, -6131.150559324094, 25508.503676474535, -39418.66480334578, -187500.02235174447, -11325.114825381617, -40668.864925964466, -56876.94184505247, -7242.389886664139, 0.198, 0.986, 0.158, 192.0, 0.0, 0.0, 0.0, 0.0, 0.0, 0.0, 0.0, 0.0, 0.0, 1.695336472922504E9, 0.0, 2023-09-21 17:47:52.922
64.0, 9391.979502675475, 17523.454728538363, -187500.02235174447, -50215.965535159776, 13581.769297333873, -10986.016510250152, -187500.02235174447, -19753.398865866526, -6129.898861634596, 25527.30149356145, -39422.554006881, -187500.02235174447, -11327.61822076061, -40665.73568174073, -56985.79484054981, -7236.779598805857, 0.198, 0.986, 0.158, 192.0, 0.0, 0.0, 0.0, 0.0, 0.0, 0.0, 0.0, 0.0, 0.0, 1.695336472922508E9, 0.0, 2023-09-21 17:47:52.922
66.0, 9381.250665336927, 17520.861926181547, -187500.02235174447, -50214.82559619255, 13572.582730362741, -10978.50632411317, -187500.02235174447, -19749.44260709794, -6132.983402369428, 25518.874885901798, -39416.98842251163, -187500.02235174447, -11324.354866070136, -40661.600609016496, -57052.98418438246, -7236.712543572491, 0.198, 0.986, 0.158, 192.0, 0.0, 0.0, 0.0, 0.0, 0.0, 0.0, 0.0, 0.0, 0.0, 1.695336472922512E9, 0.0, 2023-09-21 17:47:52.922
68.0, 9397.366273089203, 17529.444996052385, -187500.02235174447, -50207.360113544484, 13612.055911070815, -10977.209922934762, -187500.02235174447, -19752.23657515485, -6139.420704772557, 25528.061452872927, -39420.27412894656, -187500.02235174447, -11333.183805129982, -40672.977646944244, -57124.12978698371, -7244.982689020955, 0.194, 0.984, 0.156, 192.0, 3.0, 8.0, 15.0, 96.0, 2.0, 112.0, 0.0, 0.0, 0.0, 1.695336472922516E9, 0.0, 2023-09-21 17:47:52.922
70.0, 9406.709302271522, 17553.249603897286, -187500.02235174447, -50190.75276741419, 13599.382471964655, -10955.014640690642, -187500.02235174447, -19737.14914764752, -6112.688018404009, 25543.461804802635, -39392.96029722218, -187500.02235174447, -11313.782490942776, -40650.0447571331, -57177.14812483169, -7234.790293549335, 0.194, 0.984, 0.156, 192.0, 0.0, 0.0, 0.0, 0.0, 0.0, 0.0, 0.0, 0.0, 0.0, 1.695336472922519E9, 0.0, 2023-09-21 17:47:52.922
72.0, 9405.837584237765, 17550.433284095918, -187500.02235174447, -50199.46994775176, 13636.12873984918, -10978.059289224064, -187500.02235174447, -19752.370685621583, -6106.027198556328, 25552.87188921832, -39391.194509410205, -187500.02235174447, -11307.85927866212, -40641.81931517355, -57291.23142853158, -7232.443360381528, 0.194, 0.984, 0.156, 192.0, 0.0, 0.0, 0.0, 0.0, 0.0, 0.0, 0.0, 0.0, 0.0, 1.695336472922523E9, 0.0, 2023-09-21 17:47:52.922
74.0, 9397.47803181148, 17539.346818846087, -187500.02235174447, -50209.97526764575, 13620.147242563635, -10986.620007350446, -187500.02235174447, -19760.305554903218, -6106.5636404232555, 25552.693075262676, -39394.79314026751, -187500.02235174447, -11309.870935663097, -40649.53066701063, -57355.44799035168, -7254.750401347924, 0.194, 0.984, 0.156, 192.0, 0.0, 0.0, 0.0, 0.0, 0.0, 0.0, 0.0, 0.0, 0.0, 1.695336472922528E9, 0.0, 2023-09-21 17:47:52.922
76.0, 9392.068909653295, 17521.644237237484, -187500.02235174447, -50216.0549421376, 13658.36872558221, -10998.354673189482, -187500.02235174447, -19764.507682860814, -6118.387713240113, 25534.05172038695, -39405.36551539487, -187500.02235174447, -11319.124557867593, -40661.35473982748, -57464.010413171105, -7264.585168908259, 0.194, 0.984, 0.156, 192.0, 0.0, 0.0, 0.0, 0.0, 0.0, 0.0, 0.0, 0.0, 0.0, 1.695336472981829E9, 0.0, 2023-09-21 17:47:52.981
78.0, 9387.062118895306, 17523.387673305, -187500.02235174447, -50215.31733457057, 13628.50679498992, -10993.660806853868, -187500.02235174447, -19762.473674115383, -6131.374076768646, 25518.4725545016, -39417.480160889645, -187500.02235174447, -11330.233374861882, -40674.85519347849, -57483.90346573633, -7279.337320248762, 0.194, 0.988, 0.15, 192.0, 3.0, 8.0, 15.0, 112.0, 2.0, 88.0, 0.0, 0.0, 0.0, 1.695336472981837E9, 0.0, 2023-09-21 17:47:52.981
80.0, 9378.568456002291, 17509.708405698348, -187500.02235174447, -50221.620526506966, 13664.046068673859, -11006.870687826955, -187500.02235174447, -19775.10240973263, -6117.515995206356, 25520.618321969312, -39408.4500561297, -187500.02235174447, -11320.28684857927, -40664.48398405123, -57598.947894447796, -7271.089526544753, 0.194, 0.988, 0.15, 192.0, 0.0, 0.0, 0.0, 0.0, 0.0, 0.0, 0.0, 0.0, 0.0, 1.69533647298184E9, 0.0, 2023-09-21 17:47:52.981
82.0, 9382.52471477088, 17521.979513404312, -187500.02235174447, -50209.46117752328, 13641.113178862714, -10981.389699147905, -187500.02235174447, -19752.549499577224, -6142.818169929764, 25521.512391747525, -39427.89607380582, -187500.02235174447, -11336.424808076003, -40679.61611504747, -57593.98580717872, -7286.691044174558, 0.194, 0.988, 0.15, 192.0, 0.0, 0.0, 0.0, 0.0, 0.0, 0.0, 0.0, 0.0, 0.0, 1.695336472981844E9, 0.0, 2023-09-21 17:47:52.981
84.0, 9381.42947929257, 17514.55873424515, -187500.02235174447, -50211.696351968814, 13670.438667588076, -10984.898923027387, -187500.02235174447, -19752.124816432573, -6125.227347043437, 25515.18684806667, -39409.94762300821, -187500.02235174447, -11317.850508433641, -40661.26533284967, -57744.25658515174, -7263.780506107868, 0.194, 0.988, 0.15, 192.0, 0.0, 0.0, 0.0, 0.0, 0.0, 0.0, 0.0, 0.0, 0.0, 1.695336472981848E9, 0.0, 2023-09-21 17:47:52.981
86.0, 9379.507229269413, 17513.9328854004, -187500.02235174447, -50218.78185496114, 13664.269586118411, -10987.715242828757, -187500.02235174447, -19752.8624239996, -6133.11751283616, 25520.95359813614, -39422.03991675853, -187500.02235174447, -11325.38304631508, -40674.40815858939, -57779.10295475757, -7274.017605068399, 0.194, 0.988, 0.15, 192.0, 0.0, 0.0, 0.0, 0.0, 0.0, 0.0, 0.0, 0.0, 0.0, 1.695336472981851E9, 0.0, 2023-09-21 17:47:52.981
88.0, 9387.151525873129, 17518.492641269284, -187500.02235174447, -50210.06467462357, 13683.447382861064, -10985.949455016787, -187500.02235174447, -19750.649601298526, -6129.496530234401, 25499.786496136963, -39417.45780914519, -187500.02235174447, -11322.946706169452, -40674.6987312673, -57887.15128745452, -7277.817401625801, 0.196, 0.98, 0.152, 192.0, 3.0, 16.0, 15.0, 80.0, 2.0, 96.0, 0.0, 0.0, 0.0, 1.695336472981855E9, 0.0, 2023-09-21 17:47:52.981
90.0, 9401.657808024622, 17530.115548386046, -187500.02235174447, -50202.532136742135, 13680.675766548607, -10982.484934626214, -187500.02235174447, -19748.81675825319, -6122.053399330784, 25530.229572085093, -39408.74062880762, -187500.02235174447, -11317.358770055625, -40671.83770797702, -57914.085139523166, -7276.588055680759, 0.196, 0.98, 0.152, 192.0, 0.0, 0.0, 0.0, 0.0, 0.0, 0.0, 0.0, 0.0, 0.0, 1.695336473041704E9, 0.0, 2023-09-21 17:47:53.041
92.0, 9404.965866204007, 17541.17966189142, -187500.02235174447, -50190.17162205835, 13682.75447878295, -10976.427611878826, -187500.02235174447, -19740.56896454918, -6108.709407890965, 25507.743717163055, -39394.36845712286, -187500.02235174447, -11303.366578026602, -40649.776536199635, -58040.32779220674, -7271.424802711583, 0.196, 0.98, 0.152, 192.0, 0.0, 0.0, 0.0, 0.0, 0.0, 0.0, 0.0, 0.0, 0.0, 1.695336473041712E9, 0.0, 2023-09-21 17:47:53.041
94.0, 9398.170935889595, 17531.836632709103, -187500.02235174447, -50205.48256701024, 13671.779772255395, -10986.50824862817, -187500.02235174447, -19749.62142105358, -6113.850309115685, 25535.05754888744, -39407.84655902941, -187500.02235174447, -11308.28396180677, -40665.847440463, -58093.547295754826, -7278.7114714040135, 0.196, 0.98, 0.152, 192.0, 0.0, 0.0, 0.0, 0.0, 0.0, 0.0, 0.0, 0.0, 0.0, 1.695336473041715E9, 0.0, 2023-09-21 17:47:53.041
96.0, 9377.562627501802, 17519.766690703236, -187500.02235174447, -50210.46700602377, 13671.220978644013, -10987.111745728464, -187500.02235174447, -19745.262830884796, -6120.7122946634645, 25511.85643814283, -39416.429628900245, -187500.02235174447, -11308.306313551226, -40667.79204223061, -58197.97464585002, -7283.427689484083, 0.196, 0.98, 0.152, 192.0, 0.0, 0.0, 0.0, 0.0, 0.0, 0.0, 0.0, 0.0, 0.0, 1.695336473041719E9, 0.0, 2023-09-21 17:47:53.041
98.0, 9372.980519888464, 17510.133088843, -187500.02235174447, -50217.44075029383, 13681.927464238104, -10987.55878061757, -187500.02235174447, -19747.8109297527, -6127.171948811048, 25526.161554594226, -39423.04574525902, -187500.02235174447, -11308.99921762934, -40673.268219622165, -58245.0474196729, -7295.743500678957, 0.198, 0.978, 0.154, 192.0, 3.0, 24.0, 15.0, 72.0, 2.0, 104.0, 0.0, 0.0, 0.0, 1.695336473041723E9, 0.0, 2023-09-21 17:47:53.041
100.0, 9362.654013950112, 17507.94261788638, -187500.02235174447, -50212.63512523593, 13671.735068766484, -10987.357614917471, -187500.02235174447, -19746.223955896374, -6128.758922667375, 25498.065411813906, -39421.682288847245, -187500.02235174447, -11309.490956007357, -40665.75803348518, -58338.03067660698, -7301.174974581597, 0.198, 0.978, 0.154, 192.0, 0.0, 0.0, 0.0, 0.0, 0.0, 0.0, 0.0, 0.0, 0.0, 1.695336473041726E9, 0.0, 2023-09-21 17:47:53.041
102.0, 9352.439266734036, 17497.03496659219, -187500.02235174447, -50223.721590485766, 13681.413374115631, -10994.800745821089, -187500.02235174447, -19755.18700542295, -6143.801646685797, 25516.639711456268, -39435.40625994281, -187500.02235174447, -11316.934086910975, -40676.397463845904, -58378.442630582176, -7308.64045722967, 0.198, 0.978, 0.154, 192.0, 0.0, 0.0, 0.0, 0.0, 0.0, 0.0, 0.0, 0.0, 0.0, 1.69533647304173E9, 0.0, 2023-09-21 17:47:53.041
104.0, 9340.816359617276, 17494.196295046368, -187500.02235174447, -50223.431017807845, 13663.80019948485, -10990.50921088567, -187500.02235174447, -19754.315287389196, -6149.568396755266, 25493.23743501156, -39439.67544313377, -187500.02235174447, -11319.929220667986, -40672.03887367712, -58448.94003259421, -7315.25657358844, 0.198, 0.978, 0.154, 192.0, 0.0, 0.0, 0.0, 0.0, 0.0, 0.0, 0.0, 0.0, 0.0, 1.695336473041733E9, 0.0, 2023-09-21 17:47:53.041
106.0, 9345.04083931933, 17494.911550868936, -187500.02235174447, -50218.044247394115, 13684.430859617098, -10982.551989859581, -187500.02235174447, -19751.588374565647, -6150.17189385556, 25511.454106742636, -39439.586036155946, -187500.02235174447, -11319.795110201254, -40669.28960910912, -58504.886448965844, -7312.6414194871695, 0.198, 0.978, 0.154, 192.0, 0.0, 0.0, 0.0, 0.0, 0.0, 0.0, 0.0, 0.0, 0.0, 1.695336473101987E9, 0.0, 2023-09-21 17:47:53.101
108.0, 9331.18275775704, 17489.770649644215, -187500.02235174447, -50215.69731422631, 13662.392039584165, -10975.801763034078, -187500.02235174447, -19748.503833830815, -6154.195207857515, 25489.549397176434, -39446.31391123699, -187500.02235174447, -11317.626990989089, -40664.01459741767, -58573.43924921027, -7315.368332310717, 0.198, 0.986, 0.148, 192.0, 3.0, 24.0, 15.0, 104.0, 2.0, 80.0, 0.0, 0.0, 0.0, 1.695336473101999E9, 0.0, 2023-09-21 17:47:53.101
110.0, 9341.665725906578, 17492.51991421222, -187500.02235174447, -50214.55737525909, 13704.52507788242, -10981.434402636814, -187500.02235174447, -19748.19090940844, -6153.055268890294, 25498.08776355836, -39444.57047516948, -187500.02235174447, -11314.073063620695, -40661.95823692778, -58662.4438956313, -7314.787186954879, 0.198, 0.986, 0.148, 192.0, 0.0, 0.0, 0.0, 0.0, 0.0, 0.0, 0.0, 0.0, 0.0, 1.695336473102002E9, 0.0, 2023-09-21 17:47:53.102
112.0, 9322.912612308575, 17479.019460561212, -187500.02235174447, -50229.242471366226, 13678.686461292084, -10994.778394076633, -187500.02235174447, -19764.082999716164, -6150.261300833381, 25471.17626323417, -39451.879495606365, -187500.02235174447, -11319.392778801059, -40674.34110335602, -58742.35138205903, -7323.616126014725, 0.198, 0.986, 0.148, 192.0, 0.0, 0.0, 0.0, 0.0, 0.0, 0.0, 0.0, 0.0, 0.0, 1.695336473102006E9, 0.0, 2023-09-21 17:47:53.102
114.0, 9335.630754903646, 17485.0767833086, -187500.02235174447, -50223.81099746359, 13713.71164485355, -10984.898923027387, -187500.02235174447, -19752.616554810593, -6166.421612074568, 25479.021725537983, -39466.78810915806, -187500.02235174447, -11326.947668426952, -40679.61611504747, -58811.932362548396, -7326.298335349362, 0.198, 0.986, 0.148, 192.0, 0.0, 0.0, 0.0, 0.0, 0.0, 0.0, 0.0, 0.0, 0.0, 1.695336473102009E9, 0.0, 2023-09-21 17:47:53.102
116.0, 9332.434455446537, 17482.349870485054, -187500.02235174447, -50218.22306134976, 13689.102374208258, -10966.950472229777, -187500.02235174447, -19737.52912730326, -6165.371080085169, 25479.37935344927, -39459.45673697672, -187500.02235174447, -11316.330589810681, -40676.95625745729, -58878.31704358066, -7322.364428325228, 0.198, 0.986, 0.148, 192.0, 0.0, 0.0, 0.0, 0.0, 0.0, 0.0, 0.0, 0.0, 0.0, 1.695336473102012E9, 0.0, 2023-09-21 17:47:53.102
118.0, 9343.453865463003, 17492.60932119004, -187500.02235174447, -50214.602078748, 13732.531813684918, -10975.377079889427, -187500.02235174447, -19737.95381044791, -6163.426478317557, 25499.741792648056, -39452.28182700656, -187500.02235174447, -11311.90494440853, -40663.43345206183, -58968.43927722446, -7312.5296607648925, 0.196, 1.0, 0.148, 192.0, 3.0, 16.0, 15.5, 32.0, 2.0, 80.0, 0.0, 0.0, 0.0, 1.695336473102016E9, 0.0, 2023-09-21 17:47:53.102
120.0, 9335.161368270084, 17492.877542123504, -187500.02235174447, -50226.51555854268, 13702.155792970158, -10987.849353295489, -187500.02235174447, -19751.186043165453, -6160.319585838269, 25497.461914713615, -39449.934893838756, -187500.02235174447, -11313.827194431686, -40674.40815858939, -58998.74824270586, -7322.006800413943, 0.196, 1.0, 0.148, 192.0, 0.0, 0.0, 0.0, 0.0, 0.0, 0.0, 0.0, 0.0, 0.0, 1.695336473162236E9, 0.0, 2023-09-21 17:47:53.162
122.0, 9340.07875205025, 17492.251693278755, -187500.02235174447, -50228.549567288115, 13739.997296332991, -11002.266228469161, -187500.02235174447, -19755.477578100872, -6158.93377768204, 25496.009051324017, -39446.44802170373, -187500.02235174447, -11310.85441241913, -40688.31094364059, -59080.957958812476, -7338.100056421764, 0.196, 1.0, 0.148, 192.0, 0.0, 0.0, 0.0, 0.0, 0.0, 0.0, 0.0, 0.0, 0.0, 1.695336473162243E9, 0.0, 2023-09-21 17:47:53.162
124.0, 9357.04372609183, 17517.37505404652, -187500.02235174447, -50205.59432573251, 13712.012912274948, -10974.214789177751, -187500.02235174447, -19729.594258021625, -6149.076658377249, 25514.873923644296, -39432.38877444134, -187500.02235174447, -11303.612447215612, -40675.68220802334, -59107.4000725031, -7337.518911065926, 0.196, 1.0, 0.148, 192.0, 0.0, 0.0, 0.0, 0.0, 0.0, 0.0, 0.0, 0.0, 0.0, 1.695336473162247E9, 0.0, 2023-09-21 17:47:53.162
126.0, 9370.991214631942, 17522.18067910441, -187500.02235174447, -50201.36984603046, 13749.943822615603, -10982.350824159483, -187500.02235174447, -19728.342560332127, -6122.5451377088, 25532.151822108248, -39399.39759962531, -187500.02235174447, -11282.445345216436, -40657.77846071464, -59255.21215858605, -7321.649172502658, 0.196, 1.0, 0.148, 192.0, 0.0, 0.0, 0.0, 0.0, 0.0, 0.0, 0.0, 0.0, 0.0, 1.69533647316225E9, 0.0, 2023-09-21 17:47:53.162
128.0, 9373.069926866285, 17526.60632450656, -187500.02235174447, -50202.48743325323, 13721.780624601917, -10979.400393891383, -187500.02235174447, -19723.00049340731, -6131.061152346272, 25536.15278436575, -39398.972916480656, -187500.02235174447, -11296.169316311994, -40668.28378060863, -59301.18969693062, -7329.092303406275, 0.196, 0.992, 0.148, 192.0, 3.0, 16.0, 15.5, 0.0, 2.0, 80.0, 0.0, 0.0, 0.0, 1.695336473162254E9, 0.0, 2023-09-21 17:47:53.162
130.0, 9380.177781603072, 17529.668513496938, -187500.02235174447, -50205.84019492152, 13747.306316769877, -10985.256550938673, -187500.02235174447, -19725.503888786305, -6120.846405130196, 25527.614417983823, -39384.287820373516, -187500.02235174447, -11290.894304620542, -40664.595742773505, -59426.650038558255, -7323.727884737002, 0.196, 0.992, 0.148, 192.0, 0.0, 0.0, 0.0, 0.0, 0.0, 0.0, 0.0, 0.0, 0.0, 1.695336473162258E9, 0.0, 2023-09-21 17:47:53.162
132.0, 9384.178743860573, 17536.08346415561, -187500.02235174447, -50205.92960189934, 13737.985639332013, -10976.02528047863, -187500.02235174447, -19719.8041939502, -6122.8804138756295, 25529.80488894044, -39379.16927089325, -187500.02235174447, -11288.681481919466, -40668.52964979764, -59466.838475088894, -7325.091341148775, 0.196, 0.992, 0.148, 192.0, 0.0, 0.0, 0.0, 0.0, 0.0, 0.0, 0.0, 0.0, 0.0, 1.695336473162261E9, 0.0, 2023-09-21 17:47:53.162
134.0, 9383.128211871173, 17522.717120971338, -187500.02235174447, -50213.61860199197, 13745.76404640246, -10985.681234083324, -187500.02235174447, -19736.27742961376, -6129.8094546567745, 25508.503676474535, -39382.72319826164, -187500.02235174447, -11300.19263031395, -40673.558792300086, -59582.486400900656, -7330.567518540325, 0.196, 0.992, 0.148, 192.0, 0.0, 0.0, 0.0, 0.0, 0.0, 0.0, 0.0, 0.0, 0.0, 1.695336473162264E9, 0.0, 2023-09-21 17:47:53.162
136.0, 9393.34295908725, 17536.28462985571, -187500.02235174447, -50206.39898853291, 13720.506575167963, -10968.783315275112, -187500.02235174447, -19722.732272473844, -6124.355629009679, 25546.38988332628, -39372.664913256755, -187500.02235174447, -11292.123650565583, -40665.53451604063, -59619.65735192983, -7333.026210430409, 0.196, 0.992, 0.148, 192.0, 0.0, 0.0, 0.0, 0.0, 0.0, 0.0, 0.0, 0.0, 0.0, 1.695336473222581E9, 0.0, 2023-09-21 17:47:53.222
138.0, 9386.123345628184, 17530.339065830598, -187500.02235174447, -50209.28236356764, 13733.358828229766, -10970.236178664707, -187500.02235174447, -19718.82071719417, -6125.897899377096, 25527.592066239366, -39377.425834825735, -187500.02235174447, -11293.867086633098, -40664.50633579568, -59740.401475477396, -7333.160320897141, 0.198, 0.988, 0.154, 192.0, 3.0, 24.0, 15.0, 112.0, 2.0, 104.0, 0.0, 0.0, 0.0, 1.695336473222606E9, 0.0, 2023-09-21 17:47:53.222
140.0, 9387.28563633986, 17526.919248928934, -187500.02235174447, -50219.98884916173, 13742.947726601093, -10978.394565390894, -187500.02235174447, -19722.1064236291, -6132.603422713688, 25538.030330899994, -39387.75234076409, -187500.02235174447, -11298.538601224256, -40675.9504289568, -59778.13122011795, -7344.112675680241, 0.198, 0.988, 0.154, 192.0, 0.0, 0.0, 0.0, 0.0, 0.0, 0.0, 0.0, 0.0, 0.0, 1.695336473222611E9, 0.0, 2023-09-21 17:47:53.222
142.0, 9394.013511420908, 17539.74915024628, -187500.02235174447, -50211.27166882416, 13760.516197742963, -10969.36446063095, -187500.02235174447, -19706.393147277016, -6124.959126109973, 25506.737888662567, -39377.627000525834, -187500.02235174447, -11285.99927258483, -40672.843536477514, -59897.221314575836, -7348.270100148929, 0.198, 0.988, 0.154, 192.0, 0.0, 0.0, 0.0, 0.0, 0.0, 0.0, 0.0, 0.0, 0.0, 1.695336473222615E9, 0.0, 2023-09-21 17:47:53.222
144.0, 9388.045595651342, 17523.432376793906, -187500.02235174447, -50229.22011962177, 13765.590043734319, -10989.995120763198, -187500.02235174447, -19720.988836406334, -6124.333277265225, 25534.252886087048, -39381.53855580551, -187500.02235174447, -11292.391871499047, -40678.789100502625, -59944.02586746524, -7349.365335627239, 0.198, 0.988, 0.154, 192.0, 0.0, 0.0, 0.0, 0.0, 0.0, 0.0, 0.0, 0.0, 0.0, 1.695336473222618E9, 0.0, 2023-09-21 17:47:53.222
146.0, 9387.330339828772, 17529.71321698585, -187500.02235174447, -50210.48935776822, 13755.889386640714, -10980.02624273613, -187500.02235174447, -19712.495173513315, -6127.2837075333255, 25505.24032178406, -39381.91853546126, -187500.02235174447, -11297.823345401686, -40674.452862078295, -60037.54556626625, -7359.445972376582, 0.198, 0.988, 0.154, 192.0, 0.0, 0.0, 0.0, 0.0, 0.0, 0.0, 0.0, 0.0, 0.0, 1.695336473222622E9, 0.0, 2023-09-21 17:47:53.222
148.0, 9395.689892255055, 17533.401254820976, -187500.02235174447, -50211.338724057525, 13757.409305263676, -10978.305158413072, -187500.02235174447, -19710.729385701346, -6124.199166798493, 25535.7281012211, -39382.320866861446, -187500.02235174447, -11297.33160702367, -40674.92224871186, -60093.06729949323, -7353.880388007211, 0.20400000000000001, 0.976, 0.154, 192.0, 3.0, 48.0, 15.0, 64.0, 2.0, 104.0, 0.0, 0.0, 0.0, 1.695336473222625E9, 0.0, 2023-09-21 17:47:53.222
150.0, 9389.364348574203, 17531.479004797817, -187500.02235174447, -50210.846985679505, 13744.2441277795, -10974.728879300223, -187500.02235174447, -19709.455336267394, -6120.8240533857415, 25519.746603935553, -39371.837898711914, -187500.02235174447, -11291.743670909844, -40662.628789261435, -60202.836716513244, -7351.287585650395, 0.20400000000000001, 0.976, 0.154, 192.0, 0.0, 0.0, 0.0, 0.0, 0.0, 0.0, 0.0, 0.0, 0.0, 1.695336473281839E9, 0.0, 2023-09-21 17:47:53.281
152.0, 9386.078642139273, 17522.426548293417, -187500.02235174447, -50222.380485818445, 13756.917566885659, -10988.966940518254, -187500.02235174447, -19720.8547259396, -6143.578129241244, 25531.034234885483, -39398.50352984709, -187500.02235174447, -11311.167336841505, -40687.48392909574, -60234.26326921741, -7366.6432340911915, 0.20400000000000001, 0.976, 0.154, 192.0, 0.0, 0.0, 0.0, 0.0, 0.0, 0.0, 0.0, 0.0, 0.0, 1.695336473281851E9, 0.0, 2023-09-21 17:47:53.281
154.0, 9380.244836836438, 17526.740434973293, -187500.02235174447, -50209.30471531209, 13738.1421015432, -10972.896036254888, -187500.02235174447, -19707.018996121766, -6131.26231804637, 25502.22283628259, -39391.01569545457, -187500.02235174447, -11304.506516993824, -40674.609324289486, -60307.48758405299, -7361.971719500032, 0.20400000000000001, 0.976, 0.154, 192.0, 0.0, 0.0, 0.0, 0.0, 0.0, 0.0, 0.0, 0.0, 0.0, 1.695336473281855E9, 0.0, 2023-09-21 17:47:53.281
156.0, 9388.492630540446, 17527.768615218236, -187500.02235174447, -50205.70608445479, 13763.131351844235, -10964.983518717709, -187500.02235174447, -19708.51656300027, -6140.40418152859, 25515.499772489045, -39392.35680012188, -187500.02235174447, -11308.149851340038, -40672.709426010784, -60367.81494233787, -7349.588853071792, 0.20400000000000001, 0.976, 0.154, 192.0, 0.0, 0.0, 0.0, 0.0, 0.0, 0.0, 0.0, 0.0, 0.0, 1.695336473281858E9, 0.0, 2023-09-21 17:47:53.281
158.0, 9377.517924012891, 17516.860963924046, -187500.02235174447, -50210.24348857922, 13739.058523065869, -10963.441248350293, -187500.02235174447, -19703.733289686836, -6144.226329830448, 25491.94103383315, -39395.35193387889, -187500.02235174447, -11311.48026126388, -40671.39067308792, -60436.94888793813, -7353.45570486256, 0.20400000000000001, 0.984, 0.15, 192.0, 3.0, 48.0, 15.0, 96.0, 2.0, 88.0, 0.0, 0.0, 0.0, 1.695336473281862E9, 0.0, 2023-09-21 17:47:53.281
160.0, 9389.610217763213, 17519.52082151423, -187500.02235174447, -50216.5019770267, 13774.977776405547, -10973.11955369944, -187500.02235174447, -19711.55640024619, -6136.716143693465, 25501.6193391823, -39395.46369260117, -187500.02235174447, -11304.774737927288, -40677.42564409085, -60512.85541210836, -7360.451800877071, 0.20400000000000001, 0.984, 0.15, 192.0, 0.0, 0.0, 0.0, 0.0, 0.0, 0.0, 0.0, 0.0, 0.0, 1.695336473281865E9, 0.0, 2023-09-21 17:47:53.281
162.0, 9386.168049117096, 17529.266182096744, -187500.02235174447, -50215.58555550403, 13730.296639239388, -10982.999024748688, -187500.02235174447, -19718.843068938622, -6135.464446003967, 25499.18299903667, -39393.2508699001, -187500.02235174447, -11302.13723208156, -40671.41302483237, -60579.62007279636, -7377.014443518454, 0.20400000000000001, 0.984, 0.15, 192.0, 0.0, 0.0, 0.0, 0.0, 0.0, 0.0, 0.0, 0.0, 0.0, 1.695336473281868E9, 0.0, 2023-09-21 17:47:53.281
164.0, 9390.325473585783, 17524.79583320568, -187500.02235174447, -50227.61079402099, 13751.754313916483, -10992.02912950863, -187500.02235174447, -19724.632170752546, -6130.301193034791, 25513.689281188166, -39395.46369260117, -187500.02235174447, -11301.444328003447, -40679.973742958755, -60684.650919991844, -7381.529495898426, 0.20400000000000001, 0.984, 0.15, 192.0, 0.0, 0.0, 0.0, 0.0, 0.0, 0.0, 0.0, 0.0, 0.0, 1.695336473281872E9, 0.0, 2023-09-21 17:47:53.281
166.0, 9388.135002629162, 17529.199126863376, -187500.02235174447, -50220.10060788401, 13711.387063430198, -10989.637492851913, -187500.02235174447, -19721.927609673454, -6135.4420942595125, 25501.552283948935, -39403.778541538544, -187500.02235174447, -11310.899115908041, -40686.92513548436, -60715.76454827363, -7395.007597804975, 0.20400000000000001, 0.984, 0.15, 192.0, 0.0, 0.0, 0.0, 0.0, 0.0, 0.0, 0.0, 0.0, 0.0, 1.695336473341644E9, 0.0, 2023-09-21 17:47:53.341
168.0, 9395.734595743967, 17528.863850696547, -187500.02235174447, -50214.04328513662, 13754.123598828746, -10992.543219631103, -187500.02235174447, -19723.358121318593, -6124.266222031859, 25508.19075205216, -39388.892279731306, -187500.02235174447, -11304.864144905108, -40676.50922256818, -60804.09864236101, -7384.926961055632, 0.20600000000000002, 0.988, 0.15, 192.0, 3.0, 56.0, 15.0, 112.0, 2.0, 88.0, 0.0, 0.0, 0.0, 1.695336473341655E9, 0.0, 2023-09-21 17:47:53.341
170.0, 9376.959130401508, 17520.884277926, -187500.02235174447, -50220.301773584106, 13721.534755412908, -10991.403280663882, -187500.02235174447, -19726.42031030897, -6143.4887222634225, 25495.65142341273, -39396.49187284611, -187500.02235174447, -11313.290752564759, -40687.01454246218, -60816.861488444985, -7395.901667583188, 0.20600000000000002, 0.988, 0.15, 192.0, 0.0, 0.0, 0.0, 0.0, 0.0, 0.0, 0.0, 0.0, 0.0, 1.695336473341659E9, 0.0, 2023-09-21 17:47:53.341
172.0, 9387.017415406397, 17527.70155998487, -187500.02235174447, -50212.9033461694, 13745.808749891372, -10987.894056784398, -187500.02235174447, -19722.352292818105, -6130.368248268158, 25497.819542624897, -39393.11675943336, -187500.02235174447, -11305.579400727678, -40680.91251622588, -60909.82239363461, -7391.632484392225, 0.20600000000000002, 0.988, 0.15, 192.0, 0.0, 0.0, 0.0, 0.0, 0.0, 0.0, 0.0, 0.0, 0.0, 1.695336473341663E9, 0.0, 2023-09-21 17:47:53.341
174.0, 9385.72101422799, 17523.298266327176, -187500.02235174447, -50209.260011823186, 13717.086758266301, -10981.03207123662, -187500.02235174447, -19721.65938873999, -6125.316754021258, 25507.475496229592, -39397.43064611324, -187500.02235174447, -11307.747519939843, -40680.01844644767, -60935.75041720276, -7395.298170482894, 0.20600000000000002, 0.988, 0.15, 192.0, 0.0, 0.0, 0.0, 0.0, 0.0, 0.0, 0.0, 0.0, 0.0, 1.695336473341666E9, 0.0, 2023-09-21 17:47:53.341
176.0, 9388.514982284902, 17526.42751055092, -187500.02235174447, -50207.51657575567, 13746.322840013843, -10982.462582881759, -187500.02235174447, -19724.8556881971, -6124.065056331761, 25498.914778103208, -39392.69207628871, -187500.02235174447, -11301.757252425821, -40674.92224871186, -61030.32064799317, -7393.666493137657, 0.20600000000000002, 0.988, 0.15, 192.0, 0.0, 0.0, 0.0, 0.0, 0.0, 0.0, 0.0, 0.0, 0.0, 1.69533647334167E9, 0.0, 2023-09-21 17:47:53.341
178.0, 9395.935761444063, 17540.66557176895, -187500.02235174447, -50199.91698264086, 13734.655229408174, -10964.849408250977, -187500.02235174447, -19708.27069381126, -6128.043666844806, 25515.09744108885, -39391.328619876935, -187500.02235174447, -11300.505554736323, -40670.38484458743, -61039.95424985341, -7394.694673382602, 0.212, 0.98, 0.15, 192.0, 3.0, 80.0, 15.0, 80.0, 2.0, 88.0, 0.0, 0.0, 0.0, 1.695336473341673E9, 0.0, 2023-09-21 17:47:53.341
180.0, 9391.510116041913, 17533.535365287706, -187500.02235174447, -50206.46604376627, 13760.292680298411, -10971.443172865293, -187500.02235174447, -19709.656501967493, -6123.081579575727, 25493.528007689478, -39387.93115471973, -187500.02235174447, -11294.04590058874, -40669.066091664565, -61148.76254186184, -7389.285551224417, 0.212, 0.98, 0.15, 192.0, 0.0, 0.0, 0.0, 0.0, 0.0, 0.0, 0.0, 0.0, 0.0, 1.695336473401893E9, 0.0, 2023-09-21 17:47:53.401
182.0, 9385.85512469472, 17525.265219839242, -187500.02235174447, -50220.05590439509, 13723.635819391708, -10989.548085874092, -187500.02235174447, -19725.414481808482, -6126.568451710756, 25513.979853866083, -39396.67068680176, -187500.02235174447, -11298.560952968712, -40681.158385414885, -61167.023917081824, -7395.029949549431, 0.212, 0.98, 0.15, 192.0, 0.0, 0.0, 0.0, 0.0, 0.0, 0.0, 0.0, 0.0, 0.0, 1.695336473401907E9, 0.0, 2023-09-21 17:47:53.401
184.0, 9385.653958994622, 17526.315751828643, -187500.02235174447, -50222.20167186281, 13731.52598518443, -10996.946513288798, -187500.02235174447, -19729.884830699546, -6129.5188819788555, 25484.14027501825, -39405.18670143923, -187500.02235174447, -11308.395720529046, -40693.36243788749, -61248.58543259924, -7411.257316023984, 0.212, 0.98, 0.15, 192.0, 0.0, 0.0, 0.0, 0.0, 0.0, 0.0, 0.0, 0.0, 0.0, 1.69533647340191E9, 0.0, 2023-09-21 17:47:53.401
186.0, 9391.62187476419, 17536.0387606667, -187500.02235174447, -50214.22209909226, 13708.928371540114, -10986.08356548352, -187500.02235174447, -19719.938304416934, -6120.667591174554, 25509.218932297103, -39400.93986999272, -187500.02235174447, -11303.634798960067, -40692.91540299838, -61257.459075148, -7412.598420691303, 0.212, 0.98, 0.15, 192.0, 0.0, 0.0, 0.0, 0.0, 0.0, 0.0, 0.0, 0.0, 0.0, 1.695336473401914E9, 0.0, 2023-09-21 17:47:53.401
188.0, 9386.838601450754, 17533.445958309883, -187500.02235174447, -50213.149215358404, 13714.940990798592, -10995.717167343757, -187500.02235174447, -19729.124871388063, -6115.951373094485, 25492.544530933446, -39394.1002361894, -187500.02235174447, -11292.637740688055, -40685.44992035031, -61363.071067699326, -7416.1299963152405, 0.20600000000000002, 0.986, 0.15, 192.0, 3.0, 56.0, 15.0, 104.0, 2.0, 88.0, 0.0, 0.0, 0.0, 1.695336473401917E9, 0.0, 2023-09-21 17:47:53.401
190.0, 9394.371139332192, 17539.056246168166, -187500.02235174447, -50212.43395953583, 13726.51919442644, -10986.843524795, -187500.02235174447, -19716.56319100418, -6112.73272189292, 25515.745641678055, -39389.62988729833, -187500.02235174447, -11290.08964182015, -40682.29832438211, -61394.49762040349, -7413.157214302685, 0.20600000000000002, 0.986, 0.15, 192.0, 0.0, 0.0, 0.0, 0.0, 0.0, 0.0, 0.0, 0.0, 0.0, 1.695336473401921E9, 0.0, 2023-09-21 17:47:53.401
192.0, 9390.414880563603, 17538.340990345598, -187500.02235174447, -50215.49614852621, 13721.646514135184, -10990.084527741019, -187500.02235174447, -19712.09284211312, -6116.979553339428, 25488.27534774248, -39395.08371294543, -187500.02235174447, -11295.431708744969, -40683.70648428279, -61482.58584530185, -7419.192185305618, 0.20600000000000002, 0.986, 0.15, 192.0, 0.0, 0.0, 0.0, 0.0, 0.0, 0.0, 0.0, 0.0, 0.0, 1.695336473401924E9, 0.0, 2023-09-21 17:47:53.401
194.0, 9393.991159676452, 17531.523708286728, -187500.02235174447, -50218.78185496114, 13724.775758358928, -10995.94068478831, -187500.02235174447, -19719.46891778337, -6117.136015550615, 25514.94097887766, -39402.63860257132, -187500.02235174447, -11299.410319258013, -40693.6530105654, -61500.04255772145, -7426.769426675967, 0.20600000000000002, 0.986, 0.15, 192.0, 0.0, 0.0, 0.0, 0.0, 0.0, 0.0, 0.0, 0.0, 0.0, 1.695336473401928E9, 0.0, 2023-09-21 17:47:53.401
196.0, 9376.623854234678, 17512.83764992209, -187500.02235174447, -50216.45727353779, 13717.71260711105, -11007.250667482695, -187500.02235174447, -19730.197755121917, -6118.722989406942, 25478.6640976267, -39399.53171009204, -187500.02235174447, -11295.409357000513, -40695.01646697718, -61579.32419530442, -7433.13967384573, 0.20600000000000002, 0.986, 0.15, 192.0, 0.0, 0.0, 0.0, 0.0, 0.0, 0.0, 0.0, 0.0, 0.0, 1.69533647346222E9, 0.0, 2023-09-21 17:47:53.462
198.0, 9388.671444496089, 17518.626751736017, -187500.02235174447, -50205.72843619924, 13738.007991076469, -10993.996083020698, -187500.02235174447, -19721.391167806527, -6123.9980010983945, 25496.321975746392, -39397.765922280065, -187500.02235174447, -11298.650359946532, -40698.97272574577, -61601.787698482, -7434.704295957601, 0.202, 0.99, 0.15, 192.0, 3.0, 40.0, 15.0, 120.0, 2.0, 88.0, 0.0, 0.0, 0.0, 1.695336473462231E9, 0.0, 2023-09-21 17:47:53.462
200.0, 9389.14083112965, 17526.718083228836, -187500.02235174447, -50195.960723872275, 13725.111034525757, -10986.262379439162, -187500.02235174447, -19716.250266581806, -6119.550003951789, 25475.95953654761, -39388.62405879785, -187500.02235174447, -11296.973979112385, -40690.590821575024, -61668.03826904754, -7429.585746477336, 0.202, 0.99, 0.15, 192.0, 0.0, 0.0, 0.0, 0.0, 0.0, 0.0, 0.0, 0.0, 0.0, 1.695336473462234E9, 0.0, 2023-09-21 17:47:53.462
202.0, 9409.950305217542, 17539.257411868264, -187500.02235174447, -50193.7479011712, 13741.025476577935, -10980.473277625237, -187500.02235174447, -19711.087013612632, -6112.933887593018, 25506.38026075128, -39385.22659364064, -187500.02235174447, -11292.682444176966, -40684.55585057209, -61713.792289947545, -7420.890917884221, 0.202, 0.99, 0.15, 192.0, 0.0, 0.0, 0.0, 0.0, 0.0, 0.0, 0.0, 0.0, 0.0, 1.695336473462238E9, 0.0, 2023-09-21 17:47:53.462
204.0, 9401.85897372472, 17537.89395545649, -187500.02235174447, -50194.86548839397, 13719.970133301036, -10982.060251481564, -187500.02235174447, -19707.13075484404, -6094.516050161845, 25489.214121009605, -39374.006017924075, -187500.02235174447, -11277.974996325374, -40676.17394640135, -61809.435404471806, -7413.872470125255, 0.202, 0.99, 0.15, 192.0, 0.0, 0.0, 0.0, 0.0, 0.0, 0.0, 0.0, 0.0, 0.0, 1.695336473462243E9, 0.0, 2023-09-21 17:47:53.462
206.0, 9399.444985323547, 17530.920211186436, -187500.02235174447, -50207.71774145577, 13733.694104396594, -10991.98442601972, -187500.02235174447, -19713.65746422499, -6108.038855557305, 25501.127600804284, -39399.19643392521, -187500.02235174447, -11298.784470413264, -40697.54221410063, -61856.64228876142, -7431.306830800394, 0.202, 0.99, 0.15, 192.0, 0.0, 0.0, 0.0, 0.0, 0.0, 0.0, 0.0, 0.0, 0.0, 1.695336473462249E9, 0.0, 2023-09-21 17:47:53.462
208.0, 9394.14762188764, 17527.589801262595, -187500.02235174447, -50207.53892750012, 13705.173278471624, -10994.823097565544, -187500.02235174447, -19719.24540033882, -6107.055378801272, 25472.495016157034, -39393.38498036683, -187500.02235174447, -11293.464755232902, -40686.411045361885, -61911.560524888104, -7438.571147748369, 0.202, 0.99, 0.148, 192.0, 3.0, 40.0, 15.0, 120.0, 2.0, 80.0, 0.0, 0.0, 0.0, 1.695336473462252E9, 0.0, 2023-09-21 17:47:53.462
210.0, 9399.556744045824, 17524.0358738942, -187500.02235174447, -50219.40770380589, 13730.251935750477, -11002.55680114708, -187500.02235174447, -19727.962580676387, -6117.672457417543, 25482.575652906376, -39403.42091362726, -187500.02235174447, -11304.66297920501, -40699.57622284606, -61959.88499640048, -7453.569168277881, 0.202, 0.99, 0.148, 192.0, 0.0, 0.0, 0.0, 0.0, 0.0, 0.0, 0.0, 0.0, 0.0, 1.695336473522612E9, 0.0, 2023-09-21 17:47:53.522
212.0, 9392.650055009133, 17530.719045486338, -187500.02235174447, -50218.49128228323, 13705.955589527559, -10997.550010389092, -187500.02235174447, -19723.246362596317, -6104.2167072554485, 25480.318126716393, -39389.54048032052, -187500.02235174447, -11290.201400542426, -40685.919306983866, -62012.94803773738, -7451.892787443732, 0.202, 0.99, 0.148, 192.0, 0.0, 0.0, 0.0, 0.0, 0.0, 0.0, 0.0, 0.0, 0.0, 1.695336473522628E9, 0.0, 2023-09-21 17:47:53.522
214.0, 9390.169011374595, 17520.37018780353, -187500.02235174447, -50231.29883185612, 13724.686351381106, -11014.269115241661, -187500.02235174447, -19738.53495580375, -6119.527652207334, 25482.218024995094, -39409.07590497445, -187500.02235174447, -11304.394758271546, -40704.76182755969, -62080.33854727013, -7469.6624242857015, 0.202, 0.99, 0.148, 192.0, 0.0, 0.0, 0.0, 0.0, 0.0, 0.0, 0.0, 0.0, 0.0, 1.695336473522636E9, 0.0, 2023-09-21 17:47:53.522
216.0, 9383.619950249189, 17518.22442033582, -187500.02235174447, -50228.124884143464, 13687.828324774306, -11012.70449312979, -187500.02235174447, -19740.121929660076, -6111.4363207145125, 25468.80697832191, -39407.31011716248, -187500.02235174447, -11304.685330949465, -40705.432379893355, -62107.250047594316, -7477.306720889416, 0.202, 0.99, 0.148, 192.0, 0.0, 0.0, 0.0, 0.0, 0.0, 0.0, 0.0, 0.0, 0.0, 1.69533647352264E9, 0.0, 2023-09-21 17:47:53.522
218.0, 9393.34295908725, 17521.398368048474, -187500.02235174447, -50219.251241594706, 13722.80880484686, -11009.597600650502, -187500.02235174447, -19736.322133102673, -6106.071902045239, 25473.791417335444, -39407.51128286258, -187500.02235174447, -11306.33936003916, -40705.25356593771, -62174.573501893705, -7477.731404034067, 0.194, 0.99, 0.148, 192.0, 3.0, 8.0, 15.0, 120.0, 2.0, 80.0, 0.0, 0.0, 0.0, 1.695336473522644E9, 0.0, 2023-09-21 17:47:53.522
220.0, 9387.307988084316, 17520.10196687007, -187500.02235174447, -50220.25707009519, 13707.587266872797, -11013.442100696815, -187500.02235174447, -19740.233688382352, -6106.518936934345, 25484.341440718348, -39399.97874498114, -187500.02235174447, -11297.756290168321, -40697.54221410063, -62191.73964163538, -7472.746965020534, 0.194, 0.99, 0.148, 192.0, 0.0, 0.0, 0.0, 0.0, 0.0, 0.0, 0.0, 0.0, 0.0, 1.695336473522647E9, 0.0, 2023-09-21 17:47:53.522
222.0, 9388.514982284902, 17519.721987214325, -187500.02235174447, -50205.97430538825, 13745.495825468997, -11006.870687826955, -187500.02235174447, -19729.57190627717, -6120.77934989683, 25479.46876042709, -39413.38979165433, -187500.02235174447, -11312.486089764368, -40708.651031094916, -62245.49558705039, -7478.156087178718, 0.194, 0.99, 0.148, 192.0, 0.0, 0.0, 0.0, 0.0, 0.0, 0.0, 0.0, 0.0, 0.0, 1.695336473522651E9, 0.0, 2023-09-21 17:47:53.522
224.0, 9392.7171102425, 17533.89299319899, -187500.02235174447, -50186.05890107858, 13729.491976438998, -10982.306120670572, -187500.02235174447, -19702.056908852686, -6103.479099688423, 25491.114019288307, -39393.452035600196, -187500.02235174447, -11291.542505209745, -40681.80658600409, -62258.45959883447, -7443.242662339529, 0.194, 0.99, 0.148, 192.0, 0.0, 0.0, 0.0, 0.0, 0.0, 0.0, 0.0, 0.0, 0.0, 1.695336473522654E9, 0.0, 2023-09-21 17:47:53.522
226.0, 9395.62283702169, 17531.1884321199, -187500.02235174447, -50183.98018884423, 13765.835912923327, -10982.708452070769, -187500.02235174447, -19695.932530871934, -6100.506317675868, 25491.58340592187, -39392.31209663297, -187500.02235174447, -11290.7154906649, -40676.352760357, -62352.80631218032, -7431.418589522671, 0.194, 0.99, 0.148, 192.0, 0.0, 0.0, 0.0, 0.0, 0.0, 0.0, 0.0, 0.0, 0.0, 1.695336473582851E9, 0.0, 2023-09-21 17:47:53.582
228.0, 9395.756947488422, 17532.86481295405, -187500.02235174447, -50190.015159847164, 13754.861206395772, -10980.36151890296, -187500.02235174447, -19693.071507581655, -6096.550058907278, 25505.128563061782, -39396.6483350573, -187500.02235174447, -11293.598865699634, -40678.364417357974, -62366.396172809145, -7441.275708827461, 0.192, 0.992, 0.146, 192.0, 3.0, 0.0, 15.5, 0.0, 2.0, 72.0, 0.0, 0.0, 0.0, 1.695336473582887E9, 0.0, 2023-09-21 17:47:53.582
230.0, 9386.23510435046, 17519.27495232522, -187500.02235174447, -50202.241564064214, 13785.796020721917, -10994.733690587724, -187500.02235174447, -19710.863496168076, -6095.723044362431, 25492.253958255526, -39397.72121879116, -187500.02235174447, -11288.033281330263, -40682.94652497131, -62468.85656939228, -7448.607081008802, 0.192, 0.992, 0.146, 192.0, 0.0, 0.0, 0.0, 0.0, 0.0, 0.0, 0.0, 0.0, 0.0, 1.695336473582891E9, 0.0, 2023-09-21 17:47:53.582
232.0, 9386.52567702838, 17519.744338958782, -187500.02235174447, -50207.628334477944, 13768.138142602224, -10993.571399876048, -187500.02235174447, -19709.76826068977, -6115.705503905476, 25498.13246704727, -39415.49085563313, -187500.02235174447, -11304.28299954927, -40695.44115012183, -62449.61171741626, -7472.299930131428, 0.192, 0.992, 0.146, 192.0, 0.0, 0.0, 0.0, 0.0, 0.0, 0.0, 0.0, 0.0, 0.0, 1.695336473582895E9, 0.0, 2023-09-21 17:47:53.582
234.0, 9383.038804893351, 17507.003844619256, -187500.02235174447, -50212.83629093603, 13780.006918907991, -10999.159335989874, -187500.02235174447, -19717.14433636002, -6102.875602588129, 25477.32299295938, -39403.04093397152, -187500.02235174447, -11294.582342455667, -40683.84059474953, -62553.50262564453, -7474.266883643495, 0.192, 0.992, 0.146, 192.0, 0.0, 0.0, 0.0, 0.0, 0.0, 0.0, 0.0, 0.0, 0.0, 1.695336473582898E9, 0.0, 2023-09-21 17:47:53.582
236.0, 9383.932874671564, 17505.774498674215, -187500.02235174447, -50222.58165151854, 13762.371392532754, -11007.809461094077, -187500.02235174447, -19730.242458610828, -6113.336218993213, 25494.891464101252, -39419.022431257064, -187500.02235174447, -11312.642551975556, -40701.43141763585, -62548.20526220862, -7495.299875175939, 0.192, 0.992, 0.146, 192.0, 0.0, 0.0, 0.0, 0.0, 0.0, 0.0, 0.0, 0.0, 0.0, 1.695336473582901E9, 0.0, 2023-09-21 17:47:53.582
238.0, 9386.346863072737, 17515.296341812176, -187500.02235174447, -50219.98884916173, 13758.236319808522, -11009.150565761396, -187500.02235174447, -19729.57190627717, -6108.776463124331, 25463.59902186382, -39417.79308531202, -187500.02235174447, -11310.586191485667, -40699.1068362125, -62624.89409743477, -7503.815889813411, 0.194, 0.992, 0.148, 192.0, 3.0, 8.0, 15.5, 0.0, 2.0, 80.0, 0.0, 0.0, 0.0, 1.695336473582905E9, 0.0, 2023-09-21 17:47:53.582
240.0, 9400.450813824036, 17524.907591927957, -187500.02235174447, -50223.81099746359, 13749.317973770854, -11002.333283702528, -187500.02235174447, -19726.62147600907, -6103.859079344164, 25501.105249059827, -39422.84457955892, -187500.02235174447, -11315.503575265835, -40699.755036801704, -62614.25466707405, -7501.200735712139, 0.194, 0.992, 0.148, 192.0, 0.0, 0.0, 0.0, 0.0, 0.0, 0.0, 0.0, 0.0, 0.0, 1.695336473641769E9, 0.0, 2023-09-21 17:47:53.641
242.0, 9387.911485184608, 17520.861926181547, -187500.02235174447, -50203.35915128698, 13749.697953426596, -10980.36151890296, -187500.02235174447, -19708.04717636671, -6090.224515226426, 25470.908042300707, -39412.383963153836, -187500.02235174447, -11301.80195591473, -40689.11560644097, -62694.78800234652, -7493.265866430505, 0.194, 0.992, 0.148, 192.0, 0.0, 0.0, 0.0, 0.0, 0.0, 0.0, 0.0, 0.0, 0.0, 1.695336473641783E9, 0.0, 2023-09-21 17:47:53.641
244.0, 9387.978540417975, 17507.36147253054, -187500.02235174447, -50210.31054381258, 13763.243110566511, -10988.564609118059, -187500.02235174447, -19718.597199749613, -6097.7570531078645, 25499.406516481224, -39415.110875977385, -187500.02235174447, -11295.744633167344, -40687.79685351811, -62725.27578178356, -7490.449546629137, 0.194, 0.992, 0.148, 192.0, 0.0, 0.0, 0.0, 0.0, 0.0, 0.0, 0.0, 0.0, 0.0, 1.695336473641788E9, 0.0, 2023-09-21 17:47:53.641
246.0, 9384.223447349483, 17504.992187618278, -187500.02235174447, -50200.96751463026, 13764.718325700562, -10977.522847357137, -187500.02235174447, -19708.002472877797, -6086.134145991105, 25467.398818421225, -39408.76298055208, -187500.02235174447, -11286.066327818195, -40680.84546099251, -62798.96948325271, -7492.349444907838, 0.194, 0.992, 0.148, 192.0, 0.0, 0.0, 0.0, 0.0, 0.0, 0.0, 0.0, 0.0, 0.0, 1.695336473641792E9, 0.0, 2023-09-21 17:47:53.641
248.0, 9382.055328137318, 17493.391632245974, -187500.02235174447, -50213.03745663613, 13789.81933472387, -10988.206981206773, -187500.02235174447, -19719.737138716835, -6108.642352657599, 25486.151932019227, -39427.29257670553, -187500.02235174447, -11302.226639059381, -40697.98924898973, -62790.9228552488, -7497.937381021665, 0.194, 0.982, 0.15, 192.0, 3.0, 8.0, 15.0, 88.0, 2.0, 88.0, 0.0, 0.0, 0.0, 1.695336473641795E9, 0.0, 2023-09-21 17:47:53.641
250.0, 9363.928063384064, 17482.551036185152, -187500.02235174447, -50218.535985772134, 13777.861151440282, -10997.237085966717, -187500.02235174447, -19728.163746376486, -6108.932925335518, 25461.117978229282, -39429.12541975086, -187500.02235174447, -11303.880668149075, -40700.69381006883, -62822.75173935315, -7504.084110746874, 0.194, 0.982, 0.15, 192.0, 0.0, 0.0, 0.0, 0.0, 0.0, 0.0, 0.0, 0.0, 0.0, 1.695336473641799E9, 0.0, 2023-09-21 17:47:53.641
252.0, 9378.277883324372, 17490.105925811044, -187500.02235174447, -50218.44657879431, 13787.807677722893, -10996.119498743952, -187500.02235174447, -19717.837240438133, -6110.005809069373, 25476.80890283691, -39438.93783556674, -187500.02235174447, -11308.99921762934, -40712.428475907866, -62830.753663868156, -7508.9344392936755, 0.194, 0.982, 0.15, 192.0, 0.0, 0.0, 0.0, 0.0, 0.0, 0.0, 0.0, 0.0, 0.0, 1.695336473641802E9, 0.0, 2023-09-21 17:47:53.641
254.0, 9384.625778749678, 17498.26431253723, -187500.02235174447, -50211.338724057525, 13768.875750169249, -10986.620007350446, -187500.02235174447, -19708.918894400467, -6088.414023925546, 25467.42117016568, -39415.08852423293, -187500.02235174447, -11288.457964474914, -40693.13892044293, -62898.85942922347, -7502.899468290743, 0.194, 0.982, 0.15, 192.0, 0.0, 0.0, 0.0, 0.0, 0.0, 0.0, 0.0, 0.0, 0.0, 1.695336473641806E9, 0.0, 2023-09-21 17:47:53.641
0.0, 9386.279807839372, 17503.248751550764, -187500.02235174447, -50229.17541613286, 13791.67452951366, -11011.966885562764, -187500.02235174447, -19732.052949911707, -6107.368303223647, 25478.842911582342, -39435.942701809734, -187500.02235174447, -11307.300485050737, -40719.80455157811, -62923.11107195748, -7529.0063058145415, 0.194, 0.982, 0.15, 192.0, 0.0, 0.0, 0.0, 0.0, 0.0, 0.0, 0.0, 0.0, 0.0, 1.695336473701985E9, 0.0, 2023-09-21 17:47:53.701
2.0, 9383.396432804637, 17499.068975337625, -187500.02235174447, -50221.77698871816, 13758.839816908816, -11008.882344827933, -187500.02235174447, -19726.263848097784, -6106.071902045239, 25461.74382707403, -39430.690041862734, -187500.02235174447, -11301.109051836616, -40711.579109618564, -62947.4074181804, -7539.086942563885, 0.2, 0.988, 0.146, 192.0, 3.0, 32.0, 15.0, 112.0, 2.0, 72.0, 0.0, 0.0, 0.0, 1.695336473701997E9, 0.0, 2023-09-21 17:47:53.701
4.0, 9393.208848620516, 17510.17779233191, -187500.02235174447, -50220.25707009519, 13795.451974326608, -11011.229277995739, -187500.02235174447, -19726.86734519808, -6090.7162536044425, 25483.916757573697, -39417.077829489455, -187500.02235174447, -11293.911790122009, -40703.19720544782, -62993.697880947344, -7534.393076228271, 0.2, 0.988, 0.146, 192.0, 0.0, 0.0, 0.0, 0.0, 0.0, 0.0, 0.0, 0.0, 0.0, 1.695336473702001E9, 0.0, 2023-09-21 17:47:53.702
6.0, 9397.008645177919, 17519.364359303043, -187500.02235174447, -50207.494224011214, 13769.591005991819, -10991.000949263687, -187500.02235174447, -19708.293045555718, -6097.39942519658, 25487.403629708726, -39420.72116383567, -187500.02235174447, -11304.238296060359, -40698.637449578935, -62994.92722689238, -7539.355163497349, 0.2, 0.988, 0.146, 192.0, 0.0, 0.0, 0.0, 0.0, 0.0, 0.0, 0.0, 0.0, 0.0, 1.695336473702009E9, 0.0, 2023-09-21 17:47:53.702
8.0, 9405.815232493309, 17523.94646691638, -187500.02235174447, -50200.74399718571, 13819.860079271804, -10981.501457870181, -187500.02235174447, -19702.481591997337, -6080.5015063883675, 25497.551321691433, -39406.572509595455, -187500.02235174447, -11289.352034253125, -40680.331370870044, -63062.60830910305, -7519.506814421036, 0.2, 0.988, 0.146, 192.0, 0.0, 0.0, 0.0, 0.0, 0.0, 0.0, 0.0, 0.0, 0.0, 1.695336473702013E9, 0.0, 2023-09-21 17:47:53.702
10.0, 9389.900790441132, 17510.401309776462, -187500.02235174447, -50205.08023561004, 13798.11183191679, -10986.731766072722, -187500.02235174447, -19707.175458332953, -6078.6239598541215, 25499.80884788142, -39405.544329350516, -187500.02235174447, -11285.32872025117, -40675.61515278997, -63076.01935577624, -7522.323134222404, 0.2, 0.988, 0.146, 192.0, 0.0, 0.0, 0.0, 0.0, 0.0, 0.0, 0.0, 0.0, 0.0, 1.695336473702017E9, 0.0, 2023-09-21 17:47:53.702
12.0, 9385.989235161453, 17499.73952767128, -187500.02235174447, -50215.58555550403, 13824.621000840783, -11001.595676135503, -187500.02235174447, -19721.324112573162, -6092.146765249582, 25479.580519149367, -39426.9573005387, -187500.02235174447, -11299.544429724745, -40699.24094667923, -63119.180574319435, -7541.25506177605, 0.198, 0.99, 0.148, 192.0, 3.0, 24.0, 15.0, 120.0, 2.0, 80.0, 0.0, 0.0, 0.0, 1.69533647370202E9, 0.0, 2023-09-21 17:47:53.702
14.0, 9381.496534525935, 17498.55488521515, -187500.02235174447, -50215.56320375958, 13795.429622582153, -10999.338149945515, -187500.02235174447, -19715.89263867052, -6094.180773995015, 25476.31716445889, -39430.04184127353, -187500.02235174447, -11295.878743634075, -40701.45376938031, -63121.66161795398, -7546.485369978592, 0.198, 0.99, 0.148, 192.0, 0.0, 0.0, 0.0, 0.0, 0.0, 0.0, 0.0, 0.0, 0.0, 1.695336473762365E9, 0.0, 2023-09-21 17:47:53.762
16.0, 9380.960092659008, 17493.011652590234, -187500.02235174447, -50215.29498282611, 13829.516032876496, -11005.484879670725, -187500.02235174447, -19715.937342159432, -6102.741492121398, 25466.23652770955, -39439.74249836713, -187500.02235174447, -11301.757252425821, -40707.242871194234, -63187.420450141486, -7546.798294400966, 0.198, 0.99, 0.148, 192.0, 0.0, 0.0, 0.0, 0.0, 0.0, 0.0, 0.0, 0.0, 0.0, 1.695336473762378E9, 0.0, 2023-09-21 17:47:53.762
18.0, 9397.455680067025, 17518.51499301374, -187500.02235174447, -50196.63127620593, 13804.571486064373, -10987.31291142856, -187500.02235174447, -19700.648748952004, -6102.16034676556, 25471.288021956447, -39435.20509424271, -187500.02235174447, -11304.841793160653, -40706.16998746037, -63163.14645566302, -7547.580605456902, 0.198, 0.99, 0.148, 192.0, 0.0, 0.0, 0.0, 0.0, 0.0, 0.0, 0.0, 0.0, 0.0, 1.695336473762382E9, 0.0, 2023-09-21 17:47:53.762
20.0, 9413.079549441285, 17527.07571114012, -187500.02235174447, -50177.364072485456, 13840.669553359694, -10964.022393706131, -187500.02235174447, -19689.0481935797, -6075.405308652557, 25485.66019364121, -39409.165311952274, -187500.02235174447, -11288.055633074717, -40675.97278070125, -63235.76727339832, -7525.430026701692, 0.198, 0.99, 0.148, 192.0, 0.0, 0.0, 0.0, 0.0, 0.0, 0.0, 0.0, 0.0, 0.0, 1.695336473762386E9, 0.0, 2023-09-21 17:47:53.762
22.0, 9421.841433267766, 17538.028065923223, -187500.02235174447, -50165.5399996686, 13825.090387474345, -10947.236233620195, -187500.02235174447, -19679.660460908468, -6074.332424918703, 25511.252941042538, -39406.3489921509, -187500.02235174447, -11295.968150611896, -40664.97572242925, -63195.534133378766, -7516.15405275274, 0.194, 0.992, 0.148, 192.0, 3.0, 8.0, 15.5, 0.0, 2.0, 80.0, 0.0, 0.0, 0.0, 1.695336473762393E9, 0.0, 2023-09-21 17:47:53.762
24.0, 9431.206814194538, 17546.678191027426, -187500.02235174447, -50151.95013903978, 13841.965954538102, -10945.090466152486, -187500.02235174447, -19679.146370786, -6051.354831618647, 25497.66308041371, -39380.66683777176, -187500.02235174447, -11276.723298635878, -40647.07197512055, -63259.013087631836, -7504.039407257964, 0.194, 0.992, 0.148, 192.0, 0.0, 0.0, 0.0, 0.0, 0.0, 0.0, 0.0, 0.0, 0.0, 1.695336473762396E9, 0.0, 2023-09-21 17:47:53.762
26.0, 9418.846299510753, 17529.04266465219, -187500.02235174447, -50168.26691249215, 13831.818262555393, -10959.954376215264, -187500.02235174447, -19688.020013334753, -6065.727003303409, 25517.80200216794, -39390.59101230992, -187500.02235174447, -11279.047880059228, -40662.51703053916, -63241.75754091234, -7514.254154474039, 0.194, 0.992, 0.148, 192.0, 0.0, 0.0, 0.0, 0.0, 0.0, 0.0, 0.0, 0.0, 0.0, 1.6953364737624E9, 0.0, 2023-09-21 17:47:53.762
28.0, 9409.413863350614, 17519.073786625122, -187500.02235174447, -50179.77806088663, 13855.377001211287, -10968.582149575013, -187500.02235174447, -19692.736231414823, -6067.24692192637, 25490.935205332662, -39393.720256533656, -187500.02235174447, -11275.51630443529, -40662.986417172724, -63304.230666664924, -7524.468901690114, 0.194, 0.992, 0.148, 192.0, 0.0, 0.0, 0.0, 0.0, 0.0, 0.0, 0.0, 0.0, 0.0, 1.695336473762404E9, 0.0, 2023-09-21 17:47:53.762
30.0, 9412.610162807723, 17521.107795370557, -187500.02235174447, -50184.02489233314, 13853.767675610505, -10967.017527463142, -187500.02235174447, -19689.092897068607, -6081.4402796554905, 25493.32684198938, -39408.606518340894, -187500.02235174447, -11284.635816173055, -40676.7997952461, -63300.319111385244, -7543.043201332474, 0.194, 0.992, 0.148, 192.0, 0.0, 0.0, 0.0, 0.0, 0.0, 0.0, 0.0, 0.0, 0.0, 1.695336473822592E9, 0.0, 2023-09-21 17:47:53.822
32.0, 9394.57230503229, 17497.616111948028, -187500.02235174447, -50204.074407109554, 13863.55773968193, -10986.105917227975, -187500.02235174447, -19702.66040595298, -6083.742509334387, 25474.03728652445, -39415.33439342194, -187500.02235174447, -11288.636778430555, -40686.00871396169, -63372.62700469816, -7553.526169482014, 0.196, 0.988, 0.15, 192.0, 3.0, 16.0, 15.0, 112.0, 2.0, 88.0, 0.0, 0.0, 0.0, 1.695336473822604E9, 0.0, 2023-09-21 17:47:53.822
34.0, 9409.302104628337, 17512.70353945536, -187500.02235174447, -50202.28626755313, 13864.585919926873, -10981.434402636814, -187500.02235174447, -19699.88878964052, -6094.136070506104, 25490.309356487913, -39424.63271911535, -187500.02235174447, -11300.818479158697, -40695.68701931084, -63326.2471349534, -7570.222922590127, 0.196, 0.988, 0.15, 192.0, 0.0, 0.0, 0.0, 0.0, 0.0, 0.0, 0.0, 0.0, 0.0, 1.695336473822609E9, 0.0, 2023-09-21 17:47:53.822
36.0, 9411.023188951396, 17522.60536224906, -187500.02235174447, -50185.12012781145, 13860.36144022482, -10967.59867281898, -187500.02235174447, -19687.036536578722, -6075.561770863745, 25482.128618017272, -39403.42091362726, -187500.02235174447, -11283.026490572274, -40678.6996935248, -63383.713469947994, -7560.097582351874, 0.196, 0.988, 0.15, 192.0, 0.0, 0.0, 0.0, 0.0, 0.0, 0.0, 0.0, 0.0, 0.0, 1.695336473822613E9, 0.0, 2023-09-21 17:47:53.822
38.0, 9411.023188951396, 17522.493603526786, -187500.02235174447, -50191.6468371924, 13863.356573981831, -10977.03110897912, -187500.02235174447, -19700.33582452963, -6074.064203985239, 25507.475496229592, -39400.87281475936, -187500.02235174447, -11282.445345216436, -40678.99026620272, -63386.105106604715, -7560.075230607418, 0.196, 0.988, 0.15, 192.0, 0.0, 0.0, 0.0, 0.0, 0.0, 0.0, 0.0, 0.0, 0.0, 1.695336473822616E9, 0.0, 2023-09-21 17:47:53.822
40.0, 9408.139813916661, 17524.080577383113, -187500.02235174447, -50188.472889479744, 13846.391599940252, -10977.880475268421, -187500.02235174447, -19704.67206295396, -6074.310073174247, 25480.720458116586, -39401.36455313737, -187500.02235174447, -11283.071194061184, -40675.12341441195, -63427.03115070238, -7569.172390600728, 0.196, 0.988, 0.15, 192.0, 0.0, 0.0, 0.0, 0.0, 0.0, 0.0, 0.0, 0.0, 0.0, 1.695336473822626E9, 0.0, 2023-09-21 17:47:53.822
42.0, 9416.38760762067, 17526.583972762106, -187500.02235174447, -50189.7469389137, 13849.632602886273, -10974.035975222108, -187500.02235174447, -19706.795478677213, -6074.198314451971, 25502.155781049227, -39406.32664040645, -187500.02235174447, -11287.720356907888, -40676.64333303492, -63420.772662254894, -7571.0946406238845, 0.198, 0.99, 0.146, 192.0, 3.0, 24.0, 15.0, 120.0, 2.0, 72.0, 0.0, 0.0, 0.0, 1.69533647382263E9, 0.0, 2023-09-21 17:47:53.822
44.0, 9406.508136571425, 17519.721987214325, -187500.02235174447, -50188.629351690935, 13842.033009771469, -10971.93491124331, -187500.02235174447, -19698.19005706192, -6070.063241727739, 25481.502769172523, -39403.68913456072, -187500.02235174447, -11285.507534206812, -40672.709426010784, -63453.361505670735, -7573.352166813871, 0.198, 0.99, 0.146, 192.0, 0.0, 0.0, 0.0, 0.0, 0.0, 0.0, 0.0, 0.0, 0.0, 1.695336473882947E9, 0.0, 2023-09-21 17:47:53.882
46.0, 9419.583907077778, 17518.80556569166, -187500.02235174447, -50185.85773537848, 13873.660728175728, -10971.577283332024, -187500.02235174447, -19694.479667482337, -6076.992282508884, 25491.203426266125, -39416.027297500055, -187500.02235174447, -11292.973016854885, -40685.18169941684, -63452.60154635925, -7578.805992460966, 0.198, 0.99, 0.146, 192.0, 0.0, 0.0, 0.0, 0.0, 0.0, 0.0, 0.0, 0.0, 0.0, 1.695336473882965E9, 0.0, 2023-09-21 17:47:53.882
48.0, 9416.186441920572, 17524.99699890578, -187500.02235174447, -50175.53122944012, 13869.682117662684, -10966.928120485321, -187500.02235174447, -19687.528274956738, -6063.5365323467895, 25489.437638454157, -39397.29653564651, -187500.02235174447, -11277.147981780528, -40666.339178841015, -63479.490694938984, -7568.323024311427, 0.198, 0.99, 0.146, 192.0, 0.0, 0.0, 0.0, 0.0, 0.0, 0.0, 0.0, 0.0, 0.0, 1.695336473882971E9, 0.0, 2023-09-21 17:47:53.882
50.0, 9423.115482701718, 17529.199126863376, -187500.02235174447, -50178.973398086244, 13884.188399814178, -10969.40916411986, -187500.02235174447, -19694.9490541159, -6077.394613909079, 25503.876865372287, -39406.9524892512, -187500.02235174447, -11287.206266785415, -40668.015559675165, -63491.96296834505, -7569.373556300826, 0.198, 0.99, 0.146, 192.0, 0.0, 0.0, 0.0, 0.0, 0.0, 0.0, 0.0, 0.0, 0.0, 1.695336473882975E9, 0.0, 2023-09-21 17:47:53.882
52.0, 9408.564497061312, 17518.582048247106, -187500.02235174447, -50183.734319655225, 13837.003867269024, -10974.50536185567, -187500.02235174447, -19698.368871017563, -6073.706576073954, 25477.658269126212, -39407.354820651395, -187500.02235174447, -11288.65913017501, -40672.53061205514, -63504.524648728926, -7575.9673209151415, 0.2, 0.986, 0.14400000000000002, 192.0, 3.0, 32.0, 15.0, 104.0, 2.0, 64.0, 0.0, 0.0, 0.0, 1.695336473882986E9, 0.0, 2023-09-21 17:47:53.882
54.0, 9410.598505806745, 17512.435318521897, -187500.02235174447, -50185.70127316729, 13878.622815444805, -10979.55685610257, -187500.02235174447, -19705.007339120788, -6070.197352194471, 25478.887615071253, -39408.49475961862, -187500.02235174447, -11285.641644673544, -40677.604458046495, -63528.8433466963, -7575.185009859206, 0.2, 0.986, 0.14400000000000002, 192.0, 0.0, 0.0, 0.0, 0.0, 0.0, 0.0, 0.0, 0.0, 0.0, 1.69533647388299E9, 0.0, 2023-09-21 17:47:53.882
56.0, 9412.72192153, 17526.874545440023, -187500.02235174447, -50174.16777302835, 13846.570413895895, -10966.592844318491, -187500.02235174447, -19692.780934903734, -6078.5345528763, 25471.444484167634, -39413.74741956561, -187500.02235174447, -11293.129479066072, -40681.583068559536, -63492.007671833955, -7583.410451818759, 0.2, 0.986, 0.14400000000000002, 192.0, 0.0, 0.0, 0.0, 0.0, 0.0, 0.0, 0.0, 0.0, 0.0, 1.695336473882993E9, 0.0, 2023-09-21 17:47:53.882
58.0, 9419.695665800056, 17526.159289617455, -187500.02235174447, -50175.93356084032, 13883.473143991607, -10976.606425834469, -187500.02235174447, -19701.60987396358, -6065.7046515589545, 25486.733077375065, -39401.968050237665, -187500.02235174447, -11286.80393538522, -40672.03887367712, -63534.945372932605, -7580.683538995211, 0.2, 0.986, 0.14400000000000002, 192.0, 0.0, 0.0, 0.0, 0.0, 0.0, 0.0, 0.0, 0.0, 0.0, 1.695336473882997E9, 0.0, 2023-09-21 17:47:53.882
60.0, 9419.181575677583, 17533.960048432356, -187500.02235174447, -50171.37380497144, 13843.150596994234, -10967.241044907696, -187500.02235174447, -19690.27753952474, -6056.741602032376, 25485.99546980804, -39397.85532925789, -187500.02235174447, -11283.384118483558, -40668.90962945338, -63527.5469455179, -7589.892457710798, 0.2, 0.986, 0.14400000000000002, 192.0, 0.0, 0.0, 0.0, 0.0, 0.0, 0.0, 0.0, 0.0, 0.0, 1.695336473942328E9, 0.0, 2023-09-21 17:47:53.942
62.0, 9414.733578530977, 17516.302170312665, -187500.02235174447, -50182.43791847681, 13877.281710777488, -10980.585036347513, -187500.02235174447, -19702.883923397534, -6066.218741681426, 25481.189844750148, -39405.45492237269, -187500.02235174447, -11279.047880059228, -40673.692902766816, -63584.29802468992, -7592.55231530098, 0.198, 0.984, 0.14400000000000002, 192.0, 3.0, 24.0, 15.0, 96.0, 2.0, 64.0, 0.0, 0.0, 0.0, 1.69533647394236E9, 0.0, 2023-09-21 17:47:53.942
64.0, 9414.174784919594, 17520.70546397036, -187500.02235174447, -50179.465136464256, 13863.31187049292, -10976.718184556745, -187500.02235174447, -19699.799382662703, -6063.670642813521, 25477.300641214926, -39407.3995241403, -187500.02235174447, -11274.7116416349, -40676.37511210145, -63571.04344022792, -7604.0187602065525, 0.198, 0.984, 0.14400000000000002, 192.0, 0.0, 0.0, 0.0, 0.0, 0.0, 0.0, 0.0, 0.0, 0.0, 1.695336473942364E9, 0.0, 2023-09-21 17:47:53.942
66.0, 9410.866726740209, 17509.686053953894, -187500.02235174447, -50184.136651055414, 13894.090222607878, -10982.328472415027, -187500.02235174447, -19709.7012054564, -6067.0010527373615, 25472.5620713904, -39413.83682654343, -187500.02235174447, -11274.555179423713, -40683.48296683824, -63617.915048350704, -7606.611562563367, 0.198, 0.984, 0.14400000000000002, 192.0, 0.0, 0.0, 0.0, 0.0, 0.0, 0.0, 0.0, 0.0, 0.0, 1.695336473942367E9, 0.0, 2023-09-21 17:47:53.942
68.0, 9414.979447719985, 17524.84053669459, -187500.02235174447, -50178.056976563574, 13878.980443356091, -10971.800800776578, -187500.02235174447, -19700.38052801854, -6060.139067189582, 25481.927452317173, -39411.691059075725, -187500.02235174447, -11269.190760754438, -40677.045664435114, -63593.2610742165, -7608.98084747563, 0.198, 0.984, 0.14400000000000002, 192.0, 0.0, 0.0, 0.0, 0.0, 0.0, 0.0, 0.0, 0.0, 0.0, 1.695336473942371E9, 0.0, 2023-09-21 17:47:53.942
70.0, 9407.916296472109, 17517.59857149107, -187500.02235174447, -50188.02585459064, 13899.924027910714, -10988.765774818155, -187500.02235174447, -19712.450470024403, -6063.7153463024315, 25476.026591780974, -39410.215843941674, -187500.02235174447, -11266.307385719703, -40684.24292614972, -63653.74489471256, -7619.150891202795, 0.198, 0.984, 0.14400000000000002, 192.0, 0.0, 0.0, 0.0, 0.0, 0.0, 0.0, 0.0, 0.0, 0.0, 1.695336473942375E9, 0.0, 2023-09-21 17:47:53.942
72.0, 9415.828814009288, 17533.133033887512, -187500.02235174447, -50176.380595729424, 13882.981405613591, -10964.424725106326, -187500.02235174447, -19693.76441165977, -6061.904855001552, 25486.6660221417, -39402.884471760335, -187500.02235174447, -11264.541597907735, -40681.89599298191, -63637.74104568256, -7620.9837342481305, 0.196, 0.988, 0.146, 192.0, 3.0, 16.0, 15.0, 112.0, 2.0, 72.0, 0.0, 0.0, 0.0, 1.695336473942378E9, 0.0, 2023-09-21 17:47:53.942
74.0, 9406.15050866014, 17516.302170312665, -187500.02235174447, -50192.809127904075, 13894.89488540827, -10986.910580028365, -187500.02235174447, -19716.94317065992, -6064.67647131401, 25467.37646667677, -39400.40342812579, -187500.02235174447, -11266.03916478624, -40685.96401047278, -63711.92648552972, -7625.498786628103, 0.196, 0.988, 0.146, 192.0, 0.0, 0.0, 0.0, 0.0, 0.0, 0.0, 0.0, 0.0, 0.0, 1.695336474001952E9, 0.0, 2023-09-21 17:47:54.001
76.0, 9420.05329371134, 17536.217574622344, -187500.02235174447, -50177.38642422992, 13885.41774575922, -10968.112762941451, -187500.02235174447, -19695.19492330491, -6063.938863746985, 25477.591213892843, -39395.396637367805, -187500.02235174447, -11270.308347977203, -40685.53932732813, -63699.32010165693, -7627.242222695616, 0.196, 0.988, 0.146, 192.0, 0.0, 0.0, 0.0, 0.0, 0.0, 0.0, 0.0, 0.0, 0.0, 1.695336474001965E9, 0.0, 2023-09-21 17:47:54.001
78.0, 9409.749139517444, 17525.689902983893, -187500.02235174447, -50193.233811048725, 13894.671367963716, -10998.399376678393, -187500.02235174447, -19720.43004279495, -6060.34023288968, 25460.04509449543, -39384.04195118451, -187500.02235174447, -11273.102316034117, -40685.15934767239, -63786.44720154372, -7631.220833208661, 0.196, 0.988, 0.146, 192.0, 0.0, 0.0, 0.0, 0.0, 0.0, 0.0, 0.0, 0.0, 0.0, 1.695336474001969E9, 0.0, 2023-09-21 17:47:54.001
80.0, 9414.755930275433, 17527.254525095766, -187500.02235174447, -50191.11039532547, 13877.348766010853, -10987.581132362026, -187500.02235174447, -19701.453411752394, -6078.5345528763, 25481.882748828262, -39391.17215766575, -187500.02235174447, -11292.28011277677, -40702.52665311416, -63748.6951051587, -7645.32478395996, 0.196, 0.988, 0.146, 192.0, 0.0, 0.0, 0.0, 0.0, 0.0, 0.0, 0.0, 0.0, 0.0, 1.695336474001973E9, 0.0, 2023-09-21 17:47:54.001
82.0, 9423.00372397944, 17537.692789756395, -187500.02235174447, -50172.15611602737, 13888.144658582767, -10969.386812375405, -187500.02235174447, -19679.347536486093, -6061.614282323633, 25464.269574197482, -39361.8913724293, -187500.02235174447, -11269.816609599187, -40680.62194354796, -63827.82028053049, -7627.488091884625, 0.198, 0.988, 0.14400000000000002, 192.0, 3.0, 24.0, 15.0, 112.0, 2.0, 64.0, 0.0, 0.0, 0.0, 1.695336474001977E9, 0.0, 2023-09-21 17:47:54.001
84.0, 9425.037732724873, 17528.863850696547, -187500.02235174447, -50179.01810157515, 13893.643187718772, -10970.839675764999, -187500.02235174447, -19683.773181888246, -6062.038965468284, 25496.992528080053, -39364.46182304166, -187500.02235174447, -11271.738859622343, -40683.43826334933, -63840.583126614474, -7623.84475753841, 0.198, 0.988, 0.14400000000000002, 192.0, 0.0, 0.0, 0.0, 0.0, 0.0, 0.0, 0.0, 0.0, 0.0, 1.695336474001981E9, 0.0, 2023-09-21 17:47:54.001
86.0, 9409.7714912619, 17514.446975522875, -187500.02235174447, -50194.3961017604, 13896.571266242418, -10983.624873593435, -187500.02235174447, -19694.971405860353, -6063.737698046887, 25473.165568490695, -39363.70186373018, -187500.02235174447, -11267.693193875934, -40687.528632584654, -63909.00181639216, -7627.666905840267, 0.198, 0.988, 0.14400000000000002, 192.0, 0.0, 0.0, 0.0, 0.0, 0.0, 0.0, 0.0, 0.0, 0.0, 1.695336474001984E9, 0.0, 2023-09-21 17:47:54.001
88.0, 9412.096072685252, 17512.07769061061, -187500.02235174447, -50202.956819886786, 13908.775318715016, -10980.339167158505, -187500.02235174447, -19689.405821490982, -6078.176924965015, 25477.770027848488, -39379.236326126615, -187500.02235174447, -11280.366632982092, -40709.6568595954, -63899.81524942104, -7640.9438420467195, 0.198, 0.988, 0.14400000000000002, 192.0, 0.0, 0.0, 0.0, 0.0, 0.0, 0.0, 0.0, 0.0, 0.0, 1.695336474001988E9, 0.0, 2023-09-21 17:47:54.001
90.0, 9398.997950434441, 17515.76572844574, -187500.02235174447, -50196.11718608346, 13895.453679019653, -10975.555893845069, -187500.02235174447, -19684.823713877646, -6072.924265018019, 25466.48239689856, -39370.094462644396, -187500.02235174447, -11272.14119102254, -40695.083522210545, -63952.9453459913, -7639.267461212571, 0.198, 0.988, 0.14400000000000002, 192.0, 0.0, 0.0, 0.0, 0.0, 0.0, 0.0, 0.0, 0.0, 0.0, 1.695336474062328E9, 0.0, 2023-09-21 17:47:54.062
92.0, 9386.883304939665, 17496.47617298081, -187500.02235174447, -50208.88003216744, 13901.08631862239, -10997.818231322555, -187500.02235174447, -19705.56613273217, -6074.354776663158, 25485.32491747438, -39373.447224312695, -187500.02235174447, -11270.37540321057, -40697.54221410063, -63982.67316611686, -7645.302432215504, 0.2, 0.984, 0.148, 192.0, 3.0, 32.0, 15.0, 96.0, 2.0, 80.0, 0.0, 0.0, 0.0, 1.695336474062339E9, 0.0, 2023-09-21 17:47:54.062
94.0, 9378.85902868021, 17499.31484452663, -187500.02235174447, -50198.195898317805, 13876.097068321356, -10983.60252184898, -187500.02235174447, -19687.595330190103, -6095.92421006253, 25447.12578620026, -39387.774692508545, -187500.02235174447, -11284.94874059543, -40706.03587699364, -64005.87427686147, -7664.100249302417, 0.2, 0.984, 0.148, 192.0, 0.0, 0.0, 0.0, 0.0, 0.0, 0.0, 0.0, 0.0, 0.0, 1.695336474062344E9, 0.0, 2023-09-21 17:47:54.062
96.0, 9372.354671043715, 17486.59670193156, -187500.02235174447, -50207.40481703339, 13906.428385547208, -11002.400338935893, -187500.02235174447, -19699.128830329042, -6086.804698324764, 25471.13155974526, -39381.87383197234, -187500.02235174447, -11277.192685269438, -40696.22346117777, -64059.0714286651, -7650.778609607055, 0.2, 0.984, 0.148, 192.0, 0.0, 0.0, 0.0, 0.0, 0.0, 0.0, 0.0, 0.0, 0.0, 1.695336474062348E9, 0.0, 2023-09-21 17:47:54.062
98.0, 9364.486856995447, 17492.11758281202, -187500.02235174447, -50198.128843084436, 13875.918254365713, -10992.833792309022, -187500.02235174447, -19688.712917412868, -6096.483003673912, 25443.37069313177, -39391.44037859922, -187500.02235174447, -11287.474487718879, -40700.96203100229, -64088.911007512936, -7661.350984734415, 0.2, 0.984, 0.148, 192.0, 0.0, 0.0, 0.0, 0.0, 0.0, 0.0, 0.0, 0.0, 0.0, 1.695336474062352E9, 0.0, 2023-09-21 17:47:54.062
100.0, 9355.881435380154, 17475.532588426184, -187500.02235174447, -50200.140500085414, 13901.779222700505, -10996.745347588701, -187500.02235174447, -19693.675004681947, -6098.919343819541, 25466.795321320933, -39390.903936732284, -187500.02235174447, -11285.70869990691, -40694.36826638797, -64142.6893046724, -7650.286871229037, 0.2, 0.984, 0.148, 192.0, 0.0, 0.0, 0.0, 0.0, 0.0, 0.0, 0.0, 0.0, 0.0, 1.695336474062356E9, 0.0, 2023-09-21 17:47:54.062
102.0, 9357.669574936579, 17494.37510900201, -187500.02235174447, -50182.43791847681, 13872.900768864247, -10974.438306622304, -187500.02235174447, -19676.642975407, -6113.649143415588, 25457.56405086089, -39398.7493990361, -187500.02235174447, -11291.721319165388, -40695.351743144005, -64147.271412285736, -7656.99239456563, 0.2, 0.984, 0.146, 192.0, 3.0, 32.0, 15.0, 96.0, 2.0, 72.0, 0.0, 0.0, 0.0, 1.695336474062359E9, 0.0, 2023-09-21 17:47:54.062
104.0, 9362.430496505558, 17495.671510180415, -187500.02235174447, -50178.07932830803, 13915.570249029428, -10970.392640875894, -187500.02235174447, -19679.07931555263, -6094.247829228381, 25484.766123863, -39377.26937261455, -187500.02235174447, -11273.951682323419, -40679.52670806965, -64223.692026578436, -7634.774760577055, 0.2, 0.984, 0.146, 192.0, 0.0, 0.0, 0.0, 0.0, 0.0, 0.0, 0.0, 0.0, 0.0, 1.695336474122579E9, 0.0, 2023-09-21 17:47:54.122
106.0, 9360.642356949134, 17489.100097310555, -187500.02235174447, -50180.00157833118, 13898.26999882102, -10969.45386760877, -187500.02235174447, -19673.871359094544, -6105.78132936732, 25470.639821367244, -39382.544384306006, -187500.02235174447, -11281.238351015849, -40685.62873430595, -64231.26926794878, -7644.944804304219, 0.2, 0.984, 0.146, 192.0, 0.0, 0.0, 0.0, 0.0, 0.0, 0.0, 0.0, 0.0, 0.0, 1.695336474122594E9, 0.0, 2023-09-21 17:47:54.122
108.0, 9370.320662298282, 17495.157420057945, -187500.02235174447, -50184.82955513353, 13933.85397599387, -10973.588940333002, -187500.02235174447, -19677.917024840954, -6096.773576351831, 25464.09076024184, -39366.808756209466, -187500.02235174447, -11272.364708467092, -40685.89695523941, -64296.044623380265, -7636.853472811398, 0.2, 0.984, 0.146, 192.0, 0.0, 0.0, 0.0, 0.0, 0.0, 0.0, 0.0, 0.0, 0.0, 1.695336474122597E9, 0.0, 2023-09-21 17:47:54.122
110.0, 9374.008700133409, 17511.27302781022, -187500.02235174447, -50180.40390973138, 13901.220429089122, -10970.236178664707, -187500.02235174447, -19675.36892597305, -6093.487869916901, 25467.979963777063, -39368.686302743714, -187500.02235174447, -11277.416202713992, -40691.73076054225, -64294.14472510156, -7652.633804396845, 0.2, 0.984, 0.146, 192.0, 0.0, 0.0, 0.0, 0.0, 0.0, 0.0, 0.0, 0.0, 0.0, 1.695336474122601E9, 0.0, 2023-09-21 17:47:54.122
112.0, 9371.885284410153, 17502.265274794732, -187500.02235174447, -50198.911154140376, 13921.359350843353, -10998.93581854532, -187500.02235174447, -19696.536027972226, -6093.845497828186, 25473.880824313263, -39369.98270392212, -187500.02235174447, -11278.556141681212, -40701.61023159149, -64370.20771148297, -7664.480228958158, 0.2, 0.988, 0.15, 192.0, 3.0, 32.0, 15.0, 112.0, 2.0, 88.0, 0.0, 0.0, 0.0, 1.695336474122605E9, 0.0, 2023-09-21 17:47:54.122
114.0, 9381.831810692765, 17521.688940726395, -187500.02235174447, -50192.45149999279, 13878.868684633815, -10984.764812560656, -187500.02235174447, -19689.60698719108, -6102.406215954568, 25471.22096672308, -39374.78832898001, -187500.02235174447, -11293.040072088252, -40703.62188859247, -64338.334123889705, -7674.896141874331, 0.2, 0.988, 0.15, 192.0, 0.0, 0.0, 0.0, 0.0, 0.0, 0.0, 0.0, 0.0, 0.0, 1.695336474122608E9, 0.0, 2023-09-21 17:47:54.122
116.0, 9385.363386316703, 17515.452804023364, -187500.02235174447, -50195.044302349605, 13905.176687857711, -10993.481992898225, -187500.02235174447, -19691.28336802523, -6080.702672088465, 25468.918737044187, -39365.08767188641, -187500.02235174447, -11280.791316126742, -40689.92026924137, -64425.75179645441, -7666.558941192501, 0.2, 0.988, 0.15, 192.0, 0.0, 0.0, 0.0, 0.0, 0.0, 0.0, 0.0, 0.0, 0.0, 1.695336474122612E9, 0.0, 2023-09-21 17:47:54.122
118.0, 9397.947418445041, 17529.55675477466, -187500.02235174447, -50185.23188653373, 13886.803553915448, -10979.065117724553, -187500.02235174447, -19688.064716823665, -6084.547172134778, 25475.89248131424, -39369.33450333292, -187500.02235174447, -11285.842810373642, -40695.26233616619, -64413.346578281715, -7672.1692290507835, 0.2, 0.988, 0.15, 192.0, 0.0, 0.0, 0.0, 0.0, 0.0, 0.0, 0.0, 0.0, 0.0, 1.695336474122615E9, 0.0, 2023-09-21 17:47:54.122
120.0, 9402.842450480754, 17527.790966962693, -187500.02235174447, -50187.24354353471, 13908.171821614722, -10987.961112017765, -187500.02235174447, -19685.76248714477, -6066.598721337166, 25471.824463823377, -39358.136279360806, -187500.02235174447, -11278.980824825863, -40689.987324474736, -64499.758422345934, -7663.273234757571, 0.2, 0.988, 0.15, 192.0, 0.0, 0.0, 0.0, 0.0, 0.0, 0.0, 0.0, 0.0, 0.0, 1.695336474182809E9, 0.0, 2023-09-21 17:47:54.182
122.0, 9406.843412738253, 17537.916307200947, -187500.02235174447, -50188.22702029074, 13892.927931896202, -10986.754117817178, -187500.02235174447, -19685.360155744573, -6070.376166150113, 25484.90023432973, -39362.964256163155, -187500.02235174447, -11287.653301674522, -40698.928022256856, -64478.18898894656, -7673.197409295727, 0.196, 0.992, 0.156, 192.0, 3.0, 16.0, 15.5, 0.0, 2.0, 112.0, 0.0, 0.0, 0.0, 1.69533647418284E9, 0.0, 2023-09-21 17:47:54.182
124.0, 9399.467337068003, 17527.410987306954, -187500.02235174447, -50191.356264514485, 13913.871516450825, -10997.594713878003, -187500.02235174447, -19693.585597704125, -6068.140991704583, 25465.23069920906, -39362.249000340584, -187500.02235174447, -11287.22861852987, -40691.77546403116, -64537.91285013114, -7671.677490672767, 0.196, 0.992, 0.156, 192.0, 0.0, 0.0, 0.0, 0.0, 0.0, 0.0, 0.0, 0.0, 0.0, 1.695336474182844E9, 0.0, 2023-09-21 17:47:54.182
126.0, 9405.211735393017, 17534.51884204374, -187500.02235174447, -50189.83634589152, 13910.317589082431, -10993.861972553967, -187500.02235174447, -19687.103591812087, -6071.180828950504, 25484.117923273796, -39370.36268357786, -187500.02235174447, -11292.66009243251, -40695.79877803312, -64520.43378596709, -7677.33248201996, 0.196, 0.992, 0.156, 192.0, 0.0, 0.0, 0.0, 0.0, 0.0, 0.0, 0.0, 0.0, 0.0, 1.695336474182847E9, 0.0, 2023-09-21 17:47:54.182
128.0, 9399.71320625701, 17525.80166170617, -187500.02235174447, -50191.289209281116, 13927.059045679456, -10996.879458055433, -187500.02235174447, -19692.780934903734, -6072.499581873368, 25466.370638176282, -39372.93313419022, -187500.02235174447, -11289.70966216441, -40695.23998442173, -64580.60468204078, -7676.080784330462, 0.196, 0.992, 0.156, 192.0, 0.0, 0.0, 0.0, 0.0, 0.0, 0.0, 0.0, 0.0, 0.0, 1.695336474182851E9, 0.0, 2023-09-21 17:47:54.182
130.0, 9403.691816770055, 17524.013522149744, -187500.02235174447, -50192.74207267071, 13925.00268518957, -10994.197248720795, -187500.02235174447, -19696.647786694502, -6081.01559651084, 25490.845798354843, -39382.052645927986, -187500.02235174447, -11293.397699999536, -40701.90080426941, -64552.08385611581, -7684.9097233903085, 0.196, 0.992, 0.156, 192.0, 0.0, 0.0, 0.0, 0.0, 0.0, 0.0, 0.0, 0.0, 0.0, 1.695336474182854E9, 0.0, 2023-09-21 17:47:54.182
132.0, 9411.850203496242, 17536.731664744817, -187500.02235174447, -50181.40973823187, 13926.544955556985, -10978.260454924162, -187500.02235174447, -19683.728478399335, -6065.324671903214, 25471.55624288991, -39371.94965743419, -187500.02235174447, -11276.32096723568, -40686.74632152871, -64615.71927258006, -7673.979720351663, 0.198, 0.986, 0.154, 192.0, 3.0, 24.0, 15.0, 104.0, 2.0, 104.0, 0.0, 0.0, 0.0, 1.695336474182858E9, 0.0, 2023-09-21 17:47:54.182
134.0, 9409.995008706452, 17530.94256293089, -187500.02235174447, -50198.30765704008, 13932.490519582096, -10997.907638300376, -187500.02235174447, -19701.453411752394, -6065.682299814499, 25490.91285358821, -39375.07890165793, -187500.02235174447, -11275.42689745747, -40695.01646697718, -64635.388807700736, -7682.965121622697, 0.198, 0.986, 0.154, 192.0, 0.0, 0.0, 0.0, 0.0, 0.0, 0.0, 0.0, 0.0, 0.0, 1.695336474242411E9, 0.0, 2023-09-21 17:47:54.242
136.0, 9400.070834168297, 17531.724873986826, -187500.02235174447, -50202.398026275405, 13908.37298731482, -11005.261362226172, -187500.02235174447, -19700.447583251906, -6078.467497642934, 25461.877937540765, -39387.014733197066, -187500.02235174447, -11288.815592386198, -40706.95229851631, -64663.484950481055, -7702.724063721188, 0.198, 0.986, 0.154, 192.0, 0.0, 0.0, 0.0, 0.0, 0.0, 0.0, 0.0, 0.0, 0.0, 1.695336474242424E9, 0.0, 2023-09-21 17:47:54.242
138.0, 9408.206869150028, 17524.728777972316, -187500.02235174447, -50200.76634893016, 13921.493461310085, -11008.390606449915, -187500.02235174447, -19700.26876929626, -6078.333387176202, 25475.84777782533, -39389.76399776507, -187500.02235174447, -11290.871952876087, -40712.428475907866, -64652.06320906439, -7701.450014287236, 0.198, 0.986, 0.154, 192.0, 0.0, 0.0, 0.0, 0.0, 0.0, 0.0, 0.0, 0.0, 0.0, 1.695336474242428E9, 0.0, 2023-09-21 17:47:54.242
140.0, 9409.078587183785, 17531.79192922019, -187500.02235174447, -50184.11429931096, 13911.41282456074, -10993.839620809511, -187500.02235174447, -19684.108458055074, -6078.5345528763, 25463.867242797285, -39381.627962783336, -187500.02235174447, -11283.004138827819, -40699.73268505725, -64696.207904363626, -7693.828069427976, 0.198, 0.986, 0.154, 192.0, 0.0, 0.0, 0.0, 0.0, 0.0, 0.0, 0.0, 0.0, 0.0, 1.695336474242431E9, 0.0, 2023-09-21 17:47:54.242
142.0, 9416.00762796493, 17533.89299319899, -187500.02235174447, -50187.444709234805, 13926.32143811243, -10997.058272011074, -187500.02235174447, -19684.689603410912, -6078.758070320853, 25496.321975746392, -39387.014733197066, -187500.02235174447, -11283.115897550095, -40701.63258333595, -64716.27977088449, -7692.397557782836, 0.20400000000000001, 0.988, 0.15, 192.0, 3.0, 48.0, 15.0, 112.0, 2.0, 88.0, 0.0, 0.0, 0.0, 1.695336474242443E9, 0.0, 2023-09-21 17:47:54.242
144.0, 9414.443005853058, 17543.07956017012, -187500.02235174447, -50176.179430029326, 13908.082414636901, -10978.193399690796, -187500.02235174447, -19672.105571282576, -6070.644387083577, 25479.714629616097, -39378.63282902633, -187500.02235174447, -11276.56683642469, -40688.13212968494, -64750.47793990111, -7691.257618815615, 0.20400000000000001, 0.988, 0.15, 192.0, 0.0, 0.0, 0.0, 0.0, 0.0, 0.0, 0.0, 0.0, 0.0, 1.695336474242447E9, 0.0, 2023-09-21 17:47:54.242
146.0, 9422.936668746075, 17545.359438104562, -187500.02235174447, -50173.452517205784, 13946.169787188745, -10972.292539154594, -187500.02235174447, -19665.198882245884, -6054.86405549813, 25501.708746160122, -39373.31311384596, -187500.02235174447, -11265.435667685946, -40680.756054014695, -64804.43505101622, -7678.740641920644, 0.20400000000000001, 0.988, 0.15, 192.0, 0.0, 0.0, 0.0, 0.0, 0.0, 0.0, 0.0, 0.0, 0.0, 1.69533647424245E9, 0.0, 2023-09-21 17:47:54.242
148.0, 9408.38568310567, 17538.22923162332, -187500.02235174447, -50185.00836908918, 13919.593563031383, -10985.010681749663, -187500.02235174447, -19676.66532715146, -6054.417020609024, 25484.497902929535, -39375.41417782476, -187500.02235174447, -11268.050821787218, -40689.09325469652, -64839.54964155551, -7686.228476313171, 0.20400000000000001, 0.988, 0.15, 192.0, 0.0, 0.0, 0.0, 0.0, 0.0, 0.0, 0.0, 0.0, 0.0, 1.695336474242454E9, 0.0, 2023-09-21 17:47:54.242
150.0, 9413.593639563756, 17526.315751828643, -187500.02235174447, -50189.36695925796, 13940.939478986202, -10995.337187688016, -187500.02235174447, -19686.7459639008, -6066.621073081622, 25480.966327305596, -39388.4452448422, -187500.02235174447, -11276.835057358154, -40704.42655139286, -64870.93149077076, -7699.438357286258, 0.20400000000000001, 0.988, 0.15, 192.0, 0.0, 0.0, 0.0, 0.0, 0.0, 0.0, 0.0, 0.0, 0.0, 1.695336474301939E9, 0.0, 2023-09-21 17:47:54.301
152.0, 9404.474127825992, 17526.114586128544, -187500.02235174447, -50188.85286913549, 13909.736443726593, -10992.073832997541, -187500.02235174447, -19684.04140282171, -6073.795983051776, 25461.475606140568, -39388.333486119926, -187500.02235174447, -11277.304443991714, -40698.95037400131, -64882.48734265415, -7703.618133499401, 0.2, 0.988, 0.15, 192.0, 3.0, 32.0, 15.0, 112.0, 2.0, 88.0, 0.0, 0.0, 0.0, 1.695336474301954E9, 0.0, 2023-09-21 17:47:54.301
154.0, 9404.317665614804, 17517.017426135233, -187500.02235174447, -50198.10649133998, 13944.560461587962, -11004.747272103701, -187500.02235174447, -19695.686661682925, -6085.105965746161, 25471.064504511894, -39401.9009950043, -187500.02235174447, -11285.015795828796, -40708.31575492809, -64913.13158430238, -7708.71433123521, 0.2, 0.988, 0.15, 192.0, 0.0, 0.0, 0.0, 0.0, 0.0, 0.0, 0.0, 0.0, 0.0, 1.695336474301959E9, 0.0, 2023-09-21 17:47:54.301
156.0, 9407.826889494287, 17531.23313560881, -187500.02235174447, -50188.58464820202, 13914.385606573298, -10988.609312606968, -187500.02235174447, -19683.70612665488, -6083.898971545574, 25465.320106186882, -39399.174082180754, -187500.02235174447, -11284.836981873153, -40706.48291188275, -64898.40178470633, -7717.00682842813, 0.2, 0.988, 0.15, 192.0, 0.0, 0.0, 0.0, 0.0, 0.0, 0.0, 0.0, 0.0, 0.0, 1.695336474301963E9, 0.0, 2023-09-21 17:47:54.301
158.0, 9422.266116412417, 17538.877432212525, -187500.02235174447, -50181.07446206504, 13949.187272690211, -10987.64818759539, -187500.02235174447, -19680.152199286487, -6070.666738828032, 25479.46876042709, -39387.9982099531, -187500.02235174447, -11274.510475934801, -40692.82599602056, -64962.77480873762, -7710.2118981137155, 0.2, 0.988, 0.15, 192.0, 0.0, 0.0, 0.0, 0.0, 0.0, 0.0, 0.0, 0.0, 0.0, 1.695336474301968E9, 0.0, 2023-09-21 17:47:54.301
160.0, 9416.298200642848, 17537.357513589563, -187500.02235174447, -50180.40390973138, 13914.22914436211, -10981.07677472553, -187500.02235174447, -19679.816923119655, -6057.9038927440515, 25493.684469900665, -39375.347122591396, -187500.02235174447, -11263.714583362887, -40690.322600641564, -64972.92250072033, -7705.04864514454, 0.2, 0.988, 0.15, 192.0, 0.0, 0.0, 0.0, 0.0, 0.0, 0.0, 0.0, 0.0, 0.0, 1.695336474301972E9, 0.0, 2023-09-21 17:47:54.301
162.0, 9411.313761629315, 17526.740434973293, -187500.02235174447, -50187.37765400144, 13936.536185328507, -10988.497553884692, -187500.02235174447, -19685.47191446685, -6066.844590526175, 25481.256899983517, -39385.338352362916, -187500.02235174447, -11271.940025322441, -40697.27399316716, -65025.18087925683, -7713.207031870727, 0.202, 0.992, 0.14400000000000002, 192.0, 3.0, 40.0, 15.5, 0.0, 2.0, 64.0, 0.0, 0.0, 0.0, 1.695336474301977E9, 0.0, 2023-09-21 17:47:54.301
164.0, 9392.672406753589, 17517.531516257706, -187500.02235174447, -50199.42524426285, 13913.1339088838, -10999.159335989874, -187500.02235174447, -19694.18909480442, -6072.901913273563, 25497.171342035694, -39392.89324198881, -187500.02235174447, -11279.673728903977, -40705.365324659986, -65000.61631210045, -7724.762883754121, 0.202, 0.992, 0.14400000000000002, 192.0, 0.0, 0.0, 0.0, 0.0, 0.0, 0.0, 0.0, 0.0, 0.0, 1.695336474363103E9, 0.0, 2023-09-21 17:47:54.363
166.0, 9390.079604396773, 17516.637446479494, -187500.02235174447, -50191.71389242577, 13941.900603997781, -10995.381891176927, -187500.02235174447, -19689.36111800207, -6085.418890168535, 25479.535815660456, -39398.07884670244, -187500.02235174447, -11279.718432392889, -40708.31575492809, -65041.005914331196, -7729.926136723297, 0.202, 0.992, 0.14400000000000002, 192.0, 0.0, 0.0, 0.0, 0.0, 0.0, 0.0, 0.0, 0.0, 0.0, 1.69533647436312E9, 0.0, 2023-09-21 17:47:54.363
168.0, 9391.890095697654, 17526.248696595278, -187500.02235174447, -50177.49818295219, 13922.275772366022, -10980.7414985587, -187500.02235174447, -19679.95103358639, -6076.902875531063, 25496.43373446867, -39389.741646020615, -187500.02235174447, -11267.983766553853, -40696.3575716445, -65026.521983924154, -7719.800796485043, 0.202, 0.992, 0.14400000000000002, 192.0, 0.0, 0.0, 0.0, 0.0, 0.0, 0.0, 0.0, 0.0, 0.0, 1.695336474363124E9, 0.0, 2023-09-21 17:47:54.363
170.0, 9373.673423966578, 17503.159344572945, -187500.02235174447, -50184.96366560026, 13938.681952796216, -10993.973731276243, -187500.02235174447, -19690.47870522484, -6082.535515133801, 25477.32299295938, -39390.88158498783, -187500.02235174447, -11266.732068864354, -40696.20110943331, -65098.382842347964, -7720.493700563157, 0.202, 0.992, 0.14400000000000002, 192.0, 0.0, 0.0, 0.0, 0.0, 0.0, 0.0, 0.0, 0.0, 0.0, 1.695336474363128E9, 0.0, 2023-09-21 17:47:54.363
172.0, 9374.478086766969, 17510.021330120722, -187500.02235174447, -50182.750842899186, 13921.85108922137, -10986.999987006187, -187500.02235174447, -19688.243530779306, -6083.742509334387, 25492.455123955624, -39395.37428562335, -187500.02235174447, -11273.37053696758, -40700.22442343526, -65059.04377210663, -7721.700694763744, 0.196, 0.986, 0.146, 192.0, 3.0, 16.0, 15.0, 104.0, 2.0, 72.0, 0.0, 0.0, 0.0, 1.695336474363131E9, 0.0, 2023-09-21 17:47:54.363
174.0, 9364.106877339707, 17502.868771895024, -187500.02235174447, -50176.8946858519, 13932.490519582096, -10975.488838611704, -187500.02235174447, -19680.576882431138, -6083.183715723004, 25466.683562598653, -39394.01082921158, -187500.02235174447, -11270.867141588586, -40693.116568698475, -65110.832764009574, -7718.124415650895, 0.196, 0.986, 0.146, 192.0, 0.0, 0.0, 0.0, 0.0, 0.0, 0.0, 0.0, 0.0, 0.0, 1.695336474363135E9, 0.0, 2023-09-21 17:47:54.363
176.0, 9360.150618571117, 17501.0806323386, -187500.02235174447, -50179.37572948643, 13923.348656099875, -10978.79689679109, -187500.02235174447, -19687.774144145747, -6099.880468831118, 25498.199522280636, -39405.387867139325, -187500.02235174447, -11278.310272492203, -40693.02716172065, -65085.08355439706, -7714.14580513785, 0.196, 0.986, 0.146, 192.0, 0.0, 0.0, 0.0, 0.0, 0.0, 0.0, 0.0, 0.0, 0.0, 1.695336474363142E9, 0.0, 2023-09-21 17:47:54.363
178.0, 9345.957260841997, 17485.590873431072, -187500.02235174447, -50184.561334200065, 13921.247592121077, -10993.951379531787, -187500.02235174447, -19704.60500772059, -6098.181736252515, 25480.921623816685, -39401.29749790401, -187500.02235174447, -11273.772868367776, -40689.272068652164, -65133.87741254299, -7721.8348052304755, 0.196, 0.986, 0.146, 192.0, 0.0, 0.0, 0.0, 0.0, 0.0, 0.0, 0.0, 0.0, 0.0, 1.695336474363147E9, 0.0, 2023-09-21 17:47:54.363
180.0, 9358.51894122588, 17495.313882269133, -187500.02235174447, -50176.60411317398, 13927.32726661292, -10985.860048038967, -187500.02235174447, -19686.880074367535, -6101.6909601319985, 25490.37641172128, -39408.31594566297, -187500.02235174447, -11274.599882912622, -40696.335219900044, -65101.9144179719, -7729.0544186895395, 0.196, 0.986, 0.146, 192.0, 0.0, 0.0, 0.0, 0.0, 0.0, 0.0, 0.0, 0.0, 0.0, 1.695336474422354E9, 0.0, 2023-09-21 17:47:54.422
182.0, 9355.657917935601, 17497.79492590367, -187500.02235174447, -50184.8966103669, 13933.205775404665, -10997.617065622457, -187500.02235174447, -19699.28529254023, -6102.741492121398, 25456.647629338222, -39405.76784679507, -187500.02235174447, -11273.683461389955, -40697.385751889444, -65146.26027897123, -7733.43536060278, 0.198, 0.984, 0.152, 192.0, 3.0, 24.0, 15.0, 96.0, 2.0, 96.0, 0.0, 0.0, 0.0, 1.695336474422371E9, 0.0, 2023-09-21 17:47:54.422
184.0, 9362.005813360907, 17496.140896813977, -187500.02235174447, -50188.60699994648, 13947.063856966955, -11004.859030825977, -187500.02235174447, -19700.671100696458, -6100.551021164778, 25491.605757666322, -39406.90778576229, -187500.02235174447, -11268.743725865332, -40698.704504812304, -65130.90463053044, -7740.9678984842185, 0.198, 0.984, 0.152, 192.0, 0.0, 0.0, 0.0, 0.0, 0.0, 0.0, 0.0, 0.0, 0.0, 1.695336474422377E9, 0.0, 2023-09-21 17:47:54.422
186.0, 9353.713316167989, 17496.744393914272, -187500.02235174447, -50187.24354353471, 13932.04348469299, -10998.399376678393, -187500.02235174447, -19694.881998882534, -6098.271143230337, 25473.09851325733, -39412.33925966493, -187500.02235174447, -11271.403583455514, -40692.24485066472, -65158.84431109957, -7744.879453763897, 0.198, 0.984, 0.152, 192.0, 0.0, 0.0, 0.0, 0.0, 0.0, 0.0, 0.0, 0.0, 0.0, 1.695336474422381E9, 0.0, 2023-09-21 17:47:54.422
188.0, 9371.840580921244, 17503.338158528586, -187500.02235174447, -50183.71196791076, 13944.493406354595, -10994.733690587724, -187500.02235174447, -19698.03359485073, -6111.704541647976, 25503.00514733853, -39428.56662613948, -187500.02235174447, -11286.222790029382, -40706.460560138294, -65127.10483397303, -7749.260395677137, 0.198, 0.984, 0.152, 192.0, 0.0, 0.0, 0.0, 0.0, 0.0, 0.0, 0.0, 0.0, 0.0, 1.695336474422385E9, 0.0, 2023-09-21 17:47:54.422
190.0, 9378.702566469023, 17521.443071537386, -187500.02235174447, -50168.624540403434, 13923.371007844331, -10976.718184556745, -187500.02235174447, -19681.336841742617, -6090.515087904345, 25491.046964054938, -39399.53171009204, -187500.02235174447, -11270.934196821952, -40676.822146990555, -65152.786988352185, -7736.117569937417, 0.198, 0.984, 0.152, 192.0, 0.0, 0.0, 0.0, 0.0, 0.0, 0.0, 0.0, 0.0, 0.0, 1.695336474422389E9, 0.0, 2023-09-21 17:47:54.422
192.0, 9388.135002629162, 17521.152498859465, -187500.02235174447, -50178.012273074666, 13950.461322124163, -10993.034958009119, -187500.02235174447, -19697.765373917267, -6092.660855372054, 25511.744679420553, -39406.63956482882, -187500.02235174447, -11284.345243495136, -40686.56750757307, -65148.67426737241, -7743.851273518953, 0.196, 0.986, 0.14200000000000002, 192.0, 3.0, 16.0, 15.0, 104.0, 2.0, 56.0, 0.0, 0.0, 0.0, 1.695336474422394E9, 0.0, 2023-09-21 17:47:54.422
194.0, 9385.408089805615, 17525.019350650233, -187500.02235174447, -50173.98895907271, 13925.270906123033, -10988.095222484497, -187500.02235174447, -19696.04428959421, -6073.237189440392, 25497.797190880443, -39395.30723038998, -187500.02235174447, -11278.287920747749, -40677.8503272355, -65156.18445350939, -7744.521825852612, 0.196, 0.986, 0.14200000000000002, 192.0, 0.0, 0.0, 0.0, 0.0, 0.0, 0.0, 0.0, 0.0, 0.0, 1.695336474482142E9, 0.0, 2023-09-21 17:47:54.482
196.0, 9397.52273530039, 17531.210783864353, -187500.02235174447, -50179.50983995317, 13936.916164984246, -10992.252646953184, -187500.02235174447, -19691.193961047407, -6081.216762210937, 25497.730135647078, -39412.49572187611, -187500.02235174447, -11291.654263932021, -40696.31286815558, -65142.41577892492, -7760.235102204693, 0.196, 0.986, 0.14200000000000002, 192.0, 0.0, 0.0, 0.0, 0.0, 0.0, 0.0, 0.0, 0.0, 0.0, 1.695336474482165E9, 0.0, 2023-09-21 17:47:54.482
198.0, 9395.332264343771, 17530.60728676406, -187500.02235174447, -50176.20178177378, 13914.787937973493, -10979.467449124748, -187500.02235174447, -19675.078353295132, -6067.291625415281, 25489.52704543198, -39397.40829436878, -187500.02235174447, -11271.247121244327, -40680.28666738113, -65154.597479653065, -7748.522788110112, 0.196, 0.986, 0.14200000000000002, 192.0, 0.0, 0.0, 0.0, 0.0, 0.0, 0.0, 0.0, 0.0, 0.0, 1.695336474482169E9, 0.0, 2023-09-21 17:47:54.482
200.0, 9392.739461986956, 17516.99507439078, -187500.02235174447, -50190.7974709031, 13942.772322031537, -11000.634551123923, -187500.02235174447, -19693.831466893134, -6075.315901674736, 25504.05567932793, -39408.07007647397, -187500.02235174447, -11272.387060211548, -40691.037856464136, -65174.378773496006, -7752.657860834344, 0.196, 0.986, 0.14200000000000002, 192.0, 0.0, 0.0, 0.0, 0.0, 0.0, 0.0, 0.0, 0.0, 0.0, 1.695336474482172E9, 0.0, 2023-09-21 17:47:54.482
202.0, 9388.626741007178, 17521.51012677075, -187500.02235174447, -50195.468985494255, 13907.61302800334, -11010.759891362179, -187500.02235174447, -19705.499077498804, -6084.323654690225, 25494.735001890065, -39417.01077425609, -187500.02235174447, -11282.847676616631, -40705.432379893355, -65141.387598679976, -7777.356538457459, 0.194, 0.99, 0.146, 192.0, 3.0, 8.0, 15.0, 120.0, 2.0, 72.0, 0.0, 0.0, 0.0, 1.695336474482176E9, 0.0, 2023-09-21 17:47:54.482
204.0, 9394.728767243478, 17527.56744951814, -187500.02235174447, -50186.05890107858, 13949.544900601495, -11005.998969793198, -187500.02235174447, -19700.872266396556, -6071.337291161692, 25506.13439156227, -39408.76298055208, -187500.02235174447, -11278.109106792106, -40700.1573682019, -65161.39240996748, -7776.507172168157, 0.194, 0.99, 0.146, 192.0, 0.0, 0.0, 0.0, 0.0, 0.0, 0.0, 0.0, 0.0, 0.0, 1.69533647448218E9, 0.0, 2023-09-21 17:47:54.482
206.0, 9380.200133347527, 17524.281743083207, -187500.02235174447, -50190.90922962537, 13917.89483045278, -11009.7987663506, -187500.02235174447, -19704.448545509404, -6066.129334703605, 25500.792324637452, -39408.964146252176, -187500.02235174447, -11278.176162025471, -40694.56943208807, -65137.94543003386, -7777.043614035084, 0.194, 0.99, 0.146, 192.0, 0.0, 0.0, 0.0, 0.0, 0.0, 0.0, 0.0, 0.0, 0.0, 1.695336474482183E9, 0.0, 2023-09-21 17:47:54.482
208.0, 9389.900790441132, 17527.835670451605, -187500.02235174447, -50189.47871798024, 13954.395229148296, -11003.048539525098, -187500.02235174447, -19696.245455294305, -6070.778497550309, 25476.607737136812, -39417.055477744994, -187500.02235174447, -11284.56876093969, -40711.19912996282, -65157.97259306582, -7787.97361707373, 0.194, 0.99, 0.146, 192.0, 0.0, 0.0, 0.0, 0.0, 0.0, 0.0, 0.0, 0.0, 0.0, 1.695336474482187E9, 0.0, 2023-09-21 17:47:54.482
210.0, 9397.366273089203, 17530.56258327515, -187500.02235174447, -50177.18525852982, 13942.57115633144, -10980.406222391872, -187500.02235174447, -19673.536082927716, -6064.832933525197, 25493.32684198938, -39404.60555608339, -187500.02235174447, -11276.56683642469, -40692.26720240917, -65127.99890375125, -7773.266169222137, 0.194, 0.99, 0.146, 192.0, 0.0, 0.0, 0.0, 0.0, 0.0, 0.0, 0.0, 0.0, 0.0, 1.695336474542423E9, 0.0, 2023-09-21 17:47:54.542
212.0, 9399.333226601271, 17530.36141757505, -187500.02235174447, -50178.21343877476, 13979.853866082893, -10983.043728237597, -187500.02235174447, -19676.21829226235, -6067.515142859834, 25501.86520837131, -39404.47144561666, -187500.02235174447, -11276.835057358154, -40687.05924595109, -65182.11247707754, -7772.975596544218, 0.2, 0.992, 0.148, 192.0, 3.0, 32.0, 15.5, 0.0, 2.0, 80.0, 0.0, 0.0, 0.0, 1.695336474542435E9, 0.0, 2023-09-21 17:47:54.542
214.0, 9394.728767243478, 17531.41194956445, -187500.02235174447, -50180.78388938712, 13945.119255199344, -10978.79689679109, -187500.02235174447, -19679.436943463916, -6073.795983051776, 25507.34138576286, -39413.47919863215, -187500.02235174447, -11288.726185408377, -40684.801719761104, -65134.70442708784, -7781.826887348519, 0.2, 0.992, 0.148, 192.0, 0.0, 0.0, 0.0, 0.0, 0.0, 0.0, 0.0, 0.0, 0.0, 1.695336474542439E9, 0.0, 2023-09-21 17:47:54.542
216.0, 9397.902714956132, 17530.160251874953, -187500.02235174447, -50172.536095683114, 13961.994822263101, -10980.629739836424, -187500.02235174447, -19681.493303953805, -6068.029232982306, 25503.742754905554, -39408.4500561297, -187500.02235174447, -11290.290807520249, -40688.40035061841, -65160.76656112273, -7782.653901893366, 0.2, 0.992, 0.148, 192.0, 0.0, 0.0, 0.0, 0.0, 0.0, 0.0, 0.0, 0.0, 0.0, 1.695336474542443E9, 0.0, 2023-09-21 17:47:54.542
218.0, 9401.814270235809, 17534.876469955027, -187500.02235174447, -50159.54973215458, 13948.42731337873, -10970.392640875894, -187500.02235174447, -19679.414591719462, -6061.703689301454, 25525.96038889413, -39401.9009950043, -187500.02235174447, -11280.836019615654, -40679.705522025295, -65105.15542091792, -7776.037785534595, 0.2, 0.992, 0.148, 192.0, 0.0, 0.0, 0.0, 0.0, 0.0, 0.0, 0.0, 0.0, 0.0, 1.695336474542446E9, 0.0, 2023-09-21 17:47:54.542
220.0, 9404.295313870349, 17534.51884204374, -187500.02235174447, -50158.275682720625, 13976.925787559247, -10976.36055664546, -187500.02235174447, -19683.862588866068, -6055.3781456206025, 25513.041080598963, -39397.22948041314, -187500.02235174447, -11273.526999178768, -40676.352760357, -65151.46823542932, -7770.338090698492, 0.2, 0.992, 0.148, 192.0, 0.0, 0.0, 0.0, 0.0, 0.0, 0.0, 0.0, 0.0, 0.0, 1.695336474542449E9, 0.0, 2023-09-21 17:47:54.542
222.0, 9404.563534803812, 17538.922135701436, -187500.02235174447, -50158.3874414429, 13975.070592769456, -10963.284786139106, -187500.02235174447, -19667.054077035675, -6057.121581688116, 25522.473516759102, -39397.81062576898, -187500.02235174447, -11272.14119102254, -40679.45965283628, -65114.27493265569, -7766.001852274162, 0.198, 0.99, 0.14200000000000002, 192.0, 3.0, 24.0, 15.0, 120.0, 2.0, 56.0, 0.0, 0.0, 0.0, 1.695336474542453E9, 0.0, 2023-09-21 17:47:54.542
224.0, 9400.987255690963, 17537.983362434312, -187500.02235174447, -50152.911264051356, 13990.314482487975, -10969.610329819958, -187500.02235174447, -19667.45640843587, -6055.3781456206025, 25497.372507735792, -39394.971954223154, -187500.02235174447, -11265.726240363865, -40672.41885333286, -65161.39240996748, -7759.676308593311, 0.198, 0.99, 0.14200000000000002, 192.0, 0.0, 0.0, 0.0, 0.0, 0.0, 0.0, 0.0, 0.0, 0.0, 1.69533647460275E9, 0.0, 2023-09-21 17:47:54.602
226.0, 9405.703473771033, 17533.960048432356, -187500.02235174447, -50162.85779033397, 13987.140534775323, -10985.860048038967, -187500.02235174447, -19682.05209756519, -6064.408250380547, 25525.178077838194, -39406.728971806646, -187500.02235174447, -11277.32679573617, -40688.91444074088, -65114.74431928925, -7772.550913399567, 0.198, 0.99, 0.14200000000000002, 192.0, 0.0, 0.0, 0.0, 0.0, 0.0, 0.0, 0.0, 0.0, 0.0, 1.695336474602764E9, 0.0, 2023-09-21 17:47:54.602
228.0, 9421.170880934105, 17557.04940045469, -187500.02235174447, -50145.915168036845, 13982.111392272878, -10980.98736774771, -187500.02235174447, -19677.380582974027, -6042.861168725631, 25508.973063108097, -39384.13135816233, -187500.02235174447, -11260.294766461226, -40665.914495696365, -65149.925965061906, -7774.651977378367, 0.198, 0.99, 0.14200000000000002, 192.0, 0.0, 0.0, 0.0, 0.0, 0.0, 0.0, 0.0, 0.0, 0.0, 1.695336474602768E9, 0.0, 2023-09-21 17:47:54.602
230.0, 9437.040619497373, 17572.807380295682, -187500.02235174447, -50136.192159198785, 13996.796488380014, -10967.330451885517, -187500.02235174447, -19672.46319919386, -6041.38595359158, 25553.18481364069, -39381.963238950164, -187500.02235174447, -11258.37251643807, -40663.52285903965, -65127.70833107333, -7776.685986123799, 0.198, 0.99, 0.14200000000000002, 192.0, 0.0, 0.0, 0.0, 0.0, 0.0, 0.0, 0.0, 0.0, 0.0, 1.695336474602772E9, 0.0, 2023-09-21 17:47:54.602
232.0, 9425.373008891704, 17562.9949644798, -187500.02235174447, -50144.931691280806, 14001.915037860279, -10975.980576989721, -187500.02235174447, -19685.963652844865, -6027.19259586246, 25547.418063571226, -39367.300494587485, -187500.02235174447, -11241.385190652036, -40641.34992853999, -65174.445828729375, -7771.232160476704, 0.192, 0.986, 0.14200000000000002, 192.0, 3.0, 0.0, 15.0, 104.0, 2.0, 56.0, 0.0, 0.0, 0.0, 1.695336474602775E9, 0.0, 2023-09-21 17:47:54.602
234.0, 9428.993991493464, 17559.731609789327, -187500.02235174447, -50156.800467586574, 13995.38832847933, -10975.779411289623, -187500.02235174447, -19689.115248813065, -6052.6735845415105, 25547.373360082314, -39396.22365191265, -187500.02235174447, -11264.18396999645, -40664.5510392846, -65127.88714502897, -7794.679140410321, 0.192, 0.986, 0.14200000000000002, 192.0, 0.0, 0.0, 0.0, 0.0, 0.0, 0.0, 0.0, 0.0, 0.0, 1.695336474602779E9, 0.0, 2023-09-21 17:47:54.602
236.0, 9413.05719769683, 17546.47702532733, -187500.02235174447, -50162.36605195595, 13977.439877681718, -10976.047632223086, -187500.02235174447, -19683.90729235498, -6042.235319880881, 25526.09449936086, -39393.452035600196, -187500.02235174447, -11259.445400171924, -40657.97962641474, -65167.114456548035, -7795.886134610908, 0.192, 0.986, 0.14200000000000002, 192.0, 0.0, 0.0, 0.0, 0.0, 0.0, 0.0, 0.0, 0.0, 0.0, 1.695336474602782E9, 0.0, 2023-09-21 17:47:54.602
238.0, 9413.079549441285, 17541.537289802705, -187500.02235174447, -50174.145421283894, 13992.370842977864, -10984.831867794022, -187500.02235174447, -19692.311548270172, -6056.898064243564, 25538.544421022467, -39406.90778576229, -187500.02235174447, -11269.682499132456, -40678.4538243358, -65146.30498246014, -7806.704378927277, 0.192, 0.986, 0.14200000000000002, 192.0, 0.0, 0.0, 0.0, 0.0, 0.0, 0.0, 0.0, 0.0, 0.0, 1.695336474602785E9, 0.0, 2023-09-21 17:47:54.602
240.0, 9399.333226601271, 17531.56841177564, -187500.02235174447, -50171.709081138266, 13972.075459012445, -10983.289597426605, -187500.02235174447, -19688.668213923957, -6063.983567235896, 25507.654310185233, -39409.65705033029, -187500.02235174447, -11270.777734610765, -40679.05732143609, -65148.584860394585, -7813.298143541592, 0.192, 0.986, 0.14200000000000002, 192.0, 0.0, 0.0, 0.0, 0.0, 0.0, 0.0, 0.0, 0.0, 0.0, 1.695336474663001E9, 0.0, 2023-09-21 17:47:54.663
242.0, 9409.749139517444, 17532.395426320487, -187500.02235174447, -50166.83640084701, 14003.949046605712, -10983.110783470964, -187500.02235174447, -19690.165780802465, -6069.727965560909, 25526.563885994423, -39412.29455617601, -187500.02235174447, -11271.80591485571, -40684.08646393853, -65121.15926994792, -7812.82875690803, 0.19, 0.984, 0.14200000000000002, 192.0, 2.5, 120.0, 15.0, 96.0, 2.0, 56.0, 0.0, 0.0, 0.0, 1.695336474663016E9, 0.0, 2023-09-21 17:47:54.663
244.0, 9407.178688905084, 17541.336124102607, -187500.02235174447, -50154.60999662996, 13975.897607314302, -10970.660861809358, -187500.02235174447, -19676.933548084922, -6054.685241542487, 25523.725214448597, -39399.66582055877, -187500.02235174447, -11259.937138549942, -40666.987379430226, -65113.53732508866, -7808.2913527836035, 0.19, 0.984, 0.14200000000000002, 192.0, 0.0, 0.0, 0.0, 0.0, 0.0, 0.0, 0.0, 0.0, 0.0, 1.69533647466302E9, 0.0, 2023-09-21 17:47:54.663
246.0, 9411.313761629315, 17540.509109557763, -187500.02235174447, -50162.03077578912, 13997.489392458128, -10978.59573109099, -187500.02235174447, -19684.08610631062, -6059.379107878102, 25533.805851197943, -39408.69592531871, -187500.02235174447, -11259.825379827666, -40675.86102197898, -65125.719025816805, -7816.270925554148, 0.19, 0.984, 0.14200000000000002, 192.0, 0.0, 0.0, 0.0, 0.0, 0.0, 0.0, 0.0, 0.0, 0.0, 1.695336474663024E9, 0.0, 2023-09-21 17:47:54.663
