%OpenBCI Raw EXG Data
%Number of channels = 16
%Sample Rate = 125 Hz
%Board = OpenBCI_GUI$BoardCytonSerialDaisy
Sample Index, EXG Channel 0, EXG Channel 1, EXG Channel 2, EXG Channel 3, EXG Channel 4, EXG Channel 5, EXG Channel 6, EXG Channel 7, EXG Channel 8, EXG Channel 9, EXG Channel 10, EXG Channel 11, EXG Channel 12, EXG Channel 13, EXG Channel 14, EXG Channel 15, Accel Channel 0, Accel Channel 1, Accel Channel 2, Other, Other, Other, Other, Other, Other, Other, Analog Channel 0, Analog Channel 1, Analog Channel 2, Timestamp, Other, Timestamp (Formatted)
254.0, 25198.328518668237, 19646.334009925606, -53575.14215411451, -27868.557318277042, -34126.889303551834, -33009.167970319744, -187500.02235174447, -48578.27557066388, -23825.640836434464, -27145.99247527033, -57045.94338487904, -64937.49498575866, -29691.29737511842, -53487.81388852762, -48653.0868593558, -32674.472948845978, -0.068, 1.012, 0.068, 192.0, 126.5, 112.0, 15.5, 80.0, 1.0, 16.0, 0.0, 0.0, 0.0, 1.695337895902093E9, 0.0, 2023-09-21 18:11:35.902
0.0, 25113.503648460348, 19639.203803444365, -53576.88559018202, -27861.337704817975, -34151.54327768603, -32996.82980738042, -187500.02235174447, -48567.65849204761, -23832.212249304324, -27169.03712380375, -57047.99974536893, -64941.40654103834, -29735.2185529731, -53481.44364135786, -48686.905048716675, -32677.37867562517, -0.068, 1.012, 0.068, 192.0, 0.0, 0.0, 0.0, 0.0, 0.0, 0.0, 0.0, 0.0, 0.0, 1.695337895902102E9, 0.0, 2023-09-21 18:11:35.902
2.0, 25193.232320932428, 19641.08134997861, -53585.13338388603, -27877.050981170058, -34132.72310885467, -33012.72189768814, -187500.02235174447, -48581.87420152118, -23835.632066205988, -27156.877774820063, -57058.90739666312, -64948.46969228622, -29705.64719505873, -53488.7750135392, -48660.97702514852, -32666.89570747563, -0.068, 1.012, 0.068, 192.0, 0.0, 0.0, 0.0, 0.0, 0.0, 0.0, 0.0, 0.0, 0.0, 1.695337895902106E9, 0.0, 2023-09-21 18:11:35.902
4.0, 25106.55225593475, 19661.622603133037, -53555.02558410473, -27837.287227784065, -34138.288693224036, -32973.67340012472, -187500.02235174447, -48548.10071564922, -23808.273530992694, -27152.027446273263, -57025.91622184709, -64919.5241832166, -29733.139840738757, -53486.83041177159, -48680.9371329471, -32675.23290815746, -0.068, 1.012, 0.068, 192.0, 0.0, 0.0, 0.0, 0.0, 0.0, 0.0, 0.0, 0.0, 0.0, 1.695337895902109E9, 0.0, 2023-09-21 18:11:35.902
6.0, 25187.80084702979, 19652.190166972898, -53577.8467151936, -27868.557318277042, -34121.45782964919, -33006.038726096005, -187500.02235174447, -48575.92863749607, -23805.90424608043, -27136.69414957692, -57032.465282972495, -64920.73117741718, -29693.398439097222, -53527.152958768966, -48652.12573434421, -32684.486530361955, -0.068, 1.012, 0.068, 192.0, 0.0, 0.0, 0.0, 0.0, 0.0, 0.0, 0.0, 0.0, 0.0, 1.695337895902113E9, 0.0, 2023-09-21 18:11:35.902
8.0, 25113.078965315697, 19668.37282995854, -53567.25198832178, -27846.02675986609, -34148.52579218457, -32973.3828274468, -187500.02235174447, -48546.82666621527, -23815.76136538522, -27161.6610481335, -57037.47207373048, -64928.71075018773, -29727.618959858297, -53482.96355998082, -48661.3346530598, -32659.005541682905, -0.062, 1.006, 0.078, 192.0, 127.0, 8.0, 15.5, 56.0, 1.0, 56.0, 0.0, 0.0, 0.0, 1.695337895902116E9, 0.0, 2023-09-21 18:11:35.902
10.0, 25180.424771359536, 19659.83446357661, -53579.52309602775, -27874.65934451334, -34121.32371918246, -33006.53046447402, -187500.02235174447, -48571.547695582834, -23804.56314141311, -27144.718425836378, -57035.14749230713, -64924.46391874122, -29705.848360758828, -53539.871101364035, -48660.86526642624, -32685.24648967344, -0.062, 1.006, 0.078, 192.0, 0.0, 0.0, 0.0, 0.0, 0.0, 0.0, 0.0, 0.0, 0.0, 1.69533789590212E9, 0.0, 2023-09-21 18:11:35.902
12.0, 25122.064366586732, 19661.734361855313, -53583.9487414299, -27865.89746068686, -34162.22741153567, -32989.56549043244, -187500.02235174447, -48562.182314656064, -23823.76328990022, -27165.818472602186, -57051.754838437424, -64943.19468059477, -29720.555808610417, -53468.546684807145, -48657.333690802305, -32643.06874788627, -0.062, 1.006, 0.078, 192.0, 0.0, 0.0, 0.0, 0.0, 0.0, 0.0, 0.0, 0.0, 0.0, 1.695337895902123E9, 0.0, 2023-09-21 18:11:35.902
0.0, 12650.394457625684, 9799.116527928893, -26774.43942718976, -13895.408975530741, -17089.137982027292, -16510.518373312756, -93750.01117587223, -24297.53086537491, -11899.912285794293, -13567.039497737826, -28517.65197725916, -32461.125548020074, -14845.872205003763, -26763.934107295765, -24324.28590348791, -16338.09701658452, -0.062, 1.006, 0.07, 192.0, 127.0, 8.0, 15.5, 56.0, 1.0, 24.0, 0.0, 0.0, 0.0, 1.69533789599458E9, 0.0, 2023-09-21 18:11:35.994
2.0, 25204.60935886018, 19619.869544490524, -53519.57571739861, -27747.612029029373, -34183.12629260139, -32976.19914724817, -187500.02235174447, -48558.11429716519, -23802.70794662332, -27118.924512734953, -57018.204870010006, -64851.35136262791, -30067.36547557896, -53329.429427317315, -48723.02546775645, -32737.884847865684, -0.062, 1.006, 0.07, 192.0, 0.0, 0.0, 0.0, 0.0, 0.0, 0.0, 0.0, 0.0, 0.0, 1.6953378959946E9, 0.0, 2023-09-21 18:11:35.994
4.0, 25274.90559517212, 19593.293320333163, -53556.36668877205, -27795.198892974724, -34165.826042392975, -33028.055194384484, -187500.02235174447, -48595.039379005364, -23800.785696600164, -27101.266634615262, -57023.8598613572, -64851.08314169445, -30049.03704512561, -53386.202858233795, -48713.83890078532, -32765.288086567893, -0.062, 1.006, 0.07, 192.0, 0.0, 0.0, 0.0, 0.0, 0.0, 0.0, 0.0, 0.0, 0.0, 1.695337895994604E9, 0.0, 2023-09-21 18:11:35.994
6.0, 25204.162323971075, 19617.433204344896, -53541.65924092046, -27763.92880248175, -34201.074743398996, -32989.09610379888, -187500.02235174447, -48565.42331760208, -23826.75842365723, -27138.102309477606, -57046.88215814617, -64876.85470305142, -30084.19633915381, -53308.15056659586, -48725.484159646534, -32726.5748651713, -0.062, 1.006, 0.07, 192.0, 0.0, 0.0, 0.0, 0.0, 0.0, 0.0, 0.0, 0.0, 0.0, 1.695337895994607E9, 0.0, 2023-09-21 18:11:35.994
8.0, 25244.730740157454, 19633.54881209717, -53520.44743543237, -27757.133872167335, -34147.98935031764, -32983.53051942951, -187500.02235174447, -48554.02392792987, -23780.199739956828, -27095.768105479256, -57005.9561140485, -64834.4534438197, -30056.435472540317, -53408.353436989004, -48734.871892317766, -32788.466845568044, -0.062, 1.004, 0.07, 192.0, 127.0, 8.0, 15.5, 48.0, 1.0, 24.0, 0.0, 0.0, 0.0, 1.695337895994611E9, 0.0, 2023-09-21 18:11:35.994
10.0, 25207.492733894913, 19631.47009986283, -53530.52807218171, -27752.127081409348, -34184.71326645771, -32976.3332577149, -187500.02235174447, -48556.19204714204, -23788.827513316573, -27099.098515403097, -57013.578058907755, -64840.01902818907, -30033.90491412937, -53344.87448273593, -48703.57945008033, -32750.20065906056, -0.062, 1.004, 0.07, 192.0, 0.0, 0.0, 0.0, 0.0, 0.0, 0.0, 0.0, 0.0, 0.0, 1.695337895994614E9, 0.0, 2023-09-21 18:11:35.994
12.0, 25237.734644142944, 19621.680035791403, -53535.512511195244, -27767.460378105687, -34155.45483296571, -32994.974612590624, -187500.02235174447, -48563.434012345555, -23785.22888245927, -27091.5436257772, -57010.13589026164, -64833.17939438575, -30047.22655382473, -53421.69742842882, -48724.34422067931, -32791.618441536244, -0.062, 1.004, 0.07, 192.0, 0.0, 0.0, 0.0, 0.0, 0.0, 0.0, 0.0, 0.0, 0.0, 1.695337895994618E9, 0.0, 2023-09-21 18:11:35.994
14.0, 25218.445088678014, 19624.20578291485, -53544.25204327727, -27766.409846116287, -34197.18553986377, -32988.31379274294, -187500.02235174447, -48563.210494901, -23819.4717549648, -27122.210219169883, -57042.031829599364, -64865.67883082377, -30037.883524642413, -53320.756950468654, -48694.035255197916, -32730.352309984246, -0.062, 1.004, 0.07, 192.0, 0.0, 0.0, 0.0, 0.0, 0.0, 0.0, 0.0, 0.0, 0.0, 1.695337895994621E9, 0.0, 2023-09-21 18:11:35.994
16.0, 25228.816298105277, 19621.61298055804, -53537.18889202939, -27775.015267731582, -34165.557821459515, -33006.664574940754, -187500.02235174447, -48578.49908810844, -23793.543731396643, -27108.97798645234, -57015.0085705529, -64842.43301659024, -30059.47530978624, -53409.09104455603, -48731.586185882836, -32786.522243800435, -0.062, 1.004, 0.07, 192.0, 0.0, 0.0, 0.0, 0.0, 0.0, 0.0, 0.0, 0.0, 0.0, 1.695337896055032E9, 0.0, 2023-09-21 18:11:36.055
18.0, 25231.69967314001, 19630.061939962143, -53540.36283974205, -27767.750950783608, -34192.469321783705, -32994.88520561281, -187500.02235174447, -48570.58657057126, -23805.926597824884, -27115.214123155372, -57027.74906489242, -64854.92764174076, -30021.589102934493, -53324.42263655933, -48693.43175809762, -32734.397975730655, -0.066, 1.006, 0.066, 192.0, 126.5, 120.0, 15.5, 56.0, 1.0, 8.0, 0.0, 0.0, 0.0, 1.695337896055045E9, 0.0, 2023-09-21 18:11:36.055
20.0, 25218.62390263366, 19624.675169548413, -53536.20541527336, -27773.204776430703, -34167.792995905045, -33003.22240629463, -187500.02235174447, -48577.09092820775, -23795.443629675345, -27115.191771410915, -57012.86280308519, -64843.75176951311, -30053.28387657212, -53407.168794532874, -48733.30727020589, -32784.912918199654, -0.066, 1.006, 0.066, 192.0, 0.0, 0.0, 0.0, 0.0, 0.0, 0.0, 0.0, 0.0, 0.0, 1.695337896055049E9, 0.0, 2023-09-21 18:11:36.055
22.0, 25239.36632148818, 19636.61100108755, -53533.81377861664, -27761.336000124935, -34182.7686646901, -32989.92311834373, -187500.02235174447, -48567.23380890296, -23802.66324313441, -27111.593140553614, -57022.13877703414, -64851.73134228365, -30023.868980868934, -53333.27392736363, -48698.17032792215, -32737.23664727648, -0.066, 1.006, 0.066, 192.0, 0.0, 0.0, 0.0, 0.0, 0.0, 0.0, 0.0, 0.0, 0.0, 1.695337896055053E9, 0.0, 2023-09-21 18:11:36.055
24.0, 25208.923245540052, 19627.379730627505, -53529.11991228103, -27764.956982726693, -34167.301257527026, -33001.36721150485, -187500.02235174447, -48567.99376821444, -23790.168617983894, -27111.950768464896, -57007.76660534938, -64839.08025492195, -30063.811548210568, -53416.958858604296, -48736.97295629656, -32783.68357225461, -0.066, 1.006, 0.066, 192.0, 0.0, 0.0, 0.0, 0.0, 0.0, 0.0, 0.0, 0.0, 0.0, 1.695337896055056E9, 0.0, 2023-09-21 18:11:36.055
26.0, 25256.510109485404, 19614.013387443232, -53549.88468288001, -27783.710096324696, -34189.9212229158, -33017.16989483475, -187500.02235174447, -48591.23958244796, -23810.911036838417, -27118.879809246042, -57034.25342252892, -64867.66813608028, -30018.8845418554, -53329.89881395088, -48688.76024350646, -32720.025804045894, -0.066, 1.006, 0.066, 192.0, 0.0, 0.0, 0.0, 0.0, 0.0, 0.0, 0.0, 0.0, 0.0, 1.69533789605506E9, 0.0, 2023-09-21 18:11:36.055
28.0, 25205.391669916116, 19606.860829217534, -53533.61261291655, -27772.24365141912, -34182.94747864574, -33004.87643538433, -187500.02235174447, -48574.43107061757, -23803.937292568364, -27124.713614548877, -57024.977448579964, -64860.87320576587, -30078.47429257325, -53388.41568093487, -48748.37234596877, -32762.203545833057, -0.07, 1.01, 0.06, 192.0, 126.5, 104.0, 15.5, 72.0, 0.5, 112.0, 0.0, 0.0, 0.0, 1.695337896055063E9, 0.0, 2023-09-21 18:11:36.055
30.0, 25264.310868300305, 19604.13391639399, -53534.417275716936, -27779.351506155912, -34184.780321691076, -33012.83365641042, -187500.02235174447, -48586.433957390065, -23807.42416470339, -27113.18011440994, -57038.34379176424, -64870.39504890383, -30019.51039070015, -53333.765665741645, -48695.80104300989, -32725.993719815462, -0.07, 1.01, 0.06, 192.0, 0.0, 0.0, 0.0, 0.0, 0.0, 0.0, 0.0, 0.0, 0.0, 1.695337896114574E9, 0.0, 2023-09-21 18:11:36.114
32.0, 25201.99420475891, 19599.618864014014, -53505.27060094722, -27756.798596000506, -34169.69289418375, -32989.92311834373, -187500.02235174447, -48551.74404999543, -23784.871254547987, -27109.313262619173, -57010.96290480649, -64846.12105442537, -30066.672571500847, -53397.736358372735, -48738.04584003042, -32777.3356768293, -0.07, 1.01, 0.06, 192.0, 0.0, 0.0, 0.0, 0.0, 0.0, 0.0, 0.0, 0.0, 0.0, 1.695337896114587E9, 0.0, 2023-09-21 18:11:36.114
34.0, 25283.466313298504, 19585.738430707268, -53521.74383661078, -27777.742180555128, -34179.594716977444, -33006.61987145184, -187500.02235174447, -48569.96072172651, -23803.33379546807, -27107.16749515146, -57039.26021328691, -64870.99854600413, -30006.099344026967, -53346.68497403681, -48679.68543525761, -32735.4261559756, -0.07, 1.01, 0.06, 192.0, 0.0, 0.0, 0.0, 0.0, 0.0, 0.0, 0.0, 0.0, 0.0, 1.695337896114591E9, 0.0, 2023-09-21 18:11:36.114
36.0, 25216.74635609941, 19581.49159926076, -53499.392092155475, -27761.44775884721, -34184.690914713254, -32990.28074625501, -187500.02235174447, -48545.66437550359, -23788.961623783307, -27109.916759719465, -57020.61885841118, -64854.905289996306, -30057.798928952092, -53383.00655877669, -48733.48608416153, -32767.411502291146, -0.07, 1.01, 0.06, 192.0, 0.0, 0.0, 0.0, 0.0, 0.0, 0.0, 0.0, 0.0, 0.0, 1.695337896114594E9, 0.0, 2023-09-21 18:11:36.114
38.0, 25307.986176965976, 19561.889119373456, -53509.87506030501, -27781.698439323718, -34176.53252798707, -33010.28555754251, -187500.02235174447, -48567.59143681425, -23798.014080287707, -27098.204445624884, -57041.137759821155, -64868.383391902855, -30005.719364371227, -53363.56054110057, -48704.83114776983, -32748.993664859972, -0.064, 1.01, 0.062, 192.0, 127.0, 0.0, 15.5, 72.0, 0.5, 120.0, 0.0, 0.0, 0.0, 1.695337896114597E9, 0.0, 2023-09-21 18:11:36.114
40.0, 25243.18846979004, 19555.295354759142, -53490.4737461178, -27758.206755901192, -34183.729789701676, -32988.067923553936, -187500.02235174447, -48542.44572430202, -23802.104449523027, -27116.398765611502, -57040.489559231944, -64868.62926109186, -30057.888335929914, -53370.73545107072, -48741.06332553188, -32764.326961556315, -0.064, 1.01, 0.062, 192.0, 0.0, 0.0, 0.0, 0.0, 0.0, 0.0, 0.0, 0.0, 0.0, 1.695337896114601E9, 0.0, 2023-09-21 18:11:36.114
42.0, 25346.38647394019, 19545.795863365634, -53499.30268517765, -27775.261136920588, -34170.38579826186, -33007.26807204104, -187500.02235174447, -48555.07445991927, -23802.462077434313, -27097.869169458052, -57048.02209711339, -64866.2599761796, -30010.815562107036, -53369.66256733687, -48707.08867395981, -32753.86634515123, -0.064, 1.01, 0.062, 192.0, 0.0, 0.0, 0.0, 0.0, 0.0, 0.0, 0.0, 0.0, 0.0, 1.695337896114604E9, 0.0, 2023-09-21 18:11:36.114
44.0, 25279.554758018825, 19541.0125900522, -53483.74587103676, -27755.323380866455, -34183.662734468315, -32986.70446714216, -187500.02235174447, -48535.87431143216, -23803.579664657078, -27113.94007372142, -57039.662544687104, -64861.58846158844, -30057.195431851796, -53352.9434624843, -48731.40737192719, -32747.96548461503, -0.064, 1.01, 0.062, 192.0, 0.0, 0.0, 0.0, 0.0, 0.0, 0.0, 0.0, 0.0, 0.0, 1.695337896114608E9, 0.0, 2023-09-21 18:11:36.114
46.0, 25377.45539873307, 19531.401339936416, -53495.25701943124, -27778.4574363777, -34159.07581556747, -33015.471162256144, -187500.02235174447, -48563.88104723467, -23800.428068688878, -27097.93622469142, -57043.46234124451, -64863.913043011795, -30021.723213401227, -53375.8987040399, -48703.08771170232, -32751.18413581659, -0.064, 1.01, 0.062, 192.0, 0.0, 0.0, 0.0, 0.0, 0.0, 0.0, 0.0, 0.0, 0.0, 1.695337896174275E9, 0.0, 2023-09-21 18:11:36.174
48.0, 25308.924950233097, 19547.874575599977, -53472.7711645092, -27740.705339992684, -34168.50825172762, -32973.22636523561, -187500.02235174447, -48521.479788002944, -23807.178295514383, -27123.640730815023, -57046.97156512399, -64870.57386285948, -30042.867963655946, -53337.409000087864, -48714.42004614116, -32737.10253680975, -0.06, 1.008, 0.066, 192.0, 127.0, 16.0, 15.5, 64.0, 1.0, 8.0, 0.0, 0.0, 0.0, 1.695337896174287E9, 0.0, 2023-09-21 18:11:36.174
50.0, 25394.912111152666, 19549.103921545022, -53468.65844352942, -27751.143604653313, -34129.817382075475, -32990.61602242184, -187500.02235174447, -48531.89570091912, -23777.09284747754, -27076.858529670066, -57019.4118642106, -64837.78385374354, -30003.21596899223, -53400.30680898509, -48689.47549932903, -32768.842013936286, -0.06, 1.008, 0.066, 192.0, 0.0, 0.0, 0.0, 0.0, 0.0, 0.0, 0.0, 0.0, 0.0, 1.695337896174291E9, 0.0, 2023-09-21 18:11:36.174
52.0, 25347.124081507216, 19525.455775911305, -53494.25119093075, -27762.766511770074, -34192.71519097271, -33000.27197602653, -187500.02235174447, -48546.93842493754, -23807.357109470024, -27110.36379460857, -57044.78109416737, -64866.8634732799, -30024.18190529131, -53333.38568608591, -48688.31320861736, -32732.76629838542, -0.06, 1.008, 0.066, 192.0, 0.0, 0.0, 0.0, 0.0, 0.0, 0.0, 0.0, 0.0, 0.0, 1.695337896174294E9, 0.0, 2023-09-21 18:11:36.174
54.0, 25410.334814826827, 19522.013607265188, -53494.34059790857, -27774.232956675645, -34162.29446676904, -33016.588749478906, -187500.02235174447, -48560.75180301092, -23804.65254839093, -27104.88761721702, -57045.5634052233, -64867.37756340237, -30030.574504205528, -53374.89287553941, -48708.07215071585, -32755.05098760736, -0.06, 1.008, 0.066, 192.0, 0.0, 0.0, 0.0, 0.0, 0.0, 0.0, 0.0, 0.0, 0.0, 1.695337896174297E9, 0.0, 2023-09-21 18:11:36.174
56.0, 25363.418503215136, 19523.77939507716, -53495.99462699826, -27759.77137801306, -34190.70353397173, -32996.65099342477, -187500.02235174447, -48543.92093943607, -23814.71083339582, -27119.371547624058, -57051.59837622623, -64874.64188035034, -30027.065280326045, -53302.92025839332, -48701.47838610153, -32722.23862674697, -0.06, 1.008, 0.066, 192.0, 0.0, 0.0, 0.0, 0.0, 0.0, 0.0, 0.0, 0.0, 0.0, 1.695337896174301E9, 0.0, 2023-09-21 18:11:36.174
58.0, 25400.209474588573, 19530.887249813946, -53484.37171988151, -27759.145529168312, -34152.90673409781, -32997.90269111427, -187500.02235174447, -48541.43989580154, -23800.76334485571, -27100.7972479817, -57036.734466163456, -64856.849891763915, -30027.89229487089, -53379.072651752555, -48717.30342117589, -32766.33861855729, -0.064, 1.004, 0.07, 192.0, 127.0, 0.0, 15.5, 48.0, 1.0, 24.0, 0.0, 0.0, 0.0, 1.695337896174305E9, 0.0, 2023-09-21 18:11:36.174
60.0, 25365.318401493838, 19533.43534868185, -53485.95869373783, -27747.366159840367, -34184.10976935742, -32980.28951648349, -187500.02235174447, -48530.3534305517, -23810.843981605052, -27106.13931490652, -57042.747085421935, -64864.11420871189, -30007.641614394382, -53310.25163057466, -48695.06343544286, -32732.38631872968, -0.064, 1.004, 0.07, 192.0, 0.0, 0.0, 0.0, 0.0, 0.0, 0.0, 0.0, 0.0, 0.0, 1.695337896234554E9, 0.0, 2023-09-21 18:11:36.234
62.0, 25388.02777386043, 19528.450909668318, -53485.08697570408, -27764.44289260422, -34149.17399277377, -33002.21657779415, -187500.02235174447, -48542.691593491036, -23801.74682161174, -27099.03146016973, -57032.75585565041, -64854.815883018484, -30030.350986760976, -53391.589628647525, -48719.4491886436, -32783.75062748798, -0.064, 1.004, 0.07, 192.0, 0.0, 0.0, 0.0, 0.0, 0.0, 0.0, 0.0, 0.0, 0.0, 1.695337896234568E9, 0.0, 2023-09-21 18:11:36.234
64.0, 25376.673087677133, 19547.494595944238, -53480.370757624005, -27746.136813895326, -34174.96790587519, -32979.97659206112, -187500.02235174447, -48530.62165148517, -23805.144286768947, -27104.775858494744, -57036.175672552075, -64861.543758099535, -29995.772838088615, -53313.24676433167, -48692.291819130405, -32739.04713857736, -0.064, 1.004, 0.07, 192.0, 0.0, 0.0, 0.0, 0.0, 0.0, 0.0, 0.0, 0.0, 0.0, 1.695337896234572E9, 0.0, 2023-09-21 18:11:36.234
66.0, 25381.568119712847, 19540.520851674184, -53479.09670819005, -27757.357389611887, -34142.02143454808, -32997.74622890309, -187500.02235174447, -48535.11435212068, -23785.966490026294, -27086.492131530304, -57012.751044362914, -64838.16383339928, -30021.298530256576, -53405.44771020982, -48718.3986566542, -32794.94885146008, -0.064, 1.004, 0.07, 192.0, 0.0, 0.0, 0.0, 0.0, 0.0, 0.0, 0.0, 0.0, 0.0, 1.695337896234575E9, 0.0, 2023-09-21 18:11:36.234
68.0, 25389.748858183488, 19537.10103477252, -53495.614647342525, -27763.995857715116, -34174.789091919556, -33002.194226049694, -187500.02235174447, -48549.08419240525, -23821.03637707667, -27110.386146353027, -57046.926861635075, -64872.40670590481, -29997.292756711577, -53306.65299971736, -48673.337539832304, -32730.48642045098, -0.066, 1.006, 0.07, 192.0, 126.5, 120.0, 15.5, 56.0, 1.0, 24.0, 0.0, 0.0, 0.0, 1.695337896234578E9, 0.0, 2023-09-21 18:11:36.234
70.0, 25366.614802672244, 19524.896982299924, -53495.9275717649, -27775.618764831874, -34156.61712367739, -33011.24668255409, -187500.02235174447, -48553.018099429384, -23813.637949661967, -27112.04017544272, -57035.99685859643, -64861.76727554409, -30033.70374842927, -53382.31365469857, -48723.20428171209, -32778.05093265187, -0.066, 1.006, 0.07, 192.0, 0.0, 0.0, 0.0, 0.0, 0.0, 0.0, 0.0, 0.0, 0.0, 1.695337896234582E9, 0.0, 2023-09-21 18:11:36.234
72.0, 25395.873236164243, 19523.555877632603, -53505.71763583632, -27780.759666056594, -34175.683161697765, -33010.84435115389, -187500.02235174447, -48556.50497156441, -23830.826441148096, -27120.31032089118, -57059.734411207966, -64886.98004328967, -29996.733963100192, -53290.716205920726, -48685.87686847173, -32721.836295346773, -0.066, 1.006, 0.07, 192.0, 0.0, 0.0, 0.0, 0.0, 0.0, 0.0, 0.0, 0.0, 0.0, 1.695337896234585E9, 0.0, 2023-09-21 18:11:36.234
74.0, 25347.906392563153, 19534.128252759965, -53482.40476636944, -27758.54203206802, -34153.93491434275, -32987.933813087206, -187500.02235174447, -48534.17557885356, -23810.106374038027, -27119.617416813067, -57033.87344287318, -64862.862511022395, -30040.878658399422, -53361.19125618831, -48733.19551148362, -32773.89350818319, -0.066, 1.006, 0.07, 192.0, 0.0, 0.0, 0.0, 0.0, 0.0, 0.0, 0.0, 0.0, 0.0, 1.695337896234589E9, 0.0, 2023-09-21 18:11:36.234
76.0, 25397.88489316522, 19548.34396223354, -53490.2725804177, -27757.558555311985, -34160.90865861281, -32989.65489741026, -187500.02235174447, -48540.165846367585, -23802.864408834506, -27094.114076389564, -57032.9123178616, -64858.101589453414, -29974.136349455875, -53311.749197453166, -48682.09942365878, -32738.398937988157, -0.066, 1.006, 0.07, 192.0, 0.0, 0.0, 0.0, 0.0, 0.0, 0.0, 0.0, 0.0, 0.0, 1.695337896294748E9, 0.0, 2023-09-21 18:11:36.294
78.0, 25338.071625002816, 19548.500424444726, -53487.52331584971, -27754.474014577154, -34159.00876033411, -32990.660725910755, -187500.02235174447, -48535.404924798604, -23803.24438849025, -27107.100439918097, -57028.821948626275, -64853.83240626245, -30028.451088482274, -53368.70144232529, -48724.47833114604, -32775.256964594955, -0.064, 1.01, 0.07, 192.0, 127.0, 0.0, 15.5, 72.0, 1.0, 24.0, 0.0, 0.0, 0.0, 1.695337896294759E9, 0.0, 2023-09-21 18:11:36.294
80.0, 25403.897512423697, 19552.411979724406, -53501.761377067734, -27768.17563392826, -34161.780376646566, -33007.69275518569, -187500.02235174447, -48557.24257913144, -23805.501914680233, -27097.26567235776, -57039.751951664926, -64859.35328714291, -29975.768026801114, -53317.583002756, -48675.863286955755, -32739.136545555182, -0.064, 1.01, 0.07, 192.0, 0.0, 0.0, 0.0, 0.0, 0.0, 0.0, 0.0, 0.0, 0.0, 1.695337896294763E9, 0.0, 2023-09-21 18:11:36.294
82.0, 25324.81704054082, 19561.665601928904, -53480.88484774648, -27744.192212127713, -34152.50440269761, -32980.647144394774, -187500.02235174447, -48525.74897119391, -23795.17540874188, -27103.121829405052, -57018.71896013248, -64845.71872302517, -30027.9369983598, -53357.83849452001, -48730.669764360166, -32771.770092459934, -0.064, 1.01, 0.07, 192.0, 0.0, 0.0, 0.0, 0.0, 0.0, 0.0, 0.0, 0.0, 0.0, 1.695337896294767E9, 0.0, 2023-09-21 18:11:36.294
84.0, 25398.331928054326, 19551.160282034907, -53509.15980448244, -27773.942383997728, -34160.931010357264, -33010.39731626479, -187500.02235174447, -48560.97532045547, -23804.719603624297, -27094.091724645106, -57032.97937309497, -64857.85572026441, -29970.35890464293, -53323.908546436855, -48681.9876649365, -32745.976179358506, -0.064, 1.01, 0.07, 192.0, 0.0, 0.0, 0.0, 0.0, 0.0, 0.0, 0.0, 0.0, 0.0, 1.695337896294771E9, 0.0, 2023-09-21 18:11:36.294
86.0, 25313.708223546535, 19551.026171568177, -53506.99168527027, -27768.10857869489, -34183.4168652793, -33007.04455459649, -187500.02235174447, -48552.41460232909, -23813.973225828795, -27124.825373271153, -57033.80638763981, -64864.673002323274, -30031.356815261464, -53334.90560470887, -48730.35683993779, -32760.6836272101, -0.064, 1.01, 0.07, 192.0, 0.0, 0.0, 0.0, 0.0, 0.0, 0.0, 0.0, 0.0, 0.0, 1.695337896294775E9, 0.0, 2023-09-21 18:11:36.294
88.0, 25389.994727372497, 19564.30310777463, -53512.15493823945, -27774.523529353566, -34163.099129569426, -33015.24764481159, -187500.02235174447, -48561.15413441112, -23813.28032175068, -27109.17915215244, -57043.26117554441, -64868.942185514235, -29995.616375877427, -53321.00281965767, -48692.001246452484, -32745.57384795831, -0.07200000000000001, 1.012, 0.068, 192.0, 126.5, 96.0, 15.5, 80.0, 1.0, 16.0, 0.0, 0.0, 0.0, 1.695337896294778E9, 0.0, 2023-09-21 18:11:36.294
90.0, 25300.900673973643, 19572.193273567354, -53495.59229559807, -27750.07072091946, -34170.095225583944, -32986.50330144206, -187500.02235174447, -48528.140607850626, -23802.640891389954, -27115.7505650223, -57026.25149801392, -64854.4582551072, -30033.27906528462, -53328.043619161086, -48714.867081030265, -32758.560211486845, -0.07200000000000001, 1.012, 0.068, 192.0, 0.0, 0.0, 0.0, 0.0, 0.0, 0.0, 0.0, 0.0, 0.0, 1.69533789635497E9, 0.0, 2023-09-21 18:11:36.354
92.0, 25377.567157455345, 19568.862863643513, -53505.78469106969, -27768.197985672712, -34149.688082896246, -33008.43036275272, -187500.02235174447, -48556.05793667531, -23791.621481373488, -27092.817675211154, -57022.63051541216, -64850.144368427325, -29985.379276916898, -53347.37787811493, -48686.97210395004, -32759.87896440971, -0.07200000000000001, 1.012, 0.068, 192.0, 0.0, 0.0, 0.0, 0.0, 0.0, 0.0, 0.0, 0.0, 0.0, 1.695337896354985E9, 0.0, 2023-09-21 18:11:36.354
94.0, 25292.541121547358, 19568.192311309853, -53500.55438286715, -27753.803462243493, -34175.549051231035, -32986.52565318652, -187500.02235174447, -48536.880139932655, -23801.366841956, -27118.745698779312, -57029.112521304196, -64859.84502552093, -30021.209123278753, -53321.65102024687, -48715.26941243046, -32751.921743383617, -0.07200000000000001, 1.012, 0.068, 192.0, 0.0, 0.0, 0.0, 0.0, 0.0, 0.0, 0.0, 0.0, 0.0, 1.69533789635499E9, 0.0, 2023-09-21 18:11:36.354
96.0, 25369.855805618266, 19560.078628072577, -53517.60876388654, -27778.815064288985, -34157.153565544315, -33015.35940353387, -187500.02235174447, -48564.059861190304, -23802.79735360114, -27105.245245128306, -57039.05904758681, -64863.60011858942, -29989.156721729843, -53349.68010779382, -48697.61153431077, -32762.33765629979, -0.07200000000000001, 1.012, 0.068, 192.0, 0.0, 0.0, 0.0, 0.0, 0.0, 0.0, 0.0, 0.0, 0.0, 1.695337896354993E9, 0.0, 2023-09-21 18:11:36.354
98.0, 25292.228197124983, 19568.616994454504, -53502.476632890306, -27752.77528199855, -34174.54322273054, -32986.6374119088, -187500.02235174447, -48534.68966897603, -23799.623405888487, -27117.516352834267, -57031.81708238329, -64858.54862434252, -30018.102230799464, -53312.08447362, -48709.88264201673, -32754.201621318058, -0.07, 1.008, 0.062, 192.0, 126.5, 104.0, 15.5, 64.0, 0.5, 120.0, 0.0, 0.0, 0.0, 1.695337896354997E9, 0.0, 2023-09-21 18:11:36.354
100.0, 25353.5837356548, 19564.616032197006, -53508.64571435997, -27770.96960198517, -34154.60546667641, -33009.65970869776, -187500.02235174447, -48556.6614337756, -23796.069478520094, -27104.68645151692, -57034.6110504402, -64859.48739760964, -29995.772838088615, -53358.33023289803, -48704.42881636963, -32779.30263034137, -0.07, 1.008, 0.062, 192.0, 0.0, 0.0, 0.0, 0.0, 0.0, 0.0, 0.0, 0.0, 0.0, 1.695337896355001E9, 0.0, 2023-09-21 18:11:36.355
102.0, 25295.782124493377, 19560.413904239405, -53516.513528408235, -27765.15814842679, -34193.98924040666, -33000.942528360196, -187500.02235174447, -48549.039488916336, -23809.860504849017, -27121.047928458207, -57043.797617411336, -64869.6127378479, -30006.278157982608, -53299.83571765849, -48707.62511582674, -32751.519411983423, -0.07, 1.008, 0.062, 192.0, 0.0, 0.0, 0.0, 0.0, 0.0, 0.0, 0.0, 0.0, 0.0, 1.695337896355004E9, 0.0, 2023-09-21 18:11:36.355
104.0, 25342.54197389388, 19565.91243337541, -53506.4775951478, -27769.695552551217, -34153.890210853846, -33008.22919705262, -187500.02235174447, -48556.99670994243, -23802.23855998976, -27109.98381495283, -57036.466245229996, -64860.64968832132, -30013.497771441675, -53361.68299456633, -48720.522072377455, -32781.20252862007, -0.07, 1.008, 0.062, 192.0, 0.0, 0.0, 0.0, 0.0, 0.0, 0.0, 0.0, 0.0, 0.0, 1.695337896355008E9, 0.0, 2023-09-21 18:11:36.355
106.0, 25296.519732060402, 19576.30599454713, -53496.48636537628, -27745.3992063283, -34174.61027796391, -32979.64131589429, -187500.02235174447, -48530.59929974071, -23802.104449523027, -27108.910931218976, -57034.87927137367, -64857.207519675205, -29997.203349733754, -53297.39937751286, -48700.78548202342, -32747.361987514734, -0.07, 1.008, 0.062, 192.0, 0.0, 0.0, 0.0, 0.0, 0.0, 0.0, 0.0, 0.0, 0.0, 1.695337896415297E9, 0.0, 2023-09-21 18:11:36.415
108.0, 25326.87340103071, 19573.0202881122, -53493.8265077861, -27758.49732857911, -34139.71920486918, -33005.97167086264, -187500.02235174447, -48553.308672107305, -23782.546673124634, -27092.84002695561, -57014.13685251914, -64837.87326072136, -29995.70578285525, -53383.274779710155, -48708.854461771785, -32796.87110148324, -0.07200000000000001, 1.004, 0.066, 192.0, 126.5, 96.0, 15.5, 48.0, 1.0, 8.0, 0.0, 0.0, 0.0, 1.695337896415308E9, 0.0, 2023-09-21 18:11:36.415
110.0, 25303.024089696897, 19575.30016604664, -53500.844955545064, -27750.87538371985, -34178.5665367325, -32992.00183057807, -187500.02235174447, -48540.90345393461, -23804.339623968557, -27114.968253966363, -57036.77916965236, -64861.90138601082, -29987.189768217777, -53298.98635136919, -48683.909914959666, -32747.183173559093, -0.07200000000000001, 1.004, 0.066, 192.0, 0.0, 0.0, 0.0, 0.0, 0.0, 0.0, 0.0, 0.0, 0.0, 1.695337896415313E9, 0.0, 2023-09-21 18:11:36.415
112.0, 25316.77041253691, 19579.05525911513, -53487.59037108307, -27746.15916563978, -34138.17693450176, -32989.3866764768, -187500.02235174447, -48538.71298297799, -23784.401867914425, -27095.097553145595, -57012.683989129546, -64834.02876067505, -30010.480285940208, -53389.197991990804, -48713.458921129575, -32795.06061018236, -0.07200000000000001, 1.004, 0.066, 192.0, 0.0, 0.0, 0.0, 0.0, 0.0, 0.0, 0.0, 0.0, 0.0, 1.695337896415316E9, 0.0, 2023-09-21 18:11:36.415
114.0, 25317.68683405958, 19575.188407324364, -53504.845917802566, -27749.556630796986, -34175.57140297549, -32991.353629988866, -187500.02235174447, -48547.005480170905, -23807.08888853656, -27105.491114317312, -57036.466245229996, -64853.96651672918, -29974.918660511812, -53300.148642080865, -48670.43181305311, -32733.77212688591, -0.07200000000000001, 1.004, 0.066, 192.0, 0.0, 0.0, 0.0, 0.0, 0.0, 0.0, 0.0, 0.0, 0.0, 1.69533789641532E9, 0.0, 2023-09-21 18:11:36.415
116.0, 25305.14750542015, 19573.31086079012, -53506.45524340335, -27762.4535873477, -34162.674446424775, -33008.29625228599, -187500.02235174447, -48564.8645239907, -23805.412507702415, -27112.777783009744, -57029.13487304865, -64848.177414915255, -30025.500658214172, -53373.28354993863, -48719.4491886436, -32772.99943840497, -0.07200000000000001, 1.004, 0.066, 192.0, 0.0, 0.0, 0.0, 0.0, 0.0, 0.0, 0.0, 0.0, 0.0, 1.695337896415324E9, 0.0, 2023-09-21 18:11:36.415
118.0, 25327.633360342188, 19580.955157393833, -53510.32209519412, -27751.411825586776, -34180.6676007113, -32995.95808934666, -187500.02235174447, -48556.01323318639, -23807.71473738131, -27108.687413774423, -57037.852053386225, -64858.61567957589, -29988.150893229355, -53293.89015363338, -48690.5930865518, -32725.23376050398, -0.078, 1.004, 0.07, 192.0, 126.5, 72.0, 15.5, 48.0, 1.0, 24.0, 0.0, 0.0, 0.0, 1.695337896415327E9, 0.0, 2023-09-21 18:11:36.415
120.0, 25301.951205963043, 19565.890081630958, -53512.7807870842, -27763.705285037195, -34170.81048140651, -33006.19518830719, -187500.02235174447, -48564.193971657034, -23809.94991182684, -27114.342405121613, -57023.61399216819, -64843.5059003241, -30036.832992653013, -53366.42156439085, -48725.841787557816, -32770.33958081479, -0.078, 1.004, 0.07, 192.0, 0.0, 0.0, 0.0, 0.0, 0.0, 0.0, 0.0, 0.0, 0.0, 1.695337896474213E9, 0.0, 2023-09-21 18:11:36.474
122.0, 25337.62459011371, 19570.15926482192, -53521.274449977216, -27765.471072849166, -34195.10682762943, -33010.75494417607, -187500.02235174447, -48574.31931189529, -23833.352188271547, -27126.32294014966, -57051.17369308158, -64871.825560548976, -29994.69995435476, -53272.812458612025, -48686.9944556945, -32710.168684741104, -0.078, 1.004, 0.07, 192.0, 0.0, 0.0, 0.0, 0.0, 0.0, 0.0, 0.0, 0.0, 0.0, 1.695337896474227E9, 0.0, 2023-09-21 18:11:36.474
124.0, 25276.649031239634, 19583.16798009491, -53493.98296999728, -27740.459470803675, -34166.07191158199, -32985.7880456195, -187500.02235174447, -48549.62063427218, -23810.75457462723, -27122.41138486998, -57020.305933988806, -64846.433978847745, -30040.31986478804, -53345.38857285841, -48739.63281388674, -32763.075263866816, -0.078, 1.004, 0.07, 192.0, 0.0, 0.0, 0.0, 0.0, 0.0, 0.0, 0.0, 0.0, 0.0, 1.69533789647423E9, 0.0, 2023-09-21 18:11:36.474
126.0, 25329.332092920795, 19583.7714771952, -53507.416368414924, -27751.367122097865, -34167.18949880475, -32992.962955589646, -187500.02235174447, -48556.05793667531, -23810.531057182678, -27101.020765426252, -57026.25149801392, -64849.719685282675, -29971.096512209955, -53298.78518566909, -48686.63682778321, -32733.77212688591, -0.078, 1.004, 0.07, 192.0, 0.0, 0.0, 0.0, 0.0, 0.0, 0.0, 0.0, 0.0, 0.0, 1.695337896474234E9, 0.0, 2023-09-21 18:11:36.474
128.0, 25265.987249134454, 19566.851206642536, -53512.22199347282, -27762.855918747893, -34173.35858027441, -33003.46827548365, -187500.02235174447, -48563.6128263012, -23813.168563028405, -27122.7019575479, -57023.21166076799, -64850.54669982752, -30013.207198763754, -53345.56738681405, -48719.56094736588, -32764.371665045222, -0.07200000000000001, 1.004, 0.07200000000000001, 192.0, 126.5, 96.0, 15.5, 48.0, 1.0, 32.0, 0.0, 0.0, 0.0, 1.695337896474238E9, 0.0, 2023-09-21 18:11:36.474
130.0, 25330.181459210096, 19586.699555718846, -53505.739987580775, -27756.552726811497, -34159.94753360123, -32993.54410094549, -187500.02235174447, -48553.53218955186, -23820.321121254103, -27114.208294654884, -57036.84622488573, -64863.64482207833, -29980.193672203266, -53295.90181063436, -48681.76414749195, -32725.010243059427, -0.07200000000000001, 1.004, 0.07200000000000001, 192.0, 0.0, 0.0, 0.0, 0.0, 0.0, 0.0, 0.0, 0.0, 0.0, 1.695337896474241E9, 0.0, 2023-09-21 18:11:36.474
132.0, 25256.957144374508, 19586.54309350766, -53505.29295269167, -27756.776244256052, -34167.2118505492, -32991.89007185579, -187500.02235174447, -48554.001576185416, -23807.021833303195, -27119.148030179505, -57016.2602682424, -64849.02678120456, -30019.242169766687, -53338.951270455276, -48713.79419729641, -32756.861478908242, -0.07200000000000001, 1.004, 0.07200000000000001, 192.0, 0.0, 0.0, 0.0, 0.0, 0.0, 0.0, 0.0, 0.0, 0.0, 1.695337896474244E9, 0.0, 2023-09-21 18:11:36.474
134.0, 25332.662502844632, 19580.73163994928, -53529.45518844786, -27784.335945169445, -34173.9173738858, -33022.57901699293, -187500.02235174447, -48585.80810854532, -23825.283208523182, -27119.84093425762, -57043.372934266685, -64872.00437450461, -29975.097474467457, -53299.098110091465, -48677.047929411885, -32726.552513426843, -0.07200000000000001, 1.004, 0.07200000000000001, 192.0, 0.0, 0.0, 0.0, 0.0, 0.0, 0.0, 0.0, 0.0, 0.0, 1.695337896474248E9, 0.0, 2023-09-21 18:11:36.474
136.0, 25245.89303086913, 19587.660680730427, -53514.16659524043, -27762.565346069976, -34180.75700768912, -32999.66847892624, -187500.02235174447, -48557.17552389807, -23822.064557321617, -27138.012902499784, -57032.107655061205, -64867.35521165791, -30033.122603073432, -53306.787110184094, -48725.97589802455, -32743.919818868617, -0.07200000000000001, 1.004, 0.07200000000000001, 192.0, 0.0, 0.0, 0.0, 0.0, 0.0, 0.0, 0.0, 0.0, 0.0, 1.695337896534506E9, 0.0, 2023-09-21 18:11:36.534
138.0, 25324.146488207163, 19587.88419817498, -53524.49310117878, -27775.261136920588, -34163.43440573626, -33013.41480176625, -187500.02235174447, -48571.77121302739, -23808.89937983744, -27111.66019578698, -57030.364218993695, -64862.14725519982, -29983.233509449186, -53308.41878752933, -48696.94098197711, -32739.29300776637, -0.068, 1.004, 0.068, 192.0, 126.5, 112.0, 15.5, 48.0, 1.0, 16.0, 0.0, 0.0, 0.0, 1.695337896534517E9, 0.0, 2023-09-21 18:11:36.534
140.0, 25238.293437754328, 19586.297224318652, -53526.0353715462, -27767.54978508351, -34195.15153111834, -33003.803551650475, -187500.02235174447, -48573.11231769471, -23811.156906027427, -27129.027501228753, -57027.927878848066, -64862.996621489125, -30024.874809369423, -53299.76866242512, -48723.58426136783, -32740.2764845224, -0.068, 1.004, 0.068, 192.0, 0.0, 0.0, 0.0, 0.0, 0.0, 0.0, 0.0, 0.0, 0.0, 1.69533789653452E9, 0.0, 2023-09-21 18:11:36.534
142.0, 25316.077508458795, 19595.08145988959, -53526.84003434659, -27773.562404341985, -34174.90085064183, -33014.33122328892, -187500.02235174447, -48573.67111130609, -23811.693347894354, -27119.684472046432, -57037.09209407474, -64869.366868658886, -29996.353983444453, -53309.42461602981, -48703.91472624716, -32741.39407174517, -0.068, 1.004, 0.068, 192.0, 0.0, 0.0, 0.0, 0.0, 0.0, 0.0, 0.0, 0.0, 0.0, 1.695337896534523E9, 0.0, 2023-09-21 18:11:36.534
144.0, 25235.879449353153, 19611.331178108594, -53502.99072301278, -27740.280656848034, -34181.04758036704, -32979.462501938644, -187500.02235174447, -48547.94425343803, -23788.447533660834, -27115.99643421131, -57010.24764898392, -64845.78577825854, -30011.642576651884, -53295.72299667871, -48719.8515200438, -32746.11028982524, -0.068, 1.004, 0.068, 192.0, 0.0, 0.0, 0.0, 0.0, 0.0, 0.0, 0.0, 0.0, 0.0, 1.695337896534527E9, 0.0, 2023-09-21 18:11:36.534
146.0, 25313.127078190697, 19591.438125543373, -53529.56694717013, -27777.11633171038, -34163.38970224735, -33017.77339193504, -187500.02235174447, -48579.95195149803, -23792.001461029227, -27103.59121603861, -57019.948306077524, -64849.33970562693, -29973.488148866672, -53338.839511733, -48695.17519416514, -32759.834260920798, -0.068, 1.004, 0.068, 192.0, 0.0, 0.0, 0.0, 0.0, 0.0, 0.0, 0.0, 0.0, 0.0, 1.69533789653453E9, 0.0, 2023-09-21 18:11:36.534
148.0, 25242.38380698965, 19600.40117506995, -53521.8332435886, -27754.4516628327, -34197.00672590813, -32992.404161978266, -187500.02235174447, -48556.39321284214, -23806.46303969181, -27130.41330938498, -57029.78307363785, -64862.08019996646, -30008.021594050122, -53282.6248744279, -48707.4463018711, -32730.5758274288, -0.062, 0.998, 0.068, 192.0, 127.0, 8.0, 15.5, 24.0, 1.0, 16.0, 0.0, 0.0, 0.0, 1.695337896534534E9, 0.0, 2023-09-21 18:11:36.534
150.0, 25299.067830928307, 19602.904570448944, -53522.86142383354, -27766.275735649557, -34166.451891237724, -33008.85504589737, -187500.02235174447, -48571.6147508162, -23795.33187095307, -27109.26855913026, -57023.50223344591, -64851.306659139, -29996.488093911183, -53342.169921656845, -48705.92638324814, -32763.09761561127, -0.062, 0.998, 0.068, 192.0, 0.0, 0.0, 0.0, 0.0, 0.0, 0.0, 0.0, 0.0, 0.0, 1.695337896594768E9, 0.0, 2023-09-21 18:11:36.594
152.0, 25244.574277946267, 19609.16305889643, -53522.97318255582, -27750.584811041932, -34196.49263578566, -32985.63158340831, -187500.02235174447, -48550.80527672831, -23798.10348726553, -27118.052794701194, -57025.826814869266, -64852.17837717276, -29993.090628753976, -53283.228371528196, -48701.07605470134, -32735.6273216757, -0.062, 0.998, 0.068, 192.0, 0.0, 0.0, 0.0, 0.0, 0.0, 0.0, 0.0, 0.0, 0.0, 1.695337896594785E9, 0.0, 2023-09-21 18:11:36.594
154.0, 25284.986231921463, 19608.20193388485, -53518.65929587594, -27759.92784022425, -34159.63460917886, -33000.71901091564, -187500.02235174447, -48562.71875652299, -23784.155998725415, -27102.60773928258, -57012.84045134073, -64839.92962121125, -29995.526968899605, -53356.40798287487, -48716.43170314213, -32773.62528724972, -0.062, 0.998, 0.068, 192.0, 0.0, 0.0, 0.0, 0.0, 0.0, 0.0, 0.0, 0.0, 0.0, 1.695337896594788E9, 0.0, 2023-09-21 18:11:36.594
156.0, 25246.362417502693, 19601.40700357044, -53534.37257222803, -27761.82773850295, -34202.30408934404, -33000.83076963792, -187500.02235174447, -48568.463154848, -23802.171504756392, -27118.566884823667, -57028.44196897054, -64853.78770277354, -29990.229605463697, -53279.808554626536, -48695.219897654046, -32731.559304184833, -0.062, 0.998, 0.068, 192.0, 0.0, 0.0, 0.0, 0.0, 0.0, 0.0, 0.0, 0.0, 0.0, 1.695337896594792E9, 0.0, 2023-09-21 18:11:36.594
158.0, 25264.28851655585, 19604.13391639399, -53530.416313459435, -27766.812177516484, -34169.75994941711, -33012.38662152131, -187500.02235174447, -48577.493259607945, -23802.14915301194, -27120.042099957718, -57030.364218993695, -64853.430074862255, -30010.860265595948, -53351.110619438965, -48722.332563678334, -32769.02082789193, -0.062, 1.006, 0.07, 192.0, 127.0, 8.0, 15.5, 56.0, 1.0, 24.0, 0.0, 0.0, 0.0, 1.695337896594796E9, 0.0, 2023-09-21 18:11:36.594
160.0, 25246.496527969426, 19617.589666556083, -53528.471711691825, -27752.216488387166, -34194.16805436231, -32993.924080601224, -187500.02235174447, -48563.299901878825, -23794.14722849694, -27109.93911146392, -57024.12808229066, -64846.702199781204, -29983.077047238, -53286.089394818475, -48695.66693254315, -32734.308568752836, -0.062, 1.006, 0.07, 192.0, 0.0, 0.0, 0.0, 0.0, 0.0, 0.0, 0.0, 0.0, 0.0, 1.695337896594799E9, 0.0, 2023-09-21 18:11:36.594
162.0, 25248.686998926045, 19619.73543402379, -53516.848804575064, -27752.216488387166, -34160.19340279024, -32996.3380690024, -187500.02235174447, -48560.39417509964, -23779.19391145634, -27096.483361301824, -57003.07273901376, -64825.24452510411, -30002.47836142521, -53373.73058482773, -48734.49191266202, -32787.17044438964, -0.062, 1.006, 0.07, 192.0, 0.0, 0.0, 0.0, 0.0, 0.0, 0.0, 0.0, 0.0, 0.0, 1.695337896594802E9, 0.0, 2023-09-21 18:11:36.594
164.0, 25260.220499064984, 19612.851096731556, -53541.14515079799, -27764.82287225996, -34203.801656222546, -33005.21171155116, -187500.02235174447, -48579.50491660892, -23808.921731581897, -27112.88954173202, -57033.87344287318, -64854.12297894037, -29976.617393090415, -53278.24393251466, -48691.867135985754, -32723.579731414287, -0.062, 1.006, 0.07, 192.0, 0.0, 0.0, 0.0, 0.0, 0.0, 0.0, 0.0, 0.0, 0.0, 1.695337896594805E9, 0.0, 2023-09-21 18:11:36.594
166.0, 25240.059225566296, 19597.54015177967, -53543.134456054504, -27779.73148581165, -34185.65203972483, -33025.28357807202, -187500.02235174447, -48591.01606500341, -23796.315347709104, -27110.050870186195, -57017.221393253974, -64841.181318900744, -30024.740698902693, -53362.42060213335, -48740.526883664956, -32778.140339629696, -0.062, 1.006, 0.07, 192.0, 0.0, 0.0, 0.0, 0.0, 0.0, 0.0, 0.0, 0.0, 0.0, 1.695337896655048E9, 0.0, 2023-09-21 18:11:36.655
168.0, 25262.56743223279, 19613.096965920566, -53541.681592664914, -27766.990991472125, -34202.9746416777, -33009.86087439786, -187500.02235174447, -48577.202686930024, -23823.09273756656, -27125.294759904715, -57045.541053478846, -64869.590386103446, -29985.84866355046, -53264.60936839692, -48704.250002413995, -32714.95195805454, -0.058, 1.006, 0.068, 192.0, 127.0, 24.0, 15.5, 56.0, 1.0, 16.0, 0.0, 0.0, 0.0, 1.695337896655065E9, 0.0, 2023-09-21 18:11:36.655
170.0, 25225.262370736884, 19614.572181054617, -53528.24819424727, -27763.191194914725, -34174.207946563714, -33004.7423249176, -187500.02235174447, -48569.40192811513, -23790.347431939535, -27104.68645151692, -57005.30791345929, -64831.72653099615, -30018.0351755661, -53356.96677648625, -48744.61725290028, -32776.95569717356, -0.058, 1.006, 0.068, 192.0, 0.0, 0.0, 0.0, 0.0, 0.0, 0.0, 0.0, 0.0, 0.0, 1.695337896655069E9, 0.0, 2023-09-21 18:11:36.655
172.0, 25272.29044107085, 19618.863715990035, -53540.25108101977, -27771.88602350784, -34190.9717549052, -33006.91044412976, -187500.02235174447, -48574.43107061757, -23808.76526937071, -27103.300643360693, -57026.586774180745, -64849.36205737139, -29970.78358778758, -53282.71428140572, -48689.45314758458, -32725.5243331819, -0.058, 1.006, 0.068, 192.0, 0.0, 0.0, 0.0, 0.0, 0.0, 0.0, 0.0, 0.0, 0.0, 1.695337896655073E9, 0.0, 2023-09-21 18:11:36.655
174.0, 25209.660853107078, 19638.51089936625, -53510.098577749566, -27746.78501448453, -34171.1681093178, -32986.2350805086, -187500.02235174447, -48555.58855004174, -23791.88970230695, -27109.670890530455, -57003.51977390287, -64829.2007838727, -30017.096402298976, -53353.479904351225, -48737.26352897448, -32771.345409315276, -0.058, 1.006, 0.068, 192.0, 0.0, 0.0, 0.0, 0.0, 0.0, 0.0, 0.0, 0.0, 0.0, 1.695337896655077E9, 0.0, 2023-09-21 18:11:36.655
176.0, 25279.04066789635, 19627.960875983343, -53538.57470018562, -27775.3058404095, -34188.08837987046, -33018.131019846325, -187500.02235174447, -48585.29401842285, -23795.309519208615, -27090.671907743446, -57013.33218971875, -64836.375693842856, -29944.430881074775, -53307.30120030656, -48680.601856780275, -32736.05200482035, -0.058, 1.006, 0.068, 192.0, 0.0, 0.0, 0.0, 0.0, 0.0, 0.0, 0.0, 0.0, 0.0, 1.69533789665508E9, 0.0, 2023-09-21 18:11:36.655
178.0, 25200.675451836047, 19631.291285907184, -53526.705923879854, -27761.850090247404, -34185.42852228028, -33007.62569995233, -187500.02235174447, -48577.04622471884, -23791.88970230695, -27111.011995197776, -57004.25738146989, -64831.614772273875, -30019.398631977874, -53346.72967752573, -48732.43555217214, -32766.87506042422, -0.064, 1.006, 0.068, 192.0, 127.0, 0.0, 15.5, 56.0, 1.0, 16.0, 0.0, 0.0, 0.0, 1.695337896655083E9, 0.0, 2023-09-21 18:11:36.655
180.0, 25269.9658596475, 19626.32919863811, -53542.665069420946, -27780.31263116749, -34187.842510681454, -33027.496400773096, -187500.02235174447, -48595.8216900613, -23808.407641459424, -27106.6981085179, -57029.38074223766, -64853.273612651064, -29967.408474374828, -53302.16029908184, -48683.194659137094, -32731.112269295725, -0.064, 1.006, 0.068, 192.0, 0.0, 0.0, 0.0, 0.0, 0.0, 0.0, 0.0, 0.0, 0.0, 1.695337896715374E9, 0.0, 2023-09-21 18:11:36.715
182.0, 25187.063239462765, 19609.096003663064, -53548.76709565725, -27784.69357308073, -34210.015441181116, -33023.718955960154, -187500.02235174447, -48590.05493999183, -23807.982958314773, -27127.26171341678, -57022.22818401196, -64850.434941105246, -30020.426812222817, -53329.67529650633, -48728.278127703445, -32757.040292863883, -0.064, 1.006, 0.068, 192.0, 0.0, 0.0, 0.0, 0.0, 0.0, 0.0, 0.0, 0.0, 0.0, 1.695337896715387E9, 0.0, 2023-09-21 18:11:36.715
184.0, 25263.0144671219, 19620.048358446165, -53550.555235213666, -27785.297070181023, -34192.894004928356, -33023.026051882036, -187500.02235174447, -48588.57972485778, -23824.18797304487, -27130.882696018543, -57047.19508256854, -64871.75850531561, -29983.389971660374, -53294.8289269005, -48701.27722040143, -32730.44171696207, -0.064, 1.006, 0.068, 192.0, 0.0, 0.0, 0.0, 0.0, 0.0, 0.0, 0.0, 0.0, 0.0, 1.695337896715391E9, 0.0, 2023-09-21 18:11:36.715
186.0, 25172.51225382236, 19634.12995745301, -53528.40465645846, -27757.133872167335, -34191.75406596113, -32992.962955589646, -187500.02235174447, -48561.981148955965, -23791.08503950656, -27119.483306346334, -57007.07370127126, -64834.29698160851, -30015.46472495374, -53321.62866850242, -48732.52495914995, -32760.638923721188, -0.064, 1.006, 0.068, 192.0, 0.0, 0.0, 0.0, 0.0, 0.0, 0.0, 0.0, 0.0, 0.0, 1.695337896715395E9, 0.0, 2023-09-21 18:11:36.715
188.0, 25256.86773739669, 19632.520631852225, -53542.84388337659, -27779.753837556105, -34180.71230420021, -33019.740345447106, -187500.02235174447, -48582.745919554945, -23797.47763842078, -27105.111134661573, -57021.57998342276, -64843.707066024195, -29968.235488919676, -53326.05431390456, -48689.72136851804, -32751.273542794414, -0.062, 1.01, 0.068, 192.0, 127.0, 8.0, 15.5, 72.0, 1.0, 16.0, 0.0, 0.0, 0.0, 1.695337896715398E9, 0.0, 2023-09-21 18:11:36.715
190.0, 25173.294564878295, 19636.074559220622, -53535.49015945079, -27761.313648380477, -34205.58979577897, -33002.95418536117, -187500.02235174447, -48563.88104723467, -23800.249254733237, -27127.12760295005, -57019.14364327713, -64842.20949914569, -30013.14014353039, -53310.60925848595, -48716.319944419854, -32748.747795670963, -0.062, 1.01, 0.068, 192.0, 0.0, 0.0, 0.0, 0.0, 0.0, 0.0, 0.0, 0.0, 0.0, 1.695337896715402E9, 0.0, 2023-09-21 18:11:36.715
192.0, 25250.385731504648, 19629.97253298432, -53545.07905782212, -27777.093979965925, -34181.204042578225, -33019.53917974701, -187500.02235174447, -48580.10841370922, -23799.71281286631, -27108.195675396404, -57025.133910791155, -64842.92475496826, -29977.84673903546, -53336.38081984292, -48700.78548202342, -32753.464013751032, -0.062, 1.01, 0.068, 192.0, 0.0, 0.0, 0.0, 0.0, 0.0, 0.0, 0.0, 0.0, 0.0, 1.695337896715409E9, 0.0, 2023-09-21 18:11:36.715
194.0, 25179.195425414495, 19623.69169279238, -53547.42599098993, -27772.377761885855, -34218.64321454087, -33012.58778722141, -187500.02235174447, -48578.43203287507, -23801.433897189367, -27126.166477938474, -57022.317590989784, -64841.71776076767, -30002.8806928254, -53300.148642080865, -48712.497796118, -32737.01312983193, -0.062, 1.01, 0.068, 192.0, 0.0, 0.0, 0.0, 0.0, 0.0, 0.0, 0.0, 0.0, 0.0, 1.695337896715414E9, 0.0, 2023-09-21 18:11:36.715
196.0, 25244.931905857553, 19624.40694861495, -53549.48235147981, -27780.558500356496, -34195.464455540714, -33023.69660421569, -187500.02235174447, -48589.80907080282, -23808.429993203878, -27125.294759904715, -57035.2145475405, -64851.954859728205, -29996.398686933364, -53336.000840187175, -48712.36368565127, -32745.842068891776, -0.062, 1.01, 0.068, 192.0, 0.0, 0.0, 0.0, 0.0, 0.0, 0.0, 0.0, 0.0, 0.0, 1.695337896774637E9, 0.0, 2023-09-21 18:11:36.774
198.0, 25177.474341091438, 19635.471062120327, -53536.92067109593, -27759.570212312963, -34217.03388894009, -32993.588804434396, -187500.02235174447, -48565.22215190198, -23800.606882644523, -27127.46287911688, -57026.63147766966, -64845.83048174745, -30001.204311991252, -53291.83379314349, -48716.23053744204, -32723.065641291818, -0.062, 1.008, 0.066, 192.0, 127.0, 8.0, 15.5, 64.0, 1.0, 8.0, 0.0, 0.0, 0.0, 1.695337896774647E9, 0.0, 2023-09-21 18:11:36.774
200.0, 25239.165155788083, 19633.0347219747, -53537.97120308533, -27772.40011363031, -34184.355638546425, -33015.91819714525, -187500.02235174447, -48580.62250383169, -23784.692440592342, -27111.011995197776, -57014.31566647478, -64834.11816765287, -29991.101323497456, -53362.55471260008, -48717.97397350955, -32755.855650407753, -0.062, 1.008, 0.066, 192.0, 0.0, 0.0, 0.0, 0.0, 0.0, 0.0, 0.0, 0.0, 0.0, 1.695337896774651E9, 0.0, 2023-09-21 18:11:36.774
202.0, 25191.89121626511, 19632.677094063412, -53543.223863032326, -27761.6042210584, -34221.79481050907, -33000.920176615735, -187500.02235174447, -48571.07830894927, -23800.740993111252, -27133.296684419714, -57029.15722479311, -64851.12784518336, -29986.250994950653, -53284.03303432859, -48699.39967386719, -32707.28530970637, -0.062, 1.008, 0.066, 192.0, 0.0, 0.0, 0.0, 0.0, 0.0, 0.0, 0.0, 0.0, 0.0, 1.695337896774654E9, 0.0, 2023-09-21 18:11:36.774
204.0, 25222.982492802443, 19644.61292560255, -53527.66704889143, -27759.659619290785, -34179.68412395527, -33000.29432777099, -187500.02235174447, -48565.28920713535, -23777.673992833377, -27114.11888767706, -57008.9065443166, -64827.81497571647, -29993.694125854272, -53368.455573136285, -48719.94092702162, -32751.80998466134, -0.062, 1.008, 0.066, 192.0, 0.0, 0.0, 0.0, 0.0, 0.0, 0.0, 0.0, 0.0, 0.0, 1.695337896774658E9, 0.0, 2023-09-21 18:11:36.774
206.0, 25191.958271498475, 19665.93648981291, -53521.54267091068, -27739.699511492196, -34207.15441789084, -32973.583993146894, -187500.02235174447, -48545.7090789925, -23780.870292290485, -27109.246207385804, -57011.58875365124, -64831.324199595954, -29968.459006364228, -53299.992179869674, -48692.09065343031, -32714.124943509694, -0.062, 1.008, 0.066, 192.0, 0.0, 0.0, 0.0, 0.0, 0.0, 0.0, 0.0, 0.0, 0.0, 1.695337896774662E9, 0.0, 2023-09-21 18:11:36.774
208.0, 25210.33140544074, 19660.929699054923, -53521.58737439959, -27750.093072663913, -34170.05052209503, -32990.81718812194, -187500.02235174447, -48560.908265222104, -23756.618649556476, -27083.765218706754, -56984.856067282686, -64802.177524826235, -29982.384143159885, -53399.81507060708, -48713.90595601869, -32768.99847614747, -0.064, 1.008, 0.058, 192.0, 127.0, 0.0, 15.5, 64.0, 0.5, 104.0, 0.0, 0.0, 0.0, 1.695337896774665E9, 0.0, 2023-09-21 18:11:36.774
210.0, 25208.967949028964, 19648.92681228242, -53548.54357821269, -27763.347657125913, -34219.023194196605, -32999.98140334862, -187500.02235174447, -48571.63710256066, -23793.364917441002, -27105.93814920642, -57020.775320622364, -64835.92865895375, -29965.93325924078, -53302.96496188223, -48673.31518808785, -32704.893673049653, -0.064, 1.008, 0.058, 192.0, 0.0, 0.0, 0.0, 0.0, 0.0, 0.0, 0.0, 0.0, 0.0, 1.695337896834381E9, 0.0, 2023-09-21 18:11:36.834
212.0, 25205.86105654968, 19641.438977889895, -53546.084886322606, -27772.847148519417, -34195.755028218635, -33021.23791232561, -187500.02235174447, -48582.43299513257, -23787.061725504605, -27113.001300454296, -57013.77922460785, -64830.072501906456, -30007.820428350024, -53380.92784654234, -48726.400581169204, -32747.89842938166, -0.064, 1.008, 0.058, 192.0, 0.0, 0.0, 0.0, 0.0, 0.0, 0.0, 0.0, 0.0, 0.0, 1.695337896834392E9, 0.0, 2023-09-21 18:11:36.834
214.0, 25214.980568287443, 19647.965687270844, -53555.78554341621, -27771.170767685267, -34226.10869718894, -33012.051345354485, -187500.02235174447, -48579.34845439774, -23808.5194001817, -27125.652387816, -57037.27090803038, -64852.78187427305, -29977.93614601328, -53287.74342390817, -48692.51533657496, -32681.625507071676, -0.064, 1.008, 0.058, 192.0, 0.0, 0.0, 0.0, 0.0, 0.0, 0.0, 0.0, 0.0, 0.0, 1.695337896834395E9, 0.0, 2023-09-21 18:11:36.834
216.0, 25190.974794742444, 19633.235887674797, -53557.976014372834, -27782.033715490546, -34206.930900446285, -33027.04936588399, -187500.02235174447, -48591.93248652607, -23800.80804834462, -27128.424004128457, -57024.843338113234, -64841.42718808976, -30020.069184311535, -53371.80833480458, -48739.8563313313, -32728.072432049805, -0.064, 1.008, 0.058, 192.0, 0.0, 0.0, 0.0, 0.0, 0.0, 0.0, 0.0, 0.0, 0.0, 1.695337896834399E9, 0.0, 2023-09-21 18:11:36.834
218.0, 25228.99511206092, 19638.64500983298, -53562.96045338637, -27781.810198045994, -34227.78507802309, -33019.6956419582, -187500.02235174447, -48585.316370167304, -23822.53394395518, -27133.520201864267, -57048.737352935954, -64862.41547613329, -29971.700009310247, -53287.4752029747, -48701.00899946797, -32668.728550520966, -0.064, 1.014, 0.058, 192.0, 127.0, 0.0, 15.5, 88.0, 0.5, 104.0, 0.0, 0.0, 0.0, 1.695337896834402E9, 0.0, 2023-09-21 18:11:36.834
220.0, 25182.503483593882, 19644.255297691263, -53543.156807798965, -27768.332096139446, -34204.0251736671, -33009.592653464395, -187500.02235174447, -48573.358186883714, -23800.673937877888, -27123.394861626013, -57020.86472760019, -64837.64974327681, -30017.252864510163, -53362.644119577904, -48749.84756110282, -32720.62930114619, -0.064, 1.014, 0.058, 192.0, 0.0, 0.0, 0.0, 0.0, 0.0, 0.0, 0.0, 0.0, 0.0, 1.695337896834406E9, 0.0, 2023-09-21 18:11:36.834
222.0, 25238.919286599077, 19645.84227154759, -53550.0411450912, -27774.478825864655, -34211.04362142606, -33010.84435115389, -187500.02235174447, -48578.387329386154, -23807.848847848043, -27116.51052433378, -57036.53330046336, -64849.89849923832, -29966.112073196422, -53300.0815868475, -48697.812700010865, -32681.044361715838, -0.064, 1.014, 0.058, 192.0, 0.0, 0.0, 0.0, 0.0, 0.0, 0.0, 0.0, 0.0, 0.0, 1.695337896834409E9, 0.0, 2023-09-21 18:11:36.834
224.0, 25180.13419868162, 19627.044454460676, -53549.34824101308, -27780.670259078775, -34211.96004294873, -33013.3924500218, -187500.02235174447, -48577.33679739676, -23800.47277217779, -27125.875905260553, -57028.3078585038, -64843.572955557465, -30016.738774387693, -53361.459477121774, -48744.90782557819, -32725.636091904176, -0.064, 1.014, 0.058, 192.0, 0.0, 0.0, 0.0, 0.0, 0.0, 0.0, 0.0, 0.0, 0.0, 1.695337896834413E9, 0.0, 2023-09-21 18:11:36.834
226.0, 25249.715179170988, 19626.150384682463, -53546.12958981152, -27780.73731431214, -34206.573272535, -33017.68398495722, -187500.02235174447, -48580.778966042875, -23810.106374038027, -27120.779707524744, -57047.06097210181, -64862.12490345537, -29965.39681737385, -53304.26136306064, -48702.3948076242, -32684.263012917403, -0.064, 1.014, 0.058, 192.0, 0.0, 0.0, 0.0, 0.0, 0.0, 0.0, 0.0, 0.0, 0.0, 1.695337896894723E9, 0.0, 2023-09-21 18:11:36.894
228.0, 25178.12254168064, 19614.54982931016, -53524.94013606789, -27765.627535060354, -34203.95811843373, -33003.6917929282, -187500.02235174447, -48560.930616966565, -23797.835266332062, -27131.642655330023, -57029.738370148945, -64852.580708572954, -30009.116829528433, -53345.299165880584, -48745.01958430047, -32719.28819647887, -0.068, 1.016, 0.066, 192.0, 126.5, 112.0, 15.5, 96.0, 1.0, 8.0, 0.0, 0.0, 0.0, 1.695337896894733E9, 0.0, 2023-09-21 18:11:36.894
230.0, 25262.52272874388, 19610.50416356375, -53518.56988889813, -27773.048314219515, -34188.08837987046, -33015.64997621179, -187500.02235174447, -48567.05499494732, -23791.152094739926, -27116.108192933585, -57033.26994577288, -64855.106455696405, -29949.88470672187, -53323.32740108102, -48704.00413322498, -32702.367925926203, -0.068, 1.016, 0.066, 192.0, 0.0, 0.0, 0.0, 0.0, 0.0, 0.0, 0.0, 0.0, 0.0, 1.695337896894737E9, 0.0, 2023-09-21 18:11:36.894
232.0, 25189.588986586212, 19598.34481458006, -53499.05681598864, -27759.994895457614, -34197.45376079724, -33002.66361268325, -187500.02235174447, -48552.816933729286, -23784.75949582571, -27123.014881970274, -57021.60233516721, -64847.93154572625, -29989.64846010786, -53344.31568912455, -48738.89520631972, -32726.485458193478, -0.068, 1.016, 0.066, 192.0, 0.0, 0.0, 0.0, 0.0, 0.0, 0.0, 0.0, 0.0, 0.0, 1.695337896894741E9, 0.0, 2023-09-21 18:11:36.894
234.0, 25280.895862686142, 19587.50421851924, -53497.40278689895, -27767.035694961036, -34172.48686224066, -33010.12909533132, -187500.02235174447, -48558.673090776574, -23793.18610348536, -27114.230646399337, -57038.47790223097, -64861.63316507735, -29947.761290998616, -53332.84924421898, -48704.16059543617, -32707.575882384288, -0.068, 1.016, 0.066, 192.0, 0.0, 0.0, 0.0, 0.0, 0.0, 0.0, 0.0, 0.0, 0.0, 1.695337896894744E9, 0.0, 2023-09-21 18:11:36.894
236.0, 25213.348890942205, 19572.01445961171, -53486.60689432704, -27754.02697968805, -34193.18457760627, -32997.209787036154, -187500.02235174447, -48543.4068493136, -23782.47961789127, -27120.869114502566, -57023.591640423736, -64849.160891671294, -29986.85449205095, -53343.6898402798, -48738.67168887516, -32720.58459765728, -0.068, 1.016, 0.066, 192.0, 0.0, 0.0, 0.0, 0.0, 0.0, 0.0, 0.0, 0.0, 0.0, 1.695337896894748E9, 0.0, 2023-09-21 18:11:36.894
238.0, 25314.736403791478, 19563.923128118888, -53487.63507457198, -27766.87923274985, -34177.851280909934, -33016.43228726772, -187500.02235174447, -48558.11429716519, -23794.013118030205, -27116.97991096734, -57045.876329645675, -64864.74005755664, -29959.25008764864, -53352.40702061737, -48716.0964269753, -32712.873245820196, -0.07, 1.008, 0.058, 192.0, 126.5, 104.0, 15.5, 64.0, 0.5, 104.0, 0.0, 0.0, 0.0, 1.695337896894751E9, 0.0, 2023-09-21 18:11:36.894
240.0, 25257.60534496371, 19555.943555348345, -53478.11323143402, -27752.52941280954, -34199.44306605376, -33001.568377204945, -187500.02235174447, -48543.36214582469, -23790.012155772707, -27124.110117448585, -57036.33213476326, -64853.139502184335, -29980.528948370094, -53330.92699419582, -48733.08375276134, -32706.61475737271, -0.07, 1.008, 0.058, 192.0, 0.0, 0.0, 0.0, 0.0, 0.0, 0.0, 0.0, 0.0, 0.0, 1.695337896955003E9, 0.0, 2023-09-21 18:11:36.955
242.0, 25347.50406116296, 19556.524700704183, -53477.19680991135, -27761.425407102754, -34173.515042485604, -33012.27486279904, -187500.02235174447, -48555.56619829729, -23793.476676163278, -27115.459992344382, -57044.490521489446, -64856.134635941344, -29962.580497572482, -53351.6917647948, -48714.91178451917, -32708.179379484583, -0.07, 1.008, 0.058, 192.0, 0.0, 0.0, 0.0, 0.0, 0.0, 0.0, 0.0, 0.0, 0.0, 1.695337896955016E9, 0.0, 2023-09-21 18:11:36.955
244.0, 25289.948319190542, 19553.97660183628, -53469.77603075219, -27740.995912670605, -34199.57717652049, -32993.96878409014, -187500.02235174447, -48539.42823880056, -23788.313423194104, -27122.523143592258, -57032.82291088378, -64847.484510837145, -29972.07998896599, -53311.01158988614, -48721.84082530032, -32694.991850255952, -0.07, 1.008, 0.058, 192.0, 0.0, 0.0, 0.0, 0.0, 0.0, 0.0, 0.0, 0.0, 0.0, 1.69533789695502E9, 0.0, 2023-09-21 18:11:36.955
246.0, 25367.061837561352, 19541.68314238586, -53478.761432023224, -27761.02307570256, -34169.35761801692, -33021.64024372581, -187500.02235174447, -48562.00350070042, -23789.05103076113, -27105.26759687276, -57038.09792257523, -64848.91502248228, -29960.36767487141, -53358.3972881314, -48713.63773508522, -32716.583635399777, -0.07, 1.008, 0.058, 192.0, 0.0, 0.0, 0.0, 0.0, 0.0, 0.0, 0.0, 0.0, 0.0, 1.695337896955024E9, 0.0, 2023-09-21 18:11:36.955
248.0, 25316.077508458795, 19549.953287834323, -53474.93928372137, -27739.855973703383, -34202.30408934404, -32989.72195264363, -187500.02235174447, -48535.963718409985, -23802.909112323418, -27121.36085288058, -57047.552710479824, -64859.62150807637, -29963.496919095152, -53286.715243663224, -48709.904993761185, -32681.446693116035, -0.064, 1.0, 0.062, 192.0, 127.0, 0.0, 15.5, 32.0, 0.5, 120.0, 0.0, 0.0, 0.0, 1.695337896955027E9, 0.0, 2023-09-21 18:11:36.955
250.0, 25367.82179687283, 19556.502348959726, -53465.03746092766, -27740.81709871496, -34160.26045802361, -32994.2370050236, -187500.02235174447, -48538.958852166994, -23771.974297997273, -27087.699125730887, -57019.23305025495, -64826.853850704894, -29963.563974328517, -53366.53332311312, -48721.68436308913, -32728.586522172278, -0.064, 1.0, 0.062, 192.0, 0.0, 0.0, 0.0, 0.0, 0.0, 0.0, 0.0, 0.0, 0.0, 1.695337896955031E9, 0.0, 2023-09-21 18:11:36.955
252.0, 25335.97056102402, 19550.24386051224, -53486.316321649116, -27747.544973796008, -34202.594662021955, -32995.15342654627, -187500.02235174447, -48547.22899761546, -23794.75072559723, -27103.904140460985, -57038.32144001978, -64844.489377080135, -29952.343398611953, -53291.051482087554, -48697.70094128859, -32687.392257141146, -0.064, 1.0, 0.062, 192.0, 0.0, 0.0, 0.0, 0.0, 0.0, 0.0, 0.0, 0.0, 0.0, 1.695337896955035E9, 0.0, 2023-09-21 18:11:36.955
254.0, 25360.15514852466, 19545.661752898905, -53486.6739495604, -27756.530375067043, -34175.48199599767, -33008.63152845282, -187500.02235174447, -48551.341718595235, -23805.323100724592, -27115.32588187765, -57049.98905062545, -64855.955821985706, -29984.328744927498, -53348.249596148686, -48723.13722647873, -32716.829504588786, -0.064, 1.0, 0.062, 192.0, 0.0, 0.0, 0.0, 0.0, 0.0, 0.0, 0.0, 0.0, 0.0, 1.695337896955038E9, 0.0, 2023-09-21 18:11:36.955
0.0, 25340.329151192804, 19558.9163373609, -53484.148202436954, -27742.82875571594, -34201.566481777016, -32990.52661544402, -187500.02235174447, -48535.8072561988, -23811.916865338906, -27113.89537023251, -57051.978355881976, -64857.85572026441, -29958.356017870432, -53266.59867365345, -48702.774787279945, -32671.52251857788, -0.064, 1.0, 0.062, 192.0, 0.0, 0.0, 0.0, 0.0, 0.0, 0.0, 0.0, 0.0, 0.0, 1.695337897015473E9, 0.0, 2023-09-21 18:11:37.015
2.0, 25345.246534972972, 19555.988258837257, -53477.73325177828, -27745.98035168414, -34167.56947846049, -32998.37207774783, -187500.02235174447, -48543.026869657864, -23789.363955183504, -27095.723401990344, -57026.027980569364, -64834.38638858633, -29978.718457069215, -53359.47017186525, -48736.391810940724, -32733.436850719077, -0.064, 1.004, 0.058, 192.0, 127.0, 0.0, 15.5, 48.0, 0.5, 104.0, 0.0, 0.0, 0.0, 1.695337897015486E9, 0.0, 2023-09-21 18:11:37.015
4.0, 25348.711055363543, 19563.63255544097, -53486.13750769347, -27741.085319648424, -34189.585946748964, -32997.74622890309, -187500.02235174447, -48544.27856734736, -23811.648644405443, -27104.84291372811, -57048.536187235855, -64854.70412429621, -29958.423073103797, -53269.951435321746, -48698.68441804462, -32682.497225105435, -0.064, 1.004, 0.058, 192.0, 0.0, 0.0, 0.0, 0.0, 0.0, 0.0, 0.0, 0.0, 0.0, 1.69533789701549E9, 0.0, 2023-09-21 18:11:37.015
6.0, 25335.30000869036, 19557.10584606002, -53485.22108617081, -27750.517755808563, -34166.09426332644, -32999.64612718178, -187500.02235174447, -48543.876235947166, -23798.371708198993, -27096.908044446474, -57028.28550675935, -64832.64295251882, -29983.613489104926, -53356.5420933416, -48740.54923540941, -32740.656464178144, -0.064, 1.004, 0.058, 192.0, 0.0, 0.0, 0.0, 0.0, 0.0, 0.0, 0.0, 0.0, 0.0, 1.695337897015494E9, 0.0, 2023-09-21 18:11:37.015
8.0, 25354.00841879945, 19561.06210482861, -53496.173440953906, -27752.417654087265, -34192.22345259469, -32995.9357376022, -187500.02235174447, -48544.74795398092, -23823.42801373339, -27108.17332365195, -57056.33694605076, -64858.57097608697, -29957.283134136575, -53264.60936839692, -48700.27139190095, -32684.575937339778, -0.064, 1.004, 0.058, 192.0, 0.0, 0.0, 0.0, 0.0, 0.0, 0.0, 0.0, 0.0, 0.0, 1.695337897015498E9, 0.0, 2023-09-21 18:11:37.015
10.0, 25317.82094452631, 19554.803616381123, -53493.75945255273, -27754.20579364369, -34177.851280909934, -33002.41774349425, -187500.02235174447, -48548.07836390476, -23807.848847848043, -27108.732117263335, -57040.04252434284, -64847.26099339259, -29990.587233374983, -53339.4877123222, -48744.95252906711, -32736.63315017619, -0.064, 1.004, 0.058, 192.0, 0.0, 0.0, 0.0, 0.0, 0.0, 0.0, 0.0, 0.0, 0.0, 1.695337897015501E9, 0.0, 2023-09-21 18:11:37.015
12.0, 25359.462244446546, 19560.34684900604, -53499.05681598864, -27752.998799443103, -34194.74919971814, -33002.462446983154, -187500.02235174447, -48547.02783191536, -23805.323100724592, -27101.42309682645, -57043.97643136697, -64851.485473094646, -29943.067424663, -53271.24783650015, -48702.551269835385, -32697.18232121257, -0.062, 1.004, 0.066, 192.0, 127.0, 8.0, 15.5, 48.0, 1.0, 8.0, 0.0, 0.0, 0.0, 1.695337897015505E9, 0.0, 2023-09-21 18:11:37.015
14.0, 25307.114458932218, 19555.54122394815, -53488.43973737237, -27749.26605811907, -34188.49071127066, -33002.50715047206, -187500.02235174447, -48547.56427378229, -23796.650623875932, -27110.095573675106, -57029.64896317112, -64838.14148165483, -29992.867111309424, -53335.01736343114, -48748.43940120214, -32740.94703685606, -0.062, 1.004, 0.066, 192.0, 0.0, 0.0, 0.0, 0.0, 0.0, 0.0, 0.0, 0.0, 0.0, 1.695337897074815E9, 0.0, 2023-09-21 18:11:37.074
16.0, 25369.542881195892, 19558.73752340526, -53503.28129569069, -27761.78303501404, -34194.145702617854, -33014.420630266744, -187500.02235174447, -48558.3601663542, -23808.7205658818, -27108.776820752242, -57049.1173325917, -64856.134635941344, -29940.58638102846, -53271.627816155895, -48699.4443773561, -32697.33878342376, -0.062, 1.004, 0.066, 192.0, 0.0, 0.0, 0.0, 0.0, 0.0, 0.0, 0.0, 0.0, 0.0, 1.695337897074833E9, 0.0, 2023-09-21 18:11:37.074
18.0, 25299.358403606228, 19554.736561147758, -53497.11221422103, -27759.145529168312, -34191.93287991678, -33009.90557788677, -187500.02235174447, -48549.0618406608, -23805.814839102608, -27122.634902314534, -57039.77430340938, -64850.613755060884, -29994.2305677212, -53313.87261317642, -48739.185778997635, -32730.397013473157, -0.062, 1.004, 0.066, 192.0, 0.0, 0.0, 0.0, 0.0, 0.0, 0.0, 0.0, 0.0, 0.0, 1.695337897074836E9, 0.0, 2023-09-21 18:11:37.074
20.0, 25366.570099183333, 19554.982430336768, -53512.959601039845, -27776.98222124365, -34193.81042645102, -33027.362290306366, -187500.02235174447, -48573.648759561635, -23819.76232764272, -27115.7505650223, -57061.36608855321, -64868.07046748048, -29945.21319213071, -53260.45194392824, -48693.58822030881, -32695.125960722682, -0.062, 1.004, 0.066, 192.0, 0.0, 0.0, 0.0, 0.0, 0.0, 0.0, 0.0, 0.0, 0.0, 1.69533789707484E9, 0.0, 2023-09-21 18:11:37.074
22.0, 25277.38663880666, 19563.520796718694, -53495.614647342525, -27751.434177331234, -34196.76085671912, -32999.51201671505, -187500.02235174447, -48546.51374179289, -23805.412507702415, -27123.305454648194, -57039.170806309085, -64852.848929506414, -30003.32772771451, -53295.47712748971, -48748.46175294659, -32727.737155882976, -0.06, 1.01, 0.068, 192.0, 127.0, 16.0, 15.5, 72.0, 1.0, 16.0, 0.0, 0.0, 0.0, 1.695337897074843E9, 0.0, 2023-09-21 18:11:37.074
24.0, 25348.91222106364, 19579.01055562622, -53496.46401363183, -27753.267020376567, -34173.872670396886, -33003.803551650475, -187500.02235174447, -48552.77223024038, -23802.596187901043, -27102.630091027033, -57043.216472055494, -64852.17837717276, -29944.967322941702, -53282.42370872781, -48707.75922629348, -32712.068583019805, -0.06, 1.01, 0.068, 192.0, 0.0, 0.0, 0.0, 0.0, 0.0, 0.0, 0.0, 0.0, 0.0, 1.695337897074846E9, 0.0, 2023-09-21 18:11:37.074
26.0, 25264.266164811394, 19578.272948059195, -53489.40086238395, -27739.900677192294, -34180.779359433574, -32990.28074625501, -187500.02235174447, -48537.75185796641, -23783.932481280863, -27103.524160805246, -57017.3108002318, -64829.91603969527, -29971.856471521434, -53311.615086986436, -48728.25577595899, -32740.05296707785, -0.06, 1.01, 0.068, 192.0, 0.0, 0.0, 0.0, 0.0, 0.0, 0.0, 0.0, 0.0, 0.0, 1.69533789707485E9, 0.0, 2023-09-21 18:11:37.074
28.0, 25344.665389617134, 19563.20787229632, -53516.60293538606, -27768.60031707291, -34185.78615019157, -33012.56543547695, -187500.02235174447, -48564.55159956832, -23811.80510661663, -27107.70393701839, -57052.58185298227, -64860.1579499433, -29941.41339557331, -53291.36440650993, -48689.52020281794, -32715.80132434384, -0.06, 1.01, 0.068, 192.0, 0.0, 0.0, 0.0, 0.0, 0.0, 0.0, 0.0, 0.0, 0.0, 1.695337897074853E9, 0.0, 2023-09-21 18:11:37.074
30.0, 25258.588821719746, 19561.464436228805, -53511.126757994505, -27759.63726754633, -34208.20494988024, -33001.5907289494, -187500.02235174447, -48554.44861107453, -23805.501914680233, -27126.971140738864, -57043.305879033316, -64857.38633363084, -29981.110093725933, -53281.619045927415, -48724.523034634956, -32718.036498789374, -0.06, 1.01, 0.068, 192.0, 0.0, 0.0, 0.0, 0.0, 0.0, 0.0, 0.0, 0.0, 0.0, 1.695337897135402E9, 0.0, 2023-09-21 18:11:37.135
32.0, 25332.416633655626, 19567.857035143024, -53513.00430452875, -27769.49438685112, -34182.70160945673, -33015.9405488897, -187500.02235174447, -48563.65752979011, -23801.09862102254, -27114.297701632706, -57049.13968433615, -64861.543758099535, -29941.055767662023, -53297.44408100177, -48703.06535995786, -32717.455353433535, -0.058, 1.008, 0.064, 192.0, 127.0, 24.0, 15.5, 64.0, 1.0, 0.0, 0.0, 0.0, 0.0, 1.695337897135413E9, 0.0, 2023-09-21 18:11:37.135
34.0, 25248.32937101476, 19585.604320240538, -53489.57967633959, -27735.765604468063, -34192.37991480588, -32982.055304295456, -187500.02235174447, -48529.59347124022, -23784.245405703237, -27118.164553423474, -57025.98327708046, -64844.60113580241, -29969.509538353628, -53280.90379010484, -48719.06920898786, -32718.10355402274, -0.058, 1.008, 0.064, 192.0, 0.0, 0.0, 0.0, 0.0, 0.0, 0.0, 0.0, 0.0, 0.0, 1.695337897135417E9, 0.0, 2023-09-21 18:11:37.135
36.0, 25319.34086314927, 19577.043602114154, -53504.10831023554, -27763.101787936903, -34170.721074428686, -33015.0911826004, -187500.02235174447, -48559.254236132416, -23775.014135243197, -27093.22000661135, -57022.250535756415, -64836.46510082068, -29940.45227056173, -53332.26809886314, -48702.61832506875, -32739.695339166563, -0.058, 1.008, 0.064, 192.0, 0.0, 0.0, 0.0, 0.0, 0.0, 0.0, 0.0, 0.0, 0.0, 1.695337897135421E9, 0.0, 2023-09-21 18:11:37.135
38.0, 25254.274935039874, 19570.96392762231, -53516.42412143041, -27762.095959436414, -34214.95517670574, -33007.089258085405, -187500.02235174447, -48557.42139308708, -23795.600091886532, -27122.433736614435, -57043.28352728886, -64860.38146738786, -29961.753483027638, -53270.845505099955, -48711.96135425107, -32708.112324251215, -0.058, 1.008, 0.064, 192.0, 0.0, 0.0, 0.0, 0.0, 0.0, 0.0, 0.0, 0.0, 0.0, 1.695337897135424E9, 0.0, 2023-09-21 18:11:37.135
40.0, 25312.68004330159, 19562.82789264058, -53513.719560351325, -27769.44968336221, -34172.59862096293, -33017.72868844613, -187500.02235174447, -48565.84800074673, -23793.431972674367, -27110.542608564214, -57041.58479471026, -64856.82754001946, -29962.55814582803, -53322.835662703, -48720.96910726656, -32735.20263853105, -0.058, 1.008, 0.064, 192.0, 0.0, 0.0, 0.0, 0.0, 0.0, 0.0, 0.0, 0.0, 0.0, 1.695337897135427E9, 0.0, 2023-09-21 18:11:37.135
42.0, 25263.32739154427, 19556.144721048444, -53526.81768260213, -27768.287392650534, -34217.279758129094, -33012.118400587846, -187500.02235174447, -48567.30086413633, -23817.124821796995, -27131.240323929826, -57060.829646686274, -64872.80903730501, -29963.720436539705, -53244.38103966487, -48704.92055474765, -32692.823731043787, -0.06, 1.006, 0.066, 192.0, 127.0, 16.0, 15.5, 56.0, 1.0, 8.0, 0.0, 0.0, 0.0, 1.695337897135431E9, 0.0, 2023-09-21 18:11:37.135
44.0, 25295.29038611536, 19566.650040942437, -53514.0324847737, -27762.140662925325, -34179.08062685497, -33007.96097611916, -187500.02235174447, -48563.99280595694, -23803.959644312818, -27112.08487893163, -57046.39041976815, -64854.83823476294, -29972.102340710444, -53315.43723528829, -48731.20620622709, -32734.554437941842, -0.06, 1.006, 0.066, 192.0, 0.0, 0.0, 0.0, 0.0, 0.0, 0.0, 0.0, 0.0, 0.0, 1.695337897194818E9, 0.0, 2023-09-21 18:11:37.194
46.0, 25262.14274908814, 19572.05916310062, -53514.07718826261, -27751.434177331234, -34211.04362142606, -32993.61115617885, -187500.02235174447, -48545.01617491438, -23812.945045583852, -27113.493038832312, -57051.95600413752, -64860.60498483241, -29951.762253256114, -53244.917481531804, -48705.904031503684, -32697.80817005732, -0.06, 1.006, 0.066, 192.0, 0.0, 0.0, 0.0, 0.0, 0.0, 0.0, 0.0, 0.0, 0.0, 1.695337897194834E9, 0.0, 2023-09-21 18:11:37.194
48.0, 25280.091199885752, 19568.39347700995, -53510.83618531659, -27764.01820945957, -34174.94555413074, -33007.715106930154, -187500.02235174447, -48554.85094247472, -23803.490257679256, -27106.899274217998, -57041.51773947689, -64848.40093235981, -29974.046942478057, -53327.26130810515, -48726.35587768029, -32746.04323459187, -0.06, 1.006, 0.066, 192.0, 0.0, 0.0, 0.0, 0.0, 0.0, 0.0, 0.0, 0.0, 0.0, 1.695337897194838E9, 0.0, 2023-09-21 18:11:37.194
50.0, 25264.86966191169, 19580.150494593443, -53506.6787608479, -27745.868592961862, -34197.02907765259, -32985.341010730386, -187500.02235174447, -48537.79656145532, -23809.547580426646, -27107.56982655166, -57049.25144305843, -64856.69342955273, -29940.58638102846, -53247.04089725506, -48694.12466217574, -32700.28921369186, -0.06, 1.006, 0.066, 192.0, 0.0, 0.0, 0.0, 0.0, 0.0, 0.0, 0.0, 0.0, 0.0, 1.695337897194841E9, 0.0, 2023-09-21 18:11:37.194
52.0, 25267.060132868308, 19563.63255544097, -53509.58448762709, -27764.778168771052, -34171.90571688482, -33005.16700806225, -187500.02235174447, -48552.43695407355, -23796.449458175834, -27102.78655323822, -57036.42154174108, -64842.00833344559, -29966.849680763447, -53339.97945070022, -48733.84371207282, -32758.24728706447, -0.062, 1.004, 0.064, 192.0, 127.0, 8.0, 15.5, 48.0, 1.0, 0.0, 0.0, 0.0, 0.0, 1.695337897194845E9, 0.0, 2023-09-21 18:11:37.194
54.0, 25277.63250799567, 19566.270061286697, -53515.194775485375, -27759.190232657224, -34199.040734653565, -32997.3886009918, -187500.02235174447, -48549.33006159426, -23817.415394474912, -27112.978948709842, -57059.13091410767, -64863.9577465007, -29947.470718320696, -53252.49472290215, -48702.32775239083, -32704.58074862728, -0.062, 1.004, 0.064, 192.0, 0.0, 0.0, 0.0, 0.0, 0.0, 0.0, 0.0, 0.0, 0.0, 1.695337897194848E9, 0.0, 2023-09-21 18:11:37.194
56.0, 25259.95227813152, 19554.222471025285, -53518.59224064258, -27769.82966301795, -34186.7696269476, -33009.525598231034, -187500.02235174447, -48558.963663454495, -23807.580626914576, -27113.98477721033, -57044.15524532262, -64851.59723181692, -29987.234471706688, -53332.42456107433, -48742.49383717702, -32756.34738878577, -0.062, 1.004, 0.064, 192.0, 0.0, 0.0, 0.0, 0.0, 0.0, 0.0, 0.0, 0.0, 0.0, 1.695337897194851E9, 0.0, 2023-09-21 18:11:37.194
58.0, 25286.95318543353, 19570.58394796657, -53511.7302550948, -27756.172747155757, -34192.51402527261, -32996.1369033023, -187500.02235174447, -48545.28439584785, -23816.878952607985, -27114.74473652181, -57057.25336757343, -64863.913043011795, -29940.49697405064, -53248.560815878016, -48703.31122914687, -32707.061792261815, -0.062, 1.004, 0.064, 192.0, 0.0, 0.0, 0.0, 0.0, 0.0, 0.0, 0.0, 0.0, 0.0, 1.695337897194855E9, 0.0, 2023-09-21 18:11:37.194
60.0, 25235.454766208502, 19586.990128396767, -53480.81779251311, -27730.91527592126, -34164.48493772566, -32972.60051639086, -187500.02235174447, -48529.28054681785, -23787.12878073797, -27102.6971462604, -57020.55180317781, -64830.139557139824, -29970.962401743225, -53339.97945070022, -48741.68917437663, -32769.892545925686, -0.062, 1.004, 0.064, 192.0, 0.0, 0.0, 0.0, 0.0, 0.0, 0.0, 0.0, 0.0, 0.0, 1.695337897255149E9, 0.0, 2023-09-21 18:11:37.255
62.0, 25289.90361570163, 19582.564482994614, -53502.00724625674, -27746.62855227334, -34176.71134194271, -32988.000868320574, -187500.02235174447, -48542.3563173242, -23796.47180992029, -27091.610681010567, -57037.360315008205, -64845.316391624976, -29907.2599300456, -53286.35761575194, -48681.518278302945, -32732.162801285125, -0.068, 1.004, 0.064, 192.0, 126.5, 112.0, 15.5, 48.0, 1.0, 0.0, 0.0, 0.0, 0.0, 1.695337897255162E9, 0.0, 2023-09-21 18:11:37.255
64.0, 25230.537382428334, 19574.16022707942, -53498.63213284399, -27747.992008685116, -34179.57236523299, -32992.62767942282, -187500.02235174447, -48548.79361972733, -23788.492237149745, -27102.22775962684, -57022.09407354523, -64834.81107173098, -29966.8720325079, -53344.44979959128, -48727.47346490306, -32768.86436568074, -0.068, 1.004, 0.064, 192.0, 0.0, 0.0, 0.0, 0.0, 0.0, 0.0, 0.0, 0.0, 0.0, 1.695337897255166E9, 0.0, 2023-09-21 18:11:37.255
66.0, 25294.083391914774, 19586.274872574195, -53507.282257948194, -27750.20483138619, -34189.5188915156, -32992.35945848936, -187500.02235174447, -48556.12499190867, -23808.13942052596, -27104.21706488336, -57047.217434312995, -64856.849891763915, -29926.81770644399, -53280.16618253782, -48686.45801382757, -32719.243492989957, -0.068, 1.004, 0.064, 192.0, 0.0, 0.0, 0.0, 0.0, 0.0, 0.0, 0.0, 0.0, 0.0, 1.695337897255169E9, 0.0, 2023-09-21 18:11:37.255
68.0, 25226.067033537274, 19586.319576063106, -53497.49219387677, -27741.800575470996, -34181.24874606714, -32986.07861829741, -187500.02235174447, -48548.346584838226, -23776.5117021217, -27096.550416535192, -57009.599448394714, -64823.41168205878, -29962.625201061393, -53341.96875595675, -48734.022526028464, -32763.90227841166, -0.068, 1.004, 0.064, 192.0, 0.0, 0.0, 0.0, 0.0, 0.0, 0.0, 0.0, 0.0, 0.0, 1.695337897255173E9, 0.0, 2023-09-21 18:11:37.255
70.0, 25311.11542118972, 19567.365296765005, -53535.69132515089, -27785.230014947658, -34202.08057189948, -33029.105726373884, -187500.02235174447, -48594.30177143834, -23816.56602818561, -27112.733079520833, -57055.599338483735, -64866.6623075798, -29923.822572686982, -53283.96597909522, -48684.2898946154, -32711.733306852977, -0.068, 1.004, 0.064, 192.0, 0.0, 0.0, 0.0, 0.0, 0.0, 0.0, 0.0, 0.0, 0.0, 1.695337897255176E9, 0.0, 2023-09-21 18:11:37.255
72.0, 25226.268199237373, 19581.178674838386, -53511.86436556153, -27754.16109015478, -34211.71417375972, -32995.891034113294, -187500.02235174447, -48562.20466640052, -23810.866333349506, -27131.709710563387, -57037.67323943058, -64854.771179529576, -29983.41232340483, -53290.96207510973, -48741.48800867653, -32721.925702324595, -0.074, 1.01, 0.066, 192.0, 126.5, 88.0, 15.5, 72.0, 1.0, 8.0, 0.0, 0.0, 0.0, 1.69533789725518E9, 0.0, 2023-09-21 18:11:37.255
74.0, 25307.673252543602, 19585.917244662913, -53519.106330765055, -27767.192157172223, -34194.12335087339, -33014.62179596684, -187500.02235174447, -48577.627370074675, -23802.596187901043, -27109.626187041544, -57037.04739058583, -64851.35136262791, -29926.527133766074, -53286.89405761887, -48706.10519720378, -32710.883940563675, -0.074, 1.01, 0.066, 192.0, 0.0, 0.0, 0.0, 0.0, 0.0, 0.0, 0.0, 0.0, 0.0, 1.695337897315381E9, 0.0, 2023-09-21 18:11:37.315
76.0, 25218.333329955738, 19598.054241902144, -53497.089862476576, -27739.63245625883, -34199.28660384257, -32986.01156306405, -187500.02235174447, -48550.5594075393, -23798.595225643545, -27121.89729474751, -57025.87151835818, -64846.34457186992, -29971.968230243714, -53289.799784398056, -48729.84274981532, -32724.250283747948, -0.074, 1.01, 0.066, 192.0, 0.0, 0.0, 0.0, 0.0, 0.0, 0.0, 0.0, 0.0, 0.0, 1.695337897315394E9, 0.0, 2023-09-21 18:11:37.315
78.0, 25300.83361874028, 19602.658701259938, -53503.05777824614, -27751.657694775786, -34170.34109477295, -33000.11551381535, -187500.02235174447, -48561.44470708904, -23777.07049573308, -27089.88959668751, -57011.54405016232, -64828.28436235004, -29916.692366205738, -53323.55091852557, -48701.098406445795, -32737.10253680975, -0.074, 1.01, 0.066, 192.0, 0.0, 0.0, 0.0, 0.0, 0.0, 0.0, 0.0, 0.0, 0.0, 1.695337897315398E9, 0.0, 2023-09-21 18:11:37.315
80.0, 25221.507277668392, 19610.21359088583, -53498.05098748815, -27732.524601522044, -34197.699629986244, -32979.686019383196, -187500.02235174447, -48538.914148678086, -23784.066591747596, -27112.12958242054, -57014.986218808444, -64835.48162406465, -29950.041168933058, -53300.59567696997, -48717.526938620445, -32722.685661636075, -0.074, 1.01, 0.066, 192.0, 0.0, 0.0, 0.0, 0.0, 0.0, 0.0, 0.0, 0.0, 0.0, 1.695337897315402E9, 0.0, 2023-09-21 18:11:37.315
82.0, 25300.788915251367, 19603.88804720498, -53511.57379288362, -27757.133872167335, -34175.90667914232, -33010.509074987065, -187500.02235174447, -48568.530210081364, -23779.08215273406, -27088.5931955091, -57012.393416451625, -64830.16190888428, -29919.709851707205, -53336.40317158737, -48695.845746498795, -32728.497115194456, -0.07200000000000001, 1.008, 0.062, 192.0, 126.5, 96.0, 15.5, 64.0, 0.5, 120.0, 0.0, 0.0, 0.0, 1.695337897315405E9, 0.0, 2023-09-21 18:11:37.315
84.0, 25227.698710882512, 19600.378823325496, -53518.59224064258, -27752.909392465284, -34217.838551740475, -33000.62960393782, -187500.02235174447, -48561.824686744774, -23800.651586133434, -27117.739870278823, -57027.95023059252, -64849.295002138024, -29954.31035212402, -53284.97180759571, -48706.55223209289, -32700.445675903047, -0.07200000000000001, 1.008, 0.062, 192.0, 0.0, 0.0, 0.0, 0.0, 0.0, 0.0, 0.0, 0.0, 0.0, 1.695337897315409E9, 0.0, 2023-09-21 18:11:37.315
86.0, 25288.227234867485, 19604.31273034963, -53519.97804879881, -27766.901584494306, -34180.75700768912, -33011.269034298544, -187500.02235174447, -48568.44080310355, -23787.307594693615, -27102.473628815846, -57020.32828573326, -64839.01319968858, -29935.62429375938, -53333.83272097501, -48708.720351305055, -32721.746888368954, -0.07200000000000001, 1.008, 0.062, 192.0, 0.0, 0.0, 0.0, 0.0, 0.0, 0.0, 0.0, 0.0, 0.0, 1.695337897315412E9, 0.0, 2023-09-21 18:11:37.315
88.0, 25219.316806711773, 19616.87441073351, -53509.98681902729, -27741.599409770897, -34207.422638824304, -32984.37988571881, -187500.02235174447, -48543.4068493136, -23790.593301128545, -27116.197599911404, -57022.742274134434, -64845.249336391615, -29939.55820078352, -53272.56658942302, -48709.86029027227, -32694.03072524437, -0.07200000000000001, 1.008, 0.062, 192.0, 0.0, 0.0, 0.0, 0.0, 0.0, 0.0, 0.0, 0.0, 0.0, 1.695337897315416E9, 0.0, 2023-09-21 18:11:37.315
90.0, 25264.37792353367, 19617.857887489547, -53513.31722895113, -27755.703360522195, -34170.63166745087, -32999.06498182595, -187500.02235174447, -48558.58368379876, -23770.767303796685, -27090.51544553226, -57005.7549483484, -64825.64685650431, -29928.136459366855, -53345.232110647215, -48712.25192692899, -32732.14044954067, -0.07200000000000001, 1.008, 0.062, 192.0, 0.0, 0.0, 0.0, 0.0, 0.0, 0.0, 0.0, 0.0, 0.0, 1.695337897375706E9, 0.0, 2023-09-21 18:11:37.375
92.0, 25216.36637644367, 19625.882163749, -53519.68747612089, -27743.007569671583, -34206.39445857936, -32985.92215608623, -187500.02235174447, -48555.32032910828, -23784.960661525805, -27107.07808817364, -57020.86472760019, -64840.26489737808, -29923.509648264608, -53274.35472897944, -48698.863232000265, -32693.00254499943, -0.07, 1.012, 0.06, 192.0, 126.5, 104.0, 15.5, 80.0, 0.5, 112.0, 0.0, 0.0, 0.0, 1.695337897375719E9, 0.0, 2023-09-21 18:11:37.375
94.0, 25247.99409484793, 19623.423471858918, -53513.87602256251, -27753.088206420925, -34166.69776042673, -33004.80938015096, -187500.02235174447, -48558.047241931825, -23771.169635196882, -27094.82933221213, -57009.71120711699, -64827.79262397202, -29935.713700737204, -53353.770477029146, -48717.83986304282, -32735.67202516461, -0.07, 1.012, 0.06, 192.0, 0.0, 0.0, 0.0, 0.0, 0.0, 0.0, 0.0, 0.0, 0.0, 1.695337897375723E9, 0.0, 2023-09-21 18:11:37.375
96.0, 25227.072862037763, 19624.74222478178, -53526.2812407352, -27753.02115118756, -34210.48482781468, -33001.210749293656, -187500.02235174447, -48565.04333794634, -23791.75559184022, -27113.537742321223, -57031.77237889438, -64852.89363299533, -29918.860485417903, -53262.754173607136, -48687.15091790568, -32682.94425999454, -0.07, 1.012, 0.06, 192.0, 0.0, 0.0, 0.0, 0.0, 0.0, 0.0, 0.0, 0.0, 0.0, 1.695337897375726E9, 0.0, 2023-09-21 18:11:37.375
98.0, 25234.292475496826, 19625.993922471276, -53518.0334470312, -27756.373912855855, -34180.91346990031, -33001.7918946495, -187500.02235174447, -48563.09873617873, -23771.862539274996, -27100.327861348138, -57010.292352472825, -64832.77706298555, -29948.16362239881, -53345.18740715831, -48726.13236023574, -32733.39214723017, -0.07, 1.012, 0.06, 192.0, 0.0, 0.0, 0.0, 0.0, 0.0, 0.0, 0.0, 0.0, 0.0, 1.69533789737573E9, 0.0, 2023-09-21 18:11:37.375
100.0, 25231.31969348427, 19622.752919525257, -53530.10338903706, -27760.061950690982, -34206.43916206827, -33001.25545278257, -187500.02235174447, -48567.4126228586, -23779.842112045542, -27100.327861348138, -57021.31176248929, -64841.762464256586, -29914.144267337833, -53264.18468525227, -48691.62126679674, -32685.268841417892, -0.07, 1.012, 0.06, 192.0, 0.0, 0.0, 0.0, 0.0, 0.0, 0.0, 0.0, 0.0, 0.0, 1.695337897375733E9, 0.0, 2023-09-21 18:11:37.375
102.0, 25221.440222435027, 19612.69463452037, -53534.484330950305, -27777.004572988102, -34195.464455540714, -33023.651900726785, -187500.02235174447, -48585.249314933935, -23782.70313533582, -27113.716556276868, -57022.16112877859, -64843.081217179446, -29957.305485881032, -53341.70053502328, -48734.73778185103, -32728.921798339106, -0.066, 1.01, 0.058, 192.0, 126.5, 120.0, 15.5, 72.0, 0.5, 104.0, 0.0, 0.0, 0.0, 1.695337897375736E9, 0.0, 2023-09-21 18:11:37.375
104.0, 25238.8075278768, 19621.233000902295, -53537.837092618596, -27771.997782230115, -34214.3740313499, -33013.34774653289, -187500.02235174447, -48586.21043994551, -23796.918844809396, -27119.483306346334, -57037.51677721939, -64857.609851075395, -29921.654453474817, -53250.84069381245, -48703.601801824785, -32676.462254102502, -0.066, 1.01, 0.058, 192.0, 0.0, 0.0, 0.0, 0.0, 0.0, 0.0, 0.0, 0.0, 0.0, 1.695337897434562E9, 0.0, 2023-09-21 18:11:37.434
106.0, 25199.759030313377, 19627.402082371962, -53522.77201685572, -27759.458453590687, -34196.85026369694, -33000.9872318491, -187500.02235174447, -48561.86939023369, -23790.436838917358, -27119.952692979896, -57023.166957279085, -64843.19297590172, -29967.162605185822, -53324.0873603925, -48748.282938990946, -32725.390222715167, -0.066, 1.01, 0.058, 192.0, 0.0, 0.0, 0.0, 0.0, 0.0, 0.0, 0.0, 0.0, 0.0, 1.695337897434576E9, 0.0, 2023-09-21 18:11:37.434
108.0, 25239.500431954915, 19633.817033030635, -53530.86334834855, -27760.30781987999, -34206.05918241253, -33005.94931911818, -187500.02235174447, -48576.24156191845, -23785.27358594818, -27101.98189043783, -57020.61885841118, -64840.04137993353, -29906.991709112135, -53260.04961252804, -48698.88558374472, -32686.47583561848, -0.066, 1.01, 0.058, 192.0, 0.0, 0.0, 0.0, 0.0, 0.0, 0.0, 0.0, 0.0, 0.0, 1.69533789743458E9, 0.0, 2023-09-21 18:11:37.434
110.0, 25185.118637695152, 19635.247544675774, -53515.954734796855, -27749.467223819167, -34193.229281095184, -32996.449827724675, -187500.02235174447, -48564.976282712974, -23772.55544335311, -27104.574692794646, -57000.18936397903, -64823.47873729214, -29956.657285291825, -53332.715133752245, -48740.795104598415, -32734.934417597586, -0.066, 1.01, 0.058, 192.0, 0.0, 0.0, 0.0, 0.0, 0.0, 0.0, 0.0, 0.0, 0.0, 1.695337897434584E9, 0.0, 2023-09-21 18:11:37.434
112.0, 25247.18943204754, 19631.537155096194, -53532.69619139388, -27762.721808281163, -34208.04848766905, -33008.832694152916, -187500.02235174447, -48578.65555031962, -23787.32994643807, -27095.70105024589, -57018.51779443238, -64835.92865895375, -29899.48152297515, -53272.052499300546, -48687.41913883915, -32687.23579492996, -0.076, 1.012, 0.052000000000000005, 192.0, 126.5, 80.0, 15.5, 80.0, 0.5, 80.0, 0.0, 0.0, 0.0, 1.695337897434587E9, 0.0, 2023-09-21 18:11:37.434
114.0, 25173.965117211952, 19641.416626145437, -53515.64181037448, -27745.466261561665, -34199.26425209812, -32988.269089254034, -187500.02235174447, -48561.44470708904, -23783.865426047498, -27105.446410828405, -57004.72676810346, -64823.94812392571, -29955.204421902232, -53318.41001730085, -48735.29657546242, -32721.501019179945, -0.076, 1.012, 0.052000000000000005, 192.0, 0.0, 0.0, 0.0, 0.0, 0.0, 0.0, 0.0, 0.0, 0.0, 1.695337897434591E9, 0.0, 2023-09-21 18:11:37.434
116.0, 25241.60149593371, 19646.579879114615, -53520.89447032148, -27747.45556681819, -34187.66369672581, -32990.75013288857, -187500.02235174447, -48558.91895996559, -23781.026754501672, -27084.480474529326, -57009.532393161346, -64823.83636520343, -29898.721563663672, -53285.84352562947, -48690.5930865518, -32694.500111877933, -0.076, 1.012, 0.052000000000000005, 192.0, 0.0, 0.0, 0.0, 0.0, 0.0, 0.0, 0.0, 0.0, 0.0, 1.695337897434594E9, 0.0, 2023-09-21 18:11:37.434
118.0, 25167.349000853184, 19629.16787018393, -53533.41144721645, -27759.503157079598, -34211.84828422646, -33003.42357199473, -187500.02235174447, -48573.224076416984, -23788.13460923846, -27104.41823058346, -57009.42063443907, -64825.333932081936, -29946.53194505357, -53321.36044756895, -48728.144017236715, -32717.27653947789, -0.076, 1.012, 0.052000000000000005, 192.0, 0.0, 0.0, 0.0, 0.0, 0.0, 0.0, 0.0, 0.0, 0.0, 1.695337897434598E9, 0.0, 2023-09-21 18:11:37.434
120.0, 25242.85319362321, 19636.923925509924, -53539.40171473047, -27768.689724050728, -34204.36044983393, -33012.23015931012, -187500.02235174447, -48577.917942752596, -23804.518437924202, -27108.441544585414, -57031.8617858722, -64846.54573757002, -29917.564084239493, -53283.8765721174, -48700.58431632332, -32683.4136466281, -0.076, 1.012, 0.052000000000000005, 192.0, 0.0, 0.0, 0.0, 0.0, 0.0, 0.0, 0.0, 0.0, 0.0, 1.695337897494983E9, 0.0, 2023-09-21 18:11:37.494
122.0, 25155.055541402762, 19645.350533169574, -53517.631115631004, -27746.606200528888, -34201.74529573265, -32988.269089254034, -187500.02235174447, -48552.8616372182, -23782.613728358, -27109.469724830356, -57002.22337272446, -64822.47290879166, -29951.471680578197, -53310.67631371931, -48745.95835756759, -32711.75565859743, -0.076, 1.008, 0.056, 192.0, 126.5, 80.0, 15.5, 64.0, 0.5, 96.0, 0.0, 0.0, 0.0, 1.695337897495003E9, 0.0, 2023-09-21 18:11:37.495
124.0, 25244.52957445736, 19632.8335562746, -53542.75447639877, -27778.524491611064, -34196.783208463574, -33029.01631939606, -187500.02235174447, -48587.8197655463, -23786.70409759332, -27095.343422334605, -57015.47795718646, -64831.771234485066, -29902.007270098602, -53311.70449396426, -48701.67955180163, -32702.90436779313, -0.076, 1.008, 0.056, 192.0, 0.0, 0.0, 0.0, 0.0, 0.0, 0.0, 0.0, 0.0, 0.0, 1.695337897495007E9, 0.0, 2023-09-21 18:11:37.495
126.0, 25159.749407738378, 19645.8869750365, -53526.90708957995, -27752.52941280954, -34215.71513601722, -32999.64612718178, -187500.02235174447, -48566.20562865801, -23793.029641274174, -27121.6514255585, -57014.71799787498, -64837.31446710998, -29946.219020631197, -53296.66176994584, -48739.74457260902, -32702.971423026494, -0.076, 1.008, 0.056, 192.0, 0.0, 0.0, 0.0, 0.0, 0.0, 0.0, 0.0, 0.0, 0.0, 1.69533789749501E9, 0.0, 2023-09-21 18:11:37.495
128.0, 25240.61801917768, 19653.441864662393, -53531.489197193296, -27762.00655245859, -34193.318688073006, -33008.408011008265, -187500.02235174447, -48576.018044473894, -23779.529187623168, -27093.018840911252, -57009.01830303887, -64826.31740883797, -29900.889682875837, -53321.85218594697, -48715.96231650857, -32713.655556876132, -0.076, 1.008, 0.056, 192.0, 0.0, 0.0, 0.0, 0.0, 0.0, 0.0, 0.0, 0.0, 0.0, 1.695337897495014E9, 0.0, 2023-09-21 18:11:37.495
130.0, 25161.850471717178, 19656.995792030786, -53525.54363316818, -27744.572191783453, -34219.20200815225, -32989.56549043244, -187500.02235174447, -48561.9140937226, -23772.08605671955, -27099.836122970122, -56996.03193951034, -64815.745033710606, -29931.69038673525, -53302.13794733739, -48729.21690097057, -32710.749830096942, -0.076, 1.008, 0.056, 192.0, 0.0, 0.0, 0.0, 0.0, 0.0, 0.0, 0.0, 0.0, 0.0, 1.695337897495018E9, 0.0, 2023-09-21 18:11:37.495
132.0, 25235.320655741772, 19641.193108700885, -53541.56983394264, -27773.182424686245, -34197.990202664165, -33022.84723792639, -187500.02235174447, -48585.606942845225, -23779.12685622297, -27092.683564744424, -57007.45368092701, -64826.2503536046, -29909.3609940244, -53334.79384598659, -48717.12460722025, -32718.416478445113, -0.076, 1.0, 0.058, 192.0, 126.5, 80.0, 15.5, 32.0, 0.5, 104.0, 0.0, 0.0, 0.0, 1.695337897495022E9, 0.0, 2023-09-21 18:11:37.495
134.0, 25165.896137463587, 19631.559506840647, -53552.74570617029, -27770.321401395966, -34238.93859850628, -33012.76660117705, -187500.02235174447, -48580.19782068704, -23805.881894335973, -27127.46287911688, -57029.738370148945, -64852.379542872855, -29929.790488456547, -53276.18757202478, -48731.96616553857, -32685.537062351355, -0.076, 1.0, 0.058, 192.0, 0.0, 0.0, 0.0, 0.0, 0.0, 0.0, 0.0, 0.0, 0.0, 1.695337897555235E9, 0.0, 2023-09-21 18:11:37.555
136.0, 25223.98832130293, 19642.10953022355, -53540.36283974205, -27768.689724050728, -34195.687972985266, -33016.76756343455, -187500.02235174447, -48578.43203287507, -23793.5660831411, -27111.973120209354, -57019.322457232774, -64838.52146131056, -29925.945988410236, -53334.27975586412, -48741.845636587816, -32714.102591765237, -0.076, 1.0, 0.058, 192.0, 0.0, 0.0, 0.0, 0.0, 0.0, 0.0, 0.0, 0.0, 0.0, 1.695337897555252E9, 0.0, 2023-09-21 18:11:37.555
138.0, 25172.802826500276, 19644.97055351383, -53540.921633353435, -27757.53620356753, -34227.069822200516, -33004.00471735057, -187500.02235174447, -48566.25033214693, -23792.537902896154, -27111.45903008688, -57015.58971590873, -64835.191051386726, -29924.15784885381, -53275.047633057555, -48720.2985549329, -32685.782931540365, -0.076, 1.0, 0.058, 192.0, 0.0, 0.0, 0.0, 0.0, 0.0, 0.0, 0.0, 0.0, 0.0, 1.695337897555256E9, 0.0, 2023-09-21 18:11:37.555
140.0, 25213.170076986564, 19652.190166972898, -53530.215147759336, -27763.92880248175, -34188.758932204124, -33015.20294132268, -187500.02235174447, -48570.81008801581, -23781.697306835333, -27103.188884638417, -57006.40314893761, -64825.31158033748, -29929.656377989817, -53348.808389760066, -48731.0497440159, -32730.687586151074, -0.076, 1.0, 0.058, 192.0, 0.0, 0.0, 0.0, 0.0, 0.0, 0.0, 0.0, 0.0, 0.0, 1.695337897555259E9, 0.0, 2023-09-21 18:11:37.555
142.0, 25179.97773647043, 19641.75190231227, -53549.437647990904, -27776.289317165534, -34231.98720598069, -33022.51196175956, -187500.02235174447, -48584.33289341127, -23792.672013362888, -27112.822486498655, -57016.103806031206, -64837.02389443206, -29909.71862193568, -53282.33430174999, -48713.77184555195, -32693.65074558863, -0.076, 1.002, 0.064, 192.0, 126.5, 80.0, 15.5, 40.0, 1.0, 0.0, 0.0, 0.0, 0.0, 1.695337897555263E9, 0.0, 2023-09-21 18:11:37.555
144.0, 25201.010728002875, 19632.49828010777, -53554.332680026615, -27793.790733074038, -34211.37889759289, -33044.17080213676, -187500.02235174447, -48600.2696872079, -23802.70794662332, -27124.04306221522, -57024.776282879866, -64846.4563305922, -29944.341474096953, -53345.7909042586, -48746.58420641234, -32727.401879716144, -0.076, 1.002, 0.064, 192.0, 0.0, 0.0, 0.0, 0.0, 0.0, 0.0, 0.0, 0.0, 0.0, 1.695337897555266E9, 0.0, 2023-09-21 18:11:37.555
146.0, 25182.525835338336, 19649.239736704796, -53547.96243285685, -27768.890889750826, -34231.56252283604, -33015.38175527832, -187500.02235174447, -48576.91211425211, -23811.916865338906, -27129.340425651128, -57032.532338205856, -64852.5583568285, -29925.744822710138, -53256.96507179321, -48727.31700269187, -32678.40685587011, -0.076, 1.002, 0.064, 192.0, 0.0, 0.0, 0.0, 0.0, 0.0, 0.0, 0.0, 0.0, 0.0, 1.69533789755527E9, 0.0, 2023-09-21 18:11:37.555
148.0, 25178.904852736578, 19660.929699054923, -53524.470749434324, -27755.59160179992, -34192.51402527261, -33006.329298773926, -187500.02235174447, -48561.131782666664, -23780.646774845933, -27107.41336434047, -56999.809384323285, -64820.7518244686, -29942.620389773896, -53355.871541007946, -48757.49185770653, -32737.57192344331, -0.076, 1.002, 0.064, 192.0, 0.0, 0.0, 0.0, 0.0, 0.0, 0.0, 0.0, 0.0, 0.0, 1.695337897555273E9, 0.0, 2023-09-21 18:11:37.555
150.0, 25187.689088307514, 19660.683829865913, -53544.81083688865, -27762.274773392055, -34231.607226324944, -33011.38079302082, -187500.02235174447, -48575.21338167351, -23786.27941444867, -27103.79238173871, -57011.09701527322, -64829.55841178399, -29903.415429999284, -53284.25655177314, -48707.28983965991, -32692.399047899136, -0.076, 1.002, 0.064, 192.0, 0.0, 0.0, 0.0, 0.0, 0.0, 0.0, 0.0, 0.0, 0.0, 1.695337897615409E9, 0.0, 2023-09-21 18:11:37.615
152.0, 25168.913622965054, 19660.28149846572, -53535.08782805059, -27761.78303501404, -34201.76764747711, -33015.62762446733, -187500.02235174447, -48570.631274060164, -23779.439780645345, -27109.35796610808, -57003.63153262515, -64824.3504553259, -29949.661189277314, -53361.48182886623, -48750.719279136574, -32735.20263853105, -0.078, 1.006, 0.07200000000000001, 192.0, 126.5, 72.0, 15.5, 56.0, 1.0, 32.0, 0.0, 0.0, 0.0, 1.695337897615421E9, 0.0, 2023-09-21 18:11:37.615
154.0, 25199.982547757932, 19663.03076303372, -53546.0401828337, -27765.426369360255, -34222.21949365372, -33012.65484245477, -187500.02235174447, -48573.715814794996, -23785.5641586261, -27104.529989305734, -57015.254439741904, -64834.18522288623, -29902.431953243253, -53280.65792091584, -48703.51239484697, -32683.078370461273, -0.078, 1.006, 0.07200000000000001, 192.0, 0.0, 0.0, 0.0, 0.0, 0.0, 0.0, 0.0, 0.0, 0.0, 1.695337897615425E9, 0.0, 2023-09-21 18:11:37.615
156.0, 25162.677486262022, 19651.966649528345, -53542.44155197639, -27772.467168863677, -34210.23895862567, -33019.874455913836, -187500.02235174447, -48574.25225666192, -23774.321231165082, -27113.06835568766, -56999.94349479002, -64821.757652969085, -29949.191802643756, -53356.11741019695, -48755.14492453873, -32732.29691175186, -0.078, 1.006, 0.07200000000000001, 192.0, 0.0, 0.0, 0.0, 0.0, 0.0, 0.0, 0.0, 0.0, 0.0, 1.695337897615428E9, 0.0, 2023-09-21 18:11:37.615
158.0, 25208.051527506297, 19664.237757234307, -53544.69907816638, -27765.649886804807, -34221.83951399798, -33014.912368644764, -187500.02235174447, -48576.71094855201, -23793.61078663001, -27117.583408067636, -57026.318553247285, -64846.27751663655, -29904.801238155516, -53280.47910696019, -48709.68147631663, -32674.785873268353, -0.078, 1.006, 0.07200000000000001, 192.0, 0.0, 0.0, 0.0, 0.0, 0.0, 0.0, 0.0, 0.0, 0.0, 1.695337897615432E9, 0.0, 2023-09-21 18:11:37.615
160.0, 25156.195480369985, 19668.21636774735, -53529.857519848054, -27757.06681693397, -34208.964909191716, -33009.50324648658, -187500.02235174447, -48565.78094551336, -23762.363047881492, -27102.250111371293, -56987.98531150643, -64809.665359218765, -29953.617448045905, -53358.307881153574, -48751.54629368142, -32728.81003961683, -0.078, 1.006, 0.07200000000000001, 192.0, 0.0, 0.0, 0.0, 0.0, 0.0, 0.0, 0.0, 0.0, 0.0, 1.695337897615435E9, 0.0, 2023-09-21 18:11:37.615
162.0, 25218.109812511186, 19681.672117909446, -53532.875005349524, -27756.083340177935, -34210.641290025866, -33009.79381916449, -187500.02235174447, -48570.20659091551, -23773.650678831422, -27098.11503864706, -57004.41384368108, -64823.32227508096, -29902.320194520977, -53300.774490925614, -48700.85253725678, -32687.88399551916, -0.07200000000000001, 1.012, 0.058, 192.0, 126.5, 96.0, 15.5, 80.0, 0.5, 104.0, 0.0, 0.0, 0.0, 1.695337897615439E9, 0.0, 2023-09-21 18:11:37.615
164.0, 25151.635724501102, 19672.12792302703, -53536.96537458484, -27760.419578602265, -34214.08345867199, -33012.85600815487, -187500.02235174447, -48568.127878681174, -23759.770245524676, -27101.043117170706, -56982.64324458161, -64805.84321091691, -29940.429918817274, -53359.82779977653, -48740.75040110951, -32731.380490229192, -0.07200000000000001, 1.012, 0.058, 192.0, 0.0, 0.0, 0.0, 0.0, 0.0, 0.0, 0.0, 0.0, 0.0, 1.69533789767573E9, 0.0, 2023-09-21 18:11:37.675
166.0, 25226.6034754042, 19673.98311781682, -53548.23065379032, -27768.1532821838, -34223.40413610985, -33018.86862741335, -187500.02235174447, -48578.09675670824, -23791.017984273196, -27110.117925419563, -57019.83654735525, -64839.19201364423, -29900.28618577554, -53307.4353107733, -48699.57848782283, -32690.700315320533, -0.07200000000000001, 1.012, 0.058, 192.0, 0.0, 0.0, 0.0, 0.0, 0.0, 0.0, 0.0, 0.0, 0.0, 1.695337897675744E9, 0.0, 2023-09-21 18:11:37.675
168.0, 25148.50648027736, 19672.910234082967, -53530.97510707082, -27753.82581398795, -34223.94057797678, -33004.1388278173, -187500.02235174447, -48559.723622765974, -23768.733295051254, -27106.07225967315, -56988.36529116217, -64809.44184177421, -29941.279285106575, -53352.65288980638, -48740.660994131686, -32731.358138484735, -0.07200000000000001, 1.012, 0.058, 192.0, 0.0, 0.0, 0.0, 0.0, 0.0, 0.0, 0.0, 0.0, 0.0, 1.695337897675748E9, 0.0, 2023-09-21 18:11:37.675
170.0, 25231.833783606744, 19673.089048038608, -53537.52416819622, -27767.52743333905, -34211.64711852636, -33021.752002448084, -187500.02235174447, -48573.46994560599, -23783.865426047498, -27102.36187009357, -57008.72773036096, -64825.51274603757, -29892.86540661638, -53334.50327330867, -48700.65137155669, -32708.402896929136, -0.07200000000000001, 1.012, 0.058, 192.0, 0.0, 0.0, 0.0, 0.0, 0.0, 0.0, 0.0, 0.0, 0.0, 1.695337897675751E9, 0.0, 2023-09-21 18:11:37.675
172.0, 25152.26157334585, 19660.8402920771, -53542.97799384332, -27761.894793736315, -34241.821973541024, -33013.235987810614, -187500.02235174447, -48573.89462875064, -23792.873179062986, -27121.427908113947, -57011.99108505143, -64828.3514175834, -29940.899305450836, -53331.59754652948, -48733.62019462827, -32712.739135353466, -0.07200000000000001, 1.016, 0.056, 192.0, 126.5, 96.0, 15.5, 96.0, 0.5, 96.0, 0.0, 0.0, 0.0, 1.695337897675755E9, 0.0, 2023-09-21 18:11:37.675
174.0, 25239.09810055472, 19649.060922749155, -53552.656299192466, -27783.486578880143, -34221.21366515323, -33037.77820322254, -187500.02235174447, -48592.938315026564, -23797.745859354243, -27107.56982655166, -57024.776282879866, -64833.2017461302, -29916.49120050564, -53328.58006102801, -48708.4968338605, -32705.720687594498, -0.07200000000000001, 1.016, 0.056, 192.0, 0.0, 0.0, 0.0, 0.0, 0.0, 0.0, 0.0, 0.0, 0.0, 1.695337897675758E9, 0.0, 2023-09-21 18:11:37.675
176.0, 25156.106073392162, 19655.02883851872, -53529.47754019232, -27753.267020376567, -34239.96677875123, -33001.36721150485, -187500.02235174447, -48566.49620133593, -23805.144286768947, -27126.23353317184, -57025.80446312481, -64836.845080476414, -29954.10918642392, -53298.807537413544, -48733.12845625025, -32700.535082880866, -0.07200000000000001, 1.016, 0.056, 192.0, 0.0, 0.0, 0.0, 0.0, 0.0, 0.0, 0.0, 0.0, 0.0, 1.695337897675762E9, 0.0, 2023-09-21 18:11:37.675
178.0, 25231.632617906645, 19656.861681564056, -53514.345409196074, -27750.405997086287, -34192.80459795053, -33001.50132197158, -187500.02235174447, -48565.04333794634, -23782.881949291463, -27090.224872854338, -57013.84627984122, -64821.78000471354, -29909.696270191227, -53337.543110554594, -48711.849595528794, -32718.215312745015, -0.07200000000000001, 1.016, 0.056, 192.0, 0.0, 0.0, 0.0, 0.0, 0.0, 0.0, 0.0, 0.0, 0.0, 1.695337897675765E9, 0.0, 2023-09-21 18:11:37.675
180.0, 25166.5890415417, 19644.23294594681, -53507.30460969265, -27739.230124858634, -34212.54118830457, -32989.49843519908, -187500.02235174447, -48553.08515466275, -23770.65554507441, -27092.013012410764, -57000.97167503496, -64813.33104530943, -29914.05486036001, -53319.84052894599, -48712.900127518194, -32718.863513334218, -0.07200000000000001, 1.016, 0.056, 192.0, 0.0, 0.0, 0.0, 0.0, 0.0, 0.0, 0.0, 0.0, 0.0, 1.695337897735126E9, 0.0, 2023-09-21 18:11:37.735
182.0, 25241.713254655988, 19633.660570819447, -53499.83912704458, -27746.270924362056, -34181.069932111495, -33003.8929586283, -187500.02235174447, -48556.41556458659, -23779.059800989606, -27087.810884453167, -57016.77435836487, -64828.21730711667, -29913.00432837061, -53361.03479397712, -48708.45213037159, -32731.827525118297, -0.068, 1.01, 0.066, 192.0, 126.5, 112.0, 15.5, 72.0, 1.0, 8.0, 0.0, 0.0, 0.0, 1.695337897735138E9, 0.0, 2023-09-21 18:11:37.735
184.0, 25196.003937244885, 19622.194125913873, -53491.770147296214, -27732.97163641115, -34213.859941227434, -32983.95520257416, -187500.02235174447, -48537.75185796641, -23784.89360629244, -27097.198617124395, -57020.305933988806, -64834.31933335297, -29920.089831362944, -53307.65882821785, -48706.5969355818, -32705.072487005295, -0.068, 1.01, 0.066, 192.0, 0.0, 0.0, 0.0, 0.0, 0.0, 0.0, 0.0, 0.0, 0.0, 1.695337897735142E9, 0.0, 2023-09-21 18:11:37.735
186.0, 25268.691810213546, 19599.238884358274, -53493.938266508376, -27754.317552365967, -34185.7190949582, -33009.23502555311, -187500.02235174447, -48556.14734365313, -23786.167655726393, -27089.286099587214, -57026.586774180745, -64836.64391477632, -29922.704985464217, -53363.627596333936, -48713.816549040865, -32734.017996074916, -0.068, 1.01, 0.066, 192.0, 0.0, 0.0, 0.0, 0.0, 0.0, 0.0, 0.0, 0.0, 0.0, 1.695337897735146E9, 0.0, 2023-09-21 18:11:37.735
188.0, 25238.606362176703, 19600.78115472569, -53477.44267910036, -27731.742290466107, -34211.24478712616, -32982.92702232922, -187500.02235174447, -48529.48171251795, -23789.542769139145, -27099.88082645903, -57029.62661142667, -64840.06373167798, -29922.213247086198, -53293.26430478863, -48708.429778627135, -32698.5681293688, -0.068, 1.01, 0.066, 192.0, 0.0, 0.0, 0.0, 0.0, 0.0, 0.0, 0.0, 0.0, 0.0, 1.695337897735149E9, 0.0, 2023-09-21 18:11:37.735
190.0, 25295.133923904174, 19581.849227172046, -53479.2755221457, -27755.166918655268, -34183.70743795722, -33014.39827852229, -187500.02235174447, -48550.38059358366, -23778.36689691149, -27089.01787865375, -57021.91525958959, -64831.480661807145, -29920.06747961849, -53366.354509157485, -48718.06338048737, -32737.549571698855, -0.068, 1.01, 0.066, 192.0, 0.0, 0.0, 0.0, 0.0, 0.0, 0.0, 0.0, 0.0, 0.0, 1.695337897735153E9, 0.0, 2023-09-21 18:11:37.735
192.0, 25288.897787201142, 19580.552825993636, -53475.743946521754, -27739.20777311418, -34214.66460402782, -32994.90755735726, -187500.02235174447, -48534.913186420585, -23798.03643203216, -27109.98381495283, -57044.267004044894, -64854.14533068483, -29912.06555510349, -53271.896037089355, -48701.523089590446, -32682.60898382771, -0.068, 1.008, 0.074, 192.0, 126.5, 112.0, 15.5, 64.0, 1.0, 40.0, 0.0, 0.0, 0.0, 1.695337897735157E9, 0.0, 2023-09-21 18:11:37.735
194.0, 25320.614912583223, 19567.92409037639, -53475.408670354926, -27749.578982541443, -34191.061161883015, -33011.78312442102, -187500.02235174447, -48548.70421274951, -23778.635117844955, -27090.180169365427, -57025.692704402536, -64834.02876067505, -29933.053843147023, -53353.61401481796, -48730.803874826895, -32730.687586151074, -0.068, 1.008, 0.074, 192.0, 0.0, 0.0, 0.0, 0.0, 0.0, 0.0, 0.0, 0.0, 0.0, 1.695337897794799E9, 0.0, 2023-09-21 18:11:37.794
196.0, 25321.933665506087, 19575.702497446837, -53474.693414532354, -27733.217505600158, -34212.6752987713, -32990.236042766104, -187500.02235174447, -48530.152264851604, -23792.180274984872, -27099.612605525566, -57042.389457510646, -64847.46215909269, -29905.941177122735, -53265.056403286035, -48704.719389047554, -32680.910251249108, -0.068, 1.008, 0.074, 192.0, 0.0, 0.0, 0.0, 0.0, 0.0, 0.0, 0.0, 0.0, 0.0, 1.695337897794811E9, 0.0, 2023-09-21 18:11:37.794
198.0, 25318.826773026798, 19564.839549641558, -53462.64582427095, -27734.849182945396, -34182.85807166792, -32994.996964335085, -187500.02235174447, -48524.05023861531, -23772.734257308755, -27092.30358508868, -57021.66939040058, -64827.85967920539, -29931.824497201982, -53355.37980262993, -48741.10802902079, -32741.863458378728, -0.068, 1.008, 0.074, 192.0, 0.0, 0.0, 0.0, 0.0, 0.0, 0.0, 0.0, 0.0, 0.0, 1.695337897794815E9, 0.0, 2023-09-21 18:11:37.794
200.0, 25341.24557271547, 19579.994032382256, -53462.891693459955, -27718.420650770742, -34209.00961268063, -32980.82595835042, -187500.02235174447, -48515.28835478883, -23781.47378939078, -27092.482399044326, -57034.09696031773, -64839.63904853333, -29889.490293203628, -53272.11955453391, -48692.15770866367, -32692.063771732304, -0.068, 1.008, 0.074, 192.0, 0.0, 0.0, 0.0, 0.0, 0.0, 0.0, 0.0, 0.0, 0.0, 1.695337897794819E9, 0.0, 2023-09-21 18:11:37.794
202.0, 25325.375834152204, 19573.042639856656, -53460.83533297007, -27726.422575285742, -34191.17292060529, -32994.81815037944, -187500.02235174447, -48524.81019792679, -23762.184233925847, -27083.720515217843, -57011.23112573995, -64815.23094358813, -29925.253084332122, -53356.98912823071, -48737.12941850775, -32745.037406091382, -0.058, 0.998, 0.074, 192.0, 127.0, 24.0, 15.5, 24.0, 1.0, 40.0, 0.0, 0.0, 0.0, 1.695337897794822E9, 0.0, 2023-09-21 18:11:37.794
204.0, 25362.569136925835, 19576.64127071396, -53469.261940629716, -27726.86961017485, -34205.14276088986, -32988.626717165316, -187500.02235174447, -48525.88308166064, -23779.171559711882, -27086.02274489674, -57032.599393439225, -64835.28045836455, -29878.269717487066, -53279.07094705951, -48697.72329303304, -32693.695449077542, -0.058, 0.998, 0.074, 192.0, 0.0, 0.0, 0.0, 0.0, 0.0, 0.0, 0.0, 0.0, 0.0, 1.695337897794827E9, 0.0, 2023-09-21 18:11:37.794
206.0, 25322.15718295064, 19560.235090283764, -53468.971367951795, -27737.77726146904, -34201.320612588, -33007.24572029659, -187500.02235174447, -48537.12600912166, -23760.261983902692, -27079.630145982523, -57007.94541930502, -64814.67214997675, -29925.521305265585, -53357.74908754219, -48739.8563313313, -32749.19483056007, -0.058, 0.998, 0.074, 192.0, 0.0, 0.0, 0.0, 0.0, 0.0, 0.0, 0.0, 0.0, 0.0, 1.695337897794832E9, 0.0, 2023-09-21 18:11:37.794
208.0, 25382.104561579774, 19556.144721048444, -53492.21718218532, -27752.30589536499, -34222.68888028728, -33017.54987449048, -187500.02235174447, -48550.93938719504, -23801.5680076561, -27098.293852602703, -57053.654736716126, -64857.56514758649, -29890.317307748475, -53268.87855158789, -48693.677627286634, -32687.48166411897, -0.058, 0.998, 0.074, 192.0, 0.0, 0.0, 0.0, 0.0, 0.0, 0.0, 0.0, 0.0, 0.0, 1.695337897794836E9, 0.0, 2023-09-21 18:11:37.794
210.0, 25317.329206148293, 19571.88034914498, -53458.57780678008, -27723.62860722883, -34198.72781023119, -32989.23021426561, -187500.02235174447, -48523.55850023729, -23778.031620744663, -27096.349250835094, -57018.18251826555, -64828.70904549469, -29944.810860730515, -53327.8871569499, -48755.636662916746, -32736.499039709455, -0.058, 0.998, 0.074, 192.0, 0.0, 0.0, 0.0, 0.0, 0.0, 0.0, 0.0, 0.0, 0.0, 1.695337897855134E9, 0.0, 2023-09-21 18:11:37.855
212.0, 25385.434971503615, 19569.53341597717, -53470.40187959694, -27735.899714934792, -34192.75989446162, -33000.69665917118, -187500.02235174447, -48535.51668352088, -23783.41839115839, -27077.953765148373, -57027.41378872559, -64835.526327553554, -29874.224051740654, -53290.358578009436, -48693.36470286426, -32711.57684464179, -0.052000000000000005, 1.008, 0.076, 192.0, 127.0, 48.0, 15.5, 64.0, 1.0, 48.0, 0.0, 0.0, 0.0, 1.695337897855145E9, 0.0, 2023-09-21 18:11:37.855
214.0, 25311.09306944526, 19567.74527642075, -53463.11521090451, -27727.160182852767, -34196.13500787437, -32984.40223746327, -187500.02235174447, -48524.51962524887, -23774.164768953895, -27087.810884453167, -57009.44298618352, -64821.95881866918, -29928.06940413349, -53333.765665741645, -48727.093485247315, -32747.09376658127, -0.052000000000000005, 1.008, 0.076, 192.0, 0.0, 0.0, 0.0, 0.0, 0.0, 0.0, 0.0, 0.0, 0.0, 1.695337897855149E9, 0.0, 2023-09-21 18:11:37.855
216.0, 25393.481599507526, 19563.610203696517, -53483.50000184775, -27751.568287797963, -34194.279813084584, -33012.09604884339, -187500.02235174447, -48552.05697441781, -23792.582606385065, -27083.69816347339, -57036.466245229996, -64846.724551525665, -29881.845996599914, -53292.21377279923, -48689.900182473684, -32714.460219676523, -0.052000000000000005, 1.008, 0.076, 192.0, 0.0, 0.0, 0.0, 0.0, 0.0, 0.0, 0.0, 0.0, 0.0, 1.695337897855153E9, 0.0, 2023-09-21 18:11:37.855
218.0, 25305.080450186786, 19540.297334229628, -53483.18707742538, -27746.472090062154, -34208.62963302489, -33000.00375509307, -187500.02235174447, -48535.58373875424, -23792.04616451814, -27109.089745174617, -57028.397265481624, -64846.03164744755, -29932.763270469102, -53302.383816526395, -48736.525921407454, -32734.643844919665, -0.052000000000000005, 1.008, 0.076, 192.0, 0.0, 0.0, 0.0, 0.0, 0.0, 0.0, 0.0, 0.0, 0.0, 1.695337897855156E9, 0.0, 2023-09-21 18:11:37.855
220.0, 25380.606994701266, 19538.15156676192, -53498.16274621043, -27766.87923274985, -34199.55482477604, -33027.31758681746, -187500.02235174447, -48571.01125371591, -23819.963493342817, -27120.667948802467, -57064.74120196595, -64877.614662362896, -29889.78086588155, -53270.48787718867, -48705.52405184795, -32707.4194201731, -0.052000000000000005, 1.008, 0.076, 192.0, 0.0, 0.0, 0.0, 0.0, 0.0, 0.0, 0.0, 0.0, 0.0, 1.69533789785516E9, 0.0, 2023-09-21 18:11:37.855
222.0, 25290.551816290834, 19540.409092951908, -53481.93537973588, -27746.87442146235, -34208.33906034697, -33002.35068826088, -187500.02235174447, -48543.384497569146, -23798.885798321462, -27119.975044724353, -57036.28743127435, -64854.39119987383, -29924.87310467638, -53284.30125526205, -48744.25962498899, -32732.498077451957, -0.07200000000000001, 1.0, 0.068, 192.0, 126.5, 96.0, 15.5, 32.0, 1.0, 16.0, 0.0, 0.0, 0.0, 1.695337897855163E9, 0.0, 2023-09-21 18:11:37.855
224.0, 25368.78292188441, 19546.801691866123, -53485.04227221516, -27753.4011308433, -34183.796844935045, -33008.94445287519, -187500.02235174447, -48550.715869750486, -23804.160810012916, -27102.78655323822, -57045.5634052233, -64857.52044409758, -29893.49125546113, -53291.25264778765, -48713.83890078532, -32726.7760308714, -0.07200000000000001, 1.0, 0.068, 192.0, 0.0, 0.0, 0.0, 0.0, 0.0, 0.0, 0.0, 0.0, 0.0, 1.695337897915504E9, 0.0, 2023-09-21 18:11:37.915
226.0, 25293.949281448044, 19535.782281849657, -53489.177344939395, -27757.647962289808, -34215.24574938366, -33007.87156914134, -187500.02235174447, -48554.917997708086, -23808.76526937071, -27124.311283148683, -57046.52453023488, -64863.24249067814, -29919.508686007106, -53268.051537043044, -48722.95841252308, -32720.405783701633, -0.07200000000000001, 1.0, 0.068, 192.0, 0.0, 0.0, 0.0, 0.0, 0.0, 0.0, 0.0, 0.0, 0.0, 1.695337897915518E9, 0.0, 2023-09-21 18:11:37.915
228.0, 25356.78003511191, 19547.606354666514, -53486.49513560476, -27760.240764646624, -34177.04661810954, -33012.00664186557, -187500.02235174447, -48559.70127102152, -23794.974243041783, -27111.861361487077, -57036.645059185634, -64856.06758070798, -29888.52916819205, -53308.50819450715, -48713.257755429484, -32740.991740344973, -0.07200000000000001, 1.0, 0.068, 192.0, 0.0, 0.0, 0.0, 0.0, 0.0, 0.0, 0.0, 0.0, 0.0, 1.695337897915522E9, 0.0, 2023-09-21 18:11:37.915
230.0, 25282.996926664942, 19541.05729354111, -53499.21327819983, -27756.508023322585, -34218.68791802978, -33009.615005208856, -187500.02235174447, -48556.92965470906, -23808.921731581897, -27126.010015727286, -57045.22812905647, -64864.13656045635, -29914.07721210447, -53267.51509517612, -48722.26550844497, -32725.94901632655, -0.07200000000000001, 1.0, 0.068, 192.0, 0.0, 0.0, 0.0, 0.0, 0.0, 0.0, 0.0, 0.0, 0.0, 1.695337897915526E9, 0.0, 2023-09-21 18:11:37.915
232.0, 25336.17172672412, 19554.222471025285, -53490.40669088444, -27754.094034921414, -34177.47130125419, -33017.147543090294, -187500.02235174447, -48558.31546286529, -23800.450420433335, -27114.7000330329, -57040.04252434284, -64858.526272598065, -29904.935348622246, -53318.29825857857, -48727.67463060316, -32749.977141616007, -0.068, 1.006, 0.066, 192.0, 126.5, 112.0, 15.5, 56.0, 1.0, 8.0, 0.0, 0.0, 0.0, 1.695337897915529E9, 0.0, 2023-09-21 18:11:37.915
234.0, 25277.453694040025, 19575.568386980103, -53479.65550180143, -27722.622778728342, -34204.136932389374, -32983.307001984955, -187500.02235174447, -48537.52834052186, -23793.81195233011, -27108.262730629773, -57026.36325673619, -64844.489377080135, -29896.86636887388, -53271.24783650015, -48722.22080495606, -32727.29012099387, -0.068, 1.006, 0.066, 192.0, 0.0, 0.0, 0.0, 0.0, 0.0, 0.0, 0.0, 0.0, 0.0, 1.695337897915533E9, 0.0, 2023-09-21 18:11:37.915
236.0, 25328.996816753963, 19564.705439174824, -53496.039330487176, -27754.049331432503, -34174.43146400827, -33017.95220589068, -187500.02235174447, -48562.83051524527, -23783.41839115839, -27091.610681010567, -57018.1601665211, -64833.46996706367, -29886.96454608018, -53345.32151762504, -48727.093485247315, -32763.209374333546, -0.068, 1.006, 0.066, 192.0, 0.0, 0.0, 0.0, 0.0, 0.0, 0.0, 0.0, 0.0, 0.0, 1.695337897915536E9, 0.0, 2023-09-21 18:11:37.915
238.0, 25286.349688333237, 19558.24578502724, -53512.75843533975, -27757.87147973436, -34221.03485119758, -33017.5945779794, -187500.02235174447, -48569.312521137304, -23810.061670549116, -27122.634902314534, -57045.7645709234, -64865.388258145846, -29892.44072347173, -53253.20997872472, -48714.509453118975, -32705.698335850044, -0.068, 1.006, 0.066, 192.0, 0.0, 0.0, 0.0, 0.0, 0.0, 0.0, 0.0, 0.0, 0.0, 1.69533789791554E9, 0.0, 2023-09-21 18:11:37.915
240.0, 25305.192208909062, 19563.297279274142, -53502.36487416803, -27757.87147973436, -34181.67342921179, -33020.232083825125, -187500.02235174447, -48568.79843101483, -23791.867350562497, -27116.51052433378, -57033.314649261796, -64854.324144640465, -29912.19966557022, -53330.16703488434, -48745.84659884532, -32746.378510758703, -0.068, 1.006, 0.066, 192.0, 0.0, 0.0, 0.0, 0.0, 0.0, 0.0, 0.0, 0.0, 0.0, 1.695337897975794E9, 0.0, 2023-09-21 18:11:37.975
242.0, 25290.28359535737, 19564.504273474726, -53515.70886560785, -27757.73736926763, -34219.13495291888, -33016.23112156762, -187500.02235174447, -48571.77121302739, -23792.29203370715, -27116.108192933585, -57037.67323943058, -64857.207519675205, -29883.701191389704, -53256.942720048755, -48716.6999240756, -32708.604062629234, -0.068, 1.006, 0.054, 192.0, 126.5, 112.0, 15.5, 56.0, 0.5, 88.0, 0.0, 0.0, 0.0, 1.695337897975807E9, 0.0, 2023-09-21 18:11:37.975
244.0, 25302.040612940862, 19553.887194858456, -53514.99360978528, -27770.611974073887, -34192.62578399489, -33026.043537383506, -187500.02235174447, -48569.53603858186, -23790.23567321726, -27122.433736614435, -57036.62270744118, -64854.70412429621, -29917.072345861478, -53326.97073542723, -48747.83590410184, -32750.15595557165, -0.068, 1.006, 0.054, 192.0, 0.0, 0.0, 0.0, 0.0, 0.0, 0.0, 0.0, 0.0, 0.0, 1.695337897975812E9, 0.0, 2023-09-21 18:11:37.975
246.0, 25304.566360064313, 19555.921203603888, -53521.408560443946, -27769.58379382894, -34232.99303448117, -33022.42255478174, -187500.02235174447, -48576.71094855201, -23803.870237334995, -27131.486193118835, -57054.8170274278, -64872.31729892699, -29893.468903716675, -53233.942775004245, -48716.25288918649, -32694.254242688927, -0.068, 1.006, 0.054, 192.0, 0.0, 0.0, 0.0, 0.0, 0.0, 0.0, 0.0, 0.0, 0.0, 1.695337897975815E9, 0.0, 2023-09-21 18:11:37.975
