%OpenBCI Raw EXG Data
%Number of channels = 16
%Sample Rate = 125 Hz
%Board = OpenBCI_GUI$BoardCytonSerialDaisy
Sample Index, EXG Channel 0, EXG Channel 1, EXG Channel 2, EXG Channel 3, EXG Channel 4, EXG Channel 5, EXG Channel 6, EXG Channel 7, EXG Channel 8, EXG Channel 9, EXG Channel 10, EXG Channel 11, EXG Channel 12, EXG Channel 13, EXG Channel 14, EXG Channel 15, Accel Channel 0, Accel Channel 1, Accel Channel 2, Other, Other, Other, Other, Other, Other, Other, Analog Channel 0, Analog Channel 1, Analog Channel 2, Timestamp, Other, Timestamp (Formatted)
226.0, 25650.683122954742, 19229.80925200096, -53922.063579805326, -28316.9333120505, -33855.87440203124, -33073.004552484104, -187500.02235174447, -48641.08397258329, -24159.665305574574, -27400.176513216084, -57288.415108730216, -65533.12427200369, -29419.991900919904, -53460.27653935868, -48760.64345367473, -32177.75013181569, 0.0, 0.0, 0.0, 192.0, 0.0, 0.0, 0.0, 0.0, 0.0, 0.0, 0.0, 0.0, 0.0, 1.695337863880624E9, 0.0, 2023-09-21 18:11:03.880
228.0, 25625.805631375984, 19227.864650233347, -53915.46981519101, -28321.493067919382, -33832.69564303108, -33080.40297989881, -187500.02235174447, -48647.185998819594, -24139.63814254262, -27387.95010899903, -57261.213035728106, -65506.63745482415, -29465.030665997347, -53546.59897644508, -48803.290582095455, -32231.595484208523, 0.0, 0.0, 0.0, 192.0, 0.0, 0.0, 0.0, 0.0, 0.0, 0.0, 0.0, 0.0, 0.0, 1.695337863880633E9, 0.0, 2023-09-21 18:11:03.880
230.0, 25660.048503881517, 19242.214470173654, -53918.286134992384, -28311.8818178036, -33846.01728272644, -33068.64596231532, -187500.02235174447, -48642.49213248398, -24157.251317173403, -27389.47002762199, -57282.111916793816, -65525.055292255325, -29414.62748225063, -53462.690527759856, -48753.669709404676, -32171.648105579392, 0.0, 0.0, 0.0, 192.0, 0.0, 0.0, 0.0, 0.0, 0.0, 0.0, 0.0, 0.0, 0.0, 1.695337863880637E9, 0.0, 2023-09-21 18:11:03.880
232.0, 25612.305177724982, 19248.025923732035, -53903.66809411861, -28299.163675208532, -33823.59848303777, -33065.62847681385, -187500.02235174447, -48632.70206841255, -24124.461308057467, -27371.745094268932, -57241.29763141843, -65489.024280193364, -29460.87324152866, -53551.78458115871, -48799.177861115684, -32229.673234185368, 0.0, 0.0, 0.0, 192.0, 0.0, 0.0, 0.0, 0.0, 0.0, 0.0, 0.0, 0.0, 0.0, 1.69533786388064E9, 0.0, 2023-09-21 18:11:03.880
234.0, 25664.496501028123, 19246.126025453334, -53925.17047228462, -28311.21126546994, -33849.37004439474, -33077.51960486408, -187500.02235174447, -48653.28802505589, -24151.328104892746, -27378.070637949782, -57274.557027167924, -65517.32158867379, -29411.11825837115, -53478.8731907455, -48746.62890990126, -32175.291439925608, -0.062, 1.012, 0.088, 192.0, 127.0, 8.0, 15.5, 80.0, 1.0, 96.0, 0.0, 0.0, 0.0, 1.695337863880644E9, 0.0, 2023-09-21 18:11:03.880
236.0, 25603.319776453947, 19237.118272437845, -53923.89642285067, -28315.234579471897, -33846.50902110446, -33079.374799653866, -187500.02235174447, -48648.75062093147, -24137.40296809709, -27384.99967873093, -57256.40741067022, -65501.004815221415, -29471.177395722556, -53538.41823797444, -48797.90381168173, -32218.18443753534, -0.062, 1.012, 0.088, 192.0, 0.0, 0.0, 0.0, 0.0, 0.0, 0.0, 0.0, 0.0, 0.0, 1.695337863880648E9, 0.0, 2023-09-21 18:11:03.880
238.0, 25664.965887661685, 19239.46520560565, -53936.0781235788, -28322.65535863106, -33857.79665205439, -33081.92289852177, -187500.02235174447, -48662.787516449396, -24157.49718636241, -27390.297042166836, -57282.98363482757, -65522.84246955425, -29426.518610300853, -53471.94414996435, -48753.91557859368, -32168.787082289113, -0.062, 1.012, 0.088, 192.0, 0.0, 0.0, 0.0, 0.0, 0.0, 0.0, 0.0, 0.0, 0.0, 1.695337863880651E9, 0.0, 2023-09-21 18:11:03.880
240.0, 25575.424799373723, 19251.266926678054, -53908.987809298975, -28294.492160617374, -33842.39630012468, -33053.75970050808, -187500.02235174447, -48625.70597239804, -24136.57595355224, -27387.860702021208, -57254.61927111379, -65498.72493728697, -29474.954840535505, -53521.6320778885, -48806.933916441674, -32209.958995575787, -0.062, 1.012, 0.088, 192.0, 0.0, 0.0, 0.0, 0.0, 0.0, 0.0, 0.0, 0.0, 0.0, 1.695337863880655E9, 0.0, 2023-09-21 18:11:03.880
242.0, 25651.487785755133, 19244.695513808194, -53931.18309154309, -28319.771983596325, -33836.629550055215, -33085.387418912345, -187500.02235174447, -48652.10338259976, -24138.229982641937, -27372.102722180218, -57266.309233463915, -65506.68215831306, -29411.006499648873, -53498.36391191053, -48751.2557210035, -32181.438169650817, -0.062, 1.012, 0.088, 192.0, 0.0, 0.0, 0.0, 0.0, 0.0, 0.0, 0.0, 0.0, 0.0, 1.695337863880658E9, 0.0, 2023-09-21 18:11:03.880
0.0, 12772.39027886275, 9671.532770578, -26907.722879376757, -14085.801134801048, -16927.423110893145, -16517.447414093902, -93750.01117587223, -24309.533752147407, -12077.787468169627, -13701.194667958578, -28638.95489441811, -32760.72833069901, -14726.983276245986, -26733.06634820299, -24385.239110617535, -16082.08013559343, -0.064, 1.01, 0.094, 192.0, 127.0, 0.0, 15.5, 72.0, 1.0, 120.0, 0.0, 0.0, 0.0, 1.695337864015175E9, 0.0, 2023-09-21 18:11:04.015
2.0, 25576.050648218472, 19331.688503228248, -53828.298011815314, -28197.284423981244, -33837.03188145541, -33061.58281106744, -187500.02235174447, -48648.460048253546, -24071.62178416512, -27333.098928105705, -57208.59702928031, -65394.92343603652, -29655.400473523197, -53608.51330858628, -48792.248820334535, -32166.21663167675, -0.064, 1.01, 0.094, 192.0, 0.0, 0.0, 0.0, 0.0, 0.0, 0.0, 0.0, 0.0, 0.0, 1.695337864015192E9, 0.0, 2023-09-21 18:11:04.015
4.0, 25582.59970934388, 19350.039285426057, -53826.82279668126, -28183.113417996577, -33847.00075948248, -33041.48859280212, -187500.02235174447, -48635.71955391402, -24075.5333394448, -27338.50805026389, -57219.7058462746, -65405.65227337507, -29619.190647505602, -53523.643734889476, -48761.89515136423, -32118.003918886654, -0.064, 1.01, 0.094, 192.0, 0.0, 0.0, 0.0, 0.0, 0.0, 0.0, 0.0, 0.0, 0.0, 1.695337864015197E9, 0.0, 2023-09-21 18:11:04.015
6.0, 25550.614363028333, 19347.290020858054, -53820.81017742278, -28185.415647675472, -33824.26903537143, -33045.310741103975, -187500.02235174447, -48633.95376610205, -24058.344847958666, -27331.713119949476, -57201.06449139887, -65388.64259584458, -29660.362560792277, -53611.9554772324, -48801.01070416102, -32176.90076552639, -0.064, 1.01, 0.094, 192.0, 0.0, 0.0, 0.0, 0.0, 0.0, 0.0, 0.0, 0.0, 0.0, 1.6953378640152E9, 0.0, 2023-09-21 18:11:04.015
8.0, 25590.86985479234, 19344.45134931223, -53839.25036659842, -28196.09978152511, -33852.54399210739, -33056.73248252064, -187500.02235174447, -48652.237493066496, -24073.76755163283, -27329.343835037213, -57222.14218642023, -65405.56286639725, -29614.63089163672, -53535.177235028415, -48751.8592181038, -32126.184657357295, -0.074, 1.01, 0.088, 192.0, 126.5, 88.0, 15.5, 72.0, 1.0, 96.0, 0.0, 0.0, 0.0, 1.695337864015204E9, 0.0, 2023-09-21 18:11:04.015
10.0, 25548.49094730508, 19329.654494482817, -53842.916052689085, -28203.654671151005, -33844.5867710813, -33069.2047559267, -187500.02235174447, -48659.4347547811, -24075.443932466977, -27344.721835222466, -57218.11887241827, -65402.61243612915, -29675.2041191106, -53591.21305837787, -48805.01166641852, -32166.686018310313, -0.074, 1.01, 0.088, 192.0, 0.0, 0.0, 0.0, 0.0, 0.0, 0.0, 0.0, 0.0, 0.0, 1.695337864015207E9, 0.0, 2023-09-21 18:11:04.015
12.0, 25592.836808304408, 19342.46204405571, -53842.40196256661, -28196.792685603225, -33855.80734679787, -33058.34180812142, -187500.02235174447, -48653.24332156698, -24097.706269944465, -27353.014332415383, -57244.58333785336, -65426.059416062766, -29629.271284254944, -53513.60780162905, -48768.1089363228, -32110.98547112769, -0.074, 1.01, 0.088, 192.0, 0.0, 0.0, 0.0, 0.0, 0.0, 0.0, 0.0, 0.0, 0.0, 1.69533786401521E9, 0.0, 2023-09-21 18:11:04.015
14.0, 25531.23540058558, 19332.58257300646, -53831.874290928165, -28194.53515941324, -33838.95413147857, -33060.77814826705, -187500.02235174447, -48644.30262378486, -24057.607240391644, -27330.50612574889, -57198.33757857532, -65384.731040564904, -29671.560784764384, -53600.533735815734, -48817.081608424385, -32175.582012603525, -0.074, 1.01, 0.088, 192.0, 0.0, 0.0, 0.0, 0.0, 0.0, 0.0, 0.0, 0.0, 0.0, 1.695337864015214E9, 0.0, 2023-09-21 18:11:04.015
16.0, 25595.898997294786, 19327.19580259273, -53852.41554408259, -28210.203732276408, -33854.488593875, -33070.59056408293, -187500.02235174447, -48663.94980716107, -24097.192179821992, -27349.616867258177, -57245.32094542038, -65430.261544020366, -29627.170220276144, -53531.98093557131, -48770.724090424075, -32122.362509055438, -0.074, 1.01, 0.088, 192.0, 0.0, 0.0, 0.0, 0.0, 0.0, 0.0, 0.0, 0.0, 0.0, 1.695337864075453E9, 0.0, 2023-09-21 18:11:04.075
18.0, 25517.19850506765, 19330.190936349743, -53830.197910094015, -28190.91417681148, -33837.88124774471, -33047.38945333832, -187500.02235174447, -48634.95959460254, -24065.743275373374, -27340.005617142397, -57209.98283743654, -65397.180962226514, -29674.980601666048, -53588.19557287641, -48822.91541372722, -32164.56260258706, -0.07, 1.006, 0.092, 192.0, 126.5, 104.0, 15.5, 56.0, 1.0, 112.0, 0.0, 0.0, 0.0, 1.695337864075467E9, 0.0, 2023-09-21 18:11:04.075
20.0, 25596.480142650624, 19321.339645545442, -53849.24159636994, -28210.650767165516, -33838.864724500745, -33065.181441924746, -187500.02235174447, -48654.606777978755, -24088.85497914016, -27343.98422765544, -57242.72814306356, -65423.2430962614, -29618.76596436095, -53552.70100268138, -48767.39368050024, -32128.665700991834, -0.07, 1.006, 0.092, 192.0, 0.0, 0.0, 0.0, 0.0, 0.0, 0.0, 0.0, 0.0, 0.0, 1.695337864075471E9, 0.0, 2023-09-21 18:11:04.075
22.0, 25514.471592244103, 19326.368788047886, -53835.0035351519, -28194.49045592433, -33849.772375794935, -33047.85883997189, -187500.02235174447, -48635.76425740293, -24072.49350219888, -27349.370998069167, -57223.61740155428, -65404.98172104141, -29674.3547528213, -53579.3442820721, -48815.00289619004, -32153.94552397079, -0.07, 1.006, 0.092, 192.0, 0.0, 0.0, 0.0, 0.0, 0.0, 0.0, 0.0, 0.0, 0.0, 1.695337864075474E9, 0.0, 2023-09-21 18:11:04.075
24.0, 25601.30811945297, 19315.39408152033, -53864.01609945489, -28229.605046463617, -33851.76168105146, -33085.34271542343, -187500.02235174447, -48671.97408342053, -24089.72669717392, -27346.107643378695, -57250.81947455639, -65426.46174746296, -29632.713452901062, -53561.2393690633, -48774.18861081465, -32129.157439369854, -0.07, 1.006, 0.092, 192.0, 0.0, 0.0, 0.0, 0.0, 0.0, 0.0, 0.0, 0.0, 0.0, 1.695337864075478E9, 0.0, 2023-09-21 18:11:04.075
26.0, 25514.13631607727, 19331.30852357251, -53837.104599130704, -28193.596386146117, -33855.852050286776, -33047.5012120606, -187500.02235174447, -48629.70693465554, -24082.171807548024, -27358.356399340202, -57234.770922037475, -65413.45303218997, -29683.83189247035, -53554.73501142681, -48816.656925279734, -32134.96889292823, -0.07, 1.006, 0.092, 192.0, 0.0, 0.0, 0.0, 0.0, 0.0, 0.0, 0.0, 0.0, 0.0, 1.695337864075481E9, 0.0, 2023-09-21 18:11:04.075
28.0, 25598.178875229227, 19336.49412828614, -53843.87717770066, -28207.499171197316, -33832.74034651999, -33063.77328202406, -187500.02235174447, -48654.5844262343, -24073.34286848818, -27338.776271197352, -57232.28987840294, -65406.63575013111, -29634.658054668675, -53574.87393318104, -48783.9116196527, -32139.774517986123, -0.066, 1.008, 0.094, 192.0, 126.5, 120.0, 15.5, 64.0, 1.0, 120.0, 0.0, 0.0, 0.0, 1.695337864075485E9, 0.0, 2023-09-21 18:11:04.075
30.0, 25514.158667821728, 19353.68261977227, -53814.50698548639, -28171.62462134655, -33842.6868728026, -33030.15625836328, -187500.02235174447, -48619.71570488402, -24052.801615333752, -27339.312713064282, -57206.09363390132, -65385.088668476186, -29653.120595588756, -53568.101354611084, -48803.73761698457, -32144.624846532926, -0.066, 1.008, 0.094, 192.0, 0.0, 0.0, 0.0, 0.0, 0.0, 0.0, 0.0, 0.0, 0.0, 1.695337864135072E9, 0.0, 2023-09-21 18:11:04.135
32.0, 25593.26149144906, 19345.412474323806, -53826.487520514434, -28198.670232137472, -33817.02707016791, -33061.35929362289, -187500.02235174447, -48645.88959764119, -24047.01251351983, -27316.6480441866, -57203.523183288955, -65379.768953295825, -29620.10706902827, -53611.68725629894, -48777.40726201621, -32157.32063738354, -0.066, 1.008, 0.094, 192.0, 0.0, 0.0, 0.0, 0.0, 0.0, 0.0, 0.0, 0.0, 0.0, 1.695337864135086E9, 0.0, 2023-09-21 18:11:04.135
34.0, 25527.368548794813, 19337.075273641978, -53831.69547697252, -28192.299984967707, -33858.19898345458, -33052.239781885124, -187500.02235174447, -48640.63693769419, -24072.739371387885, -27351.49441379242, -57226.27725914446, -65406.09930826418, -29650.192517065112, -53551.24813929178, -48781.1623550847, -32119.97087239872, -0.066, 1.008, 0.094, 192.0, 0.0, 0.0, 0.0, 0.0, 0.0, 0.0, 0.0, 0.0, 0.0, 1.695337864135091E9, 0.0, 2023-09-21 18:11:04.135
36.0, 25584.812532044954, 19321.04907286752, -53840.56911952128, -28215.746964901326, -33831.06396568584, -33081.45351188821, -187500.02235174447, -48660.66410072614, -24067.3302492297, -27341.704349721, -57226.2102039111, -65404.40057568558, -29642.324703016842, -53601.83013699414, -48784.82804117537, -32141.473250564726, -0.066, 1.008, 0.094, 192.0, 0.0, 0.0, 0.0, 0.0, 0.0, 0.0, 0.0, 0.0, 0.0, 1.695337864135094E9, 0.0, 2023-09-21 18:11:04.135
38.0, 25523.14406909276, 19330.637971238848, -53831.740180461435, -28193.730496612847, -33861.90937303416, -33052.70916851868, -187500.02235174447, -48643.18503656209, -24080.09309531368, -27359.809262729796, -57233.116892947786, -65412.67072113404, -29644.470470484554, -53536.49598795128, -48784.984503386564, -32105.866921647423, -0.068, 1.008, 0.096, 192.0, 126.5, 112.0, 15.5, 64.0, 1.5, 0.0, 0.0, 0.0, 0.0, 1.695337864135098E9, 0.0, 2023-09-21 18:11:04.135
40.0, 25560.96322071114, 19338.416378309295, -53820.11727334467, -28191.472970422863, -33823.59848303777, -33049.82579348395, -187500.02235174447, -48635.60779519175, -24065.452702695457, -27341.190259598527, -57219.32586661886, -65396.86803780414, -29646.705644930084, -53602.41128234998, -48786.48207026507, -32141.093270908987, -0.068, 1.008, 0.096, 192.0, 0.0, 0.0, 0.0, 0.0, 0.0, 0.0, 0.0, 0.0, 0.0, 1.695337864135102E9, 0.0, 2023-09-21 18:11:04.135
42.0, 25520.014824869017, 19347.20061388023, -53821.16780533407, -28177.81605456067, -33850.08530021731, -33029.91038917427, -187500.02235174447, -48623.202577019045, -24064.178653261504, -27338.306884563794, -57214.430834583145, -65391.68243309051, -29624.86799059725, -53541.45807522036, -48762.92333160917, -32108.325613537505, -0.068, 1.008, 0.096, 192.0, 0.0, 0.0, 0.0, 0.0, 0.0, 0.0, 0.0, 0.0, 0.0, 1.695337864135106E9, 0.0, 2023-09-21 18:11:04.135
44.0, 25549.96616243913, 19336.270610841588, -53832.589546750736, -28201.084220538643, -33820.469238814025, -33054.11732841937, -187500.02235174447, -48637.64180393718, -24051.192289732968, -27323.17475356755, -57204.90899144518, -65377.80199978376, -29641.408281494176, -53623.958364004895, -48776.55789572691, -32152.40325360337, -0.068, 1.008, 0.096, 192.0, 0.0, 0.0, 0.0, 0.0, 0.0, 0.0, 0.0, 0.0, 0.0, 1.695337864135109E9, 0.0, 2023-09-21 18:11:04.135
46.0, 25531.950656408153, 19329.07334912698, -53856.95294820702, -28207.34270898613, -33873.17465223964, -33062.11925293437, -187500.02235174447, -48653.5338942449, -24097.795676922284, -27357.46232956199, -57249.254852444516, -65418.99626481489, -29643.084662328325, -53518.86046157604, -48751.009851814495, -32083.984563825677, -0.068, 1.008, 0.096, 192.0, 0.0, 0.0, 0.0, 0.0, 0.0, 0.0, 0.0, 0.0, 0.0, 1.695337864198145E9, 0.0, 2023-09-21 18:11:04.198
48.0, 25537.985627411086, 19336.762349219603, -53840.92674743256, -28200.43601994944, -33836.271922143926, -33065.382607624844, -187500.02235174447, -48647.99066161998, -24076.919147601027, -27345.638256745133, -57225.070264943875, -65394.00701451386, -29673.460683043086, -53601.02547419375, -48792.874669179284, -32140.64623601988, -0.07, 1.008, 0.1, 192.0, 126.5, 104.0, 15.5, 64.0, 1.5, 16.0, 0.0, 0.0, 0.0, 1.695337864198157E9, 0.0, 2023-09-21 18:11:04.198
50.0, 25537.67270298871, 19353.3696953499, -53834.80236945181, -28182.733438340838, -33853.37100665224, -33045.10957540388, -187500.02235174447, -48635.13840855818, -24078.081438312704, -27337.591628741222, -57225.65141029971, -65393.15764822456, -29629.651263910684, -53522.77201685572, -48756.55308443941, -32093.998145341655, -0.07, 1.008, 0.1, 192.0, 0.0, 0.0, 0.0, 0.0, 0.0, 0.0, 0.0, 0.0, 0.0, 1.695337864198161E9, 0.0, 2023-09-21 18:11:04.198
52.0, 25520.394804524756, 19348.809939481012, -53836.16582586358, -28194.28929022423, -33835.06492794334, -33058.38651161033, -187500.02235174447, -48649.66704245413, -24067.866691096628, -27334.01534962837, -57210.63103802574, -65381.84766553017, -29676.142892377724, -53606.41224460748, -48788.94076215515, -32145.116584910942, -0.07, 1.008, 0.1, 192.0, 0.0, 0.0, 0.0, 0.0, 0.0, 0.0, 0.0, 0.0, 0.0, 1.695337864198164E9, 0.0, 2023-09-21 18:11:04.198
54.0, 25540.28785708998, 19354.934317461768, -53843.407791067104, -28190.221272733364, -33859.629495099725, -33051.301008618, -187500.02235174447, -48643.34149877328, -24081.747124403373, -27336.02700662935, -57227.03721845594, -65399.2373227164, -29629.76302263296, -53520.51449066574, -48746.248930245514, -32085.906813848833, -0.07, 1.008, 0.1, 192.0, 0.0, 0.0, 0.0, 0.0, 0.0, 0.0, 0.0, 0.0, 0.0, 1.695337864198168E9, 0.0, 2023-09-21 18:11:04.198
56.0, 25498.93712984766, 19357.21419539621, -53830.44377928302, -28183.895729052514, -33841.45752685756, -33044.841354470416, -187500.02235174447, -48640.614585949734, -24059.685952625987, -27333.814183928276, -57199.65633149819, -65373.555168337254, -29673.907717932194, -53603.215945150376, -48793.83579419086, -32138.6345790189, -0.07, 1.008, 0.1, 192.0, 0.0, 0.0, 0.0, 0.0, 0.0, 0.0, 0.0, 0.0, 0.0, 1.695337864198171E9, 0.0, 2023-09-21 18:11:04.198
58.0, 25544.691150747676, 19355.046076184044, -53848.235767869446, -28196.52446466976, -33858.780128810424, -33054.050273186, -187500.02235174447, -48643.87794064021, -24079.84722612467, -27334.01534962837, -57225.22672715506, -65396.75627908186, -29618.47539168303, -53529.11991228103, -48740.63864238723, -32084.96804058171, -0.07, 1.0, 0.094, 192.0, 126.5, 104.0, 15.5, 32.0, 1.0, 120.0, 0.0, 0.0, 0.0, 1.695337864198174E9, 0.0, 2023-09-21 18:11:04.198
60.0, 25482.776818606475, 19356.811863996016, -53836.09877063022, -28191.607080889593, -33843.200962925075, -33043.74611899211, -187500.02235174447, -48631.71859165652, -24061.362333460133, -27339.200954342003, -57201.712691988076, -65379.09840096217, -29676.567575522375, -53596.063386924674, -48783.50928825251, -32130.476192292714, -0.07, 1.0, 0.094, 192.0, 0.0, 0.0, 0.0, 0.0, 0.0, 0.0, 0.0, 0.0, 0.0, 1.69533786425565E9, 0.0, 2023-09-21 18:11:04.255
62.0, 25539.416139056226, 19362.77977976558, -53851.76734349339, -28201.352441472107, -33860.30004743338, -33051.122194662355, -187500.02235174447, -48644.034402851394, -24079.48959821339, -27339.826803186752, -57227.730122534056, -65401.38309018411, -29628.82424936584, -53532.5844326716, -48737.934081308136, -32083.15754928083, -0.07, 1.0, 0.094, 192.0, 0.0, 0.0, 0.0, 0.0, 0.0, 0.0, 0.0, 0.0, 0.0, 1.695337864255679E9, 0.0, 2023-09-21 18:11:04.255
64.0, 25462.079103240863, 19374.69325956026, -53824.63232572465, -28176.542005126717, -33844.00562572546, -33026.244703083605, -187500.02235174447, -48615.51357692642, -24048.532432142787, -27339.804451442298, -57190.22389533805, -65370.49297934688, -29675.96407842208, -53599.37144510406, -48794.75221571353, -32135.46063130625, -0.07, 1.0, 0.094, 192.0, 0.0, 0.0, 0.0, 0.0, 0.0, 0.0, 0.0, 0.0, 0.0, 1.695337864255682E9, 0.0, 2023-09-21 18:11:04.255
66.0, 25539.10321463385, 19372.748657792647, -53844.391267823135, -28196.882092581047, -33844.74323329249, -33047.18828763822, -187500.02235174447, -48635.27251902491, -24052.66750486702, -27322.101869833696, -57200.43864255412, -65378.6290143286, -29611.121667757234, -53565.62031097655, -48736.07888651835, -32106.962157125734, -0.07, 1.0, 0.094, 192.0, 0.0, 0.0, 0.0, 0.0, 0.0, 0.0, 0.0, 0.0, 0.0, 1.695337864255686E9, 0.0, 2023-09-21 18:11:04.255
68.0, 25461.721475329578, 19375.341460149462, -53831.740180461435, -28179.87241505056, -33850.75585255097, -33029.68687172972, -187500.02235174447, -48623.40374271914, -24046.81134781973, -27335.51291650688, -57188.70397671509, -65368.03428745679, -29671.091398130826, -53590.07311941065, -48781.25176206252, -32130.65500624836, -0.068, 0.996, 0.092, 192.0, 126.5, 112.0, 15.5, 16.0, 1.0, 112.0, 0.0, 0.0, 0.0, 1.695337864255689E9, 0.0, 2023-09-21 18:11:04.255
70.0, 25545.96520018163, 19364.433808855272, -53853.35431734972, -28204.459333951396, -33842.575114080326, -33061.69456978972, -187500.02235174447, -48641.039269094385, -24068.604298663653, -27333.63536997263, -57220.28699163044, -65391.61537785714, -29628.19840052109, -53564.7932964317, -48742.53854066593, -32104.7269826802, -0.068, 0.996, 0.092, 192.0, 0.0, 0.0, 0.0, 0.0, 0.0, 0.0, 0.0, 0.0, 0.0, 1.695337864255693E9, 0.0, 2023-09-21 18:11:04.255
72.0, 25463.956649775108, 19354.35317210593, -53852.482599315954, -28197.217368747875, -33862.84814630129, -33053.37972085235, -187500.02235174447, -48635.36192600273, -24065.117426528624, -27354.489547549434, -57212.91091596019, -65386.78740105479, -29678.400418567708, -53563.38513653102, -48776.08850909335, -32106.671584447813, -0.068, 0.996, 0.092, 192.0, 0.0, 0.0, 0.0, 0.0, 0.0, 0.0, 0.0, 0.0, 0.0, 1.695337864255696E9, 0.0, 2023-09-21 18:11:04.255
74.0, 25545.29464784797, 19366.289003645063, -53849.7109830035, -28198.58082515965, -33841.74809953548, -33058.96765696617, -187500.02235174447, -48639.519350471426, -24067.3302492297, -27345.92882942305, -57225.09261668833, -65395.37047092563, -29641.67650242764, -53553.50566548177, -48752.485066948546, -32089.14781679485, -0.068, 0.996, 0.092, 192.0, 0.0, 0.0, 0.0, 0.0, 0.0, 0.0, 0.0, 0.0, 0.0, 1.6953378642557E9, 0.0, 2023-09-21 18:11:04.255
76.0, 25462.168510218682, 19375.721439805206, -53832.41073279509, -28171.28934517972, -33852.208715940564, -33030.089203129915, -187500.02235174447, -48612.71960886951, -24040.217583205413, -27337.41281478558, -57192.86140118378, -65365.106208933146, -29663.469453271566, -53563.85452316458, -48778.50249749452, -32109.51025599364, -0.068, 0.996, 0.092, 192.0, 0.0, 0.0, 0.0, 0.0, 0.0, 0.0, 0.0, 0.0, 0.0, 1.695337864314927E9, 0.0, 2023-09-21 18:11:04.314
78.0, 25543.14888038026, 19371.854588014437, -53847.63227076916, -28192.43409543444, -33835.35550062126, -33050.853973728896, -187500.02235174447, -48633.86435912423, -24048.353618187146, -27332.78600368333, -57208.93230544714, -65378.6290143286, -29635.418013980154, -53579.88072393903, -48753.379136726755, -32109.420849015816, -0.06, 0.998, 0.092, 192.0, 127.0, 16.0, 15.5, 24.0, 1.0, 112.0, 0.0, 0.0, 0.0, 1.695337864314943E9, 0.0, 2023-09-21 18:11:04.314
80.0, 25470.103379500317, 19368.524178090596, -53852.10261966022, -28186.712048853882, -33872.61585862826, -33039.387528823325, -187500.02235174447, -48629.70693465554, -24058.210737491936, -27351.092082392228, -57211.435700826136, -65383.45699113095, -29659.58024973634, -53542.84388337659, -48773.115727080796, -32097.663831432325, -0.06, 0.998, 0.092, 192.0, 0.0, 0.0, 0.0, 0.0, 0.0, 0.0, 0.0, 0.0, 0.0, 1.695337864314946E9, 0.0, 2023-09-21 18:11:04.314
82.0, 25536.33159832139, 19377.35311715044, -53850.7615149929, -28196.233891991844, -33846.71018680456, -33053.17855515225, -187500.02235174447, -48643.74383017347, -24051.66167636653, -27332.60718972769, -57208.88760195823, -65377.15379919455, -29643.308179772877, -53577.13145937103, -48769.673558434675, -32113.287700806584, -0.06, 0.998, 0.092, 192.0, 0.0, 0.0, 0.0, 0.0, 0.0, 0.0, 0.0, 0.0, 0.0, 1.69533786431495E9, 0.0, 2023-09-21 18:11:04.314
84.0, 25472.42796092367, 19369.41824786881, -53857.75761100741, -28194.57986290215, -33871.20769872757, -33052.373892351854, -187500.02235174447, -48641.55335921686, -24062.211699749434, -27345.07946313375, -57212.73210200454, -65381.9817759969, -29651.53362173243, -53528.337601225096, -48776.08850909335, -32088.186691783274, -0.06, 0.998, 0.092, 192.0, 0.0, 0.0, 0.0, 0.0, 0.0, 0.0, 0.0, 0.0, 0.0, 1.695337864314953E9, 0.0, 2023-09-21 18:11:04.314
86.0, 25521.445336514156, 19368.79239902406, -53860.03748894185, -28207.76739213078, -33843.37977688072, -33070.6576193163, -187500.02235174447, -48656.23845532399, -24077.723810401418, -27352.142614381628, -57225.38318936625, -65394.85638080316, -29657.657999713185, -53575.3433198146, -48779.038939361446, -32107.431543759292, -0.06, 0.998, 0.092, 192.0, 0.0, 0.0, 0.0, 0.0, 0.0, 0.0, 0.0, 0.0, 0.0, 1.695337864314957E9, 0.0, 2023-09-21 18:11:04.314
88.0, 25464.582498619857, 19384.93035852079, -53851.07443941527, -28186.19795873141, -33865.75387308048, -33047.88119171634, -187500.02235174447, -48634.71372541353, -24070.37008647562, -27346.3535125677, -57212.32977060435, -65384.82044754273, -29645.34218851831, -53528.672877391924, -48774.16625907019, -32087.29262200506, -0.068, 1.004, 0.094, 192.0, 126.5, 112.0, 15.5, 48.0, 1.0, 120.0, 0.0, 0.0, 0.0, 1.69533786431496E9, 0.0, 2023-09-21 18:11:04.314
90.0, 25505.441487484157, 19383.79041955357, -53851.43206732656, -28204.325223484662, -33830.39341335218, -33070.434101871746, -187500.02235174447, -48648.57180697582, -24061.831720093694, -27331.64606471611, -57201.37741582125, -65375.70093580496, -29648.225563553046, -53604.95938121789, -48783.19636383014, -32128.84451494748, -0.068, 1.004, 0.094, 192.0, 0.0, 0.0, 0.0, 0.0, 0.0, 0.0, 0.0, 0.0, 0.0, 1.695337864374823E9, 0.0, 2023-09-21 18:11:04.374
92.0, 25472.785588834955, 19391.390012668373, -53856.30474761781, -28195.608043147095, -33867.40790217017, -33058.56532556598, -187500.02235174447, -48646.51544648594, -24084.33992676019, -27351.002675414406, -57219.37057010777, -65396.13043023711, -29635.261551768966, -53521.69913312187, -48757.46950596208, -32081.1235405354, -0.068, 1.004, 0.094, 192.0, 0.0, 0.0, 0.0, 0.0, 0.0, 0.0, 0.0, 0.0, 0.0, 1.69533786437484E9, 0.0, 2023-09-21 18:11:04.374
94.0, 25500.85937987082, 19388.26076844463, -53850.91797720409, -28207.275653752764, -33833.187381409094, -33076.33496240794, -187500.02235174447, -48651.47753375501, -24066.14560677357, -27330.79669842681, -57198.02465415295, -65374.33747939319, -29654.126424089245, -53605.80874750719, -48785.118613853294, -32132.17492487132, -0.068, 1.004, 0.094, 192.0, 0.0, 0.0, 0.0, 0.0, 0.0, 0.0, 0.0, 0.0, 0.0, 1.695337864374843E9, 0.0, 2023-09-21 18:11:04.374
96.0, 25491.89633034424, 19409.51727742163, -53841.172616621574, -28183.29223195222, -33858.66837008815, -33042.941456191715, -187500.02235174447, -48631.65153642315, -24080.741295902884, -27344.94535266702, -57210.83220372584, -65388.68729933349, -29627.170220276144, -53517.94404005338, -48759.57056994088, -32081.68233414678, -0.068, 1.004, 0.094, 192.0, 0.0, 0.0, 0.0, 0.0, 0.0, 0.0, 0.0, 0.0, 0.0, 1.695337864374847E9, 0.0, 2023-09-21 18:11:04.374
98.0, 25489.57174892089, 19415.082861791, -53825.9063751586, -28177.212557460378, -33818.390526579686, -33037.66644450026, -187500.02235174447, -48625.77302763141, -24049.47120540991, -27320.805468655286, -57175.583502719826, -65353.03626692728, -29644.82809839584, -53620.58325059214, -48784.60452373082, -32147.50822156766, -0.074, 1.002, 0.092, 192.0, 126.5, 88.0, 15.5, 40.0, 1.0, 112.0, 0.0, 0.0, 0.0, 1.69533786437485E9, 0.0, 2023-09-21 18:11:04.374
100.0, 25509.017766597008, 19392.619358613418, -53865.647776800135, -28207.2085985194, -33872.41469292816, -33062.90156399031, -187500.02235174447, -48655.41144077915, -24080.964813347437, -27336.250524073905, -57209.826375225355, -65382.45116263046, -29604.796124076383, -53531.84682510458, -48727.585223625334, -32091.53945345157, -0.074, 1.002, 0.092, 192.0, 0.0, 0.0, 0.0, 0.0, 0.0, 0.0, 0.0, 0.0, 0.0, 1.695337864374854E9, 0.0, 2023-09-21 18:11:04.374
102.0, 25483.13444651776, 19395.972120281713, -53852.59435803823, -28200.972461816367, -33848.05129147188, -33056.41955809826, -187500.02235174447, -48643.833237151295, -24077.544996445777, -27346.085291634237, -57202.36089257728, -65374.538645093286, -29669.72794171905, -53602.27717188325, -48791.064177878405, -32140.780346486612, -0.074, 1.002, 0.092, 192.0, 0.0, 0.0, 0.0, 0.0, 0.0, 0.0, 0.0, 0.0, 0.0, 1.695337864374857E9, 0.0, 2023-09-21 18:11:04.374
104.0, 25516.99733936755, 19400.062489517033, -53866.31832913379, -28202.53708392824, -33871.07358826084, -33056.73248252064, -187500.02235174447, -48649.5329319874, -24093.2359210534, -27346.5546782678, -57224.645581799225, -65391.74948832387, -29621.224656251034, -53518.614592387035, -48743.16438951068, -32088.834892372477, -0.074, 1.002, 0.092, 192.0, 0.0, 0.0, 0.0, 0.0, 0.0, 0.0, 0.0, 0.0, 0.0, 1.69533786437486E9, 0.0, 2023-09-21 18:11:04.374
106.0, 25478.17235924868, 19391.881751046392, -53859.72456451948, -28204.10170604011, -33853.683931074615, -33066.00845646959, -187500.02235174447, -48648.86237965374, -24074.14753128857, -27343.31367532178, -57204.305494344895, -65371.29764214726, -29676.567575522375, -53593.09060491212, -48793.90284942423, -32140.445070319784, -0.074, 1.002, 0.092, 192.0, 0.0, 0.0, 0.0, 0.0, 0.0, 0.0, 0.0, 0.0, 0.0, 1.695337864435046E9, 0.0, 2023-09-21 18:11:04.435
108.0, 25526.85445867234, 19397.290873204576, -53872.777983281376, -28206.426287463462, -33865.709169591566, -33070.52350884956, -187500.02235174447, -48657.959539647054, -24093.19121756449, -27350.801509714307, -57229.048875456916, -65393.58233136921, -29624.06332779686, -53514.09954000706, -48747.07594479036, -32084.342191736963, -0.08, 1.002, 0.094, 192.0, 126.5, 64.0, 15.5, 40.0, 1.0, 120.0, 0.0, 0.0, 0.0, 1.69533786443507E9, 0.0, 2023-09-21 18:11:04.435
110.0, 25463.911946286196, 19395.9274167928, -53865.40190761112, -28202.313566483685, -33860.45650964457, -33068.69066580423, -187500.02235174447, -48649.95761513205, -24082.551787203764, -27353.59547777122, -57212.821508982364, -65379.72424980692, -29677.752217978505, -53575.20920934787, -48802.75414022853, -32131.482020793203, -0.08, 1.002, 0.094, 192.0, 0.0, 0.0, 0.0, 0.0, 0.0, 0.0, 0.0, 0.0, 0.0, 1.695337864435074E9, 0.0, 2023-09-21 18:11:04.435
112.0, 25528.977874395594, 19409.45022218826, -53866.72066053399, -28200.324261227164, -33856.544954364894, -33067.617782070374, -187500.02235174447, -48650.739926187984, -24081.34479300318, -27345.481794533946, -57219.258811385494, -65383.92637776451, -29622.901037085183, -53521.94500231087, -48752.485066948546, -32094.48988371967, -0.08, 1.002, 0.094, 192.0, 0.0, 0.0, 0.0, 0.0, 0.0, 0.0, 0.0, 0.0, 0.0, 1.695337864435077E9, 0.0, 2023-09-21 18:11:04.435
114.0, 25452.959591503095, 19425.856402618458, -53840.23384335445, -28172.0493044912, -33845.70435830407, -33037.88996194481, -187500.02235174447, -48624.744847386464, -24061.407036949044, -27348.633390502142, -57193.956636662086, -65363.11690367662, -29670.66671498617, -53569.8447906786, -48793.925201168684, -32137.092308651485, -0.08, 1.002, 0.094, 192.0, 0.0, 0.0, 0.0, 0.0, 0.0, 0.0, 0.0, 0.0, 0.0, 1.69533786443508E9, 0.0, 2023-09-21 18:11:04.435
116.0, 25530.833069185384, 19440.675609192327, -53843.340735833735, -28178.19603421641, -33830.125192418716, -33047.277694616045, -187500.02235174447, -48631.29390851187, -24038.18357445998, -27310.322500505747, -57178.98096787703, -65344.341438334166, -29598.627042606717, -53560.769982429745, -48742.91852032168, -32126.631692246403, -0.08, 1.002, 0.094, 192.0, 0.0, 0.0, 0.0, 0.0, 0.0, 0.0, 0.0, 0.0, 0.0, 1.695337864435084E9, 0.0, 2023-09-21 18:11:04.435
118.0, 25455.150062459717, 19426.616361929937, -53852.907282460605, -28181.749961584803, -33856.72376832054, -33049.06583417247, -187500.02235174447, -48637.64180393718, -24053.539222900778, -27338.910381664085, -57186.91583715867, -65356.344325106664, -29650.706607187585, -53577.60084600459, -48771.03701484645, -32133.18075337181, -0.074, 1.006, 0.094, 192.0, 126.5, 88.0, 15.5, 56.0, 1.0, 120.0, 0.0, 0.0, 0.0, 1.695337864435087E9, 0.0, 2023-09-21 18:11:04.435
120.0, 25538.14208962227, 19422.59304792798, -53865.647776800135, -28203.67702289546, -33850.93466650661, -33069.227107671155, -187500.02235174447, -48657.42309778012, -24072.62761266561, -27340.4526520315, -57213.737930505034, -65376.30443290525, -29617.84954283828, -53551.06932533614, -48736.324755707356, -32101.553034967546, -0.074, 1.006, 0.094, 192.0, 0.0, 0.0, 0.0, 0.0, 0.0, 0.0, 0.0, 0.0, 0.0, 1.695337864495305E9, 0.0, 2023-09-21 18:11:04.495
122.0, 25450.076216468362, 19435.333542267508, -53838.13277937565, -28172.42928414694, -33852.45458512957, -33029.88803742982, -187500.02235174447, -48619.492187439464, -24053.069836267216, -27345.5041462784, -57185.775898191445, -65352.61158378263, -29659.848470669804, -53563.67570920893, -48771.08171833536, -32117.48982876418, -0.074, 1.006, 0.094, 192.0, 0.0, 0.0, 0.0, 0.0, 0.0, 0.0, 0.0, 0.0, 0.0, 1.69533786449532E9, 0.0, 2023-09-21 18:11:04.495
124.0, 25538.365607066826, 19420.51433569364, -53867.70413729002, -28208.661461908992, -33845.52554434843, -33068.5565553375, -187500.02235174447, -48659.47945827001, -24066.883214340596, -27335.579971740244, -57207.9041252022, -65371.83408401419, -29619.123592272234, -53571.78939244621, -48734.26839521747, -32107.49859899266, -0.074, 1.006, 0.094, 192.0, 0.0, 0.0, 0.0, 0.0, 0.0, 0.0, 0.0, 0.0, 0.0, 1.695337864495323E9, 0.0, 2023-09-21 18:11:04.495
126.0, 25460.08979798434, 19412.870039089925, -53863.07732618777, -28199.184322259942, -33872.772320839445, -33057.626552298854, -187500.02235174447, -48646.94012963059, -24067.173787018513, -27350.823861458764, -57203.16555537767, -65376.192674182974, -29660.519023003464, -53549.102371824076, -48767.19251480014, -32100.055468089042, -0.074, 1.006, 0.094, 192.0, 0.0, 0.0, 0.0, 0.0, 0.0, 0.0, 0.0, 0.0, 0.0, 1.695337864495327E9, 0.0, 2023-09-21 18:11:04.495
128.0, 25532.732967464086, 19401.962387795735, -53857.80231449632, -28211.366022988084, -33846.553724593374, -33069.227107671155, -187500.02235174447, -48658.160705347145, -24077.61205167914, -27357.28351560635, -57224.33265737685, -65399.39378492758, -29640.49185997151, -53561.060555107666, -48756.88836060624, -32097.485017476683, -0.07200000000000001, 1.008, 0.092, 192.0, 126.5, 96.0, 15.5, 64.0, 1.0, 112.0, 0.0, 0.0, 0.0, 1.69533786449533E9, 0.0, 2023-09-21 18:11:04.495
130.0, 25454.859489781797, 19408.533800665595, -53836.61286075269, -28180.96765052887, -33862.13289047872, -33037.82290671145, -187500.02235174447, -48630.93628060058, -24048.5771356317, -27345.79471895632, -57190.112136615775, -65369.50950259084, -29648.203211808588, -53546.33075551162, -48769.27122703448, -32106.850398403454, -0.07200000000000001, 1.008, 0.092, 192.0, 0.0, 0.0, 0.0, 0.0, 0.0, 0.0, 0.0, 0.0, 0.0, 1.695337864495334E9, 0.0, 2023-09-21 18:11:04.495
132.0, 25522.71938594811, 19390.138314978878, -53842.89370094463, -28203.76642987328, -33840.87638150172, -33063.281543646044, -187500.02235174447, -48651.56694073283, -24053.71803685642, -27337.591628741222, -57207.01005542398, -65383.345232408676, -29631.81938312285, -53587.03328216473, -48758.54238969593, -32125.581160257003, -0.07200000000000001, 1.008, 0.092, 192.0, 0.0, 0.0, 0.0, 0.0, 0.0, 0.0, 0.0, 0.0, 0.0, 1.695337864495337E9, 0.0, 2023-09-21 18:11:04.495
134.0, 25468.225832966073, 19378.716573562215, -53829.41559903808, -28180.028877261746, -33870.98418128302, -33038.69462474521, -187500.02235174447, -48632.41149573463, -24058.4789584254, -27350.84621320322, -57210.54163104793, -65391.41421215704, -29641.67650242764, -53528.40465645846, -48761.40341298621, -32095.562767453524, -0.07200000000000001, 1.008, 0.092, 192.0, 0.0, 0.0, 0.0, 0.0, 0.0, 0.0, 0.0, 0.0, 0.0, 1.695337864495341E9, 0.0, 2023-09-21 18:11:04.495
136.0, 25527.167383094715, 19348.698180758736, -53835.428218296554, -28201.173627516466, -33843.2903699029, -33070.6576193163, -187500.02235174447, -48658.04894662487, -24049.67237111001, -27337.010483385384, -57206.63007576825, -65386.1839039545, -29642.548220461398, -53593.09060491212, -48769.58415145685, -32130.386785314895, -0.07200000000000001, 1.008, 0.092, 192.0, 0.0, 0.0, 0.0, 0.0, 0.0, 0.0, 0.0, 0.0, 0.0, 1.69533786455568E9, 0.0, 2023-09-21 18:11:04.555
138.0, 25491.985737322062, 19335.376541063375, -53834.02005839587, -28189.617775633073, -33875.58864064082, -33056.576020309454, -187500.02235174447, -48646.80601916385, -24073.29816499927, -27358.624620273666, -57232.267526658485, -65409.51912516584, -29645.25278154049, -53506.76816782572, -48755.8601803613, -32082.084665546976, -0.07200000000000001, 1.008, 0.094, 192.0, 126.5, 96.0, 15.5, 64.0, 1.0, 120.0, 0.0, 0.0, 0.0, 1.695337864555691E9, 0.0, 2023-09-21 18:11:04.555
140.0, 25531.48126977459, 19328.82747993797, -53816.429235509546, -28187.33789769863, -33833.54500932038, -33061.627514556356, -187500.02235174447, -48649.01884186493, -24056.064970024225, -27339.84915493121, -57219.59408755232, -65394.76697382534, -29659.49084275852, -53584.44047980791, -48786.32560805388, -32130.65500624836, -0.07200000000000001, 1.008, 0.094, 192.0, 0.0, 0.0, 0.0, 0.0, 0.0, 0.0, 0.0, 0.0, 0.0, 1.695337864555694E9, 0.0, 2023-09-21 18:11:04.555
142.0, 25524.61928422681, 19320.66909321178, -53818.306782043794, -28178.978345272346, -33861.81996605635, -33051.88215397384, -187500.02235174447, -48639.653460938156, -24066.23501375139, -27343.336027066234, -57230.591145824335, -65407.28395072031, -29637.25085702549, -53509.78565332719, -48763.4597734761, -32093.662869174826, -0.07200000000000001, 1.008, 0.094, 192.0, 0.0, 0.0, 0.0, 0.0, 0.0, 0.0, 0.0, 0.0, 0.0, 1.695337864555698E9, 0.0, 2023-09-21 18:11:04.555
144.0, 25546.85926995984, 19316.556372232008, -53807.041502838314, -28177.39137141602, -33833.65676804266, -33052.9997411966, -187500.02235174447, -48636.81478939233, -24061.58585090469, -27339.98326539794, -57227.21603241158, -65402.1877529845, -29666.19636609511, -53582.227657106836, -48793.14289011275, -32134.723023739225, -0.07200000000000001, 1.008, 0.094, 192.0, 0.0, 0.0, 0.0, 0.0, 0.0, 0.0, 0.0, 0.0, 0.0, 1.695337864555701E9, 0.0, 2023-09-21 18:11:04.555
146.0, 25554.212993885638, 19318.500973999617, -53802.05706382478, -28164.360304398575, -33856.56730610935, -33037.130002633334, -187500.02235174447, -48629.03638232189, -24060.51296717083, -27329.008558870384, -57225.56200332189, -65399.25967446085, -29631.43940346711, -53507.39401667047, -48757.67067166218, -32089.416037728315, -0.07200000000000001, 1.008, 0.094, 192.0, 0.0, 0.0, 0.0, 0.0, 0.0, 0.0, 0.0, 0.0, 0.0, 1.695337864555705E9, 0.0, 2023-09-21 18:11:04.555
148.0, 25551.173156639714, 19320.847907167426, -53781.895790326096, -28153.027969959734, -33823.39731733767, -33027.094069372906, -187500.02235174447, -48617.99462056096, -24047.303086197746, -27321.16309656657, -57208.39586358021, -65378.47255211742, -29664.631743983242, -53593.068253167665, -48791.690026723154, -32139.148669141374, -0.07, 1.004, 0.09, 192.0, 126.5, 104.0, 15.5, 48.0, 1.0, 104.0, 0.0, 0.0, 0.0, 1.695337864555708E9, 0.0, 2023-09-21 18:11:04.555
150.0, 25585.72895356762, 19309.247351795122, -53803.66638942557, -28168.405970144984, -33853.30395141887, -33044.19315388121, -187500.02235174447, -48637.64180393718, -24066.212662006936, -27324.35939602368, -57231.19464292463, -65397.248017459875, -29611.94868230208, -53512.378455684004, -48739.43164818665, -32087.806712127534, -0.07, 1.004, 0.09, 192.0, 0.0, 0.0, 0.0, 0.0, 0.0, 0.0, 0.0, 0.0, 0.0, 1.695337864615185E9, 0.0, 2023-09-21 18:11:04.615
152.0, 25564.763017268542, 19300.843095879925, -53799.5983719347, -28172.630449847038, -33837.88124774471, -33049.46816557267, -187500.02235174447, -48637.395934748165, -24064.983316061895, -27338.396291541612, -57225.696113788625, -65393.15764822456, -29673.661848743184, -53579.768965216754, -48793.88049767978, -32131.8843521934, -0.07, 1.004, 0.09, 192.0, 0.0, 0.0, 0.0, 0.0, 0.0, 0.0, 0.0, 0.0, 0.0, 1.695337864615205E9, 0.0, 2023-09-21 18:11:04.615
154.0, 25617.446078949702, 19298.63027317885, -53811.93653487403, -28178.888938294524, -33854.93562876411, -33055.99487495361, -187500.02235174447, -48645.28610054089, -24075.62274642262, -27335.110585106682, -57240.1129889623, -65408.89327632109, -29621.917560329148, -53503.080129990594, -48747.74649712402, -32082.934031836277, -0.07, 1.004, 0.09, 192.0, 0.0, 0.0, 0.0, 0.0, 0.0, 0.0, 0.0, 0.0, 0.0, 1.695337864615209E9, 0.0, 2023-09-21 18:11:04.615
156.0, 25566.640563802786, 19311.34841577392, -53778.78889784681, -28156.604249072585, -33824.62666328272, -33035.78889796602, -187500.02235174447, -48621.81676886282, -24048.532432142787, -27329.612055970676, -57204.32784608935, -65380.46185737394, -29670.577308008353, -53580.685386739424, -48796.42859654768, -32140.199201130774, -0.07, 1.004, 0.09, 192.0, 0.0, 0.0, 0.0, 0.0, 0.0, 0.0, 0.0, 0.0, 0.0, 1.695337864615212E9, 0.0, 2023-09-21 18:11:04.615
158.0, 25629.136041299826, 19313.896514641823, -53794.949209087994, -28168.920060267457, -33830.37106160773, -33044.05904341448, -187500.02235174447, -48634.736077157984, -24051.795786833263, -27314.88225637463, -57215.28020087245, -65387.18973245499, -29603.23150196451, -53532.7855983717, -48738.69404061962, -32101.530683223093, -0.06, 0.998, 0.08600000000000001, 192.0, 127.0, 16.0, 15.5, 24.0, 1.0, 88.0, 0.0, 0.0, 0.0, 1.695337864615216E9, 0.0, 2023-09-21 18:11:04.615
160.0, 25570.194491171183, 19306.363976760385, -53791.819964864255, -28168.51772886726, -33825.31956736083, -33041.332130590934, -187500.02235174447, -48627.73998114347, -24047.504251897844, -27331.064919360273, -57205.17721237865, -65380.528912607304, -29657.00979912398, -53590.11782289956, -48785.74446269804, -32139.6851110083, -0.06, 0.998, 0.08600000000000001, 192.0, 0.0, 0.0, 0.0, 0.0, 0.0, 0.0, 0.0, 0.0, 0.0, 1.69533786461522E9, 0.0, 2023-09-21 18:11:04.615
162.0, 25636.22154429216, 19315.68465419825, -53797.02792132234, -28171.66932483546, -33825.11840166073, -33041.421537568756, -187500.02235174447, -48633.14910330166, -24056.891984569073, -27321.341910522213, -57217.96241020709, -65389.40255515606, -29607.590092133298, -53546.33075551162, -48743.07498253286, -32105.911625136334, -0.06, 0.998, 0.08600000000000001, 192.0, 0.0, 0.0, 0.0, 0.0, 0.0, 0.0, 0.0, 0.0, 0.0, 1.695337864615226E9, 0.0, 2023-09-21 18:11:04.615
164.0, 25563.06428468994, 19319.707968200204, -53782.00754904837, -28155.687827549915, -33825.78895399439, -33027.563456006465, -187500.02235174447, -48614.23952749247, -24054.61210663463, -27331.713119949476, -57205.84776471231, -65381.802962041256, -29658.127386346747, -53586.496840297805, -48779.91065739521, -32137.181715629307, -0.06, 0.998, 0.08600000000000001, 192.0, 0.0, 0.0, 0.0, 0.0, 0.0, 0.0, 0.0, 0.0, 0.0, 1.695337864615231E9, 0.0, 2023-09-21 18:11:04.615
166.0, 25648.939686887228, 19314.231790808655, -53807.86851738316, -28183.783970330238, -33829.72286101853, -33057.93947672123, -187500.02235174447, -48649.19765582057, -24065.072723039713, -27315.485753474924, -57218.96823870757, -65389.26844468933, -29604.505551398463, -53558.8924358955, -48732.413200427676, -32111.276043805607, -0.06, 0.998, 0.08600000000000001, 192.0, 0.0, 0.0, 0.0, 0.0, 0.0, 0.0, 0.0, 0.0, 0.0, 1.695337864674935E9, 0.0, 2023-09-21 18:11:04.674
168.0, 25564.91947947973, 19321.473756012172, -53790.43415670803, -28160.29228690771, -33842.79863152488, -33031.20679035268, -187500.02235174447, -48622.91200434113, -24067.419656207523, -27332.517782749866, -57207.99353218002, -65384.261653931346, -29660.541374747918, -53568.593092989104, -48785.31977955339, -32122.921302666822, -0.07200000000000001, 1.008, 0.08600000000000001, 192.0, 126.5, 96.0, 15.5, 64.0, 1.0, 88.0, 0.0, 0.0, 0.0, 1.695337864674949E9, 0.0, 2023-09-21 18:11:04.674
170.0, 25646.995085119615, 19324.848869424924, -53797.11732830016, -28173.72568532535, -33827.42063133963, -33046.60714228239, -187500.02235174447, -48635.4289812361, -24069.408961464043, -27317.922093620553, -57215.347256105815, -65389.51431387834, -29611.613406135253, -53561.90992139697, -48750.83103785885, -32109.26438680463, -0.07200000000000001, 1.008, 0.08600000000000001, 192.0, 0.0, 0.0, 0.0, 0.0, 0.0, 0.0, 0.0, 0.0, 0.0, 1.695337864674953E9, 0.0, 2023-09-21 18:11:04.674
172.0, 25566.506453336056, 19309.1579448173, -53809.63430519513, -28181.615851118073, -33861.238820700506, -33048.28352311654, -187500.02235174447, -48638.82644639331, -24072.71701964343, -27335.378806040146, -57213.62617178276, -65391.50361913486, -29650.10311008729, -53549.59411020209, -48769.673558434675, -32114.07001186252, -0.07200000000000001, 1.008, 0.08600000000000001, 192.0, 0.0, 0.0, 0.0, 0.0, 0.0, 0.0, 0.0, 0.0, 0.0, 1.695337864674957E9, 0.0, 2023-09-21 18:11:04.674
174.0, 25648.090320597927, 19313.225962308166, -53816.11631108717, -28193.551682657206, -33839.9376082346, -33065.650828558304, -187500.02235174447, -48651.76810643293, -24091.1348570746, -27338.37393979716, -57237.76605579449, -65411.150802511074, -29632.646397667697, -53544.341450255095, -48754.18379952715, -32104.525816980105, -0.07200000000000001, 1.008, 0.08600000000000001, 192.0, 0.0, 0.0, 0.0, 0.0, 0.0, 0.0, 0.0, 0.0, 0.0, 1.695337864674961E9, 0.0, 2023-09-21 18:11:04.674
176.0, 25563.556023067955, 19329.49803227163, -53795.48565095492, -28159.845252018604, -33849.615913583744, -33028.50222927359, -187500.02235174447, -48619.89451883966, -24065.631516651098, -27331.84723041621, -57204.05962515588, -65381.5347411078, -29646.48212748553, -53531.57860417111, -48775.395605015234, -32112.9300728953, -0.07200000000000001, 1.008, 0.08600000000000001, 192.0, 0.0, 0.0, 0.0, 0.0, 0.0, 0.0, 0.0, 0.0, 0.0, 1.695337864674965E9, 0.0, 2023-09-21 18:11:04.674
178.0, 25627.01262557657, 19344.831328967968, -53786.299083983795, -28157.990057228813, -33804.957128162045, -33032.86081944237, -187500.02235174447, -48617.88286183868, -24049.068874009714, -27308.80258188279, -57194.91776167366, -65369.643613057575, -29614.407374192164, -53583.25583735178, -48756.15075303921, -32137.74050924069, -0.074, 0.998, 0.082, 192.0, 126.5, 88.0, 15.5, 24.0, 1.0, 72.0, 0.0, 0.0, 0.0, 1.695337864674969E9, 0.0, 2023-09-21 18:11:04.674
180.0, 25559.935040466196, 19341.702084744225, -53797.87728761164, -28157.52067059525, -33849.57121009484, -33025.08241237193, -187500.02235174447, -48613.993658303465, -24055.57323164621, -27321.74424192241, -57199.7010349871, -65373.130485192596, -29627.505496442976, -53538.97703158582, -48743.05263078841, -32114.20412232925, -0.074, 0.998, 0.082, 192.0, 0.0, 0.0, 0.0, 0.0, 0.0, 0.0, 0.0, 0.0, 0.0, 1.695337864735115E9, 0.0, 2023-09-21 18:11:04.735
182.0, 25614.786221359518, 19348.65347726983, -53793.004607320385, -28166.886051522026, -33812.9814044215, -33035.83360145493, -187500.02235174447, -48623.426094463604, -24052.935725800482, -27314.614035441165, -57200.3492355763, -65371.16353168053, -29626.38790922021, -53587.99440717631, -48750.69692739212, -32136.64527376238, -0.074, 0.998, 0.082, 192.0, 0.0, 0.0, 0.0, 0.0, 0.0, 0.0, 0.0, 0.0, 0.0, 1.695337864735129E9, 0.0, 2023-09-21 18:11:04.735
184.0, 25560.046799188473, 19345.457177812717, -53805.07454932625, -28164.539118354216, -33851.49346011799, -33030.75975546357, -187500.02235174447, -48621.05680955134, -24060.5800224042, -27321.92305587805, -57204.05962515588, -65374.49394160437, -29621.15760101767, -53530.59512741508, -48743.92434882216, -32108.035040859588, -0.074, 0.998, 0.082, 192.0, 0.0, 0.0, 0.0, 0.0, 0.0, 0.0, 0.0, 0.0, 0.0, 1.695337864735133E9, 0.0, 2023-09-21 18:11:04.735
186.0, 25598.15652348477, 19344.54075629005, -53806.84033713822, -28174.865624292568, -33816.69179400108, -33045.75777599309, -187500.02235174447, -48630.66805966712, -24060.110635770638, -27321.11839307766, -57204.752529234, -65372.705802047945, -29636.669711669652, -53591.16835488896, -48761.917503108685, -32139.014558674644, -0.074, 0.998, 0.082, 192.0, 0.0, 0.0, 0.0, 0.0, 0.0, 0.0, 0.0, 0.0, 0.0, 1.695337864735137E9, 0.0, 2023-09-21 18:11:04.735
188.0, 25553.788310740987, 19353.146177905342, -53805.879212126645, -28161.476929363842, -33847.62660832723, -33023.651900726785, -187500.02235174447, -48614.686562381576, -24062.748141616365, -27328.13684083663, -57206.183040879136, -65375.924453249514, -29625.04680455289, -53520.49213892128, -48741.3538982098, -32099.139046566375, -0.068, 1.002, 0.09, 192.0, 126.5, 112.0, 15.5, 40.0, 1.0, 104.0, 0.0, 0.0, 0.0, 1.695337864735141E9, 0.0, 2023-09-21 18:11:04.735
190.0, 25576.855311018862, 19352.028590682577, -53802.28058126934, -28169.63531609003, -33817.11647714573, -33038.15818287828, -187500.02235174447, -48624.18605377508, -24040.75402507234, -27314.32346276325, -57188.905142415184, -65356.03140068429, -29646.23625829652, -53612.44721561042, -48768.22069504508, -32150.503355324672, -0.068, 1.002, 0.09, 192.0, 0.0, 0.0, 0.0, 0.0, 0.0, 0.0, 0.0, 0.0, 0.0, 1.695337864735144E9, 0.0, 2023-09-21 18:11:04.735
192.0, 25559.376246854812, 19356.610698295917, -53806.1027295712, -28159.778196785235, -33836.16016342165, -33021.30496755898, -187500.02235174447, -48610.52913791289, -24052.75691184484, -27324.82878265724, -57204.5513635339, -65371.811732269736, -29618.363632960754, -53525.11895002353, -48735.698906862606, -32096.523892465106, -0.068, 1.002, 0.09, 192.0, 0.0, 0.0, 0.0, 0.0, 0.0, 0.0, 0.0, 0.0, 0.0, 1.695337864735148E9, 0.0, 2023-09-21 18:11:04.735
194.0, 25557.878679976307, 19356.58834655146, -53799.3972062346, -28161.52163285275, -33809.44982879756, -33024.74713620509, -187500.02235174447, -48619.06750429481, -24039.94936227195, -27318.369128509657, -57192.1014418723, -65359.60767979714, -29652.62885721074, -53611.06140745419, -48761.24695077503, -32140.7356429977, -0.068, 1.002, 0.09, 192.0, 0.0, 0.0, 0.0, 0.0, 0.0, 0.0, 0.0, 0.0, 0.0, 1.695337864735152E9, 0.0, 2023-09-21 18:11:04.735
196.0, 25568.96514522614, 19348.742884247647, -53812.025941851854, -28166.506071866286, -33839.57998032332, -33026.57997925043, -187500.02235174447, -48613.568975158814, -24046.38666467508, -27317.966797109464, -57202.58441002184, -65370.13535143559, -29611.121667757234, -53536.585394929105, -48720.499720633, -32089.438389472773, -0.068, 1.002, 0.09, 192.0, 0.0, 0.0, 0.0, 0.0, 0.0, 0.0, 0.0, 0.0, 0.0, 1.695337864795471E9, 0.0, 2023-09-21 18:11:04.795
198.0, 25552.3801508403, 19344.74192199015, -53809.07551158375, -28174.619755103562, -33823.46437257104, -33036.97354042215, -187500.02235174447, -48624.16370203063, -24049.314743198724, -27334.17181183956, -57201.66798849917, -65371.18588342499, -29663.201232338102, -53602.858317239086, -48766.8572386333, -32128.196314358273, -0.066, 0.994, 0.094, 192.0, 126.5, 120.0, 15.5, 8.0, 1.0, 120.0, 0.0, 0.0, 0.0, 1.695337864795484E9, 0.0, 2023-09-21 18:11:04.795
200.0, 25574.374267384323, 19351.425093582286, -53815.088130842225, -28169.903537023492, -33844.095032703284, -33029.41865079625, -187500.02235174447, -48626.644745665166, -24056.489653168876, -27329.54500073731, -57214.69905551661, -65382.182941697, -29619.883551583716, -53517.564060397635, -48731.586185882836, -32075.82617709949, -0.066, 0.994, 0.094, 192.0, 0.0, 0.0, 0.0, 0.0, 0.0, 0.0, 0.0, 0.0, 0.0, 1.695337864795488E9, 0.0, 2023-09-21 18:11:04.795
202.0, 25539.39378731177, 19336.360017819406, -53819.89375590012, -28185.303888953196, -33836.003701210466, -33046.00364518209, -187500.02235174447, -48636.59127194778, -24038.250629693346, -27323.487677989924, -57194.24720934001, -65362.446351342965, -29664.877613172248, -53598.9020584705, -48782.2128870741, -32134.678320250314, -0.066, 0.994, 0.094, 192.0, 0.0, 0.0, 0.0, 0.0, 0.0, 0.0, 0.0, 0.0, 0.0, 1.695337864795492E9, 0.0, 2023-09-21 18:11:04.795
204.0, 25582.376191899326, 19334.974209663178, -53831.22609033896, -28188.231967476844, -33858.4895561325, -33047.277694616045, -187500.02235174447, -48642.13450457269, -24071.711191142942, -27343.023102643863, -57235.195605182125, -65401.47249716193, -29628.71249064356, -53503.795385813166, -48740.16925575367, -32072.786339853566, -0.066, 0.994, 0.094, 192.0, 0.0, 0.0, 0.0, 0.0, 0.0, 0.0, 0.0, 0.0, 0.0, 1.695337864795496E9, 0.0, 2023-09-21 18:11:04.795
206.0, 25523.702862704144, 19337.34349457544, -53813.143529074616, -28178.218385960867, -33842.75392803597, -33040.92979919074, -187500.02235174447, -48630.19867303356, -24046.74429258636, -27339.715044464476, -57205.57954377885, -65377.60083408366, -29683.317802347876, -53578.673729738446, -48800.83189020537, -32132.465497549238, -0.066, 0.994, 0.094, 192.0, 0.0, 0.0, 0.0, 0.0, 0.0, 0.0, 0.0, 0.0, 0.0, 1.6953378647955E9, 0.0, 2023-09-21 18:11:04.795
208.0, 25586.958299512662, 19340.942125432746, -53822.06187511228, -28183.046362763213, -33852.96867525204, -33045.82483122645, -187500.02235174447, -48639.34053651578, -24056.75787410234, -27335.602323484698, -57224.310305632396, -65392.50944763535, -29633.942798846103, -53520.290973221185, -48753.64735766022, -32090.01953482861, -0.066, 1.004, 0.096, 192.0, 126.5, 120.0, 15.5, 48.0, 1.5, 0.0, 0.0, 0.0, 0.0, 1.695337864795503E9, 0.0, 2023-09-21 18:11:04.795
210.0, 25518.316092290414, 19334.81774745199, -53816.18336632054, -28174.038609747724, -33848.095994960786, -33042.42736606924, -187500.02235174447, -48634.51255971343, -24039.345865171657, -27332.316617049768, -57199.969255920565, -65369.19657816846, -29684.994183182025, -53580.03718615022, -48801.413035561214, -32134.96889292823, -0.066, 1.004, 0.096, 192.0, 0.0, 0.0, 0.0, 0.0, 0.0, 0.0, 0.0, 0.0, 0.0, 1.695337864855685E9, 0.0, 2023-09-21 18:11:04.855
212.0, 25590.914558281253, 19339.39985506533, -53823.71590420198, -28180.632374362038, -33848.54302984989, -33046.54008704902, -187500.02235174447, -48636.0324783364, -24061.161167760038, -27334.440032773025, -57229.78648302394, -65393.58233136921, -29635.507420957976, -53529.723409381324, -48756.19545652813, -32092.746447652156, -0.066, 1.004, 0.096, 192.0, 0.0, 0.0, 0.0, 0.0, 0.0, 0.0, 0.0, 0.0, 0.0, 1.695337864855698E9, 0.0, 2023-09-21 18:11:04.855
214.0, 25511.498810231547, 19333.096663128934, -53822.84418616822, -28178.732476083336, -33861.41763465615, -33040.66157825728, -187500.02235174447, -48631.316260256324, -24047.01251351983, -27335.602323484698, -57211.011017681485, -65378.24903467287, -29681.619069769273, -53564.27920630923, -48797.41207330371, -32122.943654411276, -0.066, 1.004, 0.096, 192.0, 0.0, 0.0, 0.0, 0.0, 0.0, 0.0, 0.0, 0.0, 0.0, 1.695337864855702E9, 0.0, 2023-09-21 18:11:04.855
216.0, 25592.233311204116, 19335.041264896547, -53831.36020080569, -28188.366077943574, -33852.81221304086, -33053.558534807984, -187500.02235174447, -48647.878902897704, -24062.658734638542, -27336.250524073905, -57232.62515456977, -65398.47736340492, -29642.72703441704, -53533.54555768318, -48764.80087814342, -32094.10990406393, -0.066, 1.004, 0.096, 192.0, 0.0, 0.0, 0.0, 0.0, 0.0, 0.0, 0.0, 0.0, 0.0, 1.695337864855706E9, 0.0, 2023-09-21 18:11:04.855
218.0, 25503.206313038627, 19348.65347726983, -53802.41469173607, -28153.162080426468, -33854.33213166382, -33019.36036579137, -187500.02235174447, -48612.09376002476, -24037.75889131533, -27334.775308939854, -57199.74573847601, -65371.99054622538, -29674.64532549922, -53552.253967792276, -48804.497576296046, -32113.913549651334, -0.06, 1.008, 0.092, 192.0, 127.0, 16.0, 15.5, 64.0, 1.0, 112.0, 0.0, 0.0, 0.0, 1.69533786485571E9, 0.0, 2023-09-21 18:11:04.855
220.0, 25584.231386689116, 19344.943087690244, -53815.35635177569, -28171.266993435263, -33836.45073609957, -33039.74515673461, -187500.02235174447, -48633.14910330166, -24042.4751093954, -27320.626654699645, -57210.92161070366, -65378.78547653979, -29630.21005752207, -53561.686403952415, -48762.23042753106, -32106.828046659, -0.06, 1.008, 0.092, 192.0, 0.0, 0.0, 0.0, 0.0, 0.0, 0.0, 0.0, 0.0, 0.0, 1.695337864855714E9, 0.0, 2023-09-21 18:11:04.855
222.0, 25505.10621131733, 19332.515517773096, -53824.47586351346, -28174.77621731475, -33877.8461668308, -33043.61200852537, -187500.02235174447, -48638.22294929301, -24048.733597842886, -27338.3515880527, -57208.52997404695, -65380.7300783074, -29669.549127763406, -53547.761267156755, -48786.258552820516, -32105.01755535812, -0.06, 1.008, 0.092, 192.0, 0.0, 0.0, 0.0, 0.0, 0.0, 0.0, 0.0, 0.0, 0.0, 1.695337864855718E9, 0.0, 2023-09-21 18:11:04.855
224.0, 25585.01369774505, 19324.647703724826, -53838.22218635347, -28200.39131646053, -33857.70724507657, -33072.22224142817, -187500.02235174447, -48658.54068500289, -24076.449760967465, -27346.577030012257, -57237.6095935833, -65406.88161932011, -29651.421863010153, -53547.96243285685, -48774.03214860346, -32091.15947379583, -0.06, 1.008, 0.092, 192.0, 0.0, 0.0, 0.0, 0.0, 0.0, 0.0, 0.0, 0.0, 0.0, 1.695337864855721E9, 0.0, 2023-09-21 18:11:04.855
226.0, 25499.361812992312, 19341.746788233137, -53820.07256985576, -28172.8986707805, -33875.141605751705, -33035.6994909882, -187500.02235174447, -48629.1257892997, -24070.727714386907, -27359.13871039614, -57222.253945142504, -65399.349081438675, -29673.97477316556, -53514.0324847737, -48794.26047733551, -32078.933069578776, -0.06, 1.008, 0.092, 192.0, 0.0, 0.0, 0.0, 0.0, 0.0, 0.0, 0.0, 0.0, 0.0, 1.695337864915955E9, 0.0, 2023-09-21 18:11:04.915
228.0, 25557.67751427621, 19341.746788233137, -53825.83931992523, -28189.036630277235, -33842.12807919122, -33056.66542728728, -187500.02235174447, -48646.62720520821, -24061.496443926866, -27330.93080889354, -57214.47553807206, -65384.17224695352, -29642.458813483576, -53570.828267434634, -48782.30229405192, -32108.571482726515, -0.064, 1.004, 0.084, 192.0, 127.0, 0.0, 15.5, 48.0, 1.0, 80.0, 0.0, 0.0, 0.0, 1.69533786491597E9, 0.0, 2023-09-21 18:11:04.915
230.0, 25494.109153045316, 19338.10345388692, -53835.69643923002, -28186.890862809523, -33883.814082600366, -33050.0493109285, -187500.02235174447, -48647.72244068652, -24083.19998779297, -27358.579916784754, -57231.32875339136, -65402.99241578489, -29660.16139509218, -53514.345409196074, -48779.37421552828, -32081.034133557576, -0.064, 1.004, 0.084, 192.0, 0.0, 0.0, 0.0, 0.0, 0.0, 0.0, 0.0, 0.0, 0.0, 1.695337864915973E9, 0.0, 2023-09-21 18:11:04.915
232.0, 25543.595915269365, 19342.976134178178, -53828.67799147106, -28195.608043147095, -33844.07268095883, -33059.302933133, -187500.02235174447, -48654.00328087846, -24073.454627210456, -27346.062939889784, -57223.79621550992, -65396.21983721493, -29655.042845611915, -53575.81270644817, -48787.13027085427, -32112.013651372632, -0.064, 1.004, 0.084, 192.0, 0.0, 0.0, 0.0, 0.0, 0.0, 0.0, 0.0, 0.0, 0.0, 1.695337864915977E9, 0.0, 2023-09-21 18:11:04.915
234.0, 25493.8185803674, 19356.387180851365, -53823.09005535723, -28178.263089449774, -33872.70526560608, -33038.87343870085, -187500.02235174447, -48636.703030670054, -24073.029944065805, -27347.627562001653, -57216.86717472877, -65392.75531682436, -29644.20224955109, -53516.06649351913, -48773.94274162564, -32078.664848645312, -0.064, 1.004, 0.084, 192.0, 0.0, 0.0, 0.0, 0.0, 0.0, 0.0, 0.0, 0.0, 0.0, 1.69533786491598E9, 0.0, 2023-09-21 18:11:04.915
236.0, 25527.793231939464, 19355.96249770671, -53822.866537912676, -28192.34468845662, -33839.423518112126, -33060.77814826705, -187500.02235174447, -48650.739926187984, -24070.683010897996, -27337.390463041123, -57212.262715370984, -65388.03909874429, -29654.662865956172, -53588.106165898585, -48787.19732608763, -32112.41598277283, -0.064, 1.004, 0.084, 192.0, 0.0, 0.0, 0.0, 0.0, 0.0, 0.0, 0.0, 0.0, 0.0, 1.695337864915984E9, 0.0, 2023-09-21 18:11:04.915
238.0, 25493.57271117839, 19368.859454257425, -53819.69259020002, -28172.09400798011, -33861.931724778624, -33037.77820322254, -187500.02235174447, -48634.892539369175, -24070.079513797704, -27337.524573507857, -57209.334636847336, -65387.41324989954, -29632.735804645516, -53518.34637145357, -48762.78922114244, -32070.461758430218, -0.07200000000000001, 1.008, 0.084, 192.0, 126.5, 96.0, 15.5, 64.0, 1.0, 80.0, 0.0, 0.0, 0.0, 1.695337864915987E9, 0.0, 2023-09-21 18:11:04.915
240.0, 25512.34817652085, 19356.923622718292, -53828.521529259866, -28193.797551846215, -33836.85306749977, -33062.96861922367, -187500.02235174447, -48654.7855919344, -24061.38468520459, -27331.489602504924, -57200.393939065216, -65378.76312479534, -29650.3489792763, -53602.634799794534, -48788.1137476103, -32116.752221197155, -0.07200000000000001, 1.008, 0.084, 192.0, 0.0, 0.0, 0.0, 0.0, 0.0, 0.0, 0.0, 0.0, 0.0, 1.695337864974814E9, 0.0, 2023-09-21 18:11:04.974
242.0, 25495.941996090653, 19379.0742014735, -53817.56917447677, -28166.975458499845, -33853.21454444105, -33030.62564499684, -187500.02235174447, -48627.24824276546, -24071.554728931755, -27339.98326539794, -57211.7039217596, -65388.55318886676, -29632.57934243433, -53514.52422315171, -48759.07883156286, -32062.6162961264, -0.07200000000000001, 1.008, 0.084, 192.0, 0.0, 0.0, 0.0, 0.0, 0.0, 0.0, 0.0, 0.0, 0.0, 1.695337864974829E9, 0.0, 2023-09-21 18:11:04.974
244.0, 25490.979908821573, 19372.391029881364, -53818.5526512328, -28181.459388906886, -33828.56057030685, -33053.13385166333, -187500.02235174447, -48645.68843194109, -24041.357522172635, -27320.87252388865, -57181.7972876784, -65359.74179026387, -29657.747406691007, -53612.24604991032, -48789.03016913297, -32122.608378244448, -0.07200000000000001, 1.008, 0.084, 192.0, 0.0, 0.0, 0.0, 0.0, 0.0, 0.0, 0.0, 0.0, 0.0, 1.695337864974833E9, 0.0, 2023-09-21 18:11:04.974
246.0, 25507.09551657385, 19376.21317818322, -53830.44377928302, -28182.666383107473, -33858.310742176865, -33054.6537702863, -187500.02235174447, -48651.90221689966, -24071.644135909577, -27342.50901252139, -57215.86134622829, -65390.85541854566, -29625.158563275167, -53510.143281238474, -48744.706659878095, -32055.64255185635, -0.07200000000000001, 1.008, 0.084, 192.0, 0.0, 0.0, 0.0, 0.0, 0.0, 0.0, 0.0, 0.0, 0.0, 1.695337864974836E9, 0.0, 2023-09-21 18:11:04.974
248.0, 25471.712705101098, 19382.829294541993, -53817.39036052112, -28174.463292892375, -33828.76173600695, -33047.68002601624, -187500.02235174447, -48639.80992314934, -24043.793862318264, -27330.014387370873, -57184.859476668775, -65359.69708677496, -29667.850395184803, -53597.73976775882, -48791.44415753415, -32116.9310351528, -0.068, 1.006, 0.082, 192.0, 126.5, 112.0, 15.5, 56.0, 1.0, 72.0, 0.0, 0.0, 0.0, 1.69533786497484E9, 0.0, 2023-09-21 18:11:04.974
250.0, 25507.877827629785, 19371.40755312533, -53847.43110506906, -28192.478798923352, -33867.92199229264, -33066.38843612533, -187500.02235174447, -48665.42502229512, -24065.65386839555, -27332.338968794225, -57216.48719507304, -65384.88750277609, -29614.72029861454, -53516.42412143041, -48743.812590099886, -32063.68917986026, -0.068, 1.006, 0.082, 192.0, 0.0, 0.0, 0.0, 0.0, 0.0, 0.0, 0.0, 0.0, 0.0, 1.695337864974844E9, 0.0, 2023-09-21 18:11:04.974
252.0, 25457.251126438514, 19383.701012575748, -53820.31843904477, -28166.371961399553, -33842.86568675825, -33045.802479481994, -187500.02235174447, -48637.99943184846, -24044.866746052117, -27330.148497837603, -57189.91097091568, -65359.74179026387, -29676.813444711384, -53592.53181130074, -48810.6219542768, -32117.467477019727, -0.068, 1.006, 0.082, 192.0, 0.0, 0.0, 0.0, 0.0, 0.0, 0.0, 0.0, 0.0, 0.0, 1.695337864974847E9, 0.0, 2023-09-21 18:11:04.974
254.0, 25508.637786941264, 19374.156817693332, -53850.94032894854, -28190.422438433463, -33871.38651268322, -33070.97054373867, -187500.02235174447, -48664.57565600582, -24062.725789871907, -27329.07561410375, -57216.93422996214, -65383.99343299788, -29622.230484751522, -53524.35899071205, -48755.72606989456, -32067.35486595093, -0.068, 1.006, 0.082, 192.0, 0.0, 0.0, 0.0, 0.0, 0.0, 0.0, 0.0, 0.0, 0.0, 1.695337864974851E9, 0.0, 2023-09-21 18:11:04.974
0.0, 25440.80024251941, 19367.339535634463, -53843.13957013364, -28184.67804010845, -33874.8957365627, -33060.44287210022, -187500.02235174447, -48655.74671694598, -24057.204908991447, -27345.99588465642, -57207.725311246555, -65378.89723526207, -29686.603508782806, -53578.897247183, -48811.828948477385, -32105.621052458413, -0.068, 1.006, 0.082, 192.0, 0.0, 0.0, 0.0, 0.0, 0.0, 0.0, 0.0, 0.0, 0.0, 1.695337865035157E9, 0.0, 2023-09-21 18:11:05.035
2.0, 25501.082897315373, 19361.997468709644, -53863.814933754795, -28204.928720584958, -33882.763550610965, -33078.99481999812, -187500.02235174447, -48672.644635754186, -24070.459493453443, -27344.163041611082, -57231.03818071344, -65399.81846807223, -29627.885476098716, -53526.59416515758, -48763.862104876294, -32065.276153716586, -0.058, 1.006, 0.08600000000000001, 192.0, 127.0, 24.0, 15.5, 56.0, 1.0, 88.0, 0.0, 0.0, 0.0, 1.695337865035173E9, 0.0, 2023-09-21 18:11:05.035
4.0, 25416.727413741042, 19360.276384386587, -53854.3601458502, -28192.0541157787, -33887.79269311341, -33064.57794482445, -187500.02235174447, -48661.11113561525, -24068.29137424128, -27359.585745285243, -57222.72333177607, -65393.403517413564, -29691.63265128525, -53564.36861328705, -48817.19336714666, -32098.513197721626, -0.058, 1.006, 0.08600000000000001, 192.0, 0.0, 0.0, 0.0, 0.0, 0.0, 0.0, 0.0, 0.0, 0.0, 1.695337865035177E9, 0.0, 2023-09-21 18:11:05.035
6.0, 25484.52025467399, 19368.099494945945, -53858.964605208, -28200.659537393993, -33874.35929469577, -33072.445758872724, -187500.02235174447, -48665.42502229512, -24072.202929520958, -27349.818032958276, -57234.54740459292, -65401.22662797292, -29645.073967584845, -53537.144188540486, -48779.32951203937, -32074.97681081019, -0.058, 1.006, 0.08600000000000001, 192.0, 0.0, 0.0, 0.0, 0.0, 0.0, 0.0, 0.0, 0.0, 0.0, 1.695337865035181E9, 0.0, 2023-09-21 18:11:05.035
8.0, 25400.343585055303, 19363.182111165777, -53852.773171993875, -28197.440886192428, -33882.38357095523, -33069.83060477145, -187500.02235174447, -48659.74767920347, -24061.876423582606, -27351.76263472589, -57215.481366572545, -65387.100325477164, -29682.669601758673, -53565.35209004308, -48814.86878572331, -32101.821255901014, -0.058, 1.006, 0.08600000000000001, 192.0, 0.0, 0.0, 0.0, 0.0, 0.0, 0.0, 0.0, 0.0, 0.0, 1.695337865035185E9, 0.0, 2023-09-21 18:11:05.035
10.0, 25477.27828947047, 19368.658288557326, -53860.193951153036, -28211.12015379908, -33871.90060280569, -33080.000648498615, -187500.02235174447, -48671.19177236459, -24077.679106912507, -27345.057111389295, -57234.12272144827, -65401.22662797292, -29644.515173973465, -53551.91869162544, -48782.63757021875, -32084.67746790379, -0.058, 1.006, 0.08600000000000001, 192.0, 0.0, 0.0, 0.0, 0.0, 0.0, 0.0, 0.0, 0.0, 0.0, 1.69533786503519E9, 0.0, 2023-09-21 18:11:05.035
12.0, 25387.424276760135, 19379.185960195777, -53844.592433523234, -28191.42826693395, -33881.33303896583, -33056.30779937599, -187500.02235174447, -48649.66704245413, -24065.65386839555, -27353.059035904294, -57218.208279396094, -65387.256787688355, -29675.62880225525, -53568.54838950019, -48814.198233389645, -32106.35866002544, -0.066, 1.01, 0.082, 192.0, 126.5, 120.0, 15.5, 72.0, 1.0, 72.0, 0.0, 0.0, 0.0, 1.695337865035193E9, 0.0, 2023-09-21 18:11:05.035
14.0, 25468.114074243793, 19373.419210126307, -53852.19202663804, -28204.884017096047, -33858.35544566577, -33070.635267571844, -187500.02235174447, -48663.413365294145, -24064.960964317437, -27339.916210164574, -57223.103311431805, -65391.79419181278, -29627.72901388753, -53591.03424442223, -48779.731843439564, -32107.722116437213, -0.066, 1.01, 0.082, 192.0, 0.0, 0.0, 0.0, 0.0, 0.0, 0.0, 0.0, 0.0, 0.0, 1.695337865096863E9, 0.0, 2023-09-21 18:11:05.096
16.0, 25387.35722152677, 19382.40461139734, -53847.65462251361, -28187.583766887637, -33885.08813203432, -33053.424424341254, -187500.02235174447, -48651.56694073283, -24062.18934800498, -27347.962838168485, -57211.27923861495, -65381.15476145205, -29655.936915390124, -53577.55614251568, -48790.907715667214, -32108.59383447097, -0.066, 1.01, 0.082, 192.0, 0.0, 0.0, 0.0, 0.0, 0.0, 0.0, 0.0, 0.0, 0.0, 1.695337865096877E9, 0.0, 2023-09-21 18:11:05.096
18.0, 25457.631106094257, 19368.30066064604, -53862.40677385411, -28211.790706132735, -33865.23978295801, -33080.60414559891, -187500.02235174447, -48681.384167836215, -24073.29816499927, -27344.252448588904, -57225.51729983298, -65391.36950866813, -29639.307217515376, -53602.366578861074, -48772.17695381367, -32111.007822872143, -0.066, 1.01, 0.082, 192.0, 0.0, 0.0, 0.0, 0.0, 0.0, 0.0, 0.0, 0.0, 0.0, 1.695337865096881E9, 0.0, 2023-09-21 18:11:05.096
20.0, 25384.853826147777, 19358.89057623036, -53868.62055881269, -28205.621624663072, -33898.94621359661, -33068.98123848215, -187500.02235174447, -48666.72142347353, -24087.04448783928, -27373.443826847535, -57231.57462258037, -65403.439450674, -29663.603563738296, -53561.194665574396, -48787.711416210106, -32091.338287751474, -0.066, 1.01, 0.082, 192.0, 0.0, 0.0, 0.0, 0.0, 0.0, 0.0, 0.0, 0.0, 0.0, 1.695337865096884E9, 0.0, 2023-09-21 18:11:05.096
22.0, 25444.33181814335, 19359.047038441546, -53868.2629309014, -28212.97534858887, -33868.81606207086, -33080.31357292099, -187500.02235174447, -48677.49496430099, -24088.273833784322, -27365.061922676796, -57233.04983771442, -65402.008939028856, -29662.329514304343, -53609.206212664394, -48792.07000637889, -32114.002956629152, -0.064, 1.014, 0.082, 192.0, 127.0, 0.0, 15.5, 88.0, 1.0, 72.0, 0.0, 0.0, 0.0, 1.695337865096888E9, 0.0, 2023-09-21 18:11:05.096
24.0, 25388.07247734934, 19370.245262413653, -53861.98209070946, -28195.183360002444, -33902.88012062074, -33053.33501736343, -187500.02235174447, -48656.19375183508, -24092.118333830636, -27367.65472503361, -57232.58045108086, -65400.19844772798, -29662.843604426816, -53553.840941648596, -48786.0126836315, -32089.080761561487, -0.064, 1.014, 0.082, 192.0, 0.0, 0.0, 0.0, 0.0, 0.0, 0.0, 0.0, 0.0, 0.0, 1.695337865096891E9, 0.0, 2023-09-21 18:11:05.096
26.0, 25438.810937262886, 19381.97992825269, -53846.22411086847, -28195.362173958085, -33848.788899038904, -33061.180479667244, -187500.02235174447, -48652.6845279556, -24066.167958518025, -27341.302018320803, -57208.73113974705, -65377.042040472275, -29658.77558693595, -53628.54047161824, -48790.46068077811, -32125.715270723736, -0.064, 1.014, 0.082, 192.0, 0.0, 0.0, 0.0, 0.0, 0.0, 0.0, 0.0, 0.0, 0.0, 1.695337865096895E9, 0.0, 2023-09-21 18:11:05.096
28.0, 25397.013175131462, 19379.185960195777, -53856.39415459563, -28191.875301823056, -33888.73146638054, -33050.63045628434, -187500.02235174447, -48647.610681964245, -24079.62370868012, -27357.104701650704, -57221.158709664196, -65390.609549356646, -29645.230429796033, -53556.16552307195, -48762.52100020898, -32084.87863360389, -0.064, 1.014, 0.082, 192.0, 0.0, 0.0, 0.0, 0.0, 0.0, 0.0, 0.0, 0.0, 0.0, 1.695337865096898E9, 0.0, 2023-09-21 18:11:05.096
30.0, 25431.56897205937, 19371.742829292158, -53855.38832609515, -28207.789743875237, -33862.0434835009, -33070.568212338476, -187500.02235174447, -48661.40170829317, -24066.77145561832, -27348.74514922442, -57209.200526380606, -65377.42202012802, -29662.73184570454, -53635.916547288485, -48789.70072146663, -32131.75024172667, -0.064, 1.014, 0.082, 192.0, 0.0, 0.0, 0.0, 0.0, 0.0, 0.0, 0.0, 0.0, 0.0, 1.695337865155767E9, 0.0, 2023-09-21 18:11:05.155
32.0, 25414.626349762246, 19382.91870151981, -53854.51660806139, -28192.277633223253, -33890.810178614876, -33051.83745048493, -187500.02235174447, -48652.081030855305, -24083.71407791544, -27360.524518552367, -57225.87492774426, -65394.67756684752, -29639.396624493198, -53542.93329035441, -48760.308177507904, -32077.01081955562, -0.066, 1.01, 0.08, 192.0, 126.5, 120.0, 15.5, 72.0, 1.0, 64.0, 0.0, 0.0, 0.0, 1.695337865155778E9, 0.0, 2023-09-21 18:11:05.155
34.0, 25420.482506809534, 19376.59315783896, -53852.19202663804, -28202.358269972596, -33857.684893332116, -33066.63430531434, -187500.02235174447, -48662.60870249375, -24058.613068892133, -27345.437091045034, -57201.95856117709, -65372.571691581215, -29663.894136416216, -53636.74356183333, -48791.22064008959, -32133.717195238736, -0.066, 1.01, 0.08, 192.0, 0.0, 0.0, 0.0, 0.0, 0.0, 0.0, 0.0, 0.0, 0.0, 1.695337865155781E9, 0.0, 2023-09-21 18:11:05.155
36.0, 25423.87997196674, 19370.893463002856, -53871.54863733633, -28210.87428461007, -33896.24165251752, -33070.8587850164, -187500.02235174447, -48668.91189443015, -24086.91037737255, -27366.93946921104, -57233.92155574817, -65404.2888169633, -29639.776604148938, -53543.715601410346, -48748.12647677976, -32076.16145326632, -0.066, 1.01, 0.08, 192.0, 0.0, 0.0, 0.0, 0.0, 0.0, 0.0, 0.0, 0.0, 0.0, 1.695337865155785E9, 0.0, 2023-09-21 18:11:05.155
38.0, 25408.658433992678, 19382.717535819716, -53854.00251793892, -28202.49238043933, -33864.70334109108, -33068.10952044839, -187500.02235174447, -48660.52999025941, -24058.836586336685, -27355.093044649726, -57203.947866433606, -65375.74563929387, -29683.07193315887, -53627.80286405121, -48794.32753256888, -32133.94071268329, -0.066, 1.01, 0.08, 192.0, 0.0, 0.0, 0.0, 0.0, 0.0, 0.0, 0.0, 0.0, 0.0, 1.695337865155788E9, 0.0, 2023-09-21 18:11:05.155
40.0, 25433.334759871337, 19394.005166769646, -53866.13951517815, -28200.100743782612, -33888.150321024696, -33060.08524418894, -187500.02235174447, -48661.11113561525, -24073.119351043624, -27360.904498208107, -57226.97016322258, -65396.555113381764, -29635.596827935795, -53546.06253457815, -48752.619177415276, -32082.1740725248, -0.066, 1.01, 0.08, 192.0, 0.0, 0.0, 0.0, 0.0, 0.0, 0.0, 0.0, 0.0, 0.0, 1.695337865155792E9, 0.0, 2023-09-21 18:11:05.155
42.0, 25399.538922254913, 19388.283120189088, -53861.06566918679, -28199.854874593602, -33869.687780104614, -33062.76745352357, -187500.02235174447, -48658.29481581388, -24056.24378397987, -27356.07652140576, -57206.674779257155, -65376.23737767189, -29680.434427313143, -53632.65319259801, -48799.602544260335, -32139.662759263847, -0.062, 1.004, 0.078, 192.0, 127.0, 8.0, 15.5, 48.0, 1.0, 56.0, 0.0, 0.0, 0.0, 1.695337865155795E9, 0.0, 2023-09-21 18:11:05.155
44.0, 25444.488280354533, 19380.70587881874, -53881.13753570766, -28213.19886603342, -33897.22512927355, -33075.91027926329, -187500.02235174447, -48674.85745845526, -24072.940537087983, -27361.575050541767, -57231.015828968986, -65397.51623839334, -29627.930179587627, -53558.177180072926, -48754.63083441625, -32086.73382839368, -0.062, 1.004, 0.078, 192.0, 0.0, 0.0, 0.0, 0.0, 0.0, 0.0, 0.0, 0.0, 0.0, 1.695337865216078E9, 0.0, 2023-09-21 18:11:05.216
46.0, 25395.135628597218, 19372.793361281558, -53873.38148038167, -28210.941339843434, -33891.27956524844, -33077.09492171943, -187500.02235174447, -48671.99643516498, -24071.308859742745, -27374.829635003764, -57222.49981433152, -65390.609549356646, -29685.396514582222, -53616.67169531247, -48807.0233234195, -32122.988357900187, -0.062, 1.004, 0.078, 192.0, 0.0, 0.0, 0.0, 0.0, 0.0, 0.0, 0.0, 0.0, 0.0, 1.695337865216091E9, 0.0, 2023-09-21 18:11:05.216
48.0, 25455.664152582187, 19398.18494298279, -53868.55350357932, -28201.643014150028, -33895.3028792504, -33069.383569882346, -187500.02235174447, -48669.694205486085, -24072.761723132342, -27369.532271567856, -57231.99930572502, -65398.05268026027, -29629.58420867732, -53553.61742420404, -48757.04482281743, -32075.91558407731, -0.062, 1.004, 0.078, 192.0, 0.0, 0.0, 0.0, 0.0, 0.0, 0.0, 0.0, 0.0, 0.0, 1.695337865216095E9, 0.0, 2023-09-21 18:11:05.216
50.0, 25390.330003539326, 19405.024576786112, -53855.99182319544, -28190.1542175, -33881.75772211048, -33058.83354649944, -187500.02235174447, -48655.12086810123, -24043.771510573806, -27359.36222784069, -57194.96246516258, -65363.25101414335, -29673.14775862071, -53623.84660528262, -48804.00583791803, -32129.06803239203, -0.062, 1.004, 0.078, 192.0, 0.0, 0.0, 0.0, 0.0, 0.0, 0.0, 0.0, 0.0, 0.0, 1.695337865216098E9, 0.0, 2023-09-21 18:11:05.216
52.0, 25462.32497242987, 19408.958483810246, -53862.80910525431, -28199.787819360237, -33877.533242408426, -33069.69649430472, -187500.02235174447, -48664.01686239444, -24059.350676459155, -27351.98615217044, -57217.49302357352, -65380.64067132958, -29622.1410777737, -53578.249046593795, -48758.45298271811, -32092.16530229632, -0.06, 1.006, 0.082, 192.0, 127.0, 16.0, 15.5, 56.0, 1.0, 72.0, 0.0, 0.0, 0.0, 1.695337865216101E9, 0.0, 2023-09-21 18:11:05.216
54.0, 25381.255195290472, 19414.099385034966, -53842.13374163315, -28180.52061563976, -33867.743178337005, -33048.618799283366, -187500.02235174447, -48645.46491449654, -24045.55965013023, -27350.443881803025, -57193.84487793981, -65359.27240363031, -29670.82317719736, -53622.23727968184, -48798.73082622657, -32127.34694806897, -0.06, 1.006, 0.082, 192.0, 0.0, 0.0, 0.0, 0.0, 0.0, 0.0, 0.0, 0.0, 0.0, 1.695337865216105E9, 0.0, 2023-09-21 18:11:05.216
56.0, 25465.588327120346, 19406.36568145343, -53865.33485237776, -28203.989947317834, -33873.91225980667, -33070.67997106075, -187500.02235174447, -48669.22481885253, -24068.559595174742, -27345.37003581167, -57222.79038700943, -65382.60762484165, -29619.28005448342, -53590.98954093332, -48746.45009594561, -32091.003011584642, -0.06, 1.006, 0.082, 192.0, 0.0, 0.0, 0.0, 0.0, 0.0, 0.0, 0.0, 0.0, 0.0, 1.695337865216108E9, 0.0, 2023-09-21 18:11:05.216
58.0, 25384.943233125596, 19415.999283313668, -53848.25811961391, -28182.129941240542, -33882.74119886651, -33046.07070041546, -187500.02235174447, -48645.48726624099, -24051.95224904445, -27349.706274236, -57197.734081475035, -65362.80397925425, -29666.308124817388, -53607.37336961906, -48787.93493365466, -32105.531645480594, -0.06, 1.006, 0.082, 192.0, 0.0, 0.0, 0.0, 0.0, 0.0, 0.0, 0.0, 0.0, 0.0, 1.695337865216112E9, 0.0, 2023-09-21 18:11:05.216
60.0, 25466.996487021028, 19414.926399579814, -53857.13176216266, -28198.692583881926, -33861.439986400605, -33057.47009008766, -187500.02235174447, -48652.706879700054, -24062.412865449533, -27339.826803186752, -57216.06251192839, -65378.76312479534, -29626.790240620405, -53605.719340529366, -48752.954453582104, -32091.11477030692, -0.06, 1.006, 0.082, 192.0, 0.0, 0.0, 0.0, 0.0, 0.0, 0.0, 0.0, 0.0, 0.0, 1.695337865275234E9, 0.0, 2023-09-21 18:11:05.275
62.0, 25385.144398825694, 19408.623207643417, -53854.62836678367, -28183.33693544113, -33886.250422745994, -33041.15331663529, -187500.02235174447, -48641.39689700567, -24058.43425493649, -27346.88995443463, -57208.08293915784, -65373.979851481905, -29662.73184570454, -53606.56870681867, -48776.78141317146, -32101.86595938992, -0.064, 1.01, 0.08600000000000001, 192.0, 127.0, 0.0, 15.5, 72.0, 1.0, 88.0, 0.0, 0.0, 0.0, 1.695337865275245E9, 0.0, 2023-09-21 18:11:05.275
64.0, 25464.671905597676, 19396.106230748443, -53854.7624772504, -28196.14448501402, -33860.680027089125, -33057.51479357658, -187500.02235174447, -48656.66313846864, -24056.512004913333, -27329.187372826025, -57216.241325884024, -65377.667889317025, -29636.75911864747, -53628.6075268516, -48753.46854370458, -32108.05739260404, -0.064, 1.01, 0.08600000000000001, 192.0, 0.0, 0.0, 0.0, 0.0, 0.0, 0.0, 0.0, 0.0, 0.0, 1.695337865275248E9, 0.0, 2023-09-21 18:11:05.275
66.0, 25386.083172092818, 19385.824428299, -53842.53607303335, -28174.73151382584, -33885.71398087907, -33034.33603457642, -187500.02235174447, -48634.71372541353, -24059.90947007054, -27347.515803279377, -57221.31517187538, -65386.40742139905, -29666.01755213947, -53600.86901198256, -48773.18278231416, -32100.033116344588, -0.064, 1.01, 0.08600000000000001, 192.0, 0.0, 0.0, 0.0, 0.0, 0.0, 0.0, 0.0, 0.0, 0.0, 1.695337865275252E9, 0.0, 2023-09-21 18:11:05.275
68.0, 25463.219042208082, 19361.1704541648, -53843.072514900276, -28198.089086781634, -33857.08139623182, -33060.77814826705, -187500.02235174447, -48653.265673311435, -24056.28848746878, -27329.07561410375, -57223.63975329873, -65389.02257550033, -29642.1458890612, -53640.85628281311, -48765.18085779916, -32114.315881051527, -0.064, 1.01, 0.08600000000000001, 192.0, 0.0, 0.0, 0.0, 0.0, 0.0, 0.0, 0.0, 0.0, 0.0, 1.695337865275255E9, 0.0, 2023-09-21 18:11:05.275
70.0, 25406.02092814695, 19343.534927789562, -53839.786808465346, -28189.595423888615, -33898.0521438184, -33051.81509874047, -187500.02235174447, -48649.085897098295, -24071.80059812076, -27357.171756884072, -57239.17421569517, -65407.395709442586, -29659.468491014064, -53582.20530536238, -48771.618160202284, -32082.308182991528, -0.064, 1.01, 0.08600000000000001, 192.0, 0.0, 0.0, 0.0, 0.0, 0.0, 0.0, 0.0, 0.0, 0.0, 1.695337865275259E9, 0.0, 2023-09-21 18:11:05.275
72.0, 25480.09460927184, 19329.49803227163, -53833.46126478449, -28197.53029317025, -33861.35057942278, -33070.47880536065, -187500.02235174447, -48657.80307743586, -24058.30014446976, -27340.989093898428, -57232.200471425116, -65399.214970971945, -29651.95830487708, -53637.81644556719, -48780.55885798441, -32108.45972400424, -0.06, 1.01, 0.094, 192.0, 127.0, 16.0, 15.5, 72.0, 1.0, 120.0, 0.0, 0.0, 0.0, 1.695337865275262E9, 0.0, 2023-09-21 18:11:05.275
74.0, 25442.99071347603, 19321.697273456728, -53823.04535186832, -28175.826749304146, -33893.246518760505, -33043.52260154756, -187500.02235174447, -48637.70885917054, -24076.114484800637, -27358.781082484853, -57248.629003599766, -65414.81648860175, -29649.2984472869, -53556.90313063897, -48775.261494548504, -32064.739711849656, -0.06, 1.01, 0.094, 192.0, 0.0, 0.0, 0.0, 0.0, 0.0, 0.0, 0.0, 0.0, 0.0, 1.695337865335144E9, 0.0, 2023-09-21 18:11:05.335
76.0, 25491.47164719959, 19317.361035032398, -53802.48174696943, -28173.457464391886, -33851.873439773735, -33046.92006670476, -187500.02235174447, -48633.01499283493, -24042.13983322857, -27323.97941636794, -57217.76124450699, -65380.77478179632, -29648.180860064134, -53644.43256192596, -48795.51217502501, -32117.221607830717, -0.06, 1.01, 0.094, 192.0, 0.0, 0.0, 0.0, 0.0, 0.0, 0.0, 0.0, 0.0, 0.0, 1.695337865335158E9, 0.0, 2023-09-21 18:11:05.335
78.0, 25483.536777917958, 19286.314461983977, -53835.718790974475, -28197.440886192428, -33908.065725334374, -33071.55168909451, -187500.02235174447, -48658.40657453616, -24076.494464456377, -27349.28159109135, -57253.166407724195, -65414.41415720155, -29637.899057614693, -53559.160656828964, -48769.047709589926, -32064.069159516, -0.06, 1.01, 0.094, 192.0, 0.0, 0.0, 0.0, 0.0, 0.0, 0.0, 0.0, 0.0, 0.0, 1.695337865335162E9, 0.0, 2023-09-21 18:11:05.335
80.0, 25515.119792833306, 19290.24836900811, -53815.244593053416, -28191.048287278212, -33868.860765559766, -33070.2552879161, -187500.02235174447, -48649.10824884275, -24072.85113011016, -27355.249506860913, -57249.41131465571, -65413.833011845716, -29680.233261613044, -53618.929221502454, -48810.75606474353, -32095.138084308874, -0.06, 1.01, 0.094, 192.0, 0.0, 0.0, 0.0, 0.0, 0.0, 0.0, 0.0, 0.0, 0.0, 1.695337865335166E9, 0.0, 2023-09-21 18:11:05.335
82.0, 25513.689281188166, 19298.652624923307, -53809.857822639686, -28175.33501092613, -33889.49142569202, -33050.988084195626, -187500.02235174447, -48637.95472835955, -24066.257365495847, -27342.911343921583, -57240.98470699605, -65403.99824428538, -29644.15754606218, -53541.07809556462, -48774.16625907019, -32051.596886109935, -0.056, 1.006, 0.096, 192.0, 127.0, 32.0, 15.5, 56.0, 1.5, 0.0, 0.0, 0.0, 0.0, 1.69533786533517E9, 0.0, 2023-09-21 18:11:05.335
84.0, 25521.71355744762, 19294.852828365903, -53798.72665390094, -28176.117321982067, -33851.76168105146, -33055.27961913105, -187500.02235174447, -48632.09857131226, -24050.208812976936, -27330.5508292378, -57221.71750327558, -65383.188770197485, -29672.20898535359, -53629.99333500783, -48804.78814897396, -32107.476247248203, -0.056, 1.006, 0.096, 192.0, 0.0, 0.0, 0.0, 0.0, 0.0, 0.0, 0.0, 0.0, 0.0, 1.695337865335174E9, 0.0, 2023-09-21 18:11:05.335
86.0, 25538.522069278013, 19292.014156820078, -53810.72954067344, -28174.664458592473, -33879.36608545376, -33050.11636616187, -187500.02235174447, -48633.99846959096, -24066.033848051295, -27336.94342815202, -57243.5104541195, -65401.80777332876, -29630.81355462236, -53548.3424125126, -48763.81740138739, -32059.15177573583, -0.056, 1.006, 0.096, 192.0, 0.0, 0.0, 0.0, 0.0, 0.0, 0.0, 0.0, 0.0, 0.0, 1.695337865335179E9, 0.0, 2023-09-21 18:11:05.335
88.0, 25528.039101128474, 19294.316386498976, -53796.55853468878, -28167.71306606687, -33843.402128625174, -33051.7033400182, -187500.02235174447, -48627.31529799882, -24050.94642054396, -27332.316617049768, -57223.99738121002, -65383.07701147521, -29679.406247068197, -53630.529776874755, -48804.81050071842, -32111.41015427234, -0.056, 1.006, 0.096, 192.0, 0.0, 0.0, 0.0, 0.0, 0.0, 0.0, 0.0, 0.0, 0.0, 1.695337865335184E9, 0.0, 2023-09-21 18:11:05.335
90.0, 25568.80868301495, 19294.249331265608, -53813.45645349699, -28174.642106848016, -33868.97252428204, -33057.000703454105, -187500.02235174447, -48641.19573130557, -24058.70247586995, -27326.192239069016, -57234.59210808184, -65389.80488655626, -29630.545333688897, -53549.52705496873, -48751.61334891479, -32058.883554802367, -0.056, 1.006, 0.096, 192.0, 0.0, 0.0, 0.0, 0.0, 0.0, 0.0, 0.0, 0.0, 0.0, 1.695337865395381E9, 0.0, 2023-09-21 18:11:05.395
92.0, 25534.163479109226, 19278.804275846993, -53823.11240710168, -28190.75771460029, -33864.92685853563, -33074.83739552944, -187500.02235174447, -48650.11407734324, -24068.71605738593, -27345.45944278949, -57237.430779627655, -65395.54928488127, -29690.78328499595, -53606.32283762966, -48801.971829172595, -32097.864997132423, -0.066, 0.998, 0.09, 192.0, 126.5, 120.0, 15.5, 24.0, 1.0, 104.0, 0.0, 0.0, 0.0, 1.695337865395399E9, 0.0, 2023-09-21 18:11:05.395
94.0, 25583.426723888722, 19285.86742709487, -53829.25913682689, -28190.556548900197, -33878.98610579802, -33066.075511702955, -187500.02235174447, -48650.24818780997, -24087.826798895218, -27347.35934106819, -57259.76017233851, -65417.47634619193, -29645.498650729496, -53534.059647805654, -48759.14588679623, -32050.43459539826, -0.066, 0.998, 0.09, 192.0, 0.0, 0.0, 0.0, 0.0, 0.0, 0.0, 0.0, 0.0, 0.0, 1.695337865395402E9, 0.0, 2023-09-21 18:11:05.395
96.0, 25517.958464379128, 19298.87614236786, -53799.46426146797, -28162.750978797794, -33853.10278571877, -33035.744194477105, -187500.02235174447, -48623.04611480786, -24068.671353897018, -27343.201916599504, -57230.54644233542, -65392.73296507991, -29692.794941996926, -53609.38502662004, -48809.437311820664, -32103.676450690804, -0.066, 0.998, 0.09, 192.0, 0.0, 0.0, 0.0, 0.0, 0.0, 0.0, 0.0, 0.0, 0.0, 1.695337865395406E9, 0.0, 2023-09-21 18:11:05.395
98.0, 25585.237215189605, 19307.369805260874, -53802.88407836963, -28169.52355736775, -33847.02311122693, -33037.77820322254, -187500.02235174447, -48621.86147235173, -24058.680124125498, -27315.038718585816, -57227.171328922675, -65386.56388361024, -29610.04878402338, -53581.98178791783, -48749.24406400252, -32079.15658702333, -0.066, 0.998, 0.09, 192.0, 0.0, 0.0, 0.0, 0.0, 0.0, 0.0, 0.0, 0.0, 0.0, 1.69533786539541E9, 0.0, 2023-09-21 18:11:05.395
100.0, 25516.751470178544, 19301.29013076903, -53799.10663355669, -28169.925888767946, -33850.59939033978, -33039.387528823325, -187500.02235174447, -48626.26476600942, -24058.52366191431, -27328.449765259, -57218.43179684065, -65381.51238936334, -29668.945630663115, -53630.44036989694, -48787.8678784213, -32112.326575795007, -0.066, 0.998, 0.09, 192.0, 0.0, 0.0, 0.0, 0.0, 0.0, 0.0, 0.0, 0.0, 0.0, 1.695337865395413E9, 0.0, 2023-09-21 18:11:05.395
102.0, 25593.90969203826, 19299.390232490332, -53809.47784298394, -28182.53227264074, -33844.85499201477, -33051.0998429179, -187500.02235174447, -48634.42315273561, -24069.878348097605, -27324.873486146153, -57235.79910228242, -65397.15861048205, -29619.034185294415, -53598.723244514855, -48744.147866266714, -32083.135197536376, -0.066, 1.002, 0.09, 192.0, 126.5, 120.0, 15.5, 40.0, 1.0, 104.0, 0.0, 0.0, 0.0, 1.695337865395417E9, 0.0, 2023-09-21 18:11:05.395
104.0, 25515.969159122607, 19295.456325466195, -53801.92295335805, -28167.802473044692, -33854.309779919364, -33036.77237472205, -187500.02235174447, -48618.28519323888, -24075.354525489158, -27348.23105910195, -57232.893375503234, -65398.96910178293, -29670.040866141426, -53614.95061098941, -48784.22454407508, -32097.082686076486, -0.066, 1.002, 0.09, 192.0, 0.0, 0.0, 0.0, 0.0, 0.0, 0.0, 0.0, 0.0, 0.0, 1.695337865455677E9, 0.0, 2023-09-21 18:11:05.455
106.0, 25598.849427562887, 19305.782831404547, -53800.78301439083, -28173.166891713965, -33832.002738952964, -33045.78012773754, -187500.02235174447, -48629.3269549998, -24063.217528249923, -27325.097003590705, -57227.640715556234, -65390.78836331229, -29616.106106770767, -53606.03226495174, -48753.42384021567, -32083.15754928083, -0.066, 1.002, 0.09, 192.0, 0.0, 0.0, 0.0, 0.0, 0.0, 0.0, 0.0, 0.0, 0.0, 1.695337865455689E9, 0.0, 2023-09-21 18:11:05.455
108.0, 25517.310263789925, 19303.927636614757, -53798.950171345496, -28164.136786954023, -33863.049312001385, -33037.10765088888, -187500.02235174447, -48625.14717878666, -24057.607240391644, -27337.301056063305, -57214.855517727796, -65379.768953295825, -29655.467528756566, -53609.765006275775, -48776.98257887156, -32096.76976165411, -0.066, 1.002, 0.09, 192.0, 0.0, 0.0, 0.0, 0.0, 0.0, 0.0, 0.0, 0.0, 0.0, 1.695337865455693E9, 0.0, 2023-09-21 18:11:05.455
110.0, 25594.53554088301, 19315.55054373152, -53797.25143876689, -28166.461368377375, -33832.51682907544, -33042.58382828043, -187500.02235174447, -48628.20936777704, -24055.28265896829, -27324.247637301403, -57220.19758465262, -65383.14406670858, -29622.923388829637, -53619.778587791756, -48751.94862508162, -32094.981622097686, -0.066, 1.002, 0.09, 192.0, 0.0, 0.0, 0.0, 0.0, 0.0, 0.0, 0.0, 0.0, 0.0, 1.695337865455697E9, 0.0, 2023-09-21 18:11:05.455
112.0, 25522.20529582564, 19315.259971053598, -53799.7995376348, -28157.453615361886, -33856.74612006499, -33032.77141246455, -187500.02235174447, -48617.43582694958, -24052.935725800482, -27336.92107640756, -57213.35795084929, -65380.327746907205, -29644.291656528912, -53608.06627369717, -48770.32175902388, -32092.321764507506, -0.066, 1.004, 0.08600000000000001, 192.0, 126.5, 120.0, 15.5, 48.0, 1.0, 88.0, 0.0, 0.0, 0.0, 1.6953378654557E9, 0.0, 2023-09-21 18:11:05.455
114.0, 25604.325604954436, 19310.923732629268, -53815.17753782005, -28180.76648482877, -33841.05519545737, -33055.68195053124, -187500.02235174447, -48643.78853366239, -24059.99887704836, -27330.774346682352, -57223.885622487745, -65386.474476632415, -29627.57255167634, -53624.42775063846, -48756.73189839505, -32091.092418562464, -0.066, 1.004, 0.08600000000000001, 192.0, 0.0, 0.0, 0.0, 0.0, 0.0, 0.0, 0.0, 0.0, 0.0, 1.695337865455704E9, 0.0, 2023-09-21 18:11:05.455
116.0, 25523.85932491533, 19330.59326774994, -53799.710130656975, -28151.128071681032, -33861.12706197823, -33017.5945779794, -187500.02235174447, -48613.5242716699, -24057.584888647187, -27341.927867165552, -57213.49206131602, -65380.953595751955, -29652.137118832725, -53584.17225887445, -48777.13904108275, -32076.116749777408, -0.066, 1.004, 0.08600000000000001, 192.0, 0.0, 0.0, 0.0, 0.0, 0.0, 0.0, 0.0, 0.0, 0.0, 1.695337865455708E9, 0.0, 2023-09-21 18:11:05.455
118.0, 25588.031183246516, 19321.04907286752, -53813.92584013055, -28179.134807483533, -33836.54014307739, -33052.82092724096, -187500.02235174447, -48642.31331852834, -24049.337094943177, -27317.78798315382, -57207.01005542398, -65370.69414504697, -29626.43261270912, -53639.29166070124, -48764.55500895441, -32106.001032114153, -0.066, 1.004, 0.08600000000000001, 192.0, 0.0, 0.0, 0.0, 0.0, 0.0, 0.0, 0.0, 0.0, 0.0, 1.695337865455712E9, 0.0, 2023-09-21 18:11:05.455
120.0, 25524.66398771572, 19315.39408152033, -53821.72659894545, -28174.887976037026, -33883.054123288886, -33037.130002633334, -187500.02235174447, -48630.35513524475, -24078.61788017963, -27351.89674519262, -57232.17811968066, -65399.32672969422, -29640.380101249233, -53563.11691559755, -48759.70468040761, -32064.739711849656, -0.066, 1.004, 0.08600000000000001, 192.0, 0.0, 0.0, 0.0, 0.0, 0.0, 0.0, 0.0, 0.0, 0.0, 1.695337865515923E9, 0.0, 2023-09-21 18:11:05.515
122.0, 25569.143959181783, 19314.50001174212, -53824.47586351346, -28185.1027232531, -33847.045462971386, -33054.29614237501, -187500.02235174447, -48646.15781857465, -24068.96192657494, -27343.827765444254, -57226.813701011386, -65391.79419181278, -29652.76296767747, -53625.23241343885, -48771.59580845783, -32097.59677619896, -0.068, 1.002, 0.08600000000000001, 192.0, 126.5, 112.0, 15.5, 40.0, 1.0, 88.0, 0.0, 0.0, 0.0, 1.695337865515934E9, 0.0, 2023-09-21 18:11:05.515
124.0, 25519.210162068626, 19334.616581751896, -53810.95305811799, -28152.849156004093, -33870.17951848263, -33029.463354285166, -187500.02235174447, -48625.54951018686, -24064.3798189616, -27343.112509621682, -57220.175232908165, -65385.22277894292, -29644.917505373658, -53560.72527894083, -48759.4588112186, -32064.739711849656, -0.068, 1.002, 0.08600000000000001, 192.0, 0.0, 0.0, 0.0, 0.0, 0.0, 0.0, 0.0, 0.0, 0.0, 1.695337865515938E9, 0.0, 2023-09-21 18:11:05.515
126.0, 25553.475386318612, 19324.714758958195, -53824.83349142474, -28186.309717453685, -33845.10086120378, -33063.48270934614, -187500.02235174447, -48643.36385051774, -24043.436234406978, -27322.07951808924, -57204.97604667855, -65367.74371477887, -29646.77270016345, -53647.53945440525, -48766.812535144396, -32118.607415986946, -0.068, 1.002, 0.08600000000000001, 192.0, 0.0, 0.0, 0.0, 0.0, 0.0, 0.0, 0.0, 0.0, 0.0, 1.695337865515941E9, 0.0, 2023-09-21 18:11:05.515
128.0, 25528.35202555085, 19327.374616548375, -53820.206680322495, -28166.439016632918, -33871.431216172125, -33033.95605492068, -187500.02235174447, -48625.95184158705, -24068.00080156336, -27351.89674519262, -57237.006096483005, -65403.975892540926, -29632.86991511225, -53551.471656736336, -48743.54436916642, -32062.146909492843, -0.068, 1.002, 0.08600000000000001, 192.0, 0.0, 0.0, 0.0, 0.0, 0.0, 0.0, 0.0, 0.0, 0.0, 1.695337865515945E9, 0.0, 2023-09-21 18:11:05.515
130.0, 25534.699920976152, 19333.45429104022, -53798.97252308995, -28153.832632760124, -33825.96776795003, -33029.172781607245, -187500.02235174447, -48619.98392581748, -24045.671408852508, -27321.587779711223, -57197.35410181929, -65360.0770664307, -29647.398549008198, -53648.56763465019, -48770.4111660017, -32119.680299720803, -0.068, 1.002, 0.08600000000000001, 192.0, 0.0, 0.0, 0.0, 0.0, 0.0, 0.0, 0.0, 0.0, 0.0, 1.695337865515949E9, 0.0, 2023-09-21 18:11:05.515
132.0, 25535.795156454464, 19333.811918951502, -53815.64692445361, -28161.76750204176, -33864.032788757424, -33037.68879624472, -187500.02235174447, -48623.068466552315, -24064.826853850707, -27327.533343736333, -57218.11887241827, -65378.85253177316, -29614.653243381174, -53561.12761034103, -48722.86900554526, -32059.554107136028, -0.062, 1.006, 0.088, 192.0, 127.0, 8.0, 15.5, 56.0, 1.0, 96.0, 0.0, 0.0, 0.0, 1.695337865515952E9, 0.0, 2023-09-21 18:11:05.515
134.0, 25530.922476163207, 19317.53984898804, -53820.72077044497, -28180.565319128673, -33852.85691652977, -33059.727616277654, -187500.02235174447, -48646.694260441574, -24064.737446872885, -27335.714082206978, -57219.951715463605, -65381.244168429876, -29668.699761474105, -53631.98264026435, -48763.392718242736, -32099.139046566375, -0.062, 1.006, 0.088, 192.0, 0.0, 0.0, 0.0, 0.0, 0.0, 0.0, 0.0, 0.0, 0.0, 1.695337865575473E9, 0.0, 2023-09-21 18:11:05.575
136.0, 25549.273258361016, 19330.77208170558, -53814.261116297384, -28164.114435209565, -33871.83354757232, -33040.61687476836, -187500.02235174447, -48633.216158535026, -24079.735467402395, -27343.51484102188, -57234.41329412619, -65394.69991859197, -29631.729976145027, -53540.295784508686, -48728.501645148, -32044.377272650872, -0.062, 1.006, 0.088, 192.0, 0.0, 0.0, 0.0, 0.0, 0.0, 0.0, 0.0, 0.0, 0.0, 1.695337865575492E9, 0.0, 2023-09-21 18:11:05.575
138.0, 25514.38218526628, 19345.278363857076, -53788.28838924031, -28145.786004756214, -33836.60719831076, -33024.36715654936, -187500.02235174447, -48614.73126587049, -24040.776376816797, -27325.119355335162, -57195.56596226287, -65360.88172923109, -29668.49859577401, -53634.84366355463, -48773.518058480986, -32111.566616483527, -0.062, 1.006, 0.088, 192.0, 0.0, 0.0, 0.0, 0.0, 0.0, 0.0, 0.0, 0.0, 0.0, 1.695337865575496E9, 0.0, 2023-09-21 18:11:05.575
140.0, 25560.091502677384, 19342.81967196699, -53801.47591846895, -28156.984228728325, -33852.83456478531, -33032.68200548673, -187500.02235174447, -48624.99071657547, -24046.498423397356, -27314.92695986354, -57206.8535932128, -65371.00706946934, -29609.66880436764, -53575.5444855147, -48715.917613019665, -32072.62987764238, -0.062, 1.006, 0.088, 192.0, 0.0, 0.0, 0.0, 0.0, 0.0, 0.0, 0.0, 0.0, 0.0, 1.695337865575499E9, 0.0, 2023-09-21 18:11:05.575
142.0, 25515.09744108885, 19335.756520719115, -53803.197002792, -28164.449711376397, -33848.431271127614, -33040.81804046846, -187500.02235174447, -48627.00237357645, -24033.154431957537, -27314.479924974436, -57188.21223833707, -65356.03140068429, -29661.234278826032, -53651.13808526255, -48762.25277927551, -32123.793020700577, -0.068, 1.0, 0.088, 192.0, 126.5, 112.0, 15.5, 32.0, 1.0, 96.0, 0.0, 0.0, 0.0, 1.695337865575503E9, 0.0, 2023-09-21 18:11:05.575
144.0, 25571.625002816323, 19339.489262043153, -53818.3514855327, -28175.647935348505, -33866.44677715859, -33052.46329932968, -187500.02235174447, -48643.408554006644, -24065.81033060674, -27327.01925361386, -57225.629058555256, -65388.41907840003, -29616.374327704234, -53567.833133677625, -48718.75628456548, -32063.91269730481, -0.068, 1.0, 0.088, 192.0, 0.0, 0.0, 0.0, 0.0, 0.0, 0.0, 0.0, 0.0, 0.0, 1.695337865575507E9, 0.0, 2023-09-21 18:11:05.575
146.0, 25507.609606696322, 19348.58642203646, -53795.61976142166, -28153.229135659833, -33843.960922236554, -33033.77724096504, -187500.02235174447, -48623.984888074985, -24036.998932003848, -27319.486715732422, -57192.7496424615, -65358.311278618734, -29670.93493591964, -53632.67554434247, -48779.530677739465, -32112.527741495105, -0.068, 1.0, 0.088, 192.0, 0.0, 0.0, 0.0, 0.0, 0.0, 0.0, 0.0, 0.0, 0.0, 1.69533786557551E9, 0.0, 2023-09-21 18:11:05.575
148.0, 25578.44228487519, 19338.39402656484, -53817.0997878432, -28174.440941147917, -33850.822907784335, -33057.559497065486, -187500.02235174447, -48647.58833021979, -24052.175766489003, -27315.463401730467, -57217.023636939964, -65380.260691673844, -29610.965205546046, -53585.40160481949, -48726.042953257915, -32073.948630565243, -0.068, 1.0, 0.088, 192.0, 0.0, 0.0, 0.0, 0.0, 0.0, 0.0, 0.0, 0.0, 0.0, 1.695337865575514E9, 0.0, 2023-09-21 18:11:05.575
150.0, 25497.439562969157, 19342.953782433724, -53796.82675562224, -28151.172775169944, -33851.113480462256, -33031.72088047515, -187500.02235174447, -48617.90521358314, -24048.75594958734, -27333.434204272537, -57208.619381024764, -65375.11979044912, -29670.957287664092, -53618.68335231345, -48771.55110496892, -32102.245939045664, -0.068, 1.0, 0.088, 192.0, 0.0, 0.0, 0.0, 0.0, 0.0, 0.0, 0.0, 0.0, 0.0, 1.695337865635162E9, 0.0, 2023-09-21 18:11:05.635
152.0, 25579.649279075777, 19340.048055654534, -53817.41271226558, -28178.754827827794, -33850.08530021731, -33059.928781977746, -187500.02235174447, -48650.22583606552, -24050.745254843863, -27317.765631409366, -57217.04598868442, -65379.32191840672, -29605.77960083242, -53597.87387822555, -48726.51233989148, -32077.34609572245, -0.074, 1.004, 0.09, 192.0, 126.5, 88.0, 15.5, 48.0, 1.0, 104.0, 0.0, 0.0, 0.0, 1.695337865635171E9, 0.0, 2023-09-21 18:11:05.635
154.0, 25489.750562876532, 19359.471721586197, -53789.227162507435, -28140.108661664566, -33850.331169406316, -33014.82296166694, -187500.02235174447, -48612.518443169414, -24040.061120994225, -27327.801564669797, -57200.393939065216, -65365.03915369978, -29658.59677298031, -53613.22952666635, -48777.07198584938, -32098.58025295499, -0.074, 1.004, 0.09, 192.0, 0.0, 0.0, 0.0, 0.0, 0.0, 0.0, 0.0, 0.0, 0.0, 1.695337865635174E9, 0.0, 2023-09-21 18:11:05.635
156.0, 25574.39661912878, 19356.230718640178, -53802.593505691715, -28161.499281108296, -33832.919160475634, -33038.98519742313, -187500.02235174447, -48637.77591440391, -24031.880382523585, -27299.437200956014, -57201.66798849917, -65361.41817109802, -29600.549292629876, -53624.36069540509, -48738.6046336418, -32098.35673551044, -0.074, 1.004, 0.09, 192.0, 0.0, 0.0, 0.0, 0.0, 0.0, 0.0, 0.0, 0.0, 0.0, 1.695337865635178E9, 0.0, 2023-09-21 18:11:05.635
158.0, 25492.85745535582, 19354.509634317117, -53801.677084169045, -28152.0444932037, -33857.662541587655, -33029.70922347417, -187500.02235174447, -48632.00916433444, -24037.84829829315, -27322.951236122997, -57200.97508442105, -65366.357906622645, -29643.643455939706, -53615.73292204535, -48765.38202349926, -32098.289680277074, -0.074, 1.004, 0.09, 192.0, 0.0, 0.0, 0.0, 0.0, 0.0, 0.0, 0.0, 0.0, 0.0, 1.695337865635181E9, 0.0, 2023-09-21 18:11:05.635
160.0, 25573.457845861656, 19353.436750583263, -53809.81311915078, -28168.405970144984, -33838.26122740045, -33045.55661029299, -187500.02235174447, -48643.05092609536, -24042.43040590649, -27313.407041240578, -57211.61451478178, -65374.82921777121, -29615.703775370574, -53629.38983790754, -48743.678479633156, -32095.16043605333, -0.074, 1.004, 0.09, 192.0, 0.0, 0.0, 0.0, 0.0, 0.0, 0.0, 0.0, 0.0, 0.0, 1.695337865635184E9, 0.0, 2023-09-21 18:11:05.635
162.0, 25497.171342035694, 19359.896404730847, -53802.52645045835, -28150.85985074757, -33864.256306201976, -33025.127115860836, -187500.02235174447, -48619.84981535075, -24043.5256413848, -27325.678148946543, -57204.32784608935, -65370.73884853588, -29642.570572205852, -53599.7514247598, -48765.02439558797, -32085.348020237452, -0.074, 1.006, 0.088, 192.0, 126.5, 88.0, 15.5, 56.0, 1.0, 96.0, 0.0, 0.0, 0.0, 1.695337865635188E9, 0.0, 2023-09-21 18:11:05.635
164.0, 25566.685267291698, 19361.1704541648, -53808.91904937256, -28165.321429410153, -33840.76462277945, -33047.34474984941, -187500.02235174447, -48642.805056906356, -24038.94353377146, -27309.54018944981, -57205.17721237865, -65369.30833689074, -29620.643510895196, -53638.509349645305, -48755.81547687238, -32103.095305334966, -0.074, 1.006, 0.088, 192.0, 0.0, 0.0, 0.0, 0.0, 0.0, 0.0, 0.0, 0.0, 0.0, 1.695337865695332E9, 0.0, 2023-09-21 18:11:05.695
166.0, 25499.5182752035, 19363.092704187955, -53809.32138077276, -28156.067807205654, -33866.42442541414, -33033.799592709496, -187500.02235174447, -48630.846873622766, -24042.408054162035, -27325.298169290803, -57202.74087223302, -65371.2305869139, -29628.600731921284, -53594.96815144637, -48758.207113529104, -32083.559880681027, -0.074, 1.006, 0.088, 192.0, 0.0, 0.0, 0.0, 0.0, 0.0, 0.0, 0.0, 0.0, 0.0, 1.695337865695343E9, 0.0, 2023-09-21 18:11:05.695
168.0, 25559.15272941026, 19363.696201288247, -53809.12021507266, -28171.602269602095, -33835.26609364344, -33052.39624409631, -187500.02235174447, -48643.073277839816, -24036.686007581477, -27314.189352296515, -57202.31618908837, -65368.19074966798, -29628.310159243367, -53643.94082354794, -48757.424802473164, -32105.39753501386, -0.074, 1.006, 0.088, 192.0, 0.0, 0.0, 0.0, 0.0, 0.0, 0.0, 0.0, 0.0, 0.0, 1.695337865695347E9, 0.0, 2023-09-21 18:11:05.695
170.0, 25503.832161883376, 19359.404666352828, -53815.736331431435, -28169.232984689832, -33878.33790520882, -33042.98615968063, -187500.02235174447, -48641.82158015032, -24048.75594958734, -27333.41185252808, -57215.14609040572, -65381.668851574526, -29625.91852258665, -53577.2432180933, -48748.282938990946, -32066.460796172716, -0.074, 1.006, 0.088, 192.0, 0.0, 0.0, 0.0, 0.0, 0.0, 0.0, 0.0, 0.0, 0.0, 1.69533786569535E9, 0.0, 2023-09-21 18:11:05.695
172.0, 25546.412235070737, 19362.936241976768, -53809.25432553939, -28177.48077839384, -33838.708262289554, -33057.000703454105, -187500.02235174447, -48644.70495518505, -24033.109728468626, -27318.570294209756, -57199.07518614235, -65364.21213915493, -29637.116746558757, -53649.10407651712, -48767.2595700335, -32108.392668770874, -0.07, 1.01, 0.092, 192.0, 126.5, 104.0, 15.5, 72.0, 1.0, 112.0, 0.0, 0.0, 0.0, 1.695337865695353E9, 0.0, 2023-09-21 18:11:05.695
174.0, 25506.268502029005, 19367.29483214555, -53819.64788671111, -28168.76359805627, -33881.713018621565, -33048.1494126498, -187500.02235174447, -48638.49117022648, -24059.551842159253, -27341.749053209907, -57221.4045788532, -65387.72617432191, -29628.265455754456, -53568.101354611084, -48747.63473840174, -32062.951572293234, -0.07, 1.01, 0.092, 192.0, 0.0, 0.0, 0.0, 0.0, 0.0, 0.0, 0.0, 0.0, 0.0, 1.695337865695357E9, 0.0, 2023-09-21 18:11:05.695
176.0, 25524.90985690473, 19379.744753807157, -53807.57794470525, -28168.160100955978, -33840.87638150172, -33046.27186611556, -187500.02235174447, -48638.379411504204, -24029.175821444493, -27313.138820307115, -57186.669967969654, -65350.823444226204, -29645.76687166296, -53660.257597000316, -48776.08850909335, -32122.921302666822, -0.07, 1.01, 0.092, 192.0, 0.0, 0.0, 0.0, 0.0, 0.0, 0.0, 0.0, 0.0, 0.0, 1.69533786569536E9, 0.0, 2023-09-21 18:11:05.695
178.0, 25504.346252005846, 19384.41626839832, -53818.82087216627, -28165.52259511025, -33877.98027729753, -33039.387528823325, -187500.02235174447, -48639.60875744924, -24050.18646123248, -27324.515858234867, -57204.37254957826, -65367.90017699006, -29615.659071881662, -53578.0478808937, -48743.18674125514, -32072.831043342478, -0.07, 1.01, 0.092, 192.0, 0.0, 0.0, 0.0, 0.0, 0.0, 0.0, 0.0, 0.0, 0.0, 1.695337865695363E9, 0.0, 2023-09-21 18:11:05.695
180.0, 25500.14412404825, 19386.0255939991, -53812.18240406304, -28169.38944690102, -33847.62660832723, -33048.328226605445, -187500.02235174447, -48640.34636501627, -24030.248705178346, -27315.17282905255, -57185.842953424806, -65349.03530466978, -29647.376197263744, -53664.795001124745, -48781.94466614064, -32126.02819514611, -0.07, 1.01, 0.092, 192.0, 0.0, 0.0, 0.0, 0.0, 0.0, 0.0, 0.0, 0.0, 0.0, 1.695337865755667E9, 0.0, 2023-09-21 18:11:05.755
182.0, 25501.105249059827, 19402.141201751376, -53810.01428485088, -28152.782100770724, -33871.006533027474, -33023.62954898233, -187500.02235174447, -48621.50384444044, -24054.56740314572, -27328.27095130336, -57211.435700826136, -65371.36469738063, -29617.693080627094, -53574.27043608075, -48742.58324415484, -32070.349999707938, -0.07, 1.008, 0.08600000000000001, 192.0, 126.5, 104.0, 15.5, 64.0, 1.0, 88.0, 0.0, 0.0, 0.0, 1.695337865755676E9, 0.0, 2023-09-21 18:11:05.755
184.0, 25483.08974302885, 19401.381242439897, -53805.253363281896, -28156.514842094763, -33842.0386722134, -33034.134868876325, -187500.02235174447, -48631.740943400975, -24013.864876492607, -27301.627671912633, -57169.66029043917, -65329.90221141603, -29646.549182718896, -53676.41790824151, -48776.7143579381, -32135.572390028527, -0.07, 1.008, 0.08600000000000001, 192.0, 0.0, 0.0, 0.0, 0.0, 0.0, 0.0, 0.0, 0.0, 0.0, 1.69533786575568E9, 0.0, 2023-09-21 18:11:05.755
186.0, 25506.827295640385, 19407.058585531544, -53812.92001163006, -28153.676170548937, -33859.58479161082, -33031.139735119315, -187500.02235174447, -48628.321126499315, -24033.936743013473, -27309.920169105553, -57192.615531994765, -65353.17037739401, -29605.019641520936, -53592.53181130074, -48729.038087014924, -32075.289735232564, -0.07, 1.008, 0.08600000000000001, 192.0, 0.0, 0.0, 0.0, 0.0, 0.0, 0.0, 0.0, 0.0, 0.0, 1.695337865755683E9, 0.0, 2023-09-21 18:11:05.755
188.0, 25467.5105771435, 19394.161628980833, -53815.91514538707, -28163.57799334264, -33849.347692650284, -33046.83065972694, -187500.02235174447, -48639.429943493604, -24021.397414374045, -27310.188390039017, -57176.38816552021, -65338.26176384232, -29649.790185664915, -53671.74639365034, -48772.266360791495, -32123.793020700577, -0.07, 1.008, 0.08600000000000001, 192.0, 0.0, 0.0, 0.0, 0.0, 0.0, 0.0, 0.0, 0.0, 0.0, 1.695337865755687E9, 0.0, 2023-09-21 18:11:05.755
190.0, 25506.96140610712, 19409.003187299157, -53809.589601706226, -28150.368112369553, -33851.62757058472, -33034.35838632088, -187500.02235174447, -48628.49994045495, -24038.38474016008, -27322.526552978346, -57199.03048265344, -65359.33945886367, -29601.644528108183, -53593.89526771251, -48737.3529359523, -32067.041941528554, -0.07, 1.008, 0.08600000000000001, 192.0, 0.0, 0.0, 0.0, 0.0, 0.0, 0.0, 0.0, 0.0, 0.0, 1.695337865755691E9, 0.0, 2023-09-21 18:11:05.755
192.0, 25451.685542069143, 19402.923512807312, -53804.26988652586, -28152.066844948156, -33842.642169313694, -33037.554685777985, -187500.02235174447, -48627.561167187836, -24015.69771953794, -27315.37399475265, -57171.247264295496, -65333.67965622898, -29644.470470484554, -53670.025309327284, -48777.22844806057, -32121.177866599308, -0.064, 1.002, 0.08, 192.0, 127.0, 0.0, 15.5, 40.0, 1.0, 64.0, 0.0, 0.0, 0.0, 1.695337865755695E9, 0.0, 2023-09-21 18:11:05.755
194.0, 25514.315130032915, 19408.39969019886, -53814.01524710837, -28161.454577619385, -33854.108614219265, -33044.01433992557, -187500.02235174447, -48636.16658880313, -24037.647132593054, -27318.16796280956, -57198.73990997552, -65357.30545011824, -29601.62217636373, -53601.807785249686, -48726.78056082494, -32068.40539794033, -0.064, 1.002, 0.08, 192.0, 0.0, 0.0, 0.0, 0.0, 0.0, 0.0, 0.0, 0.0, 0.0, 1.695337865815883E9, 0.0, 2023-09-21 18:11:05.815
196.0, 25440.397911119213, 19410.143126266375, -53807.6002964497, -28156.2466211613, -33857.12609972073, -33037.62174101135, -187500.02235174447, -48629.88574861119, -24022.71616729691, -27323.442974501013, -57181.03732836692, -65342.66505750002, -29652.271229299455, -53655.071992286685, -48772.62398870278, -32103.899968135356, -0.064, 1.002, 0.08, 192.0, 0.0, 0.0, 0.0, 0.0, 0.0, 0.0, 0.0, 0.0, 0.0, 1.695337865815904E9, 0.0, 2023-09-21 18:11:05.815
198.0, 25518.29374054596, 19405.516315164128, -53826.19694783651, -28176.474949893352, -33852.67810257412, -33059.302933133, -187500.02235174447, -48647.96830987553, -24028.862897022118, -27312.669433673556, -57194.60483725129, -65350.622278526105, -29598.202359462066, -53620.73971280333, -48732.480255661045, -32073.881575331878, -0.064, 1.002, 0.08, 192.0, 0.0, 0.0, 0.0, 0.0, 0.0, 0.0, 0.0, 0.0, 0.0, 1.695337865815907E9, 0.0, 2023-09-21 18:11:05.815
200.0, 25435.03349244994, 19398.900198805357, -53826.66633447008, -28170.395275401508, -33875.499233662995, -33047.97059869416, -187500.02235174447, -48638.06648708183, -24050.09705425466, -27350.041550402828, -57210.16165139218, -65372.21406366993, -29660.988409637026, -53622.907832015495, -48771.4616979911, -32077.234337000173, -0.064, 1.002, 0.08, 192.0, 0.0, 0.0, 0.0, 0.0, 0.0, 0.0, 0.0, 0.0, 0.0, 1.695337865815911E9, 0.0, 2023-09-21 18:11:05.815
202.0, 25503.161609549716, 19418.793251370582, -53816.138662831625, -28164.159138698476, -33846.53137284891, -33042.91910444726, -187500.02235174447, -48634.1772835466, -24027.70060631044, -27312.602378440188, -57193.28608432843, -65352.097493660156, -29604.57260663183, -53622.46079712639, -48744.66195638919, -32076.40732245533, -0.062, 1.002, 0.08, 192.0, 127.0, 8.0, 15.5, 40.0, 1.0, 64.0, 0.0, 0.0, 0.0, 1.695337865815915E9, 0.0, 2023-09-21 18:11:05.815
204.0, 25415.87804745174, 19423.04008281709, -53806.99679934941, -28151.977437970334, -33859.78595731091, -33024.702432716185, -187500.02235174447, -48615.11124552623, -24025.823059776194, -27321.16309656657, -57186.13352610273, -65345.7719499793, -29640.223639038046, -53638.33053568966, -48763.102145564815, -32094.26636627512, -0.062, 1.002, 0.08, 192.0, 0.0, 0.0, 0.0, 0.0, 0.0, 0.0, 0.0, 0.0, 0.0, 1.695337865815919E9, 0.0, 2023-09-21 18:11:05.815
206.0, 25503.22866478308, 19417.47449844772, -53827.336886803736, -28178.710124338882, -33848.67714031663, -33057.693607532216, -187500.02235174447, -48647.09659184177, -24027.007702232328, -27303.549921935788, -57192.973159906054, -65347.80595872473, -29601.19749321908, -53648.76880035029, -48734.35780219529, -32090.868901117912, -0.062, 1.002, 0.08, 192.0, 0.0, 0.0, 0.0, 0.0, 0.0, 0.0, 0.0, 0.0, 0.0, 1.695337865815922E9, 0.0, 2023-09-21 18:11:05.815
208.0, 25425.869277223264, 19413.27237049012, -53828.521529259866, -28169.680019578936, -33880.57307965435, -33048.86466847237, -187500.02235174447, -48645.934301130095, -24045.13496698558, -27338.440995030523, -57203.85845945579, -65364.16743566602, -29645.856278640782, -53618.2586691688, -48760.15171529671, -32080.832967857477, -0.062, 1.002, 0.08, 192.0, 0.0, 0.0, 0.0, 0.0, 0.0, 0.0, 0.0, 0.0, 0.0, 1.695337865815925E9, 0.0, 2023-09-21 18:11:05.815
210.0, 25502.692222916154, 19422.950675839267, -53821.681895456546, -28171.535214368727, -33845.36908213724, -33053.82675574145, -187500.02235174447, -48645.77783891891, -24033.735577313375, -27317.83268664273, -57197.01882565246, -65356.67960127349, -29621.2917114844, -53641.57153863568, -48746.49479943452, -32088.67843016129, -0.062, 1.002, 0.08, 192.0, 0.0, 0.0, 0.0, 0.0, 0.0, 0.0, 0.0, 0.0, 0.0, 1.695337865875553E9, 0.0, 2023-09-21 18:11:05.875
212.0, 25431.971303459562, 19412.646521645373, -53831.33784906124, -28168.875356778546, -33883.07647503334, -33047.85883997189, -187500.02235174447, -48644.77201041842, -24028.594676088655, -27327.823916414254, -57188.011072636975, -65352.432769826984, -29635.976807591538, -53613.698913299915, -48757.80478212891, -32083.068142303007, -0.064, 1.006, 0.08, 192.0, 127.0, 0.0, 15.5, 56.0, 1.0, 64.0, 0.0, 0.0, 0.0, 1.695337865875563E9, 0.0, 2023-09-21 18:11:05.875
214.0, 25494.690298401154, 19413.60764665695, -53831.91899441707, -28180.945298784412, -33856.81317529835, -33061.98514246764, -187500.02235174447, -48655.25497856796, -24039.74819657185, -27330.30496004879, -57202.29383734392, -65363.0274966988, -29631.327644744833, -53648.58998639465, -48759.16823854068, -32097.797941899058, -0.064, 1.006, 0.08, 192.0, 0.0, 0.0, 0.0, 0.0, 0.0, 0.0, 0.0, 0.0, 0.0, 1.695337865875567E9, 0.0, 2023-09-21 18:11:05.875
216.0, 25431.07723368135, 19419.620265915426, -53825.34758154721, -28159.71114155187, -33881.73537036603, -33038.962845678674, -187500.02235174447, -48634.55726320235, -24038.34003667117, -27337.189297341025, -57196.23651459653, -65357.90894721854, -29635.663883169163, -53605.451119595906, -48755.614311172285, -32079.402456212338, -0.064, 1.006, 0.08, 192.0, 0.0, 0.0, 0.0, 0.0, 0.0, 0.0, 0.0, 0.0, 0.0, 1.695337865875571E9, 0.0, 2023-09-21 18:11:05.875
218.0, 25488.252995998027, 19407.103289020455, -53831.04727638332, -28180.38650517303, -33848.1406984497, -33062.14160467882, -187500.02235174447, -48653.71270820054, -24038.027112248794, -27328.449765259, -57195.52125877396, -65355.94199370647, -29630.947665089094, -53665.62201566959, -48750.94279658113, -32104.79403791357, -0.064, 1.006, 0.08, 192.0, 0.0, 0.0, 0.0, 0.0, 0.0, 0.0, 0.0, 0.0, 0.0, 1.695337865875575E9, 0.0, 2023-09-21 18:11:05.875
220.0, 25440.777890774953, 19402.74469885167, -53844.50302654541, -28180.96765052887, -33894.27469900545, -33056.77718600955, -187500.02235174447, -48652.0363273664, -24057.696647369463, -27346.532326523346, -57213.84968922731, -65372.88461600359, -29636.37913899173, -53590.09547115511, -48744.281976733444, -32057.9671332797, -0.064, 1.006, 0.08, 192.0, 0.0, 0.0, 0.0, 0.0, 0.0, 0.0, 0.0, 0.0, 0.0, 1.695337865875578E9, 0.0, 2023-09-21 18:11:05.875
222.0, 25478.61939413779, 19402.521181407115, -53842.290203844335, -28192.81407509018, -33868.97252428204, -33076.223203685666, -187500.02235174447, -48669.9400746751, -24050.23116472139, -27337.524573507857, -57207.7029595021, -65363.921566477016, -29657.568592735362, -53659.98937606685, -48770.992311357535, -32098.133218065886, -0.07, 1.002, 0.08600000000000001, 192.0, 126.5, 104.0, 15.5, 40.0, 1.0, 88.0, 0.0, 0.0, 0.0, 1.695337865875582E9, 0.0, 2023-09-21 18:11:05.875
224.0, 25451.5067281135, 19407.863248331934, -53844.16775037858, -28183.851025563603, -33899.32619325235, -33062.34277037892, -187500.02235174447, -48658.00424313596, -24068.269022496825, -27355.808300472298, -57225.070264943875, -65382.22764518591, -29644.02343559545, -53568.660148222465, -48751.2557210035, -32047.99825525263, -0.07, 1.002, 0.08600000000000001, 192.0, 0.0, 0.0, 0.0, 0.0, 0.0, 0.0, 0.0, 0.0, 0.0, 1.695337865875586E9, 0.0, 2023-09-21 18:11:05.875
226.0, 25452.177280447162, 19433.254830033165, -53811.601258707204, -28159.24175491831, -33844.00562572546, -33039.85691545688, -187500.02235174447, -48632.18797829008, -24031.94743775695, -27329.656759459587, -57186.42409878065, -65346.442502312966, -29663.044770126915, -53666.18080928097, -48785.3644830423, -32114.114715351432, -0.07, 1.002, 0.08600000000000001, 192.0, 0.0, 0.0, 0.0, 0.0, 0.0, 0.0, 0.0, 0.0, 0.0, 1.695337865936116E9, 0.0, 2023-09-21 18:11:05.936
228.0, 25447.908097256197, 19418.435623459296, -53839.85386369871, -28177.547833627206, -33889.267908247464, -33057.73831102113, -187500.02235174447, -48659.16653384764, -24039.14469947156, -27325.36522452417, -57196.43768029662, -65355.56201405073, -29614.317967214345, -53599.99729394881, -48741.06332553188, -32073.412188698316, -0.07, 1.002, 0.08600000000000001, 192.0, 0.0, 0.0, 0.0, 0.0, 0.0, 0.0, 0.0, 0.0, 0.0, 1.695337865936128E9, 0.0, 2023-09-21 18:11:05.936
230.0, 25436.955742473096, 19412.534762923093, -53837.84220669773, -28182.375810429552, -33875.05219877389, -33067.39426462582, -187500.02235174447, -48656.05964136835, -24051.929897299993, -27344.587724755733, -57206.02657866795, -65366.67083104502, -29668.051560884902, -53667.656024415024, -48787.24202957655, -32109.86788390492, -0.07, 1.002, 0.08600000000000001, 192.0, 0.0, 0.0, 0.0, 0.0, 0.0, 0.0, 0.0, 0.0, 0.0, 1.695337865936131E9, 0.0, 2023-09-21 18:11:05.936
232.0, 25449.539774601435, 19431.958428854756, -53835.36116306319, -28171.37875215754, -33887.01038205747, -33046.8977149603, -187500.02235174447, -48639.20642604905, -24051.773435088806, -27334.775308939854, -57209.84872696981, -65368.861302001635, -29622.901037085183, -53595.146965402004, -48741.93504356564, -32065.72318860569, -0.07, 1.008, 0.08600000000000001, 192.0, 126.5, 104.0, 15.5, 64.0, 1.0, 88.0, 0.0, 0.0, 0.0, 1.695337865936135E9, 0.0, 2023-09-21 18:11:05.936
234.0, 25425.712815012077, 19419.396748470874, -53837.685744486545, -28185.303888953196, -33870.26892546045, -33065.89669774732, -187500.02235174447, -48659.25594082546, -24025.733652798375, -27321.520724477858, -57183.42896502364, -65344.74376973436, -29662.44127302662, -53687.7725944248, -48778.971884128085, -32129.470363792225, -0.07, 1.008, 0.08600000000000001, 192.0, 0.0, 0.0, 0.0, 0.0, 0.0, 0.0, 0.0, 0.0, 0.0, 1.695337865936139E9, 0.0, 2023-09-21 18:11:05.936
236.0, 25458.636934594746, 19426.616361929937, -53847.22993936896, -28180.632374362038, -33893.47003620506, -33058.2524011436, -187500.02235174447, -48648.57180697582, -24051.549917644254, -27348.432224802047, -57213.872040971764, -65377.44437187247, -29614.295615469888, -53597.538602058725, -48735.900072562705, -32075.15562476583, -0.07, 1.008, 0.08600000000000001, 192.0, 0.0, 0.0, 0.0, 0.0, 0.0, 0.0, 0.0, 0.0, 0.0, 1.695337865936143E9, 0.0, 2023-09-21 18:11:05.936
238.0, 25414.93927418462, 19419.486155448696, -53849.219244625485, -28189.617775633073, -33881.37774245474, -33070.434101871746, -187500.02235174447, -48655.791420434885, -24027.678254565988, -27337.189297341025, -57188.636921481724, -65352.365714593616, -29664.385874794232, -53679.122469320595, -48788.44902377713, -32135.728852239714, -0.07, 1.008, 0.08600000000000001, 192.0, 0.0, 0.0, 0.0, 0.0, 0.0, 0.0, 0.0, 0.0, 0.0, 1.695337865936146E9, 0.0, 2023-09-21 18:11:05.936
240.0, 25465.09658874233, 19428.337446252997, -53856.39415459563, -28186.28736570923, -33899.415600230175, -33065.89669774732, -187500.02235174447, -48658.07129836933, -24055.930859557495, -27352.723759737466, -57222.90214573171, -65385.46864813193, -29623.660996396662, -53593.73880550132, -48739.8563313313, -32076.854357344433, -0.07, 1.008, 0.08600000000000001, 192.0, 0.0, 0.0, 0.0, 0.0, 0.0, 0.0, 0.0, 0.0, 0.0, 1.695337865996346E9, 0.0, 2023-09-21 18:11:05.996
242.0, 25398.287224565414, 19442.664914448847, -53819.69259020002, -28156.71600779486, -33861.77526256743, -33036.370043321855, -187500.02235174447, -48623.31433574133, -24006.600559544633, -27322.16892506706, -57162.775953146935, -65329.20930733792, -29665.369351550264, -53680.35181526564, -48795.266305836005, -32144.423680832828, -0.068, 1.01, 0.082, 192.0, 126.5, 112.0, 15.5, 72.0, 1.0, 72.0, 0.0, 0.0, 0.0, 1.695337865996361E9, 0.0, 2023-09-21 18:11:05.996
244.0, 25473.813769079898, 19426.28108576311, -53857.9140732186, -28194.602214646606, -33888.66441114717, -33071.08230246095, -187500.02235174447, -48665.67089148413, -24041.08930123917, -27329.768518181863, -57205.28897110093, -65365.41913335552, -29607.232464222012, -53624.27128842727, -48729.52982539294, -32093.662869174826, -0.068, 1.01, 0.082, 192.0, 0.0, 0.0, 0.0, 0.0, 0.0, 0.0, 0.0, 0.0, 0.0, 1.695337865996365E9, 0.0, 2023-09-21 18:11:05.996
