%OpenBCI Raw EXG Data
%Number of channels = 16
%Sample Rate = 125 Hz
%Board = OpenBCI_GUI$BoardCytonSerialDaisy
Sample Index, EXG Channel 0, EXG Channel 1, EXG Channel 2, EXG Channel 3, EXG Channel 4, EXG Channel 5, EXG Channel 6, EXG Channel 7, EXG Channel 8, EXG Channel 9, EXG Channel 10, EXG Channel 11, EXG Channel 12, EXG Channel 13, EXG Channel 14, EXG Channel 15, Accel Channel 0, Accel Channel 1, Accel Channel 2, Other, Other, Other, Other, Other, Other, Other, Analog Channel 0, Analog Channel 1, Analog Channel 2, Timestamp, Other, Timestamp (Formatted)
0.0, 25211.538399641326, 19557.999915838234, -53417.00356209321, -27649.152594703748, -34235.33996764898, -32991.845368366885, -187500.02235174447, -48462.918217530045, 0.0, 0.0, 0.0, 0.0, 0.0, 0.0, 0.0, 0.0, 0.0, 0.0, 0.0, 192.0, 0.0, 0.0, 0.0, 0.0, 0.0, 0.0, 0.0, 0.0, 0.0, 1.695337911522435E9, 0.0, 2023-09-21 18:11:51.522
248.0, 25134.40252952606, 19552.389627979952, -53416.265954526185, -27643.721120801107, -34253.69074984679, -32986.61506016434, -187500.02235174447, -48453.73165055891, -23707.35540477698, -27053.29979101417, -56998.356520933696, -64732.90946875924, -29651.91360138817, -53115.65734334676, -48789.79012844445, -32780.24140360849, 0.0, 0.0, 0.0, 192.0, 0.0, 0.0, 0.0, 0.0, 0.0, 0.0, 0.0, 0.0, 0.0, 1.695337911522445E9, 0.0, 2023-09-21 18:11:51.522
250.0, 25221.864905579678, 19550.802654123625, -53428.9617453768, -27661.401350665255, -34248.818069555535, -33008.273900541535, -187500.02235174447, -48480.33022646073, -23717.771317693154, -27047.845965367076, -57018.67425664357, -64747.39339916628, -29617.603673649275, -53095.1831454257, -48760.21877053008, -32754.983932373994, 0.0, 0.0, 0.0, 192.0, 0.0, 0.0, 0.0, 0.0, 0.0, 0.0, 0.0, 0.0, 0.0, 1.69533791152245E9, 0.0, 2023-09-21 18:11:51.522
252.0, 25137.956456894455, 19544.030075553666, -53429.63229771046, -27650.337237159878, -34277.763578625156, -32992.38181023381, -187500.02235174447, -48466.22627570943, -23724.25332358519, -27069.325991788628, -57017.86959384318, -64747.95219277766, -29658.328552046845, -53076.787659738984, -48790.79595694494, -32751.18413581659, -0.031, 0.503, 0.034, 192.0, 127.0, 8.0, 15.5, 56.0, 1.0, 16.0, 0.0, 0.0, 0.0, 1.695337911522454E9, 0.0, 2023-09-21 18:11:51.522
254.0, 25214.824106076256, 19550.44502621234, -53432.068637856086, -27658.875603541805, -34247.275799188115, -33001.50132197158, -187500.02235174447, -48478.05034852628, -23723.69452997381, -27055.132634059508, -57024.44100671304, -64749.00272476706, -29631.215886022557, -53092.21036341314, -48781.341169040345, -32757.353217286258, -0.031, 0.503, 0.034, 192.0, 0.0, 0.0, 0.0, 0.0, 0.0, 0.0, 0.0, 0.0, 0.0, 1.695337911522458E9, 0.0, 2023-09-21 18:11:51.522
0.0, 25134.246067314874, 19566.985317109265, -53413.8072626361, -27630.24301889456, -34260.753901094664, -32970.27593496751, -187500.02235174447, -48440.58882481919, -23711.781050179132, -27057.39016024949, -57005.35261694821, -64735.52462286051, -29652.092415343814, -53081.10154641885, -48802.93295418417, -32763.16467084464, -0.031, 0.503, 0.034, 192.0, 0.0, 0.0, 0.0, 0.0, 0.0, 0.0, 0.0, 0.0, 0.0, 1.695337911522461E9, 0.0, 2023-09-21 18:11:51.522
2.0, 25208.811486817776, 19566.828854898078, -53426.123073830975, -27651.208955193637, -34235.40702288235, -32997.32154575844, -187500.02235174447, -48469.288464699806, -23703.30973903057, -27034.63608439399, -57002.20102098001, -64730.6295908248, -29617.603673649275, -53120.86529980485, -48782.72697719657, -32780.24140360849, -0.031, 0.503, 0.034, 192.0, 0.0, 0.0, 0.0, 0.0, 0.0, 0.0, 0.0, 0.0, 0.0, 1.695337911522465E9, 0.0, 2023-09-21 18:11:51.522
4.0, 25147.07596863222, 19541.61608715249, -53456.119114889996, -27670.09617925837, -34292.13575030991, -33013.48185699962, -187500.02235174447, -48484.80057535179, -23725.08033813004, -27061.234660295806, -57021.15530027811, -64753.42837016921, -29637.027339580934, -53065.29886308895, -48788.65018947723, -32754.96158062954, -0.031, 0.503, 0.034, 192.0, 0.0, 0.0, 0.0, 0.0, 0.0, 0.0, 0.0, 0.0, 0.0, 1.695337911522468E9, 0.0, 2023-09-21 18:11:51.522
6.0, 25200.31782392476, 19556.167072792898, -53435.063771613095, -27663.234193710592, -34250.7850230676, -33010.17379882024, -187500.02235174447, -48479.056177026774, -23731.22706785525, -27067.515500487745, -57029.112521304196, -64760.75974235055, -29648.225563553046, -53099.11705244983, -48804.072893151395, -32767.590316246788, -0.0485, 0.7545, 0.05, 192.0, 126.5, 120.0, 15.5, 56.0, 1.0, 8.0, 0.0, 0.0, 0.0, 1.695337911522472E9, 0.0, 2023-09-21 18:11:51.522
0.0, 12538.792197560335, 9789.84055397994, -26672.738989918114, -13765.232415823033, -17151.2981833575, -16471.60398621607, -93750.01117587223, -24195.696317636528, -11854.806465483483, -13529.91325019756, -28499.435305528084, -32367.516442241245, -14827.588478039323, -26540.282552275963, -24404.483962593553, -16384.67805202938, -0.05725, 0.87925, 0.056, 192.0, 126.5, 120.0, 15.5, 48.0, 0.5, 120.0, 0.0, 0.0, 0.0, 1.695337911686665E9, 0.0, 2023-09-21 18:11:51.686
2.0, 25136.83886967169, 19571.16509332241, -53356.78796253061, -27551.11784352277, -34276.26601174665, -32973.76280710254, -187500.02235174447, -48420.94164144297, -23642.06595922303, -26981.707153523825, -56953.72008725644, -64629.80087158691, -29499.87703560317, -53002.73633035855, -48755.211979772095, -32721.657481391132, -0.05725, 0.87925, 0.056, 192.0, 0.0, 0.0, 0.0, 0.0, 0.0, 0.0, 0.0, 0.0, 0.0, 1.69533791168668E9, 0.0, 2023-09-21 18:11:51.686
4.0, 25125.05950034374, 19577.334174792075, -53357.43616311982, -27539.60669512829, -34306.30675629458, -32963.01161801954, -187500.02235174447, -48413.29734483926, -23657.779235575108, -26994.71586879681, -56969.27690139734, -64646.430569461656, -29472.07146550077, -52912.56939322584, -48730.75917133799, -32669.153233665616, -0.05725, 0.87925, 0.056, 192.0, 0.0, 0.0, 0.0, 0.0, 0.0, 0.0, 0.0, 0.0, 0.0, 1.695337911686685E9, 0.0, 2023-09-21 18:11:51.686
6.0, 25122.421994498014, 19569.44400899935, -53351.4905990947, -27547.563916154377, -34281.5410234381, -32977.316734470936, -187500.02235174447, -48421.12045539862, -23644.09996796846, -26988.680897793878, -56954.167122145554, -64630.44907217611, -29499.005317569416, -52994.5555918879, -48764.39854674322, -32720.56224591282, -0.05725, 0.87925, 0.056, 192.0, 0.0, 0.0, 0.0, 0.0, 0.0, 0.0, 0.0, 0.0, 0.0, 1.695337911686691E9, 0.0, 2023-09-21 18:11:51.686
8.0, 25136.905924905055, 19576.14953233594, -53359.023136976146, -27545.574610897853, -34310.821808674555, -32970.946487301175, -187500.02235174447, -48421.90276645455, -23662.45075016627, -26995.945214741852, -56972.56260783227, -64647.23523226205, -29470.864471300185, -52904.8356896443, -48722.891357289715, -32667.94623946503, -0.064, 1.004, 0.056, 192.0, 127.0, 0.0, 15.5, 48.0, 0.5, 96.0, 0.0, 0.0, 0.0, 1.695337911686696E9, 0.0, 2023-09-21 18:11:51.686
10.0, 25113.63775892708, 19577.244767814253, -53347.042601948095, -27541.998331785006, -34282.90447984987, -32968.80071983346, -187500.02235174447, -48417.544176285766, -23647.788005803588, -26992.458342606824, -56953.809494234265, -64629.73381635354, -29514.65153868813, -52986.955998773105, -48769.02535784547, -32719.93639706807, -0.064, 1.004, 0.056, 192.0, 0.0, 0.0, 0.0, 0.0, 0.0, 0.0, 0.0, 0.0, 0.0, 1.695337911686708E9, 0.0, 2023-09-21 18:11:51.686
12.0, 25144.103186619664, 19577.06595385861, -53353.278738651126, -27544.769948097462, -34297.99190735721, -32972.131129757305, -187500.02235174447, -48428.96591770243, -23649.576145360013, -26979.829606989577, -56960.76088675987, -64635.54526991192, -29457.475776371455, -52919.207861329065, -48727.11583699177, -32680.306754148813, -0.064, 1.004, 0.056, 192.0, 0.0, 0.0, 0.0, 0.0, 0.0, 0.0, 0.0, 0.0, 0.0, 1.695337911686713E9, 0.0, 2023-09-21 18:11:51.686
14.0, 25103.355956477637, 19569.756933421726, -53350.37301187194, -27544.009988785983, -34283.73149439472, -32971.30411521246, -187500.02235174447, -48415.04078090678, -23650.000828504664, -26994.648813563446, -56956.35759310217, -64631.92428731016, -29518.831314901272, -52991.38164417525, -48773.85333464782, -32723.356213969735, -0.064, 1.004, 0.056, 192.0, 0.0, 0.0, 0.0, 0.0, 0.0, 0.0, 0.0, 0.0, 0.0, 1.695337911686719E9, 0.0, 2023-09-21 18:11:51.686
16.0, 25148.662942488547, 19592.39925055495, -53343.15339841288, -27529.816631056863, -34281.92100309384, -32957.580144116895, -187500.02235174447, -48411.71037098293, -23649.10675872645, -26981.39422910145, -56961.25262513789, -64633.33244721084, -29465.477700886455, -52927.723875966534, -48722.98076426754, -32678.5633180813, -0.064, 1.004, 0.056, 192.0, 0.0, 0.0, 0.0, 0.0, 0.0, 0.0, 0.0, 0.0, 0.0, 1.695337911746974E9, 0.0, 2023-09-21 18:11:51.746
18.0, 25094.795238351257, 19579.524645748694, -53352.67524155084, -27541.037206773428, -34286.97249734074, -32967.012580277034, -187500.02235174447, -48424.65203102255, -23642.133014456394, -26983.24942389124, -56947.32748834223, -64618.78146157044, -29504.012108327403, -52991.426347664164, -48759.4588112186, -32719.57876915679, -0.064, 1.008, 0.06, 192.0, 127.0, 0.0, 15.5, 64.0, 0.5, 112.0, 0.0, 0.0, 0.0, 1.695337911746991E9, 0.0, 2023-09-21 18:11:51.746
20.0, 25157.670695504035, 19595.170866867407, -53348.29429963759, -27533.124689236247, -34278.16591002535, -32958.25069645056, -187500.02235174447, -48413.00677216134, -23655.87933729641, -26979.47197907829, -56967.108782185176, -64635.83584258984, -29461.92377351806, -52928.5955940003, -48723.29368868991, -32672.103663933714, -0.064, 1.008, 0.06, 192.0, 0.0, 0.0, 0.0, 0.0, 0.0, 0.0, 0.0, 0.0, 0.0, 1.695337911746997E9, 0.0, 2023-09-21 18:11:51.746
22.0, 25086.033354524774, 19583.52560800619, -53353.03286946212, -27532.856468302783, -34285.07259906204, -32955.412024904734, -187500.02235174447, -48412.58208901669, -23639.853136521953, -26979.449627333837, -56943.21476736245, -64614.64638884621, -29495.40668671211, -52982.06096673739, -48760.934026352654, -32711.66625161961, -0.064, 1.008, 0.06, 192.0, 0.0, 0.0, 0.0, 0.0, 0.0, 0.0, 0.0, 0.0, 0.0, 1.695337911747003E9, 0.0, 2023-09-21 18:11:51.747
24.0, 25161.537547294804, 19598.434221557884, -53353.45755260677, -27535.628084615244, -34271.72860762222, -32958.34010342838, -187500.02235174447, -48414.616097762126, -23644.994037746674, -26968.43021731737, -56955.99996519089, -64622.55890638339, -29447.86452625567, -52948.913329710165, -48725.88649104673, -32682.117245449695, -0.064, 1.008, 0.06, 192.0, 0.0, 0.0, 0.0, 0.0, 0.0, 0.0, 0.0, 0.0, 0.0, 1.695337911747009E9, 0.0, 2023-09-21 18:11:51.747
26.0, 25080.57952887768, 19584.419677784404, -53364.63342483443, -27546.44632893161, -34297.947203868294, -32960.9776092741, -187500.02235174447, -48415.309001840236, -23646.849232536464, -26981.86361573501, -56950.523787799335, -64620.99428427152, -29504.23562577196, -52972.561475343886, -48757.11187805079, -32703.46316140451, -0.064, 1.008, 0.06, 192.0, 0.0, 0.0, 0.0, 0.0, 0.0, 0.0, 0.0, 0.0, 0.0, 1.695337911747022E9, 0.0, 2023-09-21 18:11:51.747
28.0, 25158.7882827268, 19589.001785397744, -53374.37878541694, -27557.666904648177, -34289.140616552904, -32975.99798154807, -187500.02235174447, -48427.71422001293, -23661.35551468796, -26986.691592537358, -56971.42266886505, -64641.46848219258, -29470.68565734454, -52946.52169305345, -48732.83788357233, -32679.055056459318, -0.062, 1.008, 0.056, 192.0, 127.0, 8.0, 15.5, 64.0, 0.5, 96.0, 0.0, 0.0, 0.0, 1.695337911747028E9, 0.0, 2023-09-21 18:11:51.747
30.0, 25069.96245026141, 19602.390480326474, -53348.22724440423, -27524.40750889868, -34294.21446254426, -32943.31973115441, -187500.02235174447, -48398.07580686519, -23644.211726690737, -26990.469037350304, -56945.04761040779, -64621.5530778829, -29508.482457218466, -52956.22235014705, -48774.47918349256, -32694.94714676704, -0.062, 1.008, 0.056, 192.0, 0.0, 0.0, 0.0, 0.0, 0.0, 0.0, 0.0, 0.0, 0.0, 1.695337911806283E9, 0.0, 2023-09-21 18:11:51.806
32.0, 25154.094416391184, 19588.174770852896, -53377.686843596326, -27560.952611083107, -34286.10077930698, -32986.6374119088, -187500.02235174447, -48441.70641204195, -23645.686941824788, -26972.744103997244, -56952.84836922269, -64626.917496552174, -29452.983075735938, -52970.28159740944, -48741.085677276336, -32691.79555079884, -0.062, 1.008, 0.056, 192.0, 0.0, 0.0, 0.0, 0.0, 0.0, 0.0, 0.0, 0.0, 0.0, 1.695337911806299E9, 0.0, 2023-09-21 18:11:51.806
34.0, 25061.021752479286, 19610.05712867464, -53355.513913096656, -27524.40750889868, -34303.42338125985, -32943.409138132236, -187500.02235174447, -48398.925173154494, -23647.54213661458, -26994.559406585624, -56947.77452323133, -64627.94567679712, -29500.16760828109, -52942.18545462912, -48774.05450034791, -32681.692562305045, -0.062, 1.008, 0.056, 192.0, 0.0, 0.0, 0.0, 0.0, 0.0, 0.0, 0.0, 0.0, 0.0, 1.695337911806305E9, 0.0, 2023-09-21 18:11:51.806
36.0, 25137.040035371785, 19601.518762292715, -53368.25440743619, -27552.34718946781, -34276.08719779101, -32979.64131589429, -187500.02235174447, -48429.36824910263, -23630.465403850725, -26963.937516681854, -56937.515072526345, -64613.841726045815, -29460.739131061928, -52988.833545307345, -48745.66778488967, -32699.350440424736, -0.062, 1.008, 0.056, 192.0, 0.0, 0.0, 0.0, 0.0, 0.0, 0.0, 0.0, 0.0, 0.0, 1.695337911806311E9, 0.0, 2023-09-21 18:11:51.806
38.0, 25061.53584260176, 19601.541114037173, -53369.014366747666, -27538.01972127196, -34312.94522439781, -32957.937772028185, -187500.02235174447, -48413.94554542846, -23646.91628776983, -27000.81789503311, -56953.29540411179, -64634.76295885599, -29486.26482322989, -52943.593614529804, -48755.74842163902, -32678.42920761457, -0.064, 1.012, 0.058, 192.0, 127.0, 0.0, 15.5, 80.0, 0.5, 104.0, 0.0, 0.0, 0.0, 1.695337911806316E9, 0.0, 2023-09-21 18:11:51.806
40.0, 25128.54637247877, 19591.952215665846, -53382.53717214313, -27562.07019830587, -34287.77716014113, -32981.697676384174, -187500.02235174447, -48433.99506020488, -23641.596572589468, -26985.19402565885, -56954.81532273476, -64633.06422627738, -29464.024837496858, -52990.7557953305, -48757.80478212891, -32696.243547945447, -0.064, 1.012, 0.058, 192.0, 0.0, 0.0, 0.0, 0.0, 0.0, 0.0, 0.0, 0.0, 0.0, 1.695337911806322E9, 0.0, 2023-09-21 18:11:51.806
42.0, 25063.122816458086, 19604.93857919438, -53374.46819239476, -27537.192706727114, -34316.09682036601, -32953.109795225835, -187500.02235174447, -48413.118530883614, -23647.38567440339, -27000.460267121827, -56955.26235762386, -64637.042836790424, -29482.97911679496, -52927.67917247763, -48759.34705249633, -32664.347608607724, -0.064, 1.012, 0.058, 192.0, 0.0, 0.0, 0.0, 0.0, 0.0, 0.0, 0.0, 0.0, 0.0, 1.695337911806328E9, 0.0, 2023-09-21 18:11:51.806
44.0, 25116.655244428548, 19595.01440465622, -53386.336968700525, -27564.037151817938, -34287.08425606302, -32984.17872001871, -187500.02235174447, -48438.82303700722, -23639.651970821855, -26986.222205903796, -56951.10493315518, -64630.27025822047, -29485.75073310742, -52997.39426343373, -48762.31983450888, -32701.85383580373, -0.064, 1.012, 0.058, 192.0, 0.0, 0.0, 0.0, 0.0, 0.0, 0.0, 0.0, 0.0, 0.0, 1.695337911806333E9, 0.0, 2023-09-21 18:11:51.806
46.0, 25068.71075257191, 19607.01729142872, -53386.60518963399, -27547.921544065663, -34320.5001140237, -32961.13407148529, -187500.02235174447, -48421.36632458762, -23652.414816905835, -27007.05403173614, -56962.72784027193, -64642.31784848188, -29487.717686619486, -52916.59270722779, -48755.23433151655, -32657.619733526677, -0.064, 1.012, 0.058, 192.0, 0.0, 0.0, 0.0, 0.0, 0.0, 0.0, 0.0, 0.0, 0.0, 1.695337911866816E9, 0.0, 2023-09-21 18:11:51.866
48.0, 25098.706793630936, 19600.132954136487, -53396.08232928304, -27569.446273976122, -34291.86752937645, -32986.168025275234, -187500.02235174447, -48439.717106785436, -23648.033874992594, -26994.33588914107, -56958.83863673671, -64634.338275711336, -29499.988794325447, -52995.06968201038, -48780.35769228431, -32699.6186613582, -0.062, 1.014, 0.062, 192.0, 127.0, 8.0, 15.5, 88.0, 0.5, 120.0, 0.0, 0.0, 0.0, 1.695337911866841E9, 0.0, 2023-09-21 18:11:51.866
50.0, 25068.95662176092, 19612.627579287004, -53389.28739896863, -27545.865183575774, -34316.02976513264, -32956.77548131651, -187500.02235174447, -48415.04078090678, -23654.87350879592, -27000.840246777567, -56965.11947692865, -64640.619115903275, -29482.085047016746, -52919.364323540256, -48762.49864846452, -32660.03372192785, -0.062, 1.014, 0.062, 192.0, 0.0, 0.0, 0.0, 0.0, 0.0, 0.0, 0.0, 0.0, 0.0, 1.695337911866847E9, 0.0, 2023-09-21 18:11:51.866
52.0, 25081.20537772243, 19598.322462835607, -53397.1552130169, -27563.321895995367, -34295.89084337841, -32984.44694095218, -187500.02235174447, -48441.46054285295, -23643.384712145893, -26987.406848359926, -56952.55779654477, -64625.9563715406, -29499.87703560317, -53008.36896996129, -48782.2128870741, -32712.672080120097, -0.062, 1.014, 0.062, 192.0, 0.0, 0.0, 0.0, 0.0, 0.0, 0.0, 0.0, 0.0, 0.0, 1.695337911866853E9, 0.0, 2023-09-21 18:11:51.866
54.0, 25075.68449684197, 19601.719927992814, -53410.2086317788, -27561.712570394586, -34335.81105897559, -32974.54511815848, -187500.02235174447, -48439.11360968514, -23677.62758465142, -27009.557427115134, -56984.2525701824, -64655.39361898824, -29481.861529572194, -52905.34977976677, -48752.753287882006, -32648.477870044455, -0.062, 1.014, 0.062, 192.0, 0.0, 0.0, 0.0, 0.0, 0.0, 0.0, 0.0, 0.0, 0.0, 1.695337911866858E9, 0.0, 2023-09-21 18:11:51.866
56.0, 25060.261793167807, 19605.40796582794, -53394.316541471075, -27558.516270937478, -34303.22221555975, -32977.60730714885, -187500.02235174447, -48439.91827248553, -23649.084406981994, -26991.854845506532, -56952.98247968942, -64624.45880466209, -29513.153971809625, -52999.00358903451, -48802.35180882834, -32710.70512660803, -0.062, 1.014, 0.062, 192.0, 0.0, 0.0, 0.0, 0.0, 0.0, 0.0, 0.0, 0.0, 0.0, 1.695337911866864E9, 0.0, 2023-09-21 18:11:51.866
58.0, 25077.20441546493, 19615.086271177086, -53401.916134585874, -27554.26943949097, -34325.46220129278, -32969.00188553356, -187500.02235174447, -48439.627699807614, -23669.82682583652, -26998.850941521043, -56977.81526777927, -64647.346990984326, -29472.429093412054, -52914.446939760084, -48762.09631706433, -32657.440919571036, -0.064, 1.014, 0.062, 192.0, 127.0, 0.0, 15.5, 88.0, 0.5, 120.0, 0.0, 0.0, 0.0, 1.695337911866869E9, 0.0, 2023-09-21 18:11:51.866
60.0, 25045.777862760766, 19614.438070587883, -53387.119279756465, -27548.5026894215, -34290.72759040923, -32968.510147155546, -187500.02235174447, -48424.8308449782, -23643.20589819025, -26982.712982024314, -56942.29834583979, -64615.69692083561, -29514.718593921494, -53013.375760719275, -48808.16326238671, -32724.04911804785, -0.064, 1.014, 0.062, 192.0, 0.0, 0.0, 0.0, 0.0, 0.0, 0.0, 0.0, 0.0, 0.0, 1.695337911927006E9, 0.0, 2023-09-21 18:11:51.927
62.0, 25083.127627745587, 19622.59645731407, -53394.09302402652, -27548.860317332783, -34310.263015063174, -32966.78906283248, -187500.02235174447, -48429.63647003609, -23667.21167173525, -26989.39615361645, -56969.343956630706, -64640.619115903275, -29462.661381085087, -52936.77633247094, -48751.143962281225, -32669.62262029918, -0.064, 1.014, 0.062, 192.0, 0.0, 0.0, 0.0, 0.0, 0.0, 0.0, 0.0, 0.0, 0.0, 1.695337911927024E9, 0.0, 2023-09-21 18:11:51.927
64.0, 25036.792461489735, 19619.958951468343, -53387.65572162339, -27550.69316037812, -34301.29996553659, -32967.929001799705, -187500.02235174447, -48423.48974031088, -23652.437168650293, -26991.094886195053, -56946.16519763055, -64620.94958078261, -29504.63795717215, -53012.16876651869, -48782.816384174395, -32715.175475499094, -0.064, 1.014, 0.062, 192.0, 0.0, 0.0, 0.0, 0.0, 0.0, 0.0, 0.0, 0.0, 0.0, 1.69533791192703E9, 0.0, 2023-09-21 18:11:51.927
66.0, 25092.671822628003, 19626.418605615927, -53389.600323391, -27552.101320278805, -34305.65855570538, -32967.0796355104, -187500.02235174447, -48429.211786891436, -23668.10574151346, -26994.15707518543, -56969.0980874417, -64640.93204032565, -29458.54866010531, -52939.86087320577, -48730.803874826895, -32659.251410871915, -0.064, 1.014, 0.062, 192.0, 0.0, 0.0, 0.0, 0.0, 0.0, 0.0, 0.0, 0.0, 0.0, 1.695337911927036E9, 0.0, 2023-09-21 18:11:51.927
68.0, 25025.348368328618, 19628.98905622829, -53378.290340696614, -27540.38900618422, -34301.79170391461, -32956.73077782759, -187500.02235174447, -48415.86779545162, -23641.350703400458, -26990.670203050402, -56935.81633994774, -64611.4500893891, -29504.16857053859, -53011.431158951666, -48784.67157896419, -32708.402896929136, -0.07, 1.002, 0.066, 192.0, 126.5, 104.0, 15.5, 40.0, 1.0, 8.0, 0.0, 0.0, 0.0, 1.695337911927042E9, 0.0, 2023-09-21 18:11:51.927
70.0, 25097.432744196984, 19626.68682654939, -53396.52936417215, -27561.578459927856, -34301.50113123669, -32977.69671412667, -187500.02235174447, -48434.41974334953, -23656.169909974327, -26985.037563447662, -56960.671479782046, -64629.39854018671, -29452.78191003584, -52964.514847339975, -48738.984613297536, -32669.913192977096, -0.07, 1.002, 0.066, 192.0, 0.0, 0.0, 0.0, 0.0, 0.0, 0.0, 0.0, 0.0, 0.0, 1.695337911927048E9, 0.0, 2023-09-21 18:11:51.927
72.0, 25016.31826356867, 19637.59447784358, -53383.63240762144, -27542.132442251735, -34303.80336091559, -32960.038836006985, -187500.02235174447, -48421.09810365416, -23645.463424380236, -26996.30284265314, -56944.6899824965, -64616.90391503619, -29510.136486308158, -53001.708150113605, -48786.57147724289, -32701.719725337, -0.07, 1.002, 0.066, 192.0, 0.0, 0.0, 0.0, 0.0, 0.0, 0.0, 0.0, 0.0, 0.0, 1.695337911927054E9, 0.0, 2023-09-21 18:11:51.927
74.0, 25095.331680218183, 19647.719818081834, -53391.18729724733, -27548.03330278794, -34294.08035207753, -32963.6821703532, -187500.02235174447, -48425.501397311855, -23636.947409742763, -26973.168787141894, -56947.05926740877, -64613.014711500975, -29451.954895490995, -52987.11246098429, -48747.90295933521, -32688.308678663812, -0.07, 1.002, 0.066, 192.0, 0.0, 0.0, 0.0, 0.0, 0.0, 0.0, 0.0, 0.0, 0.0, 1.69533791192706E9, 0.0, 2023-09-21 18:11:51.927
76.0, 25015.04421413472, 19649.060922749155, -53386.22520997825, -27532.744709580507, -34310.01714587416, -32948.9747225016, -187500.02235174447, -48408.648181992554, -23635.06986320852, -26990.267871650205, -56940.666668494545, -64609.05845273238, -29497.55245417982, -53000.59056289084, -48777.83194516086, -32697.294079934847, -0.07, 1.002, 0.066, 192.0, 0.0, 0.0, 0.0, 0.0, 0.0, 0.0, 0.0, 0.0, 0.0, 1.695337911986369E9, 0.0, 2023-09-21 18:11:51.986
78.0, 25098.01388955282, 19640.142576711485, -53406.23002126575, -27560.326762238357, -34303.60219521549, -32980.66949613923, -187500.02235174447, -48441.39348761958, -23638.40027313236, -26977.974412199786, -56954.54710180129, -64616.88156329174, -29456.29113391532, -52993.41565292069, -48742.87381683276, -32678.22804191447, -0.064, 1.008, 0.066, 192.0, 127.0, 0.0, 15.5, 64.0, 1.0, 8.0, 0.0, 0.0, 0.0, 1.695337911986396E9, 0.0, 2023-09-21 18:11:51.986
80.0, 25010.596216988113, 19640.36609415604, -53401.96083807479, -27549.46381443308, -34323.56230301408, -32963.279838953, -187500.02235174447, -48424.85319672265, -23648.458558137245, -27004.483581123783, -56959.79976174829, -64623.631790117244, -29509.577692696774, -52975.8024782899, -48776.64730270473, -32674.338838379248, -0.064, 1.008, 0.066, 192.0, 0.0, 0.0, 0.0, 0.0, 0.0, 0.0, 0.0, 0.0, 0.0, 1.6953379119864E9, 0.0, 2023-09-21 18:11:51.986
82.0, 25088.581453392682, 19640.634315089505, -53402.31846598607, -27561.377294227757, -34288.58182294152, -32977.361437959844, -187500.02235174447, -48433.45861833794, -23638.601438832455, -26986.892758237453, -56956.08937216871, -64618.02150225896, -29468.24931719891, -52996.67900761116, -48755.055517560904, -32678.47391110348, -0.064, 1.008, 0.066, 192.0, 0.0, 0.0, 0.0, 0.0, 0.0, 0.0, 0.0, 0.0, 0.0, 1.695337911986403E9, 0.0, 2023-09-21 18:11:51.986
84.0, 25005.81294367468, 19648.725646582323, -53389.37680594645, -27537.25976196048, -34308.74309644021, -32948.05830097894, -187500.02235174447, -48410.30221108225, -23636.12039519792, -26998.426258376392, -56946.83574996421, -64614.69109233512, -29494.22204425598, -52970.90744625419, -48770.83584914635, -32672.08131218926, -0.064, 1.008, 0.066, 192.0, 0.0, 0.0, 0.0, 0.0, 0.0, 0.0, 0.0, 0.0, 0.0, 1.695337911986407E9, 0.0, 2023-09-21 18:11:51.986
86.0, 25081.563005633714, 19639.44967263337, -53399.837422351535, -27560.259707004992, -34282.83742461651, -32974.299248969466, -187500.02235174447, -48429.52471131381, -23628.96783697222, -26979.67314477839, -56944.377058074126, -64608.96904575456, -29463.86837528567, -53014.02396130848, -48750.96514832558, -32688.018105985895, -0.064, 1.008, 0.066, 192.0, 0.0, 0.0, 0.0, 0.0, 0.0, 0.0, 0.0, 0.0, 0.0, 1.695337911986411E9, 0.0, 2023-09-21 18:11:51.986
88.0, 25021.369757815573, 19632.25241091876, -53405.31359974309, -27557.376331970256, -34324.389317558926, -32963.4810046531, -187500.02235174447, -48424.27205136682, -23653.219479706226, -27012.932540527887, -56964.42657285054, -64632.17015649917, -29486.868320330184, -52943.124227896245, -48758.18476178465, -32650.93656193454, -0.062, 1.004, 0.07200000000000001, 192.0, 127.0, 8.0, 15.5, 48.0, 1.0, 32.0, 0.0, 0.0, 0.0, 1.695337911986414E9, 0.0, 2023-09-21 18:11:51.986
90.0, 25076.846787553644, 19635.158137697952, -53401.42439620786, -27568.060465819894, -34291.241680531704, -32980.04364729448, -187500.02235174447, -48435.11264742764, -23643.608229590445, -26997.174560686897, -56956.961090202465, -64621.888354049726, -29480.006334782403, -52991.87338255327, -48771.841677646844, -32678.809187270308, -0.062, 1.004, 0.07200000000000001, 192.0, 0.0, 0.0, 0.0, 0.0, 0.0, 0.0, 0.0, 0.0, 0.0, 1.695337912046137E9, 0.0, 2023-09-21 18:11:52.046
92.0, 25021.03448164874, 19632.788852785692, -53411.08034981255, -27565.847643118817, -34333.57588453006, -32975.39448444778, -187500.02235174447, -48435.49262708338, -23654.359418673448, -27014.184238217385, -56963.77837226133, -64629.84557507582, -29481.369791194178, -52927.76857945545, -48769.807668901405, -32647.673207244065, -0.062, 1.004, 0.07200000000000001, 192.0, 0.0, 0.0, 0.0, 0.0, 0.0, 0.0, 0.0, 0.0, 0.0, 1.695337912046151E9, 0.0, 2023-09-21 18:11:52.046
94.0, 25063.100464713632, 19635.64987607597, -53406.63235266595, -27577.157625813205, -34300.71882018075, -32988.47025495413, -187500.02235174447, -48451.362365646644, -23654.225308206715, -27013.40192716145, -56964.38186936163, -64631.90193556571, -29493.797361111327, -52988.05123425141, -48789.20898308861, -32682.676039061076, -0.062, 1.004, 0.07200000000000001, 192.0, 0.0, 0.0, 0.0, 0.0, 0.0, 0.0, 0.0, 0.0, 0.0, 1.695337912046155E9, 0.0, 2023-09-21 18:11:52.046
96.0, 25027.225914862862, 19657.80045483118, -53384.57118088856, -27542.51242190748, -34318.42140178936, -32948.88531552378, -187500.02235174447, -48415.15253962905, -23633.86286900793, -27003.455400878836, -56941.091351639196, -64612.724138823054, -29470.283325944347, -52932.10481787978, -48776.669654449186, -32661.84421322873, -0.062, 1.004, 0.07200000000000001, 192.0, 0.0, 0.0, 0.0, 0.0, 0.0, 0.0, 0.0, 0.0, 0.0, 1.695337912046158E9, 0.0, 2023-09-21 18:11:52.046
98.0, 25061.58054609067, 19648.099797737577, -53388.05805302359, -27558.538622681932, -34288.98415434172, -32972.198184990666, -187500.02235174447, -48427.960089201944, -23622.172906657805, -26989.843188505554, -56927.30032531027, -64598.84370551631, -29487.31535521929, -53013.57692641937, -48781.78820392945, -32706.905330050628, -0.062, 1.002, 0.07200000000000001, 192.0, 127.0, 8.0, 15.5, 40.0, 1.0, 32.0, 0.0, 0.0, 0.0, 1.695337912046162E9, 0.0, 2023-09-21 18:11:52.046
100.0, 25045.15201391602, 19653.128940240018, -53398.98805606223, -27553.956515068596, -34323.87522743645, -32962.81045231944, -187500.02235174447, -48421.187510631986, -23643.563526101534, -27003.500104367748, -56949.13797964311, -64621.463670905076, -29472.943183534528, -52924.54992825389, -48746.22657850106, -32656.457442815, -0.062, 1.002, 0.07200000000000001, 192.0, 0.0, 0.0, 0.0, 0.0, 0.0, 0.0, 0.0, 0.0, 0.0, 1.695337912046165E9, 0.0, 2023-09-21 18:11:52.046
102.0, 25038.267676623786, 19669.356306714573, -53375.026986006145, -27541.573648640355, -34278.59059317, -32953.33331267039, -187500.02235174447, -48410.57043201571, -23614.34979609845, -26993.017136218208, -56922.87467990812, -64598.463725860565, -29498.535930935854, -53016.77322587648, -48787.04086387645, -32712.71678360901, -0.062, 1.002, 0.07200000000000001, 192.0, 0.0, 0.0, 0.0, 0.0, 0.0, 0.0, 0.0, 0.0, 0.0, 1.695337912046169E9, 0.0, 2023-09-21 18:11:52.046
104.0, 25051.410502363506, 19658.426303675926, -53400.23975375173, -27559.700913393608, -34316.208579088285, -32974.52276641402, -187500.02235174447, -48440.745287030375, -23625.57037181501, -26992.793618773656, -56936.37513355913, -64611.338330666826, -29450.747901290408, -52943.124227896245, -48742.896168577216, -32667.163928409092, -0.062, 1.002, 0.07200000000000001, 192.0, 0.0, 0.0, 0.0, 0.0, 0.0, 0.0, 0.0, 0.0, 0.0, 1.695337912046173E9, 0.0, 2023-09-21 18:11:52.046
106.0, 25031.33863584264, 19664.528329912227, -53381.91132329838, -27548.07800627685, -34284.804378128574, -32961.357588929844, -187500.02235174447, -48419.60053677566, -23625.369206114916, -27005.981148002287, -56931.21188058995, -64608.7008248211, -29501.843989115237, -53014.44864445313, -48786.14679409824, -32707.19590272855, -0.062, 1.002, 0.07200000000000001, 192.0, 0.0, 0.0, 0.0, 0.0, 0.0, 0.0, 0.0, 0.0, 0.0, 1.695337912106471E9, 0.0, 2023-09-21 18:11:52.106
108.0, 25059.412426878505, 19679.034612063722, -53385.26408496667, -27543.406491685688, -34303.825712660044, -32957.870716794816, -187500.02235174447, -48421.36632458762, -23627.604380560446, -26995.453476363837, -56936.30807832576, -64611.0030545, -29448.713892544973, -52941.42549531764, -48742.38207845474, -32658.022064926874, -0.068, 1.006, 0.07, 192.0, 126.5, 112.0, 15.5, 56.0, 1.0, 24.0, 0.0, 0.0, 0.0, 1.695337912106484E9, 0.0, 2023-09-21 18:11:52.106
110.0, 25023.403766561005, 19677.604100418583, -53373.9988057612, -27543.562953896875, -34284.469101961746, -32965.02327502052, -187500.02235174447, -48423.1768158885, -23603.643310504354, -26982.176540157383, -56904.27802852131, -64582.5939872973, -29491.964518065994, -53032.665316184204, -48788.627837732776, -32719.176437756592, -0.068, 1.006, 0.07, 192.0, 0.0, 0.0, 0.0, 0.0, 0.0, 0.0, 0.0, 0.0, 0.0, 1.695337912106488E9, 0.0, 2023-09-21 18:11:52.106
112.0, 25078.05378175423, 19674.56426317266, -53392.28253272564, -27559.96913432707, -34300.607061458475, -32977.11556877084, -187500.02235174447, -48439.068906196226, -23628.72196778321, -26988.189159415862, -56935.302249825276, -64611.11481322227, -29440.86843024116, -52952.847236734306, -48727.42876141414, -32661.017198683883, -0.068, 1.006, 0.07, 192.0, 0.0, 0.0, 0.0, 0.0, 0.0, 0.0, 0.0, 0.0, 0.0, 1.695337912106491E9, 0.0, 2023-09-21 18:11:52.106
114.0, 25020.498039781814, 19677.291175996208, -53380.01142501968, -27547.16158475418, -34294.5944422, -32962.274010452515, -187500.02235174447, -48419.60053677566, -23623.670473536313, -27003.14247645646, -56926.473310765425, -64603.93990325212, -29498.871207102682, -53007.18432750516, -48775.395605015234, -32697.271728190393, -0.068, 1.006, 0.07, 192.0, 0.0, 0.0, 0.0, 0.0, 0.0, 0.0, 0.0, 0.0, 0.0, 1.695337912106495E9, 0.0, 2023-09-21 18:11:52.106
116.0, 25083.641717868057, 19675.056001550674, -53399.12216652896, -27559.656209904697, -34301.255262047685, -32973.78515884699, -187500.02235174447, -48437.34782187317, -23634.15344168585, -26994.71586879681, -56944.80174121878, -64619.89904879321, -29442.20953490848, -52954.32245186836, -48727.942851536616, -32657.195050382026, -0.068, 1.006, 0.07, 192.0, 0.0, 0.0, 0.0, 0.0, 0.0, 0.0, 0.0, 0.0, 0.0, 1.695337912106498E9, 0.0, 2023-09-21 18:11:52.106
118.0, 25011.020900132764, 19677.51469344076, -53381.28547445363, -27542.64653237421, -34293.36509625496, -32951.25460043605, -187500.02235174447, -48416.58305127419, -23615.33327285448, -26994.201778674338, -56917.9349443835, -64599.00016772749, -29499.675869903072, -53017.89081309925, -48778.03311086096, -32704.848969560742, -0.07, 1.008, 0.064, 192.0, 126.5, 104.0, 15.5, 64.0, 1.0, 0.0, 0.0, 0.0, 0.0, 1.695337912106502E9, 0.0, 2023-09-21 18:11:52.106
120.0, 25093.96822380641, 19655.90055655248, -53410.879184112455, -27573.201367044614, -34305.367983027456, -32982.77056011803, -187500.02235174447, -48446.35557488866, -23639.607267332944, -26997.35337464254, -56951.37315408864, -64630.136147753736, -29448.088043700227, -52970.326300898356, -48726.91467129167, -32665.018160941385, -0.07, 1.008, 0.064, 192.0, 0.0, 0.0, 0.0, 0.0, 0.0, 0.0, 0.0, 0.0, 0.0, 1.695337912166614E9, 0.0, 2023-09-21 18:11:52.166
122.0, 25014.1054408676, 19653.397161173485, -53393.064843781576, -27551.251953989504, -34314.241625576215, -32963.99509477557, -187500.02235174447, -48424.78614148929, -23637.997941732163, -27013.468982394814, -56943.28182259582, -64626.582220385346, -29506.739021150952, -52983.469126638076, -48776.535543982456, -32679.122111692683, -0.07, 1.008, 0.064, 192.0, 0.0, 0.0, 0.0, 0.0, 0.0, 0.0, 0.0, 0.0, 0.0, 1.695337912166637E9, 0.0, 2023-09-21 18:11:52.166
124.0, 25098.036241297275, 19639.986114500298, -53407.61582942198, -27569.17805304266, -34304.60802371598, -32984.62575490782, -187500.02235174447, -48448.70250805646, -23645.128148213407, -26995.29701415265, -56961.52084607135, -64636.10406352331, -29459.286267672334, -52962.32437638335, -48740.5045319205, -32661.777157995366, -0.07, 1.008, 0.064, 192.0, 0.0, 0.0, 0.0, 0.0, 0.0, 0.0, 0.0, 0.0, 0.0, 1.69533791216664E9, 0.0, 2023-09-21 18:11:52.166
126.0, 25012.25024607781, 19634.375826642015, -53388.03570127913, -27543.853526574796, -34315.13569535443, -32958.29539993947, -187500.02235174447, -48425.70256301195, -23654.225308206715, -27017.760517330233, -56965.499456584395, -64640.775578114466, -29511.03055608637, -52954.233044890534, -48778.07781434987, -32666.5604313088, -0.07, 1.008, 0.064, 192.0, 0.0, 0.0, 0.0, 0.0, 0.0, 0.0, 0.0, 0.0, 0.0, 1.695337912166644E9, 0.0, 2023-09-21 18:11:52.166
128.0, 25098.930311075488, 19641.193108700885, -53364.49931436769, -27534.041110758917, -34268.174680253825, -32947.36539690082, -187500.02235174447, -48409.229327348396, -23624.050453192052, -26970.933612696364, -56944.93585168551, -64616.03219700244, -29454.905325759093, -52980.518696369974, -48746.49479943452, -32681.245527415937, -0.07, 1.008, 0.058, 192.0, 126.5, 104.0, 15.5, 64.0, 0.5, 104.0, 0.0, 0.0, 0.0, 1.695337912166647E9, 0.0, 2023-09-21 18:11:52.166
130.0, 25028.589371274637, 19619.154288667953, -53360.476000365736, -27528.810802556374, -34298.26012829067, -32935.72013803961, -187500.02235174447, -48404.6248679906, -23634.01933121912, -26983.092961680053, -56948.579186031726, -64623.18475522814, -29480.92275630507, -52962.43613510563, -48760.308177507904, -32674.540004079343, -0.07, 1.008, 0.058, 192.0, 0.0, 0.0, 0.0, 0.0, 0.0, 0.0, 0.0, 0.0, 0.0, 1.695337912166651E9, 0.0, 2023-09-21 18:11:52.166
132.0, 25114.82240138321, 19596.78019246819, -53363.359375400476, -27547.07217777636, -34277.27184024714, -32963.01161801954, -187500.02235174447, -48420.18168213149, -23644.815223791033, -26973.593470286545, -56963.46544783896, -64634.047703033415, -29461.54379386232, -52982.08331848185, -48748.59586341332, -32675.903460491118, -0.07, 1.008, 0.058, 192.0, 0.0, 0.0, 0.0, 0.0, 0.0, 0.0, 0.0, 0.0, 0.0, 1.695337912166658E9, 0.0, 2023-09-21 18:11:52.166
134.0, 25051.991647719344, 19588.06301213062, -53353.971642729244, -27531.96239852457, -34309.5477592406, -32946.35956840033, -187500.02235174447, -48404.69192322397, -23657.01927626363, -26990.491389094757, -56969.209846163976, -64640.14972926972, -29495.853721601216, -52938.072733649344, -48763.05744207591, -32662.023027184372, -0.07, 1.008, 0.058, 192.0, 0.0, 0.0, 0.0, 0.0, 0.0, 0.0, 0.0, 0.0, 0.0, 1.695337912166663E9, 0.0, 2023-09-21 18:11:52.166
136.0, 25127.987578867385, 19596.48961979027, -53333.139816896895, -27529.794279312406, -34268.64406688739, -32949.91349576873, -187500.02235174447, -48404.8260336907, -23643.6305813349, -26966.75383648322, -56959.15156115909, -64625.732854096044, -29480.36396269369, -52991.8063273199, -48763.90680836521, -32693.986021755463, -0.07, 1.008, 0.058, 192.0, 0.0, 0.0, 0.0, 0.0, 0.0, 0.0, 0.0, 0.0, 0.0, 1.695337912227462E9, 0.0, 2023-09-21 18:11:52.227
138.0, 25086.43568592497, 19590.54405576516, -53326.54605228258, -27517.143191950705, -34290.81699738705, -32938.022367718506, -187500.02235174447, -48386.54230672626, -23649.06205523754, -26973.459359819815, -56960.62677629314, -64625.50933665149, -29464.06954098577, -52946.72285875355, -48760.79991588592, -32676.23873665795, -0.07200000000000001, 1.008, 0.064, 192.0, 126.5, 96.0, 15.5, 64.0, 1.0, 0.0, 0.0, 0.0, 0.0, 1.695337912227472E9, 0.0, 2023-09-21 18:11:52.227
140.0, 25158.654172260067, 19581.0222126272, -53325.540223782096, -27526.776793810943, -34258.675188860325, -32951.366359158324, -187500.02235174447, -48391.28087655078, -23635.271028908617, -26952.20285084282, -56950.70260175498, -64611.8524207893, -29467.131729976147, -53013.62162990828, -48760.91167460819, -32708.872283562698, -0.07200000000000001, 1.008, 0.064, 192.0, 0.0, 0.0, 0.0, 0.0, 0.0, 0.0, 0.0, 0.0, 0.0, 1.695337912227476E9, 0.0, 2023-09-21 18:11:52.227
142.0, 25130.938009135487, 19568.326421776586, -53333.11746515244, -27525.949779266095, -34295.510863722666, -32947.879487023296, -187500.02235174447, -48392.085539351174, -23653.59945936197, -26977.169749399396, -56966.75115427389, -64628.83974657533, -29468.808110810296, -52941.47019880655, -48743.58907265533, -32666.783948753353, -0.07200000000000001, 1.008, 0.064, 192.0, 0.0, 0.0, 0.0, 0.0, 0.0, 0.0, 0.0, 0.0, 0.0, 1.695337912227479E9, 0.0, 2023-09-21 18:11:52.227
144.0, 25175.328573623727, 19566.15830256442, -53327.060142405055, -27529.190782212114, -34268.55465990957, -32953.75799581504, -187500.02235174447, -48398.00875163183, -23648.726779070712, -26971.760627241212, -56964.694793784, -64623.274162205955, -29485.594270896232, -53009.9112403287, -48768.064232833894, -32702.546739881844, -0.07200000000000001, 1.008, 0.064, 192.0, 0.0, 0.0, 0.0, 0.0, 0.0, 0.0, 0.0, 0.0, 0.0, 1.695337912227483E9, 0.0, 2023-09-21 18:11:52.227
146.0, 25157.536585037302, 19574.204930568332, -53323.617973758934, -27514.5950930828, -34287.620697929946, -32937.888257251776, -187500.02235174447, -48376.6181321881, -23645.82105229152, -26970.82185397409, -56960.85029373769, -64618.28972319242, -29461.096758973214, -52936.30694583738, -48744.59490115582, -32663.721759762975, -0.07200000000000001, 1.008, 0.064, 192.0, 0.0, 0.0, 0.0, 0.0, 0.0, 0.0, 0.0, 0.0, 0.0, 1.695337912227486E9, 0.0, 2023-09-21 18:11:52.227
148.0, 25182.41407661606, 19564.88425313047, -53328.71417149474, -27526.754442066485, -34270.07457853253, -32955.25556269354, -187500.02235174447, -48392.13024284008, -23645.038741235585, -26972.27471736368, -56960.98440420442, -64616.18865921363, -29490.779875609864, -53006.670237382685, -48766.18668629965, -32703.016126515406, -0.064, 1.002, 0.064, 192.0, 127.0, 0.0, 15.5, 40.0, 1.0, 0.0, 0.0, 0.0, 0.0, 1.69533791222749E9, 0.0, 2023-09-21 18:11:52.227
150.0, 25185.811541773266, 19555.809444881612, -53345.81325600306, -27537.192706727114, -34303.71395393777, -32961.80462381895, -187500.02235174447, -48403.46257727892, -23654.11354948444, -26980.209586645316, -56973.70254679949, -64630.51612740948, -29454.25712516989, -52919.67724796263, -48740.07984877585, -32654.512841047388, -0.064, 1.002, 0.064, 192.0, 0.0, 0.0, 0.0, 0.0, 0.0, 0.0, 0.0, 0.0, 0.0, 1.695337912286265E9, 0.0, 2023-09-21 18:11:52.286
152.0, 25179.93303298152, 19554.803616381123, -53333.83272097501, -27533.370558425257, -34270.23104074372, -32957.91542028373, -187500.02235174447, -48397.36055104263, -23640.099005710963, -26981.48363607927, -56958.95039545899, -64620.79311857142, -29506.02376532838, -53004.45741468161, -48791.24299183405, -32712.850894075742, -0.064, 1.002, 0.064, 192.0, 0.0, 0.0, 0.0, 0.0, 0.0, 0.0, 0.0, 0.0, 0.0, 1.695337912286276E9, 0.0, 2023-09-21 18:11:52.286
154.0, 25193.724059310443, 19564.414866496907, -53332.290450607594, -27522.30644491988, -34284.35734323947, -32939.94461774166, -187500.02235174447, -48388.173984071494, -23654.605287862458, -26977.952060455333, -56975.28952065582, -64635.03117978945, -29463.26487818538, -52921.26422181896, -48747.76884886847, -32663.766463251886, -0.064, 1.002, 0.064, 192.0, 0.0, 0.0, 0.0, 0.0, 0.0, 0.0, 0.0, 0.0, 0.0, 1.695337912286282E9, 0.0, 2023-09-21 18:11:52.286
156.0, 25169.673582276533, 19564.034886841167, -53326.568404027035, -27523.91577052066, -34262.43028192881, -32943.05151022095, -187500.02235174447, -48387.682245693475, -23638.53438359909, -26971.581813285567, -56952.96012794496, -64614.64638884621, -29500.435829214555, -53010.60414440682, -48785.94562839814, -32717.745926111453, -0.064, 1.002, 0.064, 192.0, 0.0, 0.0, 0.0, 0.0, 0.0, 0.0, 0.0, 0.0, 0.0, 1.695337912286288E9, 0.0, 2023-09-21 18:11:52.286
158.0, 25207.93976878402, 19568.415828754405, -53333.05040991907, -27529.570761867853, -34283.552680439076, -32950.27112368001, -187500.02235174447, -48400.17687084399, -23649.77731106011, -26966.32915333857, -56964.024241450345, -64625.30817095139, -29450.993770479414, -52937.49158829351, -48741.86798833228, -32672.684809289553, -0.064, 1.006, 0.06, 192.0, 127.0, 0.0, 15.5, 56.0, 0.5, 112.0, 0.0, 0.0, 0.0, 1.695337912286293E9, 0.0, 2023-09-21 18:11:52.286
160.0, 25160.21879437194, 19556.368238492996, -53328.42359881683, -27529.056671745384, -34273.18147101182, -32952.3274841699, -187500.02235174447, -48391.750263184345, -23651.47604363871, -26979.136702911463, -56957.13990415811, -64621.5530778829, -29498.714744891495, -53002.84808908083, -48790.75125345603, -32719.95874881253, -0.064, 1.006, 0.06, 192.0, 0.0, 0.0, 0.0, 0.0, 0.0, 0.0, 0.0, 0.0, 0.0, 1.695337912286297E9, 0.0, 2023-09-21 18:11:52.286
162.0, 25217.685129366535, 19549.908584345412, -53348.808389760066, -27544.032340530437, -34292.94041311031, -32962.8775075528, -187500.02235174447, -48411.39744656056, -23668.17279674683, -26974.465188320304, -56977.61410207917, -64638.78627285794, -29451.463157112976, -52932.3953905577, -48735.564796395876, -32670.09200693274, -0.064, 1.006, 0.06, 192.0, 0.0, 0.0, 0.0, 0.0, 0.0, 0.0, 0.0, 0.0, 0.0, 1.6953379122863E9, 0.0, 2023-09-21 18:11:52.286
164.0, 25152.485090790404, 19546.86874709949, -53339.51006406666, -27536.477450904546, -34290.97345959824, -32957.46838539462, -187500.02235174447, -48399.32750455469, -23672.620793893435, -26991.363107128516, -56971.780296776335, -64635.99230480103, -29515.769125910894, -52972.8520480218, -48785.7668144425, -32701.18328347007, -0.064, 1.006, 0.06, 192.0, 0.0, 0.0, 0.0, 0.0, 0.0, 0.0, 0.0, 0.0, 0.0, 1.695337912286304E9, 0.0, 2023-09-21 18:11:52.286
166.0, 25210.286701951827, 19561.419732739894, -53337.63251753242, -27529.10137523429, -34284.37969498392, -32953.892106281775, -187500.02235174447, -48402.657914478536, -23670.3856194479, -26978.19792964434, -56978.93285500203, -64641.1555577702, -29461.4543868845, -52927.36624805525, -48742.42678194366, -32669.309695876804, -0.064, 1.006, 0.06, 192.0, 0.0, 0.0, 0.0, 0.0, 0.0, 0.0, 0.0, 0.0, 0.0, 1.695337912346208E9, 0.0, 2023-09-21 18:11:52.346
168.0, 25141.219811584928, 19553.574270436082, -53332.871595963436, -27529.526058378942, -34282.12216879394, -32950.449937635654, -187500.02235174447, -48392.15259458454, -23652.839500050486, -26973.77228424219, -56954.27888086783, -64618.44618540361, -29499.74292513644, -52980.652806836704, -48775.99910211553, -32711.219216730504, -0.064, 1.002, 0.06, 192.0, 127.0, 0.0, 15.5, 40.0, 0.5, 112.0, 0.0, 0.0, 0.0, 1.69533791234622E9, 0.0, 2023-09-21 18:11:52.346
170.0, 25222.28958872433, 19547.82987211107, -53353.01051771767, -27550.626105144755, -34287.50893920767, -32973.82986233591, -187500.02235174447, -48423.95912694444, -23680.73447713071, -26980.656621534425, -56989.97461676296, -64649.11277879629, -29459.755654305896, -52930.85312019028, -48727.47346490306, -32672.126015678172, -0.064, 1.002, 0.06, 192.0, 0.0, 0.0, 0.0, 0.0, 0.0, 0.0, 0.0, 0.0, 0.0, 1.695337912346224E9, 0.0, 2023-09-21 18:11:52.346
172.0, 25130.69213994648, 19555.854148370523, -53334.10094190847, -27524.11693622076, -34288.40300898588, -32946.270161422515, -187500.02235174447, -48393.560754485225, -23666.027029279117, -26987.76447627121, -56965.11947692865, -64629.64440937572, -29512.014032842402, -52955.46239083557, -48781.81055567391, -32702.70320209303, -0.064, 1.002, 0.06, 192.0, 0.0, 0.0, 0.0, 0.0, 0.0, 0.0, 0.0, 0.0, 0.0, 1.695337912346228E9, 0.0, 2023-09-21 18:11:52.346
174.0, 25211.761917085878, 19565.465398486307, -53336.5372820541, -27531.381253168733, -34263.838441829495, -32957.602495861356, -187500.02235174447, -48403.551984256745, -23665.892918812388, -26976.320383110095, -56973.546084588306, -64634.338275711336, -29459.062750227782, -52950.99204194451, -48738.22465398606, -32691.080294976273, -0.064, 1.002, 0.06, 192.0, 0.0, 0.0, 0.0, 0.0, 0.0, 0.0, 0.0, 0.0, 0.0, 1.695337912346232E9, 0.0, 2023-09-21 18:11:52.346
176.0, 25129.64160795708, 19564.8171978971, -53338.6383460329, -27525.97213101055, -34289.81116888657, -32947.164231200724, -187500.02235174447, -48398.36637954311, -23655.544061129578, -26983.24942389124, -56957.251662880386, -64623.18475522814, -29494.154989022612, -52951.81905648936, -48761.67163391968, -32702.94907128204, -0.064, 1.002, 0.06, 192.0, 0.0, 0.0, 0.0, 0.0, 0.0, 0.0, 0.0, 0.0, 0.0, 1.695337912346235E9, 0.0, 2023-09-21 18:11:52.346
178.0, 25206.822181561256, 19571.723886933793, -53345.36622111395, -27534.532849136933, -34266.16302325285, -32960.82114706292, -187500.02235174447, -48415.510167540335, -23666.697581612778, -26978.175577899885, -56975.691852056014, -64638.71921762457, -29466.058846242293, -52955.06005943538, -48742.65029938821, -32698.52342587989, -0.066, 1.006, 0.06, 192.0, 126.5, 120.0, 15.5, 56.0, 0.5, 112.0, 0.0, 0.0, 0.0, 1.695337912346239E9, 0.0, 2023-09-21 18:11:52.346
180.0, 25125.484183488392, 19570.02515435519, -53346.39440135889, -27527.82732580034, -34289.7441136532, -32951.38871090278, -187500.02235174447, -48405.60834474664, -23647.922116270318, -26977.214452888307, -56952.73661050041, -64619.13908948172, -29486.533044163352, -52947.81809423186, -48766.946645611126, -32708.827580073787, -0.066, 1.006, 0.06, 192.0, 0.0, 0.0, 0.0, 0.0, 0.0, 0.0, 0.0, 0.0, 0.0, 1.69533791240647E9, 0.0, 2023-09-21 18:11:52.406
182.0, 25197.680318079034, 19562.470264729294, -53363.53818935611, -27551.520174922967, -34278.232965258714, -32978.09904552687, -187500.02235174447, -48427.08837116818, -23670.87735782592, -26984.031734947173, -56983.604369593195, -64646.65408690621, -29476.720628347473, -52962.45848685008, -48744.75136336701, -32705.43011491658, -0.066, 1.006, 0.06, 192.0, 0.0, 0.0, 0.0, 0.0, 0.0, 0.0, 0.0, 0.0, 0.0, 1.695337912406485E9, 0.0, 2023-09-21 18:11:52.406
184.0, 25122.958436364945, 19579.032907370678, -53344.98624145821, -27519.758346051975, -34297.947203868294, -32934.89312349476, -187500.02235174447, -48394.276010307796, -23660.640258865387, -26989.977298972288, -56968.22636940794, -64635.81349084539, -29495.049058800825, -52920.34780029629, -48759.525866451964, -32693.874263033184, -0.066, 1.006, 0.06, 192.0, 0.0, 0.0, 0.0, 0.0, 0.0, 0.0, 0.0, 0.0, 0.0, 1.69533791240649E9, 0.0, 2023-09-21 18:11:52.406
186.0, 25189.566634841758, 19570.78511366667, -53360.833628277025, -27545.753424853498, -34273.31558147855, -32965.87264130982, -187500.02235174447, -48421.187510631986, -23644.211726690737, -26968.877252206476, -56959.86681698165, -64622.98358952804, -29474.038419012835, -52980.451641136606, -48754.921407094174, -32724.987891314973, -0.066, 1.006, 0.06, 192.0, 0.0, 0.0, 0.0, 0.0, 0.0, 0.0, 0.0, 0.0, 0.0, 1.695337912406494E9, 0.0, 2023-09-21 18:11:52.406
188.0, 25141.68919821849, 19553.0154768247, -53385.84523032251, -27555.521137180465, -34327.6526722494, -32977.517900171035, -187500.02235174447, -48436.900786984064, -23681.06975329754, -27008.81981954811, -56998.44592791152, -64663.30613652541, -29485.75073310742, -52887.08840454679, -48749.26641574698, -32671.343704622235, -0.066, 1.008, 0.058, 192.0, 126.5, 120.0, 15.5, 64.0, 0.5, 104.0, 0.0, 0.0, 0.0, 1.695337912406497E9, 0.0, 2023-09-21 18:11:52.406
190.0, 25178.658983547568, 19557.64228792695, -53370.98132025973, -27550.02260804446, -34283.6420874169, -32973.96397280264, -187500.02235174447, -48428.74240025788, -23668.217500235736, -27001.10846771103, -56987.80649755079, -64652.06320906439, -29504.928529850073, -52949.78504774393, -48784.26924756399, -32710.883940563675, -0.066, 1.008, 0.058, 192.0, 0.0, 0.0, 0.0, 0.0, 0.0, 0.0, 0.0, 0.0, 0.0, 1.695337912406501E9, 0.0, 2023-09-21 18:11:52.406
192.0, 25130.7815469243, 19570.87452064449, -53359.20195093178, -27522.328796664337, -34301.255262047685, -32942.67153056521, -187500.02235174447, -48402.926135411995, -23659.96970653173, -26996.124028697497, -56979.35753814668, -64645.06711304988, -29480.185148738048, -52896.81141338485, -48761.51517170849, -32690.61090834271, -0.066, 1.008, 0.058, 192.0, 0.0, 0.0, 0.0, 0.0, 0.0, 0.0, 0.0, 0.0, 0.0, 1.695337912406505E9, 0.0, 2023-09-21 18:11:52.406
194.0, 25156.620163514635, 19571.366259022507, -53351.13297118342, -27531.06832874636, -34260.77625283912, -32954.89793478226, -187500.02235174447, -48406.211841846925, -23638.802604532553, -26975.00163018723, -56962.66078503857, -64625.46463316258, -29483.31439296179, -52987.67125459567, -48771.39464275773, -32744.05392933535, -0.066, 1.008, 0.058, 192.0, 0.0, 0.0, 0.0, 0.0, 0.0, 0.0, 0.0, 0.0, 0.0, 1.695337912406509E9, 0.0, 2023-09-21 18:11:52.406
196.0, 25142.650323230067, 19561.53149146217, -53375.0493377506, -27544.233506230536, -34308.92191039585, -32961.648161607765, -187500.02235174447, -48416.96303092993, -23664.350648444968, -26995.945214741852, -56993.68500634254, -64654.186624787646, -29460.001523494902, -52894.97857033951, -48730.870930060264, -32682.877204761175, -0.066, 1.008, 0.058, 192.0, 0.0, 0.0, 0.0, 0.0, 0.0, 0.0, 0.0, 0.0, 0.0, 1.695337912466661E9, 0.0, 2023-09-21 18:11:52.466
198.0, 25142.292695318785, 19566.87355838699, -53358.46434336476, -27540.299599206402, -34271.16981401084, -32959.16711797322, -187500.02235174447, -48403.06024587873, -23642.222421434217, -26986.646889048447, -56971.780296776335, -64634.36062745579, -29504.63795717215, -52988.431213907155, -48779.06129110591, -32742.310493267836, -0.066, 1.002, 0.064, 192.0, 126.5, 120.0, 15.5, 40.0, 1.0, 0.0, 0.0, 0.0, 0.0, 1.695337912466673E9, 0.0, 2023-09-21 18:11:52.466
200.0, 25147.25478258786, 19554.87067161449, -53377.12804998494, -27551.96720981207, -34308.40782027338, -32966.94552504367, -187500.02235174447, -48415.376057073605, -23666.183491490305, -26997.509836853726, -56996.724843588454, -64659.573395201376, -29468.897517788115, -52896.99022734049, -48729.194549226115, -32689.56037635331, -0.066, 1.002, 0.064, 192.0, 0.0, 0.0, 0.0, 0.0, 0.0, 0.0, 0.0, 0.0, 0.0, 1.695337912466677E9, 0.0, 2023-09-21 18:11:52.466
202.0, 25121.505572975348, 19560.615069939504, -53352.51877933965, -27536.07511950435, -34270.67807563282, -32949.33235041289, -187500.02235174447, -48397.09233010916, -23646.11162496944, -26994.805275774634, -56975.781259033836, -64639.143900769224, -29513.55630320982, -52980.384585903244, -48780.022416117485, -32747.04906309236, -0.066, 1.002, 0.064, 192.0, 0.0, 0.0, 0.0, 0.0, 0.0, 0.0, 0.0, 0.0, 0.0, 1.695337912466681E9, 0.0, 2023-09-21 18:11:52.466
204.0, 25147.45594828796, 19564.280756030174, -53363.11350621146, -27537.840907316317, -34293.007468343676, -32952.61805684782, -187500.02235174447, -48404.06607437922, -23653.085369239496, -26990.022002461195, -56989.79580280731, -64647.59286017333, -29452.312523402277, -52907.76376816795, -48731.0497440159, -32699.84217880275, -0.066, 1.002, 0.064, 192.0, 0.0, 0.0, 0.0, 0.0, 0.0, 0.0, 0.0, 0.0, 0.0, 1.695337912466684E9, 0.0, 2023-09-21 18:11:52.466
206.0, 25109.994424580866, 19573.53437823467, -53341.812293745556, -27520.808878041375, -34270.1863372548, -32943.16326894322, -187500.02235174447, -48388.71042593842, -23630.9794939732, -26986.512778581713, -56962.30315712728, -64620.211973215584, -29497.932433835562, -52991.068719752875, -48777.13904108275, -32755.632132963197, -0.066, 1.002, 0.064, 192.0, 0.0, 0.0, 0.0, 0.0, 0.0, 0.0, 0.0, 0.0, 0.0, 1.695337912466688E9, 0.0, 2023-09-21 18:11:52.466
208.0, 25160.35290483867, 19569.846340399545, -53365.862770779466, -27538.891439305717, -34301.27761379214, -32961.223478463115, -187500.02235174447, -48413.073827394706, -23655.00761926265, -26987.831531504577, -56990.68987258552, -64645.312982238895, -29441.047244196805, -52910.17775656912, -48720.455017144086, -32698.925757280085, -0.056, 1.002, 0.068, 192.0, 127.0, 32.0, 15.5, 40.0, 1.0, 16.0, 0.0, 0.0, 0.0, 1.695337912466691E9, 0.0, 2023-09-21 18:11:52.466
210.0, 25103.69123264447, 19578.02707887019, -53341.678183278826, -27520.6971193191, -34277.45065420278, -32943.252675921045, -187500.02235174447, -48387.5704869712, -23627.693787538265, -26981.058952934618, -56954.63650877911, -64614.467574890565, -29497.865378602193, -52982.48564988204, -48777.02728236047, -32749.82067940482, -0.056, 1.002, 0.068, 192.0, 0.0, 0.0, 0.0, 0.0, 0.0, 0.0, 0.0, 0.0, 0.0, 1.695337912526897E9, 0.0, 2023-09-21 18:11:52.526
212.0, 25166.231413630416, 19574.383744523973, -53362.68882306681, -27538.712625350076, -34292.53808171011, -32965.64912386527, -187500.02235174447, -48416.11366464063, -23648.21268894824, -26977.594432544047, -56981.90563701459, -64640.59676415882, -29451.64197106862, -52921.68890496361, -48719.42683689915, -32701.29504219235, -0.056, 1.002, 0.068, 192.0, 0.0, 0.0, 0.0, 0.0, 0.0, 0.0, 0.0, 0.0, 0.0, 1.695337912526926E9, 0.0, 2023-09-21 18:11:52.526
214.0, 25098.259758741828, 19568.035849098665, -53350.77534327214, -27530.464831646066, -34290.03468633112, -32958.94360052867, -187500.02235174447, -48397.58406848718, -23644.278781924106, -26990.78196177268, -56966.326471129236, -64631.387845443234, -29506.87313161768, -52963.57607407285, -48772.266360791495, -32735.068528064316, -0.056, 1.002, 0.068, 192.0, 0.0, 0.0, 0.0, 0.0, 0.0, 0.0, 0.0, 0.0, 0.0, 1.695337912526929E9, 0.0, 2023-09-21 18:11:52.526
216.0, 25172.8922334781, 19560.52566296168, -53371.62952084894, -27553.509480179488, -34300.540006225114, -32985.25160375257, -187500.02235174447, -48430.50818806985, -23664.752979845165, -26989.887891994465, -56992.00862550839, -64654.49954921002, -29455.598229837207, -52913.37405602623, -48727.49581664751, -32700.199806714038, -0.056, 1.002, 0.068, 192.0, 0.0, 0.0, 0.0, 0.0, 0.0, 0.0, 0.0, 0.0, 0.0, 1.695337912526933E9, 0.0, 2023-09-21 18:11:52.526
218.0, 25093.700002872945, 19570.338078777564, -53346.483808336714, -27526.68738683312, -34296.98607885672, -32954.51795512652, -187500.02235174447, -48393.44899576295, -23648.63737209289, -26994.514703096713, -56964.62773855063, -64632.08074952135, -29505.64378567264, -52939.95028018359, -48770.925256124174, -32724.026766303396, -0.056, 1.006, 0.068, 192.0, 127.0, 32.0, 15.5, 56.0, 1.0, 16.0, 0.0, 0.0, 0.0, 1.695337912526936E9, 0.0, 2023-09-21 18:11:52.526
220.0, 25169.919451465543, 19573.8696544015, -53357.43616311982, -27537.840907316317, -34288.96180259727, -32964.88916455378, -187500.02235174447, -48415.86779545162, -23657.153386730362, -26983.80821750262, -56981.771526547855, -64644.888299094244, -29460.15798570609, -52915.87745140523, -48731.94381379412, -32699.819827058298, -0.056, 1.006, 0.068, 192.0, 0.0, 0.0, 0.0, 0.0, 0.0, 0.0, 0.0, 0.0, 0.0, 1.695337912526939E9, 0.0, 2023-09-21 18:11:52.526
222.0, 25089.207302237428, 19570.271023544195, -53352.80935201757, -27529.704872334587, -34298.75186666869, -32951.34400741387, -187500.02235174447, -48402.88143192309, -23642.11066271194, -26983.987031458266, -56956.93873845801, -64625.26346746248, -29493.104457033212, -52937.06690514886, -48764.3091397654, -32723.825600603297, -0.056, 1.006, 0.068, 192.0, 0.0, 0.0, 0.0, 0.0, 0.0, 0.0, 0.0, 0.0, 0.0, 1.695337912526943E9, 0.0, 2023-09-21 18:11:52.526
224.0, 25167.661925275555, 19571.43331425587, -53368.90260802539, -27544.12174750826, -34287.66540141885, -32973.42753093571, -187500.02235174447, -48420.49460655387, -23662.294287955083, -26984.47876983628, -56981.86093352568, -64644.955354327605, -29462.72843631845, -52920.63837297421, -48735.698906862606, -32699.395143913647, -0.056, 1.006, 0.068, 192.0, 0.0, 0.0, 0.0, 0.0, 0.0, 0.0, 0.0, 0.0, 0.0, 1.695337912526946E9, 0.0, 2023-09-21 18:11:52.526
226.0, 25077.40558116503, 19581.44689577185, -53348.808389760066, -27517.187895439612, -34297.321355023545, -32941.151611942245, -187500.02235174447, -48393.15842308503, -23649.30792442655, -26987.697421037847, -56958.078677425234, -64624.63761861773, -29496.479570445965, -52913.59757347078, -48765.44907873262, -32704.536045138368, -0.056, 1.006, 0.068, 192.0, 0.0, 0.0, 0.0, 0.0, 0.0, 0.0, 0.0, 0.0, 0.0, 1.695337912587248E9, 0.0, 2023-09-21 18:11:52.587
228.0, 25156.8883844481, 19564.68308743037, -53375.652834850895, -27555.6552476472, -34290.615831686955, -32976.892051326286, -187500.02235174447, -48430.35172585866, -23666.92109905733, -26983.00355470223, -56979.93868350252, -64640.9543920701, -29462.527270618353, -52924.90755616517, -48738.82815108635, -32700.80330381433, -0.062, 1.008, 0.068, 192.0, 127.0, 8.0, 15.5, 64.0, 1.0, 16.0, 0.0, 0.0, 0.0, 1.695337912587259E9, 0.0, 2023-09-21 18:11:52.587
230.0, 25077.182063720473, 19567.700572931837, -53375.13874472842, -27544.278209719447, -34330.111364139484, -32962.81045231944, -187500.02235174447, -48426.7307432569, -23679.4380759523, -27006.785810802678, -56983.76083180438, -64650.07390380787, -29495.31727973429, -52877.544209664375, -48766.63372118875, -32683.23483267246, -0.062, 1.008, 0.068, 192.0, 0.0, 0.0, 0.0, 0.0, 0.0, 0.0, 0.0, 0.0, 0.0, 1.695337912587263E9, 0.0, 2023-09-21 18:11:52.587
232.0, 25143.812613941744, 19583.458552772827, -53359.492523609704, -27537.97501778305, -34277.7412268807, -32960.3294086849, -187500.02235174447, -48413.18558611698, -23660.416741420835, -26985.708115781323, -56972.830828765735, -64636.68520887914, -29482.17445399457, -52923.32058230884, -48763.05744207591, -32705.18424572757, -0.062, 1.008, 0.068, 192.0, 0.0, 0.0, 0.0, 0.0, 0.0, 0.0, 0.0, 0.0, 0.0, 1.695337912587267E9, 0.0, 2023-09-21 18:11:52.587
234.0, 25074.589261363657, 19596.377861067995, -53351.78117177262, -27514.97507273854, -34301.255262047685, -32937.28476015148, -187500.02235174447, -48396.60059173115, -23655.141729729385, -26980.90249072343, -56961.81141874927, -64625.866964562774, -29475.915965547083, -52884.78617486789, -48750.875741347765, -32690.3650391537, -0.062, 1.008, 0.068, 192.0, 0.0, 0.0, 0.0, 0.0, 0.0, 0.0, 0.0, 0.0, 0.0, 1.69533791258727E9, 0.0, 2023-09-21 18:11:52.587
236.0, 25126.221791055417, 19597.003709912744, -53353.1446281844, -27526.039186243917, -34270.767482610645, -32955.00969350454, -187500.02235174447, -48406.703580224945, -23641.19424118927, -26964.33984808205, -56951.46256106646, -64612.27710393395, -29465.678866586553, -52953.38367860123, -48746.4053924567, -32724.205580259037, -0.062, 1.008, 0.068, 192.0, 0.0, 0.0, 0.0, 0.0, 0.0, 0.0, 0.0, 0.0, 0.0, 1.695337912587273E9, 0.0, 2023-09-21 18:11:52.587
238.0, 25074.388095663562, 19604.156268138442, -53354.239863662704, -27513.902189004682, -34300.540006225114, -32936.03306246198, -187500.02235174447, -48397.561716742726, -23654.493529140178, -26981.684801779367, -56962.43726759402, -64623.36356918378, -29462.795491551817, -52887.55779118035, -48734.04487777292, -32684.084198961762, -0.064, 1.004, 0.068, 192.0, 127.0, 0.0, 15.5, 48.0, 1.0, 16.0, 0.0, 0.0, 0.0, 1.695337912587277E9, 0.0, 2023-09-21 18:11:52.587
240.0, 25114.710642660935, 19598.098945391055, -53359.023136976146, -27531.940046780117, -34274.65668614586, -32960.61998136282, -187500.02235174447, -48415.19724311796, -23641.171889444817, -26970.19600512934, -56949.964994187954, -64609.9525225106, -29463.5554508633, -52966.92883574115, -48752.41801171518, -32724.205580259037, -0.064, 1.004, 0.068, 192.0, 0.0, 0.0, 0.0, 0.0, 0.0, 0.0, 0.0, 0.0, 0.0, 1.695337912646189E9, 0.0, 2023-09-21 18:11:52.646
242.0, 25086.100409758143, 19610.83943973058, -53362.152381199885, -27520.183029196625, -34309.5477592406, -32940.27989390849, -187500.02235174447, -48405.451882535446, -23657.533366386102, -26985.216377403307, -56964.448924594995, -64625.57639188485, -29457.475776371455, -52873.833820084794, -48733.70960160609, -32665.398140597124, -0.064, 1.004, 0.068, 192.0, 0.0, 0.0, 0.0, 0.0, 0.0, 0.0, 0.0, 0.0, 0.0, 1.695337912646199E9, 0.0, 2023-09-21 18:11:52.646
244.0, 25098.796200608755, 19620.964779968832, -53344.02511644663, -27514.706851805076, -34266.11831976394, -32937.240056662566, -187500.02235174447, -48394.00778937433, -23635.561601586534, -26970.173653384885, -56943.57239527374, -64603.26935091846, -29482.509730161397, -52958.41282110367, -48763.4597734761, -32714.080240020783, -0.064, 1.004, 0.068, 192.0, 0.0, 0.0, 0.0, 0.0, 0.0, 0.0, 0.0, 0.0, 0.0, 1.695337912646203E9, 0.0, 2023-09-21 18:11:52.646
246.0, 25092.53771216127, 19614.41571884343, -53362.845285278, -27523.245218187003, -34304.42920976034, -32944.48202186609, -187500.02235174447, -48409.564603515224, -23642.87062202342, -26970.464226062802, -56955.351764601684, -64613.46174639008, -29443.036549453325, -52877.410099197645, -48721.61730785576, -32663.788814996344, -0.064, 1.004, 0.068, 192.0, 0.0, 0.0, 0.0, 0.0, 0.0, 0.0, 0.0, 0.0, 0.0, 1.695337912646207E9, 0.0, 2023-09-21 18:11:52.646
248.0, 25087.39681093655, 19614.013387443232, -53351.64706130589, -27522.440555386613, -34274.41081695686, -32947.63361783429, -187500.02235174447, -48407.3741325586, -23627.67143579381, -26970.263060362704, -56940.28668883881, -64600.87771426174, -29483.47085517298, -52959.21748390407, -48765.80670664391, -32715.354289454735, -0.054, 1.002, 0.066, 192.0, 127.0, 40.0, 15.5, 40.0, 1.0, 8.0, 0.0, 0.0, 0.0, 1.695337912646212E9, 0.0, 2023-09-21 18:11:52.646
250.0, 25100.91961633201, 19616.427375844407, -53367.42739289134, -27522.52996236443, -34304.116285337965, -32949.131184712794, -187500.02235174447, -48413.58791751718, -23643.809395290544, -26975.76158949871, -56961.297328626795, -64620.88252554924, -29442.0977761862, -52872.11273576174, -48725.148883479706, -32659.452576572014, -0.054, 1.002, 0.066, 192.0, 0.0, 0.0, 0.0, 0.0, 0.0, 0.0, 0.0, 0.0, 0.0, 1.695337912646216E9, 0.0, 2023-09-21 18:11:52.646
252.0, 25076.95854627592, 19607.956064695845, -53367.405041146885, -27529.816631056863, -34293.92388986634, -32964.173908731216, -187500.02235174447, -48418.14767338606, -23633.505241096645, -26981.550691312637, -56951.507264555374, -64611.74066206702, -29487.49416917493, -52951.23791113352, -48770.36646251279, -32705.743039338955, -0.054, 1.002, 0.066, 192.0, 0.0, 0.0, 0.0, 0.0, 0.0, 0.0, 0.0, 0.0, 0.0, 1.69533791264622E9, 0.0, 2023-09-21 18:11:52.646
254.0, 25102.752459377345, 19620.204820657353, -53366.75684055768, -27521.233561186025, -34307.87137840645, -32945.73371955559, -187500.02235174447, -48402.90378366754, -23638.19910743226, -26981.52833956818, -56963.42074435005, -64622.849479061304, -29451.910192002084, -52879.17588700961, -48737.19647374111, -32662.112434162194, -0.054, 1.002, 0.066, 192.0, 0.0, 0.0, 0.0, 0.0, 0.0, 0.0, 0.0, 0.0, 0.0, 1.695337912646224E9, 0.0, 2023-09-21 18:11:52.646
0.0, 25058.04897046673, 19613.029910687197, -53362.1970846888, -27523.11110772027, -34295.98025035623, -32949.958199257635, -187500.02235174447, -48403.39552204556, -23621.68116827979, -26981.416580845904, -56945.89697669709, -64607.694996320606, -29488.49999767542, -52961.296196138406, -48779.75419518402, -32715.443696432558, -0.054, 1.002, 0.066, 192.0, 0.0, 0.0, 0.0, 0.0, 0.0, 0.0, 0.0, 0.0, 0.0, 1.695337912706396E9, 0.0, 2023-09-21 18:11:52.706
2.0, 25111.31317750373, 19616.248561888762, -53373.50706738318, -27527.804974055885, -34308.76544818466, -32957.513088883534, -187500.02235174447, -48412.31386808323, -23634.041682963572, -26979.53903431166, -56962.9960612054, -64620.68135984914, -29444.02002620936, -52895.157384295155, -48727.652278858695, -32670.114358677194, -0.052000000000000005, 1.008, 0.062, 192.0, 127.0, 48.0, 15.5, 64.0, 0.5, 120.0, 0.0, 0.0, 0.0, 1.695337912706408E9, 0.0, 2023-09-21 18:11:52.706
4.0, 25045.777862760766, 19620.651855546457, -53358.441991620304, -27514.5950930828, -34300.22708180274, -32939.274065408004, -187500.02235174447, -48398.90282141004, -23623.6257700474, -26986.758647770723, -56943.08065689572, -64605.996263742, -29500.189960025546, -52955.37298385775, -48775.99910211553, -32709.364021940713, -0.052000000000000005, 1.008, 0.062, 192.0, 0.0, 0.0, 0.0, 0.0, 0.0, 0.0, 0.0, 0.0, 0.0, 1.695337912706412E9, 0.0, 2023-09-21 18:11:52.706
6.0, 25111.06730831472, 19621.61298055804, -53372.52359062715, -27530.621293857253, -34297.16489281236, -32951.791042302975, -187500.02235174447, -48410.65983899353, -23626.464441593223, -26971.179481885374, -56950.27791861033, -64611.07010973336, -29436.688654028017, -52916.346838038786, -48733.48608416153, -32676.909288991606, -0.052000000000000005, 1.008, 0.062, 192.0, 0.0, 0.0, 0.0, 0.0, 0.0, 0.0, 0.0, 0.0, 0.0, 1.695337912706415E9, 0.0, 2023-09-21 18:11:52.706
8.0, 25035.987798689344, 19626.195088171375, -53365.77336380164, -27520.495953619, -34301.90346263689, -32939.13995494127, -187500.02235174447, -48398.880469665586, -23633.907572496842, -26995.11820019701, -56949.22738662093, -64611.38303415573, -29499.586462925254, -52947.28165236493, -48779.955360884116, -32698.545777624346, -0.052000000000000005, 1.008, 0.062, 192.0, 0.0, 0.0, 0.0, 0.0, 0.0, 0.0, 0.0, 0.0, 0.0, 1.695337912706419E9, 0.0, 2023-09-21 18:11:52.706
10.0, 25105.59113092317, 19636.141614453987, -53366.13099171293, -27521.72529956404, -34285.31846825105, -32943.83382127689, -187500.02235174447, -48405.34012381317, -23625.458613092735, -26974.62165053149, -56947.50630229787, -64607.8514585318, -29445.07055819876, -52925.26518407645, -48737.64350863022, -32678.764483781397, -0.052000000000000005, 1.008, 0.062, 192.0, 0.0, 0.0, 0.0, 0.0, 0.0, 0.0, 0.0, 0.0, 0.0, 1.695337912706423E9, 0.0, 2023-09-21 18:11:52.706
12.0, 25025.214257861884, 19634.152309197463, -53362.018270733155, -27519.26660767396, -34298.90832887987, -32940.77163228651, -187500.02235174447, -48398.47813826539, -23625.302150881547, -26984.791694258656, -56936.57629925923, -64600.38597588372, -29484.83431158475, -52951.014393688965, -48768.779488656466, -32700.24451020295, -0.062, 1.012, 0.066, 192.0, 127.0, 8.0, 15.5, 80.0, 1.0, 8.0, 0.0, 0.0, 0.0, 1.695337912706426E9, 0.0, 2023-09-21 18:11:52.706
14.0, 25106.328738490196, 19635.1357859535, -53373.70823308328, -27539.83021257284, -34289.23002353073, -32963.79392907547, -187500.02235174447, -48426.21665313443, -23632.16413642933, -26974.800464487133, -56949.40620057657, -64611.78536555593, -29441.851906997195, -52937.62569876024, -48734.31309870638, -32682.787797783352, -0.062, 1.012, 0.066, 192.0, 0.0, 0.0, 0.0, 0.0, 0.0, 0.0, 0.0, 0.0, 0.0, 1.695337912766846E9, 0.0, 2023-09-21 18:11:52.766
16.0, 25029.95282768641, 19623.69169279238, -53377.91036104088, -27539.092605005815, -34320.27659657915, -32965.04562676497, -187500.02235174447, -48425.83667347869, -23638.221459176715, -26998.046278720652, -56945.360534830164, -64613.68526383463, -29489.371715709178, -52926.963916655055, -48770.54527646843, -32684.6653443176, -0.062, 1.012, 0.066, 192.0, 0.0, 0.0, 0.0, 0.0, 0.0, 0.0, 0.0, 0.0, 0.0, 1.695337912766859E9, 0.0, 2023-09-21 18:11:52.766
18.0, 25113.861276371634, 19625.278666648708, -53386.404023933894, -27549.553221410897, -34307.91608189536, -32976.78029260401, -187500.02235174447, -48437.21371140644, -23653.308886684048, -26995.945214741852, -56962.16904666055, -64627.8562698193, -29462.035532240337, -52913.95520138207, -48749.5569884249, -32660.234887627947, -0.062, 1.012, 0.066, 192.0, 0.0, 0.0, 0.0, 0.0, 0.0, 0.0, 0.0, 0.0, 0.0, 1.695337912766863E9, 0.0, 2023-09-21 18:11:52.766
20.0, 25025.683644495446, 19645.08231223611, -53363.15820970038, -27515.91384600566, -34315.918006410364, -32941.41983287571, -187500.02235174447, -48407.64235349207, -23637.55090684306, -26995.96756648631, -56938.856177193666, -64609.81841204386, -29486.331878463257, -52894.956218595056, -48775.194439315135, -32659.005541682905, -0.062, 1.012, 0.066, 192.0, 0.0, 0.0, 0.0, 0.0, 0.0, 0.0, 0.0, 0.0, 0.0, 1.695337912766867E9, 0.0, 2023-09-21 18:11:52.766
22.0, 25101.165485521018, 19640.32139066713, -53377.12804998494, -27541.975980040548, -34298.26012829067, -32968.26427796653, -187500.02235174447, -48436.47610383941, -23634.24284866367, -26976.38743834346, -56944.13118888512, -64609.61724634377, -29454.950029248004, -52927.76857945545, -48753.5579506824, -32667.36509410919, -0.066, 1.004, 0.066, 192.0, 126.5, 120.0, 15.5, 48.0, 1.0, 8.0, 0.0, 0.0, 0.0, 1.695337912766871E9, 0.0, 2023-09-21 18:11:52.766
24.0, 25022.04031014923, 19640.36609415604, -53376.32338718455, -27527.335587422323, -34326.04334664862, -32945.62196083331, -187500.02235174447, -48422.26039436584, -23636.92505799831, -26990.692554794856, -56942.343049328694, -64610.53366786643, -29477.92762254806, -52891.46934646003, -48771.81932590238, -32655.295152103325, -0.066, 1.004, 0.066, 192.0, 0.0, 0.0, 0.0, 0.0, 0.0, 0.0, 0.0, 0.0, 0.0, 1.695337912766874E9, 0.0, 2023-09-21 18:11:52.766
26.0, 25084.312270201717, 19632.520631852225, -53383.49829715471, -27547.07217777636, -34294.57209045554, -32968.1301674998, -187500.02235174447, -48437.169007917524, -23638.847308021464, -26984.232900647272, -56948.98151743192, -64615.182830713136, -29466.885860787137, -52940.039687161414, -48771.23818054655, -32679.90442274862, -0.066, 1.004, 0.066, 192.0, 0.0, 0.0, 0.0, 0.0, 0.0, 0.0, 0.0, 0.0, 0.0, 1.695337912766881E9, 0.0, 2023-09-21 18:11:52.766
28.0, 25024.588409017135, 19641.46132963435, -53374.98228251723, -27525.726261821543, -34318.17553260035, -32940.21283867512, -187500.02235174447, -48411.19628086046, -23645.888107524886, -26997.44278162036, -56953.07188666724, -64621.3519121828, -29468.02579975436, -52877.49950617546, -48764.97969209906, -32649.79662296732, -0.066, 1.004, 0.066, 192.0, 0.0, 0.0, 0.0, 0.0, 0.0, 0.0, 0.0, 0.0, 0.0, 1.695337912766886E9, 0.0, 2023-09-21 18:11:52.766
30.0, 25073.516377629803, 19637.54977435467, -53376.61395986247, -27540.724282351053, -34285.385523484416, -32963.77157733102, -187500.02235174447, -48420.4275513205, -23633.885220752385, -26980.321345367593, -56944.06413365175, -64609.25961843248, -29471.669134100575, -52945.828788975334, -48771.640511946745, -32685.24648967344, -0.066, 1.004, 0.066, 192.0, 0.0, 0.0, 0.0, 0.0, 0.0, 0.0, 0.0, 0.0, 0.0, 1.695337912827047E9, 0.0, 2023-09-21 18:11:52.827
32.0, 25037.463013823395, 19639.60613484456, -53389.46621292427, -27535.73984333752, -34326.93741642683, -32962.78810057499, -187500.02235174447, -48431.5810718037, -23646.804529047553, -26999.87912176599, -56958.25749138087, -64622.82712731685, -29467.176433465058, -52866.52479964791, -48755.8601803613, -32637.592570494722, -0.068, 1.006, 0.066, 192.0, 126.5, 112.0, 15.5, 56.0, 1.0, 8.0, 0.0, 0.0, 0.0, 1.695337912827059E9, 0.0, 2023-09-21 18:11:52.827
34.0, 25058.71952280039, 19652.860719306555, -53365.795715546104, -27526.575628110844, -34280.82576761553, -32960.28470519599, -187500.02235174447, -48419.39937107556, -23625.659778792833, -26978.510854066713, -56940.71137198346, -64601.056528217385, -29485.236642984946, -52944.308870352375, -48783.84456441934, -32681.245527415937, -0.068, 1.006, 0.066, 192.0, 0.0, 0.0, 0.0, 0.0, 0.0, 0.0, 0.0, 0.0, 0.0, 1.695337912827063E9, 0.0, 2023-09-21 18:11:52.827
36.0, 25039.58642954665, 19652.03370476171, -53383.99003553272, -27530.956570024082, -34327.250340849205, -32960.39646391827, -187500.02235174447, -48421.522786798814, -23632.521764340614, -26981.34952561254, -56949.36149708766, -64608.320845165355, -29451.574915835252, -52873.31972996232, -48748.97584306906, -32640.69946297401, -0.068, 1.006, 0.066, 192.0, 0.0, 0.0, 0.0, 0.0, 0.0, 0.0, 0.0, 0.0, 0.0, 1.695337912827067E9, 0.0, 2023-09-21 18:11:52.827
38.0, 25044.548516815725, 19648.32331518213, -53380.03377676413, -27535.69513984861, -34301.79170391461, -32965.29149595398, -187500.02235174447, -48423.48974031088, -23633.237020163182, -26989.57496757209, -56950.74730524389, -64610.04192948842, -29491.785704110353, -52949.36036459928, -48786.63853247625, -32685.559414095813, -0.068, 1.006, 0.066, 192.0, 0.0, 0.0, 0.0, 0.0, 0.0, 0.0, 0.0, 0.0, 0.0, 1.69533791282707E9, 0.0, 2023-09-21 18:11:52.827
40.0, 25037.28419986775, 19659.70035310988, -53372.21066620477, -27516.562046594867, -34310.30771855208, -32941.24101892007, -187500.02235174447, -48406.90474592504, -23623.469307836214, -26978.801426744634, -56944.22059586294, -64606.24213293102, -29450.949066990506, -52884.42854695661, -48750.47340994757, -32651.763576479385, -0.068, 1.006, 0.066, 192.0, 0.0, 0.0, 0.0, 0.0, 0.0, 0.0, 0.0, 0.0, 0.0, 1.695337912827074E9, 0.0, 2023-09-21 18:11:52.827
42.0, 25023.828449705656, 19648.815053560145, -53372.47888713824, -27531.470660146555, -34290.70523866478, -32956.127280727305, -187500.02235174447, -48416.44894080746, -23613.366319342414, -26975.091037165053, -56931.81537769025, -64593.61339731377, -29479.805169082305, -52978.32822541335, -48777.60842771631, -32708.067620762304, -0.064, 1.008, 0.062, 192.0, 127.0, 0.0, 15.5, 64.0, 0.5, 120.0, 0.0, 0.0, 0.0, 1.695337912827078E9, 0.0, 2023-09-21 18:11:52.827
44.0, 25047.655409295014, 19646.89280353699, -53389.44386117982, -27537.617389871764, -34323.2493785917, -32958.071882494914, -187500.02235174447, -48424.048533922265, -23641.23894467818, -26988.278566393685, -56962.191398405004, -64621.91070579419, -29441.896610486107, -52884.249733000965, -48734.424857428654, -32648.299056088814, -0.064, 1.008, 0.062, 192.0, 0.0, 0.0, 0.0, 0.0, 0.0, 0.0, 0.0, 0.0, 0.0, 1.695337912887339E9, 0.0, 2023-09-21 18:11:52.887
46.0, 25013.926626911954, 19638.354437155063, -53387.94629430131, -27540.858392817783, -34312.65465171989, -32965.93969654318, -187500.02235174447, -48428.027144435306, -23638.15440394335, -26996.548711842148, -56956.24583437989, -64619.04968250391, -29498.178303024568, -52957.20582690309, -48791.958247656614, -32697.09291423475, -0.064, 1.008, 0.062, 192.0, 0.0, 0.0, 0.0, 0.0, 0.0, 0.0, 0.0, 0.0, 0.0, 1.695337912887349E9, 0.0, 2023-09-21 18:11:52.887
48.0, 25049.532955829258, 19653.66538210695, -53388.08040476804, -27534.130517736736, -34321.371832057455, -32956.887240038785, -187500.02235174447, -48426.909557212544, -23639.093177210474, -26990.62549956149, -56962.88430248312, -64626.35870294079, -29445.40583436559, -52887.960122580545, -48752.28390124845, -32653.529364291357, -0.064, 1.008, 0.062, 192.0, 0.0, 0.0, 0.0, 0.0, 0.0, 0.0, 0.0, 0.0, 0.0, 1.695337912887353E9, 0.0, 2023-09-21 18:11:52.887
50.0, 24995.32997552514, 19664.260108978764, -53360.677166065834, -27513.388098882213, -34291.241680531704, -32937.55298108494, -187500.02235174447, -48396.980571386885, -23611.48877280817, -26979.583737800567, -56927.03210437681, -64595.98268222603, -29475.64774461362, -52969.81221077588, -48797.94851517064, -32709.006394029428, -0.064, 1.008, 0.062, 192.0, 0.0, 0.0, 0.0, 0.0, 0.0, 0.0, 0.0, 0.0, 0.0, 1.695337912887356E9, 0.0, 2023-09-21 18:11:52.887
52.0, 25054.427987864972, 19669.60217590358, -53375.60813136198, -27527.045014744406, -34299.288308535615, -32949.46646087962, -187500.02235174447, -48420.71812399842, -23624.899819481354, -26973.593470286545, -56944.734685985415, -64609.1478597102, -29422.785868976818, -52915.653933960675, -48741.577415654356, -32666.001637697416, -0.068, 1.008, 0.064, 192.0, 126.5, 112.0, 15.5, 64.0, 1.0, 0.0, 0.0, 0.0, 0.0, 1.69533791288736E9, 0.0, 2023-09-21 18:11:52.887
54.0, 24991.88780687902, 19657.532233897717, -53372.68005283833, -27529.883686290228, -34301.814055659066, -32956.77548131651, -187500.02235174447, -48413.52086228381, -23620.317711868014, -26987.630365804478, -56928.79789218878, -64596.429717115134, -29478.039381270337, -52972.78499278844, -48782.101128351824, -32704.312527693815, -0.068, 1.008, 0.064, 192.0, 0.0, 0.0, 0.0, 0.0, 0.0, 0.0, 0.0, 0.0, 0.0, 1.695337912887363E9, 0.0, 2023-09-21 18:11:52.887
56.0, 25065.939136259454, 19664.282460723218, -53385.86758206697, -27538.891439305717, -34314.107515109485, -32969.51597565603, -187500.02235174447, -48430.03880143628, -23649.44203489328, -26999.789714788167, -56967.28759614082, -64631.6560663767, -29431.279531869834, -52904.61217219975, -48736.59297664082, -32650.981265423452, -0.068, 1.008, 0.064, 192.0, 0.0, 0.0, 0.0, 0.0, 0.0, 0.0, 0.0, 0.0, 0.0, 1.695337912887366E9, 0.0, 2023-09-21 18:11:52.887
58.0, 24989.60792894458, 19680.576882431138, -53364.18638994532, -27517.657282073174, -34309.52540749615, -32948.505335868045, -187500.02235174447, -48410.70454248245, -23617.479040322192, -26990.849017006043, -56923.545232241784, -64595.803868270385, -29472.719666089975, -52942.833655218325, -48787.8678784213, -32685.60411758472, -0.068, 1.008, 0.064, 192.0, 0.0, 0.0, 0.0, 0.0, 0.0, 0.0, 0.0, 0.0, 0.0, 1.69533791288737E9, 0.0, 2023-09-21 18:11:52.887
60.0, 25064.553328103226, 19696.98306286133, -53361.70534631078, -27514.416279127156, -34291.88988112091, -32948.5276876125, -187500.02235174447, -48413.18558611698, -23605.543208783056, -26962.19408061434, -56917.68907519449, -64587.712536777566, -29419.366052075155, -52935.636393503715, -48745.17604651166, -32674.472948845978, -0.068, 1.008, 0.064, 192.0, 0.0, 0.0, 0.0, 0.0, 0.0, 0.0, 0.0, 0.0, 0.0, 1.695337912946695E9, 0.0, 2023-09-21 18:11:52.946
62.0, 24983.908234108476, 19684.71195515537, -53365.996881246196, -27511.957587237073, -34314.50984650968, -32944.50437361054, -187500.02235174447, -48410.63748724908, -23606.30316809454, -26971.023019674187, -56908.32369426772, -64580.82819948533, -29462.08023572925, -52957.74226877002, -48771.059366590904, -32693.449579888533, -0.07200000000000001, 1.01, 0.064, 192.0, 126.5, 96.0, 15.5, 72.0, 1.0, 0.0, 0.0, 0.0, 0.0, 1.695337912946706E9, 0.0, 2023-09-21 18:11:52.946
64.0, 25071.325906673184, 19667.18818750241, -53392.5507536591, -27547.474509176554, -34319.51663726767, -32976.601478648365, -187500.02235174447, -48444.61213882115, -23636.05333996455, -26977.974412199786, -56943.03595340681, -64612.88060103424, -29430.497220813897, -52936.686925493115, -48743.96905231107, -32664.951105708016, -0.07200000000000001, 1.01, 0.064, 192.0, 0.0, 0.0, 0.0, 0.0, 0.0, 0.0, 0.0, 0.0, 0.0, 1.69533791294671E9, 0.0, 2023-09-21 18:11:52.946
66.0, 24984.66819341996, 19657.73339959781, -53387.65572162339, -27533.571724125355, -34347.098689925515, -32956.127280727305, -187500.02235174447, -48426.46252232343, -23639.495508610667, -26998.225092676294, -56940.86783419464, -64615.29458943541, -29480.520424904877, -52917.71029445056, -48785.00685513102, -32664.012332440896, -0.07200000000000001, 1.01, 0.064, 192.0, 0.0, 0.0, 0.0, 0.0, 0.0, 0.0, 0.0, 0.0, 0.0, 1.695337912946713E9, 0.0, 2023-09-21 18:11:52.946
68.0, 25064.598031592137, 19657.152254241973, -53380.79373607561, -27536.812727071374, -34313.03463137563, -32961.73756858559, -187500.02235174447, -48432.38573460409, -23634.66753180832, -26978.42144708889, -56947.05926740877, -64617.88739179223, -29452.334875146735, -52932.842425446805, -48768.26539853399, -32669.644972043632, -0.07200000000000001, 1.01, 0.064, 192.0, 0.0, 0.0, 0.0, 0.0, 0.0, 0.0, 0.0, 0.0, 0.0, 1.695337912946717E9, 0.0, 2023-09-21 18:11:52.946
70.0, 24987.61862368806, 19648.971515771333, -53368.41086964737, -27518.663110573663, -34333.262960107684, -32943.34208289887, -187500.02235174447, -48417.745341985865, -23625.57037181501, -26984.590528558558, -56937.85034869318, -64613.30528417889, -29458.950991505506, -52913.32935253732, -48779.37421552828, -32672.03660870035, -0.07200000000000001, 1.01, 0.064, 192.0, 0.0, 0.0, 0.0, 0.0, 0.0, 0.0, 0.0, 0.0, 0.0, 1.69533791294672E9, 0.0, 2023-09-21 18:11:52.946
72.0, 25060.373551890083, 19631.514803351736, -53370.35547141499, -27532.63295085823, -34303.0434016041, -32960.463519151635, -187500.02235174447, -48427.64716477957, -23629.459575350236, -26974.487540064758, -56951.68607851101, -64624.59291512882, -29444.422357609554, -52947.28165236493, -48762.87862812026, -32682.005486727416, -0.07, 1.01, 0.056, 192.0, 126.5, 104.0, 15.5, 72.0, 0.5, 96.0, 0.0, 0.0, 0.0, 1.695337912946726E9, 0.0, 2023-09-21 18:11:52.946
74.0, 24998.86155114908, 19629.54784983967, -53357.682032308825, -27515.01977622745, -34332.346538585014, -32942.60447533184, -187500.02235174447, -48412.023295405306, -23621.882333979887, -26979.404923844926, -56946.12049414164, -64620.636656360235, -29461.67790432905, -52907.07086408984, -48769.181820056656, -32668.013294698394, -0.07, 1.01, 0.056, 192.0, 0.0, 0.0, 0.0, 0.0, 0.0, 0.0, 0.0, 0.0, 0.0, 1.695337913006487E9, 0.0, 2023-09-21 18:11:53.006
76.0, 25062.318153657696, 19616.159154910943, -53347.64609904839, -27521.92646526414, -34295.510863722666, -32953.33331267039, -187500.02235174447, -48401.38386504458, -23620.362415356925, -26966.91029869441, -56951.52961629983, -64620.97193252706, -29454.815918781274, -52965.543027584914, -48769.27122703448, -32696.668231090098, -0.07, 1.01, 0.056, 192.0, 0.0, 0.0, 0.0, 0.0, 0.0, 0.0, 0.0, 0.0, 0.0, 1.6953379130065E9, 0.0, 2023-09-21 18:11:53.006
78.0, 25016.56413275768, 19612.269951375718, -53333.81036923056, -27503.86625574425, -34314.97923314324, -32934.53549558348, -187500.02235174447, -48386.58701021517, -23625.99505495966, -26971.693572007844, -56956.24583437989, -64624.79408082892, -29451.127880946147, -52907.383788512205, -48756.15075303921, -32669.890841232642, -0.07, 1.01, 0.056, 192.0, 0.0, 0.0, 0.0, 0.0, 0.0, 0.0, 0.0, 0.0, 0.0, 1.695337913006504E9, 0.0, 2023-09-21 18:11:53.006
80.0, 25072.8681770406, 19593.15920986643, -53334.21270063075, -27525.234523443523, -34285.96666884025, -32961.022312763016, -187500.02235174447, -48406.569469758215, -23626.665607293322, -26958.99778115723, -56958.928043714535, -64622.2012784721, -29458.861584527684, -52979.736385314034, -48764.04091883194, -32706.927681795085, -0.07, 1.01, 0.056, 192.0, 0.0, 0.0, 0.0, 0.0, 0.0, 0.0, 0.0, 0.0, 0.0, 1.695337913006508E9, 0.0, 2023-09-21 18:11:53.006
82.0, 25052.371627375083, 19601.58581752608, -53319.147624867874, -27495.19377889559, -34308.67604120685, -32929.59576005885, -187500.02235174447, -48378.02629208878, -23631.24771490666, -26964.988048671254, -56963.21957864995, -64623.98941802853, -29443.39417736461, -52904.746282666485, -48746.13717152324, -32666.98511445345, -0.064, 1.006, 0.058, 192.0, 127.0, 0.0, 15.5, 56.0, 0.5, 104.0, 0.0, 0.0, 0.0, 1.695337913006512E9, 0.0, 2023-09-21 18:11:53.006
84.0, 25094.25879648433, 19583.34679405055, -53318.49942427867, -27513.20928492657, -34275.12607277943, -32952.19337370317, -187500.02235174447, -48389.11275733862, -23621.05531943504, -26955.577964255568, -56957.7434012584, -64613.48409813453, -29458.660418827585, -52988.49826914052, -48769.740613668044, -32716.784801099875, -0.064, 1.006, 0.058, 192.0, 0.0, 0.0, 0.0, 0.0, 0.0, 0.0, 0.0, 0.0, 0.0, 1.695337913006516E9, 0.0, 2023-09-21 18:11:53.006
86.0, 25101.165485521018, 19584.933767906878, -53318.07474113402, -27502.83807549931, -34299.847102146996, -32940.324597397404, -187500.02235174447, -48380.37322525659, -23630.554810828544, -26962.685818992355, -56968.09225894121, -64623.47532790605, -29432.285360370322, -52904.589820455294, -48743.47731393306, -32669.533213321356, -0.064, 1.006, 0.058, 192.0, 0.0, 0.0, 0.0, 0.0, 0.0, 0.0, 0.0, 0.0, 0.0, 1.69533791300652E9, 0.0, 2023-09-21 18:11:53.006
88.0, 25120.11976481912, 19573.69084044586, -53314.677275976814, -27510.102392447283, -34273.85202334548, -32954.69676908216, -187500.02235174447, -48389.82801316119, -23621.68116827979, -26958.975429412774, -56957.40812509157, -64611.69595857811, -29465.522404375366, -52984.989045261034, -48776.513192238, -32721.836295346773, -0.064, 1.006, 0.058, 192.0, 0.0, 0.0, 0.0, 0.0, 0.0, 0.0, 0.0, 0.0, 0.0, 1.695337913006524E9, 0.0, 2023-09-21 18:11:53.006
90.0, 25146.316009320737, 19576.998898625243, -53323.55091852557, -27507.017851712448, -34305.345631283, -32947.0748242229, -187500.02235174447, -48390.967952128405, -23637.372092887414, -26969.10076965103, -56975.781259033836, -64629.66676112018, -29428.95495044648, -52890.731738893, -48734.98365104004, -32662.40300684011, -0.064, 1.006, 0.058, 192.0, 0.0, 0.0, 0.0, 0.0, 0.0, 0.0, 0.0, 0.0, 0.0, 1.69533791306668E9, 0.0, 2023-09-21 18:11:53.066
92.0, 25138.470547016925, 19569.756933421726, -53321.36044756895, -27511.2423314145, -34285.653744417876, -32952.95333301465, -187500.02235174447, -48390.23034456138, -23626.06211019303, -26968.899603950933, -56960.93970071551, -64615.674569091156, -29480.341610949232, -52967.13000144124, -48780.447099262135, -32709.811056829818, -0.066, 1.002, 0.07, 192.0, 126.5, 120.0, 15.5, 40.0, 1.0, 24.0, 0.0, 0.0, 0.0, 1.69533791306669E9, 0.0, 2023-09-21 18:11:53.066
94.0, 25176.244995146393, 19571.410962511418, -53329.228261617216, -27512.136401192714, -34309.45835226278, -32954.652065593255, -187500.02235174447, -48400.64625747756, -23630.666569550824, -26964.071627148587, -56968.82986650823, -64621.91070579419, -29432.084194670224, -52888.027177813914, -48734.04487777292, -32662.917096962585, -0.066, 1.002, 0.07, 192.0, 0.0, 0.0, 0.0, 0.0, 0.0, 0.0, 0.0, 0.0, 0.0, 1.695337913066694E9, 0.0, 2023-09-21 18:11:53.066
96.0, 25134.670750459525, 19585.134933606976, -53302.02618861511, -27490.410505582156, -34276.64599140239, -32939.51993459701, -187500.02235174447, -48378.38392000007, -23625.726834026198, -26972.54293829715, -56957.40812509157, -64609.304321921394, -29487.918852319584, -52958.14460017021, -48781.40822427371, -32710.392202185656, -0.066, 1.002, 0.07, 192.0, 0.0, 0.0, 0.0, 0.0, 0.0, 0.0, 0.0, 0.0, 0.0, 1.695337913066698E9, 0.0, 2023-09-21 18:11:53.066
98.0, 25192.829989532234, 19589.69468947586, -53315.90662192186, -27504.6932702891, -34286.25724151817, -32949.24294343507, -187500.02235174447, -48394.678341707986, -23613.366319342414, -26939.37294952547, -56948.422723820535, -64599.04487121641, -29413.48754328341, -52909.57425946883, -48730.26743295997, -32681.022009971384, -0.066, 1.002, 0.07, 192.0, 0.0, 0.0, 0.0, 0.0, 0.0, 0.0, 0.0, 0.0, 0.0, 1.695337913066704E9, 0.0, 2023-09-21 18:11:53.066
100.0, 25143.253820330363, 19580.753991693735, -53310.65396197486, -27503.709793533064, -34282.34568623849, -32944.54907709945, -187500.02235174447, -48375.43348973197, -23621.591761301966, -26961.05414164712, -56945.762866230354, -64602.799964284895, -29471.69148584503, -52959.97744321555, -48776.60259921582, -32715.84602783275, -0.066, 1.002, 0.07, 192.0, 0.0, 0.0, 0.0, 0.0, 0.0, 0.0, 0.0, 0.0, 0.0, 1.695337913066709E9, 0.0, 2023-09-21 18:11:53.066
102.0, 25209.70555659599, 19580.172846337897, -53325.02613365962, -27515.35505239428, -34290.682886920324, -32954.74147257108, -187500.02235174447, -48395.05832136373, -23635.785119031087, -26957.29904857863, -56965.25358739538, -64620.92722903815, -29422.87527595464, -52896.65495117366, -48725.23829045753, -32672.70716103401, -0.068, 1.004, 0.068, 192.0, 126.5, 112.0, 15.5, 48.0, 1.0, 16.0, 0.0, 0.0, 0.0, 1.695337913066712E9, 0.0, 2023-09-21 18:11:53.066
104.0, 25137.129442349607, 19588.979433653287, -53298.941647880274, -27490.991650937995, -34280.04345655959, -32929.95338797014, -187500.02235174447, -48369.95731234042, -23619.848325234452, -26960.852975947022, -56939.057342893764, -64600.36362413927, -29474.88778530214, -52942.9454139406, -48772.24400904703, -32708.916987051605, -0.068, 1.004, 0.068, 192.0, 0.0, 0.0, 0.0, 0.0, 0.0, 0.0, 0.0, 0.0, 0.0, 1.695337913127174E9, 0.0, 2023-09-21 18:11:53.127
106.0, 25209.191466473516, 19588.666509230916, -53313.135005609394, -27505.028546455927, -34278.43413095881, -32944.57142884391, -187500.02235174447, -48386.89993463754, -23628.09611893846, -26948.760682196702, -56954.14477040109, -64611.047757988905, -29419.500162541888, -52910.691846691596, -48720.27620318845, -32677.22221341398, -0.068, 1.004, 0.068, 192.0, 0.0, 0.0, 0.0, 0.0, 0.0, 0.0, 0.0, 0.0, 0.0, 1.69533791312719E9, 0.0, 2023-09-21 18:11:53.127
108.0, 25132.50263124736, 19585.000823140243, -53300.32745603651, -27494.5902817953, -34282.233927516216, -32932.14385892676, -187500.02235174447, -48373.488887964355, -23614.997996687653, -26949.028903130165, -56930.250755578374, -64589.523028078445, -29460.515613617375, -52947.21459713156, -48756.955415839606, -32706.346536439247, -0.068, 1.004, 0.068, 192.0, 0.0, 0.0, 0.0, 0.0, 0.0, 0.0, 0.0, 0.0, 0.0, 1.695337913127194E9, 0.0, 2023-09-21 18:11:53.127
110.0, 25218.534495655837, 19578.563520737116, -53321.405151057865, -27517.858447773273, -34281.69748564929, -32958.54126912847, -187500.02235174447, -48402.25558307834, -23646.268087180626, -26959.511871279705, -56969.45571535298, -64623.72119709507, -29423.657587010573, -52912.94937288158, -48722.131397978235, -32674.584707568254, -0.068, 1.004, 0.068, 192.0, 0.0, 0.0, 0.0, 0.0, 0.0, 0.0, 0.0, 0.0, 0.0, 1.695337913127198E9, 0.0, 2023-09-21 18:11:53.127
112.0, 25137.84469817218, 19564.414866496907, -53326.07666564902, -27518.372537895746, -34302.708125437275, -32954.450899893156, -187500.02235174447, -48394.79010043026, -23638.266162665626, -26974.15226389793, -56955.46352332396, -64614.86990629076, -29474.440750413032, -52919.65489621817, -48764.3091397654, -32689.38156239767, -0.07200000000000001, 1.002, 0.068, 192.0, 126.5, 96.0, 15.5, 40.0, 1.0, 16.0, 0.0, 0.0, 0.0, 1.695337913127202E9, 0.0, 2023-09-21 18:11:53.127
114.0, 25214.33236769824, 19571.656831700424, -53323.46151154775, -27523.245218187003, -34274.52257567913, -32957.71425458363, -187500.02235174447, -48396.555888242234, -23643.608229590445, -26966.172691127384, -56971.89205549861, -64625.62109537377, -29441.606037808186, -52913.21759381505, -48746.29363373442, -32680.28440240436, -0.07200000000000001, 1.002, 0.068, 192.0, 0.0, 0.0, 0.0, 0.0, 0.0, 0.0, 0.0, 0.0, 0.0, 1.695337913127209E9, 0.0, 2023-09-21 18:11:53.127
116.0, 25129.686311445992, 19576.328346291586, -53315.63840098839, -27508.560122079867, -34295.6449741894, -32935.51897233951, -187500.02235174447, -48380.417928745504, -23634.19814517476, -26974.509891809215, -56958.65982278107, -64615.00401675749, -29472.96553527898, -52905.774462911424, -48766.79018339994, -32687.816940285797, -0.07200000000000001, 1.002, 0.068, 192.0, 0.0, 0.0, 0.0, 0.0, 0.0, 0.0, 0.0, 0.0, 0.0, 1.695337913127214E9, 0.0, 2023-09-21 18:11:53.127
118.0, 25207.09040249472, 19573.48967474576, -53322.522738280626, -27522.574665853343, -34270.834537844006, -32960.39646391827, -187500.02235174447, -48402.14382435606, -23632.63352306289, -26961.277659091673, -56963.6442617946, -64616.63569410273, -29439.840249996218, -52939.19032087211, -48741.04097378743, -32698.478722390977, -0.07200000000000001, 1.002, 0.068, 192.0, 0.0, 0.0, 0.0, 0.0, 0.0, 0.0, 0.0, 0.0, 0.0, 1.695337913127218E9, 0.0, 2023-09-21 18:11:53.127
120.0, 25128.59107596768, 19580.552825993636, -53318.8347004455, -27502.860427243762, -34292.62748868793, -32935.071937450404, -187500.02235174447, -48383.94950436944, -23629.370168372414, -26972.408827830415, -56954.27888086783, -64610.89129577772, -29458.72747406095, -52905.48389023351, -48756.3072152504, -32687.258146674416, -0.07200000000000001, 1.002, 0.068, 192.0, 0.0, 0.0, 0.0, 0.0, 0.0, 0.0, 0.0, 0.0, 0.0, 1.695337913187321E9, 0.0, 2023-09-21 18:11:53.187
122.0, 25188.31493715226, 19579.43523877087, -53325.7860929711, -27518.171372195648, -34265.7383401082, -32953.28860918148, -187500.02235174447, -48397.137033598076, -23637.30503765405, -26964.026923659676, -56965.208883906475, -64620.010807515486, -29442.008369208383, -52946.275823864446, -48747.27711049046, -32703.843141060253, -0.066, 1.002, 0.07, 192.0, 126.5, 120.0, 15.5, 40.0, 1.0, 24.0, 0.0, 0.0, 0.0, 1.69533791318734E9, 0.0, 2023-09-21 18:11:53.187
124.0, 25125.7300526774, 19589.35941330903, -53322.656848747356, -27506.10143018978, -34291.800474143085, -32934.311978138925, -187500.02235174447, -48381.08848107916, -23631.24771490666, -26972.498234808238, -56955.73174425742, -64614.624037101756, -29443.327122131246, -52904.96980011104, -48745.26545348948, -32687.593422841244, -0.066, 1.002, 0.07, 192.0, 0.0, 0.0, 0.0, 0.0, 0.0, 0.0, 0.0, 0.0, 0.0, 1.695337913187343E9, 0.0, 2023-09-21 18:11:53.187
126.0, 25176.289698635304, 19592.041622643665, -53320.064046390544, -27514.572741338343, -34259.01046502715, -32945.5772573444, -187500.02235174447, -48387.86105964912, -23616.741432755167, -26958.19311835684, -56943.97472667393, -64601.83883927332, -29442.880087242138, -52974.90840851169, -48752.86504660428, -32724.51850468141, -0.066, 1.002, 0.07, 192.0, 0.0, 0.0, 0.0, 0.0, 0.0, 0.0, 0.0, 0.0, 0.0, 1.695337913187347E9, 0.0, 2023-09-21 18:11:53.187
128.0, 25134.424881270515, 19582.810352183624, -53340.85116873398, -27518.953683251584, -34309.99479412971, -32949.60057134635, -187500.02235174447, -48396.31001905323, -23640.25546792215, -26979.069647678098, -56966.818209507255, -64624.57056338437, -29436.263970883367, -52894.531535450405, -48736.92825280765, -32676.462254102502, -0.066, 1.002, 0.07, 192.0, 0.0, 0.0, 0.0, 0.0, 0.0, 0.0, 0.0, 0.0, 0.0, 1.69533791318735E9, 0.0, 2023-09-21 18:11:53.187
130.0, 25167.59487004219, 19581.44689577185, -53342.169921656845, -27530.867163046263, -34278.59059317, -32966.16321398773, -187500.02235174447, -48405.69775172445, -23625.503316581646, -26971.00066792973, -56954.860026223665, -64615.76397606898, -29457.520479860366, -52961.67617579415, -48763.95151185412, -32710.14633299665, -0.066, 1.002, 0.07, 192.0, 0.0, 0.0, 0.0, 0.0, 0.0, 0.0, 0.0, 0.0, 0.0, 1.695337913187353E9, 0.0, 2023-09-21 18:11:53.187
132.0, 25142.06917787423, 19593.874465689, -53341.23114838972, -27513.365747137756, -34311.805285430586, -32943.63265557679, -187500.02235174447, -48392.376112029095, -23633.48288935219, -26979.784903500666, -56962.347860616195, -64625.665798862676, -29438.096813928703, -52874.884352074194, -48735.698906862606, -32660.346646350226, -0.062, 1.004, 0.07200000000000001, 192.0, 127.0, 8.0, 15.5, 48.0, 1.0, 32.0, 0.0, 0.0, 0.0, 1.695337913187357E9, 0.0, 2023-09-21 18:11:53.187
134.0, 25149.60171575567, 19593.919169177912, -53333.81036923056, -27519.6465873297, -34280.98222982672, -32952.10396672535, -187500.02235174447, -48400.80271968874, -23608.314825095516, -26959.422464301882, -56939.25850859386, -64603.49286836301, -29461.70025607351, -52965.699489796105, -48761.60457868631, -32716.4718766775, -0.062, 1.004, 0.07200000000000001, 192.0, 0.0, 0.0, 0.0, 0.0, 0.0, 0.0, 0.0, 0.0, 0.0, 1.695337913246689E9, 0.0, 2023-09-21 18:11:53.246
136.0, 25145.556050009258, 19600.892913447966, -53332.64807851888, -27508.068383701848, -34302.55166322609, -32940.324597397404, -187500.02235174447, -48389.917420139005, -23622.195258402262, -26965.05510390462, -56955.46352332396, -64619.51906913747, -29428.73143300193, -52878.6841486316, -48727.249947458506, -32666.493376075436, -0.062, 1.004, 0.07200000000000001, 192.0, 0.0, 0.0, 0.0, 0.0, 0.0, 0.0, 0.0, 0.0, 0.0, 1.695337913246704E9, 0.0, 2023-09-21 18:11:53.246
138.0, 25133.821384170224, 19603.530419293693, -53312.77737769811, -27498.881816730718, -34261.55856389506, -32936.815373517915, -187500.02235174447, -48382.34017876866, -23596.647214489843, -26954.460377032803, -56925.914517154044, -64591.35587112378, -29465.187128208534, -52975.64601607872, -48766.34314851084, -32727.044251804862, -0.062, 1.004, 0.07200000000000001, 192.0, 0.0, 0.0, 0.0, 0.0, 0.0, 0.0, 0.0, 0.0, 0.0, 1.695337913246708E9, 0.0, 2023-09-21 18:11:53.246
140.0, 25152.79801521278, 19601.63052101499, -53327.820101716534, -27501.496970831988, -34287.955974096774, -32936.547152584455, -187500.02235174447, -48380.23911478986, -23614.685072265278, -26956.00264740022, -56945.82992146372, -64608.186734698626, -29416.348566573688, -52892.631637171704, -48712.09546471781, -32674.38354186816, -0.062, 1.004, 0.07200000000000001, 192.0, 0.0, 0.0, 0.0, 0.0, 0.0, 0.0, 0.0, 0.0, 0.0, 1.695337913246711E9, 0.0, 2023-09-21 18:11:53.246
142.0, 25121.93025612, 19594.969701167312, -53320.84635744648, -27504.53680807791, -34273.9414303233, -32937.53062934049, -187500.02235174447, -48378.13805081106, -23613.947464698253, -26966.70913299431, -56940.42079930554, -64602.68820556262, -29468.338724176734, -52966.34769038531, -48751.81451461488, -32716.628338888688, -0.064, 1.004, 0.068, 192.0, 127.0, 0.0, 15.5, 48.0, 1.0, 16.0, 0.0, 0.0, 0.0, 1.695337913246714E9, 0.0, 2023-09-21 18:11:53.246
144.0, 25162.02928567282, 19599.59651226956, -53331.262270362655, -27508.4930668465, -34291.107570064974, -32933.3732048718, -187500.02235174447, -48378.808603144724, -23626.531496826592, -26962.328191081073, -56957.877511725135, -64617.84268830332, -29420.997729420393, -52894.4868319615, -48711.96135425107, -32666.13574816415, -0.064, 1.004, 0.068, 192.0, 0.0, 0.0, 0.0, 0.0, 0.0, 0.0, 0.0, 0.0, 0.0, 1.695337913246718E9, 0.0, 2023-09-21 18:11:53.246
146.0, 25112.78839263778, 19593.740355222268, -53319.84052894599, -27507.73310753502, -34276.713046635756, -32936.79302177346, -187500.02235174447, -48379.792079900755, -23606.370223327904, -26962.976391670276, -56932.620040490634, -64596.988510726515, -29464.248354941414, -52973.83552477784, -48760.308177507904, -32720.450487190545, -0.064, 1.004, 0.068, 192.0, 0.0, 0.0, 0.0, 0.0, 0.0, 0.0, 0.0, 0.0, 0.0, 1.695337913246721E9, 0.0, 2023-09-21 18:11:53.246
148.0, 25168.533643309314, 19583.9726428953, -53344.7403722692, -27525.88272403273, -34290.347610753495, -32953.82505104841, -187500.02235174447, -48395.05832136373, -23635.271028908617, -26970.151301640428, -56966.527636829334, -64627.99038028603, -29421.243598609402, -52903.94161986609, -48709.25679317198, -32675.098797690727, -0.064, 1.004, 0.068, 192.0, 0.0, 0.0, 0.0, 0.0, 0.0, 0.0, 0.0, 0.0, 0.0, 1.695337913246725E9, 0.0, 2023-09-21 18:11:53.246
150.0, 25098.416220953015, 19591.30401507664, -53320.82400570202, -27502.949834221585, -34279.88699434841, -32934.64725430575, -187500.02235174447, -48376.014635087806, -23620.764746757122, -26973.32524935308, -56944.26529935185, -64609.01374924347, -29470.68565734454, -52965.140696184724, -48768.1089363228, -32722.03746104687, -0.064, 1.004, 0.068, 192.0, 0.0, 0.0, 0.0, 0.0, 0.0, 0.0, 0.0, 0.0, 0.0, 1.695337913306896E9, 0.0, 2023-09-21 18:11:53.306
152.0, 25170.88057647712, 19592.175733110398, -53337.7889797436, -27519.288959418413, -34287.8442153745, -32952.79687080346, -187500.02235174447, -48398.34402779866, -23633.840517263478, -26965.993877171742, -56966.9970234629, -64625.12935699575, -29419.388403819612, -52913.70933219306, -48715.895261275204, -32681.3125826493, -0.064, 1.002, 0.068, 192.0, 127.0, 0.0, 15.5, 40.0, 1.0, 16.0, 0.0, 0.0, 0.0, 1.695337913306906E9, 0.0, 2023-09-21 18:11:53.306
154.0, 25087.6203283811, 19597.54015177967, -53316.152491110865, -27498.34537486379, -34279.50701469267, -32929.30518738094, -187500.02235174447, -48368.05741406172, -23609.09713615145, -26957.52256602318, -56930.36251430065, -64594.86509500326, -29467.757578820896, -52966.615911318775, -48761.71633740859, -32727.670100649608, -0.064, 1.002, 0.068, 192.0, 0.0, 0.0, 0.0, 0.0, 0.0, 0.0, 0.0, 0.0, 0.0, 1.69533791330691E9, 0.0, 2023-09-21 18:11:53.306
156.0, 25167.863090975654, 19578.83174167058, -53348.69663103779, -27534.778718325942, -34292.38161949893, -32964.95621978715, -187500.02235174447, -48409.00580990384, -23639.33904639948, -26962.95403992582, -56970.863875253664, -64627.02925527445, -29414.850999695183, -52922.44886427509, -48712.09546471781, -32690.476797875977, -0.064, 1.002, 0.068, 192.0, 0.0, 0.0, 0.0, 0.0, 0.0, 0.0, 0.0, 0.0, 0.0, 1.695337913306913E9, 0.0, 2023-09-21 18:11:53.306
158.0, 25080.713639344413, 19585.40315454044, -53327.01543891614, -27506.816686012353, -34294.41562824436, -32936.86007700683, -187500.02235174447, -48378.62978918908, -23636.947409742763, -26978.354391855526, -56959.352726859186, -64618.08855749233, -29473.59138412373, -52929.60142250078, -48756.88836060624, -32707.553530639834, -0.064, 1.002, 0.068, 192.0, 0.0, 0.0, 0.0, 0.0, 0.0, 0.0, 0.0, 0.0, 0.0, 1.695337913306917E9, 0.0, 2023-09-21 18:11:53.306
160.0, 25169.628878787626, 19581.223378327297, -53343.2428053907, -27530.844811301806, -34282.21157577176, -32963.57041163092, -187500.02235174447, -48406.45771103594, -23628.587857316477, -26954.99681889973, -56956.15642740207, -64612.45591788959, -29421.556523031777, -52936.17283537064, -48717.750456065, -32701.004469514428, -0.064, 1.002, 0.068, 192.0, 0.0, 0.0, 0.0, 0.0, 0.0, 0.0, 0.0, 0.0, 0.0, 1.69533791330692E9, 0.0, 2023-09-21 18:11:53.306
162.0, 25089.654337126536, 19593.40507905544, -53330.54701454008, -27504.58151156682, -34303.71395393777, -32932.30032113795, -187500.02235174447, -48381.602571201634, -23641.417758633826, -26982.690630279856, -56958.302194869786, -64619.4520139041, -29471.445616656023, -52911.60826821426, -48745.757191867495, -32691.102646720727, -0.066, 1.002, 0.058, 192.0, 126.5, 120.0, 15.5, 40.0, 0.5, 104.0, 0.0, 0.0, 0.0, 1.695337913306924E9, 0.0, 2023-09-21 18:11:53.306
164.0, 25166.45493107497, 19587.168942352408, -53350.77534327214, -27537.30446544939, -34288.60417468598, -32962.676341852704, -187500.02235174447, -48412.80560646125, -23637.43914812078, -26961.47882479177, -56962.88430248312, -64620.23432496004, -29440.175526163046, -52935.077599892335, -48722.37726716725, -32694.813036300307, -0.066, 1.002, 0.058, 192.0, 0.0, 0.0, 0.0, 0.0, 0.0, 0.0, 0.0, 0.0, 0.0, 1.695337913367238E9, 0.0, 2023-09-21 18:11:53.367
166.0, 25079.77486607729, 19591.72869822129, -53349.166017671356, -27520.607712341276, -34313.01227963118, -32937.97766422959, -187500.02235174447, -48387.257562548824, -23637.886183009887, -26980.790732001155, -56960.17974140403, -64621.687188349635, -29469.63512535514, -52911.317695536345, -48749.534636680444, -32693.203710699527, -0.066, 1.002, 0.058, 192.0, 0.0, 0.0, 0.0, 0.0, 0.0, 0.0, 0.0, 0.0, 0.0, 1.695337913367254E9, 0.0, 2023-09-21 18:11:53.367
168.0, 25145.77956745381, 19595.237922100776, -53352.585834573016, -27531.40360491319, -34281.83159611602, -32952.99803650356, -187500.02235174447, -48398.47813826539, -23634.48871785268, -26962.931688181365, -56962.213750149465, -64619.34025518182, -29443.505936086887, -52949.069791921356, -48742.203264499105, -32711.554492897332, -0.066, 1.002, 0.058, 192.0, 0.0, 0.0, 0.0, 0.0, 0.0, 0.0, 0.0, 0.0, 0.0, 1.695337913367259E9, 0.0, 2023-09-21 18:11:53.367
170.0, 25075.97506951989, 19601.719927992814, -53352.787000273114, -27517.83609602882, -34315.53802675462, -32937.597684573855, -187500.02235174447, -48394.43247251898, -23641.663627822832, -26973.48171156427, -56963.17487516104, -64621.664836605174, -29459.57684035025, -52901.32646576482, -48750.249892503016, -32691.79555079884, -0.066, 1.002, 0.058, 192.0, 0.0, 0.0, 0.0, 0.0, 0.0, 0.0, 0.0, 0.0, 0.0, 1.695337913367264E9, 0.0, 2023-09-21 18:11:53.367
172.0, 25136.078910360207, 19598.50127679125, -53359.40311663188, -27538.17618348315, -34286.704276407276, -32958.228344706105, -187500.02235174447, -48408.24585059236, -23633.371130629916, -26962.05997014761, -56956.402296591084, -64613.66291209018, -29458.3027909163, -52956.8481989918, -48751.47923844805, -32720.18226625708, -0.07200000000000001, 1.002, 0.06, 192.0, 126.5, 96.0, 15.5, 40.0, 0.5, 112.0, 0.0, 0.0, 0.0, 1.695337913367277E9, 0.0, 2023-09-21 18:11:53.367
174.0, 25078.612575365612, 19609.565390296626, -53359.626634076434, -27520.563008852365, -34325.7527739707, -32938.17882992969, -187500.02235174447, -48396.75705394233, -23649.86671803793, -26979.33786861156, -56967.935796730024, -64627.52099365247, -29463.846023541217, -52887.200163269066, -48745.51132267849, -32684.41947512859, -0.07200000000000001, 1.002, 0.06, 192.0, 0.0, 0.0, 0.0, 0.0, 0.0, 0.0, 0.0, 0.0, 0.0, 1.695337913367282E9, 0.0, 2023-09-21 18:11:53.367
176.0, 25117.63872118458, 19604.73741349428, -53358.01730847565, -27535.985712526526, -34284.98319208422, -32958.38480691729, -187500.02235174447, -48410.279859337796, -23627.49262183817, -26954.79565319963, -56947.75217148688, -64605.996263742, -29456.715817059972, -52967.28646365243, -48759.4588112186, -32729.681757650585, -0.07200000000000001, 1.002, 0.06, 192.0, 0.0, 0.0, 0.0, 0.0, 0.0, 0.0, 0.0, 0.0, 0.0, 1.695337913367287E9, 0.0, 2023-09-21 18:11:53.367
178.0, 25084.267566712806, 19593.807410455636, -53384.70529135529, -27545.21698298657, -34343.2094863903, -32966.81141457694, -187500.02235174447, -48424.428513578, -23660.215575720737, -26986.021040203697, -56980.96686374747, -64639.41212170269, -29451.329046646246, -52869.40817468264, -48735.02835452895, -32671.053131944318, -0.07200000000000001, 1.002, 0.06, 192.0, 0.0, 0.0, 0.0, 0.0, 0.0, 0.0, 0.0, 0.0, 0.0, 1.695337913367292E9, 0.0, 2023-09-21 18:11:53.367
180.0, 25094.459962184428, 19614.326311865607, -53360.2971864101, -27527.357939166777, -34297.76838991266, -32956.44020514968, -187500.02235174447, -48411.665667494024, -23636.835651020487, -26973.70522900882, -56955.66468902406, -64614.22170570156, -29482.442674928032, -52949.74034425501, -48773.719224181084, -32721.545722668856, -0.07200000000000001, 1.002, 0.06, 192.0, 0.0, 0.0, 0.0, 0.0, 0.0, 0.0, 0.0, 0.0, 0.0, 1.695337913426922E9, 0.0, 2023-09-21 18:11:53.426
182.0, 25080.981860277876, 19618.0814049341, -53366.26510217966, -27521.814706541863, -34327.42915480485, -32944.593780588366, -187500.02235174447, -48399.931001654986, -23639.048473721563, -26969.748970240234, -56957.18460764702, -64613.50644987899, -29439.661436040573, -52878.527686420406, -48730.98268878254, -32676.484605846956, -0.07, 1.006, 0.056, 192.0, 126.5, 104.0, 15.5, 56.0, 0.5, 96.0, 0.0, 0.0, 0.0, 1.695337913426937E9, 0.0, 2023-09-21 18:11:53.426
184.0, 25081.317136444704, 19606.16792513942, -53366.39921264639, -27538.98084628354, -34298.863625390964, -32964.66564710923, -187500.02235174447, -48414.05730415074, -23632.231191662693, -26974.77811274268, -56950.05440116578, -64608.87963877674, -29472.719666089975, -52956.1999984026, -48759.01177632949, -32713.99083304296, -0.07, 1.006, 0.056, 192.0, 0.0, 0.0, 0.0, 0.0, 0.0, 0.0, 0.0, 0.0, 0.0, 1.695337913426941E9, 0.0, 2023-09-21 18:11:53.426
186.0, 25086.659203369523, 19609.49833506326, -53371.92009352685, -27533.39291016971, -34327.49621003821, -32958.34010342838, -187500.02235174447, -48414.817263462224, -23648.547965115067, -26987.25038614874, -56972.02616596534, -64634.76295885599, -29444.511764587376, -52862.859113557235, -48725.64062185772, -32656.345684092725, -0.07, 1.006, 0.056, 192.0, 0.0, 0.0, 0.0, 0.0, 0.0, 0.0, 0.0, 0.0, 0.0, 1.695337913426946E9, 0.0, 2023-09-21 18:11:53.426
188.0, 25061.9158222575, 19607.84430597357, -53365.10281146799, -27533.348206680803, -34304.0939335935, -32959.92707728471, -187500.02235174447, -48406.994152902866, -23625.592723559468, -26982.891795979955, -56950.1438081436, -64611.07010973336, -29479.93927954904, -52959.64216704872, -48774.076852092374, -32715.175475499094, -0.07, 1.006, 0.056, 192.0, 0.0, 0.0, 0.0, 0.0, 0.0, 0.0, 0.0, 0.0, 0.0, 1.695337913426951E9, 0.0, 2023-09-21 18:11:53.426
190.0, 25085.183988235472, 19614.438070587883, -53378.513858141174, -27534.06346250337, -34319.471933778754, -32958.563620872934, -187500.02235174447, -48409.18462385948, -23639.115528954928, -26985.68576403687, -56971.26620665386, -64628.951505297606, -29435.235790638424, -52883.355663222756, -48727.13818873623, -32662.93944870704, -0.07, 1.006, 0.056, 192.0, 0.0, 0.0, 0.0, 0.0, 0.0, 0.0, 0.0, 0.0, 0.0, 1.695337913426957E9, 0.0, 2023-09-21 18:11:53.426
192.0, 25050.404673863017, 19608.06782341812, -53380.70432909779, -27542.93710505213, -34315.76154419917, -32970.61121113434, -187500.02235174447, -48415.75603672934, -23627.559677071535, -26991.67603155089, -56955.93290995752, -64618.33442668134, -29479.201671982013, -52957.13877166972, -48777.11668933829, -32712.04623127535, -0.064, 1.01, 0.056, 192.0, 127.0, 0.0, 15.5, 72.0, 0.5, 96.0, 0.0, 0.0, 0.0, 1.695337913426963E9, 0.0, 2023-09-21 18:11:53.426
194.0, 25091.867159827612, 19628.653780061457, -53374.42348890585, -27532.83411655833, -34322.8023437026, -32951.05343473595, -187500.02235174447, -48406.837690691675, -23635.06986320852, -26991.541921084157, -56967.868741496655, -64631.27608672096, -29433.604113293186, -52882.66275914464, -48740.3033662204, -32667.99094295394, -0.064, 1.01, 0.056, 192.0, 0.0, 0.0, 0.0, 0.0, 0.0, 0.0, 0.0, 0.0, 0.0, 1.695337913487287E9, 0.0, 2023-09-21 18:11:53.487
196.0, 25029.841068964135, 19641.595440101082, -53343.30986062406, -27509.58830232481, -34296.80726490108, -32932.59089381587, -187500.02235174447, -48382.451937490936, -23594.00970864412, -26971.42535107438, -56922.07001710773, -64588.472496089045, -29468.428131154556, -52972.42736487715, -48785.342131297846, -32732.252208262948, -0.064, 1.01, 0.056, 192.0, 0.0, 0.0, 0.0, 0.0, 0.0, 0.0, 0.0, 0.0, 0.0, 1.695337913487314E9, 0.0, 2023-09-21 18:11:53.487
198.0, 25098.326813975196, 19627.804413772155, -53373.88704703892, -27536.700968349098, -34306.37381152795, -32957.53544062799, -187500.02235174447, -48410.57043201571, -23610.3711855854, -26963.42342655938, -56944.868796452145, -64606.75622305349, -29406.82672343573, -52925.8910329212, -48716.52111011995, -32697.159969468117, -0.064, 1.01, 0.056, 192.0, 0.0, 0.0, 0.0, 0.0, 0.0, 0.0, 0.0, 0.0, 0.0, 1.695337913487317E9, 0.0, 2023-09-21 18:11:53.487
200.0, 25029.774013730766, 19628.36320738354, -53365.996881246196, -27524.251046687492, -34312.52054125316, -32946.20310618915, -187500.02235174447, -48401.808548189234, -23617.702557766745, -26988.94911872734, -56945.38288657462, -64610.1983916996, -29475.714799846985, -52957.85402749229, -48767.77366015597, -32725.70314713754, -0.064, 1.01, 0.056, 192.0, 0.0, 0.0, 0.0, 0.0, 0.0, 0.0, 0.0, 0.0, 0.0, 1.695337913487321E9, 0.0, 2023-09-21 18:11:53.487
202.0, 25107.759250135336, 19629.994884728778, -53377.66449185187, -27534.801070070396, -34309.704221451786, -32958.004827261546, -187500.02235174447, -48414.66080125103, -23624.34102586997, -26970.352467340526, -56955.44117157951, -64612.27710393395, -29421.087136398215, -52914.178718826624, -48726.57939512484, -32693.337821166257, -0.064, 1.014, 0.062, 192.0, 127.0, 0.0, 15.5, 88.0, 0.5, 120.0, 0.0, 0.0, 0.0, 1.695337913487324E9, 0.0, 2023-09-21 18:11:53.487
204.0, 25023.33671132764, 19633.526460352714, -53363.26996842265, -27518.1937239401, -34322.578826258046, -32939.58698983038, -187500.02235174447, -48400.15451909954, -23619.535400812078, -26988.166807671405, -56941.40427606157, -64602.934074751625, -29473.21140446799, -52937.111608637766, -48766.47725897757, -32717.85768483373, -0.064, 1.014, 0.062, 192.0, 0.0, 0.0, 0.0, 0.0, 0.0, 0.0, 0.0, 0.0, 0.0, 1.695337913487327E9, 0.0, 2023-09-21 18:11:53.487
206.0, 25105.077040800697, 19635.962800498342, -53376.055166251084, -27536.11982299326, -34316.87913142194, -32959.971780773616, -187500.02235174447, -48424.92025195602, -23627.04558694906, -26970.10659815152, -56954.12241865664, -64608.99139749902, -29422.87527595464, -52918.53730899541, -48726.78056082494, -32700.80330381433, -0.064, 1.014, 0.062, 192.0, 0.0, 0.0, 0.0, 0.0, 0.0, 0.0, 0.0, 0.0, 0.0, 1.695337913487331E9, 0.0, 2023-09-21 18:11:53.487
208.0, 25021.839144449135, 19639.092044722085, -53364.07463122304, -27519.601883840787, -34325.48455303723, -32940.749280542055, -187500.02235174447, -48396.26531556431, -23619.66951127881, -26981.751857012732, -56938.006810904364, -64599.715423550064, -29459.755654305896, -52922.27005031944, -48757.89418910673, -32714.214350487513, -0.064, 1.014, 0.062, 192.0, 0.0, 0.0, 0.0, 0.0, 0.0, 0.0, 0.0, 0.0, 0.0, 1.695337913487335E9, 0.0, 2023-09-21 18:11:53.487
210.0, 25097.96918606391, 19651.31844893914, -53360.61011083247, -27522.73112806453, -34301.61288995897, -32949.62292309081, -187500.02235174447, -48406.90474592504, -23621.43529909078, -26971.11242665201, -56944.46646505195, -64602.28587416242, -29421.35535733168, -52923.23117533102, -48730.22272947106, -32702.70320209303, -0.064, 1.014, 0.062, 192.0, 0.0, 0.0, 0.0, 0.0, 0.0, 0.0, 0.0, 0.0, 0.0, 1.695337913546752E9, 0.0, 2023-09-21 18:11:53.546
212.0, 25016.161801357484, 19647.920983781933, -53364.119334711955, -27516.092659961305, -34325.48455303723, -32939.16230668573, -187500.02235174447, -48400.44509177746, -23621.792927002065, -26979.807255245123, -56935.65987773656, -64596.07208920385, -29450.54673559031, -52912.74820718148, -48747.54533142392, -32705.072487005295, -0.07200000000000001, 1.012, 0.064, 192.0, 126.5, 96.0, 15.5, 80.0, 1.0, 0.0, 0.0, 0.0, 0.0, 1.695337913546767E9, 0.0, 2023-09-21 18:11:53.546
214.0, 25094.34820346215, 19646.356361670063, -53377.21745696276, -27539.07025326136, -34298.34953526849, -32963.61511511983, -187500.02235174447, -48419.93581294249, -23625.704482281744, -26965.680952749368, -56944.53352028532, -64597.23437991553, -29434.766404004862, -52934.76467546996, -48731.78735158293, -32707.531178895377, -0.07200000000000001, 1.012, 0.064, 192.0, 0.0, 0.0, 0.0, 0.0, 0.0, 0.0, 0.0, 0.0, 0.0, 1.695337913546773E9, 0.0, 2023-09-21 18:11:53.546
216.0, 25021.883847938043, 19652.123111739533, -53375.56342787307, -27524.40750889868, -34336.682777009344, -32941.97862648709, -187500.02235174447, -48407.888222681075, -23637.81912777652, -26989.01617396071, -56950.5908430327, -64607.22560968705, -29461.946125262515, -52893.52570694992, -48747.67944189065, -32690.789722298352, -0.07200000000000001, 1.012, 0.064, 192.0, 0.0, 0.0, 0.0, 0.0, 0.0, 0.0, 0.0, 0.0, 0.0, 1.695337913546779E9, 0.0, 2023-09-21 18:11:53.546
218.0, 25089.63198538208, 19648.904460537968, -53380.03377676413, -27541.21602072907, -34307.15612258388, -32964.88916455378, -187500.02235174447, -48420.58401353169, -23627.6267323049, -26968.20669987282, -56943.79591271829, -64597.30143514889, -29446.411662866078, -52945.8958442087, -48748.417049457676, -32711.6215481307, -0.07200000000000001, 1.012, 0.064, 192.0, 0.0, 0.0, 0.0, 0.0, 0.0, 0.0, 0.0, 0.0, 0.0, 1.695337913546784E9, 0.0, 2023-09-21 18:11:53.546
220.0, 25020.408632803996, 19663.36603920055, -53365.63925333491, -27513.96924423805, -34330.42428856186, -32938.44705086316, -187500.02235174447, -48402.05441737824, -23625.726834026198, -26980.008420945218, -56934.11760736914, -64595.42388861465, -29458.191032194023, -52893.25748601645, -48749.60169191381, -32686.408780385114, -0.07200000000000001, 1.012, 0.064, 192.0, 0.0, 0.0, 0.0, 0.0, 0.0, 0.0, 0.0, 0.0, 0.0, 1.69533791354679E9, 0.0, 2023-09-21 18:11:53.546
222.0, 25077.517339887305, 19654.380637929517, -53375.585779617526, -27535.426918915146, -34306.95495688378, -32960.77644357401, -187500.02235174447, -48418.39354257507, -23620.071842679008, -26969.123121395485, -56933.00002014638, -64592.07112694635, -29449.58561057873, -52959.753925770994, -48750.07107854737, -32722.3727372137, -0.066, 1.008, 0.07, 192.0, 126.5, 120.0, 15.5, 64.0, 1.0, 24.0, 0.0, 0.0, 0.0, 1.695337913546795E9, 0.0, 2023-09-21 18:11:53.546
224.0, 25030.735138742348, 19659.7897600877, -53369.908436525875, -27513.522209348943, -34329.12788738345, -32926.064184434916, -187500.02235174447, -48391.92907713998, -23625.726834026198, -26979.42727558938, -56936.46454053695, -64598.77665028294, -29444.690578543017, -52888.49656444747, -48741.13038076525, -32685.447655373533, -0.066, 1.008, 0.07, 192.0, 0.0, 0.0, 0.0, 0.0, 0.0, 0.0, 0.0, 0.0, 0.0, 1.695337913606406E9, 0.0, 2023-09-21 18:11:53.606
226.0, 25065.0674182257, 19651.966649528345, -53373.03768074962, -27533.236447958523, -34298.19307305731, -32946.60543758934, -187500.02235174447, -48409.45284479295, -23617.680206022287, -26971.24653711874, -56933.02237189083, -64594.17219092515, -29455.754692048395, -52961.296196138406, -48748.84173260233, -32722.462144191522, -0.066, 1.008, 0.07, 192.0, 0.0, 0.0, 0.0, 0.0, 0.0, 0.0, 0.0, 0.0, 0.0, 1.69533791360643E9, 0.0, 2023-09-21 18:11:53.606
228.0, 25034.311417855195, 19661.399085688485, -53373.50706738318, -27520.2947879189, -34325.305739081596, -32935.16134442823, -187500.02235174447, -48398.81341443222, -23625.749185770655, -26978.04146743315, -56942.61127026216, -64604.58810384132, -29437.135688917126, -52885.34496847927, -48730.15567423769, -32678.071579703283, -0.066, 1.008, 0.07, 192.0, 0.0, 0.0, 0.0, 0.0, 0.0, 0.0, 0.0, 0.0, 0.0, 1.695337913606436E9, 0.0, 2023-09-21 18:11:53.606
230.0, 25047.498947083826, 19641.662495334447, -53385.55465764459, -27547.87684057675, -34311.514712752665, -32965.89499305427, -187500.02235174447, -48426.7307432569, -23617.657854277833, -26974.845167976044, -56937.13509287061, -64596.720289793055, -29457.98986649393, -52969.745155542514, -48762.85627637581, -32727.55834192733, -0.066, 1.008, 0.07, 192.0, 0.0, 0.0, 0.0, 0.0, 0.0, 0.0, 0.0, 0.0, 0.0, 1.695337913606442E9, 0.0, 2023-09-21 18:11:53.606
232.0, 25038.848821979624, 19645.059960491653, -53391.38846294743, -27540.299599206402, -34346.13756491394, -32955.56848711592, -187500.02235174447, -48420.36049608714, -23650.514918627134, -27002.807200289633, -56970.19332292001, -64633.5559646554, -29444.35530237619, -52863.03792751288, -48741.80093309891, -32662.335951606747, -0.068, 1.006, 0.06, 192.0, 126.5, 112.0, 15.5, 56.0, 0.5, 112.0, 0.0, 0.0, 0.0, 1.695337913606448E9, 0.0, 2023-09-21 18:11:53.606
234.0, 25031.428042820462, 19648.770350071234, -53374.4458406503, -27536.052767759895, -34313.10168660899, -32953.28860918148, -187500.02235174447, -48406.79298720277, -23617.38963334437, -26985.8198745036, -56931.41304629005, -64596.74264153751, -29471.423264911566, -52954.68007977964, -48783.53163999697, -32721.23279824648, -0.068, 1.006, 0.06, 192.0, 0.0, 0.0, 0.0, 0.0, 0.0, 0.0, 0.0, 0.0, 0.0, 1.695337913606454E9, 0.0, 2023-09-21 18:11:53.606
236.0, 25044.034426693255, 19664.237757234307, -53377.530381385135, -27523.49108737601, -34330.536047284135, -32942.67153056521, -187500.02235174447, -48407.03885639177, -23628.00671196064, -26989.01617396071, -56945.80756971927, -64611.58419985583, -29432.933560959525, -52872.1797909951, -48738.984613297536, -32667.633315042654, -0.068, 1.006, 0.06, 192.0, 0.0, 0.0, 0.0, 0.0, 0.0, 0.0, 0.0, 0.0, 0.0, 1.69533791360646E9, 0.0, 2023-09-21 18:11:53.606
238.0, 25017.27938858025, 19659.27566996523, -53372.88121853843, -27523.35697690928, -34314.46514302077, -32948.505335868045, -187500.02235174447, -48404.91544066852, -23598.748278468644, -26974.308726109117, -56916.99617111638, -64584.06920243135, -29469.568070121775, -52965.94535898511, -48779.396567272735, -32729.704109395043, -0.068, 1.006, 0.06, 192.0, 0.0, 0.0, 0.0, 0.0, 0.0, 0.0, 0.0, 0.0, 0.0, 1.695337913606467E9, 0.0, 2023-09-21 18:11:53.606
240.0, 25053.444511108937, 19671.56912941565, -53378.33504418553, -27520.92063676365, -34333.531181041144, -32942.44801312066, -187500.02235174447, -48404.043722634764, -23619.24482813416, -26980.611918045513, -56943.75120922938, -64607.6502928317, -29426.16098238957, -52877.90183757566, -48727.451113158604, -32668.84030924324, -0.068, 1.006, 0.06, 192.0, 0.0, 0.0, 0.0, 0.0, 0.0, 0.0, 0.0, 0.0, 0.0, 1.695337913667851E9, 0.0, 2023-09-21 18:11:53.667
242.0, 25005.008280874288, 19661.980231044323, -53376.770422073656, -27526.463869388568, -34316.32033781056, -32948.84061203487, -187500.02235174447, -48405.11660636862, -23607.420755317304, -26974.57694704258, -56924.19343283099, -64588.51719957795, -29468.24931719891, -52952.71312626757, -48768.980654356565, -32716.024841788396, -0.07200000000000001, 1.01, 0.056, 192.0, 126.5, 96.0, 15.5, 72.0, 0.5, 96.0, 0.0, 0.0, 0.0, 1.695337913667867E9, 0.0, 2023-09-21 18:11:53.667
244.0, 25051.29874364123, 19675.681850395424, -53378.022119763154, -27522.820535042352, -34322.712936724776, -32946.896010267265, -187500.02235174447, -48408.96110641493, -23616.09323216596, -26971.134778396463, -56938.76677021584, -64598.620188071756, -29420.52834278683, -52888.40715746965, -48726.624098613756, -32672.237774400448, -0.07200000000000001, 1.01, 0.056, 192.0, 0.0, 0.0, 0.0, 0.0, 0.0, 0.0, 0.0, 0.0, 0.0, 1.695337913667874E9, 0.0, 2023-09-21 18:11:53.667
