%OpenBCI Raw EXG Data
%Number of channels = 16
%Sample Rate = 125 Hz
%Board = OpenBCI_GUI$BoardCytonSerialDaisy
Sample Index, EXG Channel 0, EXG Channel 1, EXG Channel 2, EXG Channel 3, EXG Channel 4, EXG Channel 5, EXG Channel 6, EXG Channel 7, EXG Channel 8, EXG Channel 9, EXG Channel 10, EXG Channel 11, EXG Channel 12, EXG Channel 13, EXG Channel 14, EXG Channel 15, Accel Channel 0, Accel Channel 1, Accel Channel 2, Other, Other, Other, Other, Other, Other, Other, Analog Channel 0, Analog Channel 1, Analog Channel 2, Timestamp, Other, Timestamp (Formatted)
62.0, 9300.918495764554, 16863.318307795325, -187500.02235174447, -51558.36660365661, 11683.92737912266, -10401.876020655158, -187500.02235174447, -19517.38679616294, -5153.64171906015, 28655.562240548403, -39643.992739199726, -187500.02235174447, -9230.44344549697, -40159.53572506139, -44505.89948962921, -6611.154271501812, 0.0, 0.0, 0.0, 192.0, 0.0, 0.0, 0.0, 0.0, 0.0, 0.0, 0.0, 0.0, 0.0, 1.695336441561545E9, 0.0, 2023-09-21 17:47:21.561
64.0, 9320.878603563144, 16880.14917137017, -187500.02235174447, -51551.39285938655, 11683.100364577815, -10389.91783737157, -187500.02235174447, -19502.612293077982, -5157.374460384186, 28681.020877483, -39644.216256644286, -187500.02235174447, -9243.094532858675, -40158.14991690516, -44465.86751530976, -6615.982248304159, 0.0, 0.0, 0.0, 192.0, 0.0, 0.0, 0.0, 0.0, 0.0, 0.0, 0.0, 0.0, 0.0, 1.695336441561554E9, 0.0, 2023-09-21 17:47:21.561
66.0, 9315.692998849512, 16878.67395623612, -187500.02235174447, -51549.22474017439, 11658.44639044361, -10392.041253094823, -187500.02235174447, -19502.299368655607, -5145.058649189312, 28676.505825103024, -39626.4019163134, -187500.02235174447, -9239.272384556816, -40147.10815514423, -44467.879172310735, -6601.632428363851, 0.0, 0.0, 0.0, 192.0, 0.0, 0.0, 0.0, 0.0, 0.0, 0.0, 0.0, 0.0, 0.0, 1.695336441561558E9, 0.0, 2023-09-21 17:47:21.561
68.0, 9321.504452407891, 16877.243444590982, -187500.02235174447, -51554.20917918792, 11674.718460407074, -10401.093709599223, -187500.02235174447, -19511.709453071293, -5158.804972029326, 28697.49411314656, -39639.432983330844, -187500.02235174447, -9260.439486555993, -40160.4297948396, -44428.47304683603, -6615.825786092972, 0.20600000000000002, 0.978, 0.168, 192.0, 3.0, 56.0, 15.0, 72.0, 2.5, 32.0, 0.0, 0.0, 0.0, 1.695336441561562E9, 0.0, 2023-09-21 17:47:21.561
70.0, 9324.566641398269, 16892.017947675937, -187500.02235174447, -51537.62418480208, 11652.769047351963, -10384.016976835368, -187500.02235174447, -19499.259531409687, -5146.377402112174, 28681.06558097191, -39623.429134300844, -187500.02235174447, -9249.755352706356, -40142.101364386246, -44415.46433156304, -6599.911344040793, 0.20600000000000002, 0.978, 0.168, 192.0, 0.0, 0.0, 0.0, 0.0, 0.0, 0.0, 0.0, 0.0, 0.0, 1.695336441561565E9, 0.0, 2023-09-21 17:47:21.561
72.0, 9322.13030125264, 16889.514552296943, -187500.02235174447, -51537.870053991086, 11668.191751026125, -10388.509677470885, -187500.02235174447, -19508.781374547645, -5156.234521416965, 28684.798322295945, -39633.06273616108, -187500.02235174447, -9252.504617274359, -40141.78843996387, -44398.8793371772, -6594.658684093796, 0.20600000000000002, 0.978, 0.168, 192.0, 0.0, 0.0, 0.0, 0.0, 0.0, 0.0, 0.0, 0.0, 0.0, 1.695336441561569E9, 0.0, 2023-09-21 17:47:21.561
74.0, 9305.947638266998, 16888.732241241007, -187500.02235174447, -51538.27238539128, 11644.16362573667, -10386.676834425549, -187500.02235174447, -19505.47331636826, -5164.147038954144, 28664.122958674787, -39645.78087875615, -187500.02235174447, -9254.69508823098, -40139.933245174085, -44352.83474359927, -6597.698521339717, 0.20600000000000002, 0.978, 0.168, 192.0, 0.0, 0.0, 0.0, 0.0, 0.0, 0.0, 0.0, 0.0, 0.0, 1.695336441561572E9, 0.0, 2023-09-21 17:47:21.561
76.0, 9297.096347462697, 16867.989822386484, -187500.02235174447, -51554.03036523228, 11688.084803591348, -10406.949866646513, -187500.02235174447, -19510.256589681696, -5163.834114531769, 28676.170548936196, -39650.09476543603, -187500.02235174447, -9248.391896294583, -40150.1256406457, -44346.084516773764, -6604.314637698489, 0.20600000000000002, 0.978, 0.168, 192.0, 0.0, 0.0, 0.0, 0.0, 0.0, 0.0, 0.0, 0.0, 0.0, 1.695336441561576E9, 0.0, 2023-09-21 17:47:21.561
78.0, 9296.492850362403, 16883.457229549556, -187500.02235174447, -51553.7174408099, 11669.398745226712, -10399.082052598245, -187500.02235174447, -19504.66865356787, -5156.011003972412, 28664.19001390815, -39650.139468924935, -187500.02235174447, -9237.21602406693, -40153.478402314, -44316.379048392664, -6609.612001134396, 0.21, 0.978, 0.17200000000000001, 192.0, 3.0, 72.0, 15.0, 72.0, 2.5, 48.0, 0.0, 0.0, 0.0, 1.695336441561579E9, 0.0, 2023-09-21 17:47:21.561
0.0, 4680.947027319316, 8535.88533829276, -93750.01117587223, -25685.79771349403, 5865.455372983858, -5253.330499330819, -93750.01117587223, -9735.570518442455, -2580.1512694539156, 14332.69850405437, -19824.052730089752, -93750.01117587223, -4617.915107955349, -20076.44862847908, -22179.680726490107, -3307.4770340296072, 0.214, 0.981, 0.174, 192.0, 3.0, 104.0, 15.0, 96.0, 2.5, 64.0, 0.0, 0.0, 0.0, 1.695336441711501E9, 0.0, 2023-09-21 17:47:21.711
2.0, 9355.792028402333, 17080.37609820081, -187500.02235174447, -51361.000700116245, 11704.312170065901, -10494.054614788845, -187500.02235174447, -19461.976821658234, -5301.47615688755, 28197.239720492333, -39555.59158987899, -187500.02235174447, -9580.114135755794, -40105.399799990635, -31096.216272856745, -7147.909062851556, 0.214, 0.981, 0.174, 192.0, 0.0, 0.0, 0.0, 0.0, 0.0, 0.0, 0.0, 0.0, 0.0, 1.695336441711512E9, 0.0, 2023-09-21 17:47:21.711
4.0, 9354.450923735014, 17070.09429575137, -187500.02235174447, -51371.72953745479, 11722.327676096878, -10506.705702150548, -187500.02235174447, -19477.265414865662, -5305.655933100693, 28215.277578267764, -39558.765537591644, -187500.02235174447, -9581.32112995638, -40106.13740755766, -31102.273595604136, -7145.092743050188, 0.214, 0.981, 0.174, 192.0, 0.0, 0.0, 0.0, 0.0, 0.0, 0.0, 0.0, 0.0, 0.0, 1.695336441711516E9, 0.0, 2023-09-21 17:47:21.711
6.0, 9347.544234698324, 17070.250757962556, -187500.02235174447, -51373.74119445577, 11687.771879168973, -10502.74944338196, -187500.02235174447, -19469.531711284126, -5305.365360422774, 28203.09587753962, -39565.24754348368, -187500.02235174447, -9588.160763759704, -40113.289965783355, -31058.933563105296, -7152.826446631724, 0.214, 0.981, 0.174, 192.0, 0.0, 0.0, 0.0, 0.0, 0.0, 0.0, 0.0, 0.0, 0.0, 1.69533644171152E9, 0.0, 2023-09-21 17:47:21.711
8.0, 9351.500493466914, 17065.959223027137, -187500.02235174447, -51376.1775346014, 11715.957428927117, -10512.763024897937, -187500.02235174447, -19475.030240420132, -5304.515994133472, 28213.422383477973, -39564.845212083485, -187500.02235174447, -9581.410536934201, -40114.09462858375, -31065.303810275058, -7149.183112285508, 0.224, 0.974, 0.17, 192.0, 3.5, 0.0, 15.0, 56.0, 2.5, 40.0, 0.0, 0.0, 0.0, 1.695336441711524E9, 0.0, 2023-09-21 17:47:21.711
10.0, 9348.773580643367, 17071.033069018493, -187500.02235174447, -51364.64403446246, 11695.03619611695, -10496.334492723287, -187500.02235174447, -19457.908804167368, -5301.900840032201, 28216.68573816845, -39563.30294171607, -187500.02235174447, -9583.712766613098, -40110.004259348425, -31009.37974564788, -7145.249205261374, 0.224, 0.974, 0.17, 192.0, 0.0, 0.0, 0.0, 0.0, 0.0, 0.0, 0.0, 0.0, 0.0, 1.695336441711527E9, 0.0, 2023-09-21 17:47:21.711
12.0, 9347.007792831397, 17059.253699690547, -187500.02235174447, -51374.79172644517, 11706.793213700439, -10512.092472564278, -187500.02235174447, -19475.61138577597, -5301.945543521112, 28207.320357241675, -39574.81409011055, -187500.02235174447, -9592.295836483936, -40113.89346288365, -31008.150399702838, -7147.149103540076, 0.224, 0.974, 0.17, 192.0, 0.0, 0.0, 0.0, 0.0, 0.0, 0.0, 0.0, 0.0, 0.0, 1.695336441711531E9, 0.0, 2023-09-21 17:47:21.711
14.0, 9349.46648472148, 17069.356688184344, -187500.02235174447, -51369.114383353524, 11670.225759771558, -10501.587152670283, -187500.02235174447, -19464.077885637034, -5299.352741164296, 28207.745040386326, -39577.652761656376, -187500.02235174447, -9593.592237662344, -40106.5173872134, -30955.60144848841, -7146.36679248414, 0.224, 0.974, 0.17, 192.0, 0.0, 0.0, 0.0, 0.0, 0.0, 0.0, 0.0, 0.0, 0.0, 1.695336441711535E9, 0.0, 2023-09-21 17:47:21.711
16.0, 9349.287670765838, 17056.57149035591, -187500.02235174447, -51376.69162472387, 11696.690225206641, -10515.93697261059, -187500.02235174447, -19477.980670688234, -5295.195316695609, 28187.360249443085, -39577.83157561202, -187500.02235174447, -9590.75356611652, -40105.06452382381, -30986.5139110701, -7142.678754649014, 0.224, 0.974, 0.17, 192.0, 0.0, 0.0, 0.0, 0.0, 0.0, 0.0, 0.0, 0.0, 0.0, 1.695336441771745E9, 0.0, 2023-09-21 17:47:21.771
18.0, 9345.778446886356, 17057.912595023226, -187500.02235174447, -51387.66633125143, 11671.365698738779, -10515.109958065745, -187500.02235174447, -19482.585130046027, -5304.471290644561, 28179.805359817194, -39588.56041295057, -187500.02235174447, -9597.481441197568, -40120.151951331136, -30917.625834658844, -7162.281234536319, 0.218, 0.98, 0.176, 192.0, 3.0, 104.0, 15.0, 80.0, 2.5, 64.0, 0.0, 0.0, 0.0, 1.695336441771755E9, 0.0, 2023-09-21 17:47:21.771
20.0, 9333.03795254683, 17041.282897148478, -187500.02235174447, -51404.31838087063, 11681.759259910496, -10524.900022137168, -187500.02235174447, -19491.995214461713, -5312.204994226097, 28152.33506588162, -39594.774197909144, -187500.02235174447, -9602.644694166744, -40128.958538646526, -30931.68508192123, -7169.433792762017, 0.218, 0.98, 0.176, 192.0, 0.0, 0.0, 0.0, 0.0, 0.0, 0.0, 0.0, 0.0, 0.0, 1.69533644177176E9, 0.0, 2023-09-21 17:47:21.771
22.0, 9330.981592056942, 17042.646353560252, -187500.02235174447, -51400.563287802135, 11653.551358407898, -10518.641533689683, -187500.02235174447, -19486.697851025805, -5318.91051756269, 28164.360304398575, -39607.93937539332, -187500.02235174447, -9609.730197159077, -40140.64850099665, -30851.464671071135, -7178.530952755327, 0.218, 0.98, 0.176, 192.0, 0.0, 0.0, 0.0, 0.0, 0.0, 0.0, 0.0, 0.0, 0.0, 1.695336441771766E9, 0.0, 2023-09-21 17:47:21.771
24.0, 9332.836786846732, 17047.4743303626, -187500.02235174447, -51389.29800859666, 11683.21212330009, -10510.17022254112, -187500.02235174447, -19481.512246312173, -5314.037837271433, 28146.344798367598, -39597.18818631032, -187500.02235174447, -9605.058682567917, -40127.617433979205, -30868.228479412614, -7165.2540165488745, 0.218, 0.98, 0.176, 192.0, 0.0, 0.0, 0.0, 0.0, 0.0, 0.0, 0.0, 0.0, 0.0, 1.695336441771769E9, 0.0, 2023-09-21 17:47:21.771
26.0, 9348.639470176635, 17061.801798558452, -187500.02235174447, -51378.63622649148, 11690.4093850147, -10499.55314392485, -187500.02235174447, -19472.973879930243, -5317.748226851014, 28182.264051707276, -39598.55164272209, -187500.02235174447, -9608.702016914132, -40128.243282823954, -30797.753429145032, -7172.697147452492, 0.218, 0.98, 0.176, 192.0, 0.0, 0.0, 0.0, 0.0, 0.0, 0.0, 0.0, 0.0, 0.0, 1.695336441771773E9, 0.0, 2023-09-21 17:47:21.771
28.0, 9338.782350871845, 17052.48112112059, -187500.02235174447, -51382.63718874898, 11716.292705093945, -10515.445234232573, -187500.02235174447, -19480.81934223406, -5296.268200429464, 28165.321429410153, -39576.91515408935, -187500.02235174447, -9585.880885825263, -40104.93041335707, -30839.39472906527, -7149.943071596989, 0.216, 0.976, 0.17200000000000001, 192.0, 3.0, 96.0, 15.0, 64.0, 2.5, 48.0, 0.0, 0.0, 0.0, 1.695336441771776E9, 0.0, 2023-09-21 17:47:21.771
30.0, 9345.13024629715, 17056.504435122544, -187500.02235174447, -51385.09588063906, 11712.023521902982, -10524.497690736973, -187500.02235174447, -19487.256644637186, -5309.008694768989, 28168.853005034092, -39596.65174444339, -187500.02235174447, -9603.024673822483, -40122.99062287696, -30773.90411781122, -7170.797249173791, 0.216, 0.976, 0.17200000000000001, 192.0, 0.0, 0.0, 0.0, 0.0, 0.0, 0.0, 0.0, 0.0, 0.0, 1.695336441831149E9, 0.0, 2023-09-21 17:47:21.831
32.0, 9333.663801391578, 17045.686190806173, -187500.02235174447, -51396.78584298919, 11700.445318275133, -10543.876653179725, -187500.02235174447, -19502.232313422242, -5315.535404149939, 28137.918190707947, -39602.01616311266, -187500.02235174447, -9608.61260993631, -40125.02463162239, -30784.588251660854, -7180.184981845019, 0.216, 0.976, 0.17200000000000001, 192.0, 0.0, 0.0, 0.0, 0.0, 0.0, 0.0, 0.0, 0.0, 0.0, 1.695336441831159E9, 0.0, 2023-09-21 17:47:21.831
34.0, 9344.727914896956, 17054.93981301067, -187500.02235174447, -51390.9296859419, 11679.792306398429, -10532.946650141079, -187500.02235174447, -19497.0020052197, -5321.7044856196035, 28168.58478410063, -39611.31448880607, -187500.02235174447, -9617.352142018335, -40132.80303869284, -30709.419335057657, -7189.058624393777, 0.216, 0.976, 0.17200000000000001, 192.0, 0.0, 0.0, 0.0, 0.0, 0.0, 0.0, 0.0, 0.0, 0.0, 1.695336441831162E9, 0.0, 2023-09-21 17:47:21.831
36.0, 9337.485949693437, 17055.856234533338, -187500.02235174447, -51380.64788349246, 11666.984756825537, -10521.99429535798, -187500.02235174447, -19491.123496427954, -5308.584011624338, 28152.08919669261, -39596.11530257646, -187500.02235174447, -9607.517374458, -40113.89346288365, -30726.965454455076, -7172.317167796751, 0.216, 0.976, 0.17200000000000001, 192.0, 0.0, 0.0, 0.0, 0.0, 0.0, 0.0, 0.0, 0.0, 0.0, 1.695336441831166E9, 0.0, 2023-09-21 17:47:21.831
38.0, 9343.856196863198, 17055.006868244036, -187500.02235174447, -51382.90540968245, 11670.426925471655, -10519.60265870126, -187500.02235174447, -19489.983557460735, -5322.6432588867265, 28185.23683371983, -39603.80430266909, -187500.02235174447, -9615.653409439732, -40118.5202739859, -30688.207529569572, -7171.445449762995, 0.212, 0.978, 0.17, 192.0, 3.0, 80.0, 15.0, 72.0, 2.5, 40.0, 0.0, 0.0, 0.0, 1.69533644183117E9, 0.0, 2023-09-21 17:47:21.831
40.0, 9335.831920603743, 17048.502510607545, -187500.02235174447, -51387.442813806876, 11647.695201360608, -10528.498652994473, -187500.02235174447, -19499.438345365328, -5315.200127983109, 28156.33602813912, -39599.6468782004, -187500.02235174447, -9613.150014060739, -40114.67577393958, -30685.614727212756, -7167.533894483316, 0.212, 0.978, 0.17, 192.0, 0.0, 0.0, 0.0, 0.0, 0.0, 0.0, 0.0, 0.0, 0.0, 1.695336441831173E9, 0.0, 2023-09-21 17:47:21.831
42.0, 9341.531615439846, 17045.127397194792, -187500.02235174447, -51393.74600574327, 11677.244207530524, -10528.141025083189, -187500.02235174447, -19497.024356964157, -5320.653953630203, 28162.23688867532, -39609.36988703846, -187500.02235174447, -9623.543575232456, -40132.26659682591, -30633.646921354168, -7182.017824890355, 0.212, 0.978, 0.17, 192.0, 0.0, 0.0, 0.0, 0.0, 0.0, 0.0, 0.0, 0.0, 0.0, 1.695336441831177E9, 0.0, 2023-09-21 17:47:21.831
44.0, 9341.308097995294, 17056.079751977893, -187500.02235174447, -51381.25138059275, 11666.872998103261, -10503.710568393537, -187500.02235174447, -19480.864045722967, -5314.037837271433, 28150.323408880642, -39599.803340411585, -187500.02235174447, -9614.178194305683, -40117.29092804086, -30610.088182698273, -7173.27829280833, 0.212, 0.978, 0.17, 192.0, 0.0, 0.0, 0.0, 0.0, 0.0, 0.0, 0.0, 0.0, 0.0, 1.69533644183118E9, 0.0, 2023-09-21 17:47:21.831
46.0, 9339.966993327975, 17041.41700761521, -187500.02235174447, -51396.8305464781, 11696.243190317535, -10513.612391187238, -187500.02235174447, -19494.208037162785, -5318.485834418039, 28175.044438248213, -39605.27951780314, -187500.02235174447, -9620.704903686632, -40115.83806465126, -30585.43420856407, -7173.077127108232, 0.212, 0.978, 0.17, 192.0, 0.0, 0.0, 0.0, 0.0, 0.0, 0.0, 0.0, 0.0, 0.0, 1.695336441890984E9, 0.0, 2023-09-21 17:47:21.890
48.0, 9329.7522461119, 17039.18183316968, -187500.02235174447, -51399.937438957386, 11670.292815004923, -10503.665864904628, -187500.02235174447, -19484.350917857995, -5334.713200892592, 28141.360359354065, -39617.52827376465, -187500.02235174447, -9637.28989807247, -40132.870093926205, -30536.506239951403, -7186.711691225969, 0.216, 0.976, 0.166, 192.0, 3.0, 96.0, 15.0, 64.0, 2.5, 24.0, 0.0, 0.0, 0.0, 1.695336441890996E9, 0.0, 2023-09-21 17:47:21.890
50.0, 9340.212862516984, 17039.427702358687, -187500.02235174447, -51399.55745930165, 11706.480289278066, -10507.689178906581, -187500.02235174447, -19488.62010104896, -5322.9338315646455, 28147.86471699056, -39610.085142861026, -187500.02235174447, -9629.802063679941, -40126.34338454525, -30521.105888021695, -7179.022691133344, 0.216, 0.976, 0.166, 192.0, 0.0, 0.0, 0.0, 0.0, 0.0, 0.0, 0.0, 0.0, 0.0, 1.695336441891E9, 0.0, 2023-09-21 17:47:21.891
52.0, 9339.743475883422, 17047.51903385151, -187500.02235174447, -51389.83445046359, 11680.574617454366, -10505.185783527588, -187500.02235174447, -19484.194455646808, -5320.38573269674, 28153.206783915375, -39607.13471259293, -187500.02235174447, -9631.187871836171, -40123.52706474389, -30472.51319557586, -7183.291874324307, 0.216, 0.976, 0.166, 192.0, 0.0, 0.0, 0.0, 0.0, 0.0, 0.0, 0.0, 0.0, 0.0, 1.695336441891003E9, 0.0, 2023-09-21 17:47:21.891
54.0, 9348.393600987625, 17049.530690852487, -187500.02235174447, -51385.92289518391, 11711.911763180706, -10518.261554033943, -187500.02235174447, -19490.00590920519, -5310.014523269478, 28168.696542822905, -39594.93066012033, -187500.02235174447, -9621.755435676032, -40117.22387280749, -30475.50832933287, -7177.368662043651, 0.216, 0.976, 0.166, 192.0, 0.0, 0.0, 0.0, 0.0, 0.0, 0.0, 0.0, 0.0, 0.0, 1.695336441891006E9, 0.0, 2023-09-21 17:47:21.891
56.0, 9346.493702708925, 17056.593842100363, -187500.02235174447, -51380.156145114444, 11686.4084227572, -10523.648324447671, -187500.02235174447, -19486.51903707016, -5312.584973881838, 28159.375865385042, -39593.12016881945, -187500.02235174447, -9618.067397840905, -40122.36477403221, -30428.457907254447, -7182.666025479559, 0.216, 0.976, 0.166, 192.0, 0.0, 0.0, 0.0, 0.0, 0.0, 0.0, 0.0, 0.0, 0.0, 1.695336441891009E9, 0.0, 2023-09-21 17:47:21.891
58.0, 9357.155484814106, 17060.70656308014, -187500.02235174447, -51374.16587760042, 11713.968123670593, -10523.804786658859, -187500.02235174447, -19483.05451667959, -5304.627752855748, 28155.531365338727, -39581.296096002596, -187500.02235174447, -9608.098519813839, -40113.0664483388, -30441.399567294073, -7169.389089273106, 0.22, 0.978, 0.164, 192.0, 3.0, 112.0, 15.0, 72.0, 2.5, 16.0, 0.0, 0.0, 0.0, 1.695336441891013E9, 0.0, 2023-09-21 17:47:21.891
60.0, 9355.881435380154, 17064.707525337642, -187500.02235174447, -51371.05898512113, 11691.392861770733, -10511.623085930716, -187500.02235174447, -19478.360650343973, -5310.260392458486, 28162.326295653143, -39588.694523417296, -187500.02235174447, -9612.390054749258, -40117.17916931858, -30380.53576714227, -7177.011034132366, 0.22, 0.978, 0.164, 192.0, 0.0, 0.0, 0.0, 0.0, 0.0, 0.0, 0.0, 0.0, 0.0, 1.695336441952013E9, 0.0, 2023-09-21 17:47:21.952
62.0, 9357.46840923648, 17059.56662411292, -187500.02235174447, -51369.62847347599, 11715.420987060188, -10506.526888194907, -187500.02235174447, -19474.270281108653, -5301.587915609827, 28152.692693792906, -39581.40785472487, -187500.02235174447, -9607.606781435821, -40107.1655878026, -30396.271395238808, -7165.097554337687, 0.22, 0.978, 0.164, 192.0, 0.0, 0.0, 0.0, 0.0, 0.0, 0.0, 0.0, 0.0, 0.0, 1.695336441952028E9, 0.0, 2023-09-21 17:47:21.952
64.0, 9356.708449925, 17063.23231020359, -187500.02235174447, -51365.44869726285, 11685.246132045524, -10491.46181243203, -187500.02235174447, -19470.738705484713, -5290.501450359995, 28169.367095156565, -39578.23390701222, -187500.02235174447, -9607.584429691367, -40104.01399183441, -30344.48240333586, -7158.436734490006, 0.22, 0.978, 0.164, 192.0, 0.0, 0.0, 0.0, 0.0, 0.0, 0.0, 0.0, 0.0, 0.0, 1.695336441952032E9, 0.0, 2023-09-21 17:47:21.952
66.0, 9352.081638822752, 17049.463635619122, -187500.02235174447, -51374.09882236706, 11710.861231191306, -10500.670731147615, -187500.02235174447, -19483.61331029097, -5302.660799343682, 28161.208708430375, -39584.93943034881, -187500.02235174447, -9612.85944138282, -40110.47364598199, -30364.554269856726, -7162.102420580676, 0.22, 0.978, 0.164, 192.0, 0.0, 0.0, 0.0, 0.0, 0.0, 0.0, 0.0, 0.0, 0.0, 1.695336441952035E9, 0.0, 2023-09-21 17:47:21.952
68.0, 9351.656955678101, 17050.871795519804, -187500.02235174447, -51373.18240084439, 11696.89139090674, -10492.042957787868, -187500.02235174447, -19471.968051429754, -5314.663686116181, 28168.651839333994, -39589.96857285125, -187500.02235174447, -9620.704903686632, -40115.92747162908, -30286.189053796417, -7164.4270020040285, 0.22, 0.982, 0.166, 192.0, 3.0, 112.0, 15.0, 88.0, 2.5, 24.0, 0.0, 0.0, 0.0, 1.695336441952039E9, 0.0, 2023-09-21 17:47:21.952
70.0, 9359.211845303995, 17055.90093802225, -187500.02235174447, -51363.92877863989, 11716.717388238596, -10495.753347367448, -187500.02235174447, -19472.415086318862, -5306.415892412173, 28146.36715011205, -39577.719816889745, -187500.02235174447, -9609.618438436799, -40113.53583497237, -30300.874149903557, -7155.821580388735, 0.22, 0.982, 0.166, 192.0, 0.0, 0.0, 0.0, 0.0, 0.0, 0.0, 0.0, 0.0, 0.0, 1.695336441952043E9, 0.0, 2023-09-21 17:47:21.952
72.0, 9364.866836651187, 17063.99226951507, -187500.02235174447, -51367.90738915293, 11700.713539208597, -10502.347111981764, -187500.02235174447, -19477.779504988135, -5302.794909810414, 28164.203842187388, -39573.89766858789, -187500.02235174447, -9605.706883157121, -40113.80405590583, -30242.536096875203, -7167.623301461137, 0.22, 0.982, 0.166, 192.0, 0.0, 0.0, 0.0, 0.0, 0.0, 0.0, 0.0, 0.0, 0.0, 1.695336441952046E9, 0.0, 2023-09-21 17:47:21.952
74.0, 9364.956243629009, 17064.305193937445, -187500.02235174447, -51362.967653628315, 11715.309228337912, -10498.502611935452, -187500.02235174447, -19470.403429317885, -5293.787156794925, 28144.57901055563, -39565.49341267269, -187500.02235174447, -9604.52224070099, -40106.33857325776, -30260.66336162846, -7163.331766525718, 0.22, 0.982, 0.166, 192.0, 0.0, 0.0, 0.0, 0.0, 0.0, 0.0, 0.0, 0.0, 0.0, 1.69533644195205E9, 0.0, 2023-09-21 17:47:21.952
76.0, 9375.61802573419, 17075.45871442064, -187500.02235174447, -51357.62558670349, 11709.229553846068, -10493.831097344291, -187500.02235174447, -19464.055533892577, -5297.229325441042, 28169.903537023492, -39562.94531380478, -187500.02235174447, -9601.191830777148, -40101.063561566305, -30201.565349288627, -7162.929435125522, 0.22, 0.982, 0.166, 192.0, 0.0, 0.0, 0.0, 0.0, 0.0, 0.0, 0.0, 0.0, 0.0, 1.695336442011405E9, 0.0, 2023-09-21 17:47:22.011
78.0, 9367.347880285726, 17066.965051527626, -187500.02235174447, -51358.49730473725, 11725.613382531808, -10501.453042203551, -187500.02235174447, -19471.163388629364, -5289.942656748612, 28165.947278254902, -39558.51966840264, -187500.02235174447, -9589.680682382666, -40089.2618404939, -30237.46225088385, -7159.979004857422, 0.22, 0.98, 0.164, 192.0, 3.0, 112.0, 15.0, 80.0, 2.5, 16.0, 0.0, 0.0, 0.0, 1.695336442011416E9, 0.0, 2023-09-21 17:47:22.011
80.0, 9367.52669424137, 17065.355725926845, -187500.02235174447, -51363.392336772966, 11721.902992952228, -10500.961303825534, -187500.02235174447, -19475.47727530924, -5303.62192435526, 28184.43217091944, -39576.803395367075, -187500.02235174447, -9606.913877357707, -40106.18211104657, -30178.744218199758, -7181.839010934712, 0.22, 0.98, 0.164, 192.0, 0.0, 0.0, 0.0, 0.0, 0.0, 0.0, 0.0, 0.0, 0.0, 1.69533644201142E9, 0.0, 2023-09-21 17:47:22.011
82.0, 9356.887263880642, 17055.073923477405, -187500.02235174447, -51368.42147927541, 11709.631885246265, -10512.360693497742, -187500.02235174447, -19487.77073475966, -5296.33525566283, 28151.99978971479, -39568.37678770743, -187500.02235174447, -9599.38133947627, -40099.90127085463, -30187.21552934832, -7174.686452709014, 0.22, 0.98, 0.164, 192.0, 0.0, 0.0, 0.0, 0.0, 0.0, 0.0, 0.0, 0.0, 0.0, 1.695336442011423E9, 0.0, 2023-09-21 17:47:22.011
84.0, 9370.499476253925, 17068.395563172766, -187500.02235174447, -51362.25239780574, 11715.443338804644, -10499.419033458118, -187500.02235174447, -19477.10895265448, -5303.778386566447, 28158.682961306928, -39576.73634013371, -187500.02235174447, -9611.00424659303, -40111.50182622693, -30117.52279013667, -7188.052795893288, 0.22, 0.98, 0.164, 192.0, 0.0, 0.0, 0.0, 0.0, 0.0, 0.0, 0.0, 0.0, 0.0, 1.695336442011427E9, 0.0, 2023-09-21 17:47:22.011
86.0, 9364.352746528715, 17067.09916199436, -187500.02235174447, -51360.06192684912, 11707.88844917875, -10498.636722402183, -187500.02235174447, -19485.446153336306, -5292.043720727411, 28145.875411734036, -39565.694578372786, -187500.02235174447, -9602.220011022093, -40092.59225041774, -30113.186551712344, -7172.384223030117, 0.22, 0.98, 0.164, 192.0, 0.0, 0.0, 0.0, 0.0, 0.0, 0.0, 0.0, 0.0, 0.0, 1.69533644201143E9, 0.0, 2023-09-21 17:47:22.011
88.0, 9380.021319391886, 17079.079697022404, -187500.02235174447, -51345.890920864455, 11737.504510582032, -10483.258722216931, -187500.02235174447, -19472.035106663123, -5294.725930062048, 28170.216461445867, -39571.72954937572, -187500.02235174447, -9605.081034312372, -40087.89838408213, -30055.250830084187, -7173.434755019517, 0.222, 0.98, 0.162, 192.0, 3.0, 120.0, 15.0, 80.0, 2.5, 8.0, 0.0, 0.0, 0.0, 1.695336442011433E9, 0.0, 2023-09-21 17:47:22.011
90.0, 9362.408144761104, 17073.134132997293, -187500.02235174447, -51353.35640351253, 11709.900106179728, -10492.512344421428, -187500.02235174447, -19485.736726014224, -5295.61999984026, 28164.405007887486, -39567.88504932941, -187500.02235174447, -9604.455185467623, -40078.041264777334, -30042.15270783338, -7167.109211338665, 0.222, 0.98, 0.162, 192.0, 0.0, 0.0, 0.0, 0.0, 0.0, 0.0, 0.0, 0.0, 0.0, 1.695336442071116E9, 0.0, 2023-09-21 17:47:22.071
92.0, 9371.550008243325, 17073.268243464023, -187500.02235174447, -51356.61975820301, 11716.046835904937, -10495.26160898943, -187500.02235174447, -19485.267339380665, -5307.95816277959, 28174.306830681187, -39578.97151457924, -187500.02235174447, -9616.23455479557, -40093.55337542932, -29996.801018333557, -7184.3871098026175, 0.222, 0.98, 0.162, 192.0, 0.0, 0.0, 0.0, 0.0, 0.0, 0.0, 0.0, 0.0, 0.0, 1.695336442071131E9, 0.0, 2023-09-21 17:47:22.071
94.0, 9355.412048746592, 17062.51705438102, -187500.02235174447, -51362.542970483664, 11693.78449842745, -10507.711530651037, -187500.02235174447, -19491.503476083693, -5298.726892319548, 28151.48569959232, -39568.980284807716, -187500.02235174447, -9611.563040204412, -40089.239488749445, -29985.111055983434, -7185.147069114098, 0.222, 0.98, 0.162, 192.0, 0.0, 0.0, 0.0, 0.0, 0.0, 0.0, 0.0, 0.0, 0.0, 1.695336442071135E9, 0.0, 2023-09-21 17:47:22.071
96.0, 9365.738554684944, 17068.172045728214, -187500.02235174447, -51361.31362453862, 11717.343237083345, -10509.074987062811, -187500.02235174447, -19489.849446994, -5318.508186162494, 28149.943429224903, -39586.101721060484, -187500.02235174447, -9630.070284613406, -40109.937204115064, -29937.792412971547, -7200.905048955089, 0.222, 0.98, 0.162, 192.0, 0.0, 0.0, 0.0, 0.0, 0.0, 0.0, 0.0, 0.0, 0.0, 1.695336442071139E9, 0.0, 2023-09-21 17:47:22.071
98.0, 9364.37509827317, 17074.497589409064, -187500.02235174447, -51347.58965344306, 11709.564830012898, -10495.798050856358, -187500.02235174447, -19470.71635374026, -5289.80854628188, 28152.983266470823, -39555.72570034572, -187500.02235174447, -9598.75549063152, -40080.67877062306, -29920.313348807496, -7175.111135853665, 0.22, 0.98, 0.164, 192.0, 3.0, 112.0, 15.0, 80.0, 2.5, 16.0, 0.0, 0.0, 0.0, 1.695336442071143E9, 0.0, 2023-09-21 17:47:22.071
100.0, 9368.845447164233, 17068.619080617318, -187500.02235174447, -51354.67515643539, 11724.138167397758, -10508.583248684794, -187500.02235174447, -19489.268301638163, -5303.063130743877, 28152.58093507063, -39572.53421217611, -187500.02235174447, -9615.161671061716, -40098.85073886523, -29904.935348622246, -7191.964351172966, 0.22, 0.98, 0.164, 192.0, 0.0, 0.0, 0.0, 0.0, 0.0, 0.0, 0.0, 0.0, 0.0, 1.695336442071146E9, 0.0, 2023-09-21 17:47:22.071
102.0, 9359.413011004091, 17065.579243371398, -187500.02235174447, -51356.50799948073, 11701.518202008987, -10508.069158562323, -187500.02235174447, -19484.552083558094, -5299.017464997467, 28137.225286629833, -39567.41566269585, -187500.02235174447, -9609.841955881353, -40091.3629044727, -29883.231804756142, -7186.935208670522, 0.22, 0.98, 0.164, 192.0, 0.0, 0.0, 0.0, 0.0, 0.0, 0.0, 0.0, 0.0, 0.0, 1.695336442071149E9, 0.0, 2023-09-21 17:47:22.071
104.0, 9362.296386038826, 17059.678382835198, -187500.02235174447, -51361.492438494264, 11709.944809668637, -10516.004027843956, -187500.02235174447, -19493.96216797378, -5315.62481112776, 28130.1397836375, -39586.74992164969, -187500.02235174447, -9624.795272921952, -40103.924584856584, -29872.927650562247, -7200.368607088162, 0.22, 0.98, 0.164, 192.0, 0.0, 0.0, 0.0, 0.0, 0.0, 0.0, 0.0, 0.0, 0.0, 1.695336442071153E9, 0.0, 2023-09-21 17:47:22.071
106.0, 9346.046667819819, 17050.313001908424, -187500.02235174447, -51367.72857519729, 11688.55419022491, -10517.121615066722, -187500.02235174447, -19494.453906351795, -5314.641334371726, 28128.66456850345, -39589.76740715116, -187500.02235174447, -9626.896336900752, -40113.98286986147, -29833.879152998827, -7207.789386247324, 0.22, 0.98, 0.164, 192.0, 0.0, 0.0, 0.0, 0.0, 0.0, 0.0, 0.0, 0.0, 0.0, 1.695336442132821E9, 0.0, 2023-09-21 17:47:22.132
108.0, 9347.588938187235, 17046.669667562208, -187500.02235174447, -51356.01626110271, 11730.754283756529, -10509.678484163105, -187500.02235174447, -19487.32369987055, -5307.533479634939, 28114.001824140767, -39584.53709894861, -187500.02235174447, -9618.447377496646, -40103.05286682283, -29850.687664829216, -7196.524107041849, 0.218, 0.982, 0.162, 192.0, 3.0, 104.0, 15.0, 88.0, 2.5, 8.0, 0.0, 0.0, 0.0, 1.69533644213284E9, 0.0, 2023-09-21 17:47:22.132
110.0, 9341.621022417668, 17043.249850660544, -187500.02235174447, -51363.3252815396, 11698.277199062968, -10514.104129565256, -187500.02235174447, -19488.62010104896, -5324.632564143249, 28117.98043465381, -39597.5458142216, -187500.02235174447, -9632.506624759035, -40113.714648928006, -29783.587727974384, -7206.47063332446, 0.218, 0.982, 0.162, 192.0, 0.0, 0.0, 0.0, 0.0, 0.0, 0.0, 0.0, 0.0, 0.0, 1.695336442132844E9, 0.0, 2023-09-21 17:47:22.132
112.0, 9344.258528263394, 17038.108949435824, -187500.02235174447, -51369.06967986461, 11723.847594719839, -10528.208080316554, -187500.02235174447, -19496.28674939713, -5323.403218198207, 28100.031983856203, -39598.55164272209, -187500.02235174447, -9635.278241071492, -40115.83806465126, -29788.75098094356, -7207.543517058315, 0.218, 0.982, 0.162, 192.0, 0.0, 0.0, 0.0, 0.0, 0.0, 0.0, 0.0, 0.0, 0.0, 1.695336442132847E9, 0.0, 2023-09-21 17:47:22.132
114.0, 9347.320717253771, 17042.6240018158, -187500.02235174447, -51362.7217844393, 11715.957428927117, -10517.300429022363, -187500.02235174447, -19483.166275401865, -5325.996020555022, 28122.026100400224, -39597.67992468833, -187500.02235174447, -9637.558119005933, -40116.10628558473, -29711.816276528392, -7206.671799024559, 0.218, 0.982, 0.162, 192.0, 0.0, 0.0, 0.0, 0.0, 0.0, 0.0, 0.0, 0.0, 0.0, 1.695336442132851E9, 0.0, 2023-09-21 17:47:22.132
116.0, 9354.160351057095, 17051.967030998116, -187500.02235174447, -51355.748040169245, 11740.633754805775, -10517.546298211373, -187500.02235174447, -19479.76881024466, -5314.328409949352, 28113.532437507205, -39581.96664833625, -187500.02235174447, -9621.174290320194, -40102.91875635609, -29737.69959660764, -7197.306418097784, 0.218, 0.982, 0.162, 192.0, 0.0, 0.0, 0.0, 0.0, 0.0, 0.0, 0.0, 0.0, 0.0, 1.695336442132854E9, 0.0, 2023-09-21 17:47:22.132
118.0, 9353.176874301062, 17053.397542643255, -187500.02235174447, -51360.59836871605, 11720.539536540455, -10513.008894086945, -187500.02235174447, -19475.65608926488, -5320.676305374659, 28127.792850469694, -39590.12503506244, -187500.02235174447, -9633.020714881506, -40111.70299192703, -29681.14968313571, -7210.158671159586, 0.218, 0.984, 0.164, 192.0, 3.0, 104.0, 15.0, 96.0, 2.5, 16.0, 0.0, 0.0, 0.0, 1.695336442132858E9, 0.0, 2023-09-21 17:47:22.132
120.0, 9339.18468227204, 17031.872812732796, -187500.02235174447, -51380.424366047904, 11731.17896690118, -10528.99039137249, -187500.02235174447, -19493.313967384573, -5325.034895543444, 28109.12914384951, -39599.26689854466, -187500.02235174447, -9635.94879340515, -40117.335631529764, -29700.707459534107, -7217.3782846186505, 0.218, 0.984, 0.164, 192.0, 0.0, 0.0, 0.0, 0.0, 0.0, 0.0, 0.0, 0.0, 0.0, 1.695336442191796E9, 0.0, 2023-09-21 17:47:22.191
122.0, 9352.528673711859, 17046.200280928646, -187500.02235174447, -51371.50602001024, 11716.22564986058, -10513.053597575856, -187500.02235174447, -19479.724106755748, -5334.802607870413, 28123.009577156256, -39608.2970033046, -187500.02235174447, -9645.448284798656, -40121.11307634271, -29621.269359739945, -7225.424912622561, 0.218, 0.984, 0.164, 192.0, 0.0, 0.0, 0.0, 0.0, 0.0, 0.0, 0.0, 0.0, 0.0, 1.695336442191814E9, 0.0, 2023-09-21 17:47:22.191
124.0, 9346.337240497738, 17036.119644179304, -187500.02235174447, -51376.669272979416, 11713.096405636836, -10523.357751769752, -187500.02235174447, -19491.704641783792, -5331.606308413304, 28100.099039089568, -39605.65949745888, -187500.02235174447, -9645.00124990955, -40117.82736990778, -29643.665807684163, -7223.502662599405, 0.218, 0.984, 0.164, 192.0, 0.0, 0.0, 0.0, 0.0, 0.0, 0.0, 0.0, 0.0, 0.0, 1.695336442191819E9, 0.0, 2023-09-21 17:47:22.191
126.0, 9355.724973168966, 17044.166272183214, -187500.02235174447, -51373.33886305557, 11717.857327205817, -10515.60169644376, -187500.02235174447, -19482.0486881791, -5332.455674702606, 28119.23213234331, -39607.492340504214, -187500.02235174447, -9645.96237492113, -40125.20344557804, -29574.978896973003, -7229.425874880061, 0.218, 0.984, 0.164, 192.0, 0.0, 0.0, 0.0, 0.0, 0.0, 0.0, 0.0, 0.0, 0.0, 1.695336442191825E9, 0.0, 2023-09-21 17:47:22.191
128.0, 9345.465522463981, 17037.88543199127, -187500.02235174447, -51370.76841244321, 11727.245059877047, -10512.159527797643, -187500.02235174447, -19477.53363579913, -5329.594651412327, 28097.03685009919, -39607.46998875976, -187500.02235174447, -9642.117874874815, -40115.48043673998, -29571.08969343778, -7220.060493953288, 0.222, 0.978, 0.17200000000000001, 192.0, 3.0, 120.0, 15.0, 72.0, 2.5, 48.0, 0.0, 0.0, 0.0, 1.69533644219183E9, 0.0, 2023-09-21 17:47:22.191
130.0, 9362.117572083185, 17058.024353745503, -187500.02235174447, -51353.82579014609, 11743.18185367368, -10496.781527612393, -187500.02235174447, -19463.18381585882, -5319.983401296545, 28120.774402710726, -39599.33395377803, -187500.02235174447, -9629.71265670212, -40109.15489305912, -29507.566035695796, -7215.813662506779, 0.222, 0.978, 0.17200000000000001, 192.0, 0.0, 0.0, 0.0, 0.0, 0.0, 0.0, 0.0, 0.0, 0.0, 1.695336442191835E9, 0.0, 2023-09-21 17:47:22.191
132.0, 9354.339165012738, 17053.08461822088, -187500.02235174447, -51350.16010405542, 11743.383019373778, -10497.809707857336, -187500.02235174447, -19460.389847801907, -5303.130185977243, 28105.441106014387, -39583.374808236935, -187500.02235174447, -9608.053816324928, -40092.189919017546, -29538.94788491105, -7200.323903599251, 0.222, 0.978, 0.17200000000000001, 192.0, 0.0, 0.0, 0.0, 0.0, 0.0, 0.0, 0.0, 0.0, 0.0, 1.695336442191848E9, 0.0, 2023-09-21 17:47:22.191
134.0, 9361.491723238436, 17055.99034500007, -187500.02235174447, -51351.992947100756, 11757.017583491515, -10498.592018913272, -187500.02235174447, -19459.13815011241, -5316.921212306168, 28124.95417892387, -39597.5458142216, -187500.02235174447, -9615.943982117651, -40108.37258200319, -29497.351288479724, -7204.973066445955, 0.222, 0.978, 0.17200000000000001, 192.0, 0.0, 0.0, 0.0, 0.0, 0.0, 0.0, 0.0, 0.0, 0.0, 1.695336442191853E9, 0.0, 2023-09-21 17:47:22.191
136.0, 9342.157464284595, 17041.1711384262, -187500.02235174447, -51368.68970020887, 11733.74941751354, -10512.60656268675, -187500.02235174447, -19475.879606709434, -5325.079599032355, 28102.62478621302, -39595.958840365274, -187500.02235174447, -9614.28995302796, -40108.17141630309, -29501.151085037123, -7209.063435681276, 0.222, 0.978, 0.17200000000000001, 192.0, 0.0, 0.0, 0.0, 0.0, 0.0, 0.0, 0.0, 0.0, 0.0, 1.695336442252004E9, 0.0, 2023-09-21 17:47:22.252
138.0, 9366.677327952068, 17063.23231020359, -187500.02235174447, -51356.21742680281, 11743.159501929225, -10495.88745783418, -187500.02235174447, -19461.149807113386, -5335.227291015064, 28118.18160035391, -39600.65270670089, -187500.02235174447, -9622.291877542959, -40115.256919295425, -29436.241619138913, -7218.182947419042, 0.224, 0.97, 0.17400000000000002, 192.0, 3.5, 0.0, 15.0, 40.0, 2.5, 56.0, 0.0, 0.0, 0.0, 1.695336442252016E9, 0.0, 2023-09-21 17:47:22.252
140.0, 9357.222540047473, 17056.81735954492, -187500.02235174447, -51361.60419721654, 11730.821338989896, -10506.012798072434, -187500.02235174447, -19472.593900274504, -5318.664648373681, 28102.893007146482, -39580.647895413385, -187500.02235174447, -9610.914839615207, -40105.33274475727, -29440.82372675225, -7212.595011305215, 0.224, 0.97, 0.17400000000000002, 192.0, 0.0, 0.0, 0.0, 0.0, 0.0, 0.0, 0.0, 0.0, 0.0, 1.69533644225202E9, 0.0, 2023-09-21 17:47:22.252
142.0, 9372.891112910642, 17068.552025383953, -187500.02235174447, -51355.59157795806, 11755.050629979449, -10498.055577046345, -187500.02235174447, -19462.356801313974, -5321.413912941684, 28115.23117008581, -39575.484642444215, -187500.02235174447, -9617.553307718434, -40105.19863429054, -29406.223226335434, -7221.7145230429805, 0.224, 0.97, 0.17400000000000002, 192.0, 0.0, 0.0, 0.0, 0.0, 0.0, 0.0, 0.0, 0.0, 0.0, 1.695336442252023E9, 0.0, 2023-09-21 17:47:22.252
144.0, 9361.178798816061, 17065.46748464912, -187500.02235174447, -51361.760659427724, 11731.84951923484, -10501.140117781177, -187500.02235174447, -19462.580318758526, -5323.000886798011, 28115.409984041453, -39562.967665549244, -187500.02235174447, -9620.95077287564, -40101.4658929665, -29381.122217312124, -7217.4900433409275, 0.224, 0.97, 0.17400000000000002, 192.0, 0.0, 0.0, 0.0, 0.0, 0.0, 0.0, 0.0, 0.0, 0.0, 1.695336442252027E9, 0.0, 2023-09-21 17:47:22.252
146.0, 9370.8124006763, 17067.27797595, -187500.02235174447, -51362.185342572375, 11768.461676652632, -10510.88547836369, -187500.02235174447, -19466.447170549294, -5327.426532200162, 28125.334158579608, -39554.5857613785, -187500.02235174447, -9621.598973464845, -40104.08104706777, -29367.800577616763, -7213.958467716989, 0.224, 0.97, 0.17400000000000002, 192.0, 0.0, 0.0, 0.0, 0.0, 0.0, 0.0, 0.0, 0.0, 0.0, 1.695336442252037E9, 0.0, 2023-09-21 17:47:22.252
148.0, 9382.211790348505, 17094.56945592993, -187500.02235174447, -51330.98230731277, 11765.153618473247, -10475.92735003559, -187500.02235174447, -19432.047835832578, -5322.509148419995, 28125.535324279706, -39538.76072630414, -187500.02235174447, -9612.52416521599, -40096.0120673194, -29340.553801125745, -7206.38122634664, 0.224, 0.974, 0.17400000000000002, 192.0, 3.5, 0.0, 15.0, 56.0, 2.5, 56.0, 0.0, 0.0, 0.0, 1.695336442252041E9, 0.0, 2023-09-21 17:47:22.252
150.0, 9386.480973539468, 17084.37706045831, -187500.02235174447, -51342.202883029335, 11804.872668370328, -10503.59880967126, -187500.02235174447, -19455.27129832164, -5305.588877867327, 28155.106682194077, -39519.694688283766, -187500.02235174447, -9597.392034219747, -40084.50091892492, -29372.829720119207, -7186.577580759237, 0.224, 0.974, 0.17400000000000002, 192.0, 0.0, 0.0, 0.0, 0.0, 0.0, 0.0, 0.0, 0.0, 0.0, 1.695336442311385E9, 0.0, 2023-09-21 17:47:22.311
152.0, 9375.103935611718, 17079.303214466956, -187500.02235174447, -51346.87439762049, 11770.80860982044, -10501.475393948007, -187500.02235174447, -19456.18771984431, -5314.820148327369, 28135.593609284595, -39530.69174655578, -187500.02235174447, -9609.797252392442, -40098.38135223166, -29326.42749862999, -7206.42592983555, 0.224, 0.974, 0.17400000000000002, 192.0, 0.0, 0.0, 0.0, 0.0, 0.0, 0.0, 0.0, 0.0, 0.0, 1.695336442311404E9, 0.0, 2023-09-21 17:47:22.311
154.0, 9372.421726277082, 17074.072906264413, -187500.02235174447, -51353.177589556886, 11783.437345437687, -10511.131347552699, -187500.02235174447, -19466.089542638012, -5323.783197853947, 28120.349719566075, -39538.20193269276, -187500.02235174447, -9618.827357152386, -40108.97607910348, -29327.99212074186, -7210.069264181765, 0.224, 0.974, 0.17400000000000002, 192.0, 0.0, 0.0, 0.0, 0.0, 0.0, 0.0, 0.0, 0.0, 0.0, 1.69533644231141E9, 0.0, 2023-09-21 17:47:22.311
156.0, 9369.158371586605, 17080.75607785655, -187500.02235174447, -51345.44388597535, 11755.877644524295, -10501.095414292266, -187500.02235174447, -19459.115798367955, -5319.849290829813, 28124.12716437902, -39531.04937446706, -187500.02235174447, -9615.787519906464, -40102.69523891154, -29284.22740509837, -7201.173269888553, 0.224, 0.974, 0.17400000000000002, 192.0, 0.0, 0.0, 0.0, 0.0, 0.0, 0.0, 0.0, 0.0, 0.0, 1.695336442311415E9, 0.0, 2023-09-21 17:47:22.311
158.0, 9366.006775618407, 17069.066115506426, -187500.02235174447, -51356.91033088092, 11781.962130303638, -10516.786338899892, -187500.02235174447, -19470.649298506894, -5324.140825765232, 28119.27683583222, -39538.291339670584, -187500.02235174447, -9621.71073218712, -40116.66507919611, -29291.670536001988, -7203.877830967645, 0.222, 0.978, 0.17400000000000002, 192.0, 3.0, 120.0, 15.0, 72.0, 2.5, 56.0, 0.0, 0.0, 0.0, 1.695336442311422E9, 0.0, 2023-09-21 17:47:22.311
160.0, 9366.274996551872, 17074.251720220058, -187500.02235174447, -51352.819961645604, 11752.167254944714, -10506.638646917183, -187500.02235174447, -19462.8932431809, -5322.978535053556, 28128.28458884771, -39539.4312786378, -187500.02235174447, -9620.459034497624, -40118.5202739859, -29226.895180570507, -7213.109101427687, 0.222, 0.978, 0.17400000000000002, 192.0, 0.0, 0.0, 0.0, 0.0, 0.0, 0.0, 0.0, 0.0, 0.0, 1.695336442311428E9, 0.0, 2023-09-21 17:47:22.311
162.0, 9370.477124509469, 17073.156484741747, -187500.02235174447, -51352.127057567486, 11785.337243716389, -10509.052635318356, -187500.02235174447, -19465.284879837618, -5314.1272442492545, 28121.42260329993, -39531.67522331181, -187500.02235174447, -9609.774900647986, -40109.82544539278, -29260.04281759773, -7207.3423513582175, 0.222, 0.978, 0.17400000000000002, 192.0, 0.0, 0.0, 0.0, 0.0, 0.0, 0.0, 0.0, 0.0, 0.0, 1.695336442311432E9, 0.0, 2023-09-21 17:47:22.311
164.0, 9358.697755181522, 17064.841635804372, -187500.02235174447, -51366.63333971898, 11764.61717660632, -10523.804786658859, -187500.02235174447, -19477.95831894378, -5322.576203653361, 28130.072728404135, -39539.118354215425, -187500.02235174447, -9617.486252485067, -40118.34146003026, -29205.817485549152, -7217.914726485578, 0.222, 0.978, 0.17400000000000002, 192.0, 0.0, 0.0, 0.0, 0.0, 0.0, 0.0, 0.0, 0.0, 0.0, 1.695336442311437E9, 0.0, 2023-09-21 17:47:22.311
166.0, 9351.142865555628, 17057.62202234531, -187500.02235174447, -51369.29319730916, 11781.269226225522, -10529.012743116946, -187500.02235174447, -19489.29065338262, -5336.188416026642, 28089.593719195575, -39555.09985150097, -187500.02235174447, -9637.848691683852, -40126.61160547872, -29209.46081989537, -7231.839863281234, 0.222, 0.978, 0.17400000000000002, 192.0, 0.0, 0.0, 0.0, 0.0, 0.0, 0.0, 0.0, 0.0, 0.0, 1.695336442371094E9, 0.0, 2023-09-21 17:47:22.371
168.0, 9357.691926681033, 17073.827037075407, -187500.02235174447, -51357.91615938141, 11765.51124638453, -10516.071083077322, -187500.02235174447, -19475.47727530924, -5329.684058390148, 28106.379879281507, -39555.54688639008, -187500.02235174447, -9633.154825348238, -40121.64951820964, -29128.86042938953, -7232.219842936975, 0.224, 0.976, 0.176, 192.0, 3.5, 0.0, 15.0, 64.0, 2.5, 64.0, 0.0, 0.0, 0.0, 1.695336442371106E9, 0.0, 2023-09-21 17:47:22.371
170.0, 9352.372211500671, 17068.820246317417, -187500.02235174447, -51356.75386866974, 11764.930101028694, -10519.401493001164, -187500.02235174447, -19483.769772502157, -5318.687000118137, 28078.12727429, -39543.879275784406, -187500.02235174447, -9621.844842653853, -40110.361887259714, -29157.895345436973, -7220.1946044200195, 0.224, 0.976, 0.176, 192.0, 0.0, 0.0, 0.0, 0.0, 0.0, 0.0, 0.0, 0.0, 0.0, 1.69533644237111E9, 0.0, 2023-09-21 17:47:22.371
172.0, 9355.747324913422, 17067.747362583563, -187500.02235174447, -51350.74124941126, 11745.484083352576, -10513.008894086945, -187500.02235174447, -19475.90195845389, -5335.741381137536, 28084.050486570657, -39550.83066831001, -187500.02235174447, -9630.09263635786, -40120.26371005341, -29094.37168769499, -7225.3578573891955, 0.224, 0.976, 0.176, 192.0, 0.0, 0.0, 0.0, 0.0, 0.0, 0.0, 0.0, 0.0, 0.0, 1.695336442371113E9, 0.0, 2023-09-21 17:47:22.371
174.0, 9356.261415035893, 17075.52576965401, -187500.02235174447, -51342.605214429524, 11758.984537003582, -10516.384007499697, -187500.02235174447, -19477.176007887843, -5327.538290922438, 28060.625858381496, -39536.41379313634, -187500.02235174447, -9619.766130419508, -40104.43867497906, -29121.305539763634, -7213.958467716989, 0.224, 0.976, 0.176, 192.0, 0.0, 0.0, 0.0, 0.0, 0.0, 0.0, 0.0, 0.0, 0.0, 1.695336442371116E9, 0.0, 2023-09-21 17:47:22.371
176.0, 9366.677327952068, 17086.321662225924, -187500.02235174447, -51337.59842367154, 11761.04089749347, -10505.31989399432, -187500.02235174447, -19470.112856639964, -5332.38861946924, 28099.674355944917, -39539.00659549315, -187500.02235174447, -9623.700037443643, -40111.546529715844, -29067.4601873708, -7217.065360196276, 0.224, 0.976, 0.176, 192.0, 0.0, 0.0, 0.0, 0.0, 0.0, 0.0, 0.0, 0.0, 0.0, 1.69533644237112E9, 0.0, 2023-09-21 17:47:22.371
178.0, 9354.070944079274, 17076.263377221036, -187500.02235174447, -51350.227159288785, 11762.180836460691, -10520.921411624124, -187500.02235174447, -19485.53556031413, -5318.821110584869, 28088.945518606368, -39529.39534537737, -187500.02235174447, -9611.250115782037, -40103.27638426738, -29093.5670248946, -7211.186851404531, 0.228, 0.976, 0.17200000000000001, 192.0, 3.5, 16.0, 15.0, 64.0, 2.5, 48.0, 0.0, 0.0, 0.0, 1.695336442371123E9, 0.0, 2023-09-21 17:47:22.371
180.0, 9358.943624370531, 17078.00681328855, -187500.02235174447, -51355.99390935826, 11761.51028412703, -10521.256687790954, -187500.02235174447, -19483.836827735526, -5337.48481720505, 28105.70932694785, -39550.674206098825, -187500.02235174447, -9632.059589869928, -40127.3715647902, -29025.5506665171, -7234.924404016067, 0.228, 0.976, 0.17200000000000001, 192.0, 0.0, 0.0, 0.0, 0.0, 0.0, 0.0, 0.0, 0.0, 0.0, 1.69533644243135E9, 0.0, 2023-09-21 17:47:22.431
182.0, 9351.656955678101, 17070.76484808503, -187500.02235174447, -51352.73055466778, 11753.597766589854, -10518.529774967406, -187500.02235174447, -19484.261510880177, -5325.772503110469, 28076.808521367137, -39544.527476373616, -187500.02235174447, -9623.968258377106, -40119.66021295312, -29037.665312011875, -7228.688267313036, 0.228, 0.976, 0.17200000000000001, 192.0, 0.0, 0.0, 0.0, 0.0, 0.0, 0.0, 0.0, 0.0, 0.0, 1.695336442431366E9, 0.0, 2023-09-21 17:47:22.431
184.0, 9368.510170997402, 17081.873665079318, -187500.02235174447, -51341.554682440124, 11770.160409231235, -10510.147870796665, -187500.02235174447, -19475.365516586964, -5333.752075881013, 28102.60243446856, -39546.896761285876, -187500.02235174447, -9627.835110167875, -40117.15681757413, -28993.051230079083, -7226.743665545424, 0.228, 0.976, 0.17200000000000001, 192.0, 0.0, 0.0, 0.0, 0.0, 0.0, 0.0, 0.0, 0.0, 0.0, 1.69533644243137E9, 0.0, 2023-09-21 17:47:22.431
186.0, 9367.213769818994, 17091.820191361927, -187500.02235174447, -51328.79183635615, 11767.299385940956, -10500.380158469696, -187500.02235174447, -19464.52492052614, -5310.193337225121, 28095.47222798732, -39521.862807495934, -187500.02235174447, -9609.149051803239, -40092.681657395566, -29002.662480194867, -7208.482290325438, 0.228, 0.976, 0.17200000000000001, 192.0, 0.0, 0.0, 0.0, 0.0, 0.0, 0.0, 0.0, 0.0, 0.0, 1.695336442431374E9, 0.0, 2023-09-21 17:47:22.431
188.0, 9359.636528448646, 17079.034993533493, -187500.02235174447, -51349.91423486641, 11778.005871535048, -10519.423844745617, -187500.02235174447, -19486.586092303525, -5322.039761786433, 28123.76953646774, -39534.804467535556, -187500.02235174447, -9619.81083390842, -40103.70106741203, -28986.949203842785, -7218.4958718414155, 0.23, 0.98, 0.17, 192.0, 3.5, 24.0, 15.0, 80.0, 2.5, 40.0, 0.0, 0.0, 0.0, 1.695336442431378E9, 0.0, 2023-09-21 17:47:22.431
190.0, 9350.85229287771, 17079.32556621141, -187500.02235174447, -51350.16010405542, 11744.634717063274, -10516.831042388803, -187500.02235174447, -19484.373269602453, -5330.667535146182, 28088.99022209528, -39548.26021769765, -187500.02235174447, -9627.656296212232, -40113.580538461276, -28968.17373850033, -7234.253851682407, 0.23, 0.98, 0.17, 192.0, 0.0, 0.0, 0.0, 0.0, 0.0, 0.0, 0.0, 0.0, 0.0, 1.695336442431381E9, 0.0, 2023-09-21 17:47:22.431
192.0, 9356.641394691635, 17071.480103907597, -187500.02235174447, -51363.3252815396, 11764.438362650677, -10530.040923361888, -187500.02235174447, -19497.449040108808, -5329.661706645693, 28102.17775132391, -39557.60324687997, -187500.02235174447, -9629.6232497243, -40121.671869954094, -28951.789909814586, -7239.215938951485, 0.23, 0.98, 0.17, 192.0, 0.0, 0.0, 0.0, 0.0, 0.0, 0.0, 0.0, 0.0, 0.0, 1.695336442431385E9, 0.0, 2023-09-21 17:47:22.431
194.0, 9347.18660678704, 17068.88730155078, -187500.02235174447, -51360.01722336021, 11744.634717063274, -10526.486995993495, -187500.02235174447, -19493.112801684478, -5319.8269390853575, 28087.023268583212, -39553.44582241128, -187500.02235174447, -9626.158729333727, -40116.68743094056, -28924.945464723765, -7239.685325585047, 0.23, 0.98, 0.17, 192.0, 0.0, 0.0, 0.0, 0.0, 0.0, 0.0, 0.0, 0.0, 0.0, 1.695336442431388E9, 0.0, 2023-09-21 17:47:22.431
196.0, 9355.90378712461, 17073.692926608674, -187500.02235174447, -51357.31266228112, 11766.271205696012, -10523.804786658859, -187500.02235174447, -19493.179856917843, -5340.144674795231, 28096.522759976717, -39568.93558131881, -187500.02235174447, -9635.747627705054, -40126.008108378424, -28899.084496388972, -7245.630889610159, 0.23, 0.98, 0.17, 192.0, 0.0, 0.0, 0.0, 0.0, 0.0, 0.0, 0.0, 0.0, 0.0, 1.695336442491694E9, 0.0, 2023-09-21 17:47:22.491
198.0, 9347.924214354065, 17073.961147542137, -187500.02235174447, -51349.71306916631, 11737.929193726683, -10511.287809763886, -187500.02235174447, -19484.03799343562, -5330.309907234897, 28100.50137048976, -39558.47496491372, -187500.02235174447, -9622.38128452078, -40109.95955585952, -28878.655001956824, -7229.828206280256, 0.224, 0.978, 0.17200000000000001, 192.0, 3.5, 0.0, 15.0, 72.0, 2.5, 48.0, 0.0, 0.0, 0.0, 1.695336442491707E9, 0.0, 2023-09-21 17:47:22.491
200.0, 9348.997098087919, 17065.691002093674, -187500.02235174447, -51356.48564773627, 11759.431571892688, -10523.22364130302, -187500.02235174447, -19492.57635981755, -5333.841482858835, 28111.833704928602, -39571.081348786516, -187500.02235174447, -9634.76415094902, -40116.17334081809, -28880.6666589578, -7231.303421414307, 0.224, 0.978, 0.17200000000000001, 192.0, 0.0, 0.0, 0.0, 0.0, 0.0, 0.0, 0.0, 0.0, 0.0, 1.695336442491711E9, 0.0, 2023-09-21 17:47:22.491
202.0, 9344.236176518938, 17070.273109707014, -187500.02235174447, -51352.01529884521, 11738.599746060341, -10513.344170253775, -187500.02235174447, -19483.747420757703, -5334.221462514575, 28107.27394905972, -39575.6411046554, -187500.02235174447, -9638.206319595138, -40121.269538553905, -28829.972902533165, -7236.869005783678, 0.224, 0.978, 0.17200000000000001, 192.0, 0.0, 0.0, 0.0, 0.0, 0.0, 0.0, 0.0, 0.0, 0.0, 1.695336442491714E9, 0.0, 2023-09-21 17:47:22.491
204.0, 9351.880473122654, 17069.13317073979, -187500.02235174447, -51353.71403142381, 11781.872723325816, -10510.013760329934, -187500.02235174447, -19474.2479293642, -5322.15152050871, 28107.89979790447, -39562.63238938241, -187500.02235174447, -9625.421121766702, -40111.14419831565, -28857.219679024183, -7223.234441665941, 0.224, 0.978, 0.17200000000000001, 192.0, 0.0, 0.0, 0.0, 0.0, 0.0, 0.0, 0.0, 0.0, 0.0, 1.695336442491717E9, 0.0, 2023-09-21 17:47:22.491
206.0, 9346.13607479764, 17064.528711381998, -187500.02235174447, -51359.79370591566, 11755.341202657368, -10513.701798165059, -187500.02235174447, -19472.415086318862, -5332.72389563607, 28111.319614806132, -39565.9404475618, -187500.02235174447, -9627.790406678963, -40116.53096872938, -28812.56089360248, -7228.66591556858, 0.224, 0.978, 0.17200000000000001, 192.0, 0.0, 0.0, 0.0, 0.0, 0.0, 0.0, 0.0, 0.0, 0.0, 1.695336442491721E9, 0.0, 2023-09-21 17:47:22.491
208.0, 9341.598670673213, 17053.822225787906, -187500.02235174447, -51371.37190954351, 11768.416973163721, -10534.42186527513, -187500.02235174447, -19492.48695283973, -5341.888110862746, 28076.674410900407, -39574.97055232174, -187500.02235174447, -9638.452188784146, -40125.76223918942, -28813.36555640287, -7244.513302387393, 0.22, 0.982, 0.168, 192.0, 3.0, 112.0, 15.0, 88.0, 2.5, 32.0, 0.0, 0.0, 0.0, 1.695336442491724E9, 0.0, 2023-09-21 17:47:22.491
210.0, 9344.079714307753, 17064.282842192988, -187500.02235174447, -51363.3252815396, 11754.380077645788, -10524.810615159347, -187500.02235174447, -19485.66967078086, -5350.694698178137, 28080.205986524343, -39578.07744480103, -187500.02235174447, -9648.421066811212, -40132.75833520393, -28738.911895622245, -7250.570625134782, 0.22, 0.982, 0.168, 192.0, 0.0, 0.0, 0.0, 0.0, 0.0, 0.0, 0.0, 0.0, 0.0, 1.69533644255183E9, 0.0, 2023-09-21 17:47:22.551
212.0, 9347.56658644278, 17056.37032465581, -187500.02235174447, -51357.06679309211, 11789.517019929532, -10519.066216834333, -187500.02235174447, -19482.18279864583, -5338.311831749897, 28070.728846875292, -39564.711101616755, -187500.02235174447, -9636.015848638517, -40120.30841354232, -28770.114930881853, -7238.008944750899, 0.22, 0.982, 0.168, 192.0, 0.0, 0.0, 0.0, 0.0, 0.0, 0.0, 0.0, 0.0, 0.0, 1.695336442551843E9, 0.0, 2023-09-21 17:47:22.551
214.0, 9352.036935333841, 17063.56758637042, -187500.02235174447, -51348.66253717691, 11772.730859843596, -10504.31406549383, -187500.02235174447, -19472.392734574405, -5338.356535238807, 28089.727829662304, -39567.77329060713, -187500.02235174447, -9641.357915563336, -40116.97800361848, -28705.92072080621, -7235.14792146062, 0.22, 0.982, 0.168, 192.0, 0.0, 0.0, 0.0, 0.0, 0.0, 0.0, 0.0, 0.0, 0.0, 1.695336442551847E9, 0.0, 2023-09-21 17:47:22.551
216.0, 9354.965013857487, 17065.892167793772, -187500.02235174447, -51342.269938262696, 11781.939778559183, -10506.504536450451, -187500.02235174447, -19466.0448391491, -5341.86575911829, 28072.40522770944, -39567.25920048466, -187500.02235174447, -9638.899223673252, -40114.98869836196, -28736.274389776518, -7229.157653946598, 0.22, 0.982, 0.168, 192.0, 0.0, 0.0, 0.0, 0.0, 0.0, 0.0, 0.0, 0.0, 0.0, 1.695336442551851E9, 0.0, 2023-09-21 17:47:22.551
218.0, 9362.98929011694, 17074.47523766461, -187500.02235174447, -51343.387525485465, 11766.897054540761, -10511.757196397448, -187500.02235174447, -19469.643470006406, -5326.465407188583, 28102.9824141243, -39554.76457533414, -187500.02235174447, -9626.829281667386, -40106.62914593567, -28697.695278846655, -7223.569717832771, 0.222, 0.98, 0.168, 192.0, 3.0, 120.0, 15.0, 80.0, 2.5, 32.0, 0.0, 0.0, 0.0, 1.695336442551854E9, 0.0, 2023-09-21 17:47:22.551
220.0, 9359.882397637653, 17064.23813870408, -187500.02235174447, -51348.126095309985, 11758.671612581207, -10517.74746391147, -187500.02235174447, -19482.294557368106, -5333.662668903193, 28082.754085392247, -39561.917133559844, -187500.02235174447, -9638.876871928796, -40115.01105010641, -28708.334709207382, -7238.277165684362, 0.222, 0.98, 0.168, 192.0, 0.0, 0.0, 0.0, 0.0, 0.0, 0.0, 0.0, 0.0, 0.0, 1.695336442551858E9, 0.0, 2023-09-21 17:47:22.551
222.0, 9369.80657217581, 17074.251720220058, -187500.02235174447, -51339.07363880559, 11760.392696904266, -10506.325722494808, -187500.02235174447, -19472.392734574405, -5324.274936231964, 28111.252559572764, -39557.75970909115, -187500.02235174447, -9635.501758516046, -40110.5183494709, -28638.41845255118, -7235.393790649628, 0.222, 0.98, 0.168, 192.0, 0.0, 0.0, 0.0, 0.0, 0.0, 0.0, 0.0, 0.0, 0.0, 1.695336442551861E9, 0.0, 2023-09-21 17:47:22.551
224.0, 9363.52573198387, 17079.504380167054, -187500.02235174447, -51329.328278223074, 11771.590920876375, -10497.116803779221, -187500.02235174447, -19465.70956298227, -5319.111683262788, 28077.054390556146, -39551.97060727723, -187500.02235174447, -9634.361819548825, -40099.1636632876, -28643.089967142343, -7226.542499845326, 0.222, 0.98, 0.168, 192.0, 0.0, 0.0, 0.0, 0.0, 0.0, 0.0, 0.0, 0.0, 0.0, 1.695336442551864E9, 0.0, 2023-09-21 17:47:22.551
226.0, 9365.604444218212, 17084.1311912693, -187500.02235174447, -51332.25635674672, 11770.830961564894, -10501.385986970185, -187500.02235174447, -19470.09050489551, -5324.0514187874105, 28099.786114667193, -39552.39529042188, -187500.02235174447, -9634.562985248922, -40098.9177940986, -28598.76645788747, -7228.911784757589, 0.222, 0.98, 0.168, 192.0, 0.0, 0.0, 0.0, 0.0, 0.0, 0.0, 0.0, 0.0, 0.0, 1.695336442611267E9, 0.0, 2023-09-21 17:47:22.611
228.0, 9364.866836651187, 17093.51892394053, -187500.02235174447, -51320.454635674316, 11761.398525404755, -10487.147925752155, -187500.02235174447, -19453.259641320663, -5317.569412895371, 28082.441160969873, -39547.47790664171, -187500.02235174447, -9629.690304957665, -40090.62529690567, -28618.19012381913, -7222.653296310103, 0.23, 0.982, 0.168, 192.0, 3.5, 24.0, 15.0, 88.0, 2.5, 32.0, 0.0, 0.0, 0.0, 1.695336442611279E9, 0.0, 2023-09-21 17:47:22.611
230.0, 9370.365365787193, 17089.450906449667, -187500.02235174447, -51327.33897296655, 11764.058382994937, -10494.41224270013, -187500.02235174447, -19464.122589125942, -5324.0514187874105, 28125.04358590169, -39551.27770319911, -187500.02235174447, -9632.797197436952, -40091.474663194975, -28592.887949095722, -7218.272354396863, 0.23, 0.982, 0.168, 192.0, 0.0, 0.0, 0.0, 0.0, 0.0, 0.0, 0.0, 0.0, 0.0, 1.695336442611283E9, 0.0, 2023-09-21 17:47:22.611
232.0, 9356.216711546984, 17067.009755016537, -187500.02235174447, -51340.30298475063, 11754.737705557074, -10506.728053895004, -187500.02235174447, -19475.0972956535, -5320.028104785455, 28086.129198805, -39553.15524973336, -187500.02235174447, -9636.418180038712, -40097.71079989801, -28601.940405600122, -7226.564851589782, 0.23, 0.982, 0.168, 192.0, 0.0, 0.0, 0.0, 0.0, 0.0, 0.0, 0.0, 0.0, 0.0, 1.695336442611287E9, 0.0, 2023-09-21 17:47:22.611
234.0, 9364.777429673366, 17074.832865575896, -187500.02235174447, -51341.59938592904, 11765.667708595718, -10508.627952173705, -187500.02235174447, -19476.796028232104, -5335.607270670805, 28091.158341307444, -39570.96959006424, -187500.02235174447, -9646.923499932707, -40117.4697419965, -28546.642189817692, -7245.094447743231, 0.23, 0.982, 0.168, 192.0, 0.0, 0.0, 0.0, 0.0, 0.0, 0.0, 0.0, 0.0, 0.0, 1.695336442611291E9, 0.0, 2023-09-21 17:47:22.611
236.0, 9349.779409143855, 17073.62587137531, -187500.02235174447, -51343.119304552, 11763.074906238904, -10508.560896940338, -187500.02235174447, -19476.10312415399, -5331.628660157759, 28080.116579546524, -39561.335988204, -187500.02235174447, -9639.390962051268, -40107.03147733587, -28544.719939794537, -7235.997287749921, 0.23, 0.982, 0.168, 192.0, 0.0, 0.0, 0.0, 0.0, 0.0, 0.0, 0.0, 0.0, 0.0, 1.695336442611295E9, 0.0, 2023-09-21 17:47:22.611
238.0, 9346.247833519916, 17064.014621259525, -187500.02235174447, -51349.64601393295, 11778.765830846529, -10515.847565632768, -187500.02235174447, -19485.177932402843, -5346.380811498262, 28095.449876242863, -39584.35828499297, -187500.02235174447, -9654.299575602958, -40125.69518395605, -28497.423648527107, -7252.5375786468485, 0.232, 0.98, 0.166, 192.0, 3.5, 32.0, 15.0, 80.0, 2.5, 24.0, 0.0, 0.0, 0.0, 1.695336442611298E9, 0.0, 2023-09-21 17:47:22.611
240.0, 9346.47135096447, 17073.00002253056, -187500.02235174447, -51330.84819684603, 11756.70465906914, -10499.486088691485, -187500.02235174447, -19472.638603763415, -5328.611174656293, 28083.13406504799, -39567.05803478456, -187500.02235174447, -9636.552290505444, -40101.331782499765, -28491.232215312986, -7237.159578461597, 0.232, 0.98, 0.166, 192.0, 0.0, 0.0, 0.0, 0.0, 0.0, 0.0, 0.0, 0.0, 0.0, 1.695336442671105E9, 0.0, 2023-09-21 17:47:22.671
242.0, 9354.272109779371, 17069.93783354018, -187500.02235174447, -51336.324374237585, 11776.932987801194, -10503.218830015521, -187500.02235174447, -19473.95735668628, -5337.373058482774, 28102.133047835, -39577.988037823205, -187500.02235174447, -9649.561005778432, -40112.75352391643, -28476.05538082783, -7242.993383764432, 0.232, 0.98, 0.166, 192.0, 0.0, 0.0, 0.0, 0.0, 0.0, 0.0, 0.0, 0.0, 0.0, 1.695336442671119E9, 0.0, 2023-09-21 17:47:22.671
244.0, 9363.056345350307, 17092.08841229539, -187500.02235174447, -51315.40314142742, 11754.80476079044, -10481.716451849516, -187500.02235174447, -19458.288783823107, -5331.651011902215, 28084.184597037387, -39562.09594751548, -187500.02235174447, -9640.307383573936, -40098.56016618731, -28438.169173976086, -7230.208185935997, 0.232, 0.98, 0.166, 192.0, 0.0, 0.0, 0.0, 0.0, 0.0, 0.0, 0.0, 0.0, 0.0, 1.695336442671123E9, 0.0, 2023-09-21 17:47:22.671
246.0, 9365.023298862374, 17085.628758147806, -187500.02235174447, -51324.924984565376, 11780.732784358595, -10496.356844467742, -187500.02235174447, -19469.554063028583, -5332.276860746963, 28089.861940129038, -39560.2854562146, -187500.02235174447, -9637.6251742393, -40096.570860930784, -28444.20414497902, -7224.933174244545, 0.232, 0.98, 0.166, 192.0, 0.0, 0.0, 0.0, 0.0, 0.0, 0.0, 0.0, 0.0, 0.0, 1.695336442671127E9, 0.0, 2023-09-21 17:47:22.671
248.0, 9359.27890053736, 17089.786182616495, -187500.02235174447, -51321.92985080837, 11751.317888655412, -10486.74559435196, -187500.02235174447, -19461.820359447047, -5333.662668903193, 28073.61222191003, -39563.01236903815, -187500.02235174447, -9646.565872021421, -40098.62722142068, -28407.212007905488, -7230.632869080648, 0.228, 0.976, 0.166, 192.0, 3.5, 16.0, 15.0, 64.0, 2.5, 24.0, 0.0, 0.0, 0.0, 1.69533644267113E9, 0.0, 2023-09-21 17:47:22.671
250.0, 9360.776467415866, 17079.772601100518, -187500.02235174447, -51326.534310166164, 11781.47039192562, -10497.005045056945, -187500.02235174447, -19468.592938017006, -5325.839558343835, 28094.153475064457, -39558.854944569466, -187500.02235174447, -9642.788427208476, -40096.54850918633, -28421.33831040124, -7231.057552225298, 0.228, 0.976, 0.166, 192.0, 0.0, 0.0, 0.0, 0.0, 0.0, 0.0, 0.0, 0.0, 0.0, 1.695336442671134E9, 0.0, 2023-09-21 17:47:22.671
252.0, 9345.711391652989, 17069.982537029093, -187500.02235174447, -51332.904557335925, 11756.481141624588, -10497.362672968231, -187500.02235174447, -19472.973879930243, -5333.886186347746, 28089.83958838458, -39566.27572372863, -187500.02235174447, -9646.185892365682, -40104.79630289034, -28371.60567898818, -7238.5677383622815, 0.228, 0.976, 0.166, 192.0, 0.0, 0.0, 0.0, 0.0, 0.0, 0.0, 0.0, 0.0, 0.0, 1.695336442671137E9, 0.0, 2023-09-21 17:47:22.671
254.0, 9354.85325513521, 17078.163275499737, -187500.02235174447, -51329.55179566763, 11786.410127450245, -10493.249951988453, -187500.02235174447, -19471.677478751837, -5346.291404520441, 28075.55682367764, -39572.08717728701, -187500.02235174447, -9653.293747102469, -40110.495997726444, -28370.398684787597, -7246.927290788566, 0.228, 0.976, 0.166, 192.0, 0.0, 0.0, 0.0, 0.0, 0.0, 0.0, 0.0, 0.0, 0.0, 1.695336442671141E9, 0.0, 2023-09-21 17:47:22.671
0.0, 9356.686098180544, 17089.070926793924, -187500.02235174447, -51326.0649235326, 11767.768772574518, -10490.232466486987, -187500.02235174447, -19469.91169093987, -5336.523692193472, 28083.670506914917, -39562.341816704495, -187500.02235174447, -9641.96141266363, -40096.68261965306, -28326.90219007757, -7235.974936005466, 0.228, 0.976, 0.166, 192.0, 0.0, 0.0, 0.0, 0.0, 0.0, 0.0, 0.0, 0.0, 0.0, 1.695336442731468E9, 0.0, 2023-09-21 17:47:22.731
2.0, 9359.882397637653, 17078.029165033004, -187500.02235174447, -51330.40116195693, 11790.545200174476, -10506.12455679471, -187500.02235174447, -19485.312042869573, -5330.734590379548, 28079.35662023504, -39561.291284715095, -187500.02235174447, -9639.14509286226, -40091.966401572994, -28347.42109148754, -7233.985630748944, 0.234, 0.976, 0.166, 192.0, 3.5, 40.0, 15.0, 64.0, 2.5, 24.0, 0.0, 0.0, 0.0, 1.69533644273148E9, 0.0, 2023-09-21 17:47:22.731
4.0, 9349.667650421577, 17066.18274047169, -187500.02235174447, -51336.10085679303, 11776.217731978624, -10508.94087659608, -187500.02235174447, -19489.871798738455, -5337.127189293765, 28080.116579546524, -39573.76355812116, -187500.02235174447, -9649.561005778432, -40114.02757335038, -28269.100578916143, -7253.096372258231, 0.234, 0.976, 0.166, 192.0, 0.0, 0.0, 0.0, 0.0, 0.0, 0.0, 0.0, 0.0, 0.0, 1.695336442731484E9, 0.0, 2023-09-21 17:47:22.731
6.0, 9358.13896157014, 17075.10108650936, -187500.02235174447, -51327.45073168883, 11789.3829094628, -10503.531754437894, -187500.02235174447, -19483.68036552434, -5322.330334464352, 28056.17786123489, -39566.588648151, -187500.02235174447, -9640.933232418685, -40107.5679192028, -28294.849788528656, -7249.609500123203, 0.234, 0.976, 0.166, 192.0, 0.0, 0.0, 0.0, 0.0, 0.0, 0.0, 0.0, 0.0, 0.0, 1.695336442731488E9, 0.0, 2023-09-21 17:47:22.731
8.0, 9367.414935519093, 17093.787144873993, -187500.02235174447, -51323.29330722014, 11771.255644709545, -10494.300483977853, -187500.02235174447, -19476.259586365173, -5317.614116384282, 28070.75119861975, -39562.3865201934, -187500.02235174447, -9640.352087062847, -40104.84100637925, -28243.507831514817, -7249.7212588454795, 0.234, 0.976, 0.166, 192.0, 0.0, 0.0, 0.0, 0.0, 0.0, 0.0, 0.0, 0.0, 0.0, 1.695336442731492E9, 0.0, 2023-09-21 17:47:22.731
10.0, 9357.200188303017, 17080.085525522893, -187500.02235174447, -51330.49056893475, 11782.230351237102, -10506.996274828467, -187500.02235174447, -19482.540426557116, -5311.377979681251, 28057.78718683567, -39553.378767177914, -187500.02235174447, -9633.355991048336, -40095.810901619305, -28290.31238440423, -7237.584261606248, 0.234, 0.976, 0.166, 192.0, 0.0, 0.0, 0.0, 0.0, 0.0, 0.0, 0.0, 0.0, 0.0, 1.695336442731496E9, 0.0, 2023-09-21 17:47:22.731
12.0, 9357.937795870042, 17075.793990587474, -187500.02235174447, -51335.74322888175, 11768.774601075007, -10516.160490055143, -187500.02235174447, -19488.709508026783, -5330.712238635092, 28081.99412608077, -39573.00359880967, -187500.02235174447, -9655.48421805909, -40118.29675654134, -28215.366985245586, -7256.069154270787, 0.228, 0.974, 0.162, 192.0, 3.5, 16.0, 15.0, 56.0, 2.5, 8.0, 0.0, 0.0, 0.0, 1.6953364427315E9, 0.0, 2023-09-21 17:47:22.731
14.0, 9354.920310368576, 17078.56560689993, -187500.02235174447, -51329.55179566763, 11773.580226132897, -10518.708588923048, -187500.02235174447, -19492.062269695078, -5326.420703699673, 28055.037922267667, -39564.93461906131, -187500.02235174447, -9649.873930200807, -40111.27830878238, -28232.93545638746, -7257.030279282365, 0.228, 0.974, 0.162, 192.0, 0.0, 0.0, 0.0, 0.0, 0.0, 0.0, 0.0, 0.0, 0.0, 1.695336442791686E9, 0.0, 2023-09-21 17:47:22.791
16.0, 9360.530598226858, 17086.746345370575, -187500.02235174447, -51318.68884786235, 11769.445153408666, -10509.097338807267, -187500.02235174447, -19484.261510880177, -5325.303116476907, 28082.08353305859, -39561.291284715095, -187500.02235174447, -9649.315136589425, -40110.80892214882, -28178.687772594425, -7261.567683406793, 0.228, 0.974, 0.162, 192.0, 0.0, 0.0, 0.0, 0.0, 0.0, 0.0, 0.0, 0.0, 0.0, 1.6953364427917E9, 0.0, 2023-09-21 17:47:22.791
18.0, 9345.286708508338, 17071.502455652055, -187500.02235174447, -51319.337048451554, 11783.52675241551, -10506.45983296154, -187500.02235174447, -19478.539464299618, -5321.2350989860415, 28067.666657884918, -39558.25144746917, -187500.02235174447, -9643.347220819858, -40097.21906151999, -28208.2591305088, -7243.57452912027, 0.228, 0.974, 0.162, 192.0, 0.0, 0.0, 0.0, 0.0, 0.0, 0.0, 0.0, 0.0, 0.0, 1.695336442791704E9, 0.0, 2023-09-21 17:47:22.791
20.0, 9339.743475883422, 17060.751266569052, -187500.02235174447, -51326.98134505527, 11779.771659347018, -10512.114824308734, -187500.02235174447, -19489.29065338262, -5336.523692193472, 28086.88915811648, -39575.752863377675, -187500.02235174447, -9655.90890120374, -40107.97025060299, -28149.71991178035, -7255.733878103957, 0.228, 0.974, 0.162, 192.0, 0.0, 0.0, 0.0, 0.0, 0.0, 0.0, 0.0, 0.0, 0.0, 1.695336442791708E9, 0.0, 2023-09-21 17:47:22.791
22.0, 9331.89801357961, 17057.1749874562, -187500.02235174447, -51319.82878682957, 11762.2255399496, -10505.141080038677, -187500.02235174447, -19484.306214369084, -5337.0824858048545, 28046.141927974455, -39576.98220932272, -187500.02235174447, -9659.731049505597, -40100.59417493274, -28148.959952468867, -7252.694040858036, 0.226, 0.98, 0.17400000000000002, 192.0, 3.5, 8.0, 15.0, 80.0, 2.5, 56.0, 0.0, 0.0, 0.0, 1.695336442791712E9, 0.0, 2023-09-21 17:47:22.791
24.0, 9335.451940948004, 17053.822225787906, -187500.02235174447, -51332.70339163583, 11767.299385940956, -10518.194498800576, -187500.02235174447, -19498.00783372019, -5345.352631253318, 28057.56366939112, -39591.22027054075, -187500.02235174447, -9674.997290968573, -40112.37354426069, -28091.337155263085, -7260.204226995019, 0.226, 0.98, 0.17400000000000002, 192.0, 0.0, 0.0, 0.0, 0.0, 0.0, 0.0, 0.0, 0.0, 0.0, 1.695336442791715E9, 0.0, 2023-09-21 17:47:22.791
26.0, 9340.212862516984, 17071.100124251858, -187500.02235174447, -51320.387580440954, 11760.549159115453, -10500.067234047323, -187500.02235174447, -19484.350917857995, -5339.004735828011, 28028.908732999414, -39578.50212794568, -187500.02235174447, -9662.301500117957, -40100.79534063284, -28075.89209984447, -7258.796067094335, 0.226, 0.98, 0.17400000000000002, 192.0, 0.0, 0.0, 0.0, 0.0, 0.0, 0.0, 0.0, 0.0, 0.0, 1.695336442791723E9, 0.0, 2023-09-21 17:47:22.791
28.0, 9344.057362563297, 17068.57437712841, -187500.02235174447, -51331.16112126841, 11764.773638817507, -10519.22267904552, -187500.02235174447, -19494.72212728526, -5333.617965414282, 28045.203154707335, -39576.84809885599, -187500.02235174447, -9660.446305328167, -40105.89153836865, -28055.12732924549, -7264.786334608357, 0.226, 0.98, 0.17400000000000002, 192.0, 0.0, 0.0, 0.0, 0.0, 0.0, 0.0, 0.0, 0.0, 0.0, 1.695336442791726E9, 0.0, 2023-09-21 17:47:22.791
30.0, 9326.779464099343, 17059.074885734903, -187500.02235174447, -51336.21261551531, 11746.311097897424, -10517.054559833356, -187500.02235174447, -19485.200284147297, -5332.880357847257, 28026.047709709135, -39577.92098258984, -187500.02235174447, -9662.323851862413, -40103.790474389854, -28055.999047279245, -7266.172142764586, 0.226, 0.98, 0.17400000000000002, 192.0, 0.0, 0.0, 0.0, 0.0, 0.0, 0.0, 0.0, 0.0, 0.0, 1.695336442852007E9, 0.0, 2023-09-21 17:47:22.852
32.0, 9335.429589203548, 17057.979650256595, -187500.02235174447, -51338.40308647193, 11759.23040619259, -10515.51228946594, -187500.02235174447, -19478.651223021894, -5347.878378376768, 28034.474317368786, -39590.21444204026, -187500.02235174447, -9674.326738634914, -40122.83416066577, -28019.72216602828, -7273.503514945926, 0.23600000000000002, 0.972, 0.166, 192.0, 3.5, 48.0, 15.0, 48.0, 2.5, 24.0, 0.0, 0.0, 0.0, 1.69533644285202E9, 0.0, 2023-09-21 17:47:22.852
34.0, 9327.405312944093, 17052.5258246095, -187500.02235174447, -51336.50318819323, 11741.550176328443, -10508.560896940338, -187500.02235174447, -19471.76688572966, -5346.8278463873685, 28025.623026564484, -39582.614848925456, -187500.02235174447, -9669.208189154648, -40111.1665500601, -28004.768848987682, -7260.830075839767, 0.23600000000000002, 0.972, 0.166, 192.0, 0.0, 0.0, 0.0, 0.0, 0.0, 0.0, 0.0, 0.0, 0.0, 1.695336442852025E9, 0.0, 2023-09-21 17:47:22.852
36.0, 9319.8504233182, 17037.527804079986, -187500.02235174447, -51352.35057501204, 11753.3742491453, -10518.239202289487, -187500.02235174447, -19478.27124336615, -5356.975538370078, 28030.49570685574, -39599.46806424476, -187500.02235174447, -9680.875799760319, -40124.398782777644, -27983.221767332765, -7274.978730079977, 0.23600000000000002, 0.972, 0.166, 192.0, 0.0, 0.0, 0.0, 0.0, 0.0, 0.0, 0.0, 0.0, 0.0, 1.695336442852028E9, 0.0, 2023-09-21 17:47:22.852
38.0, 9321.258583218883, 17049.3742286413, -187500.02235174447, -51335.85498760403, 11715.108062637813, -10491.439460687574, -187500.02235174447, -19463.56379551456, -5369.023128631488, 28010.088564168047, -39602.038514857115, -187500.02235174447, -9685.502610862566, -40121.29189029836, -27928.90702830637, -7274.643453913147, 0.23600000000000002, 0.972, 0.166, 192.0, 0.0, 0.0, 0.0, 0.0, 0.0, 0.0, 0.0, 0.0, 0.0, 1.695336442852032E9, 0.0, 2023-09-21 17:47:22.852
40.0, 9329.461673433982, 17049.821263530404, -187500.02235174447, -51335.564414926106, 11752.413124133722, -10492.780565354893, -187500.02235174447, -19465.12841762643, -5358.875436648779, 28040.621047093995, -39595.958840365274, -187500.02235174447, -9678.171238681227, -40109.35605875922, -27939.658217389373, -7262.506456673916, 0.23600000000000002, 0.972, 0.166, 192.0, 0.0, 0.0, 0.0, 0.0, 0.0, 0.0, 0.0, 0.0, 0.0, 1.695336442852035E9, 0.0, 2023-09-21 17:47:22.852
42.0, 9323.22553673095, 17047.31786815141, -187500.02235174447, -51329.194167756345, 11730.396655845245, -10482.0740797608, -187500.02235174447, -19451.203280830774, -5343.609195185804, 28047.952419275334, -39586.57110769404, -187500.02235174447, -9668.090601931883, -40096.794378375336, -27909.461010630253, -7246.010869265899, 0.23, 0.976, 0.166, 192.0, 3.5, 24.0, 15.0, 64.0, 2.5, 24.0, 0.0, 0.0, 0.0, 1.695336442852039E9, 0.0, 2023-09-21 17:47:22.852
44.0, 9325.170138498563, 17050.290650163966, -187500.02235174447, -51324.94733630984, 11746.936946742171, -10474.0721552458, -187500.02235174447, -19455.785388444114, -5361.624701216781, 28043.526773873185, -39603.78195092463, -187500.02235174447, -9682.216904427636, -40109.311355270314, -27905.884731517403, -7252.179950735564, 0.23, 0.976, 0.166, 192.0, 0.0, 0.0, 0.0, 0.0, 0.0, 0.0, 0.0, 0.0, 0.0, 1.695336442912265E9, 0.0, 2023-09-21 17:47:22.912
46.0, 9324.99132454292, 17052.45876937613, -187500.02235174447, -51318.93471705136, 11714.281048092967, -10465.109105719222, -187500.02235174447, -19449.884527907914, -5357.824904659379, 28051.59575362155, -39598.86456714446, -187500.02235174447, -9673.67853804571, -40097.68844815355, -27866.635068253883, -7241.540520374838, 0.23, 0.976, 0.166, 192.0, 0.0, 0.0, 0.0, 0.0, 0.0, 0.0, 0.0, 0.0, 0.0, 1.69533644291228E9, 0.0, 2023-09-21 17:47:22.912
48.0, 9320.856251818688, 17036.343161623856, -187500.02235174447, -51333.57510966958, 11751.206129933134, -10487.237332729976, -187500.02235174447, -19465.1954728598, -5351.544064467438, 28044.39849190694, -39597.18818631032, -187500.02235174447, -9669.856389743853, -40098.828387120775, -27891.04317319908, -7234.075037726765, 0.23, 0.976, 0.166, 192.0, 0.0, 0.0, 0.0, 0.0, 0.0, 0.0, 0.0, 0.0, 0.0, 1.695336442912283E9, 0.0, 2023-09-21 17:47:22.912
50.0, 9321.571507641258, 17045.485025106078, -187500.02235174447, -51335.07267654809, 11733.503548324532, -10484.197495484053, -187500.02235174447, -19455.494815766193, -5367.883189664268, 28043.79499480665, -39610.3980672834, -187500.02235174447, -9685.837887029396, -40116.84389315175, -27816.209532762714, -7255.555064148315, 0.23, 0.976, 0.166, 192.0, 0.0, 0.0, 0.0, 0.0, 0.0, 0.0, 0.0, 0.0, 0.0, 1.695336442912287E9, 0.0, 2023-09-21 17:47:22.912
52.0, 9321.169176241061, 17044.85917626133, -187500.02235174447, -51341.420571973395, 11751.89903401125, -10503.956437582545, -187500.02235174447, -19466.916557182856, -5356.081468591866, 28029.422823121888, -39598.3951805109, -187500.02235174447, -9674.90788399075, -40108.35023025874, -27848.574858734, -7252.492875157938, 0.224, 0.98, 0.178, 192.0, 3.5, 0.0, 15.0, 80.0, 2.5, 72.0, 0.0, 0.0, 0.0, 1.69533644291229E9, 0.0, 2023-09-21 17:47:22.912
54.0, 9329.260507733883, 17059.544272368465, -187500.02235174447, -51336.27967074868, 11721.545365040942, -10495.485126433985, -187500.02235174447, -19469.263490350662, -5358.294291292941, 28041.93980001686, -39601.23385205673, -187500.02235174447, -9680.942854993684, -40115.100457084234, -27784.3582969139, -7267.803820109823, 0.224, 0.98, 0.178, 192.0, 0.0, 0.0, 0.0, 0.0, 0.0, 0.0, 0.0, 0.0, 0.0, 1.695336442912294E9, 0.0, 2023-09-21 17:47:22.912
56.0, 9334.669629892067, 17062.047667747458, -187500.02235174447, -51336.50318819323, 11731.558946556921, -10502.45887070404, -187500.02235174447, -19478.785333488624, -5351.477009234072, 28041.69393082785, -39588.78393039512, -187500.02235174447, -9681.72516604962, -40104.617488934695, -27796.763515086594, -7272.4976864454375, 0.224, 0.98, 0.178, 192.0, 0.0, 0.0, 0.0, 0.0, 0.0, 0.0, 0.0, 0.0, 0.0, 1.695336442912297E9, 0.0, 2023-09-21 17:47:22.912
58.0, 9349.153560299106, 17082.208941246146, -187500.02235174447, -51318.912365306904, 11721.970048185594, -10484.421012928608, -187500.02235174447, -19465.173121115342, -5346.023183586977, 28073.41105620993, -39582.86071811446, -187500.02235174447, -9680.138192193293, -40098.42605572058, -27703.06500232995, -7275.671634158091, 0.224, 0.98, 0.178, 192.0, 0.0, 0.0, 0.0, 0.0, 0.0, 0.0, 0.0, 0.0, 0.0, 1.6953364429123E9, 0.0, 2023-09-21 17:47:22.912
60.0, 9334.13318802514, 17067.590900372375, -187500.02235174447, -51325.148502009935, 11729.055551177926, -10498.41320495763, -187500.02235174447, -19474.829074720034, -5330.91340433519, 28056.066102512614, -39564.241714983196, -187500.02235174447, -9659.373421594313, -40078.98003804446, -27736.994950413104, -7265.188666008552, 0.224, 0.98, 0.178, 192.0, 0.0, 0.0, 0.0, 0.0, 0.0, 0.0, 0.0, 0.0, 0.0, 1.695336442971053E9, 0.0, 2023-09-21 17:47:22.971
62.0, 9318.442263417515, 17050.491815864065, -187500.02235174447, -51335.54206318165, 11716.739739983052, -10498.346149724264, -187500.02235174447, -19474.918481697856, -5345.0620585753995, 28054.479128656287, -39583.084235559014, -187500.02235174447, -9665.38604085279, -40097.286116753356, -27689.139865534293, -7278.510305703915, 0.222, 0.978, 0.182, 192.0, 3.0, 120.0, 15.0, 72.0, 2.5, 88.0, 0.0, 0.0, 0.0, 1.695336442971067E9, 0.0, 2023-09-21 17:47:22.971
64.0, 9295.308207906271, 17026.866021974805, -187500.02235174447, -51350.227159288785, 11721.210088874113, -10514.37235049872, -187500.02235174447, -19486.541388814618, -5360.395355271739, 28012.390793846942, -39598.57399446655, -187500.02235174447, -9671.175142666716, -40108.28317502537, -27709.99404311109, -7284.321759262295, 0.222, 0.978, 0.182, 192.0, 0.0, 0.0, 0.0, 0.0, 0.0, 0.0, 0.0, 0.0, 0.0, 1.695336442971071E9, 0.0, 2023-09-21 17:47:22.971
66.0, 9302.55017310979, 17037.170176168704, -187500.02235174447, -51339.00658357222, 11713.834013203861, -10502.525925937405, -187500.02235174447, -19474.963185186767, -5383.551762527438, 28037.290637170154, -39615.98600339723, -187500.02235174447, -9689.168296953238, -40125.248149066945, -27626.018539192504, -7291.854297143734, 0.222, 0.978, 0.182, 192.0, 0.0, 0.0, 0.0, 0.0, 0.0, 0.0, 0.0, 0.0, 0.0, 1.695336442971075E9, 0.0, 2023-09-21 17:47:22.971
68.0, 9299.197411441495, 17037.41604535771, -187500.02235174447, -51310.19518496933, 11721.947696441139, -10474.318024434808, -187500.02235174447, -19447.671705206838, -5357.020241858989, 28018.962206716802, -39586.07936931603, -187500.02235174447, -9661.496837317567, -40089.530061427366, -27658.85325179735, -7252.001136779922, 0.222, 0.978, 0.182, 192.0, 0.0, 0.0, 0.0, 0.0, 0.0, 0.0, 0.0, 0.0, 0.0, 1.695336442971078E9, 0.0, 2023-09-21 17:47:22.971
70.0, 9295.93405675102, 17028.698865020142, -187500.02235174447, -51312.49741464823, 11726.350990098834, -10482.051728016344, -187500.02235174447, -19458.0429146341, -5376.488611279561, 28036.620084836493, -39606.50886374818, -187500.02235174447, -9682.52982885001, -40108.93137561457, -27600.671660980188, -7257.119686260186, 0.222, 0.978, 0.182, 192.0, 0.0, 0.0, 0.0, 0.0, 0.0, 0.0, 0.0, 0.0, 0.0, 1.695336442971082E9, 0.0, 2023-09-21 17:47:22.971
72.0, 9298.37039689665, 17035.739664523564, -187500.02235174447, -51296.337103407044, 11735.872833236794, -10479.414222170619, -187500.02235174447, -19456.210071588765, -5359.769506426991, 28025.69008179785, -39577.31748548955, -187500.02235174447, -9661.630947784299, -40086.512575925895, -27617.256655366025, -7231.951622003511, 0.226, 0.98, 0.186, 192.0, 3.5, 8.0, 15.0, 80.0, 2.5, 104.0, 0.0, 0.0, 0.0, 1.695336442971085E9, 0.0, 2023-09-21 17:47:22.971
74.0, 9301.320827164749, 17031.246963888047, -187500.02235174447, -51317.928888550865, 11743.94181298516, -10501.520097436918, -187500.02235174447, -19473.733839241726, -5378.746137469547, 28045.940762274357, -39595.6459159429, -187500.02235174447, -9679.825267770919, -40107.500863969435, -27557.5551459259, -7256.002099037421, 0.226, 0.98, 0.186, 192.0, 0.0, 0.0, 0.0, 0.0, 0.0, 0.0, 0.0, 0.0, 0.0, 1.695336443031339E9, 0.0, 2023-09-21 17:47:23.031
76.0, 9308.518088879358, 17046.244984417557, -187500.02235174447, -51307.40121691242, 11742.332487384378, -10494.054614788845, -187500.02235174447, -19462.356801313974, -5361.714108194603, 28016.838790993548, -39579.55265993508, -187500.02235174447, -9668.15765716525, -40091.65347715062, -27551.11784352277, -7255.309194959306, 0.226, 0.98, 0.186, 192.0, 0.0, 0.0, 0.0, 0.0, 0.0, 0.0, 0.0, 0.0, 0.0, 1.695336443031353E9, 0.0, 2023-09-21 17:47:23.031
78.0, 9318.330504695237, 17047.13905419577, -187500.02235174447, -51322.51099616421, 11752.18960668917, -10519.379141256708, -187500.02235174447, -19478.09242941051, -5363.993986129044, 28041.35865466102, -39584.850023370986, -187500.02235174447, -9672.560950822945, -40108.14906455864, -27529.68252059013, -7275.246951013441, 0.226, 0.98, 0.186, 192.0, 0.0, 0.0, 0.0, 0.0, 0.0, 0.0, 0.0, 0.0, 0.0, 1.695336443031356E9, 0.0, 2023-09-21 17:47:23.031
80.0, 9312.697865092501, 17050.290650163966, -187500.02235174447, -51319.82878682957, 11730.910745967716, -10508.426786473607, -187500.02235174447, -19473.845597964002, -5360.484762249561, 28028.104070199024, -39576.803395367075, -187500.02235174447, -9672.315081633937, -40100.705933655016, -27515.35505239428, -7278.8902853596555, 0.226, 0.98, 0.186, 192.0, 0.0, 0.0, 0.0, 0.0, 0.0, 0.0, 0.0, 0.0, 0.0, 1.69533644303136E9, 0.0, 2023-09-21 17:47:23.031
82.0, 9314.50835639338, 17044.345086138856, -187500.02235174447, -51337.95605158282, 11747.51809209801, -10528.99039137249, -187500.02235174447, -19496.82319126406, -5361.557645983416, 28045.516079129706, -39585.94525884929, -187500.02235174447, -9678.417107870235, -40109.937204115064, -27499.97705220903, -7288.657997686625, 0.226, 0.976, 0.176, 192.0, 3.5, 8.0, 15.0, 64.0, 2.5, 64.0, 0.0, 0.0, 0.0, 1.695336443031364E9, 0.0, 2023-09-21 17:47:23.031
84.0, 9301.991379498408, 17037.639562802266, -187500.02235174447, -51341.286461506665, 11716.672684749687, -10532.969001885534, -187500.02235174447, -19496.107935441487, -5359.34482328234, 28027.96995973229, -39587.576936194535, -187500.02235174447, -9682.239256172092, -40116.35215477373, -27466.650601226163, -7299.520945491904, 0.226, 0.976, 0.176, 192.0, 0.0, 0.0, 0.0, 0.0, 0.0, 0.0, 0.0, 0.0, 0.0, 1.695336443031367E9, 0.0, 2023-09-21 17:47:23.031
86.0, 9315.178908727039, 17048.837786774373, -187500.02235174447, -51335.94439458184, 11731.268373879002, -10518.596830200771, -187500.02235174447, -19492.732822028735, -5363.546951239938, 28046.097224485544, -39593.90247987539, -187500.02235174447, -9688.050709730473, -40118.00618386343, -27449.81973765132, -7304.527736249893, 0.226, 0.976, 0.176, 192.0, 0.0, 0.0, 0.0, 0.0, 0.0, 0.0, 0.0, 0.0, 0.0, 1.695336443031371E9, 0.0, 2023-09-21 17:47:23.031
88.0, 9309.635676102123, 17052.90580426524, -187500.02235174447, -51331.7646183687, 11701.182925842159, -10515.244068532476, -187500.02235174447, -19487.055478937087, -5358.830733159868, 28044.666712840404, -39591.73436066322, -187500.02235174447, -9682.798049783474, -40106.22681453548, -27427.155068773638, -7296.972846623999, 0.226, 0.976, 0.176, 192.0, 0.0, 0.0, 0.0, 0.0, 0.0, 0.0, 0.0, 0.0, 0.0, 1.695336443031374E9, 0.0, 2023-09-21 17:47:23.031
90.0, 9308.22751620144, 17038.824205258396, -187500.02235174447, -51342.15817954042, 11720.405426073721, -10532.007876873957, -187500.02235174447, -19502.14290644442, -5379.997835159044, 28049.517041387207, -39609.77221843865, -187500.02235174447, -9700.165355225248, -40117.02270710739, -27416.828562835286, -7303.924239149599, 0.226, 0.976, 0.176, 192.0, 0.0, 0.0, 0.0, 0.0, 0.0, 0.0, 0.0, 0.0, 0.0, 1.695336443091633E9, 0.0, 2023-09-21 17:47:23.091
92.0, 9304.584181855224, 17036.074940690392, -187500.02235174447, -51338.22427251629, 11689.537666980943, -10526.621106460227, -187500.02235174447, -19500.28771165463, -5376.421556046195, 28041.49276512775, -39611.18037833934, -187500.02235174447, -9697.773718568531, -40119.168474575104, -27363.720818009475, -7310.182727597085, 0.23, 0.978, 0.176, 192.0, 3.5, 24.0, 15.0, 72.0, 2.5, 64.0, 0.0, 0.0, 0.0, 1.695336443091649E9, 0.0, 2023-09-21 17:47:23.091
94.0, 9310.999132513898, 17032.789234255462, -187500.02235174447, -51339.811246372614, 11722.08180690787, -10531.60554547376, -187500.02235174447, -19505.696833812814, -5369.291349564952, 28038.27411392619, -39612.78970394012, -187500.02235174447, -9694.979750511617, -40122.05184960984, -27375.164911170592, -7309.489823518971, 0.23, 0.978, 0.176, 192.0, 0.0, 0.0, 0.0, 0.0, 0.0, 0.0, 0.0, 0.0, 0.0, 1.695336443091653E9, 0.0, 2023-09-21 17:47:23.091
96.0, 9325.08073152074, 17060.393638657766, -187500.02235174447, -51308.29528669063, 11705.787385199952, -10503.419995715618, -187500.02235174447, -19479.925272455846, -5364.172800084687, 28029.936913244357, -39604.36309628047, -187500.02235174447, -9683.759174795054, -40112.75352391643, -27309.40607898308, -7299.453890258538, 0.23, 0.978, 0.176, 192.0, 0.0, 0.0, 0.0, 0.0, 0.0, 0.0, 0.0, 0.0, 0.0, 1.695336443091657E9, 0.0, 2023-09-21 17:47:23.091
98.0, 9317.347027939204, 17046.110873950824, -187500.02235174447, -51316.49837690573, 11739.963202472116, -10516.674580177616, -187500.02235174447, -19495.549141830106, -5364.038689617955, 28044.487898884763, -39596.13765432092, -187500.02235174447, -9678.238293914592, -40100.080084810266, -27336.27287581836, -7283.271227272896, 0.23, 0.978, 0.176, 192.0, 0.0, 0.0, 0.0, 0.0, 0.0, 0.0, 0.0, 0.0, 0.0, 1.695336443091661E9, 0.0, 2023-09-21 17:47:23.091
100.0, 9324.231365231439, 17065.04280150447, -187500.02235174447, -51301.47800463176, 11711.017693402493, -10499.687254391582, -187500.02235174447, -19476.10312415399, -5367.570265241893, 28042.275076183687, -39601.45736950128, -187500.02235174447, -9684.5861893399, -40097.487282453454, -27265.171976706028, -7277.169201036597, 0.23, 0.978, 0.176, 192.0, 0.0, 0.0, 0.0, 0.0, 0.0, 0.0, 0.0, 0.0, 0.0, 1.695336443091664E9, 0.0, 2023-09-21 17:47:23.091
102.0, 9321.124472752152, 17058.650202590252, -187500.02235174447, -51303.91434477739, 11739.247946649546, -10501.989484070478, -187500.02235174447, -19476.930138698834, -5368.486686764561, 28047.907715786427, -39604.27368930265, -187500.02235174447, -9682.865105016841, -40094.53685218535, -27285.53441590481, -7269.435497455061, 0.234, 0.984, 0.17200000000000001, 192.0, 3.5, 40.0, 15.0, 96.0, 2.5, 48.0, 0.0, 0.0, 0.0, 1.695336443091667E9, 0.0, 2023-09-21 17:47:23.091
104.0, 9323.806682086788, 17063.478179392598, -187500.02235174447, -51313.92792629337, 11735.336391369867, -10506.728053895004, -187500.02235174447, -19482.719240512757, -5367.816134430902, 28064.000971794245, -39606.77708468164, -187500.02235174447, -9684.29561666198, -40099.63304992116, -27207.05744112223, -7280.365500493705, 0.234, 0.984, 0.17200000000000001, 192.0, 0.0, 0.0, 0.0, 0.0, 0.0, 0.0, 0.0, 0.0, 0.0, 1.695336443151849E9, 0.0, 2023-09-21 17:47:23.151
106.0, 9326.064208276774, 17068.306156194943, -187500.02235174447, -51309.18935646884, 11751.764923544517, -10499.351978224753, -187500.02235174447, -19474.113818897466, -5355.701488936125, 28042.140965716957, -39596.18235780983, -187500.02235174447, -9673.902055490262, -40090.87116609469, -27225.4752785534, -7286.691044174558, 0.234, 0.984, 0.17200000000000001, 192.0, 0.0, 0.0, 0.0, 0.0, 0.0, 0.0, 0.0, 0.0, 0.0, 1.695336443151862E9, 0.0, 2023-09-21 17:47:23.151
108.0, 9332.076827535251, 17072.776505086007, -187500.02235174447, -51311.87156580348, 11729.055551177926, -10487.84082983027, -187500.02235174447, -19460.702772224282, -5353.645128446237, 28065.096207272556, -39589.812110640065, -187500.02235174447, -9671.15279092226, -40085.59615440323, -27177.351972741126, -7288.434480242072, 0.234, 0.984, 0.17200000000000001, 192.0, 0.0, 0.0, 0.0, 0.0, 0.0, 0.0, 0.0, 0.0, 0.0, 1.695336443151866E9, 0.0, 2023-09-21 17:47:23.151
110.0, 9314.88833604912, 17050.313001908424, -187500.02235174447, -51330.69173463485, 11726.730969754573, -10505.096376549767, -187500.02235174447, -19481.66870852336, -5356.0144133585, 28034.899000513436, -39593.20957579727, -187500.02235174447, -9674.885532246297, -40092.50284343992, -27214.165295859017, -7297.486936746471, 0.234, 0.984, 0.17200000000000001, 192.0, 0.0, 0.0, 0.0, 0.0, 0.0, 0.0, 0.0, 0.0, 0.0, 1.69533644315187E9, 0.0, 2023-09-21 17:47:23.151
112.0, 9331.540385668324, 17065.489836393575, -187500.02235174447, -51319.44880717383, 11742.600708317841, -10490.344225209265, -187500.02235174447, -19453.61726923195, -5360.708279694114, 28039.45875638232, -39587.17460479434, -187500.02235174447, -9676.67367180272, -40101.08591331076, -27157.48127192036, -7305.265343816918, 0.224, 0.984, 0.166, 192.0, 3.5, 0.0, 15.0, 96.0, 2.5, 24.0, 0.0, 0.0, 0.0, 1.695336443151874E9, 0.0, 2023-09-21 17:47:23.151
114.0, 9322.577336141747, 17058.89607177926, -187500.02235174447, -51328.65772588942, 11748.881548509784, -10508.69500740707, -187500.02235174447, -19465.888376937914, -5343.899767863723, 28022.717299785294, -39559.30197945857, -187500.02235174447, -9664.939005963684, -40097.57668943128, -27191.880606637074, -7289.239143042463, 0.224, 0.984, 0.166, 192.0, 0.0, 0.0, 0.0, 0.0, 0.0, 0.0, 0.0, 0.0, 0.0, 1.695336443151878E9, 0.0, 2023-09-21 17:47:23.151
116.0, 9353.936833612543, 17096.67051990873, -187500.02235174447, -51298.080539474555, 11748.233347920579, -10471.904036033635, -187500.02235174447, -19434.37241725593, -5353.689831935148, 28045.02434075169, -39557.44678466878, -187500.02235174447, -9677.500686347566, -40103.63401217866, -27113.962425465874, -7294.357692522728, 0.224, 0.984, 0.166, 192.0, 0.0, 0.0, 0.0, 0.0, 0.0, 0.0, 0.0, 0.0, 0.0, 1.695336443151881E9, 0.0, 2023-09-21 17:47:23.151
118.0, 9338.737647382934, 17085.13701976979, -187500.02235174447, -51302.01444649869, 11751.630813077785, -10481.716451849516, -187500.02235174447, -19439.736835925203, -5332.589785169338, 28048.242991953255, -39517.12423767141, -187500.02235174447, -9650.276261601002, -40071.96159028549, -27158.822376587676, -7256.695003115536, 0.224, 0.984, 0.166, 192.0, 0.0, 0.0, 0.0, 0.0, 0.0, 0.0, 0.0, 0.0, 0.0, 1.695336443151885E9, 0.0, 2023-09-21 17:47:23.151
120.0, 9340.302269494805, 17080.75607785655, -187500.02235174447, -51307.33416167905, 11749.08271420988, -10487.706719363538, -187500.02235174447, -19445.79415867259, -5362.362308783807, 28051.104015243534, -39543.8345722955, -187500.02235174447, -9685.413203884746, -40103.34343950074, -27092.571806022144, -7281.505439460927, 0.224, 0.984, 0.166, 192.0, 0.0, 0.0, 0.0, 0.0, 0.0, 0.0, 0.0, 0.0, 0.0, 1.695336443212255E9, 0.0, 2023-09-21 17:47:23.212
122.0, 9329.349914711704, 17071.122475996315, -187500.02235174447, -51300.360417409, 11733.950583213638, -10481.023547771401, -187500.02235174447, -19441.27910629262, -5354.606253457815, 28017.911674727402, -39533.0833832125, -187500.02235174447, -9681.658110816254, -40093.6651341516, -27099.679660758935, -7269.569607921792, 0.224, 0.976, 0.168, 192.0, 3.5, 0.0, 15.0, 64.0, 2.5, 32.0, 0.0, 0.0, 0.0, 1.695336443212267E9, 0.0, 2023-09-21 17:47:23.212
124.0, 9338.04474330482, 17076.598653387864, -187500.02235174447, -51300.360417409, 11741.058437950425, -10482.141134994166, -187500.02235174447, -19438.909821380355, -5356.640262203248, 28039.346997660043, -39539.900665271365, -187500.02235174447, -9689.883552775807, -40103.05286682283, -27050.21525027934, -7266.82034335379, 0.224, 0.976, 0.168, 192.0, 0.0, 0.0, 0.0, 0.0, 0.0, 0.0, 0.0, 0.0, 0.0, 1.695336443212271E9, 0.0, 2023-09-21 17:47:23.212
126.0, 9327.695885622012, 17078.967938300128, -187500.02235174447, -51304.093158733034, 11726.88743196576, -10485.985635040479, -187500.02235174447, -19447.917574395844, -5353.063983090399, 28019.632759050462, -39533.0833832125, -187500.02235174447, -9682.127497449816, -40100.437712721556, -27051.332837502105, -7271.044823055843, 0.224, 0.976, 0.168, 192.0, 0.0, 0.0, 0.0, 0.0, 0.0, 0.0, 0.0, 0.0, 0.0, 1.695336443212274E9, 0.0, 2023-09-21 17:47:23.212
128.0, 9343.006830573897, 17088.690947138184, -187500.02235174447, -51303.62377209947, 11739.89614723875, -10485.829172829292, -187500.02235174447, -19445.145958083387, -5352.751058668025, 28041.31395117211, -39534.17861869081, -187500.02235174447, -9679.534695093, -40102.538776700356, -27023.25904646624, -7275.96220683601, 0.224, 0.976, 0.168, 192.0, 0.0, 0.0, 0.0, 0.0, 0.0, 0.0, 0.0, 0.0, 0.0, 1.695336443212278E9, 0.0, 2023-09-21 17:47:23.212
130.0, 9323.270240219861, 17073.648223119762, -187500.02235174447, -51318.085350762056, 11726.12747265428, -10498.614370657728, -187500.02235174447, -19456.27712682213, -5351.409954000706, 28035.1672214469, -39533.91039775734, -187500.02235174447, -9681.076965460416, -40102.35996274471, -27022.521438899214, -7282.019529583398, 0.224, 0.976, 0.168, 192.0, 0.0, 0.0, 0.0, 0.0, 0.0, 0.0, 0.0, 0.0, 0.0, 1.695336443212282E9, 0.0, 2023-09-21 17:47:23.212
132.0, 9324.611344887178, 17075.23519697609, -187500.02235174447, -51323.49447292024, 11739.113836182814, -10503.822327115813, -187500.02235174447, -19455.427760532828, -5365.379794285273, 28019.29748288363, -39551.568275877034, -187500.02235174447, -9689.34711090888, -40113.35702101672, -26999.29797641015, -7294.022416355899, 0.23, 0.978, 0.17200000000000001, 192.0, 3.5, 24.0, 15.0, 72.0, 2.5, 48.0, 0.0, 0.0, 0.0, 1.695336443212285E9, 0.0, 2023-09-21 17:47:23.212
134.0, 9313.927211037542, 17067.52384513901, -187500.02235174447, -51324.34383920954, 11711.598838758331, -10501.922428837113, -187500.02235174447, -19461.194510602298, -5358.338994781851, 27994.86702619398, -39550.89772354338, -187500.02235174447, -9678.461811359146, -40115.01105010641, -26970.62068827399, -7295.475279745493, 0.23, 0.978, 0.17200000000000001, 192.0, 0.0, 0.0, 0.0, 0.0, 0.0, 0.0, 0.0, 0.0, 0.0, 1.695336443271669E9, 0.0, 2023-09-21 17:47:23.271
136.0, 9325.41600768757, 17075.123438253813, -187500.02235174447, -51318.82295832908, 11726.663914521208, -10494.881629333691, -187500.02235174447, -19456.90297566688, -5368.352576297829, 27985.63575573394, -39563.25823822716, -187500.02235174447, -9683.468602117135, -40127.617433979205, -26964.89864169343, -7307.098186862253, 0.23, 0.978, 0.17200000000000001, 192.0, 0.0, 0.0, 0.0, 0.0, 0.0, 0.0, 0.0, 0.0, 0.0, 1.69533644327168E9, 0.0, 2023-09-21 17:47:23.271
138.0, 9321.839728574721, 17078.85617957785, -187500.02235174447, -51311.357475681005, 11703.55221075442, -10489.718376364515, -187500.02235174447, -19449.482196507717, -5346.20199754262, 27991.670726736873, -39537.799601292565, -187500.02235174447, -9665.207226897148, -40102.3152592558, -26958.99778115723, -7286.244009285451, 0.23, 0.978, 0.17200000000000001, 192.0, 0.0, 0.0, 0.0, 0.0, 0.0, 0.0, 0.0, 0.0, 0.0, 1.695336443271683E9, 0.0, 2023-09-21 17:47:23.271
140.0, 9329.841653089721, 17077.984461544092, -187500.02235174447, -51313.92792629337, 11721.075978407382, -10498.569667168817, -187500.02235174447, -19457.32765881153, -5364.0833931068655, 28001.50549429721, -39546.06974674103, -187500.02235174447, -9679.467639859635, -40109.445465737044, -26959.95890616881, -7291.988407610465, 0.23, 0.978, 0.17200000000000001, 192.0, 0.0, 0.0, 0.0, 0.0, 0.0, 0.0, 0.0, 0.0, 0.0, 1.695336443271687E9, 0.0, 2023-09-21 17:47:23.271
142.0, 9325.460711176482, 17078.498551666566, -187500.02235174447, -51315.80547282761, 11692.689262949141, -10494.769870611415, -187500.02235174447, -19456.008905888666, -5369.045480375944, 27994.665860493882, -39559.10081375847, -187500.02235174447, -9695.024454000528, -40118.07323909679, -26916.775335881157, -7301.532602492882, 0.228, 0.976, 0.17200000000000001, 192.0, 3.5, 16.0, 15.0, 64.0, 2.5, 48.0, 0.0, 0.0, 0.0, 1.695336443271691E9, 0.0, 2023-09-21 17:47:23.271
144.0, 9336.927156082053, 17086.455772692654, -187500.02235174447, -51303.91434477739, 11724.920478453694, -10491.238294987475, -187500.02235174447, -19456.344182055498, -5358.540160481949, 27992.050706392612, -39542.24759843917, -187500.02235174447, -9685.502610862566, -40097.464930709, -26940.267019303683, -7285.171125551597, 0.228, 0.976, 0.17200000000000001, 192.0, 0.0, 0.0, 0.0, 0.0, 0.0, 0.0, 0.0, 0.0, 0.0, 1.695336443271694E9, 0.0, 2023-09-21 17:47:23.271
146.0, 9332.61326940218, 17089.65207214976, -187500.02235174447, -51308.25058320172, 11694.186829827648, -10497.206210757044, -187500.02235174447, -19464.413161803863, -5375.7063002236255, 28010.40148859042, -39547.74612757518, -187500.02235174447, -9692.789279554998, -40104.99746859044, -26882.845387798, -7295.922314634599, 0.228, 0.976, 0.17200000000000001, 192.0, 0.0, 0.0, 0.0, 0.0, 0.0, 0.0, 0.0, 0.0, 0.0, 1.695336443271698E9, 0.0, 2023-09-21 17:47:23.271
148.0, 9337.195377015518, 17094.278883252013, -187500.02235174447, -51298.9075540194, 11720.427777818177, -10498.010873557434, -187500.02235174447, -19457.12649311143, -5362.317605294897, 28008.0098519337, -39543.49929612867, -187500.02235174447, -9684.183857939704, -40100.99650633294, -26909.913350333376, -7293.754195422434, 0.228, 0.976, 0.17200000000000001, 192.0, 0.0, 0.0, 0.0, 0.0, 0.0, 0.0, 0.0, 0.0, 0.0, 1.695336443271702E9, 0.0, 2023-09-21 17:47:23.271
150.0, 9318.352856439693, 17075.503417909553, -187500.02235174447, -51325.46142643231, 11702.635789231754, -10527.1351965827, -187500.02235174447, -19487.301348126097, -5375.2369135900635, 28027.053538209624, -39557.35737769096, -187500.02235174447, -9695.605599356366, -40112.68646868306, -26864.427550366825, -7304.885364161178, 0.228, 0.976, 0.17200000000000001, 192.0, 0.0, 0.0, 0.0, 0.0, 0.0, 0.0, 0.0, 0.0, 0.0, 1.695336443331438E9, 0.0, 2023-09-21 17:47:23.331
152.0, 9321.772673341355, 17076.71041211014, -187500.02235174447, -51316.09604550553, 11720.27131560699, -10512.964190598035, -187500.02235174447, -19476.32664159854, -5387.597428273849, 27991.96129941479, -39573.316523232046, -187500.02235174447, -9706.356788439369, -40119.68256469758, -26861.007733465165, -7318.207003856541, 0.228, 0.98, 0.17, 192.0, 3.5, 16.0, 15.0, 80.0, 2.5, 40.0, 0.0, 0.0, 0.0, 1.695336443331451E9, 0.0, 2023-09-21 17:47:23.331
154.0, 9341.173987528562, 17100.58207518841, -187500.02235174447, -51302.975571510266, 11707.910800923206, -10492.713510121526, -187500.02235174447, -19455.919498910847, -5366.407974530217, 28024.170163174887, -39561.11247075945, -187500.02235174447, -9691.96226501015, -40103.790474389854, -26809.50931424014, -7301.242029814963, 0.228, 0.98, 0.17, 192.0, 0.0, 0.0, 0.0, 0.0, 0.0, 0.0, 0.0, 0.0, 0.0, 1.695336443331454E9, 0.0, 2023-09-21 17:47:23.331
156.0, 9336.971859570964, 17093.921255340727, -187500.02235174447, -51310.798682069624, 11728.496757566543, -10503.55410618235, -187500.02235174447, -19463.13911236991, -5355.768544169491, 28015.11770667049, -39546.62854035241, -187500.02235174447, -9678.238293914592, -40097.24141326445, -26866.573317834536, -7292.34603552175, 0.228, 0.98, 0.17, 192.0, 0.0, 0.0, 0.0, 0.0, 0.0, 0.0, 0.0, 0.0, 0.0, 1.695336443331458E9, 0.0, 2023-09-21 17:47:23.331
158.0, 9338.447074705015, 17087.90863608225, -187500.02235174447, -51317.235984472754, 11713.454033548122, -10512.740673153481, -187500.02235174447, -19468.727048483735, -5370.58775074336, 28026.003006220224, -39560.15134574787, -187500.02235174447, -9691.49287837659, -40111.85945413822, -26808.59289271747, -7309.936858408077, 0.228, 0.98, 0.17, 192.0, 0.0, 0.0, 0.0, 0.0, 0.0, 0.0, 0.0, 0.0, 0.0, 1.695336443331461E9, 0.0, 2023-09-21 17:47:23.331
160.0, 9324.767807098366, 17074.497589409064, -187500.02235174447, -51330.4682171903, 11724.518147053499, -10533.125464096722, -187500.02235174447, -19482.0486881791, -5369.20194258713, 27998.57741577356, -39560.71013935925, -187500.02235174447, -9687.715433563642, -40111.211253549016, -26838.521878543124, -7315.100111377253, 0.228, 0.98, 0.17, 192.0, 0.0, 0.0, 0.0, 0.0, 0.0, 0.0, 0.0, 0.0, 0.0, 1.695336443331465E9, 0.0, 2023-09-21 17:47:23.331
162.0, 9330.13222576764, 17081.538388912486, -187500.02235174447, -51330.647031145934, 11716.717388238596, -10528.141025083189, -187500.02235174447, -19478.673574766348, -5387.105689895831, 28001.460790808298, -39581.3407994915, -187500.02235174447, -9706.915582050751, -40125.98575663397, -26767.82331083099, -7330.902794707155, 0.228, 0.982, 0.17, 192.0, 3.5, 16.0, 15.0, 88.0, 2.5, 40.0, 0.0, 0.0, 0.0, 1.695336443331468E9, 0.0, 2023-09-21 17:47:23.331
164.0, 9323.158481497585, 17076.88922606578, -187500.02235174447, -51329.194167756345, 11724.518147053499, -10524.94472562608, -187500.02235174447, -19474.292632853107, -5380.40016655924, 27986.418066789876, -39569.85200284148, -187500.02235174447, -9696.67848309022, -40114.049925094834, -26797.14879955635, -7318.16230036763, 0.228, 0.982, 0.17, 192.0, 0.0, 0.0, 0.0, 0.0, 0.0, 0.0, 0.0, 0.0, 0.0, 1.695336443391621E9, 0.0, 2023-09-21 17:47:23.391
166.0, 9332.143882768618, 17082.879493579807, -187500.02235174447, -51330.043534045646, 11729.793158744951, -10520.809652901848, -187500.02235174447, -19476.080772409532, -5385.049329405943, 28012.34609035803, -39575.2387732552, -187500.02235174447, -9699.472451147134, -40122.454181010035, -26750.031322244566, -7323.437312059083, 0.228, 0.982, 0.17, 192.0, 0.0, 0.0, 0.0, 0.0, 0.0, 0.0, 0.0, 0.0, 0.0, 1.695336443391634E9, 0.0, 2023-09-21 17:47:23.391
168.0, 9328.746417611412, 17090.546141927975, -187500.02235174447, -51321.572222897084, 11735.872833236794, -10515.914620866135, -187500.02235174447, -19468.637641505917, -5371.258303077019, 27995.515226783184, -39570.25433424167, -187500.02235174447, -9693.862163288852, -40107.210291291514, -26774.39472370085, -7315.25657358844, 0.228, 0.982, 0.17, 192.0, 0.0, 0.0, 0.0, 0.0, 0.0, 0.0, 0.0, 0.0, 0.0, 1.695336443391638E9, 0.0, 2023-09-21 17:47:23.391
170.0, 9329.215804244972, 17085.33818546989, -187500.02235174447, -51330.177644512376, 11740.924327483694, -10529.526833239417, -187500.02235174447, -19487.234292892732, -5379.371986314295, 28012.12257291348, -39580.06675005755, -187500.02235174447, -9703.652227360277, -40121.51540774291, -26724.0585951875, -7322.967925425521, 0.228, 0.982, 0.17, 192.0, 0.0, 0.0, 0.0, 0.0, 0.0, 0.0, 0.0, 0.0, 0.0, 1.695336443391642E9, 0.0, 2023-09-21 17:47:23.391
172.0, 9316.967048283464, 17075.503417909553, -187500.02235174447, -51333.77627536968, 11724.741664498051, -10536.075894364822, -187500.02235174447, -19496.532618586138, -5385.138736383765, 27984.652278977905, -39581.899593102884, -187500.02235174447, -9703.92044829374, -40126.1198671007, -26714.33558634944, -7329.271117361917, 0.222, 0.978, 0.166, 192.0, 3.0, 120.0, 15.0, 72.0, 2.5, 24.0, 0.0, 0.0, 0.0, 1.695336443391645E9, 0.0, 2023-09-21 17:47:23.391
174.0, 9336.61423165968, 17092.557798928952, -187500.02235174447, -51325.8637578325, 11734.598783802841, -10522.307219780352, -187500.02235174447, -19482.272205623653, -5392.78303298748, 28007.004023433212, -39592.56137520807, -187500.02235174447, -9709.195459985192, -40139.3744515627, -26664.871175869845, -7337.988297699488, 0.222, 0.978, 0.166, 192.0, 0.0, 0.0, 0.0, 0.0, 0.0, 0.0, 0.0, 0.0, 0.0, 1.695336443391649E9, 0.0, 2023-09-21 17:47:23.391
176.0, 9336.815397359776, 17094.6365111633, -187500.02235174447, -51317.81712982859, 11719.131376639769, -10504.291713749375, -187500.02235174447, -19464.211996103764, -5354.449791246628, 28000.81259021909, -39558.005578280165, -187500.02235174447, -9678.618273570333, -40106.427980235574, -26684.160731334774, -7304.30421880534, 0.222, 0.978, 0.166, 192.0, 0.0, 0.0, 0.0, 0.0, 0.0, 0.0, 0.0, 0.0, 0.0, 1.695336443391652E9, 0.0, 2023-09-21 17:47:23.391
178.0, 9336.927156082053, 17079.79495284497, -187500.02235174447, -51334.44682770334, 11733.66001053572, -10523.357751769752, -187500.02235174447, -19485.401449847395, -5362.317605294897, 28010.3120816126, -39572.91419183185, -187500.02235174447, -9693.057500488461, -40125.65048046714, -26671.889623628813, -7321.78328296939, 0.222, 0.978, 0.166, 192.0, 0.0, 0.0, 0.0, 0.0, 0.0, 0.0, 0.0, 0.0, 0.0, 1.695336443391656E9, 0.0, 2023-09-21 17:47:23.391
180.0, 9328.969935055964, 17083.393583702276, -187500.02235174447, -51331.40699045742, 11709.721292224085, -10517.859222633746, -187500.02235174447, -19475.499627053694, -5370.58775074336, 27978.282031808143, -39578.010389567666, -187500.02235174447, -9704.099262249383, -40133.83121893778, -26651.102501285375, -7331.752160996457, 0.222, 0.978, 0.166, 192.0, 0.0, 0.0, 0.0, 0.0, 0.0, 0.0, 0.0, 0.0, 0.0, 1.695336443451865E9, 0.0, 2023-09-21 17:47:23.451
182.0, 9339.095275294218, 17083.035955790994, -187500.02235174447, -51334.60328991453, 11742.444246106656, -10526.397589015674, -187500.02235174447, -19487.077830681545, -5373.1805531001755, 27985.81456968958, -39570.56725866404, -187500.02235174447, -9710.603619885876, -40132.69127997056, -26642.497079670084, -7328.578213283803, 0.22, 0.978, 0.166, 192.0, 3.0, 112.0, 15.0, 72.0, 2.5, 24.0, 0.0, 0.0, 0.0, 1.695336443451884E9, 0.0, 2023-09-21 17:47:23.451
184.0, 9328.031161788842, 17081.89601682377, -187500.02235174447, -51339.65478416142, 11706.189716600147, -10525.056484348355, -187500.02235174447, -19489.402412104897, -5380.869553192801, 27981.455979520797, -39574.7917383661, -187500.02235174447, -9717.39855020029, -40137.56396026182, -26599.02293670451, -7342.793922757379, 0.22, 0.978, 0.166, 192.0, 0.0, 0.0, 0.0, 0.0, 0.0, 0.0, 0.0, 0.0, 0.0, 1.695336443451888E9, 0.0, 2023-09-21 17:47:23.451
186.0, 9334.066132791773, 17083.86297033584, -187500.02235174447, -51338.93952833886, 11734.017638447003, -10524.02830410341, -187500.02235174447, -19487.703679526294, -5370.163067598709, 28000.25379660771, -39567.8403458405, -187500.02235174447, -9712.123538508838, -40129.159704346624, -26594.463180835628, -7337.40715234365, 0.22, 0.978, 0.166, 192.0, 0.0, 0.0, 0.0, 0.0, 0.0, 0.0, 0.0, 0.0, 0.0, 1.695336443451891E9, 0.0, 2023-09-21 17:47:23.451
188.0, 9333.864967091677, 17099.486839710098, -187500.02235174447, -51317.43715017285, 11712.537612025453, -10499.79901311386, -187500.02235174447, -19466.84950194949, -5360.283596549463, 27993.50356978221, -39561.76067134865, -187500.02235174447, -9700.433576158712, -40116.55332047383, -26561.20378508613, -7327.192405127574, 0.22, 0.978, 0.166, 192.0, 0.0, 0.0, 0.0, 0.0, 0.0, 0.0, 0.0, 0.0, 0.0, 1.695336443451894E9, 0.0, 2023-09-21 17:47:23.451
190.0, 9330.534557167835, 17087.886284337794, -187500.02235174447, -51319.24764147373, 11745.28291765248, -10507.197440528565, -187500.02235174447, -19469.28584209512, -5363.256378562019, 27993.615328504486, -39559.123165502926, -187500.02235174447, -9689.838849286896, -40109.110189570216, -26598.933529726688, -7316.552974766848, 0.22, 0.978, 0.166, 192.0, 0.0, 0.0, 0.0, 0.0, 0.0, 0.0, 0.0, 0.0, 0.0, 1.695336443451898E9, 0.0, 2023-09-21 17:47:23.451
192.0, 9323.60551638669, 17083.4829906801, -187500.02235174447, -51312.8103390706, 11717.343237083345, -10498.055577046345, -187500.02235174447, -19465.62015600445, -5376.555666512927, 27982.193587087822, -39567.505069673665, -187500.02235174447, -9702.646398859788, -40114.98869836196, -26545.468156989595, -7316.418864300116, 0.222, 0.978, 0.17200000000000001, 192.0, 3.0, 120.0, 15.0, 72.0, 2.5, 48.0, 0.0, 0.0, 0.0, 1.695336443451901E9, 0.0, 2023-09-21 17:47:23.451
194.0, 9324.32077220926, 17074.989327787083, -187500.02235174447, -51322.71216186431, 11728.787330244462, -10513.545335953873, -187500.02235174447, -19479.47823756674, -5376.019224645999, 27976.96327888528, -39571.19310750879, -187500.02235174447, -9712.30235246448, -40119.63786120866, -26557.403988528727, -7325.471320804516, 0.222, 0.978, 0.17200000000000001, 192.0, 0.0, 0.0, 0.0, 0.0, 0.0, 0.0, 0.0, 0.0, 0.0, 1.695336443512207E9, 0.0, 2023-09-21 17:47:23.512
196.0, 9332.27799323535, 17091.462563450645, -187500.02235174447, -51320.96872579679, 11696.35494903981, -10501.587152670283, -187500.02235174447, -19469.75522872868, -5370.408936787718, 27979.06434286408, -39570.67901738632, -187500.02235174447, -9708.144927995792, -40125.404611278136, -26488.8511882843, -7331.193367385074, 0.222, 0.978, 0.17200000000000001, 192.0, 0.0, 0.0, 0.0, 0.0, 0.0, 0.0, 0.0, 0.0, 0.0, 1.695336443512224E9, 0.0, 2023-09-21 17:47:23.512
198.0, 9332.121531024162, 17086.634586648295, -187500.02235174447, -51338.11251379401, 11721.299495851934, -10525.101187837266, -187500.02235174447, -19491.503476083693, -5362.228198317075, 27968.849595648004, -39560.55367714807, -187500.02235174447, -9707.787300084508, -40123.79528567735, -26522.28939798944, -7335.015515686931, 0.222, 0.978, 0.17200000000000001, 192.0, 0.0, 0.0, 0.0, 0.0, 0.0, 0.0, 0.0, 0.0, 0.0, 1.695336443512228E9, 0.0, 2023-09-21 17:47:23.512
200.0, 9339.6540689056, 17097.363423986844, -187500.02235174447, -51331.295231735145, 11695.282065305957, -10515.489937721484, -187500.02235174447, -19481.065211423065, -5371.168896099198, 27975.622174217962, -39570.18727900831, -187500.02235174447, -9718.314971722957, -40136.20050385004, -26445.689969741103, -7356.137914197197, 0.222, 0.978, 0.17200000000000001, 192.0, 0.0, 0.0, 0.0, 0.0, 0.0, 0.0, 0.0, 0.0, 0.0, 1.695336443512231E9, 0.0, 2023-09-21 17:47:23.512
202.0, 9342.157464284595, 17099.822115876927, -187500.02235174447, -51318.39827518443, 11722.46178656361, -10511.801899886359, -187500.02235174447, -19479.791161989113, -5354.896826135734, 27965.183909557334, -39557.11150850195, -187500.02235174447, -9703.138137237804, -40117.42503850759, -26483.173845192654, -7335.373143598216, 0.224, 0.982, 0.17, 192.0, 3.5, 0.0, 15.0, 88.0, 2.5, 40.0, 0.0, 0.0, 0.0, 1.695336443512235E9, 0.0, 2023-09-21 17:47:23.512
204.0, 9337.284783993338, 17100.313854254946, -187500.02235174447, -51323.89680432044, 11710.168327113191, -10516.696931922072, -187500.02235174447, -19482.2498538792, -5366.698547208136, 27986.06043887859, -39564.8899155724, -187500.02235174447, -9710.558916396967, -40125.62812872269, -26421.572437473827, -7340.268175633929, 0.224, 0.982, 0.17, 192.0, 0.0, 0.0, 0.0, 0.0, 0.0, 0.0, 0.0, 0.0, 0.0, 1.695336443512238E9, 0.0, 2023-09-21 17:47:23.512
206.0, 9335.451940948004, 17103.018415334038, -187500.02235174447, -51313.54794663763, 11726.149824398735, -10516.898097622168, -187500.02235174447, -19480.484066067227, -5349.085372577354, 27961.495871722207, -39550.16011597635, -187500.02235174447, -9693.504535377568, -40108.819616892295, -26462.31966761585, -7330.589870284781, 0.224, 0.982, 0.17, 192.0, 0.0, 0.0, 0.0, 0.0, 0.0, 0.0, 0.0, 0.0, 0.0, 1.695336443512241E9, 0.0, 2023-09-21 17:47:23.512
208.0, 9327.584126899736, 17091.70843263965, -187500.02235174447, -51331.94343232435, 11700.825297930873, -10531.493786751484, -187500.02235174447, -19494.744479029712, -5376.8238874463905, 27983.19941558831, -39576.91515408935, -187500.02235174447, -9714.671637376743, -40135.3734893052, -26399.22069301852, -7355.467361863538, 0.224, 0.982, 0.17, 192.0, 0.0, 0.0, 0.0, 0.0, 0.0, 0.0, 0.0, 0.0, 0.0, 1.695336443512245E9, 0.0, 2023-09-21 17:47:23.512
210.0, 9336.301307237305, 17099.57624668792, -187500.02235174447, -51320.54404265214, 11711.397673058233, -10518.932106367602, -187500.02235174447, -19482.451019579294, -5365.648015218737, 27958.38897924292, -39563.68292137181, -187500.02235174447, -9703.629875615821, -40119.45904725302, -26411.1341728132, -7339.575271555815, 0.224, 0.982, 0.17, 192.0, 0.0, 0.0, 0.0, 0.0, 0.0, 0.0, 0.0, 0.0, 0.0, 1.695336443571729E9, 0.0, 2023-09-21 17:47:23.571
212.0, 9338.603536916202, 17093.787144873993, -187500.02235174447, -51323.65093513142, 11701.540553753443, -10522.575440713816, -187500.02235174447, -19487.9495487153, -5368.0173001309995, 27981.47833126525, -39570.522555175135, -187500.02235174447, -9710.804785585975, -40122.78945717686, -26358.227593687487, -7344.939690225088, 0.222, 0.98, 0.17, 192.0, 3.0, 120.0, 15.0, 80.0, 2.5, 40.0, 0.0, 0.0, 0.0, 1.695336443571747E9, 0.0, 2023-09-21 17:47:23.571
214.0, 9336.61423165968, 17098.682176909708, -187500.02235174447, -51317.0124670282, 11690.990530370538, -10513.0312458314, -187500.02235174447, -19481.847522479, -5370.1854193431645, 27952.666932662363, -39573.875316843434, -187500.02235174447, -9719.499614179089, -40121.94009088756, -26368.330582181286, -7349.544149582881, 0.222, 0.98, 0.17, 192.0, 0.0, 0.0, 0.0, 0.0, 0.0, 0.0, 0.0, 0.0, 0.0, 1.695336443571751E9, 0.0, 2023-09-21 17:47:23.571
216.0, 9347.23131027595, 17108.56164795895, -187500.02235174447, -51311.5586413811, 11713.141109125747, -10509.097338807267, -187500.02235174447, -19473.845597964002, -5357.757849426013, 27999.53854078514, -39563.4370521828, -187500.02235174447, -9707.072044261939, -40114.65342219513, -26339.809756256316, -7343.21860590203, 0.222, 0.98, 0.17, 192.0, 0.0, 0.0, 0.0, 0.0, 0.0, 0.0, 0.0, 0.0, 0.0, 1.695336443571754E9, 0.0, 2023-09-21 17:47:23.571
218.0, 9334.267298491872, 17101.252627522066, -187500.02235174447, -51315.17962398286, 11704.088652621347, -10514.506460965451, -187500.02235174447, -19471.72218224075, -5362.988157628555, 27983.691153966327, -39559.34668294748, -187500.02235174447, -9700.120651736337, -40110.20542504852, -26353.578430840786, -7338.837663988789, 0.222, 0.98, 0.17, 192.0, 0.0, 0.0, 0.0, 0.0, 0.0, 0.0, 0.0, 0.0, 0.0, 1.695336443571758E9, 0.0, 2023-09-21 17:47:23.571
220.0, 9334.356705469692, 17094.837676863393, -187500.02235174447, -51333.12807478048, 11709.207202101614, -10540.635650233704, -187500.02235174447, -19485.736726014224, -5377.695605480148, 27987.625060990464, -39580.98317158022, -187500.02235174447, -9720.728960124132, -40136.53578001688, -26309.143162863635, -7360.02711773242, 0.222, 0.98, 0.17, 192.0, 0.0, 0.0, 0.0, 0.0, 0.0, 0.0, 0.0, 0.0, 0.0, 1.695336443571761E9, 0.0, 2023-09-21 17:47:23.571
222.0, 9340.27991775035, 17106.549990957974, -187500.02235174447, -51317.14657749493, 11690.49879199252, -10532.611373974249, -187500.02235174447, -19483.121571912954, -5359.478933749072, 27963.01579034517, -39562.92296206033, -187500.02235174447, -9705.395663427791, -40119.28023329738, -26322.040119414345, -7348.337155382294, 0.222, 0.982, 0.17, 192.0, 3.0, 120.0, 15.0, 88.0, 2.5, 40.0, 0.0, 0.0, 0.0, 1.695336443571765E9, 0.0, 2023-09-21 17:47:23.571
224.0, 9341.688077651033, 17105.320645012933, -187500.02235174447, -51321.59457464154, 11708.067263134393, -10530.264440806443, -187500.02235174447, -19475.589034031516, -5363.546951239938, 27988.16150285739, -39575.775215122136, -187500.02235174447, -9712.54822165349, -40129.18205609108, -26309.478439030463, -7356.74141129749, 0.222, 0.982, 0.17, 192.0, 0.0, 0.0, 0.0, 0.0, 0.0, 0.0, 0.0, 0.0, 0.0, 1.695336443631382E9, 0.0, 2023-09-21 17:47:23.631
226.0, 9318.822243073255, 17079.52673191151, -187500.02235174447, -51337.75488588273, 11681.44633548812, -10543.094342123788, -187500.02235174447, -19491.637586550427, -5378.097936880343, 27961.54057521112, -39584.715912904256, -187500.02235174447, -9724.796977614997, -40133.54064625986, -26289.808903909794, -7360.652966577169, 0.222, 0.982, 0.17, 192.0, 0.0, 0.0, 0.0, 0.0, 0.0, 0.0, 0.0, 0.0, 0.0, 1.695336443631396E9, 0.0, 2023-09-21 17:47:23.631
228.0, 9332.456807190993, 17088.445077949178, -187500.02235174447, -51327.361324711004, 11706.502641022522, -10529.258612305954, -187500.02235174447, -19477.935967199322, -5385.4516608061385, 27974.34812478401, -39591.89082287441, -187500.02235174447, -9731.033114318028, -40140.53674227437, -26252.190917991513, -7367.202027702574, 0.222, 0.982, 0.17, 192.0, 0.0, 0.0, 0.0, 0.0, 0.0, 0.0, 0.0, 0.0, 0.0, 1.6953364436314E9, 0.0, 2023-09-21 17:47:23.631
230.0, 9336.502472937402, 17104.515982212542, -187500.02235174447, -51313.52559489317, 11687.235437302046, -10515.758158654948, -187500.02235174447, -19469.48700779522, -5370.945378654645, 27964.602764201496, -39574.590572666, -187500.02235174447, -9717.040922289005, -40121.85068390974, -26231.940237515002, -7349.253576904962, 0.222, 0.982, 0.17, 192.0, 0.0, 0.0, 0.0, 0.0, 0.0, 0.0, 0.0, 0.0, 0.0, 1.695336443631404E9, 0.0, 2023-09-21 17:47:23.631
232.0, 9328.65701063359, 17089.741479127584, -187500.02235174447, -51324.366190953995, 11706.189716600147, -10532.387856529696, -187500.02235174447, -19485.13322891393, -5373.024090888988, 27974.415180017375, -39578.05509305657, -187500.02235174447, -9717.264439733559, -40126.298681056345, -26240.56801087475, -7352.829856017811, 0.224, 0.982, 0.17, 192.0, 3.5, 0.0, 15.0, 88.0, 2.5, 40.0, 0.0, 0.0, 0.0, 1.695336443631408E9, 0.0, 2023-09-21 17:47:23.631
234.0, 9318.196394228506, 17087.707470382153, -187500.02235174447, -51323.15919675341, 11675.79134414093, -10524.94472562608, -187500.02235174447, -19480.461714322773, -5371.548875754938, 27957.807833887084, -39586.83932862751, -187500.02235174447, -9721.600678157887, -40124.30937579982, -26203.33000461221, -7355.042678718887, 0.224, 0.982, 0.17, 192.0, 0.0, 0.0, 0.0, 0.0, 0.0, 0.0, 0.0, 0.0, 0.0, 1.695336443631412E9, 0.0, 2023-09-21 17:47:23.631
236.0, 9320.386865185126, 17076.88922606578, -187500.02235174447, -51334.2680137477, 11709.140146868247, -10539.607469988761, -187500.02235174447, -19495.459734852284, -5388.603256774337, 27962.546403711607, -39599.35630552248, -187500.02235174447, -9729.714361395165, -40136.580483505786, -26192.75762948485, -7365.905626524166, 0.224, 0.982, 0.17, 192.0, 0.0, 0.0, 0.0, 0.0, 0.0, 0.0, 0.0, 0.0, 0.0, 1.695336443631415E9, 0.0, 2023-09-21 17:47:23.631
238.0, 9330.176929256551, 17098.928046098717, -187500.02235174447, -51318.912365306904, 11688.330672780356, -10523.044827347378, -187500.02235174447, -19478.830036977535, -5379.774317714491, 27962.568755456065, -39588.71687516176, -187500.02235174447, -9716.549183910989, -40129.80790493583, -26141.818003871205, -7365.659757335157, 0.224, 0.982, 0.17, 192.0, 0.0, 0.0, 0.0, 0.0, 0.0, 0.0, 0.0, 0.0, 0.0, 1.695336443631419E9, 0.0, 2023-09-21 17:47:23.631
240.0, 9323.046722775307, 17078.47619992211, -187500.02235174447, -51337.643127160445, 11719.51135629551, -10548.771685215437, -187500.02235174447, -19499.013662220677, -5375.482782779072, 27972.336467783032, -39584.93943034881, -187500.02235174447, -9711.989428042107, -40131.64074798116, -26162.068684347712, -7364.877446279222, 0.224, 0.982, 0.17, 192.0, 0.0, 0.0, 0.0, 0.0, 0.0, 0.0, 0.0, 0.0, 0.0, 1.695336443692611E9, 0.0, 2023-09-21 17:47:23.692
242.0, 9333.596746158213, 17099.442136221187, -187500.02235174447, -51317.14657749493, 11687.526009979965, -10517.635705189194, -187500.02235174447, -19472.862121207967, -5382.791803215958, 27957.87488912045, -39594.908308375874, -187500.02235174447, -9723.187652014214, -40139.508562029434, -26077.847311240115, -7369.101925981275, 0.23, 0.98, 0.166, 192.0, 3.5, 24.0, 15.0, 80.0, 2.5, 24.0, 0.0, 0.0, 0.0, 1.695336443692634E9, 0.0, 2023-09-21 17:47:23.692
244.0, 9346.538406197835, 17109.14279331479, -187500.02235174447, -51301.83563254304, 11726.46274882111, -10512.248934775465, -187500.02235174447, -19473.82324621955, -5354.606253457815, 27971.73297068274, -39567.68388362931, -187500.02235174447, -9698.041939501994, -40108.93137561457, -26125.992968796847, -7341.005783200954, 0.23, 0.98, 0.166, 192.0, 0.0, 0.0, 0.0, 0.0, 0.0, 0.0, 0.0, 0.0, 0.0, 1.695336443692639E9, 0.0, 2023-09-21 17:47:23.692
246.0, 9338.000039815908, 17101.699662411174, -187500.02235174447, -51311.26806870319, 11707.620228245287, -10513.835908631792, -187500.02235174447, -19475.05259216459, -5366.229160574575, 27986.48512202324, -39578.837404112506, -187500.02235174447, -9711.475337919634, -40114.29579428385, -26084.642241554528, -7350.393515872182, 0.23, 0.98, 0.166, 192.0, 0.0, 0.0, 0.0, 0.0, 0.0, 0.0, 0.0, 0.0, 0.0, 1.695336443692643E9, 0.0, 2023-09-21 17:47:23.692
