%OpenBCI Raw EXG Data
%Number of channels = 16
%Sample Rate = 125 Hz
%Board = OpenBCI_GUI$BoardCytonSerialDaisy
Sample Index, EXG Channel 0, EXG Channel 1, EXG Channel 2, EXG Channel 3, EXG Channel 4, EXG Channel 5, EXG Channel 6, EXG Channel 7, EXG Channel 8, EXG Channel 9, EXG Channel 10, EXG Channel 11, EXG Channel 12, EXG Channel 13, EXG Channel 14, EXG Channel 15, Accel Channel 0, Accel Channel 1, Accel Channel 2, Other, Other, Other, Other, Other, Other, Other, Analog Channel 0, Analog Channel 1, Analog Channel 2, Timestamp, Other, Timestamp (Formatted)
0.0, 29872.39120869532, 51840.579729149315, 41835.00013768675, 5924.642792301512, 57129.02481901942, 47050.69029935483, -149984.22860911235, 41178.8199757123, 0.0, 0.0, 0.0, 0.0, 0.0, 0.0, 0.0, 0.0, 0.0, 0.0, 0.0, 192.0, 0.0, 0.0, 0.0, 0.0, 0.0, 0.0, 0.0, 0.0, 0.0, 1.696029897819217E9, 0.0, 2023-09-29 18:24:57.819
254.0, 29871.58654589493, 51840.5350256604, 41855.854315263554, 5925.648620802, 57150.52719718542, 47054.937130801336, -150327.5290522014, 41195.8743567317, 37768.882545099565, 65053.83581564854, 55129.48246353656, 11777.402374434754, 67044.79510126056, -124714.2851012093, 71972.46068387755, 51891.42994778514, 0.022, 0.512, -0.005, 192.0, 0.5, 48.0, 16.0, 0.0, 127.5, 88.0, 0.0, 0.0, 0.0, 1.696029897819226E9, 0.0, 2023-09-29 18:24:57.819
0.0, 29861.81883356796, 51828.621545865724, 41844.723146524804, 5905.934382192419, 57121.246411948974, 47049.43860166533, -149939.81569287964, 41179.0211414124, 37784.48406272937, 65126.03195023918, 55291.018520715064, 11772.037955765481, 67162.18646313983, -124295.77103802814, 72168.77605542852, 52074.62484534083, 0.022, 0.512, -0.005, 192.0, 0.0, 0.0, 0.0, 0.0, 0.0, 0.0, 0.0, 0.0, 0.0, 1.69602989781923E9, 0.0, 2023-09-29 18:24:57.819
2.0, 29867.63028712634, 51833.807150579356, 41828.9204631949, 5918.876042232042, 57135.64093537819, 47051.584369133045, -150338.1908343066, 41177.54592627835, 37755.65031238202, 65044.895117866414, 55119.69239946514, 11770.629795864797, 67040.59297330296, -124621.48065823087, 71999.17101850164, 51905.04216015842, 0.022, 0.512, -0.005, 192.0, 0.0, 0.0, 0.0, 0.0, 0.0, 0.0, 0.0, 0.0, 0.0, 1.696029897819233E9, 0.0, 2023-09-29 18:24:57.819
4.0, 29856.208545709676, 51827.39219992068, 41862.693949066874, 5899.430024555925, 57128.086045752294, 47054.40068893441, -149916.45811992386, 41184.519670548405, 37782.07007432819, 65126.568392106106, 55281.18375315473, 11773.021432521515, 67158.9007567049, -124388.01668739518, 72142.91508709373, 52040.11375190184, 0.022, 0.512, -0.005, 192.0, 0.0, 0.0, 0.0, 0.0, 0.0, 0.0, 0.0, 0.0, 0.0, 1.696029897819236E9, 0.0, 2023-09-29 18:24:57.819
6.0, 29871.787711595025, 51841.898482072174, 41808.736837951765, 5918.473710831847, 57129.02481901942, 47053.9089505564, -150379.58626503783, 41169.141670363155, 37750.88939081304, 65056.69683893882, 55123.648658233724, 11776.217731978624, 67041.01765644761, -124544.5012503268, 72013.92316984215, 51908.394921826715, 0.022, 0.512, -0.005, 192.0, 0.0, 0.0, 0.0, 0.0, 0.0, 0.0, 0.0, 0.0, 0.0, 1.69602989781924E9, 0.0, 2023-09-29 18:24:57.819
8.0, 29869.396074938308, 51844.51363617345, 41827.266434105215, 5914.338638107614, 57099.699330294054, 47079.70286365782, -150134.90171848558, 41209.84419701627, 37783.81351039571, 65125.294342672154, 55267.683299503726, 11782.051537281459, 67129.41880576835, -124496.19913055887, 72100.04444122844, 52014.45394926715, 0.033, 0.767, -0.0105, 192.0, 0.5, 48.0, 15.5, 120.0, 127.5, 64.0, 0.0, 0.0, 0.0, 1.696029897819243E9, 0.0, 2023-09-29 18:24:57.819
10.0, 29901.91786312078, 51873.705014432075, 41768.72721537676, 5949.095600735617, 57112.842156033774, 47069.488116441746, -151021.52836579425, 41194.98028695348, 37746.7096145999, 65077.79688570463, 55078.56518966737, 11793.339168231389, 66916.0937566869, -124404.109943403, 71864.92644130308, 51944.49298912204, 0.033, 0.767, -0.0105, 192.0, 0.0, 0.0, 0.0, 0.0, 0.0, 0.0, 0.0, 0.0, 0.0, 1.696029897819246E9, 0.0, 2023-09-29 18:24:57.819
12.0, 29876.1015982749, 51853.521389188936, 41907.240975766304, 5916.640867786511, 57163.535912458414, 47086.92247711688, -150567.11740101784, 41228.19497921407, 37807.34989730715, 65136.51491838872, 55277.07103217495, 11802.056348568958, 67112.16325904886, -124557.93464874443, 71925.94670366606, 51997.801899647944, 0.033, 0.767, -0.0105, 192.0, 0.0, 0.0, 0.0, 0.0, 0.0, 0.0, 0.0, 0.0, 0.0, 1.69602989781925E9, 0.0, 2023-09-29 18:24:57.819
0.0, 14862.27838543396, 25943.647437530453, 21010.505677521905, 2984.2931609503225, 28630.57299024737, 23586.90185390733, -75782.382581518, 20635.778681728683, 18877.903387296607, 32526.34793834066, 27548.368578954767, 5895.026730898229, 33506.49428445033, -62318.295218741325, 35941.71684285603, 25945.010893942224, 0.038, 1.024, -0.014, 192.0, 0.5, 24.0, 16.0, 0.0, 127.5, 72.0, 0.0, 0.0, 0.0, 1.696029897992811E9, 0.0, 2023-09-29 18:24:57.992
2.0, 29728.4683261476, 51890.915857662665, 41927.42460100944, 5968.586321900645, 57198.4493372976, 47137.39271609697, -151341.13595976066, 41222.4282291446, 37859.16124095455, 65256.09675122461, 55344.6627074078, 11814.327456274923, 67271.1735691039, -126133.19619097665, 72279.88657711585, 52270.87316165843, 0.038, 1.024, -0.014, 192.0, 0.0, 0.0, 0.0, 0.0, 0.0, 0.0, 0.0, 0.0, 0.0, 1.696029897992823E9, 0.0, 2023-09-29 18:24:57.992
4.0, 29726.859000546814, 51887.87602041674, 41935.38182203553, 5986.713586653899, 57218.11887241827, 47149.39560286947, -151759.15828456383, 41239.63907237519, 37826.43828707198, 65171.98713683929, 55164.3735366313, 11813.81336615245, 67098.93102633131, -126566.8200334096, 72070.47308331408, 52078.82697329843, 0.038, 1.024, -0.014, 192.0, 0.0, 0.0, 0.0, 0.0, 0.0, 0.0, 0.0, 0.0, 0.0, 1.696029897992826E9, 0.0, 2023-09-29 18:24:57.992
6.0, 29715.571369596884, 51876.990720867005, 41948.837572197626, 5973.794278358731, 57196.08005238534, 47133.123532906, -151277.29937759633, 41237.090973507286, 37845.079641947705, 65237.76832077126, 55339.34299222744, 11800.67054041273, 67259.41655152042, -126184.24757531258, 72274.58921367994, 52257.797391152075, 0.038, 1.024, -0.014, 192.0, 0.0, 0.0, 0.0, 0.0, 0.0, 0.0, 0.0, 0.0, 0.0, 1.69602989799283E9, 0.0, 2023-09-29 18:24:57.992
8.0, 29741.521744909496, 51898.89543043321, 41927.13402833152, 6006.025493863284, 57206.69713100161, 47143.6288528, -151781.3312150635, 41236.97921478501, 37817.72110673441, 65166.265090258734, 55156.32690862739, 11812.539316718498, 67112.52088696013, -126455.75421521119, 72105.36415640882, 52095.97076129565, 0.03, 1.024, -0.018000000000000002, 192.0, 0.0, 120.0, 16.0, 0.0, 127.5, 56.0, 0.0, 0.0, 0.0, 1.696029897992833E9, 0.0, 2023-09-29 18:24:57.992
10.0, 29731.463459904608, 51889.61945648426, 41999.0619419887, 5995.698987924932, 57216.531898561945, 47152.56955058212, -151275.98062467345, 41253.40774695966, 37868.79484281479, 65250.642925577515, 55343.07573355147, 11825.257459313567, 67260.1765108319, -126294.44167547724, 72243.4532336537, 52234.68568738529, 0.03, 1.024, -0.018000000000000002, 192.0, 0.0, 0.0, 0.0, 0.0, 0.0, 0.0, 0.0, 0.0, 0.0, 1.696029897992836E9, 0.0, 2023-09-29 18:24:57.992
12.0, 29745.1203757668, 51901.86821244576, 41934.353641790585, 6022.498729526846, 57205.31132284538, 47132.76590499472, -151801.40308158434, 41228.3290896808, 37827.71233650593, 65179.631433443006, 55168.08392621088, 11822.53054649002, 67131.22929706924, -126373.09746421546, 72133.32618872239, 52129.61013670089, 0.03, 1.024, -0.018000000000000002, 192.0, 0.0, 0.0, 0.0, 0.0, 0.0, 0.0, 0.0, 0.0, 0.0, 1.69602989799284E9, 0.0, 2023-09-29 18:24:57.992
14.0, 29723.036852244957, 51882.533953491926, 42028.47683769189, 6002.6056769616225, 57230.25586965751, 47147.361594124035, -151276.27119735137, 41253.45245044857, 37872.25936320536, 65252.20754768939, 55323.249736219615, 11831.20302333868, 67244.23971703526, -126400.79127559559, 72214.88770423981, 52214.43500690878, 0.03, 1.024, -0.018000000000000002, 192.0, 0.0, 0.0, 0.0, 0.0, 0.0, 0.0, 0.0, 0.0, 0.0, 1.696029897992843E9, 0.0, 2023-09-29 18:24:57.992
16.0, 29739.55479139743, 51896.79436645441, 41909.31968800064, 6025.404456306035, 57199.11988963126, 47125.65805025793, -151790.9871686682, 41217.980231998, 37821.25268235835, 65180.0337648432, 55179.237446694075, 11813.232220796612, 67131.98925638071, -126268.06661701997, 72173.35816304185, 52163.22716036167, 0.03, 1.024, -0.018000000000000002, 192.0, 0.0, 0.0, 0.0, 0.0, 0.0, 0.0, 0.0, 0.0, 0.0, 1.696029898052807E9, 0.0, 2023-09-29 18:24:58.052
18.0, 29713.090325962345, 51875.51550573296, 42047.18524780098, 6001.644551950044, 57233.63098307026, 47152.81541977113, -151292.92324697057, 41266.32705525483, 37863.743348567885, 65232.35919861308, 55302.194392942714, 11824.966886635648, 67215.04833877663, -126505.5091983687, 72173.38051478632, 52174.9171227118, 0.034, 1.02, -0.014, 192.0, 0.5, 8.0, 15.5, 112.0, 127.5, 72.0, 0.0, 0.0, 0.0, 1.696029898052817E9, 0.0, 2023-09-29 18:24:58.052
20.0, 29736.537305895963, 51893.41925304166, 41914.41588573645, 6034.032229665784, 57187.944017403606, 47119.108989132525, -151750.17288329278, 41209.41951387162, 37818.63752825708, 65174.82580838512, 55188.759289832036, 11806.325531759923, 67151.34586707901, -126163.37104599131, 72209.43387859272, 52195.25721016613, 0.034, 1.02, -0.014, 192.0, 0.0, 0.0, 0.0, 0.0, 0.0, 0.0, 0.0, 0.0, 0.0, 1.696029898052821E9, 0.0, 2023-09-29 18:24:58.052
22.0, 29710.676337561174, 51870.95574986408, 42069.46993702292, 6005.869031652097, 57239.64360232873, 47150.80376277015, -151287.64823527914, 41268.02578783343, 37866.67142709153, 65218.41171007296, 55286.45876484618, 11827.827909925927, 67198.1057164795, -126563.6684374414, 72149.84412787487, 52153.504151523615, 0.034, 1.02, -0.014, 192.0, 0.0, 0.0, 0.0, 0.0, 0.0, 0.0, 0.0, 0.0, 0.0, 1.696029898052824E9, 0.0, 2023-09-29 18:24:58.052
24.0, 29734.21272447261, 51890.8488024293, 41899.887251840504, 6042.078857669694, 57179.60681672178, 47113.34223906306, -151689.57730407445, 41210.313583649826, 37820.64918525806, 65178.156218308955, 55210.86516509833, 11806.794918393483, 67156.93380319283, -126056.9990941285, 72241.28511444153, 52221.2746407121, 0.034, 1.02, -0.014, 192.0, 0.0, 0.0, 0.0, 0.0, 0.0, 0.0, 0.0, 0.0, 0.0, 1.696029898052828E9, 0.0, 2023-09-29 18:24:58.052
26.0, 29711.79392478394, 51874.6437876992, 42067.65944572204, 6023.884537683075, 57246.77380880998, 47157.911617506936, -151362.4818757155, 41284.18609907461, 37857.50721186486, 65208.15225936798, 55254.093438874894, 11830.174843093735, 67171.19421615532, -126645.4981738923, 72100.91615926221, 52103.65976138828, 0.034, 1.02, -0.014, 192.0, 0.0, 0.0, 0.0, 0.0, 0.0, 0.0, 0.0, 0.0, 0.0, 1.696029898052838E9, 0.0, 2023-09-29 18:24:58.052
28.0, 29731.68697734916, 51891.65346522969, 41908.53737694471, 6048.046773439261, 57181.5961219783, 47109.117759361005, -151677.66382427976, 41213.55458659585, 37830.282787118296, 65193.64597721648, 55227.51721471754, 11806.884325371306, 67194.37297515548, -126033.64152117271, 72240.54750687451, 52227.868405326415, 0.038, 1.022, -0.01, 192.0, 0.5, 24.0, 15.5, 120.0, 127.5, 88.0, 0.0, 0.0, 0.0, 1.696029898052842E9, 0.0, 2023-09-29 18:24:58.052
30.0, 29708.50821834901, 51870.285197530415, 42075.46020453694, 6027.237299351371, 57250.81947455639, 47154.44709711637, -151430.72175153755, 41282.040331606906, 37854.71324380794, 65198.205733085364, 55227.87484262882, 11823.938706390705, 67161.0465241726, -126719.0130614058, 72060.05717039791, 52077.016481997554, 0.038, 1.022, -0.01, 192.0, 0.0, 0.0, 0.0, 0.0, 0.0, 0.0, 0.0, 0.0, 0.0, 1.696029898113103E9, 0.0, 2023-09-29 18:24:58.113
32.0, 29719.728794065573, 51879.874095901745, 41913.72298165834, 6043.844645481664, 57176.23170330903, 47102.814567424604, -151617.35881773935, 41211.4758743615, 37831.28861561878, 65191.299044048676, 55244.16926433674, 11796.267246755035, 67203.20191421531, -125995.75531432097, 72271.43761771174, 52252.09769631597, 0.038, 1.022, -0.01, 192.0, 0.0, 0.0, 0.0, 0.0, 0.0, 0.0, 0.0, 0.0, 0.0, 1.696029898113115E9, 0.0, 2023-09-29 18:24:58.113
34.0, 29706.585968325853, 51869.726403919034, 42071.34748355717, 6038.748447745854, 57246.34912566533, 47149.57441682511, -151495.07242382437, 41286.30951479787, 37845.52667683681, 65178.60325319806, 55202.48326092759, 11819.021322610537, 67144.5509367646, -126746.03632045226, 72052.68109472765, 52061.705537045666, 0.038, 1.022, -0.01, 192.0, 0.0, 0.0, 0.0, 0.0, 0.0, 0.0, 0.0, 0.0, 0.0, 1.696029898113119E9, 0.0, 2023-09-29 18:24:58.113
36.0, 29726.255503446522, 51887.56309599437, 41930.084458599624, 6055.355793876147, 57177.57280797634, 47108.08957911606, -151565.7709915365, 41214.33689765178, 37835.44604008747, 65215.3942245715, 55267.70565124818, 11806.258476526556, 67226.69359763784, -125990.21208169605, 72279.30543176, 52267.56510347904, 0.038, 1.022, -0.01, 192.0, 0.0, 0.0, 0.0, 0.0, 0.0, 0.0, 0.0, 0.0, 0.0, 1.696029898113123E9, 0.0, 2023-09-29 18:24:58.113
38.0, 29715.16903819669, 51879.0470813569, 42070.72163471242, 6054.685241542487, 57245.58916635384, 47161.89022801998, -151585.61934061281, 41274.753662914474, 37846.04076695928, 65183.90061663397, 55193.09552825637, 11835.494558274098, 67122.19919230929, -126774.4677393994, 72021.03102457893, 52052.340156118895, 0.036000000000000004, 1.022, -0.01, 192.0, 0.5, 16.0, 15.5, 120.0, 127.5, 88.0, 0.0, 0.0, 0.0, 1.696029898113137E9, 0.0, 2023-09-29 18:24:58.113
40.0, 29717.49361962004, 51878.57769472333, 41944.79190645122, 6050.371354862614, 57177.50575274298, 47107.37432329349, -151498.3134267704, 41211.81115052833, 37842.06215644624, 65227.66533227746, 55297.27700916255, 11812.405206251766, 67240.50697571122, -126003.39961092468, 72287.6649841863, 52294.96834218125, 0.036000000000000004, 1.022, -0.01, 192.0, 0.0, 0.0, 0.0, 0.0, 0.0, 0.0, 0.0, 0.0, 0.0, 1.69602989811314E9, 0.0, 2023-09-29 18:24:58.113
42.0, 29717.448916131132, 51875.42609875514, 42059.03167236229, 6052.29360488577, 57244.40452389771, 47145.57345456761, -151655.7367629691, 41273.45726173607, 37837.43534534399, 65165.907462347444, 55171.30257741244, 11822.15056683428, 67115.53837246161, -126752.2724571553, 72024.51789671397, 52053.88242648631, 0.036000000000000004, 1.022, -0.01, 192.0, 0.0, 0.0, 0.0, 0.0, 0.0, 0.0, 0.0, 0.0, 0.0, 1.696029898113144E9, 0.0, 2023-09-29 18:24:58.113
44.0, 29717.247750431034, 51872.676834187136, 41971.92692421996, 6045.409267593535, 57187.31816855886, 47098.634791211465, -151429.15712942567, 41220.39422039917, 37847.3818716266, 65231.37572185704, 55315.203108215705, 11810.572363206431, 67263.68573471138, -126042.53751546593, 72291.10715283241, 52292.06261540206, 0.036000000000000004, 1.022, -0.01, 192.0, 0.0, 0.0, 0.0, 0.0, 0.0, 0.0, 0.0, 0.0, 0.0, 1.696029898113147E9, 0.0, 2023-09-29 18:24:58.113
46.0, 29717.694785320138, 51876.744851678, 42037.03755581827, 6053.433543852991, 57230.90407024671, 47128.94375669286, -151699.99321699064, 41257.006377816964, 37825.25364461585, 65165.438075713886, 55151.78950450296, 11822.06115985646, 67100.7862211211, -126690.55929071418, 72032.96685611807, 52059.51506608904, 0.036000000000000004, 1.022, -0.01, 192.0, 0.0, 0.0, 0.0, 0.0, 0.0, 0.0, 0.0, 0.0, 0.0, 1.696029898173483E9, 0.0, 2023-09-29 18:24:58.173
48.0, 29718.812372542903, 51876.18605806662, 41987.774311038775, 6050.751334518353, 57193.62136049526, 47105.764997692706, -151388.49930626148, 41225.87039779072, 37849.34882513867, 65241.501062095296, 55308.207012201194, 11815.422691753232, 67271.79941794866, -126088.60446078831, 72279.9089288603, 52277.46692627275, 0.04, 1.018, -0.01, 192.0, 0.5, 32.0, 15.5, 104.0, 127.5, 88.0, 0.0, 0.0, 0.0, 1.696029898173494E9, 0.0, 2023-09-29 18:24:58.173
50.0, 29718.700613820627, 51872.07333708684, 42023.671212634, 6058.14976193306, 57228.95946847909, 47131.11187590502, -151768.43425851277, 41246.948092812076, 37828.8299237287, 65172.16595079494, 55138.691382252146, 11825.43627326921, 67110.28571251461, -126640.02199650074, 72045.64029522424, 52059.13508643331, 0.04, 1.018, -0.01, 192.0, 0.0, 0.0, 0.0, 0.0, 0.0, 0.0, 0.0, 0.0, 0.0, 1.696029898173498E9, 0.0, 2023-09-29 18:24:58.173
52.0, 29702.808523512904, 51854.46016245606, 41997.92200302148, 6035.440389566468, 57199.38811056472, 47107.55313724913, -151331.48000615597, 41223.12113322272, 37847.51598209333, 65229.07349217815, 55307.96114301219, 11800.514078201542, 67262.5234439997, -126158.29719999996, 72274.54451019103, 52264.16763832184, 0.04, 1.018, -0.01, 192.0, 0.0, 0.0, 0.0, 0.0, 0.0, 0.0, 0.0, 0.0, 0.0, 1.696029898173502E9, 0.0, 2023-09-29 18:24:58.173
54.0, 29724.93675052366, 51874.82260165484, 41984.153328437016, 6068.208046937949, 57221.292820130926, 47123.69109674586, -151808.51093632114, 41236.86745606273, 37810.59090025317, 65152.071732529614, 55128.58839375835, 11804.71620615914, 67103.33431998901, -126535.39348070545, 72070.04840016943, 52063.60543532437, 0.04, 1.018, -0.01, 192.0, 0.0, 0.0, 0.0, 0.0, 0.0, 0.0, 0.0, 0.0, 0.0, 1.696029898173505E9, 0.0, 2023-09-29 18:24:58.173
56.0, 29710.653985816716, 51863.020880582444, 42023.559453911716, 6041.005973935839, 57214.60964853879, 47129.43549507088, -151320.90763102862, 41239.37085144172, 37858.87066827663, 65246.954887742395, 55316.29834369402, 11813.321627774434, 67267.06084812414, -126272.02287578856, 72233.88668702682, 52219.03946626657, 0.04, 1.018, -0.01, 192.0, 0.0, 0.0, 0.0, 0.0, 0.0, 0.0, 0.0, 0.0, 0.0, 1.696029898173513E9, 0.0, 2023-09-29 18:24:58.173
58.0, 29723.97562551208, 51873.280331287424, 41967.97066545137, 6056.138104932083, 57209.91578220318, 47117.81258795412, -151813.96476196824, 41221.5788628553, 37807.39460079606, 65155.782122109194, 55135.740951984044, 11800.491726457087, 67117.70649167377, -126443.1925348273, 72099.35153715033, 52094.78611883952, 0.036000000000000004, 1.018, -0.01, 192.0, 0.5, 16.0, 15.5, 104.0, 127.5, 88.0, 0.0, 0.0, 0.0, 1.696029898173516E9, 0.0, 2023-09-29 18:24:58.173
60.0, 29705.468381103085, 51857.142371790695, 42036.65757616253, 6030.075970897195, 57214.587296794336, 47119.15369262144, -151289.32461611327, 41243.170647999126, 37849.95232223896, 65225.92189620995, 55298.12637545185, 11809.834755639406, 67244.91026936892, -126349.09169067047, 72210.86439023785, 52211.61868710741, 0.036000000000000004, 1.018, -0.01, 192.0, 0.0, 0.0, 0.0, 0.0, 0.0, 0.0, 0.0, 0.0, 0.0, 1.696029898232993E9, 0.0, 2023-09-29 18:24:58.232
62.0, 29727.97658776958, 51875.78372666642, 41949.5528280202, 6050.147837418061, 57192.30260757239, 47102.27812555768, -151784.4157557983, 41203.07161844631, 37810.412086297525, 65156.206805253845, 55139.92072819719, 11800.178802034712, 67136.30314306059, -126331.1655916173, 72129.66050263173, 52128.87252913386, 0.036000000000000004, 1.018, -0.01, 192.0, 0.0, 0.0, 0.0, 0.0, 0.0, 0.0, 0.0, 0.0, 0.0, 1.69602989823302E9, 0.0, 2023-09-29 18:24:58.233
64.0, 29715.571369596884, 51861.92564510413, 42057.28823629478, 6030.388895319569, 57226.590183566834, 47127.87087295901, -151273.6560432501, 41232.21829321603, 37858.088357220695, 65231.80040500169, 55290.63854105932, 11815.266229542045, 67242.58568794557, -126418.96324383774, 72181.7847707015, 52185.444794350246, 0.036000000000000004, 1.018, -0.01, 192.0, 0.0, 0.0, 0.0, 0.0, 0.0, 0.0, 0.0, 0.0, 0.0, 1.696029898233023E9, 0.0, 2023-09-29 18:24:58.233
66.0, 29738.213686730112, 51880.72346219105, 41938.71223195938, 6058.216817166426, 57192.01203489448, 47103.261602313716, -151791.50125879067, 41189.749978750944, 37822.370269581115, 65170.735439149794, 55160.082001695875, 11806.750214904574, 67149.24480310021, -126238.94229399471, 72152.9286686097, 52148.20678808771, 0.036000000000000004, 1.018, -0.01, 192.0, 0.0, 0.0, 0.0, 0.0, 0.0, 0.0, 0.0, 0.0, 0.0, 1.696029898233026E9, 0.0, 2023-09-29 18:24:58.233
68.0, 29716.756012053018, 51864.83137188332, 42070.408710290045, 6034.635726766077, 57231.149939435716, 47140.25373938725, -151298.5558865733, 41244.06471777734, 37857.73072930941, 65226.033654932224, 55280.4461455877, 11820.250668555578, 67221.46328943531, -126529.04558528014, 72146.93840109569, 52155.3593463134, 0.032, 1.022, -0.008, 192.0, 0.5, 0.0, 15.5, 120.0, 127.5, 96.0, 0.0, 0.0, 0.0, 1.69602989823303E9, 0.0, 2023-09-29 18:24:58.233
70.0, 29736.537305895963, 51880.902276146684, 41918.37214450505, 6056.160456676538, 57179.56211323287, 47096.80194816613, -151737.63355465335, 41186.06194091582, 37815.41887705551, 65187.70041319137, 55181.85260079535, 11799.57530493442, 67161.2029863838, -126136.50424915603, 72196.87219820883, 52199.74991080164, 0.032, 1.022, -0.008, 192.0, 0.0, 0.0, 0.0, 0.0, 0.0, 0.0, 0.0, 0.0, 0.0, 1.696029898233033E9, 0.0, 2023-09-29 18:24:58.233
72.0, 29719.125296965278, 51869.12290681874, 42073.403844047054, 6038.323764601203, 57238.8612912728, 47150.40143136996, -151334.74336084645, 41257.90044759517, 37851.76281353984, 65231.062797434664, 55258.161456365764, 11821.05533135597, 67189.54499835313, -126602.29225186018, 72111.019147756, 52132.739380924635, 0.032, 1.022, -0.008, 192.0, 0.0, 0.0, 0.0, 0.0, 0.0, 0.0, 0.0, 0.0, 0.0, 1.696029898233036E9, 0.0, 2023-09-29 18:24:58.233
74.0, 29729.69767209264, 51875.2919882884, 41916.27108052625, 6048.471456583912, 57168.47564798304, 47103.90980290292, -151680.88247548134, 41188.61003978372, 37817.13996137857, 65201.647901731485, 55203.779662106004, 11801.05052006847, 67166.76857075316, -126069.78429195695, 72215.2453321511, 52219.39709417785, 0.032, 1.022, -0.008, 192.0, 0.0, 0.0, 0.0, 0.0, 0.0, 0.0, 0.0, 0.0, 0.0, 1.696029898233039E9, 0.0, 2023-09-29 18:24:58.233
76.0, 29710.58693058335, 51860.65159567018, 42065.42427127651, 6032.534662787279, 57230.74760803552, 47140.857236487536, -151359.19616928056, 41252.55838067036, 37835.28957787628, 65200.172686597434, 55224.946764105174, 11807.890153871795, 67167.84145448703, -126643.35240642459, 72084.84525499884, 52105.15732826678, 0.032, 1.022, -0.008, 192.0, 0.0, 0.0, 0.0, 0.0, 0.0, 0.0, 0.0, 0.0, 0.0, 1.69602989829319E9, 0.0, 2023-09-29 18:24:58.293
78.0, 29738.32544545239, 51883.718595948056, 41916.33813575961, 6061.122543945617, 57169.92851137263, 47098.23245981127, -151638.9282511387, 41191.18049039609, 37817.542292778766, 65207.88403843452, 55213.07798779941, 11797.898924100271, 67193.18833269934, -126000.47153240103, 72237.66413183977, 52234.328059474, 0.032, 1.026, -0.012, 192.0, 0.5, 0.0, 16.0, 8.0, 127.5, 80.0, 0.0, 0.0, 0.0, 1.696029898293199E9, 0.0, 2023-09-29 18:24:58.293
80.0, 29722.656872589218, 51871.44748824209, 42070.833393434696, 6044.381087348591, 57237.96722149459, 47148.45682960234, -151481.68372889564, 41269.74687215649, 37848.32064489373, 65204.374814555034, 55208.02649355251, 11826.375046536334, 67154.38570432493, -126735.64275928054, 72043.94156264563, 52065.192409180694, 0.032, 1.026, -0.012, 192.0, 0.0, 0.0, 0.0, 0.0, 0.0, 0.0, 0.0, 0.0, 0.0, 1.696029898293203E9, 0.0, 2023-09-29 18:24:58.293
82.0, 29739.93477105317, 51882.735119192024, 41927.357545776074, 6059.759087533843, 57187.720499959054, 47098.09834934454, -151635.01669585906, 41200.76938876741, 37825.70067950495, 65213.04729140369, 55235.49678748808, 11800.871706112828, 67201.2126089588, -125983.30539265936, 72243.65439935379, 52263.608844710456, 0.032, 1.026, -0.012, 192.0, 0.0, 0.0, 0.0, 0.0, 0.0, 0.0, 0.0, 0.0, 0.0, 1.696029898293206E9, 0.0, 2023-09-29 18:24:58.293
84.0, 29718.857076031814, 51867.93826436261, 42067.57003874422, 6045.901005971552, 57243.08577097485, 47138.91263471993, -151548.56014830593, 41254.52533418242, 37840.92221747902, 65192.75190743827, 55190.279208454995, 11825.704494202673, 67147.32255307706, -126772.14315797605, 72036.6548939532, 52054.17299916423, 0.032, 1.026, -0.012, 192.0, 0.0, 0.0, 0.0, 0.0, 0.0, 0.0, 0.0, 0.0, 0.0, 1.69602989829321E9, 0.0, 2023-09-29 18:24:58.293
86.0, 29737.051396018436, 51883.87505815924, 41933.951310390396, 6054.528779331301, 57176.83520040932, 47096.48902374376, -151572.2306456841, 41193.08038867478, 37831.53448480779, 65223.798480486694, 55257.73677322111, 11806.169069548736, 67216.83647833306, -125986.25582292746, 72256.39489369332, 52273.15303959287, 0.032, 1.026, -0.012, 192.0, 0.0, 0.0, 0.0, 0.0, 0.0, 0.0, 0.0, 0.0, 0.0, 1.696029898293217E9, 0.0, 2023-09-29 18:24:58.293
88.0, 29726.83664880236, 51873.369738265246, 42052.05792809223, 6045.498674571357, 57232.71456154759, 47136.76686725222, -151594.04594827248, 41247.95392131256, 37835.44604008747, 65186.336956779596, 55177.58341760438, 11825.793901180496, 67129.21764006825, -126758.79916653624, 72024.6520071807, 52042.79596123648, 0.032, 1.02, -0.012, 192.0, 0.5, 0.0, 15.5, 112.0, 127.5, 80.0, 0.0, 0.0, 0.0, 1.696029898293222E9, 0.0, 2023-09-29 18:24:58.293
90.0, 29742.03583503197, 51883.53978199241, 41937.080554614135, 6046.951537960951, 57175.918778886655, 47100.2664685567, -151516.84302292383, 41189.280592117386, 37836.22835114341, 65237.857727749084, 55278.97093045365, 11807.95720910516, 67225.88893483745, -125999.15277947817, 72259.4123791948, 52272.0354523701, 0.032, 1.02, -0.012, 192.0, 0.0, 0.0, 0.0, 0.0, 0.0, 0.0, 0.0, 0.0, 0.0, 1.696029898353465E9, 0.0, 2023-09-29 18:24:58.353
92.0, 29731.26229420451, 51872.60977895377, 42034.71297439492, 6044.29168037077, 57227.97599172306, 47138.28678587518, -151661.5035130386, 41236.28631070689, 37833.00969994184, 65180.458447987854, 55164.01590872001, 11820.09420634439, 67113.72788116072, -126741.78948900575, 72019.5558094449, 52032.73767623159, 0.032, 1.02, -0.012, 192.0, 0.0, 0.0, 0.0, 0.0, 0.0, 0.0, 0.0, 0.0, 0.0, 1.696029898353477E9, 0.0, 2023-09-29 18:24:58.353
94.0, 29737.096099507347, 51880.79051742441, 41951.4527262989, 6044.515197815323, 57179.495057999506, 47105.29561105915, -151456.6944785946, 41190.97932469599, 37843.64913030257, 65245.747893541804, 55297.00878822909, 11809.901810872772, 67231.63333316248, -126044.68328293363, 72274.49980670212, 52270.96256863625, 0.032, 1.02, -0.012, 192.0, 0.0, 0.0, 0.0, 0.0, 0.0, 0.0, 0.0, 0.0, 0.0, 1.69602989835348E9, 0.0, 2023-09-29 18:24:58.353
96.0, 29734.83857331736, 51880.47759300203, 42015.15519799652, 6050.013726951329, 57228.71359929009, 47140.38784985398, -151719.32747594448, 41226.473894891016, 37832.495609819365, 65175.71987816333, 55154.96345221561, 11827.827909925927, 67108.02818632462, -126683.38438074403, 72032.18454506213, 52034.97285067712, 0.032, 1.02, -0.012, 192.0, 0.0, 0.0, 0.0, 0.0, 0.0, 0.0, 0.0, 0.0, 0.0, 1.696029898353483E9, 0.0, 2023-09-29 18:24:58.353
98.0, 29730.591741870852, 51876.655444700176, 41965.042586927724, 6031.417075564513, 57189.195715093105, 47121.03123915568, -151406.64892275917, 41195.53908056487, 37841.503362834854, 65253.660411078985, 55303.58020109895, 11817.836680154405, 67233.622638419, -126115.35949890132, 72259.72530361716, 52260.032565597605, 0.03, 1.02, -0.012, 192.0, 0.0, 120.0, 15.5, 112.0, 127.5, 80.0, 0.0, 0.0, 0.0, 1.696029898353487E9, 0.0, 2023-09-29 18:24:58.353
100.0, 29741.722910609595, 51885.93141864913, 41989.60715408411, 6041.609471036133, 57218.58825905184, 47140.18668415388, -151753.54799670554, 41213.08519996228, 37821.29738584726, 65172.635337428495, 55142.69234450965, 11817.09907258738, 67096.56174141905, -126595.69848724587, 72050.62473423776, 52060.45383935617, 0.03, 1.02, -0.012, 192.0, 0.0, 0.0, 0.0, 0.0, 0.0, 0.0, 0.0, 0.0, 0.0, 1.69602989835349E9, 0.0, 2023-09-29 18:24:58.353
102.0, 29724.579122612373, 51871.87217138674, 41988.958953494905, 6017.290773068759, 57197.48821228602, 47119.84659669955, -151357.45273321305, 41200.90349923414, 37853.86387751864, 65253.34748665661, 55310.106910479895, 11817.81432840995, 67233.10854829653, -126207.53809303501, 72237.95470451769, 52249.50489395916, 0.03, 1.02, -0.012, 192.0, 0.0, 0.0, 0.0, 0.0, 0.0, 0.0, 0.0, 0.0, 0.0, 1.696029898353493E9, 0.0, 2023-09-29 18:24:58.353
104.0, 29736.984340785068, 51879.114136590266, 41964.59555203862, 6032.892290698564, 57209.35698859179, 47114.303364074636, -151767.33902303447, 41191.91809796311, 37813.54133052127, 65165.773351880714, 55139.20547237462, 11804.962075348149, 67101.54618043259, -126496.41203837539, 72075.50222581653, 52090.65104611529, 0.03, 1.02, -0.012, 192.0, 0.0, 0.0, 0.0, 0.0, 0.0, 0.0, 0.0, 0.0, 0.0, 1.696029898353496E9, 0.0, 2023-09-29 18:24:58.353
106.0, 29728.51302963651, 51875.22493305504, 41997.16204371, 6014.340342800659, 57200.46099429858, 47122.99819266775, -151327.34493343174, 41206.02204871441, 37845.079641947705, 65248.43010287644, 55301.7026545647, 11817.72492143213, 67222.9161528249, -126282.86347184938, 72221.1014891984, 52227.935460559784, 0.03, 1.02, -0.012, 192.0, 0.0, 0.0, 0.0, 0.0, 0.0, 0.0, 0.0, 0.0, 0.0, 1.696029898413009E9, 0.0, 2023-09-29 18:24:58.413
108.0, 29742.616980387807, 51885.37262503775, 41942.64613898351, 6034.76983723281, 57196.70590123009, 47108.89424191645, -151775.318595805, 41190.39817934015, 37809.04862988575, 65172.8812066175, 55148.32498411238, 11814.819194652939, 67093.94658731778, -126389.34718243447, 72096.87049351579, 52110.09706379141, 0.028, 1.02, -0.014, 192.0, 0.0, 112.0, 15.5, 112.0, 127.5, 72.0, 0.0, 0.0, 0.0, 1.696029898413019E9, 0.0, 2023-09-29 18:24:58.413
110.0, 29731.530515137973, 51875.26963654395, 42006.90740429251, 6011.90400265503, 57201.08684314333, 47129.18962588187, -151326.6296776092, 41219.187226198585, 37851.85222051766, 65242.52924234024, 55300.96504699768, 11821.994104623092, 67227.3194464826, -126379.69122882978, 72183.08117187991, 52196.86653576691, 0.028, 1.02, -0.014, 192.0, 0.0, 0.0, 0.0, 0.0, 0.0, 0.0, 0.0, 0.0, 0.0, 1.696029898413022E9, 0.0, 2023-09-29 18:24:58.413
112.0, 29753.390521215264, 51894.045101886404, 41927.06697309816, 6040.000145435351, 57190.13448836023, 47109.76595995021, -151791.9259419353, 41187.76067349442, 37817.609348012134, 65175.921043863425, 55168.84388552236, 11812.449909740677, 67113.50436371617, -126298.35323075691, 72110.72857507809, 52130.19128205672, 0.028, 1.02, -0.014, 192.0, 0.0, 0.0, 0.0, 0.0, 0.0, 0.0, 0.0, 0.0, 0.0, 1.696029898413026E9, 0.0, 2023-09-29 18:24:58.413
114.0, 29739.93477105317, 51883.785651181424, 42030.28732899277, 6015.94966840144, 57220.84578524182, 47143.49474233326, -151351.32835523228, 41240.66725262014, 37859.25064793237, 65242.596297573604, 55299.42277663026, 11830.063084371459, 67217.77525160018, -126490.354715628, 72148.19009878518, 52166.3117010965, 0.028, 1.02, -0.014, 192.0, 0.0, 0.0, 0.0, 0.0, 0.0, 0.0, 0.0, 0.0, 0.0, 1.696029898413029E9, 0.0, 2023-09-29 18:24:58.413
116.0, 29756.810338116928, 51898.29193333292, 41919.57913870563, 6040.581290791189, 57188.86043892628, 47107.28491631567, -151789.7801744676, 41190.55464155134, 37823.1749323815, 65190.56143648165, 55189.74276658807, 11817.881383643316, 67145.847337943, -126210.77909598102, 72150.35821799735, 52172.52548605508, 0.028, 1.02, -0.014, 192.0, 0.0, 0.0, 0.0, 0.0, 0.0, 0.0, 0.0, 0.0, 0.0, 1.696029898413033E9, 0.0, 2023-09-29 18:24:58.413
118.0, 29724.668529590195, 51873.19092430961, 42035.584692428674, 6002.538621728257, 57224.444416099126, 47141.46073358783, -151362.7277449045, 41236.84510431828, 37848.8347350162, 65224.714902009364, 55282.72602352215, 11826.017418625048, 67202.53136188166, -126575.20193758035, 72138.86942134732, 52147.31271830949, 0.03, 1.022, -0.01, 192.0, 0.0, 120.0, 15.5, 120.0, 127.5, 88.0, 0.0, 0.0, 0.0, 1.696029898413036E9, 0.0, 2023-09-29 18:24:58.413
120.0, 29753.88225959328, 51897.37551181025, 41899.21669950685, 6028.6678109965105, 57186.08882261382, 47103.306305802624, -151743.75793263412, 41182.8209379698, 37812.73666772088, 65196.35053829558, 55201.38802544928, 11806.213773037645, 67151.81525371257, -126110.26330116551, 72194.30174759647, 52202.74504455865, 0.03, 1.022, -0.01, 192.0, 0.0, 0.0, 0.0, 0.0, 0.0, 0.0, 0.0, 0.0, 0.0, 1.696029898472775E9, 0.0, 2023-09-29 18:24:58.472
122.0, 29724.824991801383, 51870.642825441704, 42035.29411975075, 6001.823365905687, 57237.38607613875, 47140.76782950972, -151368.00275659596, 41244.26588347744, 37852.142793195584, 65220.53512579622, 55268.286796604014, 11822.441139512199, 67184.1582279394, -126622.16295268096, 72119.26694146001, 52125.78798839903, 0.03, 1.022, -0.01, 192.0, 0.0, 0.0, 0.0, 0.0, 0.0, 0.0, 0.0, 0.0, 0.0, 1.696029898472786E9, 0.0, 2023-09-29 18:24:58.472
124.0, 29745.008617044525, 51884.92559014864, 41890.09718776908, 6019.972982403396, 57187.74285170351, 47085.24609628273, -151691.85718200888, 41174.52844077688, 37814.815379955224, 65189.130924836514, 55217.8836128573, 11794.322644987422, 67160.97946893924, -126010.03807902792, 72228.298750913, 52240.92182408832, 0.03, 1.022, -0.01, 192.0, 0.0, 0.0, 0.0, 0.0, 0.0, 0.0, 0.0, 0.0, 0.0, 1.69602989847279E9, 0.0, 2023-09-29 18:24:58.472
126.0, 29729.541209881452, 51877.281293544926, 42041.664366920515, 6011.367560788102, 57244.1139512198, 47146.10989643454, -151450.12306572474, 41252.40191845917, 37845.996063470375, 65200.41855578644, 55239.140121834294, 11823.62578196833, 67163.63932652943, -126692.95092737091, 72081.35838286381, 52084.1913919677, 0.03, 1.022, -0.01, 192.0, 0.0, 0.0, 0.0, 0.0, 0.0, 0.0, 0.0, 0.0, 0.0, 1.696029898472793E9, 0.0, 2023-09-29 18:24:58.472
128.0, 29744.36041645532, 51890.37941579574, 41901.89890884148, 6020.576479503689, 57183.58542723482, 47092.57746846408, -151654.01567864607, 41180.54106003536, 37817.78816196778, 65206.744099467294, 55236.010877610555, 11805.073834070425, 67197.6586815904, -125985.07118047134, 72248.86235581189, 52251.29303351558, 0.032, 1.026, -0.012, 192.0, 0.5, 0.0, 16.0, 8.0, 127.5, 80.0, 0.0, 0.0, 0.0, 1.696029898472797E9, 0.0, 2023-09-29 18:24:58.472
130.0, 29735.732643095573, 51885.48438376003, 42043.072526821205, 6009.467662509402, 57242.16934945218, 47156.2799401617, -151520.6204677368, 41254.99472081599, 37845.19140066998, 65202.340805809596, 55211.535717431994, 11828.073779114937, 67154.74333223622, -126741.23069539436, 72057.48671978555, 52065.0359469695, 0.032, 1.026, -0.012, 192.0, 0.0, 0.0, 0.0, 0.0, 0.0, 0.0, 0.0, 0.0, 0.0, 1.696029898472802E9, 0.0, 2023-09-29 18:24:58.472
132.0, 29741.924076309693, 51889.17242159515, 41901.5412809302, 6011.211098576916, 57171.64959569569, 47100.311172045615, -151603.56779141043, 41184.586725781766, 37828.20407488395, 65226.81596598816, 55259.480209288624, 11802.056348568958, 67208.58868462905, -125966.78745350688, 72263.36863796337, 52273.53301924861, 0.032, 1.026, -0.012, 192.0, 0.0, 0.0, 0.0, 0.0, 0.0, 0.0, 0.0, 0.0, 0.0, 1.696029898472806E9, 0.0, 2023-09-29 18:24:58.472
134.0, 29730.88231454877, 51882.82452616985, 42023.17947425598, 6007.52306074179, 57230.658201057704, 47151.206094170346, -151556.74088677656, 41250.90435158066, 37832.20503714145, 65185.085259090105, 55196.358882946835, 11815.176822564224, 67137.26426807216, -126722.76815447428, 72057.12909187426, 52066.377051636824, 0.032, 1.026, -0.012, 192.0, 0.0, 0.0, 0.0, 0.0, 0.0, 0.0, 0.0, 0.0, 0.0, 1.696029898472811E9, 0.0, 2023-09-29 18:24:58.472
136.0, 29733.944503539147, 51884.210334326075, 41895.2380889938, 6006.964267130407, 57171.090802084305, 47106.390846537455, -151532.39983706473, 41184.653781015135, 37823.51020854834, 65223.3961490865, 55274.56763679596, 11800.558781690454, 67211.27089396368, -125931.53875250087, 72281.67471667228, 52301.629162028934, 0.032, 1.026, -0.012, 192.0, 0.0, 0.0, 0.0, 0.0, 0.0, 0.0, 0.0, 0.0, 0.0, 1.696029898532968E9, 0.0, 2023-09-29 18:24:58.532
138.0, 29725.763765068506, 51878.667101701154, 42006.05803800321, 6007.076025852683, 57226.16550042218, 47152.0778122041, -151632.87092839135, 41245.606988144755, 37828.74051675088, 65171.98713683929, 55166.31813839891, 11815.377988264321, 67117.93000911832, -126701.9586803864, 72034.19620206312, 52057.01167071005, 0.03, 1.024, -0.008, 192.0, 0.0, 120.0, 16.0, 0.0, 127.5, 96.0, 0.0, 0.0, 0.0, 1.696029898532979E9, 0.0, 2023-09-29 18:24:58.532
140.0, 29718.432392887164, 51870.73223241952, 41905.139911787504, 5990.736900655855, 57171.0460985954, 47100.22176506779, -151460.494275152, 41185.50314730444, 37824.24781611536, 65224.781957242725, 55278.859171731376, 11793.294464742477, 67218.82578358958, -125950.94006668808, 72277.49494045913, 52299.818670728055, 0.03, 1.024, -0.008, 192.0, 0.0, 0.0, 0.0, 0.0, 0.0, 0.0, 0.0, 0.0, 0.0, 1.696029898532984E9, 0.0, 2023-09-29 18:24:58.532
142.0, 29710.45282011662, 51859.91398810315, 41980.97938072436, 5992.882668123564, 57218.18592765164, 47130.68719276037, -151644.27031806356, 41221.46710413302, 37805.40529553954, 65150.23888948428, 55142.49117880955, 11798.234200267101, 67099.95920657626, -126610.11536241954, 72045.84146092433, 52062.53255159051, 0.03, 1.024, -0.008, 192.0, 0.0, 0.0, 0.0, 0.0, 0.0, 0.0, 0.0, 0.0, 0.0, 1.696029898532987E9, 0.0, 2023-09-29 18:24:58.532
144.0, 29704.194331669132, 51850.861531598755, 41923.82597015214, 5987.2276767763715, 57177.05871785388, 47103.172195335894, -151404.12317563573, 41191.69458051855, 37825.18658938248, 65215.59539027159, 55287.174020668754, 11791.774546119517, 67230.33693198406, -125981.3831426362, 72258.47360592766, 52274.44944077128, 0.03, 1.024, -0.008, 192.0, 0.0, 0.0, 0.0, 0.0, 0.0, 0.0, 0.0, 0.0, 0.0, 1.69602989853299E9, 0.0, 2023-09-29 18:24:58.532
146.0, 29694.44897108662, 51840.11034251575, 41961.30984560369, 5992.323874512181, 57213.603820038305, 47128.831997970585, -151720.0203800226, 41212.14642669516, 37803.61715598311, 65129.31765667411, 55133.81870196089, 11793.160354275746, 67102.90963684436, -126550.30209425713, 72030.08348108333, 52046.70751651615, 0.03, 1.024, -0.008, 192.0, 0.0, 0.0, 0.0, 0.0, 0.0, 0.0, 0.0, 0.0, 0.0, 1.696029898532994E9, 0.0, 2023-09-29 18:24:58.532
148.0, 29664.475281772055, 51811.500109612956, 41934.1971795794, 5972.4978771803235, 57168.430944494125, 47112.962259407315, -151384.3865852817, 41197.01429569892, 37818.63752825708, 65196.59640748458, 55287.19637241321, 11779.972825047116, 67228.05705404963, -126067.68322797815, 72226.13063170083, 52243.82755086751, 0.034, 1.022, -0.014, 192.0, 0.5, 8.0, 15.5, 120.0, 127.5, 72.0, 0.0, 0.0, 0.0, 1.696029898532998E9, 0.0, 2023-09-29 18:24:58.532
150.0, 29658.797938680404, 51806.91800199962, 41936.72292670285, 5993.039130334751, 57198.58344776434, 47123.13230313448, -151758.26421478562, 41207.40785687064, 37780.52780396078, 65108.798755264135, 55112.91982089518, 11774.541351144475, 67087.7328023592, -126469.67935200685, 72034.30796078539, 52055.335289875904, 0.034, 1.022, -0.014, 192.0, 0.0, 0.0, 0.0, 0.0, 0.0, 0.0, 0.0, 0.0, 0.0, 1.696029898593216E9, 0.0, 2023-09-29 18:24:58.593
152.0, 29622.163429518157, 51770.48465853747, 41940.500371515795, 5969.100412023117, 57182.60195047879, 47113.69986697434, -151347.93089007508, 41205.485606847484, 37802.05253387124, 65182.31364277764, 55272.82420072844, 11774.85427556685, 67207.04641426164, -126132.19036247616, 72215.67001529575, 52227.68959137078, 0.034, 1.022, -0.014, 192.0, 0.0, 0.0, 0.0, 0.0, 0.0, 0.0, 0.0, 0.0, 0.0, 1.696029898593233E9, 0.0, 2023-09-29 18:24:58.593
154.0, 29616.28492072641, 51760.49342876595, 41911.73367640182, 5987.719415154388, 57195.27538958495, 47104.11096860302, -151791.79183146858, 41194.39914159765, 37758.556039161216, 65082.96013867381, 55103.040349845935, 11761.152656215747, 67075.9310812868, -126357.94298147477, 72063.56639427738, 52074.155458707275, 0.034, 1.022, -0.014, 192.0, 0.0, 0.0, 0.0, 0.0, 0.0, 0.0, 0.0, 0.0, 0.0, 1.696029898593238E9, 0.0, 2023-09-29 18:24:58.593
156.0, 29575.649449306664, 51722.6072219142, 41951.78800246573, 5955.801124072209, 57193.73311921753, 47110.168291350405, -151352.8706255997, 41212.43699937308, 37787.680362186475, 65148.98719179478, 55248.1925783387, 11758.4257433922, 67187.01925122968, -126231.02977645754, 72186.12100912584, 52192.351483386934, 0.034, 1.022, -0.014, 192.0, 0.0, 0.0, 0.0, 0.0, 0.0, 0.0, 0.0, 0.0, 0.0, 1.696029898593243E9, 0.0, 2023-09-29 18:24:58.593
158.0, 29577.839920263283, 51723.38953297014, 41882.67640860992, 5972.296711480226, 57181.77493593394, 47092.10808183051, -151817.22811665872, 41184.20674612603, 37734.12558247156, 65050.9524406138, 55082.11911703576, 11734.50937682502, 67082.68130811231, -126264.82561407395, 72088.77916202297, 52090.06990075945, 0.038, 1.022, -0.006, 192.0, 0.5, 24.0, 15.5, 120.0, 127.5, 104.0, 0.0, 0.0, 0.0, 1.696029898593248E9, 0.0, 2023-09-29 18:24:58.593
160.0, 29550.70490249454, 51699.160241980586, 41959.521706047264, 5946.4357431454355, 57192.190848850114, 47111.4199890399, -151369.1203438187, 41223.322298922816, 37765.70859738691, 65118.36530189101, 55218.15183379076, 11738.242118149057, 67182.72771629426, -126325.9129316703, 72163.92572688172, 52156.633395747354, 0.038, 1.022, -0.006, 192.0, 0.0, 0.0, 0.0, 0.0, 0.0, 0.0, 0.0, 0.0, 0.0, 1.696029898593253E9, 0.0, 2023-09-29 18:24:58.593
162.0, 29561.2772776219, 51705.865765317176, 41862.67159732242, 5967.491086422335, 57179.45035451059, 47082.273314270176, -151834.95305001177, 41186.10664440473, 37728.202370190906, 65048.56080395709, 55089.8528206173, 11725.792196487451, 67086.54815990308, -126169.92010711672, 72113.67900534619, 52112.175776025746, 0.038, 1.022, -0.006, 192.0, 0.0, 0.0, 0.0, 0.0, 0.0, 0.0, 0.0, 0.0, 0.0, 1.696029898593259E9, 0.0, 2023-09-29 18:24:58.593
164.0, 29524.240437059456, 51675.668558558056, 41964.43908982743, 5933.896414506008, 57197.84584019731, 47113.14107336296, -151381.9725968805, 41225.22219720152, 37760.143013017536, 65099.03104293717, 55203.69025512818, 11734.867004736305, 67168.37789635395, -126420.6396246719, 72134.82375560091, 52127.46436923318, 0.038, 1.022, -0.006, 192.0, 0.0, 0.0, 0.0, 0.0, 0.0, 0.0, 0.0, 0.0, 0.0, 1.696029898593264E9, 0.0, 2023-09-29 18:24:58.593
166.0, 29536.399786043145, 51680.16125919358, 41830.127457395494, 5949.788504813731, 57155.712801899055, 47067.31999722958, -151805.5381543086, 41153.67426320008, 37707.012916447275, 65039.82127187506, 55081.96265482458, 11702.434623531655, 67096.20411350776, -126043.11866082177, 72156.70611342265, 52150.53136951105, 0.038, 1.022, -0.006, 192.0, 0.0, 0.0, 0.0, 0.0, 0.0, 0.0, 0.0, 0.0, 0.0, 1.696029898653496E9, 0.0, 2023-09-29 18:24:58.653
168.0, 29517.244341044945, 51665.00677645288, 41961.39925258151, 5932.2870889052265, 57189.754508704485, 47112.89520417395, -151414.94141995208, 41215.32037440781, 37737.8583237956, 65068.02917337766, 55168.91094075572, 11722.707655752618, 67148.19427111081, -126482.48690157973, 72102.83840928537, 52090.11460424836, 0.04, 1.018, -0.004, 192.0, 0.5, 32.0, 15.5, 104.0, 127.5, 112.0, 0.0, 0.0, 0.0, 1.69602989865351E9, 0.0, 2023-09-29 18:24:58.653
170.0, 29539.640788989163, 51679.89303826011, 41824.91950093741, 5952.738935081832, 57146.10155178327, 47068.705805385805, -151774.0221946266, 41155.06007135631, 37716.33359388514, 65041.698818409306, 55108.67298944867, 11708.626056745776, 67112.05150032658, -125949.42014806511, 72176.19683458768, 52169.217427875694, 0.04, 1.018, -0.004, 192.0, 0.0, 0.0, 0.0, 0.0, 0.0, 0.0, 0.0, 0.0, 0.0, 1.696029898653516E9, 0.0, 2023-09-29 18:24:58.653
172.0, 29509.98002409697, 51656.2448926264, 41959.16407813598, 5924.776902768243, 57191.11796511626, 47112.71639021831, -151455.5545396274, 41224.19401695657, 37742.93216978695, 65053.94757437082, 55152.39300160325, 11721.03127491847, 67131.22929706924, -126537.33808247306, 72074.49639731603, 52059.336252133406, 0.04, 1.018, -0.004, 192.0, 0.0, 0.0, 0.0, 0.0, 0.0, 0.0, 0.0, 0.0, 0.0, 1.696029898653521E9, 0.0, 2023-09-29 18:24:58.653
174.0, 29533.35994879722, 51673.41103236807, 41817.543425267155, 5942.524187865757, 57147.97909831752, 47065.777726862165, -151735.39838020783, 41156.5129347459, 37713.22670140585, 65043.352847499, 55121.79346344394, 11700.758242697508, 67123.07091034304, -125875.48057740695, 72203.33185235642, 52200.6216288354, 0.04, 1.018, -0.004, 192.0, 0.0, 0.0, 0.0, 0.0, 0.0, 0.0, 0.0, 0.0, 0.0, 1.696029898653526E9, 0.0, 2023-09-29 18:24:58.653
176.0, 29516.149105566634, 51660.17879965053, 41961.04162467022, 5920.083036432628, 57201.51152628798, 47110.63767798396, -151512.9091158997, 41219.947185510064, 37751.336425702146, 65044.44808297731, 55130.19771935913, 11724.182870886669, 67117.97471260723, -126577.99590563726, 72042.1981265781, 52039.37614433481, 0.04, 1.018, -0.004, 192.0, 0.0, 0.0, 0.0, 0.0, 0.0, 0.0, 0.0, 0.0, 0.0, 1.696029898653531E9, 0.0, 2023-09-29 18:24:58.653
178.0, 29532.22000983, 51672.27109340085, 41815.308250821625, 5934.723429050855, 57137.22790923452, 47056.03236627965, -151671.49474281011, 41142.073707827774, 37722.14504744352, 65050.12542606896, 55147.27445212298, 11697.226667073568, 67151.54703277911, -125815.77906796684, 72224.61071307787, 52222.95102154625, 0.036000000000000004, 1.022, -0.006, 192.0, 0.5, 16.0, 15.5, 120.0, 127.5, 104.0, 0.0, 0.0, 0.0, 1.696029898653536E9, 0.0, 2023-09-29 18:24:58.653
180.0, 29524.531009737377, 51670.37119512215, 41952.7044239884, 5928.710809792377, 57201.019787909965, 47106.30143955963, -151568.05086947096, 41212.280537161896, 37744.11681224308, 65035.01564681717, 55110.21525981608, 11723.93700169766, 67101.50147694367, -126573.59261197956, 72020.4051757342, 52023.68521972719, 0.036000000000000004, 1.022, -0.006, 192.0, 0.0, 0.0, 0.0, 0.0, 0.0, 0.0, 0.0, 0.0, 0.0, 1.696029898713981E9, 0.0, 2023-09-29 18:24:58.713
182.0, 29532.667044719106, 51673.5451428348, 41818.459846789825, 5930.811873771176, 57144.33576397131, 47060.07803202606, -151629.51816672305, 41152.556675977314, 37731.488076625836, 65069.0573536226, 55172.375461146294, 11706.860268933806, 67156.71028574828, -125792.75677117787, 72235.00427424959, 52242.687611900285, 0.036000000000000004, 1.022, -0.006, 192.0, 0.0, 0.0, 0.0, 0.0, 0.0, 0.0, 0.0, 0.0, 0.0, 1.696029898713993E9, 0.0, 2023-09-29 18:24:58.713
184.0, 29519.255998045923, 51659.50824731687, 41941.99793839431, 5917.467882331358, 57200.237476854025, 47104.6697622144, -151617.11294855035, 41209.620679571715, 37736.49486738382, 65021.09051002152, 55094.56903869737, 11716.002132416026, 67083.15069474587, -126555.89003037097, 72020.53928620092, 52028.982583163095, 0.036000000000000004, 1.022, -0.006, 192.0, 0.0, 0.0, 0.0, 0.0, 0.0, 0.0, 0.0, 0.0, 0.0, 1.696029898713997E9, 0.0, 2023-09-29 18:24:58.713
186.0, 29535.3716057982, 51675.46739285796, 41836.18478014288, 5928.107312692084, 57150.750714629976, 47067.11883152948, -151568.3190904044, 41157.69757720203, 37736.04783249472, 65077.03692639315, 55188.37931017629, 11702.926361909673, 67167.26030913119, -125790.38748626561, 72249.26468721208, 52257.86444638544, 0.036000000000000004, 1.022, -0.006, 192.0, 0.0, 0.0, 0.0, 0.0, 0.0, 0.0, 0.0, 0.0, 0.0, 1.696029898714E9, 0.0, 2023-09-29 18:24:58.714
188.0, 29524.665120204107, 51665.096183430695, 41933.43722026792, 5925.179234168439, 57202.18207862164, 47107.10610236003, -151665.83975146292, 41208.570147582315, 37733.52208537127, 65026.20905950178, 55085.829506615344, 11718.572583028386, 67071.6842498403, -126497.03788722014, 72029.41292874968, 52036.112789644336, 0.032, 1.02, -0.01, 192.0, 0.5, 0.0, 15.5, 112.0, 127.5, 88.0, 0.0, 0.0, 0.0, 1.696029898714003E9, 0.0, 2023-09-29 18:24:58.714
190.0, 29531.50475400743, 51669.11949743265, 41845.95249246985, 5914.271582874248, 57143.08406628181, 47064.77189836167, -151464.4505339206, 41151.21557130999, 37736.98660576184, 65083.51893228519, 55203.01970279452, 11699.50654500801, 67173.4070388564, -125770.76265463384, 72268.12955953236, 52271.364900036446, 0.032, 1.02, -0.01, 192.0, 0.0, 0.0, 0.0, 0.0, 0.0, 0.0, 0.0, 0.0, 0.0, 1.696029898714007E9, 0.0, 2023-09-29 18:24:58.714
192.0, 29545.876925692195, 51685.458622629485, 41922.06018234017, 5931.571833082657, 57199.186944864625, 47102.85927091352, -151710.6997025847, 41186.50897580492, 37733.231512693346, 65019.7941088431, 55064.03655577142, 11722.595897030342, 67065.71633407073, -126406.3345082205, 72033.86092589628, 52034.39170532128, 0.032, 1.02, -0.01, 192.0, 0.0, 0.0, 0.0, 0.0, 0.0, 0.0, 0.0, 0.0, 0.0, 1.69602989871401E9, 0.0, 2023-09-29 18:24:58.714
194.0, 29547.285085592877, 51688.85608778669, 41865.778489801705, 5920.328905621637, 57154.57286293183, 47077.244171767736, -151429.64886780368, 41155.32829228977, 37748.609512878604, 65101.377976104974, 55219.850566369365, 11714.45986204861, 67183.48767560573, -125810.95109116449, 72259.39002745032, 52254.46698122824, 0.032, 1.02, -0.01, 192.0, 0.0, 0.0, 0.0, 0.0, 0.0, 0.0, 0.0, 0.0, 0.0, 1.696029898714013E9, 0.0, 2023-09-29 18:24:58.714
196.0, 29559.26562062092, 51702.82592807125, 41905.92222284344, 5941.8536355320975, 57198.22581985305, 47104.446244769846, -151760.27587178658, 41184.31850484831, 37734.57261736067, 65033.87570784995, 55072.28434947543, 11729.904917467227, 67058.2284996782, -126326.94111191525, 72043.6062864788, 52036.87274895582, 0.032, 1.02, -0.01, 192.0, 0.0, 0.0, 0.0, 0.0, 0.0, 0.0, 0.0, 0.0, 0.0, 1.696029898772702E9, 0.0, 2023-09-29 18:24:58.772
198.0, 29546.681588492585, 51691.113613976675, 41882.542298143184, 5912.729312506833, 57159.154970545176, 47080.21695378029, -151382.8890184032, 41162.74907144893, 37756.32086471568, 65115.34781638954, 55236.8378921554, 11723.333504597367, 67183.26415816118, -125872.46309190549, 72249.30939070099, 52232.71873387322, 0.034, 1.018, -0.01, 192.0, 0.5, 8.0, 15.5, 104.0, 127.5, 88.0, 0.0, 0.0, 0.0, 1.696029898772711E9, 0.0, 2023-09-29 18:24:58.772
200.0, 29574.308344639343, 51717.689838134036, 41877.15552772946, 5943.999402999807, 57192.43671803913, 47098.075997600085, -151794.7869652256, 41185.212574626516, 37736.11488772809, 65038.055484063094, 55069.266863973964, 11724.115815653304, 67049.44426410727, -126211.98609018161, 72059.94541167562, 52052.72013577463, 0.034, 1.018, -0.01, 192.0, 0.0, 0.0, 0.0, 0.0, 0.0, 0.0, 0.0, 0.0, 0.0, 1.696029898772714E9, 0.0, 2023-09-29 18:24:58.772
202.0, 29563.825376489807, 51710.00083804141, 41908.17974903342, 5918.02667594274, 57172.87894164073, 47096.33256153257, -151358.95030009156, 41189.749978750944, 37774.336370746656, 65133.497432887256, 55249.019592883546, 11736.94571697065, 67188.02507973017, -125956.19272663507, 72215.87118099585, 52217.76541683262, 0.034, 1.018, -0.01, 192.0, 0.0, 0.0, 0.0, 0.0, 0.0, 0.0, 0.0, 0.0, 0.0, 1.696029898772717E9, 0.0, 2023-09-29 18:24:58.772
204.0, 29595.65426059416, 51738.38755349965, 41870.606466604055, 5948.7826763132425, 57185.641787724715, 47099.4171022674, -151810.00850319964, 41182.73153099198, 37737.67950983995, 65061.055429107604, 55088.19879152761, 11731.693057023653, 67070.09727598396, -126088.8056264884, 72087.19218816665, 52099.50233691959, 0.034, 1.018, -0.01, 192.0, 0.0, 0.0, 0.0, 0.0, 0.0, 0.0, 0.0, 0.0, 0.0, 1.69602989877272E9, 0.0, 2023-09-29 18:24:58.772
206.0, 29586.735914556495, 51730.22916677346, 41935.49358075781, 5925.805083013187, 57189.620398237756, 47119.75718972173, -151350.00960230944, 41210.045362716366, 37781.93596386146, 65146.617906882515, 55256.08274413142, 11749.909728754727, 67192.62953908797, -126030.22170427105, 72192.4465528067, 52211.68574234078, 0.034, 1.018, -0.01, 192.0, 0.0, 0.0, 0.0, 0.0, 0.0, 0.0, 0.0, 0.0, 0.0, 1.696029898772723E9, 0.0, 2023-09-29 18:24:58.772
208.0, 29609.601749134275, 51751.97741412847, 41852.99329197327, 5940.087847720129, 57175.136467830715, 47091.281067285665, -151819.46329110424, 41172.18150760907, 37742.731004086854, 65072.96890890228, 55110.0587976049, 11733.66001053572, 67079.12738074391, -125976.91279374514, 72101.67611857368, 52138.28261354955, 0.038, 1.02, -0.01, 192.0, 0.5, 24.0, 15.5, 112.0, 127.5, 88.0, 0.0, 0.0, 0.0, 1.696029898772726E9, 0.0, 2023-09-29 18:24:58.772
210.0, 29592.033277992403, 51735.72769590947, 41951.408022809985, 5917.937268964919, 57193.62136049526, 47107.150805848934, -151356.55866343484, 41212.57110983981, 37789.55790872072, 65135.79966256615, 55251.12065686234, 11745.260565908024, 67181.4089633714, -126126.37890891779, 72141.7751481265, 52178.314587869005, 0.038, 1.02, -0.01, 192.0, 0.0, 0.0, 0.0, 0.0, 0.0, 0.0, 0.0, 0.0, 0.0, 1.69602989877273E9, 0.0, 2023-09-29 18:24:58.772
212.0, 29621.403470206675, 51761.85688517772, 41843.538504068674, 5939.931385508941, 57169.213255550065, 47075.88071535596, -151809.96379971073, 41157.67522545758, 37744.98853027684, 65070.66667922338, 55127.359047813305, 11729.524937811488, 67099.95920657626, -125863.52239412337, 72128.85583983133, 52166.423459818776, 0.038, 1.02, -0.01, 192.0, 0.0, 0.0, 0.0, 0.0, 0.0, 0.0, 0.0, 0.0, 0.0, 1.696029898833984E9, 0.0, 2023-09-29 18:24:58.833
214.0, 29597.62121410623, 51745.27189079188, 41956.92890369045, 5911.544670050701, 57188.83808718182, 47102.1663668354, -151373.50128573197, 41197.81895849931, 37779.87960337158, 65131.06109274163, 55233.39572350928, 11750.043839221458, 67167.52853006465, -126198.97737490862, 72113.54489487945, 52142.55179674051, 0.038, 1.02, -0.01, 192.0, 0.0, 0.0, 0.0, 0.0, 0.0, 0.0, 0.0, 0.0, 0.0, 1.696029898833997E9, 0.0, 2023-09-29 18:24:58.833
216.0, 29625.270321997443, 51769.92586492609, 41827.60171027204, 5931.549481338201, 57156.67392691063, 47062.335558216044, -151771.00470912515, 41138.38566999265, 37741.658120353, 65086.64817650893, 55137.842015962844, 11726.328638354378, 67117.97471260723, -125757.26220098285, 72151.85578487585, 52182.449660593236, 0.038, 1.02, -0.01, 192.0, 0.0, 0.0, 0.0, 0.0, 0.0, 0.0, 0.0, 0.0, 0.0, 1.696029898834002E9, 0.0, 2023-09-29 18:24:58.834
218.0, 29616.19551374859, 51764.98612940146, 41968.685921273944, 5915.299763119193, 57205.95952343458, 47112.00113439574, -151415.20964088556, 41208.74896153795, 37791.21193781042, 65130.79287180816, 55215.49197620058, 11758.001060247549, 67159.68306776084, -126267.59723038641, 72079.83846424085, 52098.6976741192, 0.036000000000000004, 1.02, -0.012, 192.0, 0.5, 16.0, 15.5, 112.0, 127.5, 80.0, 0.0, 0.0, 0.0, 1.696029898834009E9, 0.0, 2023-09-29 18:24:58.834
220.0, 29632.512287200963, 51780.319426097805, 41818.236329345265, 5919.300725376693, 57157.50094145548, 47055.898255812914, -151731.08449352795, 41134.20589377951, 37754.488021670346, 65111.14568843195, 55169.76030704502, 11739.739685027562, 67137.13015760544, -125683.99318265835, 72180.39896254528, 52199.03465497907, 0.036000000000000004, 1.02, -0.012, 192.0, 0.0, 0.0, 0.0, 0.0, 0.0, 0.0, 0.0, 0.0, 0.0, 1.696029898834014E9, 0.0, 2023-09-29 18:24:58.834
222.0, 29614.42972593662, 51762.706251467025, 41960.97456943686, 5896.211373354361, 57209.28993335843, 47104.89327965895, -151448.71490582408, 41203.22808065749, 37780.03606558276, 65117.60534257953, 55191.41914742222, 11755.4753131241, 67140.97465765175, -126305.97517561617, 72060.54890877592, 52068.791040038, 0.036000000000000004, 1.02, -0.012, 192.0, 0.0, 0.0, 0.0, 0.0, 0.0, 0.0, 0.0, 0.0, 0.0, 1.696029898834029E9, 0.0, 2023-09-29 18:24:58.834
224.0, 29647.1973833081, 51790.91415296962, 41817.36461131151, 5919.054856187685, 57161.90423511318, 47066.31416872909, -151673.796972489, 41144.465344484495, 37754.89035307054, 65116.55481059013, 55182.83607755138, 11736.073998936892, 67146.00380015418, -125609.02543175525, 72212.89839898329, 52225.43206518079, 0.036000000000000004, 1.02, -0.012, 192.0, 0.0, 0.0, 0.0, 0.0, 0.0, 0.0, 0.0, 0.0, 0.0, 1.696029898834035E9, 0.0, 2023-09-29 18:24:58.834
226.0, 29644.045787339903, 51792.478775081494, 41963.61207528259, 5917.736103264821, 57215.92840146165, 47121.90295718944, -151496.79350814744, 41213.241662173474, 37787.43449299747, 65124.91436301642, 55180.131516472284, 11768.506380141544, 67125.55195397759, -126327.1199258709, 72050.7588447045, 52053.21187415265, 0.036000000000000004, 1.02, -0.012, 192.0, 0.0, 0.0, 0.0, 0.0, 0.0, 0.0, 0.0, 0.0, 0.0, 1.696029898894327E9, 0.0, 2023-09-29 18:24:58.894
228.0, 29671.53843301993, 51820.01612425043, 41835.49187606476, 5939.618461086567, 57171.47078174005, 47085.26844802719, -151621.96327709715, 41158.45753651352, 37783.25471678433, 65158.35257272155, 55226.39962749477, 11762.314946927423, 67167.26030913119, -125573.4861580713, 72244.68257959874, 52247.13560904689, 0.034, 1.018, -0.014, 192.0, 0.5, 8.0, 15.5, 104.0, 127.5, 72.0, 0.0, 0.0, 0.0, 1.696029898894361E9, 0.0, 2023-09-29 18:24:58.894
230.0, 29667.425712040153, 51820.664324839636, 41969.7588050078, 5937.942080252419, 57236.69317206063, 47137.929157963896, -151563.15583743525, 41224.7304588235, 37798.69977220294, 65138.63833411197, 55178.119859471306, 11782.722089615118, 67124.92610513284, -126337.13350738687, 72048.41191153669, 52047.10984791635, 0.034, 1.018, -0.014, 192.0, 0.0, 0.0, 0.0, 0.0, 0.0, 0.0, 0.0, 0.0, 0.0, 1.696029898894365E9, 0.0, 2023-09-29 18:24:58.894
232.0, 29679.249784857013, 51831.08023775581, 41847.76298377073, 5942.971222754863, 57182.04315686741, 47095.88552664346, -151571.76125905052, 41165.18541159456, 37799.90676640353, 65182.58186371111, 55260.10605813337, 11771.970900532115, 67203.3583764265, -125566.2888963567, 72267.10137928741, 52267.49804824568, 0.034, 1.018, -0.014, 192.0, 0.0, 0.0, 0.0, 0.0, 0.0, 0.0, 0.0, 0.0, 0.0, 1.69602989889437E9, 0.0, 2023-09-29 18:24:58.894
234.0, 29679.853281957305, 51833.85185406826, 41957.845325213115, 5937.606804085589, 57234.27918365946, 47138.979689953296, -151643.5327104965, 41222.69645007807, 37811.79789445375, 65141.879337057995, 55170.25204542304, 11789.494668185076, 67120.32164577504, -126331.90319918434, 72039.8064899214, 52035.06225765494, 0.034, 1.018, -0.014, 192.0, 0.0, 0.0, 0.0, 0.0, 0.0, 0.0, 0.0, 0.0, 0.0, 1.696029898894375E9, 0.0, 2023-09-29 18:24:58.894
236.0, 29684.770665737473, 51839.037458781895, 41862.53748685569, 5937.4503418744025, 57184.88182841323, 47100.69115170135, -151510.6515897097, 41170.6168854972, 37812.89312993206, 65197.602235985076, 55288.716291036166, 11773.647281366264, 67222.87144933599, -125585.15376867697, 72276.80203638102, 52281.62435074143, 0.034, 1.018, -0.014, 192.0, 0.0, 0.0, 0.0, 0.0, 0.0, 0.0, 0.0, 0.0, 0.0, 1.69602989889438E9, 0.0, 2023-09-29 18:24:58.894
238.0, 29680.523834290965, 51835.79645583588, 41942.31086281668, 5936.064533718173, 57224.287953887935, 47135.693983518366, -151667.7620014861, 41212.615813328724, 37798.99034488086, 65130.25642994123, 55156.6174813053, 11784.532580915999, 67107.71526190225, -126260.98111402764, 72046.46730976908, 52062.331385890415, 0.03, 1.016, -0.016, 192.0, 0.0, 120.0, 15.5, 96.0, 127.5, 64.0, 0.0, 0.0, 0.0, 1.696029898894384E9, 0.0, 2023-09-29 18:24:58.894
240.0, 29693.53254956395, 51848.045211797384, 41873.06515849414, 5944.647603589011, 57186.62526448075, 47108.15663434943, -151468.92088281165, 41179.91521119061, 37811.44026654247, 65208.95692216837, 55292.67254980476, 11781.179819247702, 67220.65862663492, -125613.8534085576, 72262.45221644071, 52274.44944077128, 0.03, 1.016, -0.016, 192.0, 0.0, 0.0, 0.0, 0.0, 0.0, 0.0, 0.0, 0.0, 0.0, 1.696029898894388E9, 0.0, 2023-09-29 18:24:58.894
242.0, 29700.394535111733, 51855.86832235674, 41935.53828424672, 5957.678670606455, 57225.51729983298, 47134.73285850679, -151745.30020300153, 41211.81115052833, 37804.80179843924, 65142.147557991455, 55157.0198127055, 11795.641397910285, 67103.40137522237, -126229.2416369011, 72034.37501601875, 52048.3838973503, 0.03, 1.016, -0.016, 192.0, 0.0, 0.0, 0.0, 0.0, 0.0, 0.0, 0.0, 0.0, 0.0, 1.696029898954569E9, 0.0, 2023-09-29 18:24:58.954
244.0, 29694.180750153155, 51851.53208393241, 41901.653039652476, 5938.590280841623, 57181.84199116731, 47104.580355236576, -151410.35931233875, 41182.77623448089, 37828.53935105078, 65217.18236412792, 55322.08744550794, 11788.645301895775, 67239.41174023291, -125689.0670286497, 72258.49595767212, 52266.35810927846, 0.03, 1.016, -0.016, 192.0, 0.0, 0.0, 0.0, 0.0, 0.0, 0.0, 0.0, 0.0, 0.0, 1.696029898954579E9, 0.0, 2023-09-29 18:24:58.954
246.0, 29704.64136655824, 51858.8411043693, 41919.8473596391, 5955.711717094388, 57208.46291881358, 47114.348067563544, -151746.88717685785, 41191.53811830737, 37806.79110369577, 65136.09023524407, 55158.29386213945, 11790.791069363484, 67113.86199162746, -126106.59761507483, 72069.82488272488, 52076.01065349706, 0.03, 1.016, -0.016, 192.0, 0.0, 0.0, 0.0, 0.0, 0.0, 0.0, 0.0, 0.0, 0.0, 1.696029898954583E9, 0.0, 2023-09-29 18:24:58.954
248.0, 29703.724945035574, 51859.802229380875, 41926.26231029777, 5952.649528104011, 57191.855572683286, 47116.60559375353, -151361.09606755927, 41194.33208636428, 37839.44700234497, 65221.9432856969, 55321.46159666319, 11799.418842723233, 67242.80920539012, -125738.26321819583, 72251.87984131335, 52248.87904511441, 0.028, 1.022, -0.016, 192.0, 0.0, 112.0, 15.5, 120.0, 127.5, 64.0, 0.0, 0.0, 0.0, 1.696029898954587E9, 0.0, 2023-09-29 18:24:58.954
250.0, 29705.557788080907, 51861.23274102602, 41911.19723453489, 5969.592150401134, 57205.87011645677, 47107.66489597141, -151771.0270608696, 41192.94627820805, 37809.8756444306, 65145.142691748464, 55164.75351628703, 11799.95528459016, 67120.58986670851, -125997.47639864402, 72091.2155021686, 52090.53928739301, 0.028, 1.022, -0.016, 192.0, 0.0, 0.0, 0.0, 0.0, 0.0, 0.0, 0.0, 0.0, 0.0, 1.69602989895459E9, 0.0, 2023-09-29 18:24:58.954
252.0, 29697.466456588085, 51858.6399386692, 41959.61111302509, 5961.880798564052, 57199.16459312017, 47114.482178030274, -151313.1739274471, 41212.16877843962, 37838.932912222495, 65217.18236412792, 55321.774521085565, 11795.887267099293, 67240.4175687334, -125800.44577127049, 72229.3492829024, 52226.01321053663, 0.028, 1.022, -0.016, 192.0, 0.0, 0.0, 0.0, 0.0, 0.0, 0.0, 0.0, 0.0, 0.0, 1.696029898954594E9, 0.0, 2023-09-29 18:24:58.954
254.0, 29715.906645763716, 51873.705014432075, 41913.946499102894, 5993.642627435044, 57202.003264666, 47110.54827100614, -151762.15341832084, 41193.21449914152, 37812.937833420976, 65155.06686628662, 55175.30353966994, 11796.490764199587, 67128.43532901233, -125864.77409181287, 72118.50698214854, 52118.43426447323, 0.028, 1.022, -0.016, 192.0, 0.0, 0.0, 0.0, 0.0, 0.0, 0.0, 0.0, 0.0, 0.0, 1.696029898954597E9, 0.0, 2023-09-29 18:24:58.954
0.0, 29707.614148570796, 51866.12777306173, 41991.88703201855, 5991.675673922977, 57213.08972991583, 47139.2255591423, -151308.79298553383, 41231.59244437128, 37850.98050248391, 65225.7430822543, 55320.23225071815, 11809.343017261388, 67238.62942917699, -125874.1618244841, 72200.76140174406, 52200.91220151332, 0.028, 1.022, -0.016, 192.0, 0.0, 0.0, 0.0, 0.0, 0.0, 0.0, 0.0, 0.0, 0.0, 1.696029899013905E9, 0.0, 2023-09-29 18:24:59.013
2.0, 29727.50720113602, 51880.67875870213, 41911.73367640182, 6020.352962059136, 57203.523183288955, 47117.9690501653, -151778.09021211747, 41200.25529864494, 37817.85521720114, 65164.320488491125, 55184.93714153018, 11804.783261392506, 67136.66077097187, -125759.20680275046, 72139.4729184476, 52148.27384332107, 0.032, 1.018, -0.016, 192.0, 0.5, 0.0, 15.5, 104.0, 127.5, 64.0, 0.0, 0.0, 0.0, 1.696029899013916E9, 0.0, 2023-09-29 18:24:59.013
4.0, 29712.35271839532, 51868.98879635201, 42038.08808780767, 6004.527926984779, 57225.58435506635, 47152.97188198232, -151341.31477371632, 41248.132735268206, 37858.82596478772, 65226.123061910046, 55303.51314586558, 11822.709360445662, 67237.53419369867, -125991.4414276411, 72157.0860930784, 52168.70333775322, 0.032, 1.018, -0.016, 192.0, 0.0, 0.0, 0.0, 0.0, 0.0, 0.0, 0.0, 0.0, 0.0, 1.69602989901392E9, 0.0, 2023-09-29 18:24:59.013
6.0, 29729.474154648087, 51880.566999979856, 41920.47320848384, 6029.025438907795, 57193.86722968426, 47111.46469252881, -151790.00369191213, 41193.84034798627, 37819.509246290836, 65173.14942755097, 55189.49689739906, 11809.991217850593, 67158.87840496044, -125678.06997037769, 72158.56130821245, 52175.9676547012, 0.032, 1.018, -0.016, 192.0, 0.0, 0.0, 0.0, 0.0, 0.0, 0.0, 0.0, 0.0, 0.0, 1.696029899013923E9, 0.0, 2023-09-29 18:24:59.013
8.0, 29711.235131172554, 51867.558284706865, 42059.05402410675, 6014.295639311747, 57225.04791319942, 47152.05546045965, -151372.5178089759, 41253.07247079283, 37857.97659849842, 65215.3942245715, 55281.22845664364, 11827.91731690375, 67207.20287647282, -126087.37511484328, 72117.23293271459, 52134.952203625704, 0.032, 1.018, -0.016, 192.0, 0.0, 0.0, 0.0, 0.0, 0.0, 0.0, 0.0, 0.0, 0.0, 1.696029899013927E9, 0.0, 2023-09-29 18:24:59.013
10.0, 29740.65002687574, 51895.520317020455, 41932.56550223417, 6051.801866507753, 57183.87599991274, 47112.671686729394, -151755.98433685116, 41193.952106708544, 37830.57335979621, 65192.32722429362, 55212.6309529103, 11821.412959267254, 67168.5567103096, -125588.88651000102, 72181.51654976804, 52206.05310273804, 0.032, 1.018, -0.016, 192.0, 0.0, 0.0, 0.0, 0.0, 0.0, 0.0, 0.0, 0.0, 0.0, 1.69602989901393E9, 0.0, 2023-09-29 18:24:59.013
12.0, 29712.35271839532, 51868.40765099617, 42072.19684984647, 6023.884537683075, 57222.23159339805, 47154.983538983295, -151416.4389868306, 41253.29598823738, 37863.5868863567, 65214.70132049338, 55266.65511925878, 11837.170939108246, 67190.86375127599, -126156.75492963255, 72076.12807466128, 52105.15732826678, 0.03, 1.02, -0.01, 192.0, 0.0, 120.0, 15.5, 112.0, 127.5, 88.0, 0.0, 0.0, 0.0, 1.696029899013934E9, 0.0, 2023-09-29 18:24:59.013
14.0, 29736.112622751312, 51888.23364832803, 41931.425563266945, 6053.120619430616, 57170.196732306096, 47107.24021282676, -151697.95920824519, 41184.96670543751, 37824.78425798229, 65198.3398435521, 55223.71741816014, 11810.52765971752, 67177.31859413607, -125507.70497413934, 72205.29880586849, 52237.61376590893, 0.03, 1.02, -0.01, 192.0, 0.0, 0.0, 0.0, 0.0, 0.0, 0.0, 0.0, 0.0, 0.0, 1.696029899013937E9, 0.0, 2023-09-29 18:24:59.013
16.0, 29718.477096376075, 51875.09082258831, 42080.265829594835, 6045.789247249276, 57235.41912262668, 47165.42180364392, -151488.6574731657, 41263.46603196455, 37861.8881537781, 65206.5876372561, 55233.149854320276, 11838.959078664671, 67170.68012603285, -126206.8898924458, 72052.27876332746, 52080.704519832674, 0.03, 1.02, -0.01, 192.0, 0.0, 0.0, 0.0, 0.0, 0.0, 0.0, 0.0, 0.0, 0.0, 1.696029899073787E9, 0.0, 2023-09-29 18:24:59.073
18.0, 29721.516933621995, 51877.72832843403, 41941.39444129401, 6052.584177563689, 57173.43773525211, 47103.2168988248, -151648.96418439917, 41183.93852519256, 37832.786182497286, 65209.694529735396, 55240.771799179536, 11813.656903941262, 67199.62563510248, -125482.53690988266, 72234.06550098247, 52258.26677778563, 0.03, 1.02, -0.01, 192.0, 0.0, 0.0, 0.0, 0.0, 0.0, 0.0, 0.0, 0.0, 0.0, 1.696029899073798E9, 0.0, 2023-09-29 18:24:59.073
20.0, 29713.671471318183, 51872.47566848704, 42078.36593131613, 6047.95736646144, 57232.71456154759, 47150.04380345867, -151531.68458124215, 41256.44758420558, 37847.3818716266, 65183.23006430031, 55200.628066137804, 11825.995066880592, 67143.20983209727, -126219.38451759632, 72044.7015219571, 52064.23128416912, 0.03, 1.02, -0.01, 192.0, 0.0, 0.0, 0.0, 0.0, 0.0, 0.0, 0.0, 0.0, 0.0, 1.696029899073801E9, 0.0, 2023-09-29 18:24:59.073
22.0, 29724.020329000992, 51879.091784845805, 41947.74233671932, 6052.941805474974, 57173.258921296474, 47098.344218533544, -151592.8836575608, 41191.2698973739, 37841.14573492357, 65220.2445531183, 55263.83879945741, 11817.43434875421, 67227.38650171597, -125452.60792405701, 72253.7573878476, 52269.6885192023, 0.036000000000000004, 1.02, -0.012, 192.0, 0.5, 16.0, 15.5, 112.0, 127.5, 80.0, 0.0, 0.0, 0.0, 1.696029899073805E9, 0.0, 2023-09-29 18:24:59.073
24.0, 29721.382823155265, 51877.05777610037, 42074.07439638071, 6055.311090387237, 57230.21116616859, 47148.36742262452, -151611.59206766987, 41249.47383993553, 37846.979540226406, 65174.42347698492, 55186.859391553335, 11828.453758770676, 67141.1534716074, -126226.47002058865, 72030.59757120581, 52042.03600192499, 0.036000000000000004, 1.02, -0.012, 192.0, 0.0, 0.0, 0.0, 0.0, 0.0, 0.0, 0.0, 0.0, 0.0, 1.696029899073808E9, 0.0, 2023-09-29 18:24:59.073
26.0, 29723.461535389608, 51879.00237786798, 41970.18348815245, 6058.216817166426, 57177.14812483169, 47104.69211395885, -151573.03530848448, 41193.952106708544, 37846.24193265938, 65226.190117143415, 55279.10504092039, 11817.590810965397, 67232.90738259643, -125481.48637789326, 72254.98673379264, 52265.77696392262, 0.036000000000000004, 1.02, -0.012, 192.0, 0.0, 0.0, 0.0, 0.0, 0.0, 0.0, 0.0, 0.0, 0.0, 1.696029899073811E9, 0.0, 2023-09-29 18:24:59.073
28.0, 29705.580139825364, 51862.41738348215, 42058.91991364001, 6046.906834472041, 57218.8564799853, 47129.748419493255, -151660.63179500483, 41235.07931650631, 37831.467429574426, 65168.14263679298, 55167.72629829959, 11816.562630720453, 67128.07770110104, -126210.04148841399, 72026.90953337068, 52039.35379259036, 0.036000000000000004, 1.02, -0.012, 192.0, 0.0, 0.0, 0.0, 0.0, 0.0, 0.0, 0.0, 0.0, 0.0, 1.696029899073815E9, 0.0, 2023-09-29 18:24:59.073
30.0, 29714.520837607484, 51869.74875566349, 41974.206802154404, 6053.813523508731, 57165.97225260404, 47093.739759175754, -151489.39508073273, 41190.331124106786, 37835.26722613183, 65225.340750854106, 55275.68522401872, 11803.889191614295, 67222.11149002452, -125488.32601169658, 72254.96438204819, 52267.98978662369, 0.036000000000000004, 1.02, -0.012, 192.0, 0.0, 0.0, 0.0, 0.0, 0.0, 0.0, 0.0, 0.0, 0.0, 1.696029899133993E9, 0.0, 2023-09-29 18:24:59.133
32.0, 29710.34106139434, 51867.22300854004, 42051.812058903226, 6056.138104932083, 57209.44639556961, 47119.690134488366, -151692.39362387583, 41223.21054020054, 37821.56560678072, 65160.833616356096, 55146.15686490022, 11818.350770276878, 67115.51602071716, -126132.27976945398, 72030.23994329452, 52040.60549027986, 0.034, 1.022, -0.02, 192.0, 0.5, 8.0, 15.5, 120.0, 127.5, 48.0, 0.0, 0.0, 0.0, 1.696029899134003E9, 0.0, 2023-09-29 18:24:59.134
34.0, 29709.73756429405, 51869.97227310804, 41995.21744194239, 6054.707593286943, 57176.72344168704, 47099.886488900964, -151437.15905394068, 41195.09204567576, 37837.614159299636, 65233.14150966901, 55283.66479678927, 11807.688988171696, 67228.83936510555, -125518.50086671126, 72254.69616111471, 52257.037431840596, 0.034, 1.022, -0.02, 192.0, 0.0, 0.0, 0.0, 0.0, 0.0, 0.0, 0.0, 0.0, 0.0, 1.696029899134007E9, 0.0, 2023-09-29 18:24:59.134
36.0, 29706.049526458923, 51863.35615674927, 42025.034669045766, 6056.29456714327, 57204.41725306717, 47109.3189250611, -151750.99989783764, 41220.05894423234, 37818.168141623515, 65156.631488398496, 55126.64379199073, 11812.159337062758, 67114.08550907201, -126069.65018149021, 72030.93284737263, 52039.599661779364, 0.034, 1.022, -0.02, 192.0, 0.0, 0.0, 0.0, 0.0, 0.0, 0.0, 0.0, 0.0, 0.0, 1.69602989913401E9, 0.0, 2023-09-29 18:24:59.134
38.0, 29705.803657269917, 51866.53010446193, 42015.0657910187, 6050.058430440239, 57179.85268591079, 47103.239250569255, -151389.6392452287, 41214.15808369614, 37843.894999491575, 65232.22508814634, 55281.07199443245, 11806.772566649028, 67243.18918504586, -125599.43653338392, 72234.06550098247, 52240.810065366044, 0.034, 1.022, -0.02, 192.0, 0.0, 0.0, 0.0, 0.0, 0.0, 0.0, 0.0, 0.0, 0.0, 1.696029899134013E9, 0.0, 2023-09-29 18:24:59.134
40.0, 29713.26913991799, 51873.861476643266, 42018.77618059828, 6068.4092126380465, 57202.60676176629, 47113.20812859632, -151786.74033722168, 41219.36604015423, 37822.03499341429, 65159.13488377749, 55127.29199257994, 11815.310933030956, 67118.0417678406, -125978.0303809679, 72053.35164706131, 52061.86199925685, 0.034, 1.022, -0.02, 192.0, 0.0, 0.0, 0.0, 0.0, 0.0, 0.0, 0.0, 0.0, 0.0, 1.696029899134016E9, 0.0, 2023-09-29 18:24:59.134
42.0, 29697.68997403264, 51859.91398810315, 42037.86457036312, 6042.660003025532, 57192.25790408348, 47109.184814594366, -151353.38471572218, 41211.78879878388, 37848.00772047135, 65233.05210269119, 55286.481116590636, 11810.371197506332, 67243.7703304017, -125678.1146738666, 72223.2025531772, 52227.53312915959, 0.03, 1.024, -0.016, 192.0, 0.0, 120.0, 16.0, 0.0, 127.5, 64.0, 0.0, 0.0, 0.0, 1.696029899134027E9, 0.0, 2023-09-29 18:24:59.134
44.0, 29714.610244585307, 51874.554380721376, 42004.761636824805, 6074.466535385434, 57206.98770367953, 47107.55313724913, -151824.13480569542, 41200.791740511864, 37812.75901946533, 65149.38952319498, 55124.27450707847, 11803.732729403107, 67120.18753530832, -125879.43683617555, 72074.00465893802, 52083.40908091177, 0.03, 1.024, -0.016, 192.0, 0.0, 0.0, 0.0, 0.0, 0.0, 0.0, 0.0, 0.0, 0.0, 1.69602989913403E9, 0.0, 2023-09-29 18:24:59.134
46.0, 29691.69970651862, 51857.3882409797, 42061.535067741286, 6042.056505925239, 57200.19277336512, 47112.89520417395, -151347.19328250806, 41221.26593843293, 37849.37117688313, 65228.87232647805, 55281.74254676611, 11813.858069641361, 67241.49045246726, -125789.7392856764, 72192.8935876958, 52197.671198567296, 0.03, 1.024, -0.016, 192.0, 0.0, 0.0, 0.0, 0.0, 0.0, 0.0, 0.0, 0.0, 0.0, 1.696029899194236E9, 0.0, 2023-09-29 18:24:59.194
48.0, 29718.45474463162, 51877.37070052275, 41987.75195929432, 6070.48792487239, 57204.998398423006, 47096.533727232665, -151824.93946849578, 41197.304868376836, 37809.987403152874, 65157.2796889877, 55128.78955945845, 11801.162278790747, 67134.0456168706, -125777.71404715945, 72105.07358373089, 52101.93867706522, 0.03, 1.024, -0.016, 192.0, 0.0, 0.0, 0.0, 0.0, 0.0, 0.0, 0.0, 0.0, 0.0, 1.696029899194247E9, 0.0, 2023-09-29 18:24:59.194
50.0, 29690.090380917834, 51852.82848511082, 42072.643884735575, 6033.585194776678, 57210.42987232565, 47116.9185181759, -151352.28948024387, 41230.34074668178, 37849.59469432768, 65228.11236716657, 55271.14781989429, 11814.461566741655, 67223.74316736974, -125894.18898751606, 72156.81787214492, 52151.51484626709, 0.03, 1.024, -0.016, 192.0, 0.0, 0.0, 0.0, 0.0, 0.0, 0.0, 0.0, 0.0, 0.0, 1.69602989919425E9, 0.0, 2023-09-29 18:24:59.194
52.0, 29712.240959673043, 51874.66613944366, 41954.78313622274, 6061.234302667893, 57184.97123539105, 47088.643561439945, -151805.04641593056, 41181.74805423595, 37804.55592925024, 65168.25439551526, 55138.691382252146, 11791.863953097338, 67142.31576231906, -125658.62395270157, 72135.06962478992, 52129.520729723066, 0.032, 1.024, -0.014, 192.0, 0.5, 0.0, 16.0, 0.0, 127.5, 72.0, 0.0, 0.0, 0.0, 1.696029899194254E9, 0.0, 2023-09-29 18:24:59.194
54.0, 29692.414962341187, 51855.10836304526, 42071.928628913, 6034.903947699541, 57214.31907586087, 47124.987497924274, -151372.5178089759, 41233.02295601642, 37846.621912315124, 65217.2941228502, 55242.425828269224, 11809.47712772812, 67207.42639391737, -125973.11299718774, 72123.35731069533, 52115.260316760585, 0.032, 1.024, -0.014, 192.0, 0.0, 0.0, 0.0, 0.0, 0.0, 0.0, 0.0, 0.0, 0.0, 1.696029899194258E9, 0.0, 2023-09-29 18:24:59.194
56.0, 29714.766706796494, 51872.252151042485, 41941.72971746084, 6057.143933432571, 57176.7457934315, 47092.197488808335, -151781.1747528523, 41177.05418790033, 37809.4733130304, 65174.35642175155, 55153.44353359265, 11792.981540320105, 67150.42944555634, -125574.4919865718, 72162.20464255866, 52151.44779103372, 0.032, 1.024, -0.014, 192.0, 0.0, 0.0, 0.0, 0.0, 0.0, 0.0, 0.0, 0.0, 0.0, 1.696029899194261E9, 0.0, 2023-09-29 18:24:59.194
58.0, 29689.419828584178, 51855.13071478972, 42070.967503901426, 6037.519101800812, 57215.45901482809, 47135.202245140346, -151425.26792589045, 41237.38154618521, 37846.420746615026, 65208.53223902372, 55221.817519881435, 11809.611238194853, 67190.0590884756, -126054.6521609607, 72098.05513597192, 52086.06893850195, 0.032, 1.024, -0.014, 192.0, 0.0, 0.0, 0.0, 0.0, 0.0, 0.0, 0.0, 0.0, 0.0, 1.696029899194266E9, 0.0, 2023-09-29 18:24:59.194
60.0, 29706.11658169229, 51868.27354052944, 41932.99018537882, 6053.880578742097, 57173.46008699657, 47090.454052740824, -151733.83375809595, 41169.074615129786, 37808.84746418565, 65182.29129103319, 55167.68159481068, 11787.438307695187, 67165.82979748605, -125495.36681120002, 72189.18319811621, 52177.84520123544, 0.032, 1.024, -0.014, 192.0, 0.0, 0.0, 0.0, 0.0, 0.0, 0.0, 0.0, 0.0, 0.0, 1.696029899254663E9, 0.0, 2023-09-29 18:24:59.254
62.0, 29689.15160765071, 51850.21333100955, 42068.46410852243, 6028.533700529779, 57216.57660205086, 47135.0234311847, -151466.7974670884, 41234.25230196146, 37844.185572169496, 65197.021090629234, 55203.80201385046, 11804.850316625872, 67173.54114932312, -126106.73172554157, 72067.27678385697, 52051.87076948533, 0.03, 1.024, -0.014, 192.0, 0.0, 120.0, 16.0, 0.0, 127.5, 72.0, 0.0, 0.0, 0.0, 1.696029899254674E9, 0.0, 2023-09-29 18:24:59.254
64.0, 29709.826971271872, 51869.36877600775, 41928.0951533431, 6052.539474074778, 57164.27352002544, 47080.44047122484, -151709.26919093958, 41173.29909483184, 37814.68126948849, 65188.147448080475, 55191.821478822414, 11778.609368635342, 67196.78696355665, -125441.67792101836, 72210.21618964865, 52190.16101243032, 0.03, 1.024, -0.014, 192.0, 0.0, 0.0, 0.0, 0.0, 0.0, 0.0, 0.0, 0.0, 0.0, 1.696029899254677E9, 0.0, 2023-09-29 18:24:59.254
66.0, 29695.231282142555, 51858.52817994692, 42076.354274315156, 6040.7601047468315, 57229.00417196801, 47136.163370151924, -151533.3162585874, 41246.791630600885, 37849.01354897184, 65188.32626203612, 55190.18980147717, 11807.398415493777, 67169.22726264325, -126159.14656628926, 72045.39442603521, 52023.19348134917, 0.03, 1.024, -0.014, 192.0, 0.0, 0.0, 0.0, 0.0, 0.0, 0.0, 0.0, 0.0, 0.0, 1.69602989925468E9, 0.0, 2023-09-29 18:24:59.254
68.0, 29712.486828862053, 51868.899389374186, 41938.30990055918, 6053.344136875169, 57174.868246897255, 47088.4647474843, -151659.13422812632, 41171.8685831867, 37829.90280746255, 65204.39716629949, 55220.8340431254, 11786.343072216878, 67210.89091430795, -125407.0550688571, 72233.19378294871, 52213.71975108621, 0.03, 1.024, -0.014, 192.0, 0.0, 0.0, 0.0, 0.0, 0.0, 0.0, 0.0, 0.0, 0.0, 1.696029899254684E9, 0.0, 2023-09-29 18:24:59.254
70.0, 29707.837666015348, 51865.92660736163, 42075.437852792486, 6049.700802528954, 57236.112026704795, 47143.47239058881, -151600.12562276432, 41243.4835724215, 37851.56164783974, 65185.10761083456, 55176.28701642597, 11811.175860306725, 67154.00572466919, -126170.16597630573, 72032.07278633986, 52024.95926916114, 0.03, 1.024, -0.014, 192.0, 0.0, 0.0, 0.0, 0.0, 0.0, 0.0, 0.0, 0.0, 0.0, 1.696029899254687E9, 0.0, 2023-09-29 18:24:59.254
72.0, 29721.516933621995, 51876.61074121127, 41958.29236010222, 6063.178904435505, 57184.97123539105, 47100.08765460106, -151627.12653006634, 41188.61003978372, 37843.20209541346, 65229.85580323408, 55245.35390679287, 11803.129232302814, 67227.81118486062, -125415.66049047238, 72242.82738480894, 52250.91305385984, 0.034, 1.024, -0.016, 192.0, 0.5, 8.0, 16.0, 0.0, 127.5, 64.0, 0.0, 0.0, 0.0, 1.69602989925469E9, 0.0, 2023-09-29 18:24:59.254
74.0, 29709.826971271872, 51866.865380628755, 42071.83922193518, 6053.72411653091, 57237.363724394294, 47140.41020159843, -151659.2012833597, 41247.26101723445, 37849.415880372035, 65186.9851573688, 55159.88083599578, 11819.870688899839, 67138.4489105283, -126173.89871762977, 72024.54024845842, 52038.23620536759, 0.034, 1.024, -0.016, 192.0, 0.0, 0.0, 0.0, 0.0, 0.0, 0.0, 0.0, 0.0, 0.0, 1.696029899254699E9, 0.0, 2023-09-29 18:24:59.254
76.0, 29718.11946846479, 51873.146220820694, 41965.44491832792, 6053.321785130714, 57184.83712492432, 47092.10808183051, -151549.14129366176, 41189.16883339511, 37839.75992676734, 65229.63228578953, 55252.37235455184, 11799.061214811947, 67236.19308903135, -125405.1998740673, 72262.1616437628, 52279.3891762959, 0.034, 1.024, -0.016, 192.0, 0.0, 0.0, 0.0, 0.0, 0.0, 0.0, 0.0, 0.0, 0.0, 1.696029899313888E9, 0.0, 2023-09-29 18:24:59.313
78.0, 29720.68991907715, 51879.53881973492, 42055.857724649635, 6060.921378245518, 57241.29763141843, 47134.66580327342, -151731.35271446142, 41240.220217731025, 37843.760889024845, 65176.256320030254, 55146.805065489425, 11826.307991302967, 67136.19138433831, -126132.14565898725, 72020.02519607845, 52040.49373155758, 0.034, 1.024, -0.016, 192.0, 0.0, 0.0, 0.0, 0.0, 0.0, 0.0, 0.0, 0.0, 0.0, 1.696029899313897E9, 0.0, 2023-09-29 18:24:59.313
80.0, 29719.505276621017, 51877.10247958929, 41984.77917728176, 6052.271253141314, 57192.637883739226, 47104.75916919222, -151523.4591392826, 41197.64014454367, 37847.85125826016, 65243.26684990727, 55279.44031708722, 11815.310933030956, 67245.04437983566, -125466.6671713194, 72247.00716102209, 52269.822629669026, 0.034, 1.024, -0.016, 192.0, 0.0, 0.0, 0.0, 0.0, 0.0, 0.0, 0.0, 0.0, 0.0, 1.696029899313901E9, 0.0, 2023-09-29 18:24:59.313
82.0, 29710.58693058335, 51865.054889327876, 42035.875265106595, 6046.728020516399, 57219.392921852224, 47124.004021168235, -151762.35458402094, 41225.93745302409, 37832.18268539699, 65169.75196239376, 55133.796350216435, 11814.52862197502, 67123.5402969766, -126071.43832104663, 72021.32159725686, 52050.8872927293, 0.028, 1.022, -0.012, 192.0, 0.0, 112.0, 15.5, 120.0, 127.5, 80.0, 0.0, 0.0, 0.0, 1.696029899313905E9, 0.0, 2023-09-29 18:24:59.313
84.0, 29711.145724194736, 51863.19969453808, 41984.39919762602, 6031.081799397683, 57181.17143883365, 47099.8641371565, -151441.87527202073, 41193.86269973072, 37840.20696165645, 65241.836338262125, 55276.17696239674, 11802.458679969155, 67240.5740309446, -125476.45723539082, 72249.48820465663, 52274.225923326725, 0.028, 1.022, -0.012, 192.0, 0.0, 0.0, 0.0, 0.0, 0.0, 0.0, 0.0, 0.0, 0.0, 1.696029899313908E9, 0.0, 2023-09-29 18:24:59.313
86.0, 29721.338119666354, 51873.570903965345, 42010.908366550015, 6048.024421694806, 57218.87883172975, 47117.94669842085, -151810.27672413312, 41218.96370875403, 37825.54421729377, 65167.06975305912, 55115.49027150754, 11812.136985318302, 67110.33041600352, -125970.81076750884, 72029.94937061661, 52052.183693907704, 0.028, 1.022, -0.012, 192.0, 0.0, 0.0, 0.0, 0.0, 0.0, 0.0, 0.0, 0.0, 0.0, 1.696029899313912E9, 0.0, 2023-09-29 18:24:59.313
88.0, 29707.50238984852, 51864.0937643163, 42009.14257873804, 6029.04779065225, 57191.87792442774, 47109.00600063873, -151412.08039666183, 41213.7781040404, 37848.432403616, 65237.27658239324, 55274.92526470724, 11807.800746893972, 67236.79658613165, -125569.90987895845, 72219.60392231989, 52232.361105961936, 0.028, 1.022, -0.012, 192.0, 0.0, 0.0, 0.0, 0.0, 0.0, 0.0, 0.0, 0.0, 0.0, 1.696029899313915E9, 0.0, 2023-09-29 18:24:59.313
90.0, 29721.360471410808, 51874.95671212157, 41994.345723908635, 6050.773686262809, 57205.31132284538, 47106.34614304855, -151819.75386378216, 41212.10172320625, 37821.63266201409, 65160.408933211445, 55117.18900408614, 11807.532525960509, 67116.83477364002, -125856.83922253124, 72060.30303958691, 52066.511162103554, 0.028, 1.022, -0.012, 192.0, 0.0, 0.0, 0.0, 0.0, 0.0, 0.0, 0.0, 0.0, 0.0, 1.696029899373808E9, 0.0, 2023-09-29 18:24:59.373
92.0, 29711.324538150377, 51870.86634288626, 42024.92291032349, 6037.0050116783395, 57203.00909316649, 47118.03610539867, -151387.8287539278, 41226.183322213095, 37858.848316532174, 65247.26781216476, 55277.47336357515, 11819.043674354993, 67246.51959496971, -125643.2012490274, 72206.99753844709, 52206.56719286051, 0.024, 1.022, -0.01, 192.0, 0.0, 96.0, 15.5, 120.0, 127.5, 88.0, 0.0, 0.0, 0.0, 1.696029899373829E9, 0.0, 2023-09-29 18:24:59.373
94.0, 29725.473192390586, 51878.91297089017, 41970.87639223056, 6055.825180509709, 57198.158764619686, 47105.496776759246, -151847.9394135403, 41211.140598194674, 37822.504380047845, 65172.32241300612, 55125.749722212524, 11810.840584139894, 67124.590828966, -125761.46432894043, 72087.54981607792, 52089.01936877005, 0.024, 1.022, -0.01, 192.0, 0.0, 0.0, 0.0, 0.0, 0.0, 0.0, 0.0, 0.0, 0.0, 1.696029899373833E9, 0.0, 2023-09-29 18:24:59.373
96.0, 29701.176846167666, 51859.31049100286, 42043.65367217704, 6021.671714981999, 57208.149994391206, 47118.3713815655, -151371.8696083867, 41237.783877585396, 37856.56843859774, 65241.00932371728, 55273.02536642854, 11816.830851653916, 67236.75188264274, -125737.0785757397, 72180.86834917884, 52192.39618687585, 0.024, 1.022, -0.01, 192.0, 0.0, 0.0, 0.0, 0.0, 0.0, 0.0, 0.0, 0.0, 0.0, 1.696029899373837E9, 0.0, 2023-09-29 18:24:59.373
98.0, 29720.376994654776, 51877.16953482265, 41951.74329897682, 6046.705668771943, 57199.343407075816, 47095.57260222109, -151830.92973600983, 41199.09300793326, 37811.529673520294, 65173.84233162908, 55132.34348682684, 11798.61417992284, 67132.16807033635, -125634.14879252302, 72117.5235053925, 52136.919157137774, 0.024, 1.022, -0.01, 192.0, 0.0, 0.0, 0.0, 0.0, 0.0, 0.0, 0.0, 0.0, 0.0, 1.69602989937384E9, 0.0, 2023-09-29 18:24:59.373
100.0, 29691.900872218714, 51851.26386299895, 42052.303797281245, 6016.955496901929, 57217.8059479959, 47113.386942551966, -151367.3769077512, 41238.54383689688, 37850.98050248391, 65235.890774237014, 55255.568654008945, 11814.908601630761, 67210.82385907458, -125823.91510294857, 72148.81594762993, 52170.29031160955, 0.024, 1.022, -0.01, 192.0, 0.0, 0.0, 0.0, 0.0, 0.0, 0.0, 0.0, 0.0, 0.0, 1.696029899373843E9, 0.0, 2023-09-29 18:24:59.373
102.0, 29717.717137064596, 51873.861476643266, 41937.438182525424, 6041.900043714052, 57196.70590123009, 47084.59789569353, -151800.86663971742, 41187.47010081651, 37805.69586821745, 65170.668383916425, 55133.46107404961, 11789.315854229433, 67128.3906255234, -125512.19767477486, 72157.91310762324, 52176.638207034855, 0.024, 1.022, -0.004, 192.0, 0.0, 96.0, 15.5, 120.0, 127.5, 112.0, 0.0, 0.0, 0.0, 1.696029899373847E9, 0.0, 2023-09-29 18:24:59.373
104.0, 29695.454799587107, 51855.42128746764, 42063.94905614246, 6014.340342800659, 57227.148977178214, 47123.69109674586, -151389.8851144177, 41243.61768288824, 37849.080604205206, 65227.91120146647, 55231.65228744177, 11814.819194652939, 67183.46532386128, -125899.82162711878, 72120.0716042604, 52144.71991595268, 0.024, 1.022, -0.004, 192.0, 0.0, 0.0, 0.0, 0.0, 0.0, 0.0, 0.0, 0.0, 0.0, 1.69602989937385E9, 0.0, 2023-09-29 18:24:59.373
106.0, 29723.483887134065, 51876.25311329999, 41925.837627153116, 6038.167302390016, 57182.423136523146, 47085.22374453828, -151778.85017142896, 41182.128033891684, 37814.48010378839, 65191.74607893778, 55151.07424868039, 11797.451889211165, 67163.01347768468, -125426.36697606648, 72189.2949568385, 52210.545803373556, 0.024, 1.022, -0.004, 192.0, 0.0, 0.0, 0.0, 0.0, 0.0, 0.0, 0.0, 0.0, 0.0, 1.696029899433949E9, 0.0, 2023-09-29 18:24:59.433
108.0, 29700.68510778965, 51856.20359852357, 42062.429137519495, 6013.960363144918, 57220.64461954172, 47126.50741654723, -151424.19504215659, 41241.02488053142, 37850.06408096124, 65216.22123911634, 55217.50363320156, 11815.355636519866, 67178.77145752567, -125963.01000869395, 72100.58088309538, 52125.4527122322, 0.024, 1.022, -0.004, 192.0, 0.0, 0.0, 0.0, 0.0, 0.0, 0.0, 0.0, 0.0, 0.0, 1.696029899433958E9, 0.0, 2023-09-29 18:24:59.433
110.0, 29726.322558679887, 51879.60587496828, 41917.5451299602, 6037.183825633982, 57179.31624404386, 47088.8670788845, -151740.44987445473, 41178.68586524557, 37813.49662703236, 65201.26792207574, 55176.48818212607, 11798.770642134028, 67173.8540737455, -125341.45269888076, 72215.8935327403, 52250.24250152618, 0.024, 1.022, -0.004, 192.0, 0.0, 0.0, 0.0, 0.0, 0.0, 0.0, 0.0, 0.0, 0.0, 1.696029899433962E9, 0.0, 2023-09-29 18:24:59.433
112.0, 29708.55292183792, 51864.60785443877, 42064.239628820374, 6024.376276061092, 57237.006096483005, 47135.80574224064, -151501.3085605274, 41250.8372963473, 37845.236104158896, 65213.606085015075, 55199.711644615134, 11824.765720935551, 67176.93861448033, -126028.79119262591, 72062.44880705462, 52099.524688664045, 0.024, 1.022, -0.002, 192.0, 0.0, 96.0, 15.5, 120.0, 127.5, 120.0, 0.0, 0.0, 0.0, 1.696029899433965E9, 0.0, 2023-09-29 18:24:59.433
114.0, 29730.524686637484, 51883.40567152568, 41918.86388288306, 6028.041962151762, 57176.38816552021, 47081.69216891434, -151701.51313561358, 41174.729606476976, 37821.520903291814, 65217.919971694944, 55200.96334230463, 11803.419804980733, 67193.79182979964, -125322.78899226058, 72222.30848339897, 52262.759478421154, 0.024, 1.022, -0.002, 192.0, 0.0, 0.0, 0.0, 0.0, 0.0, 0.0, 0.0, 0.0, 0.0, 1.696029899433968E9, 0.0, 2023-09-29 18:24:59.433
116.0, 29705.177808425167, 51857.47764795752, 42063.65848346454, 6014.04977012274, 57242.77284655248, 47134.30817536214, -151539.64180226825, 41248.557418412856, 37845.079641947705, 65192.52838999372, 55180.64560659476, 11815.847374897883, 67151.09999789, -126048.3489690243, 72045.59559173531, 52083.67730184523, 0.024, 1.022, -0.002, 192.0, 0.0, 0.0, 0.0, 0.0, 0.0, 0.0, 0.0, 0.0, 0.0, 1.696029899433971E9, 0.0, 2023-09-29 18:24:59.433
118.0, 29726.07668949088, 51878.93532263462, 41921.5460922177, 6031.752351731343, 57185.53002900244, 47090.02936959617, -151664.02926016203, 41184.20674612603, 37826.61710102762, 65207.74992796778, 55218.30829600195, 11795.909618843749, 67208.00753927321, -125280.83476791797, 72238.58055336244, 52278.76332745115, 0.024, 1.022, -0.002, 192.0, 0.0, 0.0, 0.0, 0.0, 0.0, 0.0, 0.0, 0.0, 0.0, 1.696029899433974E9, 0.0, 2023-09-29 18:24:59.433
120.0, 29705.69189854764, 51858.25995901346, 42057.02001536131, 6018.698932969443, 57242.90695701921, 47139.583187053584, -151631.52982372403, 41253.60891265976, 37847.00189197086, 65177.32920376411, 55164.619405820304, 11821.412959267254, 67149.40126531139, -126091.37607710077, 72010.9503878296, 52052.407211352256, 0.024, 1.022, -0.002, 192.0, 0.0, 0.0, 0.0, 0.0, 0.0, 0.0, 0.0, 0.0, 0.0, 1.69602989949431E9, 0.0, 2023-09-29 18:24:59.494
122.0, 29714.789058540948, 51860.986871837005, 41927.0446213537, 6010.898174154541, 57180.45618301108, 47085.9613521053, -151605.0430065445, 41182.99975192544, 37836.02718544331, 65212.01911115875, 55241.57646197992, 11791.908656586249, 67226.33596972657, -125295.69867798075, 72243.98967552063, 52284.507725776166, 0.026000000000000002, 1.024, -0.004, 192.0, 0.0, 104.0, 16.0, 0.0, 127.5, 112.0, 0.0, 0.0, 0.0, 1.696029899494329E9, 0.0, 2023-09-29 18:24:59.494
124.0, 29708.530570093462, 51853.94607233359, 42028.72270688089, 6008.4171305200025, 57236.20143368262, 47125.90391944694, -151698.58505708995, 41235.72751709551, 37835.513095320835, 65152.429360440896, 55133.32696358287, 11800.648188668274, 67128.72590169024, -126050.07005334736, 71999.14866675719, 52041.87953971381, 0.026000000000000002, 1.024, -0.004, 192.0, 0.0, 0.0, 0.0, 0.0, 0.0, 0.0, 0.0, 0.0, 0.0, 1.696029899494333E9, 0.0, 2023-09-29 18:24:59.494
126.0, 29720.555808610417, 51867.06654632885, 41952.1009268881, 6019.525947514289, 57189.352177304296, 47099.84178541205, -151561.14418043426, 41189.9734961955, 37844.20792391395, 65212.2426286033, 55253.46759003015, 11796.3343019884, 67235.70135065334, -125334.54600984408, 72228.07523346845, 52272.8401151705, 0.026000000000000002, 1.024, -0.004, 192.0, 0.0, 0.0, 0.0, 0.0, 0.0, 0.0, 0.0, 0.0, 0.0, 1.69602989949434E9, 0.0, 2023-09-29 18:24:59.494
128.0, 29723.439183645154, 51870.17343880814, 42024.98996555686, 6020.799996948243, 57236.871986016275, 47132.94471895036, -151772.83755217047, 41232.0841827493, 37833.99317669788, 65157.14557852097, 55129.68362923666, 11807.934857360704, 67109.5928084365, -126009.16636099415, 72004.15545751518, 52052.5860253079, 0.026000000000000002, 1.024, -0.004, 192.0, 0.0, 0.0, 0.0, 0.0, 0.0, 0.0, 0.0, 0.0, 0.0, 1.696029899494344E9, 0.0, 2023-09-29 18:24:59.494
130.0, 29717.15834345321, 51864.45139222758, 41960.41577582547, 5998.001217603829, 57188.97219764855, 47092.42100625289, -151502.515554728, 41183.6703042591, 37855.27203741932, 65230.95103871239, 55274.99231994061, 11795.708453143652, 67247.9724583593, -125385.01624882416, 72232.85850678188, 52278.87508617343, 0.026000000000000002, 1.024, -0.004, 192.0, 0.0, 0.0, 0.0, 0.0, 0.0, 0.0, 0.0, 0.0, 0.0, 1.696029899494347E9, 0.0, 2023-09-29 18:24:59.494
132.0, 29725.16026796821, 51870.776935908434, 41989.674209317476, 6007.388950275058, 57228.53478533444, 47114.61628849701, -151806.61103804244, 41209.30775514934, 37827.15354289455, 65144.114511503525, 55117.45722501961, 11797.742461889084, 67107.82702062452, -125933.1257263572, 72017.81237337737, 52053.34598461938, 0.026000000000000002, 1.02, -0.006, 192.0, 0.0, 104.0, 15.5, 112.0, 127.5, 104.0, 0.0, 0.0, 0.0, 1.696029899494351E9, 0.0, 2023-09-29 18:24:59.494
134.0, 29719.237055687554, 51866.03836608391, 41965.13199390555, 5997.196554803438, 57196.88471518573, 47095.907878387916, -151478.84505734983, 41194.55560380883, 37846.21958091493, 65224.06670142015, 55268.733831493126, 11796.066081054936, 67234.60611517503, -125453.27847639067, 72222.48729735462, 52255.11518181744, 0.026000000000000002, 1.02, -0.006, 192.0, 0.0, 0.0, 0.0, 0.0, 0.0, 0.0, 0.0, 0.0, 0.0, 1.696029899494354E9, 0.0, 2023-09-29 18:24:59.494
136.0, 29727.104869735824, 51873.369738265246, 41981.02408421327, 6014.295639311747, 57226.27725914446, 47103.55217499163, -151861.5516259136, 41209.66538306062, 37823.845484715166, 65153.32343021911, 55108.58358247085, 11804.783261392506, 67107.00000607967, -125873.69243785054, 72034.44207125212, 52068.3887086378, 0.026000000000000002, 1.02, -0.006, 192.0, 0.0, 0.0, 0.0, 0.0, 0.0, 0.0, 0.0, 0.0, 0.0, 1.6960298995545E9, 0.0, 2023-09-29 18:24:59.554
138.0, 29709.469343360586, 51860.24926426998, 41982.43224411395, 5986.490069209346, 57198.98577916453, 47093.248020797735, -151439.483635364, 41199.71885677801, 37850.64522631708, 65235.46609109236, 55277.8980467198, 11804.425633481222, 67238.49531871025, -125528.33563427159, 72225.28126541153, 52252.343565504976, 0.026000000000000002, 1.02, -0.006, 192.0, 0.0, 0.0, 0.0, 0.0, 0.0, 0.0, 0.0, 0.0, 0.0, 1.69602989955451E9, 0.0, 2023-09-29 18:24:59.554
140.0, 29726.769593568995, 51876.40957551117, 41950.82687745415, 6013.669790466999, 57213.22384038256, 47095.4161400099, -151888.68664368233, 41197.88601373268, 37810.45678978643, 65154.530424419696, 55108.00243711501, 11796.155488032759, 67112.16325904886, -125756.41283469355, 72070.89776645873, 52096.26133397357, 0.026000000000000002, 1.02, -0.006, 192.0, 0.0, 0.0, 0.0, 0.0, 0.0, 0.0, 0.0, 0.0, 0.0, 1.696029899554513E9, 0.0, 2023-09-29 18:24:59.554
142.0, 29709.379936382764, 51863.870246871746, 41993.921040763984, 5989.261685521804, 57201.578581521346, 47100.78055867917, -151442.9481557546, 41210.98413598348, 37852.74629029588, 65235.53314632573, 55270.544322794005, 11808.068967827436, 67221.59739990204, -125629.54433316522, 72192.67007025125, 52219.28533545558, 0.032, 1.022, -0.004, 192.0, 0.5, 0.0, 15.5, 120.0, 127.5, 112.0, 0.0, 0.0, 0.0, 1.696029899554516E9, 0.0, 2023-09-29 18:24:59.554
144.0, 29723.439183645154, 51873.146220820694, 41924.094191085605, 6006.651342708033, 57200.01395940947, 47082.31801775909, -151904.62343747896, 41177.63533325617, 37807.5734147517, 65156.72089537632, 55116.96548664159, 11791.752194375062, 67127.5412592341, -125656.96992361188, 72090.1649701792, 52122.07759881945, 0.032, 1.022, -0.004, 192.0, 0.0, 0.0, 0.0, 0.0, 0.0, 0.0, 0.0, 0.0, 0.0, 1.696029899554519E9, 0.0, 2023-09-29 18:24:59.554
146.0, 29711.45864861711, 51863.244398026996, 42017.09979976414, 5991.295694267237, 57212.93326770464, 47106.882584915475, -151460.09194375182, 41219.23192968749, 37850.37700538361, 65227.12889041053, 55261.82714245643, 11809.946514361682, 67223.27378073618, -125733.83757279368, 72156.66140993375, 52179.70039602523, 0.032, 1.022, -0.004, 192.0, 0.0, 0.0, 0.0, 0.0, 0.0, 0.0, 0.0, 0.0, 0.0, 1.696029899554523E9, 0.0, 2023-09-29 18:24:59.554
148.0, 29725.9649307686, 51873.83912489881, 41917.3439642601, 6009.490014253857, 57192.280255827936, 47077.69120665684, -151903.88582991195, 41176.137766377666, 37814.39069681057, 65157.74907562126, 55141.910033453714, 11794.590865920885, 67140.5499745071, -125561.97500967683, 72124.69841536265, 52149.41378228829, 0.032, 1.022, -0.004, 192.0, 0.0, 0.0, 0.0, 0.0, 0.0, 0.0, 0.0, 0.0, 0.0, 1.696029899554526E9, 0.0, 2023-09-29 18:24:59.554
150.0, 29701.847398501326, 51855.55539793437, 42013.568224140196, 5984.076080808173, 57214.6543520277, 47110.19064309486, -151453.5428826264, 41215.901519763655, 37842.68800529099, 65207.794631456694, 55248.12552310533, 11799.351787489866, 67210.48858290775, -125807.6430329851, 72143.29506674947, 52166.40110807432, 0.032, 1.022, -0.004, 192.0, 0.0, 0.0, 0.0, 0.0, 0.0, 0.0, 0.0, 0.0, 0.0, 1.696029899613974E9, 0.0, 2023-09-29 18:24:59.613
152.0, 29718.298282420434, 51864.429040483126, 41880.731806842305, 5994.3355315131585, 57182.289026056416, 47072.2597327542, -151872.16870452985, 41160.178620836574, 37806.567586251214, 65159.40310471095, 55138.62432701878, 11782.990310548581, 67136.52666050514, -125453.90432523542, 72155.29795352196, 52181.71205302621, 0.032, 1.024, -0.01, 192.0, 0.5, 0.0, 16.0, 0.0, 127.5, 88.0, 0.0, 0.0, 0.0, 1.696029899613987E9, 0.0, 2023-09-29 18:24:59.613
154.0, 29709.894026505237, 51863.512618960456, 42018.8655875761, 5990.5133832113015, 57232.826320269865, 47126.70858224733, -151501.4650227386, 41233.02295601642, 37841.01162445684, 65193.44481151638, 55219.67175241373, 11799.195325278679, 67180.98428022675, -125895.39598171663, 72107.57697910989, 52122.63639243083, 0.032, 1.024, -0.01, 192.0, 0.0, 0.0, 0.0, 0.0, 0.0, 0.0, 0.0, 0.0, 0.0, 1.696029899613991E9, 0.0, 2023-09-29 18:24:59.613
156.0, 29725.003805757024, 51872.69918593159, 41885.93976330039, 6004.036188606762, 57181.35025278929, 47072.058567054104, -151850.17458798582, 41164.179583094075, 37814.21188285493, 65170.35545949405, 55167.74865004404, 11785.449002438665, 67156.41971307037, -125378.6460016544, 72195.73225924162, 52211.88690804088, 0.032, 1.024, -0.01, 192.0, 0.0, 0.0, 0.0, 0.0, 0.0, 0.0, 0.0, 0.0, 0.0, 1.696029899613994E9, 0.0, 2023-09-29 18:24:59.613
158.0, 29708.038831715447, 51862.28327301542, 42030.354384226135, 5983.919618596986, 57230.434683613144, 47120.83007345558, -151552.60581405234, 41229.02199375892, 37847.9853687269, 65188.10274459157, 55205.031359795496, 11802.682197413707, 67182.37008838297, -125966.92156397362, 72081.17956890816, 52102.43041544323, 0.032, 1.024, -0.01, 192.0, 0.0, 0.0, 0.0, 0.0, 0.0, 0.0, 0.0, 0.0, 0.0, 1.696029899613997E9, 0.0, 2023-09-29 18:24:59.613
160.0, 29723.50623887852, 51874.73319467702, 41880.24006846429, 5998.314142026204, 57171.582540462325, 47071.83504960955, -151818.47981434822, 41159.262199313904, 37819.03985965727, 65179.31850902063, 55179.46096413863, 11783.884380326794, 67176.84920750251, -125321.80551550454, 72200.64964302178, 52232.405809450844, 0.032, 1.024, -0.01, 192.0, 0.0, 0.0, 0.0, 0.0, 0.0, 0.0, 0.0, 0.0, 0.0, 1.696029899614E9, 0.0, 2023-09-29 18:24:59.614
162.0, 29713.380898640266, 51868.76527890746, 42027.40395395803, 5989.664016921999, 57230.05470395741, 47128.22850087029, -151619.4375299737, 41228.843179803276, 37843.269150646825, 65176.16691305243, 55182.21022870663, 11804.157412547758, 67161.98529743974, -126019.13523902121, 72039.29239979893, 52065.79590628099, 0.032, 1.024, -0.01, 192.0, 0.5, 0.0, 16.0, 0.0, 127.5, 88.0, 0.0, 0.0, 0.0, 1.696029899614004E9, 0.0, 2023-09-29 18:24:59.614
164.0, 29725.204971457122, 51875.4931539885, 41884.12927199951, 5996.257781536315, 57179.6962236996, 47076.21599152279, -151769.52949399108, 41155.57416147878, 37824.672499260014, 65196.127020851025, 55209.41230170874, 11788.600598406863, 67203.15721072641, -125278.51018649462, 72219.62627406434, 52251.89653061587, 0.032, 1.024, -0.01, 192.0, 0.0, 0.0, 0.0, 0.0, 0.0, 0.0, 0.0, 0.0, 0.0, 1.696029899614007E9, 0.0, 2023-09-29 18:24:59.614
166.0, 29710.49752360553, 51863.33380500482, 42024.833503345675, 5985.70775815341, 57236.06732321589, 47126.64152701396, -151657.27903333653, 41224.39518265667, 37840.609293056645, 65171.00366008326, 55172.08488846837, 11810.371197506332, 67154.36335258048, -126031.56280893837, 72025.45666998108, 52058.37512712183, 0.032, 1.024, -0.01, 192.0, 0.0, 0.0, 0.0, 0.0, 0.0, 0.0, 0.0, 0.0, 0.0, 1.696029899673782E9, 0.0, 2023-09-29 18:24:59.673
168.0, 29720.868733032792, 51870.06168008586, 41884.442196421885, 5986.266551764793, 57167.380412504725, 47072.52795368766, -151700.82023153547, 41154.14364983364, 37822.19145562547, 65196.41759352894, 55229.35005776287, 11781.291577969978, 67204.47596364927, -125232.53264815005, 72243.94497203172, 52280.21619084075, 0.032, 1.024, -0.01, 192.0, 0.0, 0.0, 0.0, 0.0, 0.0, 0.0, 0.0, 0.0, 0.0, 1.696029899673793E9, 0.0, 2023-09-29 18:24:59.673
170.0, 29713.64911957373, 51865.85955212826, 42010.37192468309, 5981.907961596008, 57228.758302779, 47121.45592230033, -151711.4596618962, 41218.561377353835, 37840.02814770081, 65160.47598844481, 55151.61069054731, 11803.263342769545, 67144.97561990925, -126012.49677091799, 72006.27887323844, 52055.11177243135, 0.032, 1.024, -0.01, 192.0, 0.0, 0.0, 0.0, 0.0, 0.0, 0.0, 0.0, 0.0, 0.0, 1.696029899673796E9, 0.0, 2023-09-29 18:24:59.673
172.0, 29725.1155644793, 51876.20840981107, 41895.19338550489, 5983.807859874709, 57175.918778886655, 47078.31705550159, -151651.55698675598, 41166.8170889398, 37836.54127556578, 65217.18236412792, 55246.762066693555, 11791.819249608428, 67224.65958889242, -125240.37811045386, 72238.78171906254, 52295.95181893728, 0.034, 1.024, -0.008, 192.0, 0.5, 8.0, 16.0, 0.0, 127.5, 96.0, 0.0, 0.0, 0.0, 1.696029899673799E9, 0.0, 2023-09-29 18:24:59.673
174.0, 29718.655910331716, 51869.30172077438, 41996.40208439852, 5983.830211619164, 57232.98278248105, 47121.7241432338, -151792.3729768244, 41220.05894423234, 37834.529618564804, 65155.67036338692, 55139.183120630165, 11807.219601538134, 67128.97177087925, -125980.89140425819, 72000.69093712461, 52055.759973020555, 0.034, 1.024, -0.008, 192.0, 0.0, 0.0, 0.0, 0.0, 0.0, 0.0, 0.0, 0.0, 0.0, 1.696029899673803E9, 0.0, 2023-09-29 18:24:59.673
176.0, 29718.477096376075, 51868.02767134043, 41915.22054853685, 5980.56685692869, 57174.667081197156, 47081.75922414771, -151600.90793382024, 41168.068786629294, 37837.457697088445, 65209.91804717995, 55267.325671592436, 11789.47231644062, 67242.89861236795, -125279.85129116193, 72240.79337606352, 52286.83230719952, 0.034, 1.024, -0.008, 192.0, 0.0, 0.0, 0.0, 0.0, 0.0, 0.0, 0.0, 0.0, 0.0, 1.696029899673806E9, 0.0, 2023-09-29 18:24:59.673
178.0, 29718.49944812053, 51868.184133551615, 41986.522613349276, 5987.920580854486, 57222.27629688696, 47110.66002972842, -151840.65274484787, 41205.08327544729, 37832.070926674714, 65152.0270290407, 55129.57187051438, 11805.073834070425, 67128.45768075678, -125921.21224656251, 72008.8493238508, 52060.40913586726, 0.034, 1.024, -0.008, 192.0, 0.0, 0.0, 0.0, 0.0, 0.0, 0.0, 0.0, 0.0, 0.0, 1.696029899673809E9, 0.0, 2023-09-29 18:24:59.673
180.0, 29721.852209788827, 51872.11804057575, 41937.3487755476, 5978.1305167830615, 57188.07812787034, 47091.772805663684, -151554.05867744194, 41173.09792913174, 37844.54320008078, 65223.038521175215, 55279.68618627622, 11795.686101399197, 67248.15127231495, -125322.52077132712, 72241.10630048589, 52286.944065921794, 0.034, 1.024, -0.008, 192.0, 0.0, 0.0, 0.0, 0.0, 0.0, 0.0, 0.0, 0.0, 0.0, 1.696029899734165E9, 0.0, 2023-09-29 18:24:59.734
182.0, 29725.517895879497, 51877.638921456215, 41964.19322063842, 5996.101319325128, 57222.87979398725, 47110.12358786149, -151903.57290548956, 41195.89670847615, 37830.0816214182, 65152.71993311882, 55121.81581518839, 11810.170031806236, 67112.07385207103, -125837.52731532184, 72026.79777464841, 52075.13893546331, 0.028, 1.026, -0.012, 192.0, 0.0, 112.0, 16.0, 8.0, 127.5, 80.0, 0.0, 0.0, 0.0, 1.696029899734175E9, 0.0, 2023-09-29 18:24:59.734
184.0, 29706.541264836942, 51858.08114505782, 41953.77730772225, 5965.2782637212595, 57191.56500000537, 47095.01380860971, -151505.33187452937, 41183.24562111445, 37845.437269858994, 65229.542878811706, 55277.09338391941, 11796.75898513305, 67255.63910670747, -125405.66926070086, 72228.00817823508, 52268.705042446265, 0.028, 1.026, -0.012, 192.0, 0.0, 0.0, 0.0, 0.0, 0.0, 0.0, 0.0, 0.0, 0.0, 1.696029899734179E9, 0.0, 2023-09-29 18:24:59.734
186.0, 29719.728794065573, 51867.625339940234, 41937.16996159196, 5985.8195168756865, 57213.15678514919, 47103.19454708035, -151920.5602312756, 41189.99584793995, 37816.02237415581, 65145.0756365151, 55109.07532084887, 11789.606426907352, 67114.75606140567, -125726.08151746768, 72056.68205698516, 52096.998941540594, 0.028, 1.026, -0.012, 192.0, 0.0, 0.0, 0.0, 0.0, 0.0, 0.0, 0.0, 0.0, 0.0, 1.696029899734183E9, 0.0, 2023-09-29 18:24:59.734
188.0, 29708.888198004748, 51856.672985157136, 41963.94735144942, 5966.41820268848, 57204.305494344895, 47100.13235808997, -151482.3542812293, 41197.81895849931, 37847.337168137696, 65222.23385837482, 55273.29358736201, 11792.087470541892, 67235.90251635344, -125461.68273230587, 72213.94893097269, 52257.77503940762, 0.028, 1.026, -0.012, 192.0, 0.0, 0.0, 0.0, 0.0, 0.0, 0.0, 0.0, 0.0, 0.0, 1.696029899734186E9, 0.0, 2023-09-29 18:24:59.734
190.0, 29725.18261971267, 51871.045156841894, 41925.122371330544, 5984.903095353019, 57205.66895075667, 47092.89039288645, -151934.3065541156, 41180.20578386853, 37817.92227243451, 65144.31567720362, 55116.00436163001, 11793.71914788713, 67115.62777943943, -125612.646414357, 72081.33603111935, 52125.251546532105, 0.028, 1.026, -0.012, 192.0, 0.0, 0.0, 0.0, 0.0, 0.0, 0.0, 0.0, 0.0, 0.0, 1.696029899734189E9, 0.0, 2023-09-29 18:24:59.734
192.0, 29707.278872403967, 51854.437810711606, 41982.320485391676, 5959.019775273773, 57208.485270558034, 47111.844672184554, -151478.12980152725, 41214.15808369614, 37855.20498218596, 65222.85970721957, 55271.03606117202, 11803.688025914196, 67240.26110652222, -125552.63198049451, 72188.80321846047, 52236.76439961963, 0.03, 1.02, -0.012, 192.0, 0.0, 120.0, 15.5, 112.0, 127.5, 80.0, 0.0, 0.0, 0.0, 1.696029899734192E9, 0.0, 2023-09-29 18:24:59.734
194.0, 29728.51302963651, 51869.391127752206, 41903.307068742164, 5981.505630195812, 57200.77391872095, 47089.80585215162, -151952.50087410223, 41181.233964113475, 37819.88922594657, 65149.344819706064, 55131.3153065819, 11789.606426907352, 67130.02230286865, -125504.01693630421, 72106.5711506094, 52169.083317408964, 0.03, 1.02, -0.012, 192.0, 0.0, 0.0, 0.0, 0.0, 0.0, 0.0, 0.0, 0.0, 0.0, 1.696029899734195E9, 0.0, 2023-09-29 18:24:59.734
196.0, 29701.53447407895, 51851.420325210136, 41992.870508774584, 5945.720487322866, 57219.32586661886, 47108.760131449715, -151464.0482025204, 41210.939432494575, 37851.382833884105, 65209.64982624648, 55264.75522098008, 11790.366386218833, 67213.0143300312, -125633.36648146708, 72160.43885474668, 52223.80038783555, 0.03, 1.02, -0.012, 192.0, 0.0, 0.0, 0.0, 0.0, 0.0, 0.0, 0.0, 0.0, 0.0, 1.696029899794368E9, 0.0, 2023-09-29 18:24:59.794
198.0, 29735.486773906563, 51881.66223545817, 41885.87270806703, 5983.673749407977, 57200.70686348759, 47086.3636835055, -151929.67974301337, 41170.41571979711, 37810.903824675544, 65163.02408731271, 55141.10537065332, 11776.731822101096, 67142.67339023035, -125364.00560903618, 72146.26784876203, 52211.66339059632, 0.03, 1.02, -0.012, 192.0, 0.0, 0.0, 0.0, 0.0, 0.0, 0.0, 0.0, 0.0, 0.0, 1.696029899794383E9, 0.0, 2023-09-29 18:24:59.794
200.0, 29711.436296872653, 51860.11515380325, 42010.416628171995, 5949.006193757796, 57227.774826022964, 47113.90103267444, -151521.89451717073, 41216.527368608404, 37865.62089510213, 65222.680893263925, 55260.73190697812, 11802.883363113806, 67211.04737651913, -125726.59560759016, 72125.34661595186, 52183.902523982826, 0.03, 1.02, -0.012, 192.0, 0.0, 0.0, 0.0, 0.0, 0.0, 0.0, 0.0, 0.0, 0.0, 1.696029899794389E9, 0.0, 2023-09-29 18:24:59.794
202.0, 29723.617997600795, 51867.37947075123, 41865.219696190325, 5960.584397385645, 57186.22293308055, 47060.92739831536, -151923.4659580548, 41151.05910909881, 37814.34599332166, 65165.2816135027, 55164.06061220892, 11771.747383087562, 67147.65782924388, -125291.0718668785, 72164.55157572647, 52224.11331225793, 0.03, 1.018, -0.012, 192.0, 0.0, 120.0, 15.5, 104.0, 127.5, 80.0, 0.0, 0.0, 0.0, 1.696029899794395E9, 0.0, 2023-09-29 18:24:59.794
204.0, 29698.82991299986, 51845.45240944057, 41998.70431407742, 5928.755513281288, 57221.47163408657, 47089.671741684884, -151561.68062230118, 41205.686772547575, 37854.48972636339, 65187.029860857714, 55220.52111870303, 11786.790107105984, 67185.29816690662, -125803.28444281632, 72082.87830148677, 52138.34966878291, 0.03, 1.018, -0.012, 192.0, 0.0, 0.0, 0.0, 0.0, 0.0, 0.0, 0.0, 0.0, 0.0, 1.696029899794401E9, 0.0, 2023-09-29 18:24:59.794
206.0, 29713.291491662443, 51866.239531784006, 41857.262475164236, 5955.152923483005, 57181.864342911766, 47056.4570494243, -151886.16089655887, 41150.746184676434, 37811.79789445375, 65164.588709424585, 55166.34049014336, 11762.650223094251, 67156.57617528155, -125205.77761003705, 72185.69632598119, 52240.36303047693, 0.03, 1.018, -0.012, 192.0, 0.0, 0.0, 0.0, 0.0, 0.0, 0.0, 0.0, 0.0, 0.0, 1.696029899794407E9, 0.0, 2023-09-29 18:24:59.794
208.0, 29697.935843221647, 51850.727421132025, 42003.80051181323, 5936.869196518564, 57233.85450051481, 47105.899108159436, -151614.76601538254, 41223.00937450044, 37833.63554878659, 65178.26797703123, 55202.32679871641, 11789.628778651808, 67167.3050126201, -125849.59725732771, 72061.55473727641, 52095.188450239715, 0.03, 1.018, -0.012, 192.0, 0.0, 0.0, 0.0, 0.0, 0.0, 0.0, 0.0, 0.0, 0.0, 1.696029899794413E9, 0.0, 2023-09-29 18:24:59.794
210.0, 29715.437259130154, 51866.61951143975, 41863.36450140053, 5956.7622490837875, 57178.89156089921, 47059.78745934814, -151842.7314570822, 41151.863771899196, 37805.85233042864, 65182.224235799826, 55198.30348471445, 11774.653109866753, 67178.36912612547, -125148.26657155354, 72218.95572173069, 52243.87225435642, 0.03, 1.018, -0.012, 192.0, 0.0, 0.0, 0.0, 0.0, 0.0, 0.0, 0.0, 0.0, 0.0, 1.696029899854722E9, 0.0, 2023-09-29 18:24:59.854
212.0, 29691.990279196536, 51850.16862752064, 41998.88312803306, 5936.623327329556, 57235.24030867104, 47104.84857617004, -151663.3587078284, 41218.80724654284, 37823.286691103785, 65175.51871246323, 55183.81955430741, 11793.786203120495, 67149.71418973377, -125858.7614725544, 72052.70344647211, 52078.42464189824, 0.026000000000000002, 1.02, -0.01, 192.0, 0.0, 104.0, 15.5, 112.0, 127.5, 88.0, 0.0, 0.0, 0.0, 1.696029899854745E9, 0.0, 2023-09-29 18:24:59.854
214.0, 29711.34688989483, 51864.205523038574, 41860.23525717679, 5948.693269335422, 57180.97027313356, 47053.7077848563, -151790.45072680127, 41147.14755381913, 37808.735705463376, 65198.09397436309, 55215.514327945035, 11771.792086576474, 67192.42837338787, -125100.38913493027, 72234.17725970474, 52265.262873800144, 0.026000000000000002, 1.02, -0.01, 192.0, 0.0, 0.0, 0.0, 0.0, 0.0, 0.0, 0.0, 0.0, 0.0, 1.696029899854754E9, 0.0, 2023-09-29 18:24:59.854
216.0, 29695.49950307602, 51850.8391798543, 41994.07750297517, 5936.980955240841, 57234.41329412619, 47112.671686729394, -151741.6121651664, 41214.02397322941, 37823.91253994853, 65159.984250066795, 55160.39492611825, 11787.684176884197, 67133.08449185902, -125878.52041465288, 72014.9513500871, 52055.51410383155, 0.026000000000000002, 1.02, -0.01, 192.0, 0.0, 0.0, 0.0, 0.0, 0.0, 0.0, 0.0, 0.0, 0.0, 1.696029899854758E9, 0.0, 2023-09-29 18:24:59.854
218.0, 29719.684090576662, 51873.07916558733, 41879.055426008155, 5955.756420583299, 57189.486287771026, 47070.98568332025, -151738.8629005984, 41160.37978653667, 37817.899920690055, 65205.53710526671, 55241.08472360191, 11773.33435694389, 67215.5177254102, -125090.95669877014, 72242.76032957558, 52291.34735957949, 0.026000000000000002, 1.02, -0.01, 192.0, 0.0, 0.0, 0.0, 0.0, 0.0, 0.0, 0.0, 0.0, 0.0, 1.696029899854764E9, 0.0, 2023-09-29 18:24:59.854
220.0, 29717.18069519767, 51871.045156841894, 41997.296154176736, 5957.477504906357, 57254.775733324976, 47120.18187286638, -151809.67322703282, 41223.657575089645, 37831.48978131888, 65164.56635768013, 55158.04799295044, 11796.244895010579, 67131.27400055814, -125858.22503068746, 72010.3468907293, 52063.11369694635, 0.026000000000000002, 1.02, -0.01, 192.0, 0.0, 0.0, 0.0, 0.0, 0.0, 0.0, 0.0, 0.0, 0.0, 1.696029899854769E9, 0.0, 2023-09-29 18:24:59.854
222.0, 29732.581047127373, 51883.62918897023, 41910.169054289945, 5967.312272466693, 57210.094596158815, 47084.32967476007, -151712.7560630746, 41173.05322564283, 37841.168086668025, 65229.542878811706, 55279.73088976513, 11799.86587761234, 67235.20961227531, -125129.69227191119, 72244.63787610983, 52294.18603112531, 0.032, 1.02, -0.01, 192.0, 0.5, 0.0, 15.5, 112.0, 127.5, 88.0, 0.0, 0.0, 0.0, 1.696029899854772E9, 0.0, 2023-09-29 18:24:59.854
224.0, 29723.72975632307, 51877.638921456215, 41991.752921551815, 5961.32200495267, 57255.80391356992, 47117.83493969857, -151877.9578063438, 41213.733400551486, 37831.7803539968, 65162.621755912514, 55155.07521093789, 11806.571400948931, 67131.0951866025, -125821.7469837364, 72020.18165828963, 52064.83478126941, 0.032, 1.02, -0.01, 192.0, 0.0, 0.0, 0.0, 0.0, 0.0, 0.0, 0.0, 0.0, 0.0, 1.696029899854775E9, 0.0, 2023-09-29 18:24:59.854
226.0, 29724.087384234357, 51876.63309295572, 41924.295356785704, 5950.503760636301, 57206.74183449052, 47096.17609932138, -151642.81745467396, 41181.47983330248, 37845.95135998146, 65231.979218957335, 55294.304227149994, 11797.027206066514, 67235.54488844215, -125159.8894786703, 72259.0100477946, 52300.869202717455, 0.032, 1.02, -0.01, 192.0, 0.0, 0.0, 0.0, 0.0, 0.0, 0.0, 0.0, 0.0, 0.0, 1.696029899914117E9, 0.0, 2023-09-29 18:24:59.914
228.0, 29728.69184359215, 51883.718595948056, 41972.68688353144, 5958.170408984472, 57245.09742797583, 47121.210053111325, -151910.3007805706, 41211.6770400616, 37829.701641762455, 65162.42059021242, 55145.329850355374, 11802.90571485826, 67130.15641333538, -125723.55577034423, 72049.261277826, 52086.873601302344, 0.032, 1.02, -0.01, 192.0, 0.0, 0.0, 0.0, 0.0, 0.0, 0.0, 0.0, 0.0, 0.0, 1.696029899914126E9, 0.0, 2023-09-29 18:24:59.914
230.0, 29730.25646570402, 51888.09953786129, 41934.10777260158, 5950.392001914025, 57216.77776775095, 47110.03418088367, -151601.0867477759, 41190.95697295153, 37849.840563516686, 65245.05498946369, 55301.0544539755, 11805.163241048247, 67252.06282759462, -125197.70863028869, 72256.7078181157, 52295.95181893728, 0.032, 1.02, -0.01, 192.0, 0.0, 0.0, 0.0, 0.0, 0.0, 0.0, 0.0, 0.0, 0.0, 1.69602989991413E9, 0.0, 2023-09-29 18:24:59.914
232.0, 29734.369186683798, 51890.82645068484, 41944.59074075112, 5961.031432274751, 57237.07315171637, 47122.104122889534, -151968.05768824313, 41207.385505126185, 37830.21573188493, 65174.40112524047, 55144.12285615478, 11812.271095785034, 67121.1933638088, -125645.36936823957, 72053.61986799477, 52100.26229623107, 0.03, 1.022, -0.012, 192.0, 0.0, 120.0, 15.5, 120.0, 127.5, 80.0, 0.0, 0.0, 0.0, 1.696029899914133E9, 0.0, 2023-09-29 18:24:59.914
234.0, 29712.68799456215, 51873.50384873198, 41938.44401102591, 5933.114103450072, 57197.91289543067, 47105.56383199261, -151537.04899991144, 41193.90740321963, 37850.80168852826, 65252.92280351196, 55305.12247146636, 11804.805613136961, 67249.20180430435, -125256.60547692842, 72240.07812024094, 52281.26672283014, 0.03, 1.022, -0.012, 192.0, 0.0, 0.0, 0.0, 0.0, 0.0, 0.0, 0.0, 0.0, 0.0, 1.696029899914136E9, 0.0, 2023-09-29 18:24:59.914
236.0, 29728.110698236313, 51886.82548842734, 41905.22931876533, 5962.260778219793, 57225.09261668833, 47109.050704127636, -151972.25981620073, 41189.03472292837, 37810.65795548653, 65159.87249134452, 55126.64379199073, 11794.657921154252, 67112.18561079331, -125488.54952914114, 72074.25052812703, 52116.020276072064, 0.03, 1.022, -0.012, 192.0, 0.0, 0.0, 0.0, 0.0, 0.0, 0.0, 0.0, 0.0, 0.0, 1.696029899914139E9, 0.0, 2023-09-29 18:24:59.914
238.0, 29719.03588998746, 51881.46106975807, 41966.87542997306, 5954.303557193703, 57229.048875456916, 47123.89226244596, -151537.7195522451, 41213.26401391793, 37853.79682228527, 65245.03263771923, 55289.967988725664, 11808.918334116737, 67234.62846691949, -125339.70926281325, 72194.30174759647, 52238.19491126477, 0.03, 1.022, -0.012, 192.0, 0.0, 0.0, 0.0, 0.0, 0.0, 0.0, 0.0, 0.0, 0.0, 1.696029899914142E9, 0.0, 2023-09-29 18:24:59.914
240.0, 29734.302131450433, 51894.71565422007, 41910.83960662361, 5979.382214472558, 57225.8078725109, 47112.537576262665, -152003.41814797142, 41189.63822002867, 37824.24781611536, 65178.580901453606, 55143.63111777677, 11805.72203465963, 67120.61221845297, -125396.08036232954, 72097.58574933837, 52145.83750317544, 0.03, 1.022, -0.012, 192.0, 0.0, 0.0, 0.0, 0.0, 0.0, 0.0, 0.0, 0.0, 0.0, 1.696029899974455E9, 0.0, 2023-09-29 18:24:59.974
242.0, 29718.83472428736, 51882.95863663658, 41996.49149137634, 5957.946891539918, 57230.52409059097, 47126.77563748069, -151538.65832551222, 41228.977290270006, 37862.424595645025, 65250.12883545504, 55289.766823025566, 11816.205002809169, 67244.95497285783, -125435.26297035969, 72178.34260205539, 52228.158978004336, 0.026000000000000002, 1.024, -0.012, 192.0, 0.0, 104.0, 16.0, 0.0, 127.5, 80.0, 0.0, 0.0, 0.0, 1.696029899974467E9, 0.0, 2023-09-29 18:24:59.974
244.0, 29737.207858229624, 51898.51545077747, 41908.11269380006, 5986.624179676078, 57212.41917758217, 47103.70863720282, -151991.6834821324, 41194.73441776448, 37829.634586529086, 65188.86270390305, 55161.2219406631, 11803.173935791725, 67139.43238728432, -125278.26431730561, 72139.09293879187, 52187.814079262505, 0.026000000000000002, 1.024, -0.012, 192.0, 0.0, 0.0, 0.0, 0.0, 0.0, 0.0, 0.0, 0.0, 0.0, 1.69602989997447E9, 0.0, 2023-09-29 18:24:59.974
246.0, 29717.73948880905, 51883.09274710331, 42023.11241902261, 5971.6708626354775, 57243.82337854188, 47144.99230921177, -151560.94301473416, 41253.92183708213, 37868.03488350331, 65244.51854759677, 55273.18182863973, 11818.082549343413, 67232.25918200723, -125517.71855565532, 72152.9286686097, 52200.77809104659, 0.026000000000000002, 1.024, -0.012, 192.0, 0.0, 0.0, 0.0, 0.0, 0.0, 0.0, 0.0, 0.0, 0.0, 1.696029899974473E9, 0.0, 2023-09-29 18:24:59.974
248.0, 29740.69473036465, 51896.727311221046, 41911.66662116845, 6004.013836862307, 57202.80792746639, 47108.17898609388, -151998.4337089579, 41202.64693530166, 37831.7803539968, 65198.004567385266, 55176.46583038162, 11804.559743947953, 67165.31570736358, -125191.80776975249, 72159.07539833491, 52210.83637605148, 0.026000000000000002, 1.024, -0.012, 192.0, 0.0, 0.0, 0.0, 0.0, 0.0, 0.0, 0.0, 0.0, 0.0, 1.696029899974477E9, 0.0, 2023-09-29 18:24:59.974
250.0, 29721.74045106655, 51881.57282848035, 42048.101669323645, 5987.719415154388, 57238.72718080607, 47149.90969299194, -151600.5279541645, 41265.947075599084, 37870.65003760458, 65234.90729748098, 55271.08076466093, 11820.541241233497, 67213.99780678723, -125603.57160610815, 72116.18240072519, 52162.66836675029, 0.026000000000000002, 1.024, -0.012, 192.0, 0.0, 0.0, 0.0, 0.0, 0.0, 0.0, 0.0, 0.0, 0.0, 1.69602989997448E9, 0.0, 2023-09-29 18:24:59.974
252.0, 29738.616018130306, 51895.945000165106, 41922.59662420709, 6014.362694545114, 57192.5484767614, 47102.79221568015, -151961.79919979564, 41199.20476665554, 37832.11563016363, 65201.20086684238, 55198.795223092464, 11806.280828271012, 67173.47409408976, -125097.84103606237, 72186.1433608703, 52236.272661241615, 0.03, 1.02, -0.016, 192.0, 0.0, 120.0, 15.5, 112.0, 127.5, 64.0, 0.0, 0.0, 0.0, 1.696029899974483E9, 0.0, 2023-09-29 18:24:59.974
254.0, 29725.093212734846, 51889.12771810624, 42078.857669694145, 6008.215964819904, 57252.94289027964, 47156.05642271715, -151633.20620455817, 41269.12102331174, 37867.185517214006, 65231.86746023506, 55247.03028762702, 11828.677276215229, 67192.27191117668, -125654.22065904387, 72085.78402826596, 52140.02604961706, 0.03, 1.02, -0.016, 192.0, 0.0, 0.0, 0.0, 0.0, 0.0, 0.0, 0.0, 0.0, 0.0, 1.696029899974486E9, 0.0, 2023-09-29 18:24:59.974
0.0, 29749.747186869048, 51909.98189568304, 41945.84243844062, 6037.563805289723, 57199.16459312017, 47110.52591926169, -151917.96742891878, 41207.07258070381, 37842.88917099109, 65225.22899213183, 55222.443368726184, 11812.852241140872, 67210.95796954131, -125002.01910758247, 72210.26089313757, 52276.97518789473, 0.03, 1.02, -0.016, 192.0, 0.0, 0.0, 0.0, 0.0, 0.0, 0.0, 0.0, 0.0, 0.0, 1.696029900034704E9, 0.0, 2023-09-29 18:25:00.034
2.0, 29731.463459904608, 51894.2462675865, 42103.824568250726, 6026.343229573158, 57254.03812575795, 47165.600617599564, -151686.49276333963, 41278.97814261653, 37876.2379737184, 65231.48748057932, 55239.96713637914, 11841.551881021487, 67202.41960315939, -125693.78324672977, 72052.27876332746, 52125.69858142121, 0.03, 1.02, -0.016, 192.0, 0.0, 0.0, 0.0, 0.0, 0.0, 0.0, 0.0, 0.0, 0.0, 1.696029900034713E9, 0.0, 2023-09-29 18:25:00.034
4.0, 29743.64516063275, 51905.93622993663, 41964.841421227626, 6045.096343171161, 57192.637883739226, 47105.85440467053, -151845.54777688358, 41199.24947014445, 37843.29150239128, 65238.550631827195, 55245.085685859405, 11814.796842908483, 67224.50312668123, -124936.68495853961, 72234.62429459386, 52308.558202810076, 0.03, 1.02, -0.016, 192.0, 0.0, 0.0, 0.0, 0.0, 0.0, 0.0, 0.0, 0.0, 0.0, 1.696029900034717E9, 0.0, 2023-09-29 18:25:00.034
6.0, 29729.764727326005, 51895.72148272055, 42100.80708274926, 6038.457875067935, 57249.70188733362, 47157.44223087338, -151723.68606611324, 41268.9422093561, 37862.715168322946, 65225.22899213183, 55205.76896736252, 11835.651020485286, 67178.8608645035, -125676.63945873255, 72041.9075539002, 52120.46827321867, 0.03, 1.02, -0.014, 192.0, 0.0, 120.0, 15.5, 112.0, 127.5, 72.0, 0.0, 0.0, 0.0, 1.696029900034721E9, 0.0, 2023-09-29 18:25:00.034
