%OpenBCI Raw EXG Data
%Number of channels = 16
%Sample Rate = 125 Hz
%Board = OpenBCI_GUI$BoardCytonSerialDaisy
Sample Index, EXG Channel 0, EXG Channel 1, EXG Channel 2, EXG Channel 3, EXG Channel 4, EXG Channel 5, EXG Channel 6, EXG Channel 7, EXG Channel 8, EXG Channel 9, EXG Channel 10, EXG Channel 11, EXG Channel 12, EXG Channel 13, EXG Channel 14, EXG Channel 15, Accel Channel 0, Accel Channel 1, Accel Channel 2, Other, Other, Other, Other, Other, Other, Other, Analog Channel 0, Analog Channel 1, Analog Channel 2, Timestamp, Other, Timestamp (Formatted)
0.0, 30016.962291832246, 51803.47583335351, 41672.45825200775, 5897.284257088216, 57019.76949212188, 46904.93457376178, -146213.62342996878, 41086.931954256535, 0.0, 0.0, 0.0, 0.0, 0.0, 0.0, 0.0, 0.0, 0.0, 0.0, 0.0, 192.0, 0.0, 0.0, 0.0, 0.0, 0.0, 0.0, 0.0, 0.0, 0.0, 1.696029881478733E9, 0.0, 2023-09-29 18:24:41.478
240.0, 30003.439486436786, 51790.06478668032, 41817.20814910033, 5883.672044714934, 57083.561370797324, 46942.5302079356, -146168.4505544246, 41141.22434153847, 37743.20039072042, 64928.75545367664, 55112.13750983924, 11771.210941220636, 66994.0119378581, -128887.98163985988, 71827.06258619578, 51516.8594142031, 0.0, 0.0, 0.0, 192.0, 0.0, 0.0, 0.0, 0.0, 0.0, 0.0, 0.0, 0.0, 0.0, 1.696029881478742E9, 0.0, 2023-09-29 18:24:41.478
242.0, 30003.238320736687, 51789.23777213547, 41682.09185386799, 5879.313454546149, 57019.30010548831, 46884.572134562986, -146134.76647553046, 41073.81148026127, 37733.56678886018, 64955.30932608955, 55204.09258652837, 11747.004001975538, 67083.21774997923, -128118.94752013059, 72074.22817638257, 51730.251518517915, 0.0, 0.0, 0.0, 192.0, 0.0, 0.0, 0.0, 0.0, 0.0, 0.0, 0.0, 0.0, 0.0, 1.696029881478745E9, 0.0, 2023-09-29 18:24:41.478
244.0, 29991.481303153196, 51776.407870818126, 41796.0633988456, 5880.565152235646, 57080.02979517339, 46932.941309564274, -146223.50290101802, 41136.99986183642, 37732.62801559306, 64905.68845339876, 55082.09676529131, 11754.13420845678, 66984.89242612034, -128876.29167750975, 71814.92558895655, 51496.74284419332, 0.029, 0.512, 0.006, 192.0, 0.5, 104.0, 16.0, 0.0, 0.0, 48.0, 0.0, 0.0, 0.0, 1.696029881478749E9, 0.0, 2023-09-29 18:24:41.478
246.0, 29996.84572182247, 51781.74993774294, 41688.61856324894, 5879.089937101596, 57020.41769271108, 46897.08911145796, -146065.20784678555, 41080.24878266439, 37727.26359692378, 64947.28504983009, 55206.014836551534, 11729.234365133569, 67102.19438102179, -128131.93388365912, 72083.59355730934, 51732.017306329886, 0.029, 0.512, 0.006, 192.0, 0.0, 0.0, 0.0, 0.0, 0.0, 0.0, 0.0, 0.0, 0.0, 1.696029881478752E9, 0.0, 2023-09-29 18:24:41.478
248.0, 30008.26746323913, 51792.99286520397, 41781.467709716286, 5901.776957723732, 57079.6721672621, 46956.74591740918, -146274.91191326524, 41136.9104548586, 37733.790306304734, 64904.14618303135, 55070.8985413192, 11758.13517071428, 66973.22481551467, -128833.5551421112, 71830.23653390844, 51504.92358266396, 0.029, 0.512, 0.006, 192.0, 0.0, 0.0, 0.0, 0.0, 0.0, 0.0, 0.0, 0.0, 0.0, 1.696029881478755E9, 0.0, 2023-09-29 18:24:41.478
250.0, 30016.17998077631, 51801.575935074805, 41719.15104617489, 5912.3269811066375, 57039.97546910948, 46931.51079791913, -146029.6238696127, 41105.84153006572, 37758.86896358358, 64985.99827122668, 55238.91660438974, 11758.76101955903, 67122.2438957982, -128185.5557186074, 72082.87830148677, 51728.97746908396, 0.029, 0.512, 0.006, 192.0, 0.0, 0.0, 0.0, 0.0, 0.0, 0.0, 0.0, 0.0, 0.0, 1.696029881478758E9, 0.0, 2023-09-29 18:24:41.478
252.0, 30018.45985871075, 51807.990885733474, 41789.089654575546, 5928.375533625547, 57086.48944932097, 46967.85473440346, -146351.26547232457, 41146.1640770631, 37747.40251867801, 64924.46391874122, 55072.95490180909, 11779.436383180187, 66982.16551329679, -128810.19756915541, 71840.67479856906, 51512.09849263412, 0.029, 0.512, 0.006, 192.0, 0.0, 0.0, 0.0, 0.0, 0.0, 0.0, 0.0, 0.0, 0.0, 1.696029881478761E9, 0.0, 2023-09-29 18:24:41.478
254.0, 30019.577445933515, 51810.06959796782, 41760.36766295048, 5920.731237021832, 57057.566291995805, 46947.53699869359, -145968.6036072497, 41118.98435580544, 37762.82522235218, 65001.46567838975, 55264.77757272453, 11781.246874481069, 67143.92508791985, -128249.68287344968, 72101.85493252933, 51757.34183279775, 0.0485, 0.767, 0.009000000000000001, 192.0, 1.0, 16.0, 15.5, 120.0, 0.0, 48.0, 0.0, 0.0, 0.0, 1.696029881478765E9, 0.0, 2023-09-29 18:24:41.478
0.0, 15005.888343559307, 25896.105277074013, 20975.324031749253, 3013.1939665310347, 28568.636306361714, 23498.523056331047, -73667.68403860141, 20602.742803423742, 18876.31641344028, 32467.048760300728, 27544.412320186177, 5902.402806568481, 33489.931641808944, -64528.16748954863, 35900.142598169165, 25744.20282175575, 0.06, 1.024, 0.004, 192.0, 0.5, 112.0, 16.0, 0.0, 0.0, 16.0, 0.0, 0.0, 0.0, 1.696029881640667E9, 0.0, 2023-09-29 18:24:41.640
2.0, 30002.21014049174, 51785.46032732252, 41916.047563081695, 6009.490014253857, 57100.68280705009, 46976.25899031866, -146945.06191552425, 41183.29032460336, 37768.6143241661, 65045.23039403324, 55245.8903486598, 11786.745403617073, 67104.56366593405, -124949.55956334587, 72048.18839409214, 51807.00740897744, 0.06, 1.024, 0.004, 192.0, 0.0, 0.0, 0.0, 0.0, 0.0, 0.0, 0.0, 0.0, 0.0, 1.696029881640678E9, 0.0, 2023-09-29 18:24:41.640
4.0, 30019.443335466785, 51796.90442048365, 41860.57053334362, 6030.2547848528375, 57105.35432164125, 46956.45534473126, -147417.10840667586, 41153.406042266615, 37737.70186158441, 64969.70384951876, 55084.55545718139, 11776.821229078918, 66981.31614700748, -125036.61960799928, 71932.76398572493, 51694.33226517824, 0.06, 1.024, 0.004, 192.0, 0.0, 0.0, 0.0, 0.0, 0.0, 0.0, 0.0, 0.0, 0.0, 1.696029881640682E9, 0.0, 2023-09-29 18:24:41.640
6.0, 30004.735887615192, 51788.09783316825, 41938.891045915014, 6013.848604422642, 57120.687618337586, 46984.73030146722, -146951.186293505, 41184.094987403754, 37774.22461202438, 65040.357713741985, 55227.91954611773, 11785.449002438665, 67092.11374427244, -125057.78670999846, 72013.67730065314, 51775.983187673475, 0.06, 1.024, 0.004, 192.0, 0.0, 0.0, 0.0, 0.0, 0.0, 0.0, 0.0, 0.0, 0.0, 1.696029881640685E9, 0.0, 2023-09-29 18:24:41.640
8.0, 30024.383070991407, 51802.09002519727, 41851.160448927934, 6039.687221012977, 57103.18620242908, 46958.84698138797, -147422.78574976753, 41150.94735037653, 37738.685338340445, 64976.878759488915, 55093.76437589698, 11779.346976202367, 66992.73788842415, -124956.57801110484, 71954.89221273568, 51720.64026840214, 0.056, 1.022, -0.004, 192.0, 0.5, 96.0, 15.5, 120.0, 127.5, 112.0, 0.0, 0.0, 0.0, 1.696029881640688E9, 0.0, 2023-09-29 18:24:41.640
10.0, 30003.439486436786, 51788.54486805736, 41955.6548542565, 6018.587174247167, 57120.70997008205, 46997.35903708447, -146961.42339246554, 41199.607098055734, 37773.55405969072, 65036.33439974003, 55217.190708779184, 11790.880476341305, 67098.05930829755, -125168.98663866361, 71987.995146274, 51756.78303918637, 0.056, 1.022, -0.004, 192.0, 0.0, 0.0, 0.0, 0.0, 0.0, 0.0, 0.0, 0.0, 0.0, 1.696029881640691E9, 0.0, 2023-09-29 18:24:41.640
12.0, 30025.724175658725, 51806.940353744074, 41838.08467842158, 6045.588081549177, 57100.3251791388, 46970.64870246038, -147419.32122937695, 41159.95510339202, 37737.70186158441, 64989.21692242825, 55104.13558532424, 11783.727918115606, 67016.40838580232, -124873.22835603099, 71988.12925674072, 51762.88506542266, 0.056, 1.022, -0.004, 192.0, 0.0, 0.0, 0.0, 0.0, 0.0, 0.0, 0.0, 0.0, 0.0, 1.696029881640695E9, 0.0, 2023-09-29 18:24:41.640
14.0, 29998.767971845624, 51783.78394648838, 41969.98232245235, 6014.027418378284, 57133.91985105513, 47009.563089557065, -147013.45825355747, 41225.44571464607, 37771.18477477846, 65029.047731047605, 55192.8273073229, 11799.86587761234, 67075.97578477571, -125302.04657340606, 71948.52196556592, 51721.959021325, 0.056, 1.022, -0.004, 192.0, 0.0, 0.0, 0.0, 0.0, 0.0, 0.0, 0.0, 0.0, 0.0, 1.696029881640698E9, 0.0, 2023-09-29 18:24:41.640
16.0, 30018.996300577677, 51796.41268210563, 41824.98655617077, 6035.95447968894, 57090.46805983401, 46955.449516230765, -147371.75671717606, 41150.20974280951, 37724.55903584469, 64975.068268188035, 55115.982009885556, 11765.533598128986, 67034.08861566646, -124785.98949742194, 72027.89301012672, 51796.85971699473, 0.056, 1.022, -0.004, 192.0, 0.0, 0.0, 0.0, 0.0, 0.0, 0.0, 0.0, 0.0, 0.0, 1.696029881700961E9, 0.0, 2023-09-29 18:24:41.700
18.0, 30002.433657936297, 51786.19793488955, 41966.89778171752, 6018.162491102516, 57133.69633361058, 47001.8964412089, -147062.22975995895, 41214.47100811851, 37768.23434451036, 65003.76790806865, 55169.96147274512, 11796.602522921863, 67058.29555491157, -125368.00657129366, 71913.94381689356, 51689.81721279827, 0.048, 1.024, 0.0, 192.0, 0.5, 64.0, 16.0, 0.0, 0.0, 0.0, 0.0, 0.0, 0.0, 1.696029881700971E9, 0.0, 2023-09-29 18:24:41.700
20.0, 30025.835934381, 51804.54871708736, 41828.94281493936, 6038.659040768032, 57094.603132558244, 46953.4825627187, -147342.6323941508, 41141.939597361044, 37737.8583237956, 64994.46958237524, 55141.44064682015, 11779.168162246724, 67057.55794734454, -124748.57267720375, 72030.68697818363, 51818.87618528321, 0.048, 1.024, 0.0, 192.0, 0.0, 0.0, 0.0, 0.0, 0.0, 0.0, 0.0, 0.0, 0.0, 1.696029881700975E9, 0.0, 2023-09-29 18:24:41.700
22.0, 30004.199445748265, 51785.92971395609, 41975.72672077736, 6014.832081178675, 57138.658420879656, 47002.41053133137, -147090.4153097171, 41213.107551706744, 37766.490908442844, 65008.95351278228, 55158.87500749529, 11798.18949677819, 67047.63377280638, -125423.88593243193, 71887.03231656937, 51677.680215559034, 0.048, 1.024, 0.0, 192.0, 0.0, 0.0, 0.0, 0.0, 0.0, 0.0, 0.0, 0.0, 0.0, 1.696029881700978E9, 0.0, 2023-09-29 18:24:41.700
24.0, 30022.304358757065, 51804.25814440944, 41827.37819282749, 6027.349058073647, 57084.34368185326, 46952.96847259623, -147266.54705602492, 41141.09023107174, 37737.52304762877, 65018.38594894242, 55166.943987243656, 11776.575359889908, 67063.2799939251, -124676.10832167964, 72068.70729550211, 51848.40283970867, 0.048, 1.024, 0.0, 192.0, 0.0, 0.0, 0.0, 0.0, 0.0, 0.0, 0.0, 0.0, 0.0, 1.696029881700982E9, 0.0, 2023-09-29 18:24:41.700
26.0, 30014.771820875627, 51794.579839060294, 41968.97649395186, 6024.309220827726, 57145.52040642744, 47013.96638321476, -147185.90196203018, 41214.44865637406, 37765.48507994236, 65002.67267259034, 55140.03248691947, 11805.073834070425, 67039.14010991337, -125458.39702587093, 71864.56881339179, 51635.99421214989, 0.048, 1.024, 0.0, 192.0, 0.0, 0.0, 0.0, 0.0, 0.0, 0.0, 0.0, 0.0, 0.0, 1.696029881700985E9, 0.0, 2023-09-29 18:24:41.700
28.0, 30020.18094303381, 51797.73143502849, 41835.46952432031, 6022.766950460309, 57085.26010337593, 46957.75174590966, -147239.0991138338, 41152.064937599294, 37752.23049548036, 65027.371350213456, 55195.28599921298, 11784.152601260257, 67095.15358151836, -124714.19569423149, 72062.44880705462, 51840.847950082774, 0.044, 1.02, 0.006, 192.0, 0.5, 48.0, 15.5, 112.0, 0.0, 24.0, 0.0, 0.0, 0.0, 1.696029881700988E9, 0.0, 2023-09-29 18:24:41.700
30.0, 30016.448201709773, 51797.642028050665, 41949.86575244257, 6024.644496994555, 57137.965516801545, 47008.02081918965, -147240.37316326777, 41215.610947085734, 37762.445242696434, 64993.12847770793, 55127.42610304667, 11805.923200359726, 67019.20235385923, -125472.94801151134, 71857.01392376589, 51636.19537784999, 0.044, 1.02, 0.006, 192.0, 0.0, 0.0, 0.0, 0.0, 0.0, 0.0, 0.0, 0.0, 0.0, 1.696029881760336E9, 0.0, 2023-09-29 18:24:41.760
32.0, 30030.2392280387, 51807.94618224457, 41837.525884810195, 6026.43263655098, 57085.9753591985, 46968.2347140592, -147204.006875039, 41163.10669936022, 37760.008902550806, 65037.0496555626, 55215.84960411186, 11793.205057764657, 67094.12540127343, -124720.76710710135, 72080.53136831896, 51869.45818298557, 0.044, 1.02, 0.006, 192.0, 0.0, 0.0, 0.0, 0.0, 0.0, 0.0, 0.0, 0.0, 0.0, 1.696029881760347E9, 0.0, 2023-09-29 18:24:41.760
34.0, 30020.583274434004, 51798.75961527343, 41940.18744709343, 6020.732941714877, 57141.5864994033, 47007.57378430054, -147322.04643750747, 41216.10268546375, 37762.64640839653, 64982.35493688047, 55112.3610272838, 11806.660807926752, 67002.1703245843, -125487.29783145164, 71847.82735679476, 51631.03212488081, 0.044, 1.02, 0.006, 192.0, 0.0, 0.0, 0.0, 0.0, 0.0, 0.0, 0.0, 0.0, 0.0, 1.696029881760351E9, 0.0, 2023-09-29 18:24:41.760
36.0, 30017.297567999074, 51800.81597576332, 41854.20028617386, 6016.866089924109, 57085.70713826503, 46967.407699514355, -147125.5299002564, 41159.061033613805, 37760.45593743991, 65035.887364850925, 55228.56774670693, 11784.934912316194, 67106.86589561295, -124759.68149419803, 72094.72472604808, 51875.42609875514, 0.044, 1.02, 0.006, 192.0, 0.0, 0.0, 0.0, 0.0, 0.0, 0.0, 0.0, 0.0, 0.0, 1.696029881760356E9, 0.0, 2023-09-29 18:24:41.760
38.0, 30026.08180357001, 51809.91313575663, 41923.20012130739, 6027.5725755182, 57139.97717380252, 47002.05290342008, -147366.77227816253, 41199.115359677715, 37752.29755071372, 64978.10810543396, 55097.27359977646, 11807.510174216053, 66993.31903377999, -125431.3067115911, 71862.06541801279, 51637.759999961854, 0.044, 1.022, 0.008, 192.0, 0.5, 48.0, 15.5, 120.0, 0.0, 32.0, 0.0, 0.0, 0.0, 1.696029881760359E9, 0.0, 2023-09-29 18:24:41.760
40.0, 30021.097364556477, 51803.85581300924, 41869.37712065901, 6007.791281675253, 57100.77221402791, 46966.89360939188, -147087.55428642684, 41166.682978473065, 37766.155632276015, 65051.86886213647, 55241.241185813094, 11791.57338041942, 67114.91252361686, -124823.62983508466, 72093.18245568067, 51865.63603468371, 0.044, 1.022, 0.008, 192.0, 0.0, 0.0, 0.0, 0.0, 0.0, 0.0, 0.0, 0.0, 0.0, 1.696029881760363E9, 0.0, 2023-09-29 18:24:41.760
42.0, 30021.32088200103, 51804.436958365084, 41900.311934985155, 6016.083778868173, 57136.5350051564, 46984.6408944894, -147399.4952320451, 41190.4205310846, 37748.85538206761, 64970.82143674153, 55089.98693108403, 11796.446060710676, 66996.3588710259, -125361.94924854628, 71887.00996482492, 51660.2458548839, 0.044, 1.022, 0.008, 192.0, 0.0, 0.0, 0.0, 0.0, 0.0, 0.0, 0.0, 0.0, 0.0, 1.696029881760366E9, 0.0, 2023-09-29 18:24:41.760
44.0, 30014.011861564144, 51798.8266705068, 41876.66378935144, 6001.398682761036, 57111.12107171072, 46976.638969974396, -147070.83518157425, 41178.95408617903, 37770.827146867174, 65045.38685624443, 55240.95061313517, 11798.18949677819, 67115.06898582804, -124914.06499315084, 72075.0104874385, 51855.10836304526, 0.044, 1.022, 0.008, 192.0, 0.0, 0.0, 0.0, 0.0, 0.0, 0.0, 0.0, 0.0, 0.0, 1.696029881760369E9, 0.0, 2023-09-29 18:24:41.760
46.0, 30019.152762788864, 51803.56524033132, 41874.49567013927, 6011.5910782326555, 57124.75563582846, 46982.56218225505, -147452.558273382, 41181.502185046935, 37745.41321342149, 64965.65818377235, 55080.35332922379, 11795.596694421374, 66988.22283604418, -125308.55093104256, 71896.12947656268, 51680.58594233823, 0.044, 1.022, 0.008, 192.0, 0.0, 0.0, 0.0, 0.0, 0.0, 0.0, 0.0, 0.0, 0.0, 1.696029881820187E9, 0.0, 2023-09-29 18:24:41.820
48.0, 30007.283986483097, 51795.071577438306, 41891.19242324739, 5989.485202966357, 57111.54575485537, 46978.605923486466, -147034.78181776786, 41182.66447575861, 37767.87671659907, 65045.900946366906, 55237.21787181114, 11793.138002531292, 67118.39939575188, -125018.7605641795, 72054.20101335061, 51857.902331102174, 0.048, 1.024, 0.0, 192.0, 0.5, 64.0, 16.0, 0.0, 0.0, 0.0, 0.0, 0.0, 0.0, 1.696029881820199E9, 0.0, 2023-09-29 18:24:41.820
50.0, 30021.924379101325, 51808.03558922239, 41851.07104195011, 6013.982714889374, 57118.89947878117, 46978.315350808545, -147485.99648308713, 41171.84623144224, 37744.362681432096, 64977.19168391129, 55083.48257344754, 11792.221581008624, 66987.2617110326, -125221.98262476714, 71914.90494190514, 51716.773416611366, 0.048, 1.024, 0.0, 192.0, 0.0, 0.0, 0.0, 0.0, 0.0, 0.0, 0.0, 0.0, 0.0, 1.696029881820203E9, 0.0, 2023-09-29 18:24:41.820
52.0, 29997.27040496712, 51786.15323140064, 41903.888214098006, 5983.673749407977, 57112.95391475605, 46985.19968810078, -147028.9033089761, 41184.07263565929, 37766.55796367621, 65044.24691727721, 55232.21108105315, 11796.28959849949, 67092.583130906, -125134.47554522462, 72031.64810319521, 51823.99473476347, 0.048, 1.024, 0.0, 192.0, 0.0, 0.0, 0.0, 0.0, 0.0, 0.0, 0.0, 0.0, 0.0, 1.696029881820206E9, 0.0, 2023-09-29 18:24:41.820
54.0, 30014.70476564226, 51800.927734485595, 41833.79314348616, 6009.422959020491, 57110.71874031052, 46972.101565849975, -147481.52613419606, 41164.96189415001, 37726.2577684233, 64964.60765178295, 55081.359157724284, 11784.867857082827, 66991.84381864594, -125124.84194336439, 71954.78045401341, 51737.69464942154, 0.048, 1.024, 0.0, 192.0, 0.0, 0.0, 0.0, 0.0, 0.0, 0.0, 0.0, 0.0, 0.0, 1.696029881820209E9, 0.0, 2023-09-29 18:24:41.820
56.0, 30000.243186979675, 51787.24846687895, 41909.81142637866, 5982.600865674122, 57117.401911902656, 46991.05584514807, -147028.79155025384, 41199.741208522464, 37753.59395189214, 65032.57930667154, 55213.61442966633, 11794.076775798414, 67081.25079646717, -125220.90974103329, 72021.83568737932, 51797.038530950376, 0.048, 1.024, 0.0, 192.0, 0.0, 0.0, 0.0, 0.0, 0.0, 0.0, 0.0, 0.0, 0.0, 1.696029881820213E9, 0.0, 2023-09-29 18:24:41.820
58.0, 30024.450126224772, 51806.2250979215, 41821.63379450247, 6010.629953221078, 57103.208554173536, 46967.45240300327, -147483.04605281903, 41164.96189415001, 37728.761163802286, 64977.48225658921, 55097.56417245438, 11783.213827993135, 67005.27721706357, -125042.45341330212, 71989.11273349676, 51766.90837942462, 0.046, 1.022, 0.008, 192.0, 0.5, 56.0, 15.5, 120.0, 0.0, 32.0, 0.0, 0.0, 0.0, 1.696029881820216E9, 0.0, 2023-09-29 18:24:41.820
60.0, 30002.32189921402, 51784.05216742184, 41928.92216788795, 5983.6513976635215, 57131.61762137624, 46995.77206322814, -147061.49215239193, 41211.76644703942, 37764.52395493078, 65024.555030412084, 55210.01579880903, 11795.931970588204, 67081.40725867836, -125338.2340476792, 71998.32165221234, 51772.49631553845, 0.046, 1.022, 0.008, 192.0, 0.0, 0.0, 0.0, 0.0, 0.0, 0.0, 0.0, 0.0, 0.0, 1.696029881880358E9, 0.0, 2023-09-29 18:24:41.880
62.0, 30027.735832659702, 51806.314504899325, 41813.65422173193, 6006.360770030114, 57107.36597864223, 46963.227923301216, -147468.58447415644, 41157.116431846196, 37737.8583237956, 64982.24317815819, 55118.53010875346, 11780.755136103051, 67016.9671794137, -124972.51480490147, 72026.30603627038, 51799.65368505164, 0.046, 1.022, 0.008, 192.0, 0.0, 0.0, 0.0, 0.0, 0.0, 0.0, 0.0, 0.0, 0.0, 1.696029881880371E9, 0.0, 2023-09-29 18:24:41.880
64.0, 30002.567768403027, 51787.360225601224, 41941.774420949754, 5980.209229017405, 57136.35619120076, 47001.85173771998, -147094.6174376747, 41211.81115052833, 37765.529783431266, 65018.47535592024, 55194.63779862378, 11798.323607244922, 67063.95054625875, -125440.47092681777, 71979.88146303671, 51740.958004112006, 0.046, 1.022, 0.008, 192.0, 0.0, 0.0, 0.0, 0.0, 0.0, 0.0, 0.0, 0.0, 0.0, 1.696029881880374E9, 0.0, 2023-09-29 18:24:41.880
66.0, 30024.874809369423, 51805.46513861002, 41811.44139903085, 6002.203345561426, 57095.89953373666, 46954.44368773028, -147418.62832529884, 41142.1631148056, 37739.19942846292, 64994.55898935306, 55138.64667876324, 11779.548141902464, 67046.47148209471, -124890.90858589514, 72076.19512989464, 51838.411609937146, 0.046, 1.022, 0.008, 192.0, 0.0, 0.0, 0.0, 0.0, 0.0, 0.0, 0.0, 0.0, 0.0, 1.696029881880378E9, 0.0, 2023-09-29 18:24:41.880
68.0, 30000.511407913138, 51788.94719945755, 41952.123278632556, 5979.13634528355, 57144.60398490477, 47005.092740666005, -147129.01677239142, 41212.39229588417, 37773.95639109092, 65013.35680643998, 55179.59507460536, 11802.4363282247, 67056.01567697713, -125512.68941315287, 71962.91648899514, 51716.32638172226, 0.048, 1.018, 0.016, 192.0, 0.5, 64.0, 15.5, 104.0, 0.0, 64.0, 0.0, 0.0, 0.0, 1.696029881880381E9, 0.0, 2023-09-29 18:24:41.880
70.0, 30019.55509418906, 51802.470004853014, 41800.64550645894, 5996.213078047404, 57088.76932725541, 46957.63998718739, -147372.1814003207, 41142.58779795025, 37736.18194296145, 65001.420974900844, 55155.9692807161, 11771.926197043205, 67057.06620896653, -124833.17402996708, 72106.66055758722, 51861.635072426216, 0.048, 1.018, 0.016, 192.0, 0.0, 0.0, 0.0, 0.0, 0.0, 0.0, 0.0, 0.0, 0.0, 1.696029881880384E9, 0.0, 2023-09-29 18:24:41.880
72.0, 30004.534721915094, 51788.9248477131, 41943.29433957271, 5977.4823161938575, 57140.334801713805, 47010.188938401814, -147197.7036831026, 41214.49335986297, 37765.84270785364, 65004.72903308023, 55150.96248995811, 11795.283769999001, 67039.56479305802, -125570.58043129211, 71931.31112233533, 51686.24093368542, 0.048, 1.018, 0.016, 192.0, 0.0, 0.0, 0.0, 0.0, 0.0, 0.0, 0.0, 0.0, 0.0, 1.696029881880388E9, 0.0, 2023-09-29 18:24:41.880
74.0, 30019.175114533322, 51799.65368505164, 41795.728122678775, 5988.658188421511, 57080.45447831804, 46955.36010925294, -147330.29423121148, 41143.548922961825, 37743.98270177635, 65014.38498668492, 55179.1256879718, 11777.067098267926, 67078.05449701006, -124827.49668687543, 72119.93749379367, 51868.25118878498, 0.048, 1.018, 0.016, 192.0, 0.0, 0.0, 0.0, 0.0, 0.0, 0.0, 0.0, 0.0, 0.0, 1.696029881880391E9, 0.0, 2023-09-29 18:24:41.880
76.0, 30004.780591104103, 51789.17071690211, 41931.38085977803, 5974.8448103481305, 57129.69537135308, 47004.98098194373, -147234.56170970938, 41207.96665048202, 37760.32182697318, 64986.4900096047, 55131.44941704863, 11795.641397910285, 67022.35394982743, -125590.0935042016, 71927.51132577793, 51668.98538696592, 0.048, 1.018, 0.016, 192.0, 0.0, 0.0, 0.0, 0.0, 0.0, 0.0, 0.0, 0.0, 0.0, 1.696029881940732E9, 0.0, 2023-09-29 18:24:41.940
78.0, 30026.12650705892, 51805.19691767656, 41807.395733284444, 5983.092604052139, 57084.99188244247, 46961.193914555784, -147266.63646300274, 41151.32733003227, 37749.28006521226, 65020.48701292122, 55201.07510102691, 11780.397508191767, 67086.63756688089, -124813.52684659087, 72140.45639520364, 51878.08595634532, 0.048, 1.022, 0.012, 192.0, 0.5, 64.0, 15.5, 120.0, 0.0, 48.0, 0.0, 0.0, 0.0, 1.696029881940742E9, 0.0, 2023-09-29 18:24:41.940
80.0, 30014.347137730976, 51797.083234439284, 41920.56261546166, 5974.75540337031, 57133.91985105513, 47004.802167988084, -147319.5653938729, 41207.49726384846, 37767.47438519888, 64983.606634569966, 55124.27450707847, 11800.357615990355, 67010.61928398839, -125610.92533003395, 71914.61436922722, 51643.25852909786, 0.048, 1.022, 0.012, 192.0, 0.0, 0.0, 0.0, 0.0, 0.0, 0.0, 0.0, 0.0, 0.0, 1.696029881940746E9, 0.0, 2023-09-29 18:24:41.940
82.0, 30016.872884854423, 51798.089062939776, 41815.241195588256, 5974.08485103665, 57075.604149771236, 46957.72939416521, -147220.74833163602, 41152.57902772177, 37752.588123391644, 65028.95832406978, 55225.50555771656, 11783.012662293037, 67097.20994200825, -124865.89698384966, 72145.35142723935, 51880.20937206857, 0.048, 1.022, 0.012, 192.0, 0.0, 0.0, 0.0, 0.0, 0.0, 0.0, 0.0, 0.0, 0.0, 1.69602988194075E9, 0.0, 2023-09-29 18:24:41.940
84.0, 30009.02742255061, 51791.8752779812, 41898.92612682893, 5969.949778312419, 57119.34651367027, 46991.34641782599, -147365.8782083843, 41195.561432309325, 37746.08376575515, 64962.551291293064, 55103.84501264632, 11787.19243850618, 66991.57559771248, -125573.0391231822, 71923.53271526488, 51652.42274432454, 0.048, 1.022, 0.012, 192.0, 0.0, 0.0, 0.0, 0.0, 0.0, 0.0, 0.0, 0.0, 0.0, 1.696029881940753E9, 0.0, 2023-09-29 18:24:41.940
86.0, 30019.666852911338, 51802.44765310856, 41834.79897198665, 5975.045976048229, 57085.64008303167, 46969.8887431489, -147178.45883112657, 41159.083385358266, 37764.16632701949, 65031.484071193234, 55236.346153777384, 11786.298368727967, 67097.00877630815, -124913.8861791952, 72144.43500571669, 51873.280331287424, 0.048, 1.022, 0.012, 192.0, 0.0, 0.0, 0.0, 0.0, 0.0, 0.0, 0.0, 0.0, 0.0, 1.696029881940757E9, 0.0, 2023-09-29 18:24:41.940
88.0, 30017.07405055452, 51801.48652809698, 41894.52283317123, 5986.490069209346, 57129.47185390852, 46994.78858647211, -147430.00536322658, 41190.86756597371, 37760.701806628924, 64965.00998318315, 55101.96746611207, 11797.407185722255, 66977.56105393899, -125541.8360879226, 71928.36069206723, 51653.98736643641, 0.05, 1.024, 0.012, 192.0, 0.5, 72.0, 16.0, 0.0, 0.0, 48.0, 0.0, 0.0, 0.0, 1.696029881940761E9, 0.0, 2023-09-29 18:24:41.940
90.0, 30014.16832377533, 51800.77127227441, 41857.55304784216, 5974.286016736748, 57095.027815702895, 46977.264818819145, -147163.86314199725, 41165.364225550205, 37781.131301061076, 65041.140024797925, 55251.43358128471, 11798.345958989377, 67118.84643064099, -125012.83735189884, 72130.91220032123, 51861.65742417067, 0.05, 1.024, 0.012, 192.0, 0.0, 0.0, 0.0, 0.0, 0.0, 0.0, 0.0, 0.0, 0.0, 1.696029882001016E9, 0.0, 2023-09-29 18:24:42.001
92.0, 30010.70380338476, 51801.46417635253, 41870.78528055969, 5980.499801695323, 57122.8333858053, 46984.6408944894, -147507.20828857523, 41174.170812865596, 37754.95740830391, 64966.21697738374, 55095.9548468536, 11796.624874666319, 66996.94001638175, -125504.46397119331, 71942.46464281854, 51664.29152063031, 0.05, 1.024, 0.012, 192.0, 0.0, 0.0, 0.0, 0.0, 0.0, 0.0, 0.0, 0.0, 0.0, 1.696029882001042E9, 0.0, 2023-09-29 18:24:42.001
94.0, 29997.002184033656, 51791.96468495902, 41862.492783366775, 5954.169446726972, 57095.25133314745, 46974.604961228964, -147116.09746409627, 41163.64314122715, 37768.36845497709, 65043.799882388106, 55246.87382541583, 11791.707490886152, 67108.45286946927, -125115.00717580404, 72120.96567403861, 51848.80517110886, 0.05, 1.024, 0.012, 192.0, 0.0, 0.0, 0.0, 0.0, 0.0, 0.0, 0.0, 0.0, 0.0, 1.696029882001048E9, 0.0, 2023-09-29 18:24:42.001
96.0, 30007.21693124973, 51799.94425772956, 41847.8300390041, 5978.75636562781, 57108.595324587266, 46979.90232466487, -147520.5075765261, 41163.57608599378, 37744.42973666546, 64958.349163335464, 55082.0520618024, 11788.466487940132, 66993.07316459098, -125411.41365902587, 71963.05059946187, 51687.693797075015, 0.05, 1.024, 0.012, 192.0, 0.0, 0.0, 0.0, 0.0, 0.0, 0.0, 0.0, 0.0, 0.0, 1.696029882001053E9, 0.0, 2023-09-29 18:24:42.001
98.0, 29983.009992004634, 51779.2241906195, 41880.82121382013, 5952.090734492628, 57102.69446405107, 46986.697254979284, -147081.69812937954, 41178.1717751231, 37764.00986480831, 65026.14200426841, 55239.296584045485, 11789.09233678488, 67110.73274740372, -125191.80776975249, 72102.27961567398, 51833.18130173461, 0.046, 1.022, 0.01, 192.0, 0.5, 56.0, 15.5, 120.0, 0.0, 40.0, 0.0, 0.0, 0.0, 1.696029882001059E9, 0.0, 2023-09-29 18:24:42.001
100.0, 29992.867111309424, 51782.8228214768, 41826.32766083809, 5968.429859689458, 57104.21438267403, 46974.269685062136, -147558.30437640005, 41164.20193483853, 37730.23637893634, 64937.47263401421, 55086.254189759995, 11780.285749469489, 66997.49880999314, -125322.07373643802, 71977.37806765772, 51714.49353867693, 0.046, 1.022, 0.01, 192.0, 0.0, 0.0, 0.0, 0.0, 0.0, 0.0, 0.0, 0.0, 0.0, 1.696029882001065E9, 0.0, 2023-09-29 18:24:42.001
102.0, 29961.59702081645, 51754.100829851726, 41894.81340584915, 5951.755458325799, 57114.339722912286, 46988.41833930235, -147119.24906006447, 41193.08038867478, 37760.97002756238, 65003.72320457974, 55231.29465953048, 11783.2808832265, 67102.90963684436, -125331.8861522539, 72058.58195526386, 51803.78875777588, 0.046, 1.022, 0.01, 192.0, 0.0, 0.0, 0.0, 0.0, 0.0, 0.0, 0.0, 0.0, 0.0, 1.696029882001069E9, 0.0, 2023-09-29 18:24:42.001
104.0, 29968.570765086504, 51757.40888803112, 41810.189701341355, 5974.80010685922, 57097.64296980417, 46966.75949892515, -147569.92728351682, 41151.52849573237, 37720.69218405392, 64932.354084533945, 55093.183230541144, 11773.13319124379, 67004.56196124101, -125249.78819486954, 72003.28373948143, 51744.75780066941, 0.046, 1.022, 0.01, 192.0, 0.0, 0.0, 0.0, 0.0, 0.0, 0.0, 0.0, 0.0, 0.0, 1.696029882001073E9, 0.0, 2023-09-29 18:24:42.001
106.0, 29932.562104769007, 51716.482843933445, 41898.85907159556, 5946.212225700882, 57111.948086255565, 46996.62142951744, -147125.84282467878, 41186.66543801611, 37746.53080064426, 64981.974957224724, 55217.72715064611, 11776.888284312283, 67085.38586919139, -125437.22992387175, 72036.85605965329, 51780.05120516434, 0.046, 1.022, 0.01, 192.0, 0.0, 0.0, 0.0, 0.0, 0.0, 0.0, 0.0, 0.0, 0.0, 1.696029882061249E9, 0.0, 2023-09-29 18:24:42.061
108.0, 29939.938180439258, 51717.399265456115, 41784.28402951766, 5963.333661953648, 57091.76446101242, 46959.69634767727, -147560.00310897865, 41130.964890833486, 37705.87297748005, 64912.79630813555, 55093.56321019688, 11755.94469975766, 67000.7621646836, -125161.69996997119, 72031.55869621738, 51778.12895514118, 0.046, 1.02, 0.008, 192.0, 0.5, 56.0, 15.5, 112.0, 0.0, 32.0, 0.0, 0.0, 0.0, 1.69602988206126E9, 0.0, 2023-09-29 18:24:42.061
110.0, 29897.648679929818, 51681.21179118297, 41902.63651640851, 5927.8837952475305, 57118.05011249187, 46991.99461841519, -147157.02350819393, 41181.83746121376, 37738.66298659599, 64951.59893650997, 55181.36086241733, 11758.93983351467, 67076.02048826462, -125545.16649784644, 71996.53351265592, 51739.058105833305, 0.046, 1.02, 0.008, 192.0, 0.0, 0.0, 0.0, 0.0, 0.0, 0.0, 0.0, 0.0, 0.0, 1.696029882061263E9, 0.0, 2023-09-29 18:24:42.061
112.0, 29902.834284643446, 51680.16125919358, 41763.83218334105, 5937.6291558300445, 57077.50404804994, 46941.613786412934, -147522.38512306038, 41118.47026568297, 37692.260765106774, 64897.664177139304, 55102.392149256724, 11726.149824398735, 67030.57939178699, -125083.40180914424, 72055.45271104011, 51795.4739088385, 0.046, 1.02, 0.008, 192.0, 0.0, 0.0, 0.0, 0.0, 0.0, 0.0, 0.0, 0.0, 0.0, 1.696029882061266E9, 0.0, 2023-09-29 18:24:42.061
114.0, 29876.68274363074, 51660.26820662835, 41889.560745902156, 5915.567984052656, 57123.2357172055, 46984.86441193395, -147188.11478473127, 41183.33502809227, 37727.06243122368, 64918.875982627396, 55157.06451619441, 11742.556004828932, 67056.82033977752, -125623.17408599546, 71963.47528260652, 51698.89202104712, 0.046, 1.02, 0.008, 192.0, 0.0, 0.0, 0.0, 0.0, 0.0, 0.0, 0.0, 0.0, 0.0, 1.696029882061269E9, 0.0, 2023-09-29 18:24:42.061
116.0, 29884.550557679006, 51658.390660094105, 41742.396860408415, 5929.26960340376, 57073.838361959264, 46935.64587064336, -147479.9615120842, 41115.47513192596, 37690.07029415015, 64903.43092720878, 55109.678817949156, 11718.79610047294, 67031.33935109846, -125024.61672122679, 72074.33993510484, 51815.21049919254, 0.046, 1.02, 0.008, 192.0, 0.0, 0.0, 0.0, 0.0, 0.0, 0.0, 0.0, 0.0, 0.0, 1.696029882061273E9, 0.0, 2023-09-29 18:24:42.061
118.0, 29857.884926543826, 51639.659898240556, 41878.988370774794, 5911.2764491172375, 57122.229888705006, 46989.89355443639, -147228.45968347308, 41186.73249324948, 37704.576576301646, 64902.715671386206, 55121.68170472166, 11733.28003087998, 67028.321865597, -125688.28471759376, 71934.21684911453, 51673.38868062362, 0.042, 1.022, 0.01, 192.0, 0.5, 40.0, 15.5, 120.0, 0.0, 40.0, 0.0, 0.0, 0.0, 1.696029882061276E9, 0.0, 2023-09-29 18:24:42.061
120.0, 29865.551574891997, 51644.57728202073, 41733.791438793116, 5919.926574221441, 57064.22711184349, 46941.43497245729, -147424.81975851295, 41111.13889350163, 37669.99842762929, 64905.867267354406, 55116.54080349694, 11708.514298023498, 67040.23534539167, -124973.31946770186, 72098.07748771638, 51844.3348222178, 0.042, 1.022, 0.01, 192.0, 0.0, 0.0, 0.0, 0.0, 0.0, 0.0, 0.0, 0.0, 0.0, 1.696029882120141E9, 0.0, 2023-09-29 18:24:42.120
122.0, 29857.057911998978, 51638.7881802068, 41879.211888219346, 5913.1539956514835, 57129.136577741694, 46992.55341202658, -147312.4128356472, 41191.11343516272, 37696.99933493129, 64887.963520045705, 55088.981102583544, 11731.715408768106, 67012.72034796719, -125739.73843332988, 71917.45304077305, 51653.40622108057, 0.042, 1.022, 0.01, 192.0, 0.0, 0.0, 0.0, 0.0, 0.0, 0.0, 0.0, 0.0, 0.0, 1.696029882120152E9, 0.0, 2023-09-29 18:24:42.120
124.0, 29860.67889460074, 51641.38098256362, 41743.13446797544, 5917.222013142349, 57066.4175828001, 46945.63710041489, -147400.65752275678, 41125.33225123075, 37672.85945091957, 64919.18890704977, 55136.590318273345, 11714.504565537522, 67061.35774390194, -124995.42534296816, 72116.62943561429, 51861.88094161522, 0.042, 1.022, 0.01, 192.0, 0.0, 0.0, 0.0, 0.0, 0.0, 0.0, 0.0, 0.0, 0.0, 1.696029882120156E9, 0.0, 2023-09-29 18:24:42.120
126.0, 29846.99962699409, 51628.41697077954, 41863.07392872262, 5903.83331821362, 57120.7323218265, 46986.071406134535, -147342.00654530604, 41184.519670548405, 37679.45321553388, 64876.27355769558, 55074.787744854424, 11728.362647099812, 66990.59212095644, -125752.6353898806, 71925.11968912122, 51665.20794215297, 0.042, 1.022, 0.01, 192.0, 0.0, 0.0, 0.0, 0.0, 0.0, 0.0, 0.0, 0.0, 0.0, 1.696029882120159E9, 0.0, 2023-09-29 18:24:42.120
128.0, 29857.504946888086, 51637.11179937265, 41741.145162718916, 5905.062664158662, 57063.44480078755, 46939.91505383433, -147325.44390266467, 41115.87746332616, 37667.96441888385, 64912.95277034674, 55151.118952169294, 11710.83887944685, 67056.14978744385, -124982.997773051, 72138.69060739168, 51875.15787782167, 0.05, 1.022, 0.006, 192.0, 0.5, 72.0, 15.5, 120.0, 0.0, 24.0, 0.0, 0.0, 0.0, 1.696029882120162E9, 0.0, 2023-09-29 18:24:42.120
130.0, 29863.025827768546, 51647.55006403328, 41850.266379149725, 5915.635039286022, 57122.565164871834, 46999.437749318815, -147430.74297079362, 41178.03766465636, 37677.8438899331, 64875.088915239445, 55051.854855043275, 11729.435530833665, 66983.64072843084, -125755.11643351513, 71901.29272953185, 51636.79887495028, 0.05, 1.022, 0.006, 192.0, 0.0, 0.0, 0.0, 0.0, 0.0, 0.0, 0.0, 0.0, 0.0, 1.696029882120165E9, 0.0, 2023-09-29 18:24:42.120
132.0, 29873.933479062736, 51657.11661066015, 41760.47942167275, 5921.155920166483, 57078.12989689469, 46968.27941754811, -147306.17669894418, 41136.37401299167, 37690.62908776153, 64936.31034330253, 55177.628121093294, 11727.93796395516, 67081.22844472271, -125049.9635994391, 72127.85001133085, 51870.93339811962, 0.05, 1.022, 0.006, 192.0, 0.0, 0.0, 0.0, 0.0, 0.0, 0.0, 0.0, 0.0, 0.0, 1.696029882120169E9, 0.0, 2023-09-29 18:24:42.120
134.0, 29873.10646451789, 51656.021375181845, 41840.409259844935, 5917.289068375715, 57117.759539813946, 46991.167603870344, -147500.88274489436, 41172.87441168719, 37692.90896569598, 64883.80609557702, 55051.13959922071, 11740.209071661124, 66981.38320224086, -125752.52363115831, 71904.13140107768, 51645.247834354384, 0.05, 1.022, 0.006, 192.0, 0.0, 0.0, 0.0, 0.0, 0.0, 0.0, 0.0, 0.0, 0.0, 1.696029882120172E9, 0.0, 2023-09-29 18:24:42.120
136.0, 29875.073418029955, 51654.74732574789, 41777.22087826978, 5900.391149567503, 57068.96568166801, 46952.49908596266, -147250.47615176157, 41130.51785594438, 37703.03430593423, 64951.1295498764, 55192.78260383399, 11721.455958063121, 67094.97476756273, -125115.74478337108, 72136.85776434634, 51879.20354356808, 0.05, 1.022, 0.006, 192.0, 0.0, 0.0, 0.0, 0.0, 0.0, 0.0, 0.0, 0.0, 0.0, 1.696029882180508E9, 0.0, 2023-09-29 18:24:42.180
138.0, 29881.845996599914, 51660.02233743934, 41819.97976541278, 5902.671027501944, 57103.45442336255, 46959.942216866286, -147530.29764059754, 41150.03092885386, 37685.39877955899, 64874.61952860589, 55043.9423375061, 11725.233402876069, 66965.42405669976, -125681.04275239025, 71927.46662228902, 51658.547122305295, 0.046, 1.024, 0.008, 192.0, 0.5, 56.0, 16.0, 0.0, 0.0, 32.0, 0.0, 0.0, 0.0, 1.696029882180519E9, 0.0, 2023-09-29 18:24:42.180
140.0, 29877.397999453307, 51660.31291011726, 41791.77186391019, 5886.331902305115, 57062.57308275379, 46943.066649802524, -147190.10408998778, 41122.024193051366, 37711.72913452734, 64952.47065454372, 55207.065368540934, 11725.166347642702, 67085.45292442477, -125178.10615040138, 72132.96856081112, 51857.94703459109, 0.046, 1.024, 0.008, 192.0, 0.0, 0.0, 0.0, 0.0, 0.0, 0.0, 0.0, 0.0, 0.0, 1.696029882180523E9, 0.0, 2023-09-29 18:24:42.180
142.0, 29887.210415269186, 51668.91833173255, 41792.42006449939, 5899.877059445031, 57095.58660931428, 46958.24348428768, -147580.99139702218, 41132.75303038991, 37675.139328854006, 64867.98106050266, 55035.448674613086, 11716.583277771864, 66953.57763213845, -125595.36851589305, 71937.5249072939, 51656.781334493324, 0.046, 1.024, 0.008, 192.0, 0.0, 0.0, 0.0, 0.0, 0.0, 0.0, 0.0, 0.0, 0.0, 1.696029882180526E9, 0.0, 2023-09-29 18:24:42.180
144.0, 29878.068551786968, 51661.98929095141, 41803.81945417159, 5874.016091110241, 57080.29801610685, 46949.77217313912, -147171.17216243414, 41133.35652749021, 37704.66598327947, 64952.80593071055, 55203.779662106004, 11716.069187649393, 67073.1371132299, -125280.1195120954, 72096.35640339332, 51821.24547019547, 0.046, 1.024, 0.008, 192.0, 0.0, 0.0, 0.0, 0.0, 0.0, 0.0, 0.0, 0.0, 0.0, 1.69602988218053E9, 0.0, 2023-09-29 18:24:42.180
146.0, 29899.0568398305, 51680.56359059377, 41771.83410785605, 5895.674931487433, 57093.26202789093, 46946.86644635993, -147617.91647886235, 41130.92018734458, 37678.492090522304, 64876.31826118449, 55039.11436070375, 11713.096405636836, 66959.67965837475, -125515.39397423196, 71941.4811660625, 51669.47712534394, 0.046, 1.024, 0.008, 192.0, 0.0, 0.0, 0.0, 0.0, 0.0, 0.0, 0.0, 0.0, 0.0, 1.696029882180551E9, 0.0, 2023-09-29 18:24:42.180
148.0, 29886.942194335723, 51670.10297418869, 41815.06238163261, 5869.724556174821, 57091.49624007896, 46954.398984241365, -147182.32568291732, 41146.6111119522, 37710.03040194874, 64957.2315761127, 55200.38219694879, 11718.729045239574, 67080.37907843341, -125396.97443210775, 72063.09700764382, 51792.746996014954, 0.054, 1.024, 0.004, 192.0, 0.5, 88.0, 16.0, 0.0, 0.0, 16.0, 0.0, 0.0, 0.0, 1.696029882180555E9, 0.0, 2023-09-29 18:24:42.180
150.0, 29915.86535166089, 51698.15441348009, 41765.821488597576, 5903.721559491344, 57100.81691751682, 46945.41358297034, -147650.03593564464, 41126.47219019797, 37682.6942184799, 64889.08110726847, 55053.061849243866, 11714.325751581879, 66967.72628637866, -125450.2609908892, 71964.0340762179, 51694.91341053408, 0.054, 1.024, 0.004, 192.0, 0.0, 0.0, 0.0, 0.0, 0.0, 0.0, 0.0, 0.0, 0.0, 1.69602988224069E9, 0.0, 2023-09-29 18:24:42.240
152.0, 29900.844979386926, 51686.73267206344, 41841.728012767795, 5882.152126091973, 57100.45928960554, 46969.084080348504, -147169.51813334445, 41160.35743479222, 37714.79132351772, 64965.72523900572, 55206.97596156311, 11728.362647099812, 67072.7347818297, -125493.93629955487, 72053.0610743834, 51780.56529528681, 0.054, 1.024, 0.004, 192.0, 0.0, 0.0, 0.0, 0.0, 0.0, 0.0, 0.0, 0.0, 0.0, 1.696029882240703E9, 0.0, 2023-09-29 18:24:42.240
154.0, 29934.43965130325, 51717.823948600766, 41749.90704654539, 5915.255059630283, 57095.6760162921, 46951.80618188455, -147644.2915373196, 41124.125257030166, 37696.038209919716, 64916.79727039305, 55082.47674494705, 11729.167309900202, 66988.22283604418, -125349.96871351823, 72008.2905302394, 51732.79961738582, 0.054, 1.024, 0.004, 192.0, 0.0, 0.0, 0.0, 0.0, 0.0, 0.0, 0.0, 0.0, 0.0, 1.696029882240706E9, 0.0, 2023-09-29 18:24:42.240
156.0, 29911.59616846993, 51699.71903559197, 41851.20515241685, 5881.6380359695, 57113.31154266734, 46986.18316485681, -147192.80865106688, 41169.544001763345, 37730.638710336534, 64977.638718800394, 55207.11007202984, 11738.71150478262, 67070.20903470625, -125606.79025730971, 72024.60730369178, 51750.83747516126, 0.054, 1.024, 0.004, 192.0, 0.0, 0.0, 0.0, 0.0, 0.0, 0.0, 0.0, 0.0, 0.0, 1.69602988224071E9, 0.0, 2023-09-29 18:24:42.240
158.0, 29942.128651395877, 51724.23889925944, 41730.282214913634, 5910.605896783579, 57083.65077777515, 46948.81104812754, -147602.9408100773, 41113.776399347356, 37692.752503484786, 64921.28997102857, 55101.69924517861, 11719.198431873136, 67003.8690571629, -125248.46944194668, 72042.66751321168, 51773.72566148349, 0.052000000000000005, 1.024, 0.006, 192.0, 0.5, 80.0, 16.0, 0.0, 0.0, 24.0, 0.0, 0.0, 0.0, 1.696029882240713E9, 0.0, 2023-09-29 18:24:42.240
160.0, 29932.74091872465, 51717.48867243394, 41863.677425822905, 5885.057852871162, 57118.36303691424, 46994.118034138446, -147226.26921251646, 41176.18246986657, 37734.95259701641, 64970.32969836351, 55188.15579273174, 11746.914594997716, 67047.56671757302, -125691.21279611741, 71996.22058823354, 51724.68593414855, 0.052000000000000005, 1.024, 0.006, 192.0, 0.0, 0.0, 0.0, 0.0, 0.0, 0.0, 0.0, 0.0, 0.0, 1.696029882240716E9, 0.0, 2023-09-29 18:24:42.240
162.0, 29961.999352216644, 51742.23205354596, 41733.59027309302, 5909.868289216553, 57083.96370219752, 46951.80618188455, -147572.4306788958, 41113.79875109181, 37712.667907794465, 64950.57075626502, 55143.42995207667, 11733.794121002451, 67029.7747289866, -125164.58334500591, 72083.4147433537, 51803.25231590895, 0.052000000000000005, 1.024, 0.006, 192.0, 0.0, 0.0, 0.0, 0.0, 0.0, 0.0, 0.0, 0.0, 0.0, 1.696029882240719E9, 0.0, 2023-09-29 18:24:42.240
164.0, 29948.856526476924, 51733.15724529711, 41878.653094607966, 5888.902352917476, 57129.7847783309, 46989.982961414215, -147258.32161406538, 41180.09402514625, 37740.58523661915, 64976.07409668853, 55191.70972010014, 11758.2245776921, 67045.73387452768, -125750.24375322387, 71982.25074794897, 51696.03099775684, 0.052000000000000005, 1.024, 0.006, 192.0, 0.0, 0.0, 0.0, 0.0, 0.0, 0.0, 0.0, 0.0, 0.0, 1.696029882240722E9, 0.0, 2023-09-29 18:24:42.240
166.0, 29976.393875645863, 51755.93367289707, 41741.07810748555, 5911.5670217951565, 57078.733393994975, 46938.886873589385, -147528.95653593022, 41110.490692912426, 37714.72426828436, 64966.95458495076, 55169.58149308938, 11741.885452495271, 67046.76205477263, -125098.3774779293, 72110.25918844453, 51830.14146448868, 0.052000000000000005, 1.024, 0.006, 192.0, 0.0, 0.0, 0.0, 0.0, 0.0, 0.0, 0.0, 0.0, 0.0, 1.696029882301115E9, 0.0, 2023-09-29 18:24:42.301
168.0, 29964.748616784647, 51748.84816990473, 41885.02334177773, 5893.730329719821, 57126.901403296164, 46989.714740480755, -147322.8287485634, 41183.20091762554, 37744.00505352081, 64970.732029763705, 55172.77779254649, 11769.266339453023, 67037.1731564013, -125811.91221617606, 71944.25278237496, 51674.059232957276, 0.054, 1.02, 0.006, 192.0, 0.5, 88.0, 15.5, 112.0, 0.0, 24.0, 0.0, 0.0, 0.0, 1.696029882301126E9, 0.0, 2023-09-29 18:24:42.301
170.0, 29993.738829343183, 51773.591551016754, 41755.71850010377, 5919.07720793214, 57079.8733329622, 46947.44759171577, -147469.34443346792, 41115.69864937051, 37728.98468124684, 64985.0371462151, 55205.34428421787, 11754.201263690145, 67076.60163362046, -125062.83820424536, 72127.6264938863, 51864.04906082738, 0.054, 1.02, 0.006, 192.0, 0.0, 0.0, 0.0, 0.0, 0.0, 0.0, 0.0, 0.0, 0.0, 1.696029882301129E9, 0.0, 2023-09-29 18:24:42.301
172.0, 29991.36954443092, 51772.071632393796, 41898.47909193982, 5919.50189107679, 57139.64189763569, 47003.10343540948, -147388.60993249537, 41189.615868284214, 37755.180925748464, 64984.27718690362, 55173.26953092451, 11788.108860028848, 67031.22759237619, -125828.63132102863, 71938.82130847232, 51671.689948045016, 0.054, 1.02, 0.006, 192.0, 0.0, 0.0, 0.0, 0.0, 0.0, 0.0, 0.0, 0.0, 0.0, 1.696029882301133E9, 0.0, 2023-09-29 18:24:42.301
174.0, 29997.806846834046, 51777.86073420772, 41774.762186379696, 5929.806045270687, 57079.53805679537, 46946.508818448645, -147399.15995587828, 41124.885216341645, 37743.155687231505, 65014.832021574024, 55244.59394748139, 11771.367403431823, 67093.41014545085, -125045.26973310349, 72153.46511047664, 51900.57181126736, 0.054, 1.02, 0.006, 192.0, 0.0, 0.0, 0.0, 0.0, 0.0, 0.0, 0.0, 0.0, 0.0, 1.696029882301136E9, 0.0, 2023-09-29 18:24:42.301
176.0, 29985.044000750066, 51769.836457948266, 41883.54812664368, 5920.686533532922, 57127.460196907545, 46984.28326657811, -147429.40186612628, 41182.23979261396, 37751.537591402244, 64970.4861605747, 55151.20835914712, 11782.677386126208, 67014.01674914561, -125799.84227417021, 71931.22171535752, 51681.390605138615, 0.054, 1.02, 0.006, 192.0, 0.0, 0.0, 0.0, 0.0, 0.0, 0.0, 0.0, 0.0, 0.0, 1.696029882301139E9, 0.0, 2023-09-29 18:24:42.301
178.0, 29989.06731475202, 51772.988053916466, 41781.333599249556, 5921.088864933117, 57072.653719503134, 46941.680841646295, -147351.55074018845, 41130.8084286223, 37749.90591405701, 65020.3976059434, 55247.45497077167, 11762.963147516626, 67090.6832326273, -125057.58554429836, 72134.37672071179, 51901.667046745664, 0.05, 1.02, 0.002, 192.0, 0.5, 72.0, 15.5, 112.0, 0.0, 8.0, 0.0, 0.0, 0.0, 1.696029882301142E9, 0.0, 2023-09-29 18:24:42.301
180.0, 29991.50365489765, 51780.83351622028, 41876.66378935144, 5936.891548263019, 57121.246411948974, 46985.57966775652, -147507.90119265334, 41190.08525491777, 37755.158574004, 64961.56781453703, 55127.29199257994, 11773.602577877353, 67014.41908054579, -125789.58282346521, 71899.32577601979, 51657.898921716085, 0.05, 1.02, 0.002, 192.0, 0.0, 0.0, 0.0, 0.0, 0.0, 0.0, 0.0, 0.0, 0.0, 1.696029882361314E9, 0.0, 2023-09-29 18:24:42.361
182.0, 29993.537663643085, 51784.499202310944, 41805.160558838914, 5940.870158776064, 57083.427260330594, 46955.91890286433, -147327.5673183879, 41155.17183007859, 37764.85923109761, 65023.05746353358, 55251.63474698481, 11768.372269674812, 67103.66959615584, -125118.44934445017, 72111.8238105564, 51882.243380814005, 0.05, 1.02, 0.002, 192.0, 0.0, 0.0, 0.0, 0.0, 0.0, 0.0, 0.0, 0.0, 0.0, 1.696029882361325E9, 0.0, 2023-09-29 18:24:42.361
184.0, 29996.46574216673, 51788.857792479736, 41869.24301019228, 5955.51055139429, 57119.54767937037, 46983.1880310998, -147562.64061482437, 41196.321391620804, 37757.14787926053, 64962.417180826335, 55116.741969197035, 11784.174953004713, 66996.13535358135, -125743.00178802035, 71890.3180230043, 51669.96886372195, 0.05, 1.02, 0.002, 192.0, 0.0, 0.0, 0.0, 0.0, 0.0, 0.0, 0.0, 0.0, 0.0, 1.696029882361329E9, 0.0, 2023-09-29 18:24:42.361
186.0, 29993.202387476253, 51785.92971395609, 41830.127457395494, 5949.229711202349, 57085.19304814256, 46964.16669656834, -147283.0649951774, 41164.20193483853, 37765.172155519984, 65037.0496555626, 55260.754258722576, 11775.61423487833, 67109.7939741366, -125161.76702520455, 72083.68296428716, 51880.65640695768, 0.05, 1.02, 0.002, 192.0, 0.0, 0.0, 0.0, 0.0, 0.0, 0.0, 0.0, 0.0, 0.0, 1.696029882361332E9, 0.0, 2023-09-29 18:24:42.361
188.0, 30001.718402113725, 51789.282475624386, 41873.93687652789, 5971.447345190924, 57123.05690324985, 46978.85179267547, -147626.07486558854, 41185.86077521572, 37753.169268747486, 64966.70871576175, 55105.074358591366, 11783.012662293037, 66991.88852213485, -125679.45577853391, 71862.959487791, 51667.8454479987, 0.048, 1.02, 0.004, 192.0, 0.5, 64.0, 15.5, 112.0, 0.0, 16.0, 0.0, 0.0, 0.0, 1.696029882361335E9, 0.0, 2023-09-29 18:24:42.361
190.0, 29995.303451455053, 51783.78394648838, 41880.79886207567, 5967.222865488871, 57096.65949304814, 46971.34160653849, -147253.71715470758, 41179.98226642398, 37775.252792269326, 65048.82902489055, 55262.31888083445, 11786.276016983511, 67124.344959777, -125246.59189541244, 72060.68301924266, 51862.372679993234, 0.048, 1.02, 0.004, 192.0, 0.0, 0.0, 0.0, 0.0, 0.0, 0.0, 0.0, 0.0, 0.0, 1.696029882361338E9, 0.0, 2023-09-29 18:24:42.361
192.0, 30015.21885576473, 51802.93939148657, 41878.161356229946, 5996.414243747502, 57117.401911902656, 46978.15888859736, -147681.77541277115, 41188.58768803927, 37756.790251349244, 64968.630965784905, 55104.984951613544, 11792.3333397309, 66995.97889137016, -125583.90207098747, 71895.39186899566, 51688.96784650897, 0.048, 1.02, 0.004, 192.0, 0.0, 0.0, 0.0, 0.0, 0.0, 0.0, 0.0, 0.0, 0.0, 1.696029882361341E9, 0.0, 2023-09-29 18:24:42.361
194.0, 30005.1829225043, 51796.815013505824, 41915.10878981457, 5986.80299363172, 57106.33779839728, 46984.70794972276, -147259.4615530326, 41200.61292655623, 37787.5686034642, 65049.0525423351, 55264.21877911315, 11801.877534613317, 67137.24191632771, -125355.84722230998, 72042.62280972276, 51831.50492090046, 0.048, 1.02, 0.004, 192.0, 0.0, 0.0, 0.0, 0.0, 0.0, 0.0, 0.0, 0.0, 0.0, 1.696029882361344E9, 0.0, 2023-09-29 18:24:42.361
196.0, 30016.068222054033, 51806.26980141042, 41871.20996370434, 6004.6173339626, 57110.472871121514, 46977.57774324152, -147679.115555181, 41179.6693420016, 37756.790251349244, 64970.70967801925, 55108.85180340431, 11790.768717619028, 67014.48613577917, -125478.73711332526, 71935.20032587055, 51721.48963469144, 0.048, 1.02, 0.004, 192.0, 0.0, 0.0, 0.0, 0.0, 0.0, 0.0, 0.0, 0.0, 0.0, 1.696029882420641E9, 0.0, 2023-09-29 18:24:42.420
198.0, 29999.639689879383, 51794.088100682275, 41936.4994092583, 5988.434670976958, 57112.10454846675, 46991.48052829272, -147232.05831433038, 41205.37384812521, 37783.27706852878, 65039.06131256358, 55252.03707838501, 11793.406223464755, 67112.67734917132, -125406.40686826789, 72036.94546663112, 51821.93837427359, 0.05, 1.016, 0.006, 192.0, 0.5, 72.0, 15.5, 96.0, 0.0, 24.0, 0.0, 0.0, 0.0, 1.696029882420651E9, 0.0, 2023-09-29 18:24:42.420
200.0, 30020.225646522722, 51813.9811532475, 41870.51705962623, 6023.057523138228, 57108.64002807618, 46980.52817350962, -147695.99112224474, 41179.28936234586, 37753.88452457005, 64972.408410597855, 55107.91303013719, 11794.09912754287, 67015.02257764609, -125370.35350446148, 71953.57345981282, 51743.126123324175, 0.05, 1.016, 0.006, 192.0, 0.0, 0.0, 0.0, 0.0, 0.0, 0.0, 0.0, 0.0, 0.0, 1.696029882420654E9, 0.0, 2023-09-29 18:24:42.420
202.0, 29999.349117201462, 51794.89276348267, 41958.94056069143, 6001.510441483312, 57117.87129853622, 47007.126749411436, -147253.2030645851, 41213.68869706258, 37793.00007736684, 65039.21777477477, 55240.749447435075, 11808.67246492773, 67107.58115143552, -125504.44161944886, 72001.38384120273, 51797.28440013938, 0.05, 1.016, 0.006, 192.0, 0.0, 0.0, 0.0, 0.0, 0.0, 0.0, 0.0, 0.0, 0.0, 1.696029882420657E9, 0.0, 2023-09-29 18:24:42.420
204.0, 30017.208161021255, 51808.7284933005, 41854.08852745158, 6024.532738272279, 57098.84996400475, 46973.219153072736, -147694.33709315505, 41167.95702790702, 37755.51620191529, 64976.02939319961, 55122.03933263294, 11789.919351329727, 67027.74072024116, -125270.32944802397, 71976.75221881298, 51780.520591797904, 0.05, 1.016, 0.006, 192.0, 0.0, 0.0, 0.0, 0.0, 0.0, 0.0, 0.0, 0.0, 0.0, 1.696029882420661E9, 0.0, 2023-09-29 18:24:42.420
206.0, 30000.109076512945, 51792.702292526046, 41977.78308126725, 6010.540546243256, 57133.07048476583, 47005.96445869976, -147291.53630632596, 41222.65174658916, 37793.40240876703, 65029.85239384799, 55222.97981059311, 11808.650113183274, 67095.39945070738, -125601.98463225183, 71966.06808496334, 51770.39525155965, 0.05, 1.016, 0.006, 192.0, 0.0, 0.0, 0.0, 0.0, 0.0, 0.0, 0.0, 0.0, 0.0, 1.696029882420664E9, 0.0, 2023-09-29 18:24:42.420
208.0, 30009.630919650906, 51795.004522204945, 41845.41605060292, 6022.029342893284, 57080.7226992515, 46953.14728655187, -147648.4042582994, 41153.38369052216, 37750.26354196829, 64982.690213047295, 55134.60101301683, 11782.655034381753, 67037.1731564013, -125160.80590019298, 72019.1534780447, 51817.75859806044, 0.05, 1.02, -0.002, 192.0, 0.5, 72.0, 15.5, 112.0, 127.5, 120.0, 0.0, 0.0, 0.0, 1.696029882420667E9, 0.0, 2023-09-29 18:24:42.420
210.0, 29992.42007642032, 51785.79560348936, 41977.984246967346, 6010.987581132363, 57128.60013587477, 47000.51063305267, -147308.8142047899, 41216.90734826414, 37781.80185339473, 65016.01666403016, 55198.14702250326, 11799.687063656696, 67076.78044757611, -125638.44032745843, 71951.56180281185, 51739.14751281113, 0.05, 1.02, -0.002, 192.0, 0.0, 0.0, 0.0, 0.0, 0.0, 0.0, 0.0, 0.0, 0.0, 1.696029882480453E9, 0.0, 2023-09-29 18:24:42.480
212.0, 30005.406439948852, 51797.642028050665, 41849.86404774953, 6031.506482542334, 57085.036585931375, 46953.10258306296, -147615.16721429434, 41155.26123705641, 37753.10221351412, 64994.69309981979, 55149.64373703525, 11789.271150740524, 67059.59195608998, -125065.20748915762, 72045.14855684621, 51836.71287735854, 0.05, 1.02, -0.002, 192.0, 0.0, 0.0, 0.0, 0.0, 0.0, 0.0, 0.0, 0.0, 0.0, 1.696029882480464E9, 0.0, 2023-09-29 18:24:42.480
214.0, 29987.972079273713, 51785.974417444995, 41984.153328437016, 6016.888441668563, 57136.02091503393, 47008.311391867566, -147354.16589428973, 41218.44961863156, 37775.34219924715, 65003.76790806865, 55175.10237396984, 11799.172973534223, 67061.24598517966, -125669.24103131784, 71927.84660194477, 51709.218526985474, 0.05, 1.02, -0.002, 192.0, 0.0, 0.0, 0.0, 0.0, 0.0, 0.0, 0.0, 0.0, 0.0, 1.696029882480468E9, 0.0, 2023-09-29 18:24:42.480
216.0, 30010.592044662484, 51803.83346126479, 41858.380062387, 6040.961270446929, 57097.687673293076, 46970.02285361563, -147592.2343244832, 41166.705330217526, 37758.7125013724, 65001.085698734016, 55169.022699477995, 11786.09720302787, 67074.2323487082, -125007.49528497402, 72059.38661806425, 51854.72838338952, 0.05, 1.02, -0.002, 192.0, 0.0, 0.0, 0.0, 0.0, 0.0, 0.0, 0.0, 0.0, 0.0, 1.696029882480471E9, 0.0, 2023-09-29 18:24:42.480
218.0, 29990.408419419342, 51788.65662677964, 41992.19995644092, 6026.3208778287035, 57148.26967099544, 47020.470740851255, -147446.76917156807, 41229.7819530704, 37781.06424582771, 64997.84469578799, 55159.72437378459, 11805.923200359726, 67055.21101417673, -125734.26225593833, 71894.58720619527, 51691.76181456588, 0.048, 1.02, 0.006, 192.0, 0.5, 64.0, 15.5, 112.0, 0.0, 24.0, 0.0, 0.0, 0.0, 1.696029882480474E9, 0.0, 2023-09-29 18:24:42.480
220.0, 29996.868073566926, 51793.26108613743, 41861.75517579975, 6031.417075564513, 57088.54580981086, 46962.62442620092, -147533.1810156323, 41162.212629582005, 37754.063338525695, 65016.21782973026, 55189.07221425441, 11779.503438413554, 67092.27020648363, -124975.3981799362, 72087.08042944437, 51885.7973081824, 0.048, 1.02, 0.006, 192.0, 0.0, 0.0, 0.0, 0.0, 0.0, 0.0, 0.0, 0.0, 0.0, 1.696029882480477E9, 0.0, 2023-09-29 18:24:42.480
222.0, 29990.98956477518, 51791.070615180804, 41976.866659744584, 6028.712514485421, 57145.11807502724, 47007.01499068916, -147488.72339591067, 41222.38352565569, 37769.6648561555, 64979.85154150147, 55127.984896658054, 11795.082604298903, 67024.5667725285, -125706.03200269128, 71893.69313641706, 51685.883305774136, 0.048, 1.02, 0.006, 192.0, 0.0, 0.0, 0.0, 0.0, 0.0, 0.0, 0.0, 0.0, 0.0, 1.696029882480481E9, 0.0, 2023-09-29 18:24:42.480
224.0, 29997.471570667218, 51790.48946982497, 41865.26439967923, 6030.210081363926, 57088.65756853313, 46964.121993079425, -147502.87205015088, 41162.95023714903, 37765.127452031076, 65029.76298687017, 55207.065368540934, 11787.058328039448, 67092.09139252799, -124950.43128137963, 72094.47885685907, 51887.65250297219, 0.048, 1.02, 0.006, 192.0, 0.0, 0.0, 0.0, 0.0, 0.0, 0.0, 0.0, 0.0, 0.0, 1.696029882480484E9, 0.0, 2023-09-29 18:24:42.480
226.0, 29983.74759957166, 51778.33012084128, 41966.49545031732, 6018.944802158452, 57134.76921734443, 47000.555336541576, -147553.00701296414, 41217.376734897705, 37765.44037645344, 64972.1848931533, 55115.02088487398, 11791.886304841793, 67015.87194393539, -125694.09617115214, 71870.93906056155, 51661.43049734003, 0.048, 1.02, 0.006, 192.0, 0.0, 0.0, 0.0, 0.0, 0.0, 0.0, 0.0, 0.0, 0.0, 1.696029882540835E9, 0.0, 2023-09-29 18:24:42.540
228.0, 29987.055657751043, 51783.49337381046, 41877.91548704094, 6018.162491102516, 57089.39517610016, 46960.61276919994, -147427.18904342523, 41157.71992894649, 37761.17119326248, 65027.03607404663, 55217.16835703473, 11773.155542988246, 67101.07679379902, -124936.81906900633, 72101.87728427378, 51895.810889698376, 0.048, 1.02, 0.008, 192.0, 0.5, 64.0, 15.5, 112.0, 0.0, 32.0, 0.0, 0.0, 0.0, 1.696029882540845E9, 0.0, 2023-09-29 18:24:42.540
230.0, 29987.65915485134, 51787.33787385677, 41956.43716531243, 6023.281040582781, 57138.4349034351, 46992.4416533043, -147618.095292818, 41203.98803996897, 37758.3101699722, 64966.77577099512, 55099.62053294427, 11787.90769432875, 66996.9176646373, -125623.41995518446, 71875.02942979686, 51659.06121242776, 0.048, 1.02, 0.008, 192.0, 0.0, 0.0, 0.0, 0.0, 0.0, 0.0, 0.0, 0.0, 0.0, 1.696029882540848E9, 0.0, 2023-09-29 18:24:42.540
232.0, 29986.16158797283, 51785.48267906698, 41889.35958020206, 6010.540546243256, 57095.27368489191, 46953.81783888553, -147372.29315904298, 41162.45849877101, 37760.45593743991, 65028.91362058087, 55231.83110139741, 11770.674499353707, 67100.45094495427, -124950.69950231309, 72102.30196741843, 51887.31722680536, 0.048, 1.02, 0.008, 192.0, 0.0, 0.0, 0.0, 0.0, 0.0, 0.0, 0.0, 0.0, 0.0, 1.696029882540852E9, 0.0, 2023-09-29 18:24:42.540
234.0, 29997.091591011478, 51796.43503385008, 41933.794848179205, 6024.868014439108, 57136.64676387868, 46979.499993264675, -147675.1145929235, 41192.81216774132, 37752.43166118046, 64959.399695324864, 55086.120079293265, 11782.073889025914, 66984.42303948678, -125533.58829421859, 71871.72137161749, 51653.11564840265, 0.048, 1.02, 0.008, 192.0, 0.0, 0.0, 0.0, 0.0, 0.0, 0.0, 0.0, 0.0, 0.0, 1.696029882540855E9, 0.0, 2023-09-29 18:24:42.540
236.0, 29995.996355533167, 51793.5740105598, 41903.57528967563, 6012.686313710966, 57104.63906581868, 46967.3853477699, -147367.50988572955, 41177.30005708934, 37782.80768189522, 65044.984524844236, 55243.11873234734, 11783.973787304616, 67111.6938724153, -125024.9072939047, 72060.83948145383, 51855.756563634466, 0.048, 1.02, 0.008, 192.0, 0.0, 0.0, 0.0, 0.0, 0.0, 0.0, 0.0, 0.0, 0.0, 1.696029882540858E9, 0.0, 2023-09-29 18:24:42.540
238.0, 29995.63872762188, 51793.529307070894, 41913.70062991389, 6019.168319603004, 57119.39121715918, 46988.4406910468, -147723.03673303567, 41193.79564449735, 37760.411233951, 64963.15478839336, 55086.94709383811, 11784.3314152159, 66994.95071112523, -125461.05688346112, 71879.18685426556, 51666.571398564745, 0.04, 1.016, 0.006, 192.0, 0.5, 32.0, 15.5, 96.0, 0.0, 24.0, 0.0, 0.0, 0.0, 1.696029882540861E9, 0.0, 2023-09-29 18:24:42.540
240.0, 29984.328744927498, 51784.655664522135, 41912.136007802015, 6001.398682761036, 57101.84509776177, 46980.14819385388, -147316.7267223271, 41184.922001948595, 37770.648332911536, 65030.075911292544, 55233.149854320276, 11774.317833699923, 67104.5860176785, -125064.8722129908, 72072.73060950405, 51853.18611302211, 0.04, 1.016, 0.006, 192.0, 0.0, 0.0, 0.0, 0.0, 0.0, 0.0, 0.0, 0.0, 0.0, 1.696029882601025E9, 0.0, 2023-09-29 18:24:42.601
242.0, 29995.303451455053, 51791.8752779812, 41889.113711013044, 6022.945764415952, 57106.20368793055, 46981.6904642213, -147753.3233467726, 41178.082368145275, 37753.23632398085, 64961.366648836934, 55072.351404708796, 11784.24200823808, 66976.93520509425, -125334.0319197216, 71911.48512500347, 51688.34199766422, 0.04, 1.016, 0.006, 192.0, 0.0, 0.0, 0.0, 0.0, 0.0, 0.0, 0.0, 0.0, 0.0, 1.696029882601037E9, 0.0, 2023-09-29 18:24:42.601
244.0, 29978.85256753595, 51778.46423130801, 41928.430429509935, 6004.6173339626, 57109.981132743495, 46982.651589232875, -147308.68009432318, 41193.192147397065, 37772.54823119024, 65036.11088229548, 55228.85831938485, 11781.85037158136, 67105.7930118791, -125137.31421677045, 72049.9541819041, 51825.08997024179, 0.04, 1.016, 0.006, 192.0, 0.0, 0.0, 0.0, 0.0, 0.0, 0.0, 0.0, 0.0, 0.0, 1.69602988260104E9, 0.0, 2023-09-29 18:24:42.601
246.0, 29992.50948339814, 51788.34370235726, 41872.14873697147, 6023.90688942753, 57112.998618244965, 46967.7876791701, -147770.42243128092, 41175.57897276628, 37747.04489076673, 64959.15382613586, 55079.63807340123, 11775.56953138942, 66990.79328665654, -125209.3538891499, 71948.99135219949, 51718.18157651205, 0.04, 1.016, 0.006, 192.0, 0.0, 0.0, 0.0, 0.0, 0.0, 0.0, 0.0, 0.0, 0.0, 1.696029882601043E9, 0.0, 2023-09-29 18:24:42.601
248.0, 29972.683486066282, 51773.7703649724, 41941.19327559391, 5998.157679815016, 57119.54767937037, 46985.6914264788, -147299.9629139856, 41200.14353992266, 37773.28583875726, 65024.82325134555, 55225.8855373723, 11780.95630180315, 67092.71724137274, -125212.41607814028, 72034.12914682974, 51807.61090607774, 0.046, 1.018, 0.012, 192.0, 0.5, 56.0, 15.5, 104.0, 0.0, 48.0, 0.0, 0.0, 0.0, 1.696029882601047E9, 0.0, 2023-09-29 18:24:42.601
250.0, 29997.382163689395, 51794.33396987128, 41851.518076839224, 6026.3208778287035, 57106.49426060847, 46963.71966167923, -147771.74118420377, 41161.497373759434, 37738.59593136262, 64962.059552915045, 55085.8518583598, 11770.56274063143, 67001.00803387261, -125072.18123342768, 71977.62393684674, 51746.72475418148, 0.046, 1.018, 0.012, 192.0, 0.0, 0.0, 0.0, 0.0, 0.0, 0.0, 0.0, 0.0, 0.0, 1.69602988260105E9, 0.0, 2023-09-29 18:24:42.601
252.0, 29972.07998896599, 51772.563370771815, 41960.01344442528, 5996.146022814039, 57121.179356715606, 46992.374598070935, -147326.96382128762, 41205.73147603649, 37775.61042018061, 65015.56962914105, 55205.16547026223, 11783.102069270859, 67088.29159597059, -125291.85417793444, 71994.45480042158, 51763.890893923155, 0.046, 1.018, 0.012, 192.0, 0.0, 0.0, 0.0, 0.0, 0.0, 0.0, 0.0, 0.0, 0.0, 1.696029882601053E9, 0.0, 2023-09-29 18:24:42.601
254.0, 29997.538625900583, 51791.2717808809, 41846.08660293658, 6019.615354492111, 57096.30186513685, 46961.64094944489, -147749.36708800402, 41154.8142021673, 37738.43946915144, 64959.62321276942, 55096.49128872053, 11764.192493461669, 67018.57650501448, -124947.90553425618, 72007.08353603883, 51775.91613244011, 0.046, 1.018, 0.012, 192.0, 0.0, 0.0, 0.0, 0.0, 0.0, 0.0, 0.0, 0.0, 0.0, 1.696029882601056E9, 0.0, 2023-09-29 18:24:42.601
0.0, 29966.536756341073, 51765.05318463483, 41973.715063776384, 5988.702891910421, 57126.96845852953, 47002.05290342008, -147342.76650461752, 41209.64303131617, 37771.743568389844, 65007.791222070606, 55189.988635777074, 11782.14094425928, 67070.47725563971, -125351.39922516338, 71964.77168378493, 51731.23499527395, 0.046, 1.018, 0.012, 192.0, 0.0, 0.0, 0.0, 0.0, 0.0, 0.0, 0.0, 0.0, 0.0, 1.696029882661364E9, 0.0, 2023-09-29 18:24:42.661
2.0, 29995.996355533167, 51789.327179113294, 41834.597806286554, 6015.703799212432, 57092.39030985717, 46961.126859322416, -147719.08047426707, 41153.07076609979, 37730.88457952554, 64968.11687566244, 55110.7069981941, 11753.70952531213, 67026.75724348513, -124827.40727989761, 72041.99696087801, 51808.415568878125, 0.04, 1.022, 0.01, 192.0, 0.5, 32.0, 15.5, 120.0, 0.0, 40.0, 0.0, 0.0, 0.0, 1.696029882661374E9, 0.0, 2023-09-29 18:24:42.661
4.0, 29968.950744742247, 51768.27183583639, 41972.57512480916, 5991.09452856714, 57124.733284084, 46994.185089371815, -147403.40678732478, 41213.21931042902, 37772.592934679145, 64995.341300408996, 55167.48042911058, 11780.978653547603, 67061.93888925778, -125404.7975426671, 71939.67067476163, 51701.84245131522, 0.04, 1.022, 0.01, 192.0, 0.0, 0.0, 0.0, 0.0, 0.0, 0.0, 0.0, 0.0, 0.0, 1.696029882661378E9, 0.0, 2023-09-29 18:24:42.661
6.0, 29999.17030324582, 51794.646894293655, 41831.49091380727, 6016.709627712921, 57082.68965276357, 46951.113277806435, -147693.97946524376, 41149.15921082011, 37737.38893716204, 64982.86902700294, 55132.72346648258, 11758.403391647744, 67049.93600248528, -124747.41038649206, 72067.50030130152, 51830.14146448868, 0.04, 1.022, 0.01, 192.0, 0.0, 0.0, 0.0, 0.0, 0.0, 0.0, 0.0, 0.0, 0.0, 1.696029882661381E9, 0.0, 2023-09-29 18:24:42.661
8.0, 29977.39970414635, 51779.335949341774, 41978.69950278992, 5996.883630381064, 57130.65649636466, 47002.25406912018, -147469.4561921902, 41221.46710413302, 37769.68720789996, 65000.43749814481, 55148.615556790304, 11789.09233678488, 67039.38597910237, -125435.59824652651, 71908.73586043548, 51669.007738710374, 0.04, 1.022, 0.01, 192.0, 0.0, 0.0, 0.0, 0.0, 0.0, 0.0, 0.0, 0.0, 0.0, 1.696029882661384E9, 0.0, 2023-09-29 18:24:42.661
10.0, 29992.017745020123, 51790.84709773625, 41830.01569867322, 6000.415206005002, 57071.64789100265, 46943.714850391734, -147617.13416780642, 41142.27487352787, 37734.41615514948, 65005.28782669161, 55157.51155108352, 11763.298423683456, 67051.45592110824, -124670.40862684353, 72092.89188300275, 51849.22985425351, 0.04, 1.022, 0.01, 192.0, 0.0, 0.0, 0.0, 0.0, 0.0, 0.0, 0.0, 0.0, 0.0, 1.696029882661387E9, 0.0, 2023-09-29 18:24:42.661
12.0, 29985.044000750066, 51785.32621685579, 41955.23017111185, 5991.09452856714, 57129.47185390852, 47001.06942666405, -147525.58142251748, 41213.06284821783, 37755.38209144856, 64989.35103289498, 55126.21910884608, 11781.42568843671, 67015.35785381292, -125407.85973165749, 71893.17904629458, 51648.93587218951, 0.042, 1.024, 0.014, 192.0, 0.5, 40.0, 16.0, 0.0, 0.0, 56.0, 0.0, 0.0, 0.0, 1.69602988266139E9, 0.0, 2023-09-29 18:24:42.661
14.0, 30001.159608502345, 51798.04435945086, 41838.06232667713, 6002.516269983801, 57081.63912077417, 46955.89655111988, -147585.841725569, 41152.355510277215, 37750.55411464621, 65011.38985292791, 55184.08777524088, 11765.04185975097, 67069.29261318357, -124637.64096947205, 72097.87632201628, 51855.06365955635, 0.042, 1.024, 0.014, 192.0, 0.0, 0.0, 0.0, 0.0, 0.0, 0.0, 0.0, 0.0, 0.0, 1.696029882720745E9, 0.0, 2023-09-29 18:24:42.720
16.0, 29990.386067674885, 51787.024949434395, 41955.58779902313, 5997.196554803438, 57140.35715345826, 46997.35903708447, -147588.09925175898, 41212.66051681763, 37762.89227758554, 64973.6377565429, 55118.64186747574, 11786.56658966143, 67007.84766767593, -125392.43702798332, 71893.62608118368, 51644.15259887608, 0.042, 1.024, 0.014, 192.0, 0.0, 0.0, 0.0, 0.0, 0.0, 0.0, 0.0, 0.0, 0.0, 1.696029882720757E9, 0.0, 2023-09-29 18:24:42.720
18.0, 29991.637765364383, 51786.30969361183, 41844.119649424516, 5985.5289441977675, 57083.851943475245, 46952.20851328475, -147515.6572479793, 41152.04258585484, 37753.41513793649, 65011.211038972266, 55202.61737139433, 11767.701717341151, 67092.94075881729, -124618.08319307366, 72122.1279647503, 51871.40278475318, 0.042, 1.024, 0.014, 192.0, 0.0, 0.0, 0.0, 0.0, 0.0, 0.0, 0.0, 0.0, 0.0, 1.696029882720761E9, 0.0, 2023-09-29 18:24:42.720
20.0, 29987.569747873516, 51785.59443778926, 41933.01253712327, 5990.334569255659, 57130.16475798664, 46993.291019593606, -147644.6938687198, 41204.05509520234, 37752.945751302934, 64956.73983773468, 55092.46797471857, 11775.256606967045, 66985.85355113192, -125333.60723657695, 71896.33064226278, 51634.474293526924, 0.042, 1.024, 0.014, 192.0, 0.0, 0.0, 0.0, 0.0, 0.0, 0.0, 0.0, 0.0, 0.0, 1.696029882720764E9, 0.0, 2023-09-29 18:24:42.720
22.0, 29992.17420723131, 51791.919981470106, 41850.5793035721, 5987.272380265282, 57089.506934822435, 46961.126859322416, -147480.14032603984, 41160.78211793687, 37761.6629316405, 65014.02735877364, 55214.41909246673, 11766.47237139611, 67102.70847114426, -124626.44274549995, 72116.76354608101, 51861.70212765958, 0.042, 1.026, 0.018000000000000002, 192.0, 0.5, 40.0, 16.0, 8.0, 0.0, 72.0, 0.0, 0.0, 0.0, 1.696029882720767E9, 0.0, 2023-09-29 18:24:42.720
24.0, 29988.64263160737, 51792.05409193684, 41914.68410666992, 5990.446327977936, 57126.47672015151, 46990.00531315867, -147702.40607290342, 41202.691638790566, 37751.269370468784, 64946.16746260732, 55076.06179428838, 11777.223560479113, 66987.84285638844, -125274.59863121495, 71890.72035440449, 51633.35670630416, 0.042, 1.026, 0.018000000000000002, 192.0, 0.0, 0.0, 0.0, 0.0, 0.0, 0.0, 0.0, 0.0, 0.0, 1.69602988272077E9, 0.0, 2023-09-29 18:24:42.720
26.0, 29988.46381765173, 51789.10366166874, 41867.8348502916, 5983.360824985603, 57091.116260423216, 46965.75367042467, -147431.9499649942, 41164.67132147209, 37761.43941419595, 65023.61625714496, 55213.99440932208, 11770.361574931334, 67093.79012510659, -124647.94512366595, 72115.44479315815, 51852.247339754984, 0.042, 1.026, 0.018000000000000002, 192.0, 0.0, 0.0, 0.0, 0.0, 0.0, 0.0, 0.0, 0.0, 0.0, 1.696029882720773E9, 0.0, 2023-09-29 18:24:42.720
28.0, 29993.738829343183, 51797.70908328403, 41900.40134196298, 5996.704816425421, 57123.548641627865, 46991.882859692916, -147759.47007649782, 41182.284496102875, 37745.92730354396, 64956.29280284558, 55064.28242496043, 11780.464563425132, 66977.13637079434, -125168.02551365204, 71910.68046220309, 51641.58214826371, 0.042, 1.026, 0.018000000000000002, 192.0, 0.0, 0.0, 0.0, 0.0, 0.0, 0.0, 0.0, 0.0, 0.0, 1.696029882720776E9, 0.0, 2023-09-29 18:24:42.720
30.0, 29985.35692517244, 51790.735339013976, 41877.89313529649, 5980.857429606608, 57093.709062780035, 46979.5894002425, -147415.9461159642, 41166.07948137278, 37761.48411768486, 65030.76881537066, 55217.25776401255, 11772.66380461023, 67092.24785473918, -124701.58931035869, 72101.72082206259, 51842.88195882821, 0.042, 1.026, 0.018000000000000002, 192.0, 0.0, 0.0, 0.0, 0.0, 0.0, 0.0, 0.0, 0.0, 0.0, 1.696029882780498E9, 0.0, 2023-09-29 18:24:42.780
32.0, 29990.855454308446, 51794.31161812683, 41876.79789981817, 5988.702891910421, 57121.20170846006, 46993.02279866014, -147819.66332431594, 41178.03766465636, 37736.94190227293, 64950.01196265364, 55055.52054113395, 11770.987423776081, 66964.26176598809, -125076.74098929657, 71918.727090207, 51663.19628515199, 0.048, 1.018, 0.018000000000000002, 192.0, 0.5, 64.0, 15.5, 104.0, 0.0, 72.0, 0.0, 0.0, 0.0, 1.696029882780508E9, 0.0, 2023-09-29 18:24:42.780
34.0, 29976.72915181269, 51780.40883307563, 41895.93099307192, 5963.601882887111, 57098.13470818219, 46987.56897301305, -147387.3358830614, 41175.15428962163, 37757.37139670508, 65024.13034726743, 55217.97301983512, 11764.125438228302, 67107.0447095686, -124763.77186343336, 72088.33212713386, 51835.751752346965, 0.048, 1.018, 0.018000000000000002, 192.0, 0.0, 0.0, 0.0, 0.0, 0.0, 0.0, 0.0, 0.0, 0.0, 1.696029882780512E9, 0.0, 2023-09-29 18:24:42.780
36.0, 29993.35884968744, 51793.73047277099, 41858.648283320465, 5976.409432460003, 57103.275609406905, 46977.421281030336, -147819.3503998936, 41162.994940637946, 37736.85249529511, 64955.354029578455, 55067.70224186209, 11764.28190043949, 66988.98279535565, -124930.00178694747, 71954.55693656886, 51706.357503695195, 0.048, 1.018, 0.018000000000000002, 192.0, 0.0, 0.0, 0.0, 0.0, 0.0, 0.0, 0.0, 0.0, 0.0, 1.696029882780515E9, 0.0, 2023-09-29 18:24:42.780
38.0, 29976.259765179133, 51782.8228214768, 41904.648173409485, 5948.3132896796815, 57104.16967918512, 46982.025740388126, -147359.41855423673, 41177.523574533894, 37767.11675728759, 65024.1974025008, 55217.6824471572, 11765.555949873442, 67094.55008441808, -124813.95152973552, 72058.1572721192, 51815.59047884828, 0.048, 1.018, 0.018000000000000002, 192.0, 0.0, 0.0, 0.0, 0.0, 0.0, 0.0, 0.0, 0.0, 0.0, 1.696029882780518E9, 0.0, 2023-09-29 18:24:42.780
40.0, 29993.090628753976, 51798.33493212878, 41829.09927715055, 5969.167467256483, 57095.07251919181, 46966.24540880268, -147799.54675430618, 41148.95804512001, 37726.9059690125, 64950.079017887, 55073.29017797592, 11756.90582476924, 66989.2063128002, -124773.87485192715, 71973.06418097785, 51730.117408051185, 0.048, 1.018, 0.018000000000000002, 192.0, 0.0, 0.0, 0.0, 0.0, 0.0, 0.0, 0.0, 0.0, 0.0, 1.696029882780521E9, 0.0, 2023-09-29 18:24:42.780
42.0, 29978.964326258225, 51789.59540004676, 41910.1914060344, 5948.201530957405, 57107.72360655351, 46989.24535384719, -147367.21931305164, 41187.53715604987, 37761.70763512941, 65021.403434443884, 55202.662074883236, 11768.864008052828, 67076.08754349798, -124861.6725041476, 72026.70836767058, 51782.08521390978, 0.042, 1.016, 0.022, 192.0, 0.5, 40.0, 15.5, 96.0, 0.0, 88.0, 0.0, 0.0, 0.0, 1.696029882780524E9, 0.0, 2023-09-29 18:24:42.780
44.0, 30002.098381769465, 51806.314504899325, 41811.106122864025, 5974.822458603676, 57097.687673293076, 46956.857676131454, -147836.29302219072, 41153.07076609979, 37737.210123206394, 64970.4861605747, 55082.00735831349, 11765.555949873442, 67001.812696673, -124670.43097858799, 71990.02915501942, 51737.94051861054, 0.042, 1.016, 0.022, 192.0, 0.0, 0.0, 0.0, 0.0, 0.0, 0.0, 0.0, 0.0, 0.0, 1.696029882840652E9, 0.0, 2023-09-29 18:24:42.840
46.0, 29982.94293677127, 51788.61192329072, 41929.36920277705, 5949.609690858089, 57117.401911902656, 46993.64864750489, -147428.70896204817, 41205.910289992134, 37773.73287364637, 65019.950571054294, 55193.65432186775, 11778.408202935243, 67077.89803479887, -124967.95504903258, 71990.49854165298, 51733.49252146394, 0.042, 1.016, 0.022, 192.0, 0.0, 0.0, 0.0, 0.0, 0.0, 0.0, 0.0, 0.0, 0.0, 1.696029882840663E9, 0.0, 2023-09-29 18:24:42.840
48.0, 29999.706745112748, 51802.11237694173, 41805.384076283466, 5970.106240523606, 57083.6731295196, 46956.790620898086, -147821.63027782802, 41145.89585612963, 37737.52304762877, 64981.371460124436, 55109.29883829342, 11757.956356758637, 67029.30534235304, -124562.85203252459, 72033.03391135143, 51778.844210963754, 0.042, 1.016, 0.022, 192.0, 0.0, 0.0, 0.0, 0.0, 0.0, 0.0, 0.0, 0.0, 0.0, 1.696029882840666E9, 0.0, 2023-09-29 18:24:42.840
50.0, 29981.847701292958, 51791.696464025554, 41931.51497024477, 5952.671879848466, 57122.095778238276, 47004.39983658789, -147466.39400319982, 41197.55073756585, 37766.580315420666, 65013.66973086235, 55179.55037111645, 11777.290615712478, 67063.54821485856, -125019.0064333685, 71974.47234087854, 51732.509044707906, 0.042, 1.016, 0.022, 192.0, 0.0, 0.0, 0.0, 0.0, 0.0, 0.0, 0.0, 0.0, 0.0, 1.696029882840669E9, 0.0, 2023-09-29 18:24:42.840
52.0, 30001.02549803561, 51807.6779613111, 41795.34814302303, 5968.3851562005475, 57070.53030377988, 46962.26679828964, -147787.94619893387, 41132.52951294536, 37733.27621618226, 64993.84373353049, 55122.77694019997, 11760.124475970802, 67033.52982205509, -124460.23517373028, 72064.10283614432, 51837.83046458131, 0.044, 1.018, 0.024, 192.0, 0.5, 48.0, 15.5, 104.0, 0.0, 96.0, 0.0, 0.0, 0.0, 1.696029882840673E9, 0.0, 2023-09-29 18:24:42.840
54.0, 29981.64653559286, 51789.08130992429, 41936.63351972503, 5947.50862687929, 57129.53890914189, 47003.32695285403, -147529.78355047508, 41202.91515623512, 37766.781481120765, 65003.23146620172, 55160.372574373796, 11778.609368635342, 67048.90782224033, -125065.3192478799, 71947.24791613196, 51711.4089979421, 0.044, 1.018, 0.024, 192.0, 0.0, 0.0, 0.0, 0.0, 0.0, 0.0, 0.0, 0.0, 0.0, 1.696029882840676E9, 0.0, 2023-09-29 18:24:42.840
56.0, 29997.49392241167, 51796.99382746146, 41789.22376504228, 5955.778772327754, 57073.61484451471, 46940.02681255661, -147759.38066952, 41128.08151579875, 37738.77474531827, 64988.12168694993, 55149.75549575753, 11748.233347920579, 67042.71638902622, -124375.07502735556, 72097.33988014936, 51857.7905723799, 0.044, 1.018, 0.024, 192.0, 0.0, 0.0, 0.0, 0.0, 0.0, 0.0, 0.0, 0.0, 0.0, 1.696029882840679E9, 0.0, 2023-09-29 18:24:42.840
58.0, 29986.675678095304, 51791.13767041417, 41941.52855176074, 5949.632042602545, 57133.56222314385, 46997.64960976239, -147602.67258914383, 41199.78591201138, 37777.24209752585, 64986.78058228262, 55142.44647532064, 11778.922293057716, 67044.39276986037, -125094.5776813719, 71922.14690710866, 51678.663692315065, 0.044, 1.018, 0.024, 192.0, 0.0, 0.0, 0.0, 0.0, 0.0, 0.0, 0.0, 0.0, 0.0, 1.696029882840682E9, 0.0, 2023-09-29 18:24:42.840
60.0, 29994.632899121392, 51798.53609782888, 41797.829186657575, 5948.357993168592, 57080.67799576259, 46947.80521962705, -147728.60231740502, 41124.03585005234, 37746.75431808881, 65006.67363484784, 55169.22386517809, 11755.005926490538, 67074.25470045266, -124326.81761107655, 72111.93556927868, 51876.230761555526, 0.044, 1.018, 0.024, 192.0, 0.0, 0.0, 0.0, 0.0, 0.0, 0.0, 0.0, 0.0, 0.0, 1.696029882901127E9, 0.0, 2023-09-29 18:24:42.901
62.0, 29974.628087833895, 51782.15226914314, 41926.01644110876, 5936.913900007475, 57134.76921734443, 46994.877993449925, -147665.27982536316, 41188.09594966125, 37757.81843159419, 64980.47739034622, 55109.16472782668, 11768.886359797283, 67019.2694090926, -125090.55436736994, 71902.29855803234, 51657.18366589352, 0.038, 1.018, 0.016, 192.0, 0.5, 24.0, 15.5, 104.0, 0.0, 64.0, 0.0, 0.0, 0.0, 1.696029882901138E9, 0.0, 2023-09-29 18:24:42.901
64.0, 29986.78743681758, 51790.57887680279, 41803.4171227714, 5941.6748215764555, 57081.192085885064, 46943.33487073599, -147669.39254634292, 41127.63448090965, 37748.31894020068, 65016.039015774615, 55174.02949023599, 11747.51809209801, 67089.67740412682, -124291.97124147073, 72118.39522342625, 51878.73415693452, 0.038, 1.018, 0.016, 192.0, 0.0, 0.0, 0.0, 0.0, 0.0, 0.0, 0.0, 0.0, 0.0, 1.696029882901142E9, 0.0, 2023-09-29 18:24:42.901
66.0, 29983.211157704733, 51786.77908024539, 41910.526682201235, 5942.345373910114, 57128.57778413031, 46989.11124338046, -147716.82294807708, 41186.30781010483, 37754.912704815, 64975.04591644358, 55099.531125966445, 11764.416010906221, 67002.25973156211, -125021.66629095869, 71903.5726074663, 51662.83865724071, 0.038, 1.018, 0.016, 192.0, 0.0, 0.0, 0.0, 0.0, 0.0, 0.0, 0.0, 0.0, 0.0, 1.696029882901145E9, 0.0, 2023-09-29 18:24:42.901
68.0, 29993.157683987345, 51795.406853605135, 41818.392791556456, 5947.598033857112, 57080.87916146269, 46956.231827286705, -147616.86594687295, 41132.0601263118, 37756.454975182416, 65035.10505379499, 55206.17129876272, 11756.056458479938, 67109.95043634778, -124262.35518006745, 72125.57013339641, 51885.08205235983, 0.038, 1.018, 0.016, 192.0, 0.0, 0.0, 0.0, 0.0, 0.0, 0.0, 0.0, 0.0, 0.0, 1.696029882901148E9, 0.0, 2023-09-29 18:24:42.901
70.0, 29983.88171003839, 51789.23777213547, 41898.43438845091, 5943.217091943871, 57127.72841784101, 46983.63506598891, -147773.84224818257, 41177.970609423, 37749.83885882364, 64974.643585043385, 55088.89169560572, 11768.752249330551, 67000.38218502786, -124951.5935720913, 71899.92927312008, 51650.16521813455, 0.038, 1.018, 0.016, 192.0, 0.0, 0.0, 0.0, 0.0, 0.0, 0.0, 0.0, 0.0, 0.0, 1.696029882901152E9, 0.0, 2023-09-29 18:24:42.901
72.0, 29979.858396036434, 51788.16488840162, 41824.15954162592, 5934.790484284221, 57088.83638248878, 46948.52047544962, -147552.40351586384, 41133.71415540149, 37751.04585302423, 65036.46851020677, 55214.329685488905, 11751.161426444225, 67106.97765433522, -124255.60495324194, 72133.23678174458, 51886.445508771605, 0.042, 1.02, 0.016, 192.0, 0.5, 40.0, 15.5, 112.0, 0.0, 64.0, 0.0, 0.0, 0.0, 1.696029882901155E9, 0.0, 2023-09-29 18:24:42.901
74.0, 29981.199500703755, 51788.29899886835, 41880.19536497538, 5939.774923297754, 57130.187109731094, 46979.03060663112, -147805.00057995328, 41166.057129628316, 37735.46668713888, 64957.92448019081, 55061.26493945896, 11753.038972978471, 66987.3064145215, -124834.42572765658, 71918.41416578462, 51663.82213399674, 0.042, 1.02, 0.016, 192.0, 0.0, 0.0, 0.0, 0.0, 0.0, 0.0, 0.0, 0.0, 0.0, 1.696029882961346E9, 0.0, 2023-09-29 18:24:42.961
76.0, 29980.484244881183, 51786.91319071212, 41849.908751238436, 5936.176292440449, 57097.53121108189, 46962.19974305627, -147493.61842794638, 41148.578065464266, 37758.556039161216, 65026.56668741306, 55224.09739781587, 11754.827112534895, 67109.68221541432, -124274.04514241757, 72124.60900838482, 51877.66127320067, 0.042, 1.02, 0.016, 192.0, 0.0, 0.0, 0.0, 0.0, 0.0, 0.0, 0.0, 0.0, 0.0, 1.696029882961363E9, 0.0, 2023-09-29 18:24:42.961
78.0, 29992.688297353783, 51797.61967630621, 41863.94564675637, 5953.923577537964, 57126.23085096251, 46981.01991188764, -147857.01308930077, 41166.45946102851, 37746.441393666435, 64955.778712723106, 55072.28434947543, 11765.175970217702, 66978.36571673938, -124725.2374559924, 71929.23241010099, 51688.61021859768, 0.042, 1.02, 0.016, 192.0, 0.0, 0.0, 0.0, 0.0, 0.0, 0.0, 0.0, 0.0, 0.0, 1.696029882961366E9, 0.0, 2023-09-29 18:24:42.961
80.0, 29991.011916519634, 51801.710045541535, 41859.989387987785, 5939.171426197461, 57104.035568718384, 46976.05782461856, -147486.53292495405, 41157.07172835729, 37763.004036307815, 65043.73282715474, 55229.17124380723, 11768.059345252437, 67117.84060214051, -124336.18299200333, 72099.19507493914, 51863.98200559402, 0.042, 1.02, 0.016, 192.0, 0.0, 0.0, 0.0, 0.0, 0.0, 0.0, 0.0, 0.0, 0.0, 1.696029882961369E9, 0.0, 2023-09-29 18:24:42.961
82.0, 30006.680489382805, 51810.67309506811, 41840.87864647849, 5949.810856558187, 57117.5807258583, 46967.765327425645, -147893.82641241865, 41152.46726899949, 37744.29562619873, 64980.164465923845, 55069.60214014079, 11770.249816209056, 66995.12952508086, -124621.88298963106, 71939.00012242795, 51693.639361100126, 0.038, 1.024, 0.006, 192.0, 0.5, 24.0, 16.0, 0.0, 0.0, 24.0, 0.0, 0.0, 0.0, 1.696029882961373E9, 0.0, 2023-09-29 18:24:42.961
84.0, 29970.60477383194, 51770.663472493114, 41872.66282709394, 5918.652524787489, 57100.727510539, 46963.33968202349, -147445.33865992294, 41155.708271945514, 37768.63667591056, 65024.15269901189, 55219.090607057886, 11757.285804424979, 67110.01749158115, -124390.90006242992, 72079.50318807401, 51827.45925515405, 0.038, 1.024, 0.006, 192.0, 0.0, 0.0, 0.0, 0.0, 0.0, 0.0, 0.0, 0.0, 0.0, 1.696029882961376E9, 0.0, 2023-09-29 18:24:42.961
86.0, 29988.061486251532, 51782.48754530997, 41818.92923342338, 5941.898339021009, 57106.427205375105, 46957.50587672066, -147893.64759846302, 41132.37305073417, 37736.22664645036, 64939.908974159836, 55068.23868372902, 11747.026353719993, 66995.93418788126, -124456.7259498508, 71967.45389311957, 51715.655829388605, 0.038, 1.024, 0.006, 192.0, 0.0, 0.0, 0.0, 0.0, 0.0, 0.0, 0.0, 0.0, 0.0, 1.696029882961379E9, 0.0, 2023-09-29 18:24:42.961
88.0, 29972.683486066282, 51772.205742860526, 41882.139966742994, 5917.154957908983, 57121.11230148224, 46984.77500495613, -147459.1967414852, 41169.409891296615, 37775.63277192507, 65011.03222501663, 55214.86612735583, 11756.816417791417, 67087.86691282594, -124441.70557757684, 72043.51687950098, 51796.9267722281, 0.038, 1.024, 0.006, 192.0, 0.0, 0.0, 0.0, 0.0, 0.0, 0.0, 0.0, 0.0, 0.0, 1.696029882961382E9, 0.0, 2023-09-29 18:24:42.961
90.0, 29993.627070620903, 51790.02008319141, 41792.6659336884, 5936.802141285199, 57099.14053668267, 46956.991786598184, -147926.19173838996, 41136.28460601385, 37743.62507386507, 64956.65043075686, 55076.553532666396, 11745.595842074854, 67009.76991769909, -124344.07315779605, 71974.40528564516, 51733.51487320839, 0.038, 1.024, 0.006, 192.0, 0.0, 0.0, 0.0, 0.0, 0.0, 0.0, 0.0, 0.0, 0.0, 1.696029883020839E9, 0.0, 2023-09-29 18:24:43.020
92.0, 29971.990581988168, 51774.84324870625, 41885.358617944556, 5910.225917127838, 57118.11716772523, 46978.248295575184, -147479.73799463964, 41179.73639723497, 37766.915591587494, 65012.82036457305, 55194.50368815705, 11752.815455533917, 67083.03893602359, -124514.95224415687, 72005.4965621825, 51764.025004389885, 0.036000000000000004, 1.024, 0.012, 192.0, 0.5, 16.0, 16.0, 0.0, 0.0, 48.0, 0.0, 0.0, 0.0, 1.69602988302085E9, 0.0, 2023-09-29 18:24:43.020
94.0, 29998.030364278602, 51796.30092338335, 41781.043026571635, 5938.545577352712, 57095.43014710309, 46948.78869638308, -147922.12372089908, 41129.02028906588, 37741.70282384191, 64964.96527969424, 55085.18130602614, 11750.51322585502, 67022.17513587179, -124209.13567651936, 72007.53057092793, 51767.53422826937, 0.036000000000000004, 1.024, 0.012, 192.0, 0.0, 0.0, 0.0, 0.0, 0.0, 0.0, 0.0, 0.0, 0.0, 1.696029883020854E9, 0.0, 2023-09-29 18:24:43.020
96.0, 29972.25880292163, 51770.68582423757, 41904.67052515394, 5909.287143860715, 57127.750769585466, 46981.802222943574, -147505.2636868076, 41179.95991467952, 37766.24503925384, 64996.749460309686, 55180.60090310585, 11755.028278234993, 67076.55693013156, -124572.150358218, 71983.92712878312, 51737.739352910445, 0.036000000000000004, 1.024, 0.012, 192.0, 0.0, 0.0, 0.0, 0.0, 0.0, 0.0, 0.0, 0.0, 0.0, 1.696029883020857E9, 0.0, 2023-09-29 18:24:43.020
98.0, 29997.203349733754, 51790.310655869325, 41771.02944505566, 5936.869196518564, 57084.29897836435, 46938.70805963374, -147863.15981902598, 41116.03392553734, 37740.24996045232, 64963.66887851583, 55113.18804182864, 11741.259603650524, 67033.574525544, -124074.66758187623, 72054.44688253962, 51803.29701939786, 0.036000000000000004, 1.024, 0.012, 192.0, 0.0, 0.0, 0.0, 0.0, 0.0, 0.0, 0.0, 0.0, 0.0, 1.69602988302086E9, 0.0, 2023-09-29 18:24:43.020
100.0, 29987.59209961797, 51786.48850756747, 41906.43631296591, 5921.200623655394, 57135.64093537819, 46991.659342248364, -147559.332556645, 41185.86077521572, 37780.59485919415, 65002.82913480153, 55167.994519233056, 11770.182760975691, 67070.07492423951, -124604.87331210058, 71958.98258197101, 51707.408035684595, 0.036000000000000004, 1.024, 0.012, 192.0, 0.0, 0.0, 0.0, 0.0, 0.0, 0.0, 0.0, 0.0, 0.0, 1.69602988302087E9, 0.0, 2023-09-29 18:24:43.020
102.0, 29996.063410766532, 51788.54486805736, 41760.97116005077, 5928.263774903271, 57079.26983586191, 46933.4777514312, -147841.32216469315, 41109.41780917857, 37749.50358265681, 64986.66882356034, 55135.07039965039, 11751.586109588876, 67043.90103148235, -123982.15371157572, 72073.84819672683, 51821.53604287339, 0.04, 1.022, 0.004, 192.0, 0.5, 32.0, 15.5, 120.0, 0.0, 16.0, 0.0, 0.0, 0.0, 1.696029883020873E9, 0.0, 2023-09-29 18:24:43.020
104.0, 29977.086779723977, 51772.272798093894, 41904.42465596493, 5906.917858948453, 57125.60500211776, 46983.411548544354, -147574.64350159687, 41174.84136519925, 37770.827146867174, 64985.99827122668, 55146.179216644676, 11763.164313216725, 67029.84178421996, -124617.14441980654, 71937.8825352052, 51680.67534931604, 0.04, 1.022, 0.004, 192.0, 0.0, 0.0, 0.0, 0.0, 0.0, 0.0, 0.0, 0.0, 0.0, 1.69602988308129E9, 0.0, 2023-09-29 18:24:43.081
106.0, 30000.89138756888, 51792.45642333704, 41762.49107867373, 5922.139396922516, 57075.40298407114, 46930.013231040626, -147780.0336813967, 41100.901794541096, 37750.10707975711, 64986.02062297114, 55149.107295168316, 11745.327621141389, 67054.07107520952, -123874.53006202342, 72097.22812142708, 51844.11130477325, 0.04, 1.022, 0.004, 192.0, 0.0, 0.0, 0.0, 0.0, 0.0, 0.0, 0.0, 0.0, 0.0, 1.696029883081306E9, 0.0, 2023-09-29 18:24:43.081
108.0, 29987.614451362428, 51784.56625754431, 41893.38289420401, 5908.840108971609, 57129.22598471952, 46973.688539706294, -147666.01743293018, 41160.55860049232, 37771.14007128955, 64977.07992518901, 55126.263812335, 11764.795990561961, 67029.88648770886, -124606.16971327899, 71908.08765984626, 51652.35568909117, 0.04, 1.022, 0.004, 192.0, 0.0, 0.0, 0.0, 0.0, 0.0, 0.0, 0.0, 0.0, 0.0, 1.696029883081309E9, 0.0, 2023-09-29 18:24:43.081
110.0, 29997.56097764504, 51793.797528004354, 41770.38124446646, 5918.406655598481, 57079.06867016181, 46920.80431232504, -147741.6333844225, 41098.93484102903, 37755.49385017084, 65006.6959865923, 55180.10916472783, 11752.882510767284, 67077.20513072076, -123844.42226224212, 72099.50799936152, 51850.727421132025, 0.04, 1.022, 0.004, 192.0, 0.0, 0.0, 0.0, 0.0, 0.0, 0.0, 0.0, 0.0, 0.0, 1.696029883081313E9, 0.0, 2023-09-29 18:24:43.081
112.0, 29983.077047238, 51782.95693194353, 41886.83383307861, 5913.399864840492, 57122.34164742728, 46968.56999022603, -147722.74616035775, 41162.413795282104, 37765.663893898, 64967.35691635095, 55110.95286738311, 11765.42183940671, 67005.70190020822, -124584.46616941287, 71896.4200492406, 51647.46065705546, 0.042, 1.02, 0.01, 192.0, 0.5, 40.0, 15.5, 112.0, 0.0, 40.0, 0.0, 0.0, 0.0, 1.696029883081316E9, 0.0, 2023-09-29 18:24:43.081
114.0, 29994.118808998923, 51792.43407159258, 41770.291837488636, 5920.284202132726, 57077.81697247231, 46933.43304794229, -147685.0164157172, 41108.92607080055, 37759.09248102814, 65009.892286049406, 55195.91184805773, 11751.94373750016, 67086.61521513644, -123786.08420921376, 72116.98706352556, 51879.47176450155, 0.042, 1.02, 0.01, 192.0, 0.0, 0.0, 0.0, 0.0, 0.0, 0.0, 0.0, 0.0, 0.0, 1.696029883081319E9, 0.0, 2023-09-29 18:24:43.081
116.0, 29986.094532739466, 51783.82864997729, 41877.311989940645, 5914.115120663062, 57129.60596437526, 46976.90719090786, -147765.99678587876, 41174.595496010246, 37764.38984446405, 64959.891433702884, 55093.92083810817, 11766.695888840663, 66989.5639407115, -124512.18062784441, 71895.63773818467, 51654.23323562542, 0.042, 1.02, 0.01, 192.0, 0.0, 0.0, 0.0, 0.0, 0.0, 0.0, 0.0, 0.0, 0.0, 1.696029883081322E9, 0.0, 2023-09-29 18:24:43.081
118.0, 29994.968175288224, 51792.79169950387, 41787.547384208134, 5918.74193176531, 57084.56719929782, 46942.91018759134, -147602.80669961058, 41122.58298666275, 37758.690149627946, 65016.24018147471, 55215.55903143395, 11748.635679320774, 67086.39169769188, -123742.25243833692, 72137.93064808019, 51895.6991309761, 0.042, 1.02, 0.01, 192.0, 0.0, 0.0, 0.0, 0.0, 0.0, 0.0, 0.0, 0.0, 0.0, 1.696029883081325E9, 0.0, 2023-09-29 18:24:43.081
120.0, 29996.93512880029, 51798.133766428684, 41858.223600175814, 5921.066513188662, 57132.9363742991, 46976.34839729648, -147829.92277502094, 41159.70923420301, 37756.2091059934, 64965.45701807225, 55084.42134671466, 11769.355746430845, 66982.54549295253, -124408.35677484951, 71901.9185783766, 51655.686099015016, 0.042, 1.02, 0.01, 192.0, 0.0, 0.0, 0.0, 0.0, 0.0, 0.0, 0.0, 0.0, 0.0, 1.696029883141499E9, 0.0, 2023-09-29 18:24:43.141
122.0, 29986.496864139663, 51787.62844653469, 41792.867099388495, 5904.50387054728, 57087.58468479928, 46940.205626512245, -147576.96808302024, 41122.359469218194, 37759.7630333618, 65034.54626018361, 55224.90206061627, 11757.017583491515, 67083.77654359062, -123780.09394169974, 72118.46227865962, 51876.36487202226, 0.042, 1.018, 0.01, 192.0, 0.5, 40.0, 15.5, 104.0, 0.0, 40.0, 0.0, 0.0, 0.0, 1.69602988314151E9, 0.0, 2023-09-29 18:24:43.141
124.0, 29985.714553083726, 51785.61678953371, 41821.00794565773, 5907.878983960031, 57111.99278974447, 46956.27653077561, -147885.57861871464, 41143.057184583806, 37738.75239357381, 64951.75539872115, 55061.53316039243, 11756.950528258149, 66975.86232136039, -124314.01006150366, 71911.03809011437, 51667.86779974316, 0.042, 1.018, 0.01, 192.0, 0.0, 0.0, 0.0, 0.0, 0.0, 0.0, 0.0, 0.0, 0.0, 1.696029883141513E9, 0.0, 2023-09-29 18:24:43.141
126.0, 29977.332648912987, 51778.12895514118, 41793.44824474433, 5888.254152328272, 57080.78975448487, 46936.40582995485, -147534.3209545995, 41118.06793428277, 37755.00211179282, 65024.68914087882, 55215.42492096721, 11743.472426351598, 67085.54233140258, -123806.11137224572, 72107.44286864315, 51869.07820332983, 0.042, 1.018, 0.01, 192.0, 0.0, 0.0, 0.0, 0.0, 0.0, 0.0, 0.0, 0.0, 0.0, 1.696029883141516E9, 0.0, 2023-09-29 18:24:43.141
128.0, 29989.112018240932, 51788.58957154627, 41801.02548611468, 5902.2910478462045, 57107.09775770876, 46937.52341717761, -147919.64267726455, 41124.79580936382, 37737.94773077342, 64944.53578526209, 55059.56620688036, 11747.249871164546, 66962.27246073156, -124190.60608036592, 71919.30823556283, 51672.62872131213, 0.042, 1.018, 0.01, 192.0, 0.0, 0.0, 0.0, 0.0, 0.0, 0.0, 0.0, 0.0, 0.0, 1.69602988314152E9, 0.0, 2023-09-29 18:24:43.141
130.0, 29975.052770978546, 51776.0725946513, 41806.12168385049, 5876.117155089039, 57091.56329531233, 46933.58951015348, -147502.46971875068, 41123.94644307452, 37755.113870515095, 65018.81063208707, 55218.800034379965, 11746.758132786528, 67084.42474417982, -123844.7798901534, 72094.1659324367, 51840.80324659387, 0.042, 1.018, 0.01, 192.0, 0.0, 0.0, 0.0, 0.0, 0.0, 0.0, 0.0, 0.0, 0.0, 1.696029883141523E9, 0.0, 2023-09-29 18:24:43.141
132.0, 29984.641669349872, 51778.59834177475, 41768.77191886568, 5881.6380359695, 57096.30186513685, 46920.849015813954, -147941.79325601977, 41103.449893409, 37732.62801559306, 64937.53968924758, 55057.97923302403, 11736.521033825999, 66971.43667595825, -124038.278941903, 71949.30427662186, 51690.957151765484, 0.04, 1.018, 0.014, 192.0, 0.5, 32.0, 15.5, 104.0, 0.0, 56.0, 0.0, 0.0, 0.0, 1.696029883141526E9, 0.0, 2023-09-29 18:24:43.141
134.0, 29968.570765086504, 51763.93559741206, 41817.409314800425, 5863.913102616442, 57093.86552499122, 46931.264928730125, -147507.3200472975, 41121.91243432909, 37755.71736761539, 65006.62893135893, 55209.54641217547, 11742.712467040119, 67074.45586615276, -123912.05864096388, 72045.59559173531, 51789.48364132448, 0.04, 1.018, 0.014, 192.0, 0.0, 0.0, 0.0, 0.0, 0.0, 0.0, 0.0, 0.0, 0.0, 1.696029883200361E9, 0.0, 2023-09-29 18:24:43.200
136.0, 29988.396762418364, 51780.67705400909, 41752.231627968744, 5885.3260738046265, 57089.10460342224, 46918.837358812976, -147953.30440441423, 41090.26236418037, 37717.31707064117, 64935.505680502145, 55067.85870407328, 11731.715408768106, 66979.19273128423, -123895.80892274487, 71959.65313430467, 51704.79288158332, 0.04, 1.018, 0.014, 192.0, 0.0, 0.0, 0.0, 0.0, 0.0, 0.0, 0.0, 0.0, 0.0, 1.696029883200374E9, 0.0, 2023-09-29 18:24:43.200
138.0, 29984.149930971857, 51781.54877204285, 41842.75619301274, 5878.397033023481, 57105.44372861907, 46957.81880114303, -147506.40362577484, 41134.54116994634, 37760.6123996511, 65001.219809200746, 55216.60956342335, 11747.048705464447, 67077.22748246521, -123949.07312978187, 72018.63938792222, 51771.4681352935, 0.04, 1.018, 0.014, 192.0, 0.0, 0.0, 0.0, 0.0, 0.0, 0.0, 0.0, 0.0, 0.0, 1.696029883200378E9, 0.0, 2023-09-29 18:24:43.200
140.0, 29996.957480544745, 51791.31648436982, 41747.96244477778, 5901.329922834626, 57086.8247254878, 46929.297975218054, -147945.70481129942, 41094.55389911579, 37733.007995248794, 64952.47065454372, 55100.24638178902, 11746.579318830887, 67005.72425195268, -123751.12608088566, 71986.36346892876, 51748.11056233771, 0.04, 1.018, 0.014, 192.0, 0.0, 0.0, 0.0, 0.0, 0.0, 0.0, 0.0, 0.0, 0.0, 1.696029883200381E9, 0.0, 2023-09-29 18:24:43.200
142.0, 29977.55616635754, 51778.508934796926, 41857.64245481997, 5880.185172579905, 57111.29988566636, 46967.29594079208, -147490.77975640056, 41147.41577475259, 37761.57352466268, 65003.92437027984, 55209.8816883423, 11755.85529277984, 67069.71729632822, -123979.04681909643, 71998.16519000116, 51767.37776605818, 0.036000000000000004, 1.018, 0.012, 192.0, 0.5, 16.0, 15.5, 104.0, 0.0, 48.0, 0.0, 0.0, 0.0, 1.696029883200385E9, 0.0, 2023-09-29 18:24:43.200
144.0, 30006.54637891607, 51800.39129261867, 41734.52904636014, 5907.096672904096, 57086.95883595453, 46931.15317000785, -147919.17329063098, 41101.90762304159, 37736.38310866155, 64964.42883782731, 55115.9596581411, 11745.79700777495, 67011.98274040017, -123587.98069810637, 72015.77836463194, 51796.0774059388, 0.036000000000000004, 1.018, 0.012, 192.0, 0.0, 0.0, 0.0, 0.0, 0.0, 0.0, 0.0, 0.0, 0.0, 1.696029883200388E9, 0.0, 2023-09-29 18:24:43.200
146.0, 29985.64749785036, 51783.40396683264, 41866.73961481328, 5877.97234987883, 57127.41549341864, 46965.038414602095, -147553.45404785324, 41163.464327271504, 37773.218783523895, 65006.36071042546, 55196.6271038803, 11762.918444027717, 67061.06717122403, -124034.25562790105, 71954.80280575786, 51737.38172499916, 0.036000000000000004, 1.018, 0.012, 192.0, 0.0, 0.0, 0.0, 0.0, 0.0, 0.0, 0.0, 0.0, 0.0, 1.696029883200391E9, 0.0, 2023-09-29 18:24:43.200
148.0, 30005.026460293113, 51800.68186529659, 41726.30360440059, 5900.234687356316, 57086.645911532156, 46919.3738006799, -147890.29483679472, 41095.91735552756, 37738.5065243848, 64982.064364202546, 55141.64181252025, 11743.673592051697, 67031.94284819876, -123476.6913624634, 72042.8016236784, 51830.521444144426, 0.036000000000000004, 1.018, 0.012, 192.0, 0.0, 0.0, 0.0, 0.0, 0.0, 0.0, 0.0, 0.0, 0.0, 1.696029883200395E9, 0.0, 2023-09-29 18:24:43.200
150.0, 29981.780646059593, 51781.861696465225, 41867.387815402486, 5878.374681279026, 57126.96845852953, 46965.328987280016, -147593.37426345042, 41157.33994929075, 37765.395672964536, 65002.896190034895, 55179.14803971625, 11766.919406285217, 67054.40635137634, -124053.20990719914, 71927.73484322248, 51712.19130899803, 0.036000000000000004, 1.018, 0.012, 192.0, 0.0, 0.0, 0.0, 0.0, 0.0, 0.0, 0.0, 0.0, 0.0, 1.696029883260609E9, 0.0, 2023-09-29 18:24:43.260
152.0, 30007.395745205373, 51804.16873743162, 41729.097572457504, 5895.898448931986, 57080.61094052922, 46921.38545768088, -147833.47670238934, 41092.877518281646, 37737.29953018422, 64992.10029746298, 55171.95077800164, 11751.161426444225, 67058.80964503404, -123364.39619831994, 72065.68981000064, 51857.16472353515, 0.04, 1.016, 0.006, 192.0, 0.5, 32.0, 15.5, 96.0, 0.0, 24.0, 0.0, 0.0, 0.0, 1.69602988326062E9, 0.0, 2023-09-29 18:24:43.260
154.0, 29992.285965953586, 51790.78004250289, 41865.510268868245, 5883.403823781469, 57128.33191494131, 46972.68271120581, -147651.82407520106, 41161.07269061478, 37765.730949131364, 64992.256759674165, 55167.145152943755, 11773.312005199434, 67037.75430175714, -124051.93585776519, 71893.69313641706, 51690.487765131926, 0.04, 1.016, 0.006, 192.0, 0.0, 0.0, 0.0, 0.0, 0.0, 0.0, 0.0, 0.0, 0.0, 1.696029883260623E9, 0.0, 2023-09-29 18:24:43.260
156.0, 30011.910797585348, 51808.66143806713, 41732.249168425704, 5901.866364701554, 57080.49918180695, 46928.64977462885, -147800.39612059548, 41099.73950382942, 37745.77084133278, 65005.35488192498, 55195.5765718909, 11752.56958634491, 67073.33827893, -123283.46053164727, 72071.59067053684, 51872.63213069822, 0.04, 1.016, 0.006, 192.0, 0.0, 0.0, 0.0, 0.0, 0.0, 0.0, 0.0, 0.0, 0.0, 1.696029883260627E9, 0.0, 2023-09-29 18:24:43.260
158.0, 29989.760218830135, 51789.52834481339, 41865.89024852398, 5887.829469183621, 57140.26774648044, 46979.14236535339, -147706.5634973721, 41172.53913552036, 37763.94280957494, 64987.942872994296, 55149.88960622426, 11772.797915076962, 67025.48319405118, -124032.06515694442, 71870.24615648344, 51667.01843345386, 0.04, 1.016, 0.006, 192.0, 0.0, 0.0, 0.0, 0.0, 0.0, 0.0, 0.0, 0.0, 0.0, 1.69602988326063E9, 0.0, 2023-09-29 18:24:43.260
160.0, 30010.27912024011, 51809.86843226772, 41751.22579946826, 5908.370722338048, 57093.17262091311, 46934.19300725377, -147728.356448216, 41113.7540476029, 37747.80485007821, 65019.77175709865, 55213.8826505998, 11753.933042756682, 67087.64339538138, -123211.7337836902, 72096.13288594877, 51890.51352626247, 0.04, 1.016, 0.006, 192.0, 0.0, 0.0, 0.0, 0.0, 0.0, 0.0, 0.0, 0.0, 0.0, 1.696029883260633E9, 0.0, 2023-09-29 18:24:43.260
162.0, 30000.35494570195, 51803.654647309144, 41868.55010611416, 5908.996571182796, 57142.637031392704, 46979.790565942596, -147777.37382380653, 41178.88703094567, 37761.059434540206, 64985.0371462151, 55139.20547237462, 11781.04570878097, 67006.99830138663, -123970.64256318123, 71872.39192395115, 51662.168104907054, 0.042, 1.016, 0.006, 192.0, 0.5, 40.0, 15.5, 96.0, 0.0, 24.0, 0.0, 0.0, 0.0, 1.696029883260636E9, 0.0, 2023-09-29 18:24:43.260
164.0, 30001.04784978007, 51801.7771007749, 41768.526049676664, 5910.4494345723915, 57091.65270229014, 46941.4796759462, -147677.93091272484, 41123.29824248532, 37759.33835021715, 65029.49476593671, 55247.76789519405, 11765.488894640077, 67104.31779674505, -123204.69298418678, 72091.30490914642, 51889.53004950644, 0.042, 1.016, 0.006, 192.0, 0.0, 0.0, 0.0, 0.0, 0.0, 0.0, 0.0, 0.0, 0.0, 1.696029883320983E9, 0.0, 2023-09-29 18:24:43.320
166.0, 29997.89625381187, 51800.458347852036, 41864.2809229232, 5920.6641817884665, 57137.85375807927, 46987.457214290764, -147804.17356540842, 41182.15038563614, 37755.94088505994, 64961.97014593722, 55129.594222258835, 11773.870798810816, 67005.32192055248, -123887.60583252978, 71864.2111854805, 51661.184628151015, 0.042, 1.016, 0.006, 192.0, 0.0, 0.0, 0.0, 0.0, 0.0, 0.0, 0.0, 0.0, 0.0, 1.696029883320995E9, 0.0, 2023-09-29 18:24:43.320
168.0, 30009.02742255061, 51810.60603983475, 41797.00217211273, 5934.36580113957, 57094.87135349171, 46959.53988546609, -147612.97674333773, 41152.10964108821, 37763.495774685834, 65027.147832768904, 55258.384973810316, 11768.439324908177, 67110.53158170362, -123161.26354471012, 72086.25341489952, 51901.532936278934, 0.042, 1.016, 0.006, 192.0, 0.0, 0.0, 0.0, 0.0, 0.0, 0.0, 0.0, 0.0, 0.0, 1.696029883320999E9, 0.0, 2023-09-29 18:24:43.320
170.0, 30008.692146383783, 51809.06376946733, 41873.86982129453, 5947.732144323843, 57138.993697046484, 46985.46790903425, -147876.81673488818, 41197.68484803258, 37770.3130567447, 64968.54155880709, 55113.791538928934, 11789.494668185076, 67003.53378099606, -123790.48750287146, 71845.23455443795, 51669.05244219929, 0.042, 1.016, 0.006, 192.0, 0.0, 0.0, 0.0, 0.0, 0.0, 0.0, 0.0, 0.0, 0.0, 1.696029883321002E9, 0.0, 2023-09-29 18:24:43.321
172.0, 30007.03811729409, 51806.20274617705, 41837.90586446594, 5939.84197853112, 57097.82178375981, 46957.77409765412, -147577.10219348696, 41168.784042451865, 37786.853347641634, 65046.862071378484, 55263.1458953793, 11779.078755268903, 67127.67536970084, -123197.830998639, 72054.53628951745, 51887.071357616354, 0.04, 1.02, 0.006, 192.0, 0.5, 32.0, 15.5, 112.0, 0.0, 24.0, 0.0, 0.0, 0.0, 1.696029883321005E9, 0.0, 2023-09-29 18:24:43.321
174.0, 30011.70963188525, 51809.622563078716, 41867.879553780505, 5961.478467163857, 57132.48933940999, 46974.895533906885, -147937.3229071287, 41189.9734961955, 37766.17798402047, 64968.27333787362, 55109.6564662047, 11782.833848337395, 67002.30443505102, -123675.77835032683, 71844.54165035984, 51680.630645827136, 0.04, 1.02, 0.006, 192.0, 0.0, 0.0, 0.0, 0.0, 0.0, 0.0, 0.0, 0.0, 0.0, 1.696029883321008E9, 0.0, 2023-09-29 18:24:43.321
176.0, 30002.74658235867, 51804.079330453795, 41869.57828635911, 5952.5377693817345, 57105.42137687461, 46963.831420401504, -147561.47832411272, 41182.46331005851, 37788.06034184222, 65045.118635310966, 55264.107020390875, 11785.247836738568, 67123.27207604314, -123246.91542946285, 72029.32352177186, 51864.71961316105, 0.04, 1.02, 0.006, 192.0, 0.0, 0.0, 0.0, 0.0, 0.0, 0.0, 0.0, 0.0, 0.0, 1.696029883321011E9, 0.0, 2023-09-29 18:24:43.321
178.0, 30017.90106509937, 51815.50107187046, 41868.438347391886, 5978.242275505338, 57121.5816881158, 46975.96841764074, -147970.49289590036, 41187.447749072046, 37760.768861862285, 64967.40161983987, 55101.81100390089, 11789.695833885175, 66986.63586218785, -123543.70189234041, 71867.65335412663, 51697.77443382436, 0.04, 1.02, 0.006, 192.0, 0.0, 0.0, 0.0, 0.0, 0.0, 0.0, 0.0, 0.0, 0.0, 1.696029883321015E9, 0.0, 2023-09-29 18:24:43.321
180.0, 30001.40547769135, 51802.71587404202, 41905.11756004305, 5968.720432367377, 57108.41651063163, 46972.81682167254, -147535.2150243777, 41187.85008047224, 37789.71437093191, 65046.795016145115, 55259.07787788843, 11794.926142087716, 67129.32939879053, -123283.37112466946, 72015.53249544294, 51852.35909847726, 0.04, 1.02, 0.006, 192.0, 0.0, 0.0, 0.0, 0.0, 0.0, 0.0, 0.0, 0.0, 0.0, 1.696029883381259E9, 0.0, 2023-09-29 18:24:43.381
182.0, 30018.236341266198, 51817.512728871436, 41865.30910316815, 5996.928333869974, 57111.79162404438, 46973.912057150854, -147994.61042816765, 41171.04156864185, 37759.315998472695, 64971.17906465281, 55102.92859112366, 11786.879514083805, 67009.74756595463, -123396.89563475797, 71892.48614221647, 51733.17959704156, 0.038, 1.018, 0.004, 192.0, 0.5, 24.0, 15.5, 104.0, 0.0, 16.0, 0.0, 0.0, 0.0, 1.69602988338127E9, 0.0, 2023-09-29 18:24:43.381
184.0, 29998.209178234243, 51801.218307163515, 41934.353641790585, 5974.6659963924885, 57122.3863509162, 46988.06071139106, -147556.02449846562, 41201.48464458998, 37796.710466946424, 65049.61133594649, 55249.80190393948, 11800.983464835104, 67114.77841315012, -123362.49630004124, 71972.34892515528, 51833.42717092361, 0.038, 1.018, 0.004, 192.0, 0.0, 0.0, 0.0, 0.0, 0.0, 0.0, 0.0, 0.0, 0.0, 1.696029883381274E9, 0.0, 2023-09-29 18:24:43.381
186.0, 30018.973948833223, 51817.982115504994, 41857.24012341978, 6003.365636273103, 57108.461214120536, 46965.37369076892, -148000.8242131262, 41164.85013542773, 37756.52203041578, 64975.31413737704, 55105.14141382473, 11783.258531482046, 67015.58137125747, -123262.58400232602, 71908.91467439111, 51778.91126619712, 0.038, 1.018, 0.004, 192.0, 0.0, 0.0, 0.0, 0.0, 0.0, 0.0, 0.0, 0.0, 0.0, 1.696029883381277E9, 0.0, 2023-09-29 18:24:43.381
188.0, 30003.238320736687, 51808.773196789414, 41956.593627523616, 5985.171316286483, 57132.06465626534, 46994.72153123874, -147592.65900762787, 41206.08910394777, 37800.57731873719, 65044.78335914414, 55232.993392109085, 11804.04565382548, 67102.08262229951, -123426.69051011688, 71934.48507004799, 51806.940353744074, 0.038, 1.018, 0.004, 192.0, 0.0, 0.0, 0.0, 0.0, 0.0, 0.0, 0.0, 0.0, 0.0, 1.69602988338128E9, 0.0, 2023-09-29 18:24:43.381
190.0, 30015.46472495374, 51815.6798858261, 41850.28873089418, 6002.7844909172645, 57098.96172272703, 46960.32219652202, -148000.2207160259, 41155.350644034224, 37764.680417141964, 64986.534713093606, 55126.57673675737, 11784.085546026892, 67034.6697610223, -123148.43364339277, 71927.26545658892, 51806.26980141042, 0.038, 1.018, 0.004, 192.0, 0.0, 0.0, 0.0, 0.0, 0.0, 0.0, 0.0, 0.0, 0.0, 1.696029883381283E9, 0.0, 2023-09-29 18:24:43.381
192.0, 29994.811713077037, 51802.626467064205, 41966.6072090396, 5986.2889035092485, 57135.01508653344, 47000.264763863655, -147599.92332457582, 41209.1736446826, 37801.873719915595, 65037.362579984976, 55220.72228440312, 11799.999988079071, 67079.14973248837, -123477.87600491954, 71901.82917139879, 51782.59930403224, 0.042, 1.022, 0.004, 192.0, 0.5, 40.0, 15.5, 120.0, 0.0, 16.0, 0.0, 0.0, 0.0, 1.696029883381287E9, 0.0, 2023-09-29 18:24:43.381
194.0, 30009.89914058437, 51815.81399629283, 41834.44134407536, 6006.76310143031, 57098.939370982574, 46957.72939416521, -147976.90784655904, 41145.73939391845, 37765.97681832038, 64995.02837598663, 55141.95473694262, 11779.726955858107, 67049.48896759617, -123013.60792083836, 71957.10503543676, 51837.45048492557, 0.042, 1.022, 0.004, 192.0, 0.0, 0.0, 0.0, 0.0, 0.0, 0.0, 0.0, 0.0, 0.0, 1.696029883441702E9, 0.0, 2023-09-29 18:24:43.441
196.0, 29987.346230428964, 51793.663417537624, 41971.79281375323, 5985.931275597964, 57137.22790923452, 47001.82938597553, -147640.42468552885, 41203.384542868684, 37796.53165299078, 65023.63860888942, 55195.777737591, 11795.261418254546, 67072.04187775157, -123518.84675250611, 71867.67570587108, 51748.53524548236, 0.042, 1.022, 0.004, 192.0, 0.0, 0.0, 0.0, 0.0, 0.0, 0.0, 0.0, 0.0, 0.0, 1.696029883441713E9, 0.0, 2023-09-29 18:24:43.441
198.0, 30011.776687118614, 51813.377656147204, 41835.26835862021, 6005.444348507446, 57095.34074012527, 46952.946120851775, -147952.90207301403, 41134.742335646435, 37765.21685900889, 64997.352957409974, 55153.53294057047, 11774.80957207794, 67051.0759414525, -122910.78989634394, 71974.31587866734, 51860.69629915909, 0.042, 1.022, 0.004, 192.0, 0.0, 0.0, 0.0, 0.0, 0.0, 0.0, 0.0, 0.0, 0.0, 1.696029883441717E9, 0.0, 2023-09-29 18:24:43.441
200.0, 29988.977907774202, 51798.44669085106, 41976.01729345528, 5986.557124442712, 57139.12780751322, 46999.281287107624, -147706.362331672, 41204.97151672501, 37792.038952355266, 65005.73486158072, 55172.84484777986, 11800.022339823527, 67048.34902862896, -123553.98369478986, 71832.42700486505, 51717.600431156214, 0.042, 1.022, 0.004, 192.0, 0.0, 0.0, 0.0, 0.0, 0.0, 0.0, 0.0, 0.0, 0.0, 1.69602988344172E9, 0.0, 2023-09-29 18:24:43.441
202.0, 30009.742678373183, 51814.092911969776, 41836.58711154308, 6004.840851407153, 57090.08808017828, 46945.2794725036, -147905.13639511305, 41134.47411471297, 37769.53074568877, 65009.37819592693, 55168.329795399884, 11781.895075070272, 67063.99524974766, -122834.41398554016, 71993.11369575426, 51872.810944653866, 0.042, 1.024, 0.006, 192.0, 0.5, 40.0, 16.0, 0.0, 0.0, 24.0, 0.0, 0.0, 0.0, 1.696029883441734E9, 0.0, 2023-09-29 18:24:43.441
204.0, 29987.368582173418, 51794.937466971576, 41966.674264272966, 5986.266551764793, 57148.56024367336, 46997.91783069585, -147775.98801565028, 41205.73147603649, 37789.82612965419, 64997.59882659899, 55147.34150735635, 11801.229334024112, 67033.1274906549, -123553.87193606758, 71823.57571406076, 51685.57038135176, 0.042, 1.024, 0.006, 192.0, 0.0, 0.0, 0.0, 0.0, 0.0, 0.0, 0.0, 0.0, 0.0, 1.696029883441737E9, 0.0, 2023-09-29 18:24:43.441
206.0, 29998.209178234243, 51804.235792664986, 41837.816457488116, 5995.18489780246, 57093.75376626894, 46948.609882427445, -147870.02180457377, 41134.96585309099, 37766.87088809859, 65013.13328899542, 55174.87885652529, 11772.932025543694, 67069.51613062812, -122783.92139481562, 72012.53736168591, 51881.058738357875, 0.042, 1.024, 0.006, 192.0, 0.0, 0.0, 0.0, 0.0, 0.0, 0.0, 0.0, 0.0, 0.0, 1.69602988344174E9, 0.0, 2023-09-29 18:24:43.441
208.0, 29984.440503649774, 51794.04339719337, 41971.54694456422, 5987.987636087852, 57142.92760407062, 46990.25118234768, -147816.9364114924, 41197.05899918783, 37781.600687694634, 64988.702832305775, 55123.49219602254, 11795.350825232366, 67010.06049037701, -123528.56976134417, 71808.6000452757, 51678.12725044814, 0.042, 1.024, 0.006, 192.0, 0.0, 0.0, 0.0, 0.0, 0.0, 0.0, 0.0, 0.0, 0.0, 1.696029883441744E9, 0.0, 2023-09-29 18:24:43.441
210.0, 30002.545416658573, 51811.0307229794, 41854.28969315168, 5999.118804826594, 57092.949103468556, 46950.979167339705, -147791.50012630227, 41146.47700148547, 37772.2129550234, 65023.035111789126, 55198.37053994781, 11776.66476686773, 67092.96311056174, -122720.84477196274, 72029.21176304958, 51903.79046246892, 0.042, 1.024, 0.006, 192.0, 0.0, 0.0, 0.0, 0.0, 0.0, 0.0, 0.0, 0.0, 0.0, 1.696029883500974E9, 0.0, 2023-09-29 18:24:43.500
212.0, 29993.448256665262, 51801.82180426381, 41951.49742978781, 5990.4016244890245, 57143.687563382104, 46991.63699050391, -147888.88667689404, 41201.17172016761, 37777.979705092876, 64978.085753689506, 55102.615666701284, 11795.663749654741, 66997.18588557075, -123461.24630704478, 71797.96061491498, 51671.77935502283, 0.042, 1.018, 0.008, 192.0, 0.5, 40.0, 15.5, 104.0, 0.0, 32.0, 0.0, 0.0, 0.0, 1.696029883500984E9, 0.0, 2023-09-29 18:24:43.500
214.0, 29990.900157797358, 51799.78779551838, 41857.21777167532, 5986.42301397598, 57089.10460342224, 46948.54282719408, -147757.74899217475, 41145.985263107454, 37773.82228062419, 65028.08660603603, 55203.69025512818, 11775.033089522492, 67092.60548265046, -122716.84380970524, 72027.37892000424, 51899.230706600036, 0.042, 1.018, 0.008, 192.0, 0.0, 0.0, 0.0, 0.0, 0.0, 0.0, 0.0, 0.0, 0.0, 1.696029883500987E9, 0.0, 2023-09-29 18:24:43.500
216.0, 29986.630974606393, 51797.61967630621, 41930.62090046655, 5989.798127388732, 57140.11128426925, 46990.765272470155, -147946.80004677773, 41191.716932263014, 37769.08371079966, 64961.009020925645, 55079.1016315343, 11785.04667103847, 66990.72623142318, -123391.68767829987, 71801.42513530554, 51664.42563109704, 0.042, 1.018, 0.008, 192.0, 0.0, 0.0, 0.0, 0.0, 0.0, 0.0, 0.0, 0.0, 0.0, 1.696029883500991E9, 0.0, 2023-09-29 18:24:43.500
218.0, 29990.207253719243, 51801.844156008265, 41873.109861983045, 5985.931275597964, 57102.515650095425, 46964.837248902, -147711.99497127475, 41158.4128330246, 37781.06424582771, 65028.31012348058, 55222.33161000391, 11773.04378426597, 67109.36929099195, -122732.75825175742, 72024.74141415852, 51894.40272979769, 0.042, 1.018, 0.008, 192.0, 0.0, 0.0, 0.0, 0.0, 0.0, 0.0, 0.0, 0.0, 0.0, 1.696029883500994E9, 0.0, 2023-09-29 18:24:43.500
220.0, 29998.455047423253, 51810.091949712274, 41926.12819983104, 6001.6669036944995, 57142.68173488161, 46984.2385630892, -148012.84945164318, 41189.95114445104, 37769.24017301085, 64970.77673325262, 55080.68860539063, 11790.656958896752, 66993.74371692464, -123298.61501438798, 71811.46106856597, 51682.150564450094, 0.042, 1.018, 0.008, 192.0, 0.0, 0.0, 0.0, 0.0, 0.0, 0.0, 0.0, 0.0, 0.0, 1.696029883500997E9, 0.0, 2023-09-29 18:24:43.500
222.0, 29990.207253719243, 51801.575935074805, 41895.975696560825, 5979.47162145038, 57109.39998738766, 46970.268722804634, -147678.84733424752, 41166.414757539605, 37790.563737221215, 65046.28092602264, 55233.39572350928, 11785.717223372129, 67106.41886072385, -122776.25474646744, 72016.94065534361, 51895.02857864244, 0.04, 1.022, 0.012, 192.0, 0.5, 32.0, 15.5, 120.0, 0.0, 48.0, 0.0, 0.0, 0.0, 1.696029883501E9, 0.0, 2023-09-29 18:24:43.501
224.0, 29997.471570667218, 51807.90147875565, 41898.05440879517, 5990.714548911399, 57135.46212142255, 46974.94023739579, -148066.11365868017, 41174.729606476976, 37761.93115257396, 64962.39482908187, 55068.97629129604, 11777.558836645941, 66994.8613041474, -123197.96510910573, 71822.99456870492, 51697.95324778, 0.04, 1.022, 0.012, 192.0, 0.0, 0.0, 0.0, 0.0, 0.0, 0.0, 0.0, 0.0, 0.0, 1.696029883560686E9, 0.0, 2023-09-29 18:24:43.560
226.0, 29993.336497942986, 51806.4262636216, 41909.96788858985, 5982.958493585407, 57126.32025794033, 46971.00633037166, -147671.4042033439, 41173.52261227639, 37793.6706297005, 65044.425731232855, 55232.94868862018, 11787.371252461822, 67119.13700331892, -122844.06993914486, 71997.67345162314, 51871.02280509744, 0.04, 1.022, 0.012, 192.0, 0.0, 0.0, 0.0, 0.0, 0.0, 0.0, 0.0, 0.0, 0.0, 1.696029883560704E9, 0.0, 2023-09-29 18:24:43.560
228.0, 29996.912777055833, 51806.87329851071, 41887.929068556914, 5993.888496624052, 57130.20946147555, 46970.91692339384, -148076.88719950762, 41171.91328667561, 37766.33444623166, 64968.87683497392, 55079.056928045386, 11787.326548972911, 67003.28791180706, -123075.52225297956, 71856.79040632134, 51724.171844026074, 0.04, 1.022, 0.012, 192.0, 0.0, 0.0, 0.0, 0.0, 0.0, 0.0, 0.0, 0.0, 0.0, 1.696029883560708E9, 0.0, 2023-09-29 18:24:43.560
230.0, 29980.64070709237, 51789.17071690211, 41919.53443521672, 5971.402641702014, 57120.50880438195, 46975.36492054044, -147635.50730174867, 41181.502185046935, 37783.74645516234, 65029.740635125716, 55222.97981059311, 11779.123458757813, 67109.63751192541, -122889.19811120012, 71985.46939915055, 51852.672022899635, 0.04, 1.022, 0.012, 192.0, 0.0, 0.0, 0.0, 0.0, 0.0, 0.0, 0.0, 0.0, 0.0, 1.696029883560711E9, 0.0, 2023-09-29 18:24:43.560
232.0, 29997.426867178307, 51802.000618219456, 41854.26734140723, 5992.145060556539, 57121.536984626895, 46958.71287092124, -148100.62475211915, 41156.9152661461, 37757.75137636082, 64957.522148790624, 55075.25713148798, 11770.652147609253, 67001.94680713974, -122935.2203530336, 71880.68442114406, 51740.130989567166, 0.042, 1.02, 0.01, 192.0, 0.5, 40.0, 15.5, 112.0, 0.0, 40.0, 0.0, 0.0, 0.0, 1.696029883560714E9, 0.0, 2023-09-29 18:24:43.560
234.0, 29983.255861193644, 51793.70812102653, 41936.521761002754, 5974.531885925757, 57133.40576093266, 46978.740033953196, -147677.19330515782, 41192.81216774132, 37790.9213651325, 65030.45589094829, 55215.40256922276, 11783.057365781948, 67096.71820363024, -122985.95881294714, 71946.30914286485, 51802.49235659747, 0.042, 1.02, 0.01, 192.0, 0.0, 0.0, 0.0, 0.0, 0.0, 0.0, 0.0, 0.0, 0.0, 1.696029883560717E9, 0.0, 2023-09-29 18:24:43.560
236.0, 29995.79518983307, 51803.98992347597, 41853.35091988456, 5992.860316379109, 57118.56420261433, 46954.51074296364, -148126.7539413874, 41158.05520511332, 37758.958370561406, 64973.6377565429, 55091.41744272917, 11774.85427556685, 67015.24609509064, -122846.46157580157, 71904.60078771124, 51757.69946070903, 0.042, 1.02, 0.01, 192.0, 0.0, 0.0, 0.0, 0.0, 0.0, 0.0, 0.0, 0.0, 0.0, 1.69602988356072E9, 0.0, 2023-09-29 18:24:43.560
238.0, 29976.84091053497, 51788.65662677964, 41944.63544424003, 5960.763211341287, 57129.09187425279, 46981.57870549902, -147685.23993316173, 41192.409836341125, 37785.19931855194, 65018.832983831526, 55198.392891692274, 11771.300348198456, 67084.04476452408, -123054.22104051364, 71932.60752351374, 51781.213495876014, 0.042, 1.02, 0.01, 192.0, 0.0, 0.0, 0.0, 0.0, 0.0, 0.0, 0.0, 0.0, 0.0, 1.696029883560723E9, 0.0, 2023-09-29 18:24:43.560
240.0, 29993.872939809913, 51807.38738863318, 41841.90682672344, 6010.518194498801, 57113.71387406754, 46962.28915003409, -148113.70052262553, 41159.083385358266, 37755.7620711043, 64982.35493688047, 55099.73229166654, 11768.662842352729, 67031.16053714282, -122717.33554808325, 71942.26347711844, 51803.36407463122, 0.042, 1.02, 0.01, 192.0, 0.0, 0.0, 0.0, 0.0, 0.0, 0.0, 0.0, 0.0, 0.0, 1.696029883621962E9, 0.0, 2023-09-29 18:24:43.621
242.0, 29975.87978552339, 51793.7751762599, 41970.49641257482, 5982.75732788531, 57145.162778516155, 46995.034455661116, -147722.34382895756, 41214.00162148495, 37785.26637378531, 65032.37814097144, 55191.59796137786, 11797.854220611362, 67078.07684875451, -123137.68245430976, 71898.81168589732, 51769.903513181634, 0.044, 1.022, 0.012, 192.0, 0.5, 48.0, 15.5, 120.0, 0.0, 48.0, 0.0, 0.0, 0.0, 1.696029883621972E9, 0.0, 2023-09-29 18:24:43.621
244.0, 30001.763105602637, 51819.323220172315, 41829.47925680629, 6012.038113121762, 57106.695426308564, 46958.55640871006, -148068.61705405917, 41152.10964108821, 37744.74266108783, 65003.00794875717, 55126.82260594638, 11777.558836645941, 67040.5259180696, -122596.25614836886, 71978.71917232504, 51860.07045031434, 0.044, 1.022, 0.012, 192.0, 0.0, 0.0, 0.0, 0.0, 0.0, 0.0, 0.0, 0.0, 0.0, 1.696029883621976E9, 0.0, 2023-09-29 18:24:43.621
246.0, 29973.26463142212, 51797.9773042175, 41964.59555203862, 5986.355958742614, 57149.1860925181, 47006.769121500154, -147760.11827708702, 41214.47100811851, 37777.487966714856, 65035.93206833984, 55178.03045249348, 11802.346921246877, 67056.50741535514, -123170.42775993679, 71869.7097146165, 51744.176655313575, 0.044, 1.022, 0.012, 192.0, 0.0, 0.0, 0.0, 0.0, 0.0, 0.0, 0.0, 0.0, 0.0, 1.696029883621979E9, 0.0, 2023-09-29 18:24:43.621
248.0, 30003.148913758865, 51818.31739167183, 41828.13815213897, 6010.853470665631, 57101.28630415038, 46961.596245955974, -148033.32364956423, 41144.174771806574, 37744.09446049863, 65020.95639955478, 55144.59224278835, 11780.24104598058, 67049.82424376301, -122509.4643246489, 71998.52281791244, 51870.32990101933, 0.044, 1.022, 0.012, 192.0, 0.0, 0.0, 0.0, 0.0, 0.0, 0.0, 0.0, 0.0, 0.0, 1.696029883621982E9, 0.0, 2023-09-29 18:24:43.621
250.0, 29983.9264135273, 51804.19108917607, 41975.97258996637, 5999.811708904709, 57157.90327285568, 47017.96734547226, -147839.17639722544, 41215.99092674148, 37777.6667806705, 65031.551126426595, 55157.220978405596, 11809.968866106137, 67041.71056052572, -123207.19637956576, 71838.48432761244, 51705.016399027874, 0.044, 1.022, 0.012, 192.0, 0.0, 0.0, 0.0, 0.0, 0.0, 0.0, 0.0, 0.0, 0.0, 1.696029883621985E9, 0.0, 2023-09-29 18:24:43.621
252.0, 29989.782570574593, 51808.19205143357, 41831.49091380727, 6005.064368851706, 57101.040434961375, 46964.278455290616, -147994.85629735666, 41139.05622232631, 37748.98949253434, 65032.44519620481, 55167.86040876632, 11785.203133249657, 67079.84263656648, -122470.34877185212, 72016.0018820765, 51892.234610585525, 0.04, 1.024, 0.008, 192.0, 0.5, 32.0, 16.0, 0.0, 0.0, 32.0, 0.0, 0.0, 0.0, 1.696029883621988E9, 0.0, 2023-09-29 18:24:43.621
254.0, 29977.77968380209, 51798.24552515096, 41962.8521159711, 5990.960418100407, 57153.902310598176, 47008.4455023343, -147897.1121188536, 41204.39037136917, 37770.15659453352, 65009.735823838215, 55127.18023385766, 11806.660807926752, 67032.1216621544, -123217.41112678185, 71823.59806580521, 51700.680160603544, 0.04, 1.024, 0.008, 192.0, 0.0, 0.0, 0.0, 0.0, 0.0, 0.0, 0.0, 0.0, 0.0, 1.696029883621992E9, 0.0, 2023-09-29 18:24:43.621
0.0, 29990.408419419342, 51808.61673457822, 41828.85340796154, 5993.620275690589, 57097.888838993174, 46958.19878079877, -147950.8680642686, 41140.263216526895, 37750.59881813512, 65034.45685320579, 55174.409469891725, 11779.458734924643, 67084.35768894646, -122440.71035870438, 72025.68018742563, 51909.6019160273, 0.04, 1.024, 0.008, 192.0, 0.0, 0.0, 0.0, 0.0, 0.0, 0.0, 0.0, 0.0, 0.0, 1.696029883682187E9, 0.0, 2023-09-29 18:24:43.682
2.0, 29982.31708792652, 51801.79945251936, 41945.93184541844, 5991.876839623075, 57157.72445890003, 47001.02472317514, -147975.41027968054, 41205.01622021392, 37761.08178628466, 65000.12457372244, 55102.88388763474, 11802.883363113806, 67006.73008045317, -123213.81249592455, 71810.56699878776, 51692.164145966075, 0.04, 1.024, 0.008, 192.0, 0.0, 0.0, 0.0, 0.0, 0.0, 0.0, 0.0, 0.0, 0.0, 1.696029883682197E9, 0.0, 2023-09-29 18:24:43.682
4.0, 29985.960422272736, 51801.62063856371, 41838.21878888831, 5983.561990685701, 57106.04722571936, 46957.282359276105, -147903.54942125673, 41146.87933288566, 37755.22562923737, 65048.06906557907, 55196.425938180204, 11783.794973348973, 67093.99129080669, -122449.09226287511, 72040.07471085485, 51926.94686972462, 0.04, 1.024, 0.008, 192.0, 0.0, 0.0, 0.0, 0.0, 0.0, 0.0, 0.0, 0.0, 0.0, 1.6960298836822E9, 0.0, 2023-09-29 18:24:43.682
6.0, 29976.617393090415, 51796.2785716389, 41927.91633938746, 5976.7223568823765, 57150.482493696516, 46987.613676501955, -148008.15558530757, 41189.70527526204, 37754.46566992589, 64985.50653284867, 55083.01318681398, 11786.387775705789, 66987.57463545498, -123163.34225694445, 71822.18990590452, 51696.23216345694, 0.044, 1.02, 0.01, 192.0, 0.5, 48.0, 15.5, 112.0, 0.0, 40.0, 0.0, 0.0, 0.0, 1.696029883682203E9, 0.0, 2023-09-29 18:24:43.682
8.0, 29976.75150355715, 51796.122109427706, 41841.92917846789, 5968.765135856287, 57108.796490287365, 46953.974301096714, -147805.71583577583, 41144.442992740034, 37752.409309436, 65047.68908592333, 55197.36471144733, 11769.981595275593, 67097.67932864181, -122430.24974229929, 72062.89584194373, 51930.411390115194, 0.044, 1.02, 0.01, 192.0, 0.0, 0.0, 0.0, 0.0, 0.0, 0.0, 0.0, 0.0, 0.0, 1.696029883682207E9, 0.0, 2023-09-29 18:24:43.682
