%OpenBCI Raw EXG Data
%Number of channels = 16
%Sample Rate = 125 Hz
%Board = OpenBCI_GUI$BoardCytonSerialDaisy
Sample Index, EXG Channel 0, EXG Channel 1, EXG Channel 2, EXG Channel 3, EXG Channel 4, EXG Channel 5, EXG Channel 6, EXG Channel 7, EXG Channel 8, EXG Channel 9, EXG Channel 10, EXG Channel 11, EXG Channel 12, EXG Channel 13, EXG Channel 14, EXG Channel 15, Accel Channel 0, Accel Channel 1, Accel Channel 2, Other, Other, Other, Other, Other, Other, Other, Analog Channel 0, Analog Channel 1, Analog Channel 2, Timestamp, Other, Timestamp (Formatted)
0.0, 30624.102726471752, 52167.965730186195, 42542.23168399712, 6275.341662805279, 57568.37070803293, 47556.1750002116, -161163.31948796744, 41201.082313189785, 0.0, 0.0, 0.0, 0.0, 0.0, 0.0, 0.0, 0.0, 0.0, 0.0, 0.0, 192.0, 0.0, 0.0, 0.0, 0.0, 0.0, 0.0, 0.0, 0.0, 0.0, 1.696029963042937E9, 0.0, 2023-09-29 18:26:03.042
240.0, 30628.05898524034, 52166.57992202997, 42590.69026597623, 6286.115203632737, 57605.385196850926, 47577.90089582216, -161397.20814194778, 41227.233854202495, 38213.637556271264, 66194.75825962523, 55169.045051222456, 12152.665812094905, 67337.80411932518, -129141.20455279405, 72794.87076936613, 53429.02880061016, 0.0, 0.0, 0.0, 192.0, 0.0, 0.0, 0.0, 0.0, 0.0, 0.0, 0.0, 0.0, 0.0, 1.696029963042945E9, 0.0, 2023-09-29 18:26:03.042
242.0, 30623.119249715717, 52164.680023751265, 42556.02271032604, 6276.369843050224, 57570.24825456718, 47561.38295666969, -161140.20778420064, 41208.45838886004, 38240.25848391753, 66262.10406566907, 55294.77361378355, 12148.776608559681, 67444.84662352165, -128719.02480352222, 72965.19106211557, 53610.48026209835, 0.0, 0.0, 0.0, 192.0, 0.0, 0.0, 0.0, 0.0, 0.0, 0.0, 0.0, 0.0, 0.0, 1.696029963042949E9, 0.0, 2023-09-29 18:26:03.042
244.0, 30622.739270059978, 52163.47302955068, 42572.920629134256, 6279.566142507332, 57589.4931065432, 47565.965064283024, -161409.3898426759, 41207.56431908182, 38210.26244285851, 66186.71163162132, 55164.10531569783, 12150.74356207175, 67328.52814537623, -129079.78195903086, 72808.99707186187, 53450.441771798345, 0.032, 1.02, 0.014, 192.0, 0.5, 0.0, 15.5, 112.0, 0.0, 56.0, 0.0, 0.0, 0.0, 1.696029963042952E9, 0.0, 2023-09-29 18:26:03.042
246.0, 30613.5750548333, 52155.80638120251, 42562.974102851644, 6269.820781924818, 57572.03639412361, 47562.25467470344, -161091.43627779916, 41204.658592302636, 38232.882408247286, 66253.34218184258, 55287.77751776904, 12143.83687303506, 67427.54637331323, -128785.76711246576, 72950.75183519743, 53593.917619456966, 0.032, 1.02, 0.014, 192.0, 0.0, 0.0, 0.0, 0.0, 0.0, 0.0, 0.0, 0.0, 0.0, 1.696029963042955E9, 0.0, 2023-09-29 18:26:03.042
248.0, 30620.705261314546, 52162.310738839005, 42543.23751249761, 6281.823668697318, 57581.44647853929, 47549.69299431956, -161425.93013357284, 41195.09204567576, 38199.51125377551, 66181.5260269077, 55156.72924002758, 12138.315992154598, 67318.40280513797, -128992.40898995507, 72817.58014173272, 53452.16285612141, 0.032, 1.02, 0.014, 192.0, 0.0, 0.0, 0.0, 0.0, 0.0, 0.0, 0.0, 0.0, 0.0, 1.696029963042958E9, 0.0, 2023-09-29 18:26:03.042
250.0, 30607.20480766354, 52151.64895673382, 42572.02655935605, 6264.568121977821, 57580.77592620563, 47566.546209638866, -161077.9134724037, 41218.51667386493, 38234.134105936784, 66258.12545515603, 55278.9485787092, 12142.49576836774, 67422.83015523317, -128884.31595376921, 72919.0123580709, 53550.2423107913, 0.032, 1.02, 0.014, 192.0, 0.0, 0.0, 0.0, 0.0, 0.0, 0.0, 0.0, 0.0, 0.0, 1.696029963042961E9, 0.0, 2023-09-29 18:26:03.042
252.0, 30618.157162446638, 52158.108610881405, 42528.97709953512, 6276.52630526141, 57578.36193780446, 47541.869883760206, -161425.19252600582, 41188.632391528176, 38196.583175251864, 66187.27042523271, 55160.976071474084, 12128.838852505549, 67330.47274714384, -128909.37225930361, 72844.22342112345, 53477.643844800456, 0.032, 1.02, 0.014, 192.0, 0.0, 0.0, 0.0, 0.0, 0.0, 0.0, 0.0, 0.0, 0.0, 1.696029963042964E9, 0.0, 2023-09-29 18:26:03.042
254.0, 30607.24951115245, 52144.76461944159, 42578.70973094818, 6265.037508611383, 57590.92361818834, 47566.389747427675, -161084.30607131793, 41218.09199072028, 38235.810486770926, 66235.21491708934, 55274.61234028487, 12138.472454365785, 67410.06730914919, -128972.96297227895, 72905.33309046425, 53531.131569282006, 0.022, 1.02, 0.014, 192.0, 0.0, 88.0, 15.5, 112.0, 0.0, 56.0, 0.0, 0.0, 0.0, 1.696029963042968E9, 0.0, 2023-09-29 18:26:03.042
0.0, 30624.281540427393, 52159.38266031536, 42517.823579051925, 6284.617636754231, 57585.82742045253, 47538.87475000319, -161443.99034309274, 41185.72666474899, 38206.015611412, 66188.09743977756, 55172.35310940184, 12131.297544395631, 67335.97127627984, -128858.83496509017, 72854.54992706179, 53496.59812409856, 0.022, 1.02, 0.014, 192.0, 0.0, 0.0, 0.0, 0.0, 0.0, 0.0, 0.0, 0.0, 0.0, 1.696029963042971E9, 0.0, 2023-09-29 18:26:03.042
0.0, 15342.527966800686, 26047.895973670005, 21314.534105602994, 3099.9187350176257, 28794.65714629378, 23813.14621128395, -81008.44395261335, 20597.847771388027, 19118.519916357985, 33104.14053251035, 27613.79213497545, 6073.036023740295, 33681.66490574657, -64679.8687791668, 36402.83333096902, 26713.553275293503, 0.026000000000000002, 1.02, 0.012, 192.0, 0.0, 104.0, 15.5, 112.0, 0.0, 48.0, 0.0, 0.0, 0.0, 1.69602996315944E9, 0.0, 2023-09-29 18:26:03.159
2.0, 30686.665259202156, 52092.08155776043, 42634.857313019915, 6205.805385804819, 57619.489147602224, 47591.73662563999, -162201.75918361655, 41161.85500167072, 38402.263927729604, 66486.78380093382, 54766.95952021593, 12082.861314160982, 67292.89946471447, -130187.31089679133, 72843.30699960077, 53596.5998287916, 0.026000000000000002, 1.02, 0.012, 192.0, 0.0, 0.0, 0.0, 0.0, 0.0, 0.0, 0.0, 0.0, 0.0, 1.696029963217966E9, 0.0, 2023-09-29 18:26:03.217
4.0, 30682.01609635545, 52092.21566822716, 42664.60748488992, 6210.3427899292465, 57597.11505140246, 47640.351669830285, -162004.81796322085, 41214.24749067396, 38424.146285551345, 66530.5038130884, 54840.742628662905, 12096.361767811986, 67378.81957040066, -130515.47920888415, 72883.94247102052, 53570.26947382325, 0.026000000000000002, 1.02, 0.012, 192.0, 0.0, 0.0, 0.0, 0.0, 0.0, 0.0, 0.0, 0.0, 0.0, 1.696029963217976E9, 0.0, 2023-09-29 18:26:03.217
6.0, 30688.02871561393, 52093.69088336121, 42633.024469974574, 6215.103711498226, 57611.71074053177, 47585.52284068142, -162212.286855255, 41157.09408010174, 38406.77898010957, 66497.78085920583, 54773.41917436352, 12087.398718285409, 67303.11421193054, -130145.71430036, 72840.66949375505, 53615.509404600794, 0.026000000000000002, 1.02, 0.012, 192.0, 0.0, 0.0, 0.0, 0.0, 0.0, 0.0, 0.0, 0.0, 0.0, 1.696029963217979E9, 0.0, 2023-09-29 18:26:03.217
8.0, 30682.01609635545, 52095.52372640654, 42670.68715938177, 6214.433159164568, 57595.438670568314, 47650.67817576864, -162012.12698365774, 41221.847083788765, 38426.04618383005, 66520.37847285015, 54829.075018057236, 12097.926389923858, 67367.86721561757, -130595.52080577861, 72868.81034002428, 53552.36572651455, 0.026000000000000002, 1.022, 0.002, 192.0, 0.0, 104.0, 15.5, 120.0, 0.0, 8.0, 0.0, 0.0, 0.0, 1.696029963217982E9, 0.0, 2023-09-29 18:26:03.217
10.0, 30690.487407504013, 52096.70836886267, 42632.7115455522, 6222.636249379665, 57607.08392942953, 47594.57529718582, -162209.47053545364, 41160.75976619241, 38408.3659539659, 66511.1472023901, 54775.18496217549, 12093.098413121512, 67297.0792409276, -130086.92921244256, 72853.03000843883, 53644.27609971477, 0.026000000000000002, 1.022, 0.002, 192.0, 0.0, 0.0, 0.0, 0.0, 0.0, 0.0, 0.0, 0.0, 0.0, 1.696029963217986E9, 0.0, 2023-09-29 18:26:03.217
12.0, 30680.83145389932, 52096.19427874021, 42679.58315367498, 6219.395246433645, 57593.18114437832, 47650.27584436844, -162021.91704772916, 41215.65565057465, 38424.3698029959, 66505.96159767648, 54822.972991820934, 12095.19947710031, 67369.0518580737, -130658.08333850901, 72864.76467427787, 53530.997458815276, 0.026000000000000002, 1.022, 0.002, 192.0, 0.0, 0.0, 0.0, 0.0, 0.0, 0.0, 0.0, 0.0, 0.0, 1.696029963217989E9, 0.0, 2023-09-29 18:26:03.217
14.0, 30697.5952622408, 52109.448863202204, 42638.768868299594, 6234.460322196523, 57608.76031026367, 47596.05051231987, -162208.82233486444, 41156.35647253472, 38404.633212641864, 66520.71374901697, 54780.30351165575, 12095.62416024496, 67302.82363925263, -130059.79419467381, 72863.11064518818, 53654.46849518639, 0.026000000000000002, 1.022, 0.002, 192.0, 0.0, 0.0, 0.0, 0.0, 0.0, 0.0, 0.0, 0.0, 0.0, 1.696029963217992E9, 0.0, 2023-09-29 18:26:03.217
16.0, 30674.662372429655, 52091.52276414904, 42695.11761607142, 6220.110502256215, 57602.568877049554, 47639.882283196726, -162037.56326884788, 41207.519615592915, 38428.08019257548, 66503.30174008629, 54813.36174170515, 12105.190706871834, 67365.07324756065, -130721.76345846218, 72833.76280471835, 53506.54465038117, 0.026000000000000002, 1.022, 0.002, 192.0, 0.0, 0.0, 0.0, 0.0, 0.0, 0.0, 0.0, 0.0, 0.0, 1.696029963278174E9, 0.0, 2023-09-29 18:26:03.278
18.0, 30688.252233058483, 52101.335179964924, 42637.718336310194, 6227.866557582207, 57602.099490415996, 47593.48006170751, -162181.17322697322, 41152.31080678831, 38395.17842473727, 66515.63990302561, 54786.02555823631, 12093.232523588244, 67317.28521791521, -130035.20727577298, 72876.14171220562, 53675.076803574186, 0.032, 1.018, 0.002, 192.0, 0.5, 0.0, 15.5, 104.0, 0.0, 8.0, 0.0, 0.0, 0.0, 1.696029963278186E9, 0.0, 2023-09-29 18:26:03.278
20.0, 30672.024866583928, 52090.852211815385, 42693.91062187083, 6221.630420879176, 57605.362845106465, 47634.87549243874, -162042.3018386724, 41194.68971427557, 38420.07826806048, 66480.45825725296, 54795.636808352094, 12094.752442211206, 67368.2471952733, -130712.50983625768, 72831.3935198061, 53506.723464336814, 0.032, 1.018, 0.002, 192.0, 0.0, 0.0, 0.0, 0.0, 0.0, 0.0, 0.0, 0.0, 0.0, 1.69602996327819E9, 0.0, 2023-09-29 18:26:03.278
22.0, 30682.038448099906, 52095.09904326189, 42633.516208352594, 6222.345676701746, 57589.87308619894, 47585.053454047855, -162151.3783516143, 41145.1135450737, 38393.56909913648, 66511.52718204584, 54788.171325704025, 12087.890456663425, 67309.79738352267, -130040.30347350879, 72884.23304369843, 53682.45287924443, 0.032, 1.018, 0.002, 192.0, 0.0, 0.0, 0.0, 0.0, 0.0, 0.0, 0.0, 0.0, 0.0, 1.696029963278193E9, 0.0, 2023-09-29 18:26:03.278
24.0, 30681.34554402179, 52097.4459764297, 42702.89602314187, 6233.275679740391, 57608.939124219316, 47626.42653303463, -162058.14922549122, 41200.56822306731, 38421.978166339184, 66467.89657686908, 54781.89048551208, 12097.121727123467, 67357.96539282387, -130710.45347576779, 72815.79200217628, 53487.63507457198, 0.032, 1.018, 0.002, 192.0, 0.0, 0.0, 0.0, 0.0, 0.0, 0.0, 0.0, 0.0, 0.0, 1.696029963278196E9, 0.0, 2023-09-29 18:26:03.278
26.0, 30685.25709930147, 52098.295342719, 42639.126496210876, 6232.4710169400005, 57587.66026349786, 47596.85517512026, -162133.63106651677, 41160.08921385875, 38407.717753376695, 66524.33473161873, 54804.398692178576, 12100.094509136023, 67324.52718311873, -130074.7028082255, 72895.81124732629, 53673.95921635142, 0.032, 1.018, 0.002, 192.0, 0.0, 0.0, 0.0, 0.0, 0.0, 0.0, 0.0, 0.0, 0.0, 1.696029963278199E9, 0.0, 2023-09-29 18:26:03.278
28.0, 30685.70413419058, 52099.5470404085, 42706.427598765804, 6242.797522878352, 57623.24424067071, 47633.53438777142, -162104.97613012508, 41196.20963289853, 38420.27943376058, 66465.95197510147, 54776.928398243, 12103.939009182335, 67356.31136373417, -130699.83639715152, 72801.75510665835, 53478.78378376768, 0.026000000000000002, 1.02, 0.004, 192.0, 0.0, 104.0, 15.5, 112.0, 0.0, 16.0, 0.0, 0.0, 0.0, 1.696029963278202E9, 0.0, 2023-09-29 18:26:03.278
30.0, 30684.40773301217, 52100.37405495335, 42641.853409034426, 6234.214453007514, 57586.20740010827, 47607.360495014254, -162130.54652578195, 41165.67714997258, 38415.74202963615, 66539.86919401518, 54821.296610986785, 12109.079910407056, 67329.66808434344, -130160.51115518942, 72885.64120359912, 53664.07974530217, 0.026000000000000002, 1.02, 0.004, 192.0, 0.0, 0.0, 0.0, 0.0, 0.0, 0.0, 0.0, 0.0, 0.0, 1.696029963278206E9, 0.0, 2023-09-29 18:26:03.278
32.0, 30681.524357977436, 52094.137918250315, 42697.53160447259, 6238.170711776103, 57622.908964503884, 47622.0902946103, -162138.10141540784, 41185.88312696018, 38416.01025056961, 66463.71680065594, 54762.53387481379, 12094.48422127774, 67332.77497682274, -130671.18146075982, 72791.67446990902, 53489.177344939395, 0.026000000000000002, 1.02, 0.004, 192.0, 0.0, 0.0, 0.0, 0.0, 0.0, 0.0, 0.0, 0.0, 0.0, 1.696029963338275E9, 0.0, 2023-09-29 18:26:03.338
34.0, 30679.378590509725, 52090.96397053766, 42646.25670269212, 6237.433104209078, 57583.145211117895, 47615.27301255143, -162104.4173365137, 41178.216478612005, 38416.05495405853, 66542.3502376497, 54821.654238898074, 12107.984674928746, 67337.46884315835, -130234.94246422559, 72892.77141008037, 53663.14097203505, 0.026000000000000002, 1.02, 0.004, 192.0, 0.0, 0.0, 0.0, 0.0, 0.0, 0.0, 0.0, 0.0, 0.0, 1.696029963338285E9, 0.0, 2023-09-29 18:26:03.338
36.0, 30684.25127080098, 52089.041720514506, 42692.055427081046, 6240.785865877374, 57619.33268539103, 47615.72004744054, -162173.70774432513, 41173.52261227639, 38406.75662836512, 66452.45152145046, 54745.61360426112, 12091.511439265185, 67332.95379077838, -130604.64031751637, 72801.41983049153, 53508.5786591266, 0.026000000000000002, 1.02, 0.004, 192.0, 0.0, 0.0, 0.0, 0.0, 0.0, 0.0, 0.0, 0.0, 0.0, 1.696029963338288E9, 0.0, 2023-09-29 18:26:03.338
38.0, 30689.235709814515, 52100.418758442254, 42653.87864755138, 6234.952060574539, 57584.6427779964, 47629.13109411372, -162105.4231650142, 41182.37390308069, 38416.881968603375, 66536.44937711352, 54827.13041628962, 12107.11295689499, 67337.62530536954, -130325.48938101405, 72898.09112526073, 53641.504483402314, 0.026000000000000002, 1.018, 0.002, 192.0, 0.0, 104.0, 15.5, 104.0, 0.0, 8.0, 0.0, 0.0, 0.0, 1.696029963338291E9, 0.0, 2023-09-29 18:26:03.338
40.0, 30681.278488788426, 52089.77932808153, 42687.003932834145, 6228.13477851567, 57616.98575222323, 47595.670532664124, -162195.47834342462, 41163.821955182786, 38410.712887133704, 66461.52632969932, 54759.136409656574, 12093.76896545517, 67337.11121524706, -130549.85619185642, 72802.179789803, 53519.35219995406, 0.026000000000000002, 1.018, 0.002, 192.0, 0.0, 0.0, 0.0, 0.0, 0.0, 0.0, 0.0, 0.0, 0.0, 1.696029963338295E9, 0.0, 2023-09-29 18:26:03.338
42.0, 30676.606974197268, 52091.92509554924, 42643.462734635206, 6220.401074934134, 57564.34739403098, 47619.20691957557, -162062.12783600425, 41176.0707111443, 38411.27168074509, 66521.67487402855, 54825.90107034458, 12093.746613710717, 67347.52712816324, -130392.61166961332, 72906.27186373137, 53632.04969549772, 0.026000000000000002, 1.018, 0.002, 192.0, 0.0, 0.0, 0.0, 0.0, 0.0, 0.0, 0.0, 0.0, 0.0, 1.696029963338298E9, 0.0, 2023-09-29 18:26:03.338
44.0, 30680.674991688134, 52089.175830981236, 42665.16627850131, 6217.7412173439525, 57607.039225940614, 47585.74635812597, -162201.80388710546, 41148.28749278635, 38402.17452075178, 66461.90630935506, 54742.32789782619, 12089.544485753118, 67314.37949113602, -130446.8370016619, 72812.93097888601, 53548.72239216833, 0.026000000000000002, 1.018, 0.002, 192.0, 0.0, 0.0, 0.0, 0.0, 0.0, 0.0, 0.0, 0.0, 0.0, 1.696029963338301E9, 0.0, 2023-09-29 18:26:03.338
46.0, 30677.03165734192, 52094.04851127249, 42648.87185679339, 6224.267926724902, 57571.745821445686, 47626.47123652354, -162031.1036147003, 41183.06680715881, 38412.72454413468, 66519.3502926052, 54811.864174826645, 12094.216000344277, 67357.51835793476, -130470.77571997354, 72905.93658756455, 53615.39764587852, 0.026000000000000002, 1.018, 0.002, 192.0, 0.0, 0.0, 0.0, 0.0, 0.0, 0.0, 0.0, 0.0, 0.0, 1.696029963397917E9, 0.0, 2023-09-29 18:26:03.397
48.0, 30693.013154627464, 52096.730720607135, 42655.57738012998, 6232.85099659574, 57621.21023192528, 47590.75314888396, -162220.62405593685, 41147.259312541406, 38402.37568645188, 66475.9879083619, 54740.24918559184, 12093.545448010618, 67307.56220907715, -130353.9207999612, 72823.99509239139, 53578.740784971815, 0.03, 1.022, 0.004, 192.0, 0.0, 120.0, 15.5, 120.0, 0.0, 16.0, 0.0, 0.0, 0.0, 1.696029963397929E9, 0.0, 2023-09-29 18:26:03.397
50.0, 30689.526282492436, 52098.630618885836, 42659.0195487761, 6232.09103728426, 57587.54850477559, 47639.47995179653, -162055.64583011222, 41198.33304862178, 38424.1686372958, 66525.42996709705, 54824.20233776598, 12103.760195226694, 67373.94689010941, -130585.50722426263, 72887.04936349981, 53589.67078801046, 0.03, 1.022, 0.004, 192.0, 0.0, 0.0, 0.0, 0.0, 0.0, 0.0, 0.0, 0.0, 0.0, 1.696029963397932E9, 0.0, 2023-09-29 18:26:03.397
52.0, 30681.613764955255, 52082.62676985583, 42643.55214161303, 6223.619726135698, 57614.43765335532, 47586.19339301508, -162235.1973933217, 41142.09605957223, 38400.252270728626, 66480.01122236386, 54750.50863629683, 12089.790354942126, 67305.41644160944, -130304.56814820388, 72824.35272030268, 53606.211078907385, 0.03, 1.022, 0.004, 192.0, 0.0, 0.0, 0.0, 0.0, 0.0, 0.0, 0.0, 0.0, 0.0, 1.696029963397936E9, 0.0, 2023-09-29 18:26:03.397
54.0, 30672.78482589541, 52081.06214774396, 42667.20028724674, 6222.882118568674, 57585.31333033006, 47633.98142266052, -162016.82084999335, 41200.09883643375, 38412.1657505233, 66500.46306854047, 54819.6425818971, 12086.236427573733, 67374.9527186099, -130646.21456220324, 72884.94829952101, 53575.298616325694, 0.03, 1.022, 0.004, 192.0, 0.0, 0.0, 0.0, 0.0, 0.0, 0.0, 0.0, 0.0, 0.0, 1.696029963397939E9, 0.0, 2023-09-29 18:26:03.397
56.0, 30683.31249753386, 52086.873601302344, 42635.2149409312, 6227.441874437556, 57605.47460382874, 47575.486907420986, -162213.20327677767, 41138.89976011512, 38390.529261890566, 66485.97913813342, 54753.05673516473, 12082.347224038509, 67294.24056938179, -130191.62478347121, 72850.37015084866, 53641.61624212459, 0.03, 1.022, 0.004, 192.0, 0.0, 0.0, 0.0, 0.0, 0.0, 0.0, 0.0, 0.0, 0.0, 1.696029963397942E9, 0.0, 2023-09-29 18:26:03.397
58.0, 30678.596279453788, 52090.06990075945, 42670.39658670385, 6226.3689907037015, 57593.78464147862, 47634.80843720537, -162042.03361773893, 41204.94916498056, 38415.74202963615, 66500.53012377383, 54809.964276547944, 12089.879761919949, 67370.3482592521, -130716.84607468202, 72863.98236322193, 53544.87789212202, 0.03, 1.024, 0.004, 192.0, 0.0, 120.0, 16.0, 0.0, 0.0, 16.0, 0.0, 0.0, 0.0, 1.696029963397945E9, 0.0, 2023-09-29 18:26:03.397
60.0, 30685.055933601372, 52089.91343854826, 42628.062382705495, 6223.932650558073, 57607.79918525209, 47575.93394231009, -162229.85532639688, 41136.61988218068, 38393.0103055251, 66493.66813822606, 54761.14806665755, 12081.855485660493, 67289.85962746854, -130168.46837621552, 72851.35362760468, 53648.14295150554, 0.03, 1.024, 0.004, 192.0, 0.0, 0.0, 0.0, 0.0, 0.0, 0.0, 0.0, 0.0, 0.0, 1.696029963397948E9, 0.0, 2023-09-29 18:26:03.397
62.0, 30677.769264908944, 52090.360473437366, 42672.452947193735, 6225.5196244144, 57592.91292344486, 47640.17285587465, -162052.74010333302, 41200.05413294484, 38421.777000639086, 66485.06271661076, 54812.02063703784, 12094.171296855367, 67372.53873020873, -130776.23465969977, 72855.77927300683, 53529.20931925885, 0.03, 1.024, 0.004, 192.0, 0.0, 0.0, 0.0, 0.0, 0.0, 0.0, 0.0, 0.0, 0.0, 1.696029963458205E9, 0.0, 2023-09-29 18:26:03.458
64.0, 30690.241538315004, 52098.36239795237, 42619.70283027922, 6228.7159238715085, 57597.58443803602, 47588.339160482785, -162221.5851809484, 41141.1125828162, 38393.07736075847, 66500.21719935146, 54773.620340063615, 12089.119802608468, 67303.44948809738, -130131.27507344188, 72876.96872675046, 53679.32363502069, 0.03, 1.024, 0.004, 192.0, 0.0, 0.0, 0.0, 0.0, 0.0, 0.0, 0.0, 0.0, 0.0, 1.696029963458215E9, 0.0, 2023-09-29 18:26:03.458
66.0, 30679.26683178745, 52092.48388916063, 42683.40530197684, 6222.7256563574865, 57600.132536903926, 47634.51786452745, -162055.06468475636, 41200.14353992266, 38422.42520122829, 66482.8945973986, 54804.68926485649, 12095.44534628932, 67371.51054996379, -130794.45133143084, 72858.57324106374, 53529.41048495895, 0.03, 1.024, 0.004, 192.0, 0.0, 0.0, 0.0, 0.0, 0.0, 0.0, 0.0, 0.0, 0.0, 1.696029963458218E9, 0.0, 2023-09-29 18:26:03.458
68.0, 30684.005401611976, 52088.66174085876, 42620.82041750198, 6215.908374298618, 57594.34343509, 47584.025273802916, -162194.40545969075, 41143.683033428555, 38395.17842473727, 66509.98491167843, 54790.16063096054, 12090.215038086777, 67297.9286072169, -130109.19154992004, 72897.1076485047, 53701.988303898375, 0.028, 1.022, 0.008, 192.0, 0.0, 112.0, 15.5, 120.0, 0.0, 32.0, 0.0, 0.0, 0.0, 1.696029963458222E9, 0.0, 2023-09-29 18:26:03.458
70.0, 30678.50687247597, 52086.650083857785, 42680.16429903082, 6218.657638866621, 57603.82057473905, 47628.77346620244, -162064.16184474967, 41191.225193884995, 38412.23280575667, 66458.26297500885, 54794.00513100686, 12086.39288978492, 67354.03148579973, -130782.15787198042, 72841.51886004435, 53522.459092433346, 0.028, 1.022, 0.008, 192.0, 0.0, 0.0, 0.0, 0.0, 0.0, 0.0, 0.0, 0.0, 0.0, 1.696029963458225E9, 0.0, 2023-09-29 18:26:03.458
72.0, 30686.73231443552, 52092.26037171607, 42619.16638841229, 6227.7771506043855, 57599.082004914526, 47592.60834367375, -162193.06435502344, 41153.85307715572, 38400.54284340654, 66517.6515600266, 54801.381206677106, 12093.031357888147, 67306.0869939431, -130114.86889301169, 72896.61591012668, 53708.135033623585, 0.028, 1.022, 0.008, 192.0, 0.0, 0.0, 0.0, 0.0, 0.0, 0.0, 0.0, 0.0, 0.0, 1.696029963458228E9, 0.0, 2023-09-29 18:26:03.458
74.0, 30672.78482589541, 52078.58110410942, 42679.15847053033, 6218.724694099987, 57621.27728715865, 47622.42557077713, -162097.5553509659, 41196.50020557645, 38412.23280575667, 66453.47970169541, 54787.45606988145, 12083.174238583355, 67351.12575902055, -130772.43486314236, 72823.05631912427, 53518.70399936486, 0.028, 1.022, 0.008, 192.0, 0.0, 0.0, 0.0, 0.0, 0.0, 0.0, 0.0, 0.0, 0.0, 1.696029963458231E9, 0.0, 2023-09-29 18:26:03.458
76.0, 30683.98304986752, 52087.074767002436, 42611.365629597385, 6222.703304613031, 57597.740900247205, 47600.029122832915, -162172.97013675811, 41168.67228372959, 38398.486482916654, 66516.10928965919, 54809.830166081214, 12087.48812526323, 67312.05490971266, -130149.15646900612, 72898.98519503894, 53717.74628373937, 0.028, 1.022, 0.008, 192.0, 0.0, 0.0, 0.0, 0.0, 0.0, 0.0, 0.0, 0.0, 0.0, 1.696029963518505E9, 0.0, 2023-09-29 18:26:03.518
78.0, 30679.26683178745, 52081.755051822074, 42671.625932648894, 6218.076493510783, 57620.472624358255, 47622.82790217733, -162149.50080508005, 41191.851042729744, 38411.9645848232, 66450.19399526049, 54775.47553485341, 12082.39192752742, 67345.29195371771, -130733.83340046805, 72814.58500797571, 53529.32107798113, 0.024, 1.024, 0.002, 192.0, 0.0, 96.0, 16.0, 0.0, 0.0, 8.0, 0.0, 0.0, 0.0, 1.696029963518517E9, 0.0, 2023-09-29 18:26:03.518
80.0, 30678.283355031417, 52082.00092101109, 42612.52792030906, 6206.811214305308, 57581.64764423939, 47606.77934965841, -162165.54935759897, 41167.64410348464, 38406.19783475374, 66520.87021122816, 54817.85444234067, 12087.53282875214, 67317.48638361531, -130212.233091859, 72907.2106369985, 53705.43047254449, 0.024, 1.024, 0.002, 192.0, 0.0, 0.0, 0.0, 0.0, 0.0, 0.0, 0.0, 0.0, 0.0, 1.69602996351852E9, 0.0, 2023-09-29 18:26:03.518
82.0, 30670.750817149976, 52069.171019693735, 42668.04965353604, 6199.233972934959, 57610.749615520195, 47604.45476823506, -162155.44636910516, 41167.06295812881, 38399.15703525031, 66441.432111434, 54758.62231953411, 12075.48523849073, 67331.21035471087, -130668.27573398063, 72815.09909809817, 53524.9848395568, 0.024, 1.024, 0.002, 192.0, 0.0, 0.0, 0.0, 0.0, 0.0, 0.0, 0.0, 0.0, 0.0, 1.696029963518524E9, 0.0, 2023-09-29 18:26:03.518
84.0, 30682.038448099906, 52082.78323206702, 42612.81849298698, 6205.4701096379895, 57570.695289456286, 47605.50530022446, -162110.5640662389, 41165.05130112783, 38399.604070139416, 66517.4056908376, 54818.793215607795, 12083.688328705828, 67332.59616286709, -130235.85888574827, 72923.41565172859, 53689.44897525895, 0.024, 1.024, 0.002, 192.0, 0.0, 0.0, 0.0, 0.0, 0.0, 0.0, 0.0, 0.0, 0.0, 1.696029963518527E9, 0.0, 2023-09-29 18:26:03.518
86.0, 30682.26196554446, 52077.93290352022, 42660.58417088797, 6200.7762433023745, 57616.426958611846, 47599.64914317717, -162179.5862531169, 41160.446841770034, 38406.22018649819, 66449.8810708381, 54756.85653172214, 12078.547427481108, 67321.06266272816, -130574.19724156824, 72817.13310684361, 53532.62913616051, 0.024, 1.024, 0.002, 192.0, 0.0, 0.0, 0.0, 0.0, 0.0, 0.0, 0.0, 0.0, 0.0, 1.69602996351853E9, 0.0, 2023-09-29 18:26:03.518
88.0, 30675.39997999668, 52078.894028531795, 42618.138208167344, 6192.036711220349, 57570.404716778365, 47608.81335840385, -162099.3658422668, 41164.2689900719, 38408.67887838827, 66523.41831009607, 54827.35393373417, 12086.147020595912, 67330.00336051028, -130325.7128984586, 72911.36806146719, 53663.5656551797, 0.024, 1.02, 0.012, 192.0, 0.0, 96.0, 15.5, 112.0, 0.0, 48.0, 0.0, 0.0, 0.0, 1.696029963518533E9, 0.0, 2023-09-29 18:26:03.518
90.0, 30679.624459698734, 52077.77644130903, 42646.8154963035, 6192.282580409358, 57616.78458652313, 47583.26531449143, -162196.73004111412, 41142.27487352787, 38391.780959580065, 66441.94620155648, 54748.809903718226, 12065.672822674851, 67307.76337477725, -130474.41905431976, 72813.55682773076, 53545.25787177776, 0.024, 1.02, 0.012, 192.0, 0.0, 0.0, 0.0, 0.0, 0.0, 0.0, 0.0, 0.0, 0.0, 1.696029963518536E9, 0.0, 2023-09-29 18:26:03.518
92.0, 30677.009305597465, 52080.7939268105, 42626.52011233808, 6195.4341763775565, 57571.5893592345, 47613.35076252827, -162072.4990454315, 41172.270914586894, 38407.874215587886, 66513.33767334673, 54826.057532555766, 12090.147982853412, 67336.99945652479, -130398.71369584963, 72898.09112526073, 53629.14396871853, 0.024, 1.02, 0.012, 192.0, 0.0, 0.0, 0.0, 0.0, 0.0, 0.0, 0.0, 0.0, 0.0, 1.696029963578882E9, 0.0, 2023-09-29 18:26:03.578
94.0, 30682.194910311093, 52072.56848485095, 42642.72512706818, 6190.60619957521, 57615.93522023383, 47578.01265454444, -162224.82618389442, 41137.871579870174, 38391.24451771314, 66447.15415801456, 54748.69814499595, 12074.211189056778, 67294.68760427089, -130380.00528574054, 72816.48490625441, 53562.0440318637, 0.024, 1.02, 0.012, 192.0, 0.0, 0.0, 0.0, 0.0, 0.0, 0.0, 0.0, 0.0, 0.0, 1.696029963578892E9, 0.0, 2023-09-29 18:26:03.578
96.0, 30679.333887020814, 52081.01744425505, 42640.9146357673, 6196.730577555964, 57584.57572276303, 47627.700582468584, -162083.6078624258, 41188.74415025046, 38408.902395832825, 66500.28425458483, 54822.88358484311, 12086.527000251652, 67350.03052354223, -130494.26740339606, 72889.26218620088, 53603.37240736156, 0.024, 1.02, 0.012, 192.0, 0.0, 0.0, 0.0, 0.0, 0.0, 0.0, 0.0, 0.0, 0.0, 1.696029963578895E9, 0.0, 2023-09-29 18:26:03.578
98.0, 30681.949041122087, 52078.42464189824, 42639.14884795533, 6200.485670624455, 57623.758330793185, 47585.85811684825, -162258.95729767767, 41151.237923054454, 38389.8587095569, 66460.16287328755, 54743.713705982416, 12076.178142568844, 67298.7332700173, -130309.82080815088, 72823.6374644801, 53598.79029974822, 0.024, 1.016, 0.014, 192.0, 0.0, 96.0, 15.5, 96.0, 0.0, 56.0, 0.0, 0.0, 0.0, 1.696029963578899E9, 0.0, 2023-09-29 18:26:03.578
100.0, 30667.30864850386, 52072.322615661935, 42645.742612569644, 6187.387548373646, 57585.11216462996, 47630.04751563639, -162073.59428090983, 41198.57891781079, 38410.98110806717, 66502.00533890788, 54818.45793944096, 12084.180067083844, 67354.00913405528, -130584.05436087304, 72883.24956694241, 53596.53277355823, 0.024, 1.016, 0.014, 192.0, 0.0, 0.0, 0.0, 0.0, 0.0, 0.0, 0.0, 0.0, 0.0, 1.696029963578902E9, 0.0, 2023-09-29 18:26:03.578
102.0, 30672.98599159551, 52070.221551683135, 42617.89233897833, 6186.337016384246, 57616.40460686739, 47577.99030279998, -162255.71629473165, 41140.330271760264, 38379.97923850766, 66469.39414374759, 54740.80797920322, 12064.219959285256, 67287.08801115608, -130211.94251918109, 72835.32742683023, 53630.820349552676, 0.024, 1.016, 0.014, 192.0, 0.0, 0.0, 0.0, 0.0, 0.0, 0.0, 0.0, 0.0, 0.0, 1.696029963578905E9, 0.0, 2023-09-29 18:26:03.578
104.0, 30669.722636905033, 52075.87654303033, 42642.188685201254, 6185.6888157950425, 57596.33274034652, 47639.39054481871, -162088.0111560835, 41196.477853831995, 38409.2153202552, 66499.41253655107, 54814.14405276109, 12080.223808315255, 67357.09367479011, -130630.65774806235, 72877.86279652867, 53566.46967726585, 0.024, 1.016, 0.014, 192.0, 0.0, 0.0, 0.0, 0.0, 0.0, 0.0, 0.0, 0.0, 0.0, 1.696029963578908E9, 0.0, 2023-09-29 18:26:03.578
106.0, 30661.228974012018, 52058.6880515442, 42604.0566091605, 6169.304987109303, 57605.18403115083, 47573.16232599763, -162251.51416677405, 41122.33711747374, 38375.7100553167, 66472.72455367143, 54750.68745025247, 12061.671860417351, 67287.95972918984, -130143.05444276983, 72842.25646761137, 53641.638593869044, 0.024, 1.016, 0.014, 192.0, 0.0, 0.0, 0.0, 0.0, 0.0, 0.0, 0.0, 0.0, 0.0, 1.696029963638301E9, 0.0, 2023-09-29 18:26:03.638
108.0, 30659.373779222227, 52061.50437134557, 42626.117780937886, 6159.023184659861, 57579.434821538314, 47616.167082329644, -162059.06564701386, 41174.595496010246, 38399.08998001695, 66464.16383554504, 54798.69899734247, 12055.927462092337, 67364.76032313828, -130649.835544805, 72856.11454917367, 53545.14611305548, 0.024, 1.016, 0.014, 192.0, 0.0, 96.0, 15.5, 96.0, 0.0, 56.0, 0.0, 0.0, 0.0, 1.696029963638321E9, 0.0, 2023-09-29 18:26:03.638
110.0, 30646.96856104953, 52051.06610668494, 42586.08580661843, 6175.407013345602, 57599.17141189235, 47566.546209638866, -162238.72896894562, 41121.33128897325, 38363.61776156638, 66470.24351003689, 54751.045078163756, 12058.319098749054, 67282.21533086483, -130047.9924736014, 72841.11652864415, 53658.60356791062, 0.024, 1.016, 0.014, 192.0, 0.0, 0.0, 0.0, 0.0, 0.0, 0.0, 0.0, 0.0, 0.0, 1.696029963638324E9, 0.0, 2023-09-29 18:26:03.638
112.0, 30634.004549265454, 52043.75708624806, 42638.59005434395, 6176.658711035098, 57590.18601062131, 47627.342954557294, -162082.7584961365, 41189.79468223985, 38382.057950742004, 66454.06084705125, 54788.88658152659, 12064.599938940995, 67352.15393926548, -130684.88308011093, 72835.88622044161, 53516.20060398586, 0.024, 1.016, 0.014, 192.0, 0.0, 0.0, 0.0, 0.0, 0.0, 0.0, 0.0, 0.0, 0.0, 1.696029963638327E9, 0.0, 2023-09-29 18:26:03.638
114.0, 30629.40008990766, 52034.10113264336, 42586.33167580744, 6182.939551227039, 57592.06355715556, 47574.12345100921, -162225.27321878352, 41130.78607687784, 38353.73829051713, 66481.59819622019, 54759.76225850132, 12058.229691771234, 67274.63808949449, -130009.189845227, 72859.26614514187, 53678.27310303129, 0.024, 1.016, 0.014, 192.0, 0.0, 0.0, 0.0, 0.0, 0.0, 0.0, 0.0, 0.0, 0.0, 1.696029963638331E9, 0.0, 2023-09-29 18:26:03.638
116.0, 30607.495380341457, 52017.56084174643, 42638.210074688206, 6180.9949494594275, 57593.2929031006, 47628.259376079965, -162095.6554526872, 41188.38652233917, 38373.43017738225, 66439.82278583322, 54774.84968600866, 12063.012965084668, 67344.6437531285, -130688.36995224595, 72826.49848777038, 53512.132586495, 0.024, 1.016, 0.014, 192.0, 0.0, 0.0, 0.0, 0.0, 0.0, 0.0, 0.0, 0.0, 0.0, 1.696029963638334E9, 0.0, 2023-09-29 18:26:03.638
118.0, 30596.67713602509, 52002.16048981673, 42574.90993439078, 6180.659673292598, 57583.1899146068, 47581.94656156857, -162213.60560817787, 41141.023175838374, 38331.45360129519, 66464.56616694524, 54754.50959855433, 12051.032430056624, 67275.95684241735, -129998.37160091063, 72875.11353196067, 53689.71719619241, 0.022, 1.016, 0.01, 192.0, 0.0, 88.0, 15.5, 96.0, 0.0, 40.0, 0.0, 0.0, 0.0, 1.696029963638337E9, 0.0, 2023-09-29 18:26:03.638
120.0, 30583.064923651807, 51991.83398387837, 42634.76790604209, 6182.045481448828, 57600.333702604024, 47629.019335391444, -162122.1199181223, 41189.30294386184, 38346.58573229143, 66419.5274018678, 54741.45617979243, 12051.05478180108, 67329.08693898762, -130679.67512365284, 72823.81627843574, 53502.09665323456, 0.022, 1.016, 0.01, 192.0, 0.0, 0.0, 0.0, 0.0, 0.0, 0.0, 0.0, 0.0, 0.0, 1.69602996363834E9, 0.0, 2023-09-29 18:26:03.638
122.0, 30567.843385677745, 51970.77864060148, 42566.66214068677, 6171.4284028325565, 57583.52519077363, 47590.77550062841, -162230.90585838628, 41150.38855676515, 38331.87828443984, 66466.08608556821, 54756.18597938848, 12047.947889321791, 67279.55547327465, -130035.11786879515, 72883.71895357597, 53685.80564091273, 0.022, 1.016, 0.01, 192.0, 0.0, 0.0, 0.0, 0.0, 0.0, 0.0, 0.0, 0.0, 0.0, 1.696029963697937E9, 0.0, 2023-09-29 18:26:03.697
124.0, 30543.6587981771, 51945.655279833714, 42620.68630703525, 6156.564492769778, 57608.089757930014, 47613.10489333927, -162165.59406108788, 41181.03279841338, 38338.0473659095, 66387.45264857443, 54725.22881331787, 12027.764264078649, 67316.14527894798, -130670.22033574825, 72805.42079274902, 53489.333807150586, 0.022, 1.016, 0.01, 192.0, 0.0, 0.0, 0.0, 0.0, 0.0, 0.0, 0.0, 0.0, 0.0, 1.696029963697947E9, 0.0, 2023-09-29 18:26:03.697
126.0, 30526.85028634671, 51928.399733114216, 42554.01105332507, 6144.762771697375, 57567.409583021356, 47572.268256219424, -162185.37535493082, 41139.48090547096, 38312.65578420828, 66437.81112883224, 54750.754505485835, 12017.393054651388, 67277.99085116277, -130050.42881374703, 72895.43126767054, 53686.65500720203, 0.022, 1.016, 0.01, 192.0, 0.0, 0.0, 0.0, 0.0, 0.0, 0.0, 0.0, 0.0, 0.0, 1.696029963697951E9, 0.0, 2023-09-29 18:26:03.697
128.0, 30521.03883278833, 51921.64950628871, 42611.54444355303, 6154.508132279889, 57604.51347881716, 47590.015541316934, -162194.83014283542, 41167.68880697356, 38318.936624400216, 66354.95321213642, 54697.80322287122, 12016.09665347298, 67294.41938333743, -130591.98923015466, 72800.74927815786, 53488.23857167227, 0.026000000000000002, 1.016, 0.012, 192.0, 0.0, 104.0, 15.5, 96.0, 0.0, 48.0, 0.0, 0.0, 0.0, 1.696029963697954E9, 0.0, 2023-09-29 18:26:03.697
130.0, 30511.51698965037, 51916.62036378627, 42551.70882364617, 6147.892015921118, 57564.07917309752, 47587.86977384923, -162206.56480867445, 41155.52945798987, 38311.47114175215, 66427.61873336062, 54750.620395019105, 12021.438720397797, 67303.5835985641, -130116.96995699049, 72889.66451760108, 53661.151666778525, 0.026000000000000002, 1.016, 0.012, 192.0, 0.0, 0.0, 0.0, 0.0, 0.0, 0.0, 0.0, 0.0, 0.0, 1.696029963697957E9, 0.0, 2023-09-29 18:26:03.697
132.0, 30498.262405188372, 51905.26567760297, 42600.39092306983, 6139.621870472654, 57599.1937636368, 47585.74635812597, -162224.0438728385, 41152.93665563306, 38303.066885836946, 66343.59852595312, 54689.71189137839, 12005.121946945423, 67290.57488329112, -130537.65213938382, 72792.52383619832, 53492.10542346304, 0.026000000000000002, 1.016, 0.012, 192.0, 0.0, 0.0, 0.0, 0.0, 0.0, 0.0, 0.0, 0.0, 0.0, 1.696029963697961E9, 0.0, 2023-09-29 18:26:03.697
134.0, 30486.304221904782, 51897.688436232624, 42544.46685844265, 6129.898861634596, 57551.22692003571, 47588.763843627436, -162176.6358228488, 41147.43812649705, 38297.23308053411, 66414.83353553219, 54742.797284459746, 12004.786670778594, 67290.30666235765, -130167.84252737077, 72890.58093912374, 53640.96804153539, 0.026000000000000002, 1.016, 0.012, 192.0, 0.0, 0.0, 0.0, 0.0, 0.0, 0.0, 0.0, 0.0, 0.0, 1.69602996369797E9, 0.0, 2023-09-29 18:26:03.697
136.0, 30491.690992318512, 51897.44256704362, 42588.0527601305, 6136.582033226733, 57602.47947007173, 47581.8795063352, -162259.2478703556, 41140.330271760264, 38283.553812927465, 66330.32158974667, 54667.650719601006, 11989.967464204725, 67277.74498197377, -130432.50953346606, 72788.8805018521, 53500.68849333388, 0.026000000000000002, 1.016, 0.012, 192.0, 0.0, 0.0, 0.0, 0.0, 0.0, 0.0, 0.0, 0.0, 0.0, 1.696029963758349E9, 0.0, 2023-09-29 18:26:03.758
138.0, 30487.33240214973, 51896.25792458748, 42558.10142256039, 6133.631602958632, 57555.07142008203, 47601.4372827336, -162158.30739239542, 41156.84821091273, 38304.63150794882, 66421.8296315467, 54745.948880427946, 12010.441662125786, 67306.84695325459, -130250.7451475555, 72874.46533137147, 53616.984619734845, 0.026000000000000002, 1.018, 0.008, 192.0, 0.0, 104.0, 15.5, 104.0, 0.0, 32.0, 0.0, 0.0, 0.0, 1.696029963758362E9, 0.0, 2023-09-29 18:26:03.758
140.0, 30497.502445876893, 51896.81671819887, 42579.31322804847, 6135.665611704066, 57604.91581021736, 47574.97281729851, -162267.07098091496, 41129.064992554784, 38290.6393159198, 66342.8609183861, 54669.64002485753, 11991.666196783328, 67277.99085116277, -130325.08704961385, 72796.52479845581, 53530.81864485963, 0.026000000000000002, 1.018, 0.008, 192.0, 0.0, 0.0, 0.0, 0.0, 0.0, 0.0, 0.0, 0.0, 0.0, 1.696029963758365E9, 0.0, 2023-09-29 18:26:03.758
142.0, 30499.93878602252, 51902.29289559041, 42552.044099813, 6128.602460456188, 57555.607861948956, 47606.71229442505, -162126.23263910206, 41157.29524580184, 38299.53531021301, 66410.2290761744, 54748.228758362384, 12001.210391665745, 67310.57969457861, -130292.43115096465, 72892.97257578047, 53608.84858475311, 0.026000000000000002, 1.018, 0.008, 192.0, 0.0, 0.0, 0.0, 0.0, 0.0, 0.0, 0.0, 0.0, 0.0, 1.696029963758368E9, 0.0, 2023-09-29 18:26:03.758
144.0, 30513.70746060699, 51908.596087526814, 42574.70876869068, 6133.519844236355, 57607.37450210744, 47574.861058576236, -162295.9047312623, 41133.62474842367, 38298.48477822361, 66361.59168023964, 54668.611844612584, 11996.628284052407, 67269.4301330364, -130234.51778108094, 72799.98931884639, 53544.050877577174, 0.026000000000000002, 1.018, 0.008, 192.0, 0.0, 0.0, 0.0, 0.0, 0.0, 0.0, 0.0, 0.0, 0.0, 1.696029963758372E9, 0.0, 2023-09-29 18:26:03.758
146.0, 30501.52575987885, 51903.27637234645, 42565.209277297174, 6117.940678351007, 57561.4863707407, 47615.80945441836, -162099.2093800556, 41177.68003674508, 38314.801551675984, 66409.89380000756, 54749.74867698535, 11997.477650341709, 67318.00047373777, -130366.75070127854, 72888.16695072257, 53592.48710781182, 0.026000000000000002, 1.018, 0.008, 192.0, 0.0, 0.0, 0.0, 0.0, 0.0, 0.0, 0.0, 0.0, 0.0, 1.696029963758375E9, 0.0, 2023-09-29 18:26:03.758
148.0, 30521.61997814417, 51908.79725322691, 42556.8944283598, 6121.181681297026, 57602.79239449411, 47567.84261081727, -162299.3468999084, 41123.2535389964, 38298.28361252351, 66366.0620291307, 54664.16384746598, 11987.687586270284, 67261.69642945485, -130115.3159279008, 72810.56169397375, 53582.6970437404, 0.028, 1.018, 0.012, 192.0, 0.0, 112.0, 15.5, 104.0, 0.0, 48.0, 0.0, 0.0, 0.0, 1.696029963758378E9, 0.0, 2023-09-29 18:26:03.758
150.0, 30522.71521362248, 51914.56400329638, 42575.89341114681, 6118.857099873674, 57568.50481849966, 47619.47514050903, -162097.82357189938, 41169.47694652998, 38321.372964545844, 66397.37682311259, 54745.70301123894, 12000.226914909712, 67344.15201475049, -130441.539638226, 72863.22240391045, 53554.84677014909, 0.028, 1.018, 0.012, 192.0, 0.0, 0.0, 0.0, 0.0, 0.0, 0.0, 0.0, 0.0, 0.0, 1.696029963758381E9, 0.0, 2023-09-29 18:26:03.758
152.0, 30551.43720524755, 51934.121779694775, 42559.86721037236, 6129.585937212221, 57608.246220141205, 47575.64336963217, -162290.02622247057, 41122.13595177364, 38302.53044397002, 66377.90845369201, 54684.23571398684, 12000.875115498915, 67278.12496162951, -130031.36277572665, 72812.12631608562, 53604.89232598452, 0.028, 1.018, 0.012, 192.0, 0.0, 0.0, 0.0, 0.0, 0.0, 0.0, 0.0, 0.0, 0.0, 1.696029963818684E9, 0.0, 2023-09-29 18:26:03.818
154.0, 30551.973647114475, 51946.92932926767, 42590.57850725395, 6129.764751167864, 57580.97709190573, 47637.60240526228, -162116.93431340865, 41184.43026357058, 38340.37194733285, 66405.17758192749, 54752.94497644246, 12015.716673817238, 67358.50183469079, -130507.45493262469, 72848.53730780332, 53538.038258318695, 0.028, 1.018, 0.012, 192.0, 0.0, 0.0, 0.0, 0.0, 0.0, 0.0, 0.0, 0.0, 0.0, 1.696029963818694E9, 0.0, 2023-09-29 18:26:03.818
156.0, 30565.027065876373, 51955.40064041623, 42555.8438963704, 6131.932870380029, 57600.71368225977, 47580.76191911244, -162309.5169436356, 41122.8065041073, 38318.86956916685, 66408.30682615124, 54698.1608507825, 12014.375569149921, 67279.24254885227, -129984.02178097032, 72824.26331332485, 53631.24503269733, 0.028, 1.018, 0.012, 192.0, 0.0, 0.0, 0.0, 0.0, 0.0, 0.0, 0.0, 0.0, 0.0, 1.696029963818698E9, 0.0, 2023-09-29 18:26:03.818
158.0, 30550.945466869533, 51944.403582144216, 42587.78453919703, 6111.995114325895, 57578.943083160295, 47621.46444576555, -162124.75742396803, 41170.86275468621, 38340.93074094424, 66399.85786674713, 54745.45714204993, 12010.620476081429, 67355.97608756734, -130569.68218918827, 72832.77932796233, 53506.231725958794, 0.03, 1.02, 0.002, 192.0, 0.0, 120.0, 15.5, 112.0, 0.0, 8.0, 0.0, 0.0, 0.0, 1.696029963818701E9, 0.0, 2023-09-29 18:26:03.818
160.0, 30572.894879924643, 51960.42978291867, 42543.66219564226, 6124.065056331761, 57587.95083617578, 47565.11569799372, -162289.8474085149, 41115.94451855952, 38316.29911855449, 66406.78690752828, 54701.401853728516, 12007.714749302238, 67270.45831328134, -129934.49031525735, 72839.37309257664, 53637.90585254501, 0.03, 1.02, 0.002, 192.0, 0.0, 0.0, 0.0, 0.0, 0.0, 0.0, 0.0, 0.0, 0.0, 1.696029963818705E9, 0.0, 2023-09-29 18:26:03.818
162.0, 30559.327371040272, 51956.18295147216, 42579.559097237485, 6109.312904991259, 57566.40375452087, 47611.94260262759, -162107.83715341534, 41168.940504663056, 38335.90159844179, 66389.50900906432, 54737.81284544621, 12011.492194115186, 67343.36970369455, -130563.33429376296, 72839.90953444356, 53501.58256311209, 0.03, 1.02, 0.002, 192.0, 0.0, 0.0, 0.0, 0.0, 0.0, 0.0, 0.0, 0.0, 0.0, 1.696029963818708E9, 0.0, 2023-09-29 18:26:03.818
164.0, 30578.304002082827, 51972.61148364681, 42522.67390759873, 6117.627753928632, 57572.57283599053, 47560.95827352504, -162263.6511640133, 41111.451817924004, 38312.16404583026, 66413.6265413316, 54713.24827828983, 12006.865383012937, 67266.14442660146, -129883.79655883272, 72858.34972361919, 53658.44710569944, 0.03, 1.02, 0.002, 192.0, 0.0, 0.0, 0.0, 0.0, 0.0, 0.0, 0.0, 0.0, 0.0, 1.696029963818711E9, 0.0, 2023-09-29 18:26:03.818
166.0, 30582.260260851417, 51979.361710472316, 42586.130510107345, 6116.376056239135, 57578.09371687099, 47605.17002405763, -162135.4192060732, 41156.44587951254, 38339.16495313227, 66388.41377358601, 54733.09662736615, 12018.309476174054, 67333.46788090085, -130578.28761080357, 72810.47228699592, 53468.59138829606, 0.03, 1.02, 0.002, 192.0, 0.0, 0.0, 0.0, 0.0, 0.0, 0.0, 0.0, 0.0, 0.0, 1.696029963878979E9, 0.0, 2023-09-29 18:26:03.878
168.0, 30597.414743592115, 51987.76596638751, 42525.17730297772, 6111.771596881342, 57571.3881935344, 47560.08655549128, -162255.4033703093, 41107.964945788975, 38332.68294724023, 66442.5273469123, 54745.27832809429, 12026.110234988957, 67270.03363013669, -129895.66533513849, 72866.82103476775, 53652.56859690769, 0.028, 1.016, 0.01, 192.0, 0.0, 112.0, 15.5, 96.0, 0.0, 40.0, 0.0, 0.0, 0.0, 1.696029963878994E9, 0.0, 2023-09-29 18:26:03.878
170.0, 30593.5702435458, 51988.078890809884, 42587.181042096745, 6103.121471777138, 57581.87116168394, 47598.37509374322, -162159.89436625177, 41152.62373121068, 38353.26890388357, 66388.68199451947, 54736.40468554553, 12016.588391850995, 67344.5990496396, -130561.3673402509, 72810.00290036236, 53465.35038535004, 0.028, 1.016, 0.01, 192.0, 0.0, 0.0, 0.0, 0.0, 0.0, 0.0, 0.0, 0.0, 0.0, 1.696029963878998E9, 0.0, 2023-09-29 18:26:03.878
172.0, 30598.77820000389, 51990.62698967779, 42530.74288734709, 6098.606419397166, 57561.21814980724, 47558.87956129069, -162227.2401722956, 41108.83666382273, 38338.40499382079, 66441.29800096728, 54751.06742990821, 12014.71084531675, 67288.58557803459, -129911.6691841685, 72882.64606984211, 53658.53651267726, 0.028, 1.016, 0.01, 192.0, 0.0, 0.0, 0.0, 0.0, 0.0, 0.0, 0.0, 0.0, 0.0, 1.696029963879001E9, 0.0, 2023-09-29 18:26:03.879
174.0, 30602.712107028023, 51996.058463580426, 42597.015809657074, 6106.5412886788, 57591.75063273319, 47586.84159360428, -162162.8224447754, 41134.89879785762, 38346.4516218247, 66385.6198055291, 54718.27742079228, 12014.04029298309, 67322.58258135112, -130509.04190648103, 72802.49271422539, 53468.09964991804, 0.028, 1.016, 0.01, 192.0, 0.0, 0.0, 0.0, 0.0, 0.0, 0.0, 0.0, 0.0, 0.0, 1.696029963879004E9, 0.0, 2023-09-29 18:26:03.879
176.0, 30617.978348490997, 52015.1245016008, 42542.38814620831, 6115.683152161021, 57566.694327198784, 47572.536477152884, -162203.86024759535, 41111.56357664628, 38352.66540678327, 66463.29211751129, 54769.3288051282, 12034.268621715144, 67306.62343581003, -129951.20942010992, 72888.90455828959, 53658.04477429924, 0.028, 1.016, 0.01, 192.0, 0.0, 0.0, 0.0, 0.0, 0.0, 0.0, 0.0, 0.0, 0.0, 1.696029963879008E9, 0.0, 2023-09-29 18:26:03.879
178.0, 30614.15620018914, 52010.65415270974, 42603.609574271395, 6113.000942826384, 57603.97703695024, 47588.74149188298, -162180.4356194062, 41129.86965535518, 38361.91902898777, 66391.61007304312, 54728.112188352614, 12027.518394889641, 67326.40472965298, -130462.30440882497, 72801.19631304698, 53478.35910062303, 0.036000000000000004, 1.016, 0.01, 192.0, 0.5, 16.0, 15.5, 96.0, 0.0, 40.0, 0.0, 0.0, 0.0, 1.696029963879011E9, 0.0, 2023-09-29 18:26:03.879
180.0, 30625.24266543897, 52027.26149884004, 42540.0412130405, 6120.667591174554, 57563.60978646395, 47596.251678019966, -162183.3413461854, 41129.86965535518, 38351.21254339368, 66471.91989087104, 54783.0304244793, 12031.742874591693, 67312.94897949087, -130001.25497594535, 72896.86177931569, 53657.48598068786, 0.036000000000000004, 1.016, 0.01, 192.0, 0.0, 0.0, 0.0, 0.0, 0.0, 0.0, 0.0, 0.0, 0.0, 1.696029963879014E9, 0.0, 2023-09-29 18:26:03.879
182.0, 30624.05802298284, 52025.60746975034, 42604.21307137168, 6123.103931320183, 57607.55331606309, 47595.55877394185, -162220.534648959, 41137.93863510354, 38359.86266849788, 66409.55852384074, 54731.10732210962, 12032.368723436442, 67315.94411324788, -130407.028544787, 72785.34892622817, 53492.66421707442, 0.036000000000000004, 1.016, 0.01, 192.0, 0.0, 0.0, 0.0, 0.0, 0.0, 0.0, 0.0, 0.0, 0.0, 1.696029963938269E9, 0.0, 2023-09-29 18:26:03.938
184.0, 30638.094918500774, 52044.785266492996, 42558.25788477158, 6126.076713332738, 57569.82357142253, 47606.04174209139, -162151.1771859142, 41146.275835785375, 38364.28831390003, 66490.62830098013, 54802.74466308888, 12051.725334134739, 67323.83427904062, -130086.07984615325, 72895.43126767054, 53654.46849518639, 0.036000000000000004, 1.016, 0.01, 192.0, 0.0, 0.0, 0.0, 0.0, 0.0, 0.0, 0.0, 0.0, 0.0, 1.696029963938278E9, 0.0, 2023-09-29 18:26:03.938
186.0, 30642.58761913629, 52041.29839435797, 42590.109120620386, 6120.600535941188, 57605.854583484484, 47586.14868952617, -162236.82907066692, 41131.68014665606, 38365.51765984508, 66425.94235252647, 54733.566013999705, 12050.71950563425, 67312.21137192386, -130305.23870053753, 72802.76093515885, 53530.72923788181, 0.036000000000000004, 1.016, 0.01, 192.0, 0.0, 0.0, 0.0, 0.0, 0.0, 0.0, 0.0, 0.0, 0.0, 1.696029963938282E9, 0.0, 2023-09-29 18:26:03.938
188.0, 30640.911238302142, 52045.20994963765, 42558.66021617177, 6115.996076583395, 57562.96158587475, 47617.0388003634, -162113.3133308069, 41153.406042266615, 38369.56332559149, 66496.81973419426, 54803.90695380056, 12057.71560164876, 67336.37360768004, -130161.76285287892, 72907.4118026986, 53638.24112871184, 0.024, 1.016, 0.01, 192.0, 0.0, 96.0, 15.5, 96.0, 0.0, 40.0, 0.0, 0.0, 0.0, 1.696029963938285E9, 0.0, 2023-09-29 18:26:03.938
190.0, 30643.97342729252, 52041.6336705248, 42584.81175718448, 6121.204033041481, 57608.82736549704, 47582.41594820213, -162235.55502123298, 41129.7578966329, 38368.04340696853, 66431.3291229402, 54727.911022652515, 12050.116008533956, 67314.17832543592, -130200.96781265353, 72816.66372021005, 53566.08969761011, 0.024, 1.016, 0.01, 192.0, 0.0, 0.0, 0.0, 0.0, 0.0, 0.0, 0.0, 0.0, 0.0, 1.696029963938288E9, 0.0, 2023-09-29 18:26:03.938
192.0, 30640.352444690758, 52045.32170835992, 42561.25301852859, 6120.377018496635, 57563.74389693069, 47624.839559178305, -162089.08403981736, 41163.19610633804, 38374.860689027395, 66491.50001901388, 54803.437567167, 12058.609671426973, 67351.75160786528, -130237.6917287936, 72900.16983749508, 53626.32764891716, 0.024, 1.016, 0.01, 192.0, 0.0, 0.0, 0.0, 0.0, 0.0, 0.0, 0.0, 0.0, 0.0, 1.696029963938292E9, 0.0, 2023-09-29 18:26:03.938
194.0, 30657.36212222125, 52053.323632874926, 42579.983780382136, 6134.9727076259505, 57609.11793817496, 47585.969875570525, -162265.28284135854, 41133.11065830119, 38372.1561279483, 66446.14832951406, 54732.31431631021, 12056.329793492532, 67300.94609271838, -130126.13417221716, 72818.16128708856, 53573.93515991392, 0.024, 1.016, 0.01, 192.0, 0.0, 0.0, 0.0, 0.0, 0.0, 0.0, 0.0, 0.0, 0.0, 1.696029963938295E9, 0.0, 2023-09-29 18:26:03.938
196.0, 30646.655636627154, 52052.273100885526, 42586.51048976308, 6131.843463402208, 57571.321138301035, 47628.840521435806, -162096.0577840874, 41180.250487357436, 38390.238689212645, 66498.31730107276, 54814.94871556148, 12068.086811076024, 67367.151959795, -130349.0704714144, 72887.45169490001, 53582.920561184954, 0.024, 1.016, 0.01, 192.0, 0.0, 0.0, 0.0, 0.0, 0.0, 0.0, 0.0, 0.0, 0.0, 1.696029963999527E9, 0.0, 2023-09-29 18:26:03.999
198.0, 30657.339770476792, 52053.815371252946, 42584.14120485082, 6144.919233908562, 57610.01200795317, 47584.56171566984, -162287.32166139147, 41133.46828621248, 38370.2562296696, 66447.06475103674, 54737.768141957305, 12055.368668480955, 67300.879037485, -130057.04493010581, 72821.22347607893, 53591.660093266975, 0.024, 1.018, 0.008, 192.0, 0.0, 96.0, 15.5, 104.0, 0.0, 32.0, 0.0, 0.0, 0.0, 1.696029963999539E9, 0.0, 2023-09-29 18:26:03.999
200.0, 30651.17068900713, 52057.928092232716, 42615.12072266587, 6151.714164222975, 57578.25017908218, 47642.184512875625, -162101.64572020122, 41196.723723021, 38391.24451771314, 66480.41355376405, 54814.07699752772, 12066.544540708606, 67372.51637846426, -130437.60573120187, 72879.29330817382, 53559.98767137381, 0.024, 1.018, 0.008, 192.0, 0.0, 0.0, 0.0, 0.0, 0.0, 0.0, 0.0, 0.0, 0.0, 1.696029963999542E9, 0.0, 2023-09-29 18:26:03.999
202.0, 30661.00545656746, 52063.538380091, 42600.18975736973, 6164.40995507359, 57606.36867360696, 47588.339160482785, -162278.76094326508, 41137.402193236616, 38368.423386624265, 66459.51467269835, 54752.67675550899, 12059.034354571624, 67290.21725537983, -129985.76521703783, 72844.26812461235, 53633.30139318722, 0.024, 1.018, 0.008, 192.0, 0.0, 0.0, 0.0, 0.0, 0.0, 0.0, 0.0, 0.0, 0.0, 1.696029963999546E9, 0.0, 2023-09-29 18:26:03.999
204.0, 30658.882040844208, 52069.08161271592, 42639.90880726681, 6176.926931968562, 57577.08788837051, 47647.52657980044, -162092.9508916081, 41198.26599338841, 38394.4631689147, 66472.90336762708, 54811.19362249299, 12071.707793677782, 67369.20832028489, -130486.08666492543, 72878.37688665115, 53546.39781074498, 0.024, 1.018, 0.008, 192.0, 0.0, 0.0, 0.0, 0.0, 0.0, 0.0, 0.0, 0.0, 0.0, 1.696029963999549E9, 0.0, 2023-09-29 18:26:03.999
206.0, 30672.87423287323, 52075.608322096865, 42624.97784197066, 6197.55759210081, 57595.505725801675, 47597.011637331445, -162272.63656528434, 41141.023175838374, 38371.59733433692, 66470.86935888164, 54758.51056081183, 12073.652395445395, 67291.49130481378, -129936.30080655824, 72854.12524391714, 53646.958309049405, 0.024, 1.018, 0.008, 192.0, 0.0, 0.0, 0.0, 0.0, 0.0, 0.0, 0.0, 0.0, 0.0, 1.696029963999552E9, 0.0, 2023-09-29 18:26:03.999
208.0, 30664.87230835823, 52075.49656337459, 42678.86789785241, 6201.7150165694975, 57579.367766304946, 47657.76367876097, -162090.6486619292, 41205.23973765847, 38402.50979691861, 66476.6361089511, 54806.61151487965, 12086.370538040464, 67364.69326790492, -130540.51316267409, 72864.45174985549, 53526.59416515758, 0.024, 1.02, 0.008, 192.0, 0.0, 96.0, 15.5, 112.0, 0.0, 32.0, 0.0, 0.0, 0.0, 1.696029963999555E9, 0.0, 2023-09-29 18:26:03.999
210.0, 30667.84509037079, 52071.0932697169, 42636.37723164287, 6201.759720058409, 57586.58737976401, 47596.56460244234, -162227.41898625126, 41146.78992590785, 38372.42434888177, 66481.2405683089, 54764.947863214955, 12073.71945067876, 67299.64969153998, -129880.48850065333, 72872.11839820366, 53671.992262839354, 0.024, 1.02, 0.008, 192.0, 0.0, 0.0, 0.0, 0.0, 0.0, 0.0, 0.0, 0.0, 0.0, 1.696029963999559E9, 0.0, 2023-09-29 18:26:03.999
212.0, 30664.246459513484, 52073.239037184605, 42698.26921203962, 6213.963772531006, 57587.615560008955, 47650.5440653019, -162073.504873932, 41201.61875505671, 38400.40873293981, 66462.04041982179, 54789.73594781589, 12082.928369394347, 67368.38130574004, -130531.4607061697, 72847.93381070302, 53520.17921449891, 0.024, 1.02, 0.008, 192.0, 0.0, 0.0, 0.0, 0.0, 0.0, 0.0, 0.0, 0.0, 0.0, 1.696029964058437E9, 0.0, 2023-09-29 18:26:04.058
214.0, 30672.5389567064, 52077.016481997554, 42651.419955661295, 6218.9705632889945, 57591.951798433285, 47601.01259958895, -162216.9807215906, 41153.115469588694, 38378.79459605153, 66503.25703659738, 54771.60868306264, 12086.415241529376, 67301.72840377431, -129866.54101211323, 72871.02316272535, 53689.62778921459, 0.024, 1.02, 0.008, 192.0, 0.0, 0.0, 0.0, 0.0, 0.0, 0.0, 0.0, 0.0, 0.0, 1.696029964058447E9, 0.0, 2023-09-29 18:26:04.058
216.0, 30662.21245076805, 52070.98151099462, 42714.09424711398, 6220.4681301675, 57603.485298572225, 47646.364289088764, -162069.41450469667, 41202.557528323836, 38399.961698050705, 66461.66044016606, 54781.64461632307, 12080.939064137825, 67369.96827959636, -130536.53455216106, 72846.97268569145, 53528.42700820292, 0.024, 1.02, 0.008, 192.0, 0.0, 0.0, 0.0, 0.0, 0.0, 0.0, 0.0, 0.0, 0.0, 1.69602996405845E9, 0.0, 2023-09-29 18:26:04.058
218.0, 30670.21437528305, 52075.340101163405, 42647.91073178181, 6229.319420971802, 57588.666091998355, 47609.66272469315, -162169.8855960233, 41157.04937661283, 38379.68866582974, 66502.00533890788, 54789.490078626884, 12079.91088389288, 67308.27746489971, -129843.74223276881, 72912.55270392331, 53719.86969946262, 0.022, 1.018, 0.008, 192.0, 0.0, 88.0, 15.5, 104.0, 0.0, 32.0, 0.0, 0.0, 0.0, 1.696029964058453E9, 0.0, 2023-09-29 18:26:04.058
220.0, 30668.895622360185, 52075.22834244113, 42714.40717153635, 6236.5837379197765, 57611.91190623187, 47657.271940382954, -162092.5485602079, 41207.69842954855, 38400.63225038436, 66454.440826707, 54773.352119130155, 12083.91184615038, 67361.38520972553, -130509.93597625924, 72834.187487863, 53519.240441231785, 0.022, 1.018, 0.008, 192.0, 0.0, 0.0, 0.0, 0.0, 0.0, 0.0, 0.0, 0.0, 0.0, 1.696029964058456E9, 0.0, 2023-09-29 18:26:04.058
222.0, 30675.422331741138, 52081.79975531099, 42649.810630060514, 6238.349525731746, 57587.66026349786, 47628.86287318026, -162167.44925587767, 41175.288400088364, 38390.75277933512, 66514.34350184721, 54799.6824740985, 12091.377328798453, 67314.44654636938, -129908.40582947801, 72906.69654687602, 53699.90959166403, 0.022, 1.018, 0.008, 192.0, 0.0, 0.0, 0.0, 0.0, 0.0, 0.0, 0.0, 0.0, 0.0, 1.69602996405846E9, 0.0, 2023-09-29 18:26:04.058
224.0, 30665.654619414167, 52072.1438017063, 42708.21573832223, 6234.192101263059, 57613.9459149773, 47642.51978904245, -162125.96441816862, 41199.92002247811, 38390.50691014611, 66441.29800096728, 54760.56692130172, 12079.039165859123, 67342.60974438307, -130490.17703416075, 72831.08059538373, 53507.148147481465, 0.022, 1.018, 0.008, 192.0, 0.0, 0.0, 0.0, 0.0, 0.0, 0.0, 0.0, 0.0, 0.0, 1.696029964058463E9, 0.0, 2023-09-29 18:26:04.058
226.0, 30670.05791307186, 52078.15642096477, 42659.42188017629, 6235.086171041271, 57590.52128678814, 47629.37696330273, -162157.9721162286, 41189.86173747322, 38390.75277933512, 66517.98683619342, 54802.007055521855, 12086.01291012918, 67318.35810164906, -129988.35801939465, 72911.457468445, 53680.307111776725, 0.022, 1.018, 0.008, 192.0, 0.0, 0.0, 0.0, 0.0, 0.0, 0.0, 0.0, 0.0, 0.0, 1.696029964118662E9, 0.0, 2023-09-29 18:26:04.118
228.0, 30659.194965266583, 52059.38095562231, 42707.09815109947, 6233.230976251481, 57624.317124404566, 47628.28172782442, -162155.2228516606, 41195.136749164674, 38386.17067172178, 66433.83251831919, 54744.764237971816, 12066.321023264054, 67334.25019195679, -130444.02068186054, 72829.18069710502, 53514.0324847737, 0.024, 1.022, 0.004, 192.0, 0.0, 96.0, 15.5, 120.0, 0.0, 16.0, 0.0, 0.0, 0.0, 1.696029964118674E9, 0.0, 2023-09-29 18:26:04.118
230.0, 30658.055026299364, 52063.27015915754, 42654.77271732959, 6229.699400627542, 57579.81480119405, 47625.57716674533, -162126.54556352444, 41185.547850793344, 38384.226069954166, 66505.11223138717, 54795.636808352094, 12071.57368321105, 67332.14912797799, -130058.20722081748, 72914.63141615766, 53669.04183257125, 0.024, 1.022, 0.004, 192.0, 0.0, 0.0, 0.0, 0.0, 0.0, 0.0, 0.0, 0.0, 0.0, 1.696029964118677E9, 0.0, 2023-09-29 18:26:04.118
232.0, 30663.710017646554, 52067.24876967058, 42705.06414235403, 6240.539996688366, 57627.669886072865, 47618.692829453095, -162181.86613105133, 41172.38267330917, 38382.54968912002, 66429.25041070586, 54733.47660702188, 12063.527055207142, 67324.46012788537, -130375.6243438273, 72824.30801681377, 53527.5329384247, 0.024, 1.022, 0.004, 192.0, 0.0, 0.0, 0.0, 0.0, 0.0, 0.0, 0.0, 0.0, 0.0, 1.696029964118681E9, 0.0, 2023-09-29 18:26:04.118
234.0, 30660.82664261182, 52069.26042667156, 42664.003987789634, 6237.053124553338, 57574.539789502596, 47631.075695881336, -162108.5747609824, 41189.23588862847, 38389.344619434436, 66505.26869359835, 54799.771881076325, 12077.63100595844, 67336.30655244668, -130146.3177974603, 72913.60323591271, 53646.04188752674, 0.024, 1.022, 0.004, 192.0, 0.0, 0.0, 0.0, 0.0, 0.0, 0.0, 0.0, 0.0, 0.0, 1.696029964118684E9, 0.0, 2023-09-29 18:26:04.118
236.0, 30665.49815720298, 52064.432449869215, 42700.48203474069, 6241.277604255391, 57622.216060425766, 47609.886242137705, -162213.44914596668, 41169.141670363155, 38387.48942464464, 66434.81599507523, 54733.36484829961, 12067.81859014256, 67318.84984002708, -130315.69931694261, 72821.87167666813, 53530.81864485963, 0.024, 1.022, 0.004, 192.0, 0.0, 0.0, 0.0, 0.0, 0.0, 0.0, 0.0, 0.0, 0.0, 1.696029964118687E9, 0.0, 2023-09-29 18:26:04.118
238.0, 30658.077378043818, 52064.45480161367, 42668.02730179159, 6235.980240819484, 57574.338623802505, 47637.71416398456, -162088.68170841716, 41190.4205310846, 38392.607974124905, 66489.77893469082, 54803.392863678084, 12075.753459424193, 67355.48434918933, -130252.42152838965, 72913.62558765717, 53620.85147152561, 0.024, 1.022, 0.0, 192.0, 0.0, 96.0, 15.5, 120.0, 0.0, 0.0, 0.0, 0.0, 0.0, 1.69602996411869E9, 0.0, 2023-09-29 18:26:04.118
240.0, 30657.74210187699, 52058.93392073321, 42682.108900798434, 6240.763514132919, 57613.43182485484, 47593.97180008552, -162222.36749200436, 41148.220437552984, 38375.64300008333, 66422.79075655827, 54725.1170545956, 12060.598976683495, 67312.1443166905, -130240.53040033943, 72825.13503135862, 53552.589243959104, 0.024, 1.022, 0.0, 192.0, 0.0, 0.0, 0.0, 0.0, 0.0, 0.0, 0.0, 0.0, 0.0, 1.696029964118693E9, 0.0, 2023-09-29 18:26:04.118
242.0, 30656.7362733765, 52068.09813595988, 42678.24204900766, 6241.657583911131, 57574.316272058044, 47631.7909517039, -162062.48546391554, 41188.833557228274, 38391.19981422422, 66488.3484230457, 54799.8836397986, 12076.893398391414, 67361.34050623662, -130344.89069520125, 72901.28742471784, 53595.795165991214, 0.024, 1.022, 0.0, 192.0, 0.0, 0.0, 0.0, 0.0, 0.0, 0.0, 0.0, 0.0, 0.0, 1.696029964179057E9, 0.0, 2023-09-29 18:26:04.179
244.0, 30662.59243042379, 52069.953330749675, 42678.08558679648, 6243.602185678743, 57607.955647463285, 47592.45188146256, -162238.52780324552, 41140.17380954907, 38377.07351172847, 66446.66241963654, 54723.48537725036, 12072.378346011443, 67306.77989802121, -130160.60056216724, 72818.94359814448, 53578.517267527255, 0.024, 1.022, 0.0, 192.0, 0.0, 0.0, 0.0, 0.0, 0.0, 0.0, 0.0, 0.0, 0.0, 1.696029964179067E9, 0.0, 2023-09-29 18:26:04.179
246.0, 30655.551630920367, 52072.25556042857, 42687.45096772325, 6235.823778608296, 57569.220074322235, 47636.21659710605, -162053.07537949985, 41182.93269669208, 38396.83245382696, 66489.26484456836, 54795.770918818824, 12083.755383939193, 67364.87208186055, -130449.29569355199, 72876.63345058364, 53562.82634291963, 0.024, 1.022, 0.0, 192.0, 0.0, 0.0, 0.0, 0.0, 0.0, 0.0, 0.0, 0.0, 0.0, 1.69602996417907E9, 0.0, 2023-09-29 18:26:04.179
248.0, 30672.762474150953, 52077.35175816438, 42665.50155466814, 6247.826665380796, 57605.83223174003, 47588.85325060526, -162251.4918150296, 41133.62474842367, 38373.56428784899, 66452.69739063947, 54724.267688306296, 12074.635872201428, 67298.9344357174, -130094.81937823528, 72825.06797612524, 53591.99536943381, 0.028, 1.022, -0.006, 192.0, 0.0, 112.0, 15.5, 120.0, 127.5, 104.0, 0.0, 0.0, 0.0, 1.696029964179074E9, 0.0, 2023-09-29 18:26:04.179
250.0, 30660.916049589643, 52072.25556042857, 42689.172052046306, 6238.394229220657, 57576.75261220367, 47646.721917000046, -162069.01217329648, 41192.119263663204, 38405.25906148661, 66476.05496359528, 54796.061491496745, 12089.008043886191, 67372.69519241991, -130544.40236620932, 72867.42453186805, 53529.00815355875, 0.028, 1.022, -0.006, 192.0, 0.0, 0.0, 0.0, 0.0, 0.0, 0.0, 0.0, 0.0, 0.0, 1.696029964179077E9, 0.0, 2023-09-29 18:26:04.179
252.0, 30662.726540890522, 52066.55586559247, 42657.61138887541, 6234.482673940978, 57597.91971420285, 47590.19435527258, -162252.67645748574, 41129.28850999934, 38377.05115998402, 66465.12496055663, 54727.57574648569, 12071.305462277587, 67306.04229045419, -130063.66104646458, 72835.72975823043, 53605.20525040689, 0.028, 1.022, -0.006, 192.0, 0.0, 0.0, 0.0, 0.0, 0.0, 0.0, 0.0, 0.0, 0.0, 1.69602996417908E9, 0.0, 2023-09-29 18:26:04.179
254.0, 30647.661465127643, 52056.654042798764, 42687.31685725652, 6223.150339502137, 57573.22103657974, 47643.61502452076, -162027.90731524318, 41185.346685093245, 38390.059875257, 66461.28046051032, 54781.04111922278, 12067.10333431999, 67366.68257316144, -130587.20595684124, 72876.38758139462, 53518.72635110931, 0.028, 1.022, -0.006, 192.0, 0.0, 0.0, 0.0, 0.0, 0.0, 0.0, 0.0, 0.0, 0.0, 1.696029964179083E9, 0.0, 2023-09-29 18:26:04.179
0.0, 30669.11913980474, 52069.327481904926, 42638.701813066225, 6237.164883275615, 57596.0421676686, 47590.41787271713, -162233.297495043, 41129.51202744389, 38368.93747674674, 66467.06956232424, 54729.430941275474, 12064.421124985352, 67281.6788889979, -129986.59223158268, 72863.33416263273, 53637.23530021135, 0.028, 1.022, -0.006, 192.0, 0.0, 0.0, 0.0, 0.0, 0.0, 0.0, 0.0, 0.0, 0.0, 1.696029964238281E9, 0.0, 2023-09-29 18:26:04.238
2.0, 30659.507889688957, 52064.05247021347, 42692.0777788255, 6232.292202984358, 57583.569894262546, 47645.82784722184, -162074.08601928785, 41183.82676647029, 38404.27558473058, 66460.09581805418, 54774.93909298648, 12074.881741390436, 67365.2520615163, -130663.26894322265, 72844.87162171265, 53493.73710080828, 0.022, 1.02, -0.002, 192.0, 0.0, 88.0, 15.5, 112.0, 127.5, 120.0, 0.0, 0.0, 0.0, 1.696029964238322E9, 0.0, 2023-09-29 18:26:04.238
4.0, 30665.900488603176, 52063.56073183546, 42640.020565989085, 6234.773246618896, 57590.25306585468, 47595.87169836422, -162231.82227990893, 41125.48871344193, 38375.82181403897, 66479.25126305239, 54745.032458905276, 12069.606729698984, 67291.60306353607, -130013.2355109734, 72861.16604342057, 53652.72505911888, 0.022, 1.02, -0.002, 192.0, 0.0, 0.0, 0.0, 0.0, 0.0, 0.0, 0.0, 0.0, 0.0, 1.696029964238327E9, 0.0, 2023-09-29 18:26:04.238
6.0, 30662.346561234783, 52059.939749233694, 42697.911584128335, 6235.846130352751, 57598.1432316474, 47652.868646725256, -162106.3172347924, 41181.94921993604, 38400.31932596199, 66439.3757509441, 54762.66798528052, 12074.702927434795, 67369.65535517399, -130701.55748147459, 72833.91926692954, 53483.29883614765, 0.022, 1.02, -0.002, 192.0, 0.0, 0.0, 0.0, 0.0, 0.0, 0.0, 0.0, 0.0, 0.0, 1.696029964238331E9, 0.0, 2023-09-29 18:26:04.238
8.0, 30668.985029338008, 52063.27015915754, 42635.281996164565, 6241.344659488757, 57588.174353620336, 47599.42562573262, -162228.91655312976, 41132.48480945645, 38376.1570902058, 66484.61568172165, 54756.52125555531, 12070.947834366303, 67307.62926431051, -130025.01488030136, 72885.03770649883, 53664.19150402445, 0.022, 1.02, -0.002, 192.0, 0.0, 0.0, 0.0, 0.0, 0.0, 0.0, 0.0, 0.0, 0.0, 1.696029964238336E9, 0.0, 2023-09-29 18:26:04.238
10.0, 30660.334904233805, 52057.54811257698, 42690.714322413725, 6241.724639144497, 57598.05382466958, 47641.37985007523, -162130.63593275976, 41183.603249025735, 38395.67016311528, 66431.75380608485, 54749.88278745208, 12070.277282032643, 67357.45130270139, -130716.73431595974, 72829.27010408284, 53469.41840284091, 0.022, 1.02, -0.002, 192.0, 0.0, 0.0, 0.0, 0.0, 0.0, 0.0, 0.0, 0.0, 0.0, 1.69602996423834E9, 0.0, 2023-09-29 18:26:04.238
12.0, 30667.554517692868, 52066.600569081376, 42624.061420448, 6242.305784500335, 57579.52422851614, 47601.41493098914, -162209.44818370917, 41143.37010900618, 38374.301895416014, 66487.92373990105, 54763.71851726992, 12068.82441864305, 67308.635092811, -130055.63677020512, 72895.99006128193, 53666.605492425624, 0.022, 1.02, -0.006, 192.0, 0.0, 88.0, 15.5, 112.0, 127.5, 104.0, 0.0, 0.0, 0.0, 1.696029964238345E9, 0.0, 2023-09-29 18:26:04.238
14.0, 30664.849956613776, 52065.59474058089, 42689.64143867987, 6253.705174172542, 57602.5465253051, 47633.10970462677, -162142.01297068753, 41184.13969089266, 38390.41750316829, 66432.78198632979, 54746.06063915022, 12078.77094492566, 67352.71273287687, -130700.86457739647, 72821.71521445694, 53472.34648136455, 0.022, 1.02, -0.006, 192.0, 0.0, 0.0, 0.0, 0.0, 0.0, 0.0, 0.0, 0.0, 0.0, 1.696029964238359E9, 0.0, 2023-09-29 18:26:04.238
16.0, 30669.722636905033, 52069.99803423858, 42627.97297572768, 6252.945214861062, 57571.92463540133, 47611.92025088314, -162179.541549628, 41156.5129347459, 38374.100729715916, 66508.2414756109, 54776.79428777627, 12081.810782171582, 67308.88096200001, -130109.50447434241, 72911.12219227817, 53669.131239549075, 0.022, 1.02, -0.006, 192.0, 0.0, 0.0, 0.0, 0.0, 0.0, 0.0, 0.0, 0.0, 0.0, 1.696029964298266E9, 0.0, 2023-09-29 18:26:04.298
18.0, 30665.7887298809, 52064.20893242466, 42692.658924181334, 6248.765438647919, 57610.14611841991, 47628.840521435806, -162158.776779029, 41175.62367625519, 38381.923840275274, 66433.25137296336, 54731.64376397655, 12070.143171565911, 67348.68941887491, -130658.37391118694, 72824.91151391405, 53482.00243496924, 0.022, 1.02, -0.006, 192.0, 0.0, 0.0, 0.0, 0.0, 0.0, 0.0, 0.0, 0.0, 0.0, 1.696029964298277E9, 0.0, 2023-09-29 18:26:04.298
20.0, 30668.672104915633, 52068.791040038, 42629.49289435064, 6248.877197370195, 57574.316272058044, 47616.68117245212, -162159.76025578502, 41156.33412079026, 38385.768340321585, 66503.65936799758, 54783.74568030187, 12078.659186203384, 67329.26575294325, -130185.83568165729, 72912.55270392331, 53657.84360859914, 0.022, 1.02, -0.006, 192.0, 0.0, 0.0, 0.0, 0.0, 0.0, 0.0, 0.0, 0.0, 0.0, 1.69602996429828E9, 0.0, 2023-09-29 18:26:04.298
22.0, 30666.861613614754, 52062.21962716814, 42674.50930768363, 6241.456418211033, 57614.90703998888, 47613.41781776164, -162177.0828577379, 41156.42352776808, 38381.16388096379, 66421.33789316867, 54720.02085685979, 12064.219959285256, 67328.61755235404, -130606.67432626181, 72823.72687145793, 53491.9266095074, 0.02, 1.022, -0.004, 192.0, 0.0, 80.0, 15.5, 120.0, 127.5, 112.0, 0.0, 0.0, 0.0, 1.696029964298284E9, 0.0, 2023-09-29 18:26:04.298
24.0, 30671.711942161557, 52072.032042984014, 42625.201359415216, 6244.697421157053, 57565.8896643984, 47628.99698364699, -162128.26664784751, 41162.369091793196, 38383.242593198134, 66496.90914117207, 54783.49981111286, 12073.898264634403, 67334.42900591243, -130263.93267678413, 72926.36608199669, 53643.65025087002, 0.02, 1.022, -0.004, 192.0, 0.0, 0.0, 0.0, 0.0, 0.0, 0.0, 0.0, 0.0, 0.0, 1.696029964298287E9, 0.0, 2023-09-29 18:26:04.298
26.0, 30668.917974104643, 52066.958196992666, 42672.251781493644, 6239.042429809861, 57607.06157768507, 47611.47321599403, -162203.54732317297, 41153.13782133315, 38382.326171675464, 66424.44478564797, 54718.16566207, 12071.976014611248, 67324.61659009654, -130549.52091568959, 72827.92899941553, 53512.244345217274, 0.02, 1.022, -0.004, 192.0, 0.0, 0.0, 0.0, 0.0, 0.0, 0.0, 0.0, 0.0, 0.0, 1.696029964298291E9, 0.0, 2023-09-29 18:26:04.298
28.0, 30658.837337355297, 52058.82216201093, 42628.53176933906, 6232.7615896179195, 57562.447495752276, 47621.0397626209, -162104.8643714028, 41168.89580117414, 38384.02490425407, 66495.36687080466, 54782.158706445545, 12074.077078590046, 67336.97710478034, -130368.49413734606, 72929.85295413173, 53631.24503269733, 0.02, 1.022, -0.004, 192.0, 0.0, 0.0, 0.0, 0.0, 0.0, 0.0, 0.0, 0.0, 0.0, 1.696029964298294E9, 0.0, 2023-09-29 18:26:04.298
30.0, 30669.677933416122, 52061.30320564547, 42648.58128411547, 6236.717848386508, 57611.509574831674, 47597.83865187629, -162225.72025367265, 41144.5100479734, 38370.41269188079, 66420.55558211275, 54703.61467642959, 12056.95564233728, 67306.19875266538, -130457.83405993391, 72841.07182515525, 53538.887624607996, 0.02, 1.022, -0.004, 192.0, 0.0, 0.0, 0.0, 0.0, 0.0, 0.0, 0.0, 0.0, 0.0, 1.696029964358491E9, 0.0, 2023-09-29 18:26:04.358
32.0, 30665.676971158624, 52068.16519119325, 42634.566740341994, 6233.5886041627655, 57567.543693488085, 47629.71223946956, -162102.5621417239, 41175.57897276628, 38392.69738110273, 66499.52429527334, 54788.305436170755, 12082.458982760785, 67351.39397995401, -130477.92827819924, 72920.19700052703, 53606.99338996332, 0.02, 1.022, 0.002, 192.0, 0.0, 80.0, 15.5, 120.0, 0.0, 8.0, 0.0, 0.0, 0.0, 1.696029964358504E9, 0.0, 2023-09-29 18:26:04.358
34.0, 30669.00738108246, 52063.60543532437, 42638.92533051078, 6234.147397774148, 57608.15681316338, 47588.42856746061, -162258.01852441055, 41134.85409436871, 38375.9559245057, 66438.2805154658, 54712.309505022706, 12070.098468077002, 67296.85572348305, -130400.23361447259, 72847.37501709163, 53562.6922324529, 0.02, 1.022, 0.002, 192.0, 0.0, 0.0, 0.0, 0.0, 0.0, 0.0, 0.0, 0.0, 0.0, 1.696029964358508E9, 0.0, 2023-09-29 18:26:04.358
36.0, 30659.262020499948, 52058.95627247766, 42640.28878692255, 6223.105636013226, 57565.509684742654, 47627.11943711274, -162076.12002803327, 41175.53426927737, 38392.473863658175, 66491.12003935815, 54788.95363675996, 12079.48620074823, 67351.01400029827, -130578.08644510347, 72917.58184642576, 53591.90596245599, 0.02, 1.022, 0.002, 192.0, 0.0, 0.0, 0.0, 0.0, 0.0, 0.0, 0.0, 0.0, 0.0, 1.696029964358511E9, 0.0, 2023-09-29 18:26:04.358
38.0, 30665.207584525062, 52058.57629282192, 42627.41418211629, 6226.793673848352, 57605.04992068409, 47578.32557896681, -162249.52486151754, 41123.11942852967, 38370.05506396951, 66431.41852991802, 54707.34741775363, 12059.86136911647, 67284.42815356591, -130325.39997403622, 72853.63350553912, 53590.52015429976, 0.02, 1.022, 0.002, 192.0, 0.0, 0.0, 0.0, 0.0, 0.0, 0.0, 0.0, 0.0, 0.0, 1.696029964358514E9, 0.0, 2023-09-29 18:26:04.358
40.0, 30662.21245076805, 52064.700670802675, 42645.474391636184, 6226.726618614986, 57581.64764423939, 47643.70443149858, -162059.28916445843, 41185.68196126008, 38393.725561347674, 66474.9373763725, 54784.99737799137, 12072.758325667182, 67358.41242771297, -130663.51481241165, 72915.90546559161, 53567.207284832875, 0.02, 1.022, 0.002, 192.0, 0.0, 0.0, 0.0, 0.0, 0.0, 0.0, 0.0, 0.0, 0.0, 1.696029964358517E9, 0.0, 2023-09-29 18:26:04.358
42.0, 30669.65558167167, 52062.24197891259, 42621.15569366881, 6225.251403480936, 57610.906077731386, 47579.55492491185, -162255.71629473165, 41127.16509427608, 38373.78780529354, 66455.51371044085, 54715.93048762447, 12061.917729606359, 67288.38441233449, -130276.06967402335, 72865.32346788925, 53615.24118366733, 0.026000000000000002, 1.024, 0.0, 192.0, 0.0, 104.0, 16.0, 0.0, 0.0, 0.0, 0.0, 0.0, 0.0, 1.69602996435852E9, 0.0, 2023-09-29 18:26:04.358
44.0, 30659.21731701104, 52062.10786844586, 42652.045804506044, 6227.106598270727, 57585.13451637441, 47637.244777351, -162076.9470425781, 41186.86660371621, 38399.961698050705, 66468.14244605809, 54781.48815411188, 12072.467752989263, 67377.79139015572, -130772.59132535355, 72894.00075602542, 53545.034354333206, 0.026000000000000002, 1.024, 0.0, 192.0, 0.0, 0.0, 0.0, 0.0, 0.0, 0.0, 0.0, 0.0, 0.0, 1.696029964358523E9, 0.0, 2023-09-29 18:26:04.358
46.0, 30664.78290138041, 52060.364432378345, 42613.37728659836, 6222.569194146299, 57601.33953110451, 47579.823145845316, -162258.97964942214, 41119.02905929435, 38370.30093315851, 66460.09581805418, 54722.56895572769, 12066.030450586135, 67292.00539493626, -130252.86856327875, 72866.21753766746, 53646.533625904754, 0.026000000000000002, 1.024, 0.0, 192.0, 0.0, 0.0, 0.0, 0.0, 0.0, 0.0, 0.0, 0.0, 0.0, 1.696029964418736E9, 0.0, 2023-09-29 18:26:04.418
48.0, 30662.6371339127, 52061.839647512395, 42651.978749272675, 6222.569194146299, 57586.20740010827, 47641.78218147543, -162076.52235943347, 41181.368074580205, 38393.50204390312, 66459.60407967617, 54774.112078441634, 12071.260758788678, 67373.8574831316, -130825.34144226808, 72889.06102050078, 53544.050877577174, 0.026000000000000002, 1.024, 0.0, 192.0, 0.0, 0.0, 0.0, 0.0, 0.0, 0.0, 0.0, 0.0, 0.0, 1.696029964418747E9, 0.0, 2023-09-29 18:26:04.418
50.0, 30661.63130541221, 52058.46453409964, 42599.22863235815, 6209.985162017962, 57595.28220835712, 47584.51701218093, -162241.56764049144, 41116.25744298189, 38365.6070668229, 66466.42136173503, 54732.649592477035, 12061.29188076161, 67292.40772633645, -130212.45660930355, 72884.85889254318, 53683.83868740067, 0.026000000000000002, 1.024, 0.0, 192.0, 0.0, 0.0, 0.0, 0.0, 0.0, 0.0, 0.0, 0.0, 0.0, 1.696029964418751E9, 0.0, 2023-09-29 18:26:04.418
52.0, 30648.041444783386, 52051.848417740875, 42640.73582181166, 6203.749025314931, 57584.598074507485, 47636.306004083875, -162081.17152228017, 41170.21455409701, 38384.38253216536, 66434.52542239732, 54754.397839832054, 12058.542616193607, 67368.0013260843, -130874.91761146995, 72866.93279349004, 53524.40369420096, 0.026000000000000002, 1.024, 0.0, 192.0, 0.0, 104.0, 16.0, 0.0, 0.0, 0.0, 0.0, 0.0, 0.0, 1.696029964418757E9, 0.0, 2023-09-29 18:26:04.418
54.0, 30663.084168801808, 52061.23615041211, 42585.68347521823, 6208.197022461537, 57588.62138850944, 47591.75897738445, -162233.25279155408, 41123.29824248532, 38357.11340392988, 66472.09870482668, 54727.97807788588, 12058.140284793411, 67286.19394137787, -130204.36527781074, 72891.56441587978, 53685.403309512534, 0.026000000000000002, 1.024, 0.0, 192.0, 0.0, 0.0, 0.0, 0.0, 0.0, 0.0, 0.0, 0.0, 0.0, 1.696029964418762E9, 0.0, 2023-09-29 18:26:04.418
56.0, 30645.06866277083, 52047.534531061, 42644.49091488015, 6206.4088829051125, 57592.68940600031, 47639.18937911861, -162086.7147549051, 41177.5682780228, 38383.19788970923, 66430.16683222853, 54746.3735635726, 12066.946872108803, 67362.63690741503, -130900.77857980474, 72848.87258397015, 53515.15007199646, 0.026000000000000002, 1.024, 0.0, 192.0, 0.0, 0.0, 0.0, 0.0, 0.0, 0.0, 0.0, 0.0, 0.0, 1.696029964418765E9, 0.0, 2023-09-29 18:26:04.418
58.0, 30662.815947868345, 52060.27502540053, 42589.349161308906, 6212.130929485671, 57587.01206290866, 47601.347875755775, -162211.8398203659, 41133.49063795694, 38362.611933065884, 66466.53312045732, 54748.45227580694, 12059.928424349837, 67304.70118578686, -130212.74718198148, 72905.71307012, 53706.615115000626, 0.026000000000000002, 1.024, 0.0, 192.0, 0.0, 0.0, 0.0, 0.0, 0.0, 0.0, 0.0, 0.0, 0.0, 1.696029964418768E9, 0.0, 2023-09-29 18:26:04.418
60.0, 30657.764453621443, 52053.90477823076, 42655.15269698533, 6205.604220104721, 57605.92163871785, 47640.1952076191, -162126.81378445792, 41178.28353384537, 38394.2620032146, 66415.63819833257, 54746.86530195062, 12066.946872108803, 67358.41242771297, -130911.26154795427, 72837.98728442041, 53515.954734796855, 0.026000000000000002, 1.024, 0.0, 192.0, 0.0, 0.0, 0.0, 0.0, 0.0, 0.0, 0.0, 0.0, 0.0, 1.696029964478965E9, 0.0, 2023-09-29 18:26:04.478
62.0, 30656.49040418749, 52052.80954275245, 42574.798175668504, 6192.081414709261, 57573.19868483528, 47601.638448433696, -162190.00216603305, 41127.72388788747, 38363.72952028865, 66468.94710885848, 54756.81182823323, 12054.00521206918, 67307.36104337705, -130258.1435749702, 72922.38747148366, 53716.49458604987, 0.034, 1.022, -0.002, 192.0, 0.5, 8.0, 15.5, 120.0, 127.5, 120.0, 0.0, 0.0, 0.0, 1.696029964478977E9, 0.0, 2023-09-29 18:26:04.478
64.0, 30659.329075733316, 52060.00680446706, 42654.280978951574, 6198.98810374595, 57609.78849050862, 47636.52952152843, -162142.9740956991, 41164.82778368328, 38376.64882858382, 66409.71498605191, 54719.97615337088, 12062.364764495465, 67359.77588412474, -130888.01573372076, 72832.42170005104, 53508.55630738215, 0.034, 1.022, -0.002, 192.0, 0.0, 0.0, 0.0, 0.0, 0.0, 0.0, 0.0, 0.0, 0.0, 1.69602996447898E9, 0.0, 2023-09-29 18:26:04.478
66.0, 30669.096788060284, 52069.61805458285, 42592.768978210566, 6201.111519469205, 57584.93335067432, 47620.5927277318, -162166.532834355, 41136.57517869177, 38368.64690406882, 66487.65551896757, 54763.897331225555, 12070.746668666205, 67329.0422354987, -130322.3601367903, 72929.71884366499, 53708.269144090315, 0.034, 1.022, -0.002, 192.0, 0.0, 0.0, 0.0, 0.0, 0.0, 0.0, 0.0, 0.0, 0.0, 1.696029964478983E9, 0.0, 2023-09-29 18:26:04.478
68.0, 30662.123043790227, 52056.47522884313, 42651.59876961694, 6200.977409002472, 57613.54358357711, 47621.59855623228, -162150.84190974737, 41143.28070202836, 38379.64396234083, 66411.63723607508, 54725.1170545956, 12066.05280233059, 67347.48242467432, -130830.01295685924, 72845.72098800195, 53532.875005349524, 0.034, 1.022, -0.002, 192.0, 0.0, 0.0, 0.0, 0.0, 0.0, 0.0, 0.0, 0.0, 0.0, 1.696029964478986E9, 0.0, 2023-09-29 18:26:04.478
70.0, 30665.54286069189, 52063.40426962427, 42579.46969025966, 6197.244667678437, 57571.99169063469, 47621.8891289102, -162162.75538954203, 41133.87061761268, 38374.50306111611, 66481.82171366474, 54770.64755805106, 12067.125686064444, 67335.30072394619, -130407.27441397602, 72930.05411983182, 53693.76286193882, 0.034, 1.022, -0.002, 192.0, 0.0, 0.0, 0.0, 0.0, 0.0, 0.0, 0.0, 0.0, 0.0, 1.696029964478989E9, 0.0, 2023-09-29 18:26:04.478
72.0, 30663.039465312897, 52059.71623178914, 42631.72806879617, 6196.283542666858, 57609.564973064065, 47618.402256775174, -162183.94484328566, 41141.023175838374, 38378.95105826272, 66405.98224472789, 54711.191917799944, 12059.727258649738, 67332.17147972244, -130790.49507266225, 72828.62190349364, 53545.391982244495, 0.028, 1.024, 0.002, 192.0, 0.0, 112.0, 16.0, 0.0, 0.0, 8.0, 0.0, 0.0, 0.0, 1.696029964478993E9, 0.0, 2023-09-29 18:26:04.478
74.0, 30662.905354846163, 52064.63361556931, 42586.93517290773, 6197.021150233883, 57570.829399923015, 47627.81234119086, -162120.8235169439, 41151.461440499006, 38377.07351172847, 66482.17934157602, 54778.47066861042, 12070.545502966108, 67340.32986644864, -130497.46370285317, 72930.56820995429, 53692.824088671696, 0.028, 1.024, 0.002, 192.0, 0.0, 0.0, 0.0, 0.0, 0.0, 0.0, 0.0, 0.0, 0.0, 1.696029964478996E9, 0.0, 2023-09-29 18:26:04.478
76.0, 30672.382494495214, 52069.05926097146, 42627.43653386075, 6201.737368313953, 57617.052807456595, 47619.385733531206, -162212.4880209551, 41136.30695775831, 38370.85972676989, 66410.98903548587, 54716.31046728021, 12065.672822674851, 67325.48830813031, -130714.38738279193, 72833.96397041845, 53576.215037848364, 0.028, 1.024, 0.002, 192.0, 0.0, 0.0, 0.0, 0.0, 0.0, 0.0, 0.0, 0.0, 0.0, 1.696029964538366E9, 0.0, 2023-09-29 18:26:04.538
78.0, 30664.425273469125, 52068.344005148894, 42593.17130961076, 6191.522621097877, 57567.05195511007, 47641.536312286415, -162093.1073538193, 41157.027024868374, 38381.58856410844, 66481.01705086435, 54790.63001759411, 12075.686404190828, 67348.22003224136, -130603.29921284906, 72931.88696287715, 53679.5695042097, 0.028, 1.024, 0.002, 192.0, 0.0, 0.0, 0.0, 0.0, 0.0, 0.0, 0.0, 0.0, 0.0, 1.696029964538376E9, 0.0, 2023-09-29 18:26:04.538
80.0, 30663.50885194646, 52058.755106777564, 42605.39771382782, 6185.3982431171235, 57611.509574831674, 47607.06992233633, -162217.9418466022, 41119.74431511692, 38367.43990986823, 66406.85396276164, 54705.20165028592, 12057.179159781834, 67311.42906086791, -130637.63149233241, 72849.7443020039, 53603.66298003948, 0.028, 1.024, 0.002, 192.0, 0.0, 0.0, 0.0, 0.0, 0.0, 0.0, 0.0, 0.0, 0.0, 1.69602996453838E9, 0.0, 2023-09-29 18:26:04.538
82.0, 30662.50302344597, 52068.05343247097, 42588.7009607197, 6185.3982431171235, 57572.863408668454, 47646.69956525559, -162068.29691747393, 41159.977455136475, 38375.93357276125, 66459.5370244428, 54778.53772384379, 12062.565930195562, 67356.73604687882, -130698.0035541062, 72929.87530587618, 53655.921358575986, 0.026000000000000002, 1.024, 0.002, 192.0, 0.0, 104.0, 16.0, 0.0, 0.0, 8.0, 0.0, 0.0, 0.0, 1.696029964538383E9, 0.0, 2023-09-29 18:26:04.538
84.0, 30667.532165948414, 52070.10979296086, 42595.51824277857, 6188.661597807598, 57611.5989818095, 47599.96206759955, -162226.56961996196, 41117.24091973793, 38364.02009296657, 66414.4759076209, 54706.58745844215, 12059.839017372014, 67292.94416820338, -130561.21087803971, 72855.17577590654, 53627.37818090656, 0.026000000000000002, 1.024, 0.002, 192.0, 0.0, 0.0, 0.0, 0.0, 0.0, 0.0, 0.0, 0.0, 0.0, 1.696029964538386E9, 0.0, 2023-09-29 18:26:04.538
86.0, 30670.773168894433, 52080.436298899214, 42603.743684738125, 6192.662560065099, 57580.842981439, 47655.5508560599, -162072.94608032063, 41174.036702398866, 38385.32130543248, 66461.86160586616, 54780.191752933475, 12071.976014611248, 67371.73406740834, -130798.6758111329, 72912.57505566777, 53632.65319259801, 0.026000000000000002, 1.024, 0.002, 192.0, 0.0, 0.0, 0.0, 0.0, 0.0, 0.0, 0.0, 0.0, 0.0, 1.696029964538389E9, 0.0, 2023-09-29 18:26:04.538
88.0, 30669.40971248266, 52073.06022322896, 42595.45118754521, 6189.399205374623, 57607.64272304091, 47598.352741998766, -162225.76495716156, 41120.37016396167, 38368.06575871298, 66429.63039036159, 54717.18218531396, 12071.05959308858, 67310.80321202317, -130501.59877557741, 72854.70638927298, 53662.04573655674, 0.026000000000000002, 1.024, 0.002, 192.0, 0.0, 0.0, 0.0, 0.0, 0.0, 0.0, 0.0, 0.0, 0.0, 1.696029964538392E9, 0.0, 2023-09-29 18:26:04.538
90.0, 30674.97529685203, 52083.69965358969, 42607.163501639785, 6192.707263554009, 57584.50866752967, 47656.10964967128, -162045.96752476305, 41176.09306288875, 38379.80042455202, 66453.79262611779, 54778.69418605497, 12075.552293724097, 67371.17527379695, -130861.12658514103, 72916.73248013646, 53623.46662562688, 0.026000000000000002, 1.024, 0.002, 192.0, 0.0, 0.0, 0.0, 0.0, 0.0, 0.0, 0.0, 0.0, 0.0, 1.696029964598172E9, 0.0, 2023-09-29 18:26:04.598
92.0, 30685.03358185692, 52082.604418111376, 42590.176175853754, 6199.345731657235, 57621.7019703033, 47608.81335840385, -162264.54523379152, 41125.309899486296, 38369.31745640248, 66426.03175950429, 54721.29490629374, 12074.881741390436, 67301.0354996962, -130446.792298173, 72862.57420332124, 53673.467477973405, 0.018000000000000002, 1.024, 0.01, 192.0, 0.0, 72.0, 16.0, 0.0, 0.0, 40.0, 0.0, 0.0, 0.0, 1.696029964598204E9, 0.0, 2023-09-29 18:26:04.598
94.0, 30669.83439562731, 52076.68120583072, 42617.020620944575, 6187.365196629191, 57591.25889435517, 47654.36621360376, -162076.8576356003, 41180.183432124075, 38401.07928527347, 66444.8295765912, 54794.47451764042, 12084.62710197295, 67388.16259958298, -130982.07187438868, 72890.89386354612, 53588.15086938749, 0.018000000000000002, 1.024, 0.01, 192.0, 0.0, 0.0, 0.0, 0.0, 0.0, 0.0, 0.0, 0.0, 0.0, 1.696029964598208E9, 0.0, 2023-09-29 18:26:04.598
96.0, 30671.6895904171, 52069.37218539383, 42573.21120181218, 6174.512943567389, 57607.12863291844, 47587.3333319823, -162233.7445299321, 41113.50817841389, 38368.08811045744, 66437.47585266542, 54734.54949075574, 12065.359898252476, 67300.1861334069, -130405.41921918622, 72878.19807269551, 53702.9270771655, 0.018000000000000002, 1.024, 0.01, 192.0, 0.0, 0.0, 0.0, 0.0, 0.0, 0.0, 0.0, 0.0, 0.0, 1.696029964598211E9, 0.0, 2023-09-29 18:26:04.598
98.0, 30667.196889781582, 52074.31192091846, 42609.86806271888, 6174.244722633925, 57593.98580717872, 47656.44492583811, -162069.19098725214, 41174.506089032424, 38388.53995663404, 66432.62552411862, 54771.47457259591, 12066.67865117534, 67376.47263723286, -131005.16122641102, 72886.26705244387, 53575.5444855147, 0.018000000000000002, 1.024, 0.01, 192.0, 0.0, 0.0, 0.0, 0.0, 0.0, 0.0, 0.0, 0.0, 0.0, 1.696029964598214E9, 0.0, 2023-09-29 18:26:04.598
100.0, 30679.31153527636, 52080.302188432484, 42573.36766402336, 6176.725766268464, 57607.30744687408, 47599.17975654361, -162233.07397759843, 41117.91147207159, 38365.94234298973, 66460.47579770992, 54740.94208966996, 12069.986709354724, 67294.84406648208, -130383.33569566438, 72887.60815711119, 53714.505280793346, 0.018000000000000002, 1.024, 0.01, 192.0, 0.0, 0.0, 0.0, 0.0, 0.0, 0.0, 0.0, 0.0, 0.0, 1.696029964598217E9, 0.0, 2023-09-29 18:26:04.598
102.0, 30672.963639851052, 52080.12337447684, 42629.112914694895, 6182.8724959936735, 57611.06253994257, 47653.069812425354, -162084.81485662638, 41177.590629767255, 38394.10554100342, 66434.43601541949, 54777.666005810024, 12074.747630923704, 67376.09265757712, -131050.3341019552, 72883.42838089805, 53557.03724110571, 0.026000000000000002, 1.024, 0.006, 192.0, 0.0, 104.0, 16.0, 0.0, 0.0, 24.0, 0.0, 0.0, 0.0, 1.696029964598221E9, 0.0, 2023-09-29 18:26:04.598
104.0, 30680.473825988036, 52083.7443570786, 42572.51829773406, 6183.990083216439, 57606.92746721834, 47600.99024784449, -162231.66581769777, 41117.687954627036, 38369.16099419129, 66467.67305942453, 54763.0256131918, 12074.457058245785, 67304.47766834231, -130383.76037880903, 72913.37971846816, 53722.820129730724, 0.026000000000000002, 1.024, 0.006, 192.0, 0.0, 0.0, 0.0, 0.0, 0.0, 0.0, 0.0, 0.0, 0.0, 1.696029964598226E9, 0.0, 2023-09-29 18:26:04.598
106.0, 30668.40388398217, 52078.55875236497, 42625.33546988195, 6168.522676053367, 57609.989656208716, 47643.83854196531, -162097.4659439881, 41157.809335924314, 38389.2105089677, 66422.20961120243, 54771.04988945126, 12073.920616378859, 67370.41531448548, -131072.73054989942, 72875.62762208315, 53537.904147851965, 0.026000000000000002, 1.024, 0.006, 192.0, 0.0, 0.0, 0.0, 0.0, 0.0, 0.0, 0.0, 0.0, 0.0, 1.696029964658223E9, 0.0, 2023-09-29 18:26:04.658
108.0, 30679.758570165464, 52084.1913919677, 42551.70882364617, 6167.405088830601, 57595.371615334945, 47604.61123044625, -162206.1848290187, 41116.503312170906, 38363.21543016618, 66470.37762050363, 54767.71947952741, 12063.124723806945, 67314.17832543592, -130393.84101555837, 72936.04438734584, 53724.60826928714, 0.026000000000000002, 1.024, 0.006, 192.0, 0.0, 0.0, 0.0, 0.0, 0.0, 0.0, 0.0, 0.0, 0.0, 1.696029964658238E9, 0.0, 2023-09-29 18:26:04.658
110.0, 30673.388322995703, 52076.27887443053, 42621.26745239108, 6162.331242839246, 57612.62716205444, 47641.46925705305, -162125.22681060157, 41158.68105395807, 38393.70320960322, 66417.87337277811, 54756.431848577486, 12067.438610486819, 67363.48627370433, -131067.14261378559, 72854.66168578407, 53529.61165065905, 0.026000000000000002, 1.024, 0.006, 192.0, 0.0, 0.0, 0.0, 0.0, 0.0, 0.0, 0.0, 0.0, 0.0, 1.696029964658243E9, 0.0, 2023-09-29 18:26:04.658
112.0, 30675.869366630242, 52081.30801693297, 42547.01495731055, 6161.995966672417, 57588.62138850944, 47614.44599800659, -162191.1868084892, 41123.61116690769, 38370.524450603065, 66470.7352484149, 54776.43665986499, 12061.269529017154, 67310.3338253896, -130452.67080696474, 72923.99679708443, 53726.172891399015, 0.028, 1.018, 0.01, 192.0, 0.0, 112.0, 15.5, 104.0, 0.0, 40.0, 0.0, 0.0, 0.0, 1.696029964658246E9, 0.0, 2023-09-29 18:26:04.658
114.0, 30674.21533754055, 52081.97856926663, 42612.39380984233, 6163.135905639638, 57620.11499644697, 47637.96003317357, -162133.63106651677, 41147.885161386155, 38385.85774729941, 66413.8724105206, 54746.26180485032, 12061.850674372992, 67343.50381416129, -131029.43522088949, 72842.47998505592, 53541.055743820165, 0.028, 1.018, 0.01, 192.0, 0.0, 0.0, 0.0, 0.0, 0.0, 0.0, 0.0, 0.0, 0.0, 1.696029964658249E9, 0.0, 2023-09-29 18:26:04.658
116.0, 30680.16090156566, 52090.092252503906, 42548.62428291134, 6169.863780720685, 57576.37263254794, 47627.11943711274, -162148.517328324, 41125.913396586584, 38377.56525010648, 66485.93443464451, 54792.99930250637, 12070.724316921749, 67317.12875570402, -130497.553109831, 72939.15127982514, 53733.0348769468, 0.028, 1.018, 0.01, 192.0, 0.0, 0.0, 0.0, 0.0, 0.0, 0.0, 0.0, 0.0, 0.0, 1.696029964658253E9, 0.0, 2023-09-29 18:26:04.658
118.0, 30683.759532422966, 52090.718101348655, 42612.01383018659, 6171.182533643549, 57622.79720578161, 47635.63545175022, -162181.9331862847, 41148.153382319615, 38391.33392469095, 66419.61680884562, 54743.356078071134, 12073.853561145492, 67333.7361018343, -130989.13502563657, 72840.82595596624, 53551.56106371416, 0.028, 1.018, 0.01, 192.0, 0.0, 0.0, 0.0, 0.0, 0.0, 0.0, 0.0, 0.0, 0.0, 1.696029964658256E9, 0.0, 2023-09-29 18:26:04.658
120.0, 30682.910166133664, 52094.16026999477, 42552.26761725755, 6168.187399886537, 57572.77400169063, 47632.23798659301, -162155.3793138718, 41145.5605799628, 38390.08222700146, 66489.51071375737, 54804.71161660095, 12079.285035048133, 67337.84882281409, -130603.4780268047, 72943.44281476055, 53720.987286685384, 0.028, 1.018, 0.01, 192.0, 0.0, 0.0, 0.0, 0.0, 0.0, 0.0, 0.0, 0.0, 0.0, 1.696029964718683E9, 0.0, 2023-09-29 18:26:04.718
122.0, 30669.16384329365, 52075.11658371885, 42601.776731226055, 6156.720954980964, 57614.41530161087, 47614.51305323995, -162207.41417496375, 41135.45759146901, 38381.4097501528, 66413.76065179834, 54730.50382500933, 12065.270491274654, 67321.46499412836, -130931.3557662196, 72844.446938568, 53575.14215411451, 0.03, 1.022, 0.01, 192.0, 0.0, 120.0, 15.5, 120.0, 0.0, 40.0, 0.0, 0.0, 0.0, 1.696029964718696E9, 0.0, 2023-09-29 18:26:04.718
124.0, 30663.464148457548, 52074.06605172945, 42553.89929460279, 6149.344879310713, 57569.62240572243, 47628.77346620244, -162108.84298191583, 41146.45464974101, 38375.5088896166, 66477.21725430695, 54794.742738573885, 12067.259796531176, 67337.98293328083, -130686.35829524498, 72951.6682567201, 53708.60442025714, 0.03, 1.022, 0.01, 192.0, 0.0, 0.0, 0.0, 0.0, 0.0, 0.0, 0.0, 0.0, 0.0, 1.6960299647187E9, 0.0, 2023-09-29 18:26:04.718
126.0, 30658.099729788275, 52063.806601024466, 42580.877850160345, 6137.565509982766, 57612.4483480988, 47598.84448037678, -162211.72806164363, 41124.41582970808, 38365.36119763389, 66404.08234644918, 54708.465004976395, 12050.518339934151, 67310.2891219007, -130840.3394627976, 72855.13107241763, 53593.55999154568, 0.03, 1.022, 0.01, 192.0, 0.0, 0.0, 0.0, 0.0, 0.0, 0.0, 0.0, 0.0, 0.0, 1.696029964718703E9, 0.0, 2023-09-29 18:26:04.718
128.0, 30644.733386604, 52054.86590324234, 42550.188905023206, 6127.417818000057, 57568.191894077296, 47621.062114365355, -162077.28231874495, 41141.04552758283, 38371.440872125735, 66461.90630935506, 54779.2306279219, 12051.188892267812, 67343.30264846119, -130770.80318579712, 72951.28827706436, 53676.19439079695, 0.03, 1.022, 0.01, 192.0, 0.0, 0.0, 0.0, 0.0, 0.0, 0.0, 0.0, 0.0, 0.0, 1.696029964718706E9, 0.0, 2023-09-29 18:26:04.718
130.0, 30653.338808219294, 52051.62490029632, 42561.43183248423, 6127.194300555504, 57614.92939173334, 47585.18756451459, -162250.8436144404, 41109.52956790085, 38362.56722957698, 66398.09207893517, 54695.14336528103, 12034.067456015046, 67302.51071483025, -130759.78377578066, 72847.03974092481, 53592.10712815609, 0.03, 1.022, 0.01, 192.0, 0.0, 0.0, 0.0, 0.0, 0.0, 0.0, 0.0, 0.0, 0.0, 1.696029964718709E9, 0.0, 2023-09-29 18:26:04.718
132.0, 30644.77809009291, 52054.44122009769, 42549.58540792292, 6116.68898066151, 57575.00917613616, 47614.915384640146, -162108.15007783772, 41145.60528345171, 38378.906354773804, 66456.3854284746, 54775.11790694212, 12048.685496888816, 67341.38039843804, -130903.9972310063, 72917.5594946813, 53620.62795408106, 0.028, 1.018, 0.014, 192.0, 0.0, 112.0, 15.5, 104.0, 0.0, 56.0, 0.0, 0.0, 0.0, 1.696029964718712E9, 0.0, 2023-09-29 18:26:04.718
134.0, 30646.096843015774, 52048.629766539314, 42546.52321893254, 6109.581125924722, 57604.312313117065, 47559.41600315762, -162276.45871358618, 41097.72784682844, 38359.25917139759, 66394.15817191103, 54692.84113560214, 12035.252098471177, 67299.96261596234, -130719.61769099448, 72838.88135419862, 53596.89040146952, 0.028, 1.018, 0.014, 192.0, 0.0, 0.0, 0.0, 0.0, 0.0, 0.0, 0.0, 0.0, 0.0, 1.696029964718716E9, 0.0, 2023-09-29 18:26:04.718
136.0, 30646.275656971415, 52059.805638766964, 42553.60872192487, 6114.386750982613, 57563.1851033193, 47617.150559085676, -162093.08500207486, 41143.37010900618, 38374.68187507175, 66432.31259969623, 54769.86524699513, 12044.393961953398, 67361.45226495889, -130990.47613030388, 72908.462334688, 53595.929276457944, 0.028, 1.018, 0.014, 192.0, 0.0, 0.0, 0.0, 0.0, 0.0, 0.0, 0.0, 0.0, 0.0, 1.696029964779105E9, 0.0, 2023-09-29 18:26:04.779
138.0, 30658.524412932926, 52066.8911417593, 42543.14810551979, 6122.969820853451, 57595.55042929059, 47570.99420678547, -162276.23519614164, 41090.44117813602, 38365.4059011228, 66414.98999774337, 54705.71574040839, 12052.66410740186, 67291.17838039141, -130645.67812033632, 72848.96199094797, 53629.8592245411, 0.028, 1.018, 0.014, 192.0, 0.0, 0.0, 0.0, 0.0, 0.0, 0.0, 0.0, 0.0, 0.0, 1.696029964779119E9, 0.0, 2023-09-29 18:26:04.779
140.0, 30654.50109893097, 52072.5908365954, 42571.579524466935, 6132.312850035769, 57572.34931854598, 47635.07665813883, -162088.77111539498, 41155.216533567494, 38387.19885196672, 66436.71589335393, 54768.12181092761, 12063.370592995954, 67362.03341031473, -131082.5876692042, 72898.02407002737, 53576.304444826186, 0.028, 1.018, 0.014, 192.0, 0.0, 0.0, 0.0, 0.0, 0.0, 0.0, 0.0, 0.0, 0.0, 1.696029964779124E9, 0.0, 2023-09-29 18:26:04.779
142.0, 30669.789692138398, 52081.486830888614, 42544.869189842844, 6138.817207672264, 57602.59122879401, 47582.393596457674, -162270.82607398345, 41098.55486137329, 38364.444776111224, 66426.65760834904, 54715.99754285783, 12058.81083712707, 67285.12105764402, -130578.93581139277, 72878.86862502916, 53666.65019591453, 0.03, 1.02, 0.012, 192.0, 0.0, 120.0, 15.5, 112.0, 0.0, 48.0, 0.0, 0.0, 0.0, 1.696029964779128E9, 0.0, 2023-09-29 18:26:04.779
144.0, 30661.854822856763, 52079.69869133219, 42584.96821939567, 6134.749190181397, 57580.46300178325, 47639.97169017455, -162060.49615865902, 41159.083385358266, 38396.00543928211, 66445.56718415824, 54785.10913671365, 12066.902168619892, 67376.89732037751, -131131.87326572815, 72907.0541747873, 53572.19172384641, 0.03, 1.02, 0.012, 192.0, 0.0, 0.0, 0.0, 0.0, 0.0, 0.0, 0.0, 0.0, 0.0, 1.696029964779133E9, 0.0, 2023-09-29 18:26:04.779
146.0, 30678.88685213171, 52089.13112749233, 42537.26959672804, 6138.079600105239, 57603.26178112767, 47592.69775065157, -162250.3965795513, 41101.84056780822, 38371.93261050375, 66453.90438484006, 54738.237528590864, 12065.158732552378, 67293.45825832585, -130524.21874096619, 72895.54302639283, 53698.81435618572, 0.03, 1.02, 0.012, 192.0, 0.0, 0.0, 0.0, 0.0, 0.0, 0.0, 0.0, 0.0, 0.0, 1.696029964779137E9, 0.0, 2023-09-29 18:26:04.779
148.0, 30674.081227073817, 52088.37116818085, 42590.466748531675, 6131.910518635574, 57591.68357749982, 47652.68983276962, -162071.8061413534, 41163.37492029368, 38405.057895786515, 66442.7285126124, 54784.21506693543, 12073.183008811833, 67373.47750347585, -131170.83235631377, 72892.97257578047, 53553.23744454831, 0.03, 1.02, 0.012, 192.0, 0.0, 0.0, 0.0, 0.0, 0.0, 0.0, 0.0, 0.0, 0.0, 1.696029964779142E9, 0.0, 2023-09-29 18:26:04.779
150.0, 30684.318326034347, 52091.768633338055, 42528.06067801246, 6132.670477947054, 57590.00719666567, 47604.1865473016, -162224.11092807187, 41107.048524266305, 38380.40392165231, 66474.24447229439, 54757.683546266984, 12072.11012507798, 67296.56515080514, -130499.11773194287, 72917.80536387031, 53714.88526044909, 0.03, 1.02, 0.012, 192.0, 0.0, 0.0, 0.0, 0.0, 0.0, 0.0, 0.0, 0.0, 0.0, 1.69602996483845E9, 0.0, 2023-09-29 18:26:04.838
152.0, 30677.858671886766, 52084.839592556906, 42588.76801595307, 6135.218576814959, 57604.111147416974, 47663.19515266361, -162093.08500207486, 41177.63533325617, 38397.994744538635, 66444.67311438001, 54772.36864237412, 12076.602825713495, 67361.00523006979, -131191.5747751683, 72885.86472104368, 53540.02756357522, 0.028, 1.016, 0.006, 192.0, 0.0, 112.0, 15.5, 96.0, 0.0, 24.0, 0.0, 0.0, 0.0, 1.696029964838472E9, 0.0, 2023-09-29 18:26:04.838
154.0, 30671.399017739182, 52071.65206332828, 42526.85368381187, 6124.243870287403, 57585.00040590768, 47600.163233299645, -162218.16536404676, 41118.157341260594, 38368.60220057991, 66464.18618728951, 54761.7739155023, 12060.531921450129, 67301.61664505204, -130514.07104898347, 72937.07256759079, 53721.277859363305, 0.028, 1.016, 0.006, 192.0, 0.0, 0.0, 0.0, 0.0, 0.0, 0.0, 0.0, 0.0, 0.0, 1.696029964838475E9, 0.0, 2023-09-29 18:26:04.838
156.0, 30670.862575872252, 52072.30026391748, 42592.00901889909, 6129.027143600839, 57606.07810092904, 47637.065963395355, -162101.39985101222, 41163.732548204964, 38390.21633746819, 66416.3311024107, 54749.39104907406, 12058.274395260143, 67366.7943318837, -131194.54755718083, 72887.22817745546, 53527.57764191362, 0.028, 1.016, 0.006, 192.0, 0.0, 0.0, 0.0, 0.0, 0.0, 0.0, 0.0, 0.0, 0.0, 1.696029964838479E9, 0.0, 2023-09-29 18:26:04.838
158.0, 30684.899471390185, 52087.074767002436, 42534.65444262677, 6139.577166983744, 57588.39787106489, 47604.52182346843, -162199.59106440438, 41126.1592657756, 38382.52733737556, 66471.49520772639, 54771.72044178491, 12061.805970884083, 67315.76529929225, -130536.13222076086, 72956.74210271146, 53718.7297604954, 0.028, 1.016, 0.006, 192.0, 0.0, 0.0, 0.0, 0.0, 0.0, 0.0, 0.0, 0.0, 0.0, 1.696029964838482E9, 0.0, 2023-09-29 18:26:04.838
160.0, 30683.625421956232, 52090.60634262638, 42612.52792030906, 6151.244777589414, 57613.23065915474, 47631.58978600381, -162139.35311309734, 41168.42641454058, 38404.52145391959, 66414.83353553219, 54755.98481368838, 12071.216055299767, 67365.38617198303, -131192.4241414576, 72873.23598542644, 53523.35316221156, 0.028, 1.016, 0.006, 192.0, 0.0, 0.0, 0.0, 0.0, 0.0, 0.0, 0.0, 0.0, 0.0, 1.696029964838485E9, 0.0, 2023-09-29 18:26:04.838
162.0, 30686.68761094661, 52095.45667117318, 42553.13933529131, 6161.16895212757, 57580.37359480544, 47609.75213167097, -162184.6824508527, 41148.019271852885, 38393.83732006995, 66488.1919608345, 54798.49783164237, 12078.86035190348, 67333.64669485649, -130599.16414012482, 72964.74402722645, 53730.03974318979, 0.028, 1.016, 0.002, 192.0, 0.0, 112.0, 15.5, 96.0, 0.0, 8.0, 0.0, 0.0, 0.0, 1.696029964838488E9, 0.0, 2023-09-29 18:26:04.838
164.0, 30680.049142843385, 52087.45474665818, 42616.327716866464, 6167.896827208618, 57616.15873767838, 47622.80555043287, -162152.9206219817, 41170.460423286015, 38397.79357883854, 66415.57114309921, 54753.72728749839, 12071.596034955506, 67350.7010758759, -131131.8062104948, 72872.02899122584, 53553.013927103755, 0.028, 1.016, 0.002, 192.0, 0.0, 0.0, 0.0, 0.0, 0.0, 0.0, 0.0, 0.0, 0.0, 1.696029964838491E9, 0.0, 2023-09-29 18:26:04.838
166.0, 30694.35425929478, 52103.39154045481, 42577.033350114034, 6182.112536682193, 57584.955702418774, 47620.54802424288, -162164.74469479857, 41166.23594358396, 38399.604070139416, 66487.81198117876, 54808.95844804746, 12085.632930473439, 67337.26767745825, -130665.25824847916, 72952.31645730931, 53724.47415882041, 0.028, 1.016, 0.002, 192.0, 0.0, 0.0, 0.0, 0.0, 0.0, 0.0, 0.0, 0.0, 0.0, 1.696029964898121E9, 0.0, 2023-09-29 18:26:04.898
168.0, 30689.7945034259, 52093.26620021656, 42641.62989158987, 6185.5100018394, 57622.46192961478, 47616.25648930747, -162189.39866893276, 41173.43320529857, 38405.23670974216, 66416.66637857752, 54755.91775845501, 12083.688328705828, 67348.22003224136, -131089.7402274299, 72846.25742986887, 53563.45219176438, 0.028, 1.016, 0.002, 192.0, 0.0, 0.0, 0.0, 0.0, 0.0, 0.0, 0.0, 0.0, 0.0, 1.696029964898136E9, 0.0, 2023-09-29 18:26:04.898
170.0, 30692.476712760537, 52100.75403460909, 42605.17419638326, 6195.076548466272, 57584.955702418774, 47622.35851554376, -162160.2296424186, 41181.70335074703, 38401.213395740204, 66492.43879228101, 54813.831128338716, 12091.064404376079, 67350.14228226451, -130766.82457528409, 72937.13962282415, 53717.00867617234, 0.028, 1.016, 0.002, 192.0, 0.0, 0.0, 0.0, 0.0, 0.0, 0.0, 0.0, 0.0, 0.0, 1.69602996489814E9, 0.0, 2023-09-29 18:26:04.898
172.0, 30696.209454084572, 52102.00573229858, 42664.94276105676, 6205.537164871355, 57640.27626994566, 47608.29926828138, -162258.62202151085, 41176.62950475568, 38408.43300919927, 66415.70525356595, 54740.65151699204, 12081.564912982574, 67341.76037809376, -131047.3836716871, 72840.26716235485, 53591.41422407797, 0.036000000000000004, 1.018, 0.006, 192.0, 0.5, 16.0, 15.5, 104.0, 0.0, 24.0, 0.0, 0.0, 0.0, 1.696029964898144E9, 0.0, 2023-09-29 18:26:04.898
174.0, 30683.82658765633, 52095.92605780674, 42631.705717051715, 6204.777205559874, 57588.28611234261, 47628.14761735769, -162133.20638337213, 41188.61003978372, 38412.00928831212, 66491.07533586923, 54809.494889914386, 12091.623197987461, 67361.27345100325, -130884.75237903028, 72948.65077121863, 53716.941620938975, 0.036000000000000004, 1.018, 0.006, 192.0, 0.0, 0.0, 0.0, 0.0, 0.0, 0.0, 0.0, 0.0, 0.0, 1.696029964898147E9, 0.0, 2023-09-29 18:26:04.898
176.0, 30683.960698123065, 52090.67339785974, 42658.885438309364, 6208.219374205992, 57619.53385109113, 47597.302210009366, -162231.4423002532, 41152.69078644404, 38396.385418937854, 66420.39911990156, 54729.20742383092, 12074.76998266816, 67322.76139530676, -130941.14583029102, 72874.10770346019, 53628.42871289596, 0.036000000000000004, 1.018, 0.006, 192.0, 0.0, 0.0, 0.0, 0.0, 0.0, 0.0, 0.0, 0.0, 0.0, 1.696029964898151E9, 0.0, 2023-09-29 18:26:04.898
178.0, 30685.234747557017, 52096.35074095139, 42649.38594691586, 6222.256269723925, 57572.01404237915, 47631.56743425935, -162076.7011733891, 41188.90061246164, 38407.89656733234, 66488.12490560114, 54801.76118633285, 12086.77286944066, 67377.12083782206, -130927.42185919546, 72954.77514919938, 53693.33817879417, 0.036000000000000004, 1.018, 0.006, 192.0, 0.0, 0.0, 0.0, 0.0, 0.0, 0.0, 0.0, 0.0, 0.0, 1.696029964898154E9, 0.0, 2023-09-29 18:26:04.898
180.0, 30693.102561605283, 52098.42945318574, 42662.14879299984, 6228.984144804972, 57616.94104873432, 47598.5315559544, -162237.32080904493, 41153.115469588694, 38401.213395740204, 66428.55750662774, 54723.440673761455, 12078.748593181204, 67321.93438076192, -130836.60672147355, 72863.96001147748, 53641.169207235485, 0.036000000000000004, 1.018, 0.006, 192.0, 0.0, 0.0, 0.0, 0.0, 0.0, 0.0, 0.0, 0.0, 0.0, 1.69602996495841E9, 0.0, 2023-09-29 18:26:04.958
182.0, 30685.30180279038, 52098.4965084191, 42656.53850514156, 6225.5196244144, 57578.56310350455, 47646.364289088764, -162055.66818185666, 41194.39914159765, 38411.18227376727, 66480.27944329733, 54799.41425316504, 12086.77286944066, 67376.78556165524, -131010.45858984692, 72945.722692695, 53664.437373213455, 0.032, 1.022, 0.006, 192.0, 0.5, 0.0, 15.5, 120.0, 0.0, 24.0, 0.0, 0.0, 0.0, 1.696029964958426E9, 0.0, 2023-09-29 18:26:04.958
184.0, 30698.6457942302, 52105.336142222426, 42651.978749272675, 6234.639136152165, 57623.93714474883, 47601.66080017815, -162242.26054456958, 41154.523629489384, 38395.312535204, 66440.5827451447, 54721.80899641621, 12077.116915835968, 67316.12292720353, -130756.67688330138, 72877.3040029173, 53657.84360859914, 0.032, 1.022, 0.006, 192.0, 0.0, 0.0, 0.0, 0.0, 0.0, 0.0, 0.0, 0.0, 0.0, 1.696029964958429E9, 0.0, 2023-09-29 18:26:04.958
186.0, 30693.54959649439, 52100.575220653445, 42676.56566817351, 6237.209586764525, 57594.879876956926, 47659.55181831739, -162070.86736808627, 41214.20278718505, 38422.98399483967, 66477.06079209576, 54796.41911940803, 12088.046918874612, 67388.90020715001, -131106.68284972702, 72935.50794547891, 53626.52881461726, 0.032, 1.022, 0.006, 192.0, 0.0, 0.0, 0.0, 0.0, 0.0, 0.0, 0.0, 0.0, 0.0, 1.696029964958433E9, 0.0, 2023-09-29 18:26:04.958
188.0, 30698.6457942302, 52097.2448107296, 42659.2207144762, 6242.439894967067, 57626.619354083465, 47597.10104430927, -162259.06905639995, 41155.931789390066, 38399.26879397259, 66451.62450690562, 54724.759426684315, 12079.285035048133, 67313.95480799137, -130704.01617336467, 72887.38463966663, 53679.94948386544, 0.032, 1.022, 0.006, 192.0, 0.0, 0.0, 0.0, 0.0, 0.0, 0.0, 0.0, 0.0, 0.0, 1.696029964958436E9, 0.0, 2023-09-29 18:26:04.958
190.0, 30682.865462644753, 52091.81333682696, 42685.08168281099, 6239.243595509958, 57593.22584786724, 47652.935701958624, -162078.86929260127, 41211.29706040586, 38411.7187156342, 66459.67113490953, 54784.103308213154, 12086.05761361809, 67386.44151525992, -131191.48536819045, 72924.35442499572, 53611.64255281002, 0.032, 1.022, 0.006, 192.0, 0.0, 0.0, 0.0, 0.0, 0.0, 0.0, 0.0, 0.0, 0.0, 1.696029964958439E9, 0.0, 2023-09-29 18:26:04.958
192.0, 30696.45532327358, 52098.0941770189, 42648.49187713765, 6249.637156681676, 57605.6981212733, 47590.574334928315, -162264.72404774715, 41147.8628096417, 38382.95202052021, 66442.0356085343, 54724.55826098422, 12076.379308268943, 67298.19682815038, -130653.65769310686, 72897.62173862717, 53712.337161581185, 0.024, 1.022, 0.006, 192.0, 0.0, 96.0, 15.5, 120.0, 0.0, 24.0, 0.0, 0.0, 0.0, 1.696029964958442E9, 0.0, 2023-09-29 18:26:04.958
194.0, 30684.586546967814, 52093.75793859458, 42693.709456170734, 6248.720735159009, 57590.968321677254, 47645.738440244015, -162099.54465622242, 41208.65955456014, 38413.35039297943, 66445.0307422913, 54776.32490114271, 12090.326796809053, 67383.71460243638, -131258.7864707454, 72905.46720093099, 53587.055633909185, 0.024, 1.022, 0.006, 192.0, 0.0, 0.0, 0.0, 0.0, 0.0, 0.0, 0.0, 0.0, 0.0, 1.696029964958446E9, 0.0, 2023-09-29 18:26:04.958
196.0, 30694.331907550328, 52093.221496727645, 42643.97682475768, 6246.083229313283, 57603.3958915944, 47587.06511104883, -162277.50924557558, 41148.153382319615, 38385.38836066584, 66453.5914604177, 54728.536871497265, 12077.34043328052, 67295.7828397492, -130640.85014353397, 72905.5566079088, 53715.466405804924, 0.024, 1.022, 0.006, 192.0, 0.0, 0.0, 0.0, 0.0, 0.0, 0.0, 0.0, 0.0, 0.0, 1.69602996501863E9, 0.0, 2023-09-29 18:26:05.018
198.0, 30682.865462644753, 52084.97370302364, 42692.524813714605, 6243.04339206736, 57590.85656295497, 47638.34001282931, -162099.8575806448, 41202.02108645691, 38408.09773303244, 66428.06576824973, 54758.44350557846, 12077.653357702895, 67393.21409382988, -131295.51038688546, 72896.19122698203, 53557.908959139466, 0.024, 1.022, 0.006, 192.0, 0.0, 0.0, 0.0, 0.0, 0.0, 0.0, 0.0, 0.0, 0.0, 1.696029965018639E9, 0.0, 2023-09-29 18:26:05.018
200.0, 30695.829474428832, 52096.88718281832, 42639.327661910975, 6258.019060852416, 57592.89057170041, 47595.46936696403, -162253.36936156385, 41150.612074209705, 38387.69059034474, 66468.74594315838, 54730.95085989843, 12080.939064137825, 67315.38531963651, -130622.74523052518, 72921.69456740553, 53722.37309484161, 0.024, 1.022, 0.006, 192.0, 0.0, 0.0, 0.0, 0.0, 0.0, 0.0, 0.0, 0.0, 0.0, 1.696029965018643E9, 0.0, 2023-09-29 18:26:05.018
202.0, 30685.21239581256, 52085.15251697928, 42697.24103179467, 6255.694479429064, 57597.27151361365, 47641.558664030876, -162109.78175518295, 41194.55560380883, 38405.16965450879, 66434.25720146384, 54747.73701998437, 12086.571703740563, 67382.52995998025, -131302.70764860007, 72886.93760477753, 53556.67961319442, 0.02, 1.024, 0.004, 192.0, 0.0, 80.0, 16.0, 0.0, 0.0, 16.0, 0.0, 0.0, 0.0, 1.696029965018646E9, 0.0, 2023-09-29 18:26:05.018
204.0, 30692.566119738356, 52088.773499581046, 42637.29365316554, 6265.015156866927, 57585.87212394144, 47600.87848912222, -162230.9952653641, 41147.90751313061, 38377.229973939655, 66471.27169028184, 54743.11020888212, 12079.843828659516, 67311.36200563455, -130623.66165204784, 72928.08716631975, 53736.432342104, 0.02, 1.024, 0.004, 192.0, 0.0, 0.0, 0.0, 0.0, 0.0, 0.0, 0.0, 0.0, 0.0, 1.696029965018649E9, 0.0, 2023-09-29 18:26:05.018
206.0, 30688.11812259175, 52088.10294724738, 42699.25268879565, 6262.221188810014, 57606.52513581814, 47637.557701773374, -162147.15387191225, 41198.15423466614, 38403.62738414137, 66416.08523322169, 54734.63889773356, 12083.978901383747, 67368.18014003994, -131302.10415149978, 72857.76857826336, 53538.48529320781, 0.02, 1.024, 0.004, 192.0, 0.0, 0.0, 0.0, 0.0, 0.0, 0.0, 0.0, 0.0, 0.0, 1.696029965018652E9, 0.0, 2023-09-29 18:26:05.018
208.0, 30687.224052813537, 52085.73366233512, 42631.638661818346, 6246.820836880307, 57572.41637377934, 47596.89987860917, -162202.34032897238, 41148.0639753418, 38384.49429088763, 66472.45633273797, 54759.784610245784, 12079.419145514865, 67318.31339816016, -130663.8947920674, 72933.49628847794, 53728.899804222565, 0.02, 1.024, 0.004, 192.0, 0.0, 0.0, 0.0, 0.0, 0.0, 0.0, 0.0, 0.0, 0.0, 1.696029965018656E9, 0.0, 2023-09-29 18:26:05.018
210.0, 30686.21822431305, 52084.30315068998, 42686.1769182893, 6242.6857641560755, 57602.59122879401, 47615.116550340244, -162156.58630807238, 41177.031836155875, 38392.65267761382, 66399.3214248802, 54719.14913882603, 12069.696136676805, 67354.56792766666, -131255.41135733263, 72859.19908990849, 53538.55234844117, 0.02, 1.024, 0.004, 192.0, 0.0, 0.0, 0.0, 0.0, 0.0, 0.0, 0.0, 0.0, 0.0, 1.696029965078898E9, 0.0, 2023-09-29 18:26:05.078
212.0, 30691.090904604305, 52090.33812169291, 42627.45888560521, 6237.5225111868995, 57569.77886793362, 47594.016503574436, -162189.06339276594, 41155.73062368997, 38386.2600786996, 66467.1366175576, 54763.09266842517, 12070.791372155116, 67330.00336051028, -130719.349470061, 72936.4690704905, 53726.91049896604, 0.028, 1.022, -0.006, 192.0, 0.0, 112.0, 15.5, 120.0, 127.5, 104.0, 0.0, 0.0, 0.0, 1.696029965078919E9, 0.0, 2023-09-29 18:26:05.078
214.0, 30691.873215660242, 52091.58981938241, 42690.04377008007, 6240.383534477179, 57611.241353898215, 47611.11558808274, -162197.22177949213, 41175.37780706618, 38396.69834336023, 66401.95893072593, 54719.372656270585, 12072.57951171154, 67358.97122132436, -131228.41045003064, 72840.53538328831, 53555.62908120502, 0.028, 1.022, -0.006, 192.0, 0.0, 0.0, 0.0, 0.0, 0.0, 0.0, 0.0, 0.0, 0.0, 1.696029965078923E9, 0.0, 2023-09-29 18:26:05.078
216.0, 30696.07534361784, 52098.608267141375, 42632.66684206329, 6239.154188532137, 57573.66807146884, 47613.730742184016, -162194.3831079463, 41168.26995232939, 38391.289221202045, 66474.24447229439, 54772.52510458531, 12078.614482714473, 67350.47755843133, -130811.72922989479, 72940.2688670479, 53723.5800890422, 0.028, 1.022, -0.006, 192.0, 0.0, 0.0, 0.0, 0.0, 0.0, 0.0, 0.0, 0.0, 0.0, 1.696029965078926E9, 0.0, 2023-09-29 18:26:05.078
218.0, 30683.84893940079, 52080.34689192139, 42680.05254030854, 6235.37674371919, 57615.711702789275, 47599.44797747707, -162219.5288204585, 41161.87735341518, 38394.61963112588, 66396.23688414537, 54713.1141678231, 12067.662127931373, 67346.18602349592, -131177.85080407272, 72852.71708401646, 53569.50951451177, 0.028, 1.022, -0.006, 192.0, 0.0, 0.0, 0.0, 0.0, 0.0, 0.0, 0.0, 0.0, 0.0, 1.69602996507893E9, 0.0, 2023-09-29 18:26:05.078
220.0, 30689.21335807006, 52091.72392984914, 42630.05168796202, 6237.969546076006, 57569.30948130006, 47609.17098631513, -162145.43278758918, 41172.360321564716, 38392.809139825, 66462.75567564437, 54772.860380752136, 12068.62325294295, 67364.55915743818, -130872.6377335355, 72961.25715509143, 53714.17000462652, 0.028, 1.022, -0.006, 192.0, 0.0, 0.0, 0.0, 0.0, 0.0, 0.0, 0.0, 0.0, 0.0, 1.696029965078933E9, 0.0, 2023-09-29 18:26:05.078
222.0, 30682.17255856664, 52083.25261870058, 42666.84265933546, 6235.086171041271, 57617.745711534706, 47591.915439595636, -162220.7358146591, 41154.97066437849, 38392.540918891544, 66405.40109937204, 54703.61467642959, 12069.137343065422, 67337.2900292027, -131079.74899765837, 72859.89199398662, 53581.49004953981, 0.03, 1.022, -0.002, 192.0, 0.0, 120.0, 15.5, 120.0, 127.5, 120.0, 0.0, 0.0, 0.0, 1.696029965078938E9, 0.0, 2023-09-29 18:26:05.078
224.0, 30674.26004102946, 52083.00674951157, 42624.59786231493, 6229.6546971386315, 57565.19676032028, 47619.65395446467, -162091.38626949626, 41172.695597731545, 38388.003514767115, 66471.24933853738, 54766.71365102693, 12069.114991320968, 67359.66412540247, -130940.47527795736, 72969.23672786198, 53684.352777523134, 0.03, 1.022, -0.002, 192.0, 0.0, 0.0, 0.0, 0.0, 0.0, 0.0, 0.0, 0.0, 0.0, 1.696029965078941E9, 0.0, 2023-09-29 18:26:05.078
226.0, 30687.13464583572, 52088.01354026956, 42653.87864755138, 6238.6400984096645, 57614.68352254433, 47588.45091920506, -162249.48015802863, 41147.6616439416, 38383.73433157615, 66410.45259361895, 54682.02289128577, 12066.34337500851, 67329.75749132127, -130986.25165060183, 72868.47506385745, 53591.07894791114, 0.03, 1.022, -0.002, 192.0, 0.0, 0.0, 0.0, 0.0, 0.0, 0.0, 0.0, 0.0, 0.0, 1.696029965139436E9, 0.0, 2023-09-29 18:26:05.139
228.0, 30678.26100328696, 52088.86290655886, 42645.31792942499, 6228.693572127053, 57566.9401963878, 47624.30311731138, -162099.3658422668, 41185.570202537805, 38394.9102038038, 66465.437884979, 54765.26078763733, 12082.883665905436, 67374.52803546525, -131072.48468071042, 72942.1687653266, 53645.57250089318, 0.03, 1.022, -0.002, 192.0, 0.0, 0.0, 0.0, 0.0, 0.0, 0.0, 0.0, 0.0, 0.0, 1.696029965139447E9, 0.0, 2023-09-29 18:26:05.139
230.0, 30689.191006325604, 52091.902743804785, 42647.8660282929, 6244.51860720141, 57610.10141493099, 47581.432471446096, -162276.23519614164, 41147.19225730804, 38376.82764253946, 66409.13384069609, 54692.01412105729, 12068.869122131959, 67325.0412732412, -130917.18476023493, 72864.65291555559, 53611.866070254575, 0.03, 1.022, -0.002, 192.0, 0.0, 0.0, 0.0, 0.0, 0.0, 0.0, 0.0, 0.0, 0.0, 1.69602996513945E9, 0.0, 2023-09-29 18:26:05.139
232.0, 30680.16090156566, 52090.427528670734, 42651.710528339216, 6233.499197184944, 57568.48246675521, 47625.97949814553, -162086.5582926939, 41184.56437403731, 38399.76053235061, 66455.40195171857, 54775.00614821984, 12074.971148368259, 67388.94491063892, -131161.22110619798, 72935.15031756763, 53616.962267990384, 0.028, 1.022, 0.002, 192.0, 0.0, 112.0, 15.5, 120.0, 0.0, 8.0, 0.0, 0.0, 0.0, 1.696029965139453E9, 0.0, 2023-09-29 18:26:05.139
234.0, 30701.30565182038, 52102.83274684343, 42638.29948166603, 6248.005479336439, 57614.7505777777, 47590.21670701703, -162294.58597833946, 41138.653890926114, 38383.77903506506, 66423.5283641253, 54698.741996138335, 12070.880779132936, 67318.35810164906, -130852.74468097028, 72871.67136331456, 53636.900024044524, 0.028, 1.022, 0.002, 192.0, 0.0, 0.0, 0.0, 0.0, 0.0, 0.0, 0.0, 0.0, 0.0, 1.696029965139456E9, 0.0, 2023-09-29 18:26:05.139
236.0, 30680.227956799026, 52089.108775747874, 42661.61235113291, 6230.034676794372, 57570.44942026728, 47634.80843720537, -162086.58064443836, 41191.94044970757, 38407.62834639887, 66452.89855633957, 54770.98283421789, 12081.989596127225, 67391.96239614038, -131259.36761610123, 72931.28346577685, 53602.143061416515, 0.028, 1.022, 0.002, 192.0, 0.0, 0.0, 0.0, 0.0, 0.0, 0.0, 0.0, 0.0, 0.0, 1.69602996513946E9, 0.0, 2023-09-29 18:26:05.139
238.0, 30695.56125349537, 52092.528592649534, 42638.00890898811, 6239.4000577211455, 57606.480432329234, 47577.096233021766, -162287.67928930276, 41133.87061761268, 38380.873308285874, 66430.90443979554, 54695.27747574777, 12064.48818021872, 67302.60012180808, -130786.58351738258, 72900.77333459537, 53675.79205939676, 0.028, 1.022, 0.002, 192.0, 0.0, 0.0, 0.0, 0.0, 0.0, 0.0, 0.0, 0.0, 0.0, 1.696029965139463E9, 0.0, 2023-09-29 18:26:05.139
240.0, 30678.618631198246, 52086.02423501304, 42671.84945009345, 6232.359258217723, 57585.40273730788, 47634.92019592765, -162116.24140933054, 41193.68388577508, 38409.12591327738, 66446.59536440318, 54759.82931373469, 12074.255892545689, 67396.70096596492, -131335.6541199272, 72923.63916917314, 53579.9477791724, 0.028, 1.022, 0.002, 192.0, 0.0, 0.0, 0.0, 0.0, 0.0, 0.0, 0.0, 0.0, 0.0, 1.696029965139466E9, 0.0, 2023-09-29 18:26:05.139
242.0, 30678.529224220423, 52079.676339587735, 42625.134304181855, 6222.792711590852, 57601.96537994926, 47570.83774457428, -162289.62389107037, 41124.3040709858, 38382.01324725309, 66442.30382946775, 54707.54858345373, 12059.682555160827, 67319.02865398272, -130762.64479907094, 72908.23881724344, 53696.19920208445, 0.03, 1.026, 0.0, 192.0, 0.0, 120.0, 16.0, 8.0, 0.0, 0.0, 0.0, 0.0, 0.0, 1.69602996519976E9, 0.0, 2023-09-29 18:26:05.199
244.0, 30676.65167768618, 52085.331330934925, 42664.60748488992, 6235.6449646526535, 57596.0421676686, 47632.036820892914, -162132.28996184946, 41187.69361826106, 38399.49231141714, 66429.69744559497, 54741.9702699149, 12060.040183072113, 67389.50370425031, -131377.27306810298, 72916.77718362537, 53564.16744758695, 0.03, 1.026, 0.0, 192.0, 0.0, 0.0, 0.0, 0.0, 0.0, 0.0, 0.0, 0.0, 0.0, 1.696029965199771E9, 0.0, 2023-09-29 18:26:05.199
246.0, 30683.84893940079, 52086.247752457595, 42617.7582285116, 6234.929708830084, 57602.68063577183, 47577.14093651068, -162298.8551615304, 41137.33513800325, 38381.09682573043, 66460.45344596547, 54717.40570275852, 12067.215093042267, 67310.84791551207, -130747.49031633024, 72929.98706459845, 53708.269144090315, 0.03, 1.026, 0.0, 192.0, 0.0, 0.0, 0.0, 0.0, 0.0, 0.0, 0.0, 0.0, 0.0, 1.696029965199775E9, 0.0, 2023-09-29 18:26:05.199
248.0, 30673.16480555115, 52080.41394715476, 42674.50930768363, 6231.465188439512, 57595.72924324623, 47628.66170748016, -162142.01297068753, 41190.44288282906, 38404.61086089741, 66431.46323340693, 54747.58055777318, 12068.712659920771, 67387.93908213843, -131417.97559475608, 72909.26699748839, 53550.37642125803, 0.03, 1.026, 0.0, 192.0, 0.0, 0.0, 0.0, 0.0, 0.0, 0.0, 0.0, 0.0, 0.0, 1.696029965199779E9, 0.0, 2023-09-29 18:26:05.199
250.0, 30681.077323088328, 52082.62676985583, 42620.68630703525, 6231.107560528227, 57593.33760658951, 47583.95821856955, -162276.32460311946, 41137.13397230315, 38383.73433157615, 66471.51755947084, 54732.00139188783, 12068.064459331568, 67319.54274410519, -130738.75078424822, 72942.52639323789, 53730.844405990174, 0.03, 1.026, 0.0, 192.0, 0.0, 0.0, 0.0, 0.0, 0.0, 0.0, 0.0, 0.0, 0.0, 1.696029965199782E9, 0.0, 2023-09-29 18:26:05.199
252.0, 30675.064703829852, 52080.726871577135, 42669.1225372699, 6227.620688393198, 57593.04703391159, 47624.59368998929, -162161.7272092971, 41177.523574533894, 38400.34167770644, 66419.01331174532, 54727.93337439697, 12063.57175869605, 67381.81470415767, -131411.9182720087, 72897.46527641598, 53551.538711969704, 0.034, 1.022, 0.002, 192.0, 0.5, 8.0, 15.5, 120.0, 0.0, 8.0, 0.0, 0.0, 0.0, 1.696029965199786E9, 0.0, 2023-09-29 18:26:05.199
254.0, 30677.07636083083, 52080.45865064367, 42599.94388818072, 6215.215470220503, 57577.42316453734, 47586.79689011537, -162262.55592853497, 41130.65196641111, 38378.436968140246, 66465.01320183434, 54730.839101176156, 12062.43181972883, 67321.91202901746, -130754.84404025604, 72950.3718555417, 53720.182623885, 0.034, 1.022, 0.002, 192.0, 0.0, 0.0, 0.0, 0.0, 0.0, 0.0, 0.0, 0.0, 0.0, 1.696029965199802E9, 0.0, 2023-09-29 18:26:05.199
0.0, 30674.125930562728, 52080.32454017694, 42658.21488597571, 6212.823833563785, 57602.16654564936, 47625.890091167705, -162197.91468357024, 41172.33796982026, 38397.34654394943, 66404.08234644918, 54710.49901372183, 12057.648546415396, 67360.40173296949, -131414.73459181006, 72874.28651741582, 53517.92168830892, 0.034, 1.022, 0.002, 192.0, 0.0, 0.0, 0.0, 0.0, 0.0, 0.0, 0.0, 0.0, 0.0, 1.696029965260087E9, 0.0, 2023-09-29 18:26:05.260
2.0, 30679.535052720912, 52083.40908091177, 42590.22087934266, 6212.8685370526955, 57571.54465574559, 47593.725930896515, -162244.78629169302, 41135.12231530217, 38383.77903506506, 66476.7925711623, 54746.1723978725, 12062.968261595757, 67338.98876178131, -130802.25209024575, 72955.53510851087, 53717.94744943947, 0.034, 1.022, 0.002, 192.0, 0.0, 0.0, 0.0, 0.0, 0.0, 0.0, 0.0, 0.0, 0.0, 1.696029965260099E9, 0.0, 2023-09-29 18:26:05.260
4.0, 30671.26490727245, 52075.29539767449, 42648.53658062656, 6205.380702660168, 57601.42893808233, 47606.15350081366, -162210.87869535433, 41154.724795189475, 38391.26686945759, 66405.13287843858, 54701.64772291753, 12058.967299338257, 67353.67385788845, -131363.16911735167, 72872.20780518149, 53530.2374995038, 0.034, 1.022, 0.002, 192.0, 0.0, 0.0, 0.0, 0.0, 0.0, 0.0, 0.0, 0.0, 0.0, 1.696029965260103E9, 0.0, 2023-09-29 18:26:05.260
