%OpenBCI Raw EXG Data
%Number of channels = 16
%Sample Rate = 125 Hz
%Board = OpenBCI_GUI$BoardCytonSerialDaisy
Sample Index, EXG Channel 0, EXG Channel 1, EXG Channel 2, EXG Channel 3, EXG Channel 4, EXG Channel 5, EXG Channel 6, EXG Channel 7, EXG Channel 8, EXG Channel 9, EXG Channel 10, EXG Channel 11, EXG Channel 12, EXG Channel 13, EXG Channel 14, EXG Channel 15, Accel Channel 0, Accel Channel 1, Accel Channel 2, Other, Other, Other, Other, Other, Other, Other, Analog Channel 0, Analog Channel 1, Analog Channel 2, Timestamp, Other, Timestamp (Formatted)
0.0, 30387.375400945595, 52163.11540163939, 42434.29511002244, 6221.272792967891, 57566.783734176606, 47406.507719338864, -158242.1476533589, 41228.843179803276, 0.0, 0.0, 0.0, 0.0, 0.0, 0.0, 0.0, 0.0, 0.0, 0.0, 0.0, 192.0, 0.0, 0.0, 0.0, 0.0, 0.0, 0.0, 0.0, 0.0, 0.0, 1.696029946818162E9, 0.0, 2023-09-29 18:25:46.818
210.0, 30400.40646796304, 52169.217427875694, 42386.19415595462, 6226.972487803994, 57584.754536718676, 47358.4291170155, -158467.6096996796, 41171.376844808685, 38143.676596126155, 66014.87142024892, 55162.54069358596, 12000.003397465158, 67277.49911278476, -128315.03937423699, 72638.2967994567, 53119.635953859804, 0.0, 0.0, 0.0, 192.0, 0.0, 0.0, 0.0, 0.0, 0.0, 0.0, 0.0, 0.0, 0.0, 1.69602994681817E9, 0.0, 2023-09-29 18:25:46.818
212.0, 30387.353049201138, 52162.22133186118, 42434.764496656004, 6221.876290068185, 57571.70111795678, 47416.029562476826, -158260.92311870135, 41234.140543239184, 38164.46371846959, 66020.39230112938, 55215.380217478305, 12001.456260854753, 67338.85465131458, -128846.09447075064, 72645.33759896012, 53026.40682773672, 0.0, 0.0, 0.0, 192.0, 0.0, 0.0, 0.0, 0.0, 0.0, 0.0, 0.0, 0.0, 0.0, 1.696029946818174E9, 0.0, 2023-09-29 18:25:46.818
214.0, 30410.755325645845, 52183.99193096065, 42315.04855335338, 6249.145418303659, 57521.18617548778, 47381.183192871, -158767.48070329198, 41182.64212401416, 38131.852523309295, 66028.55068785558, 55146.33567885586, 12002.61855156643, 67215.13774575446, -128242.08328033487, 72615.65448232347, 53152.13539029782, 0.032, 1.022, -0.012, 192.0, 0.5, 0.0, 15.5, 120.0, 127.5, 80.0, 0.0, 0.0, 0.0, 1.696029946818177E9, 0.0, 2023-09-29 18:25:46.818
216.0, 30397.567796417214, 52180.415651847805, 42428.03662157495, 6242.350487989246, 57562.06751609654, 47437.554292387285, -158917.505612076, 41245.9869678005, 38158.96518933358, 66029.06477797804, 55149.934309713164, 12027.47369140073, 67203.1125072375, -128811.18104591145, 72426.33520678701, 53022.87525211278, 0.032, 1.022, -0.012, 192.0, 0.0, 0.0, 0.0, 0.0, 0.0, 0.0, 0.0, 0.0, 0.0, 1.696029946818181E9, 0.0, 2023-09-29 18:25:46.818
218.0, 30407.78254363329, 52182.583771059966, 42372.403129625694, 6248.117238058715, 57563.74389693069, 47382.36783532713, -159106.42255621226, 41181.81510946931, 38150.82915435185, 66042.20760371776, 55179.662129838725, 12013.816775538538, 67259.28244105369, -128160.18648865062, 72538.40685348593, 53180.36564354487, 0.032, 1.022, -0.012, 192.0, 0.0, 0.0, 0.0, 0.0, 0.0, 0.0, 0.0, 0.0, 0.0, 1.696029946818184E9, 0.0, 2023-09-29 18:25:46.818
220.0, 30398.014831306322, 52173.486611066655, 42452.467078264606, 6240.003554821438, 57582.1393826174, 47428.05480099378, -159056.2428899101, 41238.20856073005, 38166.27420977047, 66019.54293484008, 55180.086812983376, 12024.94794427728, 67286.10453440006, -128856.08570052216, 72479.53235859064, 53014.918031086694, 0.032, 1.022, -0.012, 192.0, 0.0, 0.0, 0.0, 0.0, 0.0, 0.0, 0.0, 0.0, 0.0, 1.696029946818187E9, 0.0, 2023-09-29 18:25:46.818
222.0, 30409.481276211893, 52180.415651847805, 42374.437138371126, 6242.931633345084, 57569.77886793362, 47378.45628004745, -159143.7723211971, 41184.787891481865, 38153.62312240877, 66046.27562120862, 55201.20921149364, 12012.766243549138, 67302.17543866343, -128204.06296301639, 72613.70988055586, 53198.917591442776, 0.032, 1.022, -0.012, 192.0, 0.0, 0.0, 0.0, 0.0, 0.0, 0.0, 0.0, 0.0, 0.0, 1.69602994681819E9, 0.0, 2023-09-29 18:25:46.818
224.0, 30401.25583425234, 52176.54880005703, 42446.18623807267, 6233.94623207405, 57589.87308619894, 47414.263774664854, -159152.28833583454, 41237.49330490748, 38164.62018068077, 66008.70233877926, 55170.140286700764, 12020.835223297505, 67296.02870893822, -128924.25852111084, 72506.48856240376, 52999.1600512457, 0.028, 1.022, -0.006, 192.0, 0.0, 112.0, 15.5, 120.0, 127.5, 104.0, 0.0, 0.0, 0.0, 1.696029946818193E9, 0.0, 2023-09-29 18:25:46.818
0.0, 15238.72646555024, 26057.954258674894, 21216.745223611026, 3078.9975022074586, 28798.144018428808, 23741.598277282512, -79664.09828234892, 20621.630027488474, 19074.218758847568, 33011.15727557627, 27594.010841132505, 6001.085758338661, 33648.58432395272, -64106.92651354391, 36315.90739678233, 26590.59632904486, 0.026000000000000002, 1.022, 0.002, 192.0, 0.0, 104.0, 15.5, 120.0, 0.0, 8.0, 0.0, 0.0, 0.0, 1.696029946912727E9, 0.0, 2023-09-29 18:25:46.912
2.0, 30492.786227796823, 52122.099950563905, 42357.53921956292, 6167.472144063967, 57599.93137120383, 47441.37644068914, -159506.92111336245, 41185.23492637097, 38186.92722164717, 66146.85847125751, 55204.15964176174, 12072.490104733719, 67329.98100876583, -125919.11118258371, 72760.60554511614, 53337.16313089885, 0.026000000000000002, 1.022, 0.002, 192.0, 0.0, 0.0, 0.0, 0.0, 0.0, 0.0, 0.0, 0.0, 0.0, 1.696029946971643E9, 0.0, 2023-09-29 18:25:46.971
4.0, 30479.196367167995, 52107.99599981261, 42417.844226103334, 6156.139809625127, 57614.460005099776, 47465.33751074523, -159451.75700804676, 41215.18626394108, 38196.47141652959, 66078.05980182407, 55167.05574596593, 12066.633947686429, 67361.11698879207, -126581.86275742803, 72673.0537620847, 53145.9439570837, 0.026000000000000002, 1.022, 0.002, 192.0, 0.0, 0.0, 0.0, 0.0, 0.0, 0.0, 0.0, 0.0, 0.0, 1.696029946971697E9, 0.0, 2023-09-29 18:25:46.971
6.0, 30488.248823672395, 52116.95904933919, 42356.22046664006, 6157.369155570168, 57592.93527518932, 47434.2462342079, -159474.86871181356, 41176.94242917805, 38192.7163234611, 66137.09075893054, 55209.12172903082, 12064.108200562978, 67348.28708747472, -125990.74852356299, 72773.70366736695, 53337.94544195479, 0.026000000000000002, 1.022, 0.002, 192.0, 0.0, 0.0, 0.0, 0.0, 0.0, 0.0, 0.0, 0.0, 0.0, 1.696029946971701E9, 0.0, 2023-09-29 18:25:46.971
8.0, 30478.391704367605, 52108.800662613, 42410.49050217754, 6154.128152624149, 57622.88661275943, 47447.65728088108, -159466.82208380965, 41199.137711422176, 38197.90192817473, 66072.00247907669, 55162.65245230823, 12062.141247050911, 67355.73021837833, -126557.00761759373, 72679.31225053218, 53151.598948430896, 0.026000000000000002, 1.02, 0.002, 192.0, 0.0, 104.0, 15.5, 112.0, 0.0, 8.0, 0.0, 0.0, 0.0, 1.696029946971704E9, 0.0, 2023-09-29 18:25:46.971
10.0, 30478.88344274562, 52112.55575568149, 42348.88909445871, 6152.451771790001, 57586.92265593084, 47433.44157140751, -159443.95624923185, 41189.280592117386, 38184.9602681351, 66146.14321543495, 55213.39091222178, 12064.644642429907, 67347.25890722977, -126058.31784705137, 72782.44319944897, 53331.79871222958, 0.026000000000000002, 1.02, 0.002, 192.0, 0.0, 0.0, 0.0, 0.0, 0.0, 0.0, 0.0, 0.0, 0.0, 1.696029946971708E9, 0.0, 2023-09-29 18:25:46.971
12.0, 30484.09139920371, 52112.35458998139, 42406.69070562014, 6156.5197892808665, 57624.58534533803, 47446.11501051367, -159483.83176134012, 41200.67998178959, 38187.37425653628, 66080.27262452515, 55155.119914426796, 12063.884683118426, 67340.70984610436, -126501.3070704111, 72684.47550350137, 53167.245169549606, 0.026000000000000002, 1.02, 0.002, 192.0, 0.0, 0.0, 0.0, 0.0, 0.0, 0.0, 0.0, 0.0, 0.0, 1.696029946971711E9, 0.0, 2023-09-29 18:25:46.971
14.0, 30480.917451491056, 52110.141767280315, 42356.823963740346, 6148.74138221042, 57586.47562104173, 47451.79235360531, -159409.35574881505, 41198.46715908851, 38192.962192650106, 66154.65923007242, 55227.047828083974, 12075.552293724097, 67347.43772118542, -126151.63638015228, 72775.9835453014, 53325.04848540408, 0.026000000000000002, 1.02, 0.002, 192.0, 0.0, 0.0, 0.0, 0.0, 0.0, 0.0, 0.0, 0.0, 0.0, 1.696029946971714E9, 0.0, 2023-09-29 18:25:46.971
16.0, 30476.558861322268, 52102.810395098975, 42388.96577226708, 6143.399315285602, 57625.63587732743, 47431.474617895445, -159474.3322699466, 41186.68778976057, 38181.54045123344, 66079.24444428021, 55150.31428936891, 12054.921633591848, 67334.71957859035, -126428.32862476453, 72680.67570694396, 53196.7047687417, 0.026000000000000002, 1.02, 0.002, 192.0, 0.0, 0.0, 0.0, 0.0, 0.0, 0.0, 0.0, 0.0, 0.0, 1.696029947032028E9, 0.0, 2023-09-29 18:25:47.032
18.0, 30478.50346308988, 52112.44399695921, 42359.617931797264, 6144.114571108172, 57589.47075479874, 47455.77096411836, -159370.35195474053, 41202.66928704611, 38188.760064692506, 66155.77681729518, 55221.92927860371, 12069.919654121359, 67357.69717189041, -126235.45542185967, 72768.58511788669, 53310.36338929694, 0.032, 1.018, 0.006, 192.0, 0.5, 0.0, 15.5, 104.0, 0.0, 24.0, 0.0, 0.0, 0.0, 1.696029947032046E9, 0.0, 2023-09-29 18:25:47.032
20.0, 30481.02921021333, 52110.20882251368, 42383.57900185335, 6152.675289234554, 57632.02847624165, 47425.64081259261, -159491.16313352148, 41176.36128382222, 38180.40051226622, 66084.58651120502, 55152.57181555889, 12063.616462184962, 67317.59814233758, -126359.75347277564, 72673.81372139617, 53215.0108474506, 0.032, 1.018, 0.006, 192.0, 0.0, 0.0, 0.0, 0.0, 0.0, 0.0, 0.0, 0.0, 0.0, 1.69602994703205E9, 0.0, 2023-09-29 18:25:47.032
22.0, 30484.583137581725, 52113.31571499297, 42376.135870949736, 6149.4119345440795, 57591.21419086626, 47458.34141473072, -159349.38601844147, 41205.127978936194, 38196.247899085036, 66150.43475037036, 55231.47347348613, 12078.659186203384, 67373.23163428684, -126342.09559465596, 72761.23139396089, 53285.35178725145, 0.032, 1.018, 0.006, 192.0, 0.0, 0.0, 0.0, 0.0, 0.0, 0.0, 0.0, 0.0, 0.0, 1.696029947032053E9, 0.0, 2023-09-29 18:25:47.032
24.0, 30487.46651261646, 52109.538270180026, 42376.49349886102, 6145.723896708953, 57626.10526396099, 47415.64958282108, -159519.54984897972, 41163.08434761576, 38185.58611697985, 66093.30369154259, 55155.477542338085, 12065.494008719208, 67325.57771510813, -126302.95769011471, 72685.99542212432, 53222.1634056763, 0.032, 1.018, 0.006, 192.0, 0.0, 0.0, 0.0, 0.0, 0.0, 0.0, 0.0, 0.0, 0.0, 1.696029947032057E9, 0.0, 2023-09-29 18:25:47.032
26.0, 30482.727942791935, 52112.22047951466, 42384.942458265126, 6146.327393809247, 57590.45423155478, 47461.82828686575, -159351.39767544242, 41214.56041509633, 38202.70755323262, 66151.12765444847, 55235.161511321254, 12075.015851857168, 67375.8020848992, -126464.4490438043, 72763.48892015088, 53243.375211164384, 0.032, 1.018, 0.006, 192.0, 0.0, 0.0, 0.0, 0.0, 0.0, 0.0, 0.0, 0.0, 0.0, 1.696029947032062E9, 0.0, 2023-09-29 18:25:47.032
28.0, 30488.159416694572, 52112.33223823694, 42374.59360058232, 6147.802608943297, 57624.96532499377, 47417.05774272177, -159534.86079393158, 41163.93371390506, 38185.474358257576, 66109.37459580596, 55168.128629699786, 12067.77388665365, 67315.94411324788, -126247.63712258782, 72703.74270722184, 53239.463655884705, 0.03, 1.02, 0.006, 192.0, 0.0, 120.0, 15.5, 112.0, 0.0, 24.0, 0.0, 0.0, 0.0, 1.696029947032068E9, 0.0, 2023-09-29 18:25:47.032
30.0, 30475.88830898861, 52110.11941553586, 42387.57996411085, 6139.823036172752, 57586.49797278619, 47467.3044642573, -159320.32875064955, 41213.5769383403, 38199.22068109759, 66138.58832580905, 55240.972964879635, 12072.087773333524, 67379.26660528977, -126546.05526281062, 72764.2712312068, 53224.24211791064, 0.03, 1.02, 0.006, 192.0, 0.0, 0.0, 0.0, 0.0, 0.0, 0.0, 0.0, 0.0, 0.0, 1.696029947032072E9, 0.0, 2023-09-29 18:25:47.032
32.0, 30495.155512709083, 52121.407046485794, 42360.33318761983, 6151.557702011789, 57622.88661275943, 47421.63985033511, -159513.15725006547, 41169.23107734097, 38176.46660524209, 66115.74484297572, 55166.787525032465, 12067.81859014256, 67307.69631954389, -126156.3302464879, 72722.7640417533, 53279.875609859904, 0.03, 1.02, 0.006, 192.0, 0.0, 0.0, 0.0, 0.0, 0.0, 0.0, 0.0, 0.0, 0.0, 1.696029947092334E9, 0.0, 2023-09-29 18:25:47.092
34.0, 30484.873710259642, 52117.204918528194, 42392.966734524576, 6151.781219456341, 57597.763251991666, 47475.082871327744, -159307.09651793202, 41232.86649380523, 38204.98743116706, 66142.27636364417, 55245.867996915345, 12081.497857749207, 67384.34045128112, -126608.2825193742, 72762.05840850573, 53222.52103358758, 0.03, 1.02, 0.006, 192.0, 0.0, 0.0, 0.0, 0.0, 0.0, 0.0, 0.0, 0.0, 0.0, 1.696029947092343E9, 0.0, 2023-09-29 18:25:47.092
36.0, 30496.049582487296, 52119.03776157353, 42352.1971526381, 6158.2185218594705, 57617.678656301345, 47423.96443175846, -159506.96581685136, 41174.729606476976, 38180.37816052177, 66127.97124719278, 55186.702929342144, 12074.926444879347, 67315.20650568086, -126099.42270510468, 72731.86120174661, 53318.03003764511, 0.03, 1.02, 0.006, 192.0, 0.0, 0.0, 0.0, 0.0, 0.0, 0.0, 0.0, 0.0, 0.0, 1.696029947092347E9, 0.0, 2023-09-29 18:25:47.092
38.0, 30485.164282937563, 52121.51880520807, 42398.21939447158, 6151.133018867138, 57608.78266200813, 47478.234467295944, -159312.88561974594, 41239.326147952816, 38211.78236148148, 66132.03926468364, 55240.10124684587, 12088.739822952726, 67390.21896007287, -126674.89071785101, 72742.29946640725, 53215.346123617426, 0.036000000000000004, 1.022, 0.004, 192.0, 0.5, 16.0, 15.5, 120.0, 0.0, 16.0, 0.0, 0.0, 0.0, 1.69602994709235E9, 0.0, 2023-09-29 18:25:47.092
40.0, 30489.142893450608, 52123.46340697568, 42339.836637954315, 6145.567434497766, 57612.135423676424, 47411.42510311903, -159464.74337157528, 41168.33700756276, 38179.84171865484, 66135.48143332975, 55194.68250211269, 12079.843828659516, 67310.64674981197, -126048.23721030203, 72752.60362060113, 53351.803523517076, 0.036000000000000004, 1.022, 0.004, 192.0, 0.0, 0.0, 0.0, 0.0, 0.0, 0.0, 0.0, 0.0, 0.0, 1.696029947092353E9, 0.0, 2023-09-29 18:25:47.092
42.0, 30481.31978289125, 52118.121340050864, 42394.374894425266, 6146.953242653995, 57603.68646427232, 47467.48327821294, -159293.2607881142, 41226.228025702, 38208.9213381912, 66115.99071216473, 55221.392836736784, 12081.564912982574, 67393.97405314137, -126687.02771509025, 72736.59977157114, 53200.951600188215, 0.036000000000000004, 1.022, 0.004, 192.0, 0.0, 0.0, 0.0, 0.0, 0.0, 0.0, 0.0, 0.0, 0.0, 1.696029947092356E9, 0.0, 2023-09-29 18:25:47.092
44.0, 30488.114713205665, 52119.551851696, 42336.975614664036, 6149.724858966453, 57605.228734639735, 47419.650545078584, -159447.55488008916, 41170.66158898611, 38185.5637652354, 66150.09947420353, 55202.34915046086, 12082.034299616134, 67323.02961624022, -126032.27806476095, 72756.82810030319, 53351.110619438965, 0.036000000000000004, 1.022, 0.004, 192.0, 0.0, 0.0, 0.0, 0.0, 0.0, 0.0, 0.0, 0.0, 0.0, 1.696029947092359E9, 0.0, 2023-09-29 18:25:47.092
46.0, 30487.55591959428, 52125.58682269893, 42398.39820842722, 6154.642242746621, 57609.54262131961, 47465.15869678959, -159304.52606731965, 41223.456409389546, 38204.24982360003, 66120.10343314451, 55217.905964601756, 12086.594055485017, 67384.0051751143, -126707.7030787114, 72719.07600391818, 53186.49002152563, 0.036000000000000004, 1.022, 0.004, 192.0, 0.0, 0.0, 0.0, 0.0, 0.0, 0.0, 0.0, 0.0, 0.0, 1.69602994715263E9, 0.0, 2023-09-29 18:25:47.152
48.0, 30497.390687154617, 52131.197110557216, 42338.54023677591, 6152.384716556635, 57597.338568847015, 47417.52712935533, -159410.74155697128, 41166.07948137278, 38187.10603560282, 66167.89146278995, 55225.25968852755, 12093.34428231052, 67322.80609879567, -126026.4442594581, 72762.01370501683, 53369.23788419222, 0.032, 1.02, 0.006, 192.0, 0.5, 0.0, 15.5, 112.0, 0.0, 24.0, 0.0, 0.0, 0.0, 1.696029947152642E9, 0.0, 2023-09-29 18:25:47.152
50.0, 30485.27604165984, 52118.21074702868, 42393.97256302507, 6139.778332683842, 57606.10045267349, 47448.01490879237, -159316.26073315868, 41202.71399053502, 38200.27121308699, 66110.29101732862, 55209.099377286366, 12085.476468262252, 67381.97116636886, -126690.02284884726, 72693.19268383893, 53176.94582664321, 0.032, 1.02, 0.006, 192.0, 0.0, 0.0, 0.0, 0.0, 0.0, 0.0, 0.0, 0.0, 0.0, 1.696029947152646E9, 0.0, 2023-09-29 18:25:47.152
52.0, 30480.93980323551, 52111.08054054744, 42328.54900700438, 6129.474178489945, 57582.42995529532, 47417.75064679988, -159377.68332692186, 41156.5129347459, 38179.327628532366, 66156.31325916211, 55223.94093560469, 12075.306424535087, 67335.88186930203, -126037.03898632992, 72757.99039101487, 53363.98522424522, 0.032, 1.02, 0.006, 192.0, 0.0, 0.0, 0.0, 0.0, 0.0, 0.0, 0.0, 0.0, 0.0, 1.696029947152649E9, 0.0, 2023-09-29 18:25:47.152
54.0, 30481.02921021333, 52110.857023102886, 42391.24565020152, 6131.64229770211, 57610.682560286834, 47442.60578663419, -159348.29078296313, 41187.179528138586, 38192.62691648328, 66084.89943562739, 55186.94879853116, 12071.10429657749, 67365.02854407174, -126660.85382233308, 72665.18594803644, 53158.81856188996, 0.032, 1.02, 0.006, 192.0, 0.0, 0.0, 0.0, 0.0, 0.0, 0.0, 0.0, 0.0, 0.0, 1.696029947152652E9, 0.0, 2023-09-29 18:25:47.152
56.0, 30479.039904956808, 52111.79579637001, 42329.063097126855, 6126.143768566105, 57586.78854546411, 47415.85074852118, -159373.99528908674, 41163.129051104675, 38179.59584946583, 66156.46972137329, 55233.73099967611, 12076.2004943133, 67336.57477338014, -126091.44313233414, 72751.50838512283, 53342.862825734956, 0.032, 1.02, 0.006, 192.0, 0.0, 0.0, 0.0, 0.0, 0.0, 0.0, 0.0, 0.0, 0.0, 1.696029947152657E9, 0.0, 2023-09-29 18:25:47.152
58.0, 30467.12642516213, 52100.88814507582, 42384.42836814265, 6117.203070783981, 57623.37835113744, 47423.69621082499, -159372.78829488615, 41186.10664440473, 38187.10603560282, 66082.06076408157, 55179.05863273843, 12066.969223853259, 67345.35900895107, -126609.84714148607, 72662.86136661308, 53159.10913456788, 0.03, 1.018, 0.0, 192.0, 0.0, 120.0, 15.5, 104.0, 0.0, 0.0, 0.0, 0.0, 0.0, 1.696029947152661E9, 0.0, 2023-09-29 18:25:47.152
60.0, 30464.466567571948, 52100.12818576434, 42324.81626568035, 6107.770634623842, 57579.32306281604, 47416.5436525993, -159358.59493715703, 41170.14749886364, 38171.571573206376, 66148.55720383611, 55220.25289776956, 12060.844845872503, 67357.65246840149, -126144.17089750421, 72752.93889676797, 53325.249651104175, 0.03, 1.018, 0.0, 192.0, 0.0, 0.0, 0.0, 0.0, 0.0, 0.0, 0.0, 0.0, 0.0, 1.696029947152664E9, 0.0, 2023-09-29 18:25:47.152
62.0, 30460.107977403164, 52089.68992110371, 42371.75492903649, 6104.2167072554485, 57621.7019703033, 47411.0898269522, -159382.84657989105, 41168.04643488484, 38169.42580573867, 66065.7439906292, 55158.58443481737, 12051.702982390283, 67352.26569798776, -126533.65004463794, 72653.8983170865, 53158.97502410114, 0.03, 1.018, 0.0, 192.0, 0.0, 0.0, 0.0, 0.0, 0.0, 0.0, 0.0, 0.0, 0.0, 1.696029947211991E9, 0.0, 2023-09-29 18:25:47.211
64.0, 30466.54527980629, 52099.390578197315, 42323.63162322422, 6111.123396292138, 57583.01110065116, 47427.563062615765, -159322.76509079518, 41175.10958613272, 38169.336398760846, 66144.08685494505, 55224.678543171714, 12058.922595849348, 67355.26083174477, -126198.4856365306, 72747.75329205433, 53302.54027873758, 0.03, 1.018, 0.0, 192.0, 0.0, 0.0, 0.0, 0.0, 0.0, 0.0, 0.0, 0.0, 0.0, 1.696029947212002E9, 0.0, 2023-09-29 18:25:47.212
66.0, 30471.105035675173, 52096.68601711822, 42367.664559801175, 6120.958163852473, 57628.854528528995, 47421.125760212635, -159432.0427694372, 41171.42154829759, 38174.23143079656, 66074.88585411142, 55160.12670518478, 12055.77099988115, 67345.20254673989, -126452.24499133171, 72642.32011345866, 53170.68733819573, 0.03, 1.018, 0.0, 192.0, 0.0, 0.0, 0.0, 0.0, 0.0, 0.0, 0.0, 0.0, 0.0, 1.696029947212006E9, 0.0, 2023-09-29 18:25:47.212
68.0, 30461.516137303846, 52095.65783687327, 42333.42168729564, 6119.102969062683, 57576.95377790377, 47438.00132727639, -159310.78455576714, 41194.91323172012, 38186.34607629133, 66147.81959626908, 55239.27423230103, 12064.53288370763, 67369.81181738518, -126300.58840520245, 72741.36069314012, 53290.87266813191, 0.026000000000000002, 1.022, 0.006, 192.0, 0.0, 104.0, 15.5, 120.0, 0.0, 24.0, 0.0, 0.0, 0.0, 1.696029947212009E9, 0.0, 2023-09-29 18:25:47.212
70.0, 30455.861145956656, 52087.25358095808, 42344.28463510092, 6123.148634809093, 57619.10916794648, 47409.70401879597, -159426.25366762324, 41163.30786506031, 38162.36265449079, 66085.50293272769, 55157.19862666114, 12052.15001727939, 67331.47857564433, -126342.22970512268, 72666.05766607019, 53214.362646861395, 0.026000000000000002, 1.022, 0.006, 192.0, 0.0, 0.0, 0.0, 0.0, 0.0, 0.0, 0.0, 0.0, 0.0, 1.696029947212012E9, 0.0, 2023-09-29 18:25:47.212
72.0, 30445.512288273847, 52085.08546174592, 42328.169027348646, 6116.152538794582, 57583.547542518085, 47446.38323144713, -159283.4483722983, 41196.9248887211, 38173.06914008488, 66145.80793926811, 55232.568708964434, 12065.96339535277, 67367.82251212865, -126360.4687285982, 72741.8747832626, 53271.82898185599, 0.026000000000000002, 1.022, 0.006, 192.0, 0.0, 0.0, 0.0, 0.0, 0.0, 0.0, 0.0, 0.0, 0.0, 1.696029947212015E9, 0.0, 2023-09-29 18:25:47.212
74.0, 30438.40443353706, 52068.612226082354, 42334.181646607125, 6116.085483561216, 57631.82731054155, 47409.23463216241, -159459.17778720593, 41160.84917317023, 38157.69113989963, 66077.07632506805, 55158.20445516163, 12047.634964899418, 67318.69337781589, -126245.82663128694, 72661.6543724125, 53229.15950169081, 0.026000000000000002, 1.022, 0.006, 192.0, 0.0, 0.0, 0.0, 0.0, 0.0, 0.0, 0.0, 0.0, 0.0, 1.696029947212018E9, 0.0, 2023-09-29 18:25:47.212
76.0, 30411.269415768318, 52048.7862287505, 42335.94743441909, 6105.714274133954, 57589.291940843104, 47452.59701640571, -159300.43569808433, 41207.07258070381, 38166.27420977047, 66111.67682548486, 55226.17611005022, 12049.937194578313, 67362.07811380364, -126460.40337805789, 72728.32962612268, 53233.33927790395, 0.026000000000000002, 1.022, 0.006, 192.0, 0.0, 0.0, 0.0, 0.0, 0.0, 0.0, 0.0, 0.0, 0.0, 1.696029947273275E9, 0.0, 2023-09-29 18:25:47.273
78.0, 30405.882645354588, 52035.17401637722, 42320.815303422845, 6103.881431088618, 57617.16456617887, 47401.56798381424, -159466.79973206518, 41151.19321956554, 38130.511418641974, 66053.38347594542, 55144.413428832704, 12026.75843557816, 67315.43002312542, -126167.50611871555, 72678.99932610981, 53252.606481624425, 0.028, 1.02, 0.014, 192.0, 0.0, 112.0, 15.5, 112.0, 0.0, 56.0, 0.0, 0.0, 0.0, 1.696029947273287E9, 0.0, 2023-09-29 18:25:47.273
80.0, 30382.636831121068, 52021.986487148584, 42340.23896935451, 6101.243925242892, 57584.08398438502, 47458.810801364285, -159291.33853809102, 41207.69842954855, 38151.991445063526, 66084.16182806037, 55212.56389767693, 12041.376476451931, 67374.79625639871, -126515.65689035141, 72728.03905344475, 53220.75524577561, 0.028, 1.02, 0.014, 192.0, 0.0, 0.0, 0.0, 0.0, 0.0, 0.0, 0.0, 0.0, 0.0, 1.69602994727329E9, 0.0, 2023-09-29 18:25:47.273
82.0, 30376.73597058487, 52004.038036350976, 42311.740495173995, 6099.5228409198335, 57607.463909085265, 47395.4883093224, -159487.6986131309, 41145.42646949607, 38123.805895305384, 66053.65169687888, 55140.211300875104, 12027.496043145185, 67298.91208397294, -126084.69290550864, 72677.43470399793, 53269.236179499174, 0.028, 1.02, 0.014, 192.0, 0.0, 0.0, 0.0, 0.0, 0.0, 0.0, 0.0, 0.0, 0.0, 1.696029947273293E9, 0.0, 2023-09-29 18:25:47.273
84.0, 30350.919705738987, 51989.79997513294, 42345.983367679524, 6092.392634438591, 57583.145211117895, 47447.411411692075, -159285.3929740659, 41211.72174355051, 38140.88262806924, 66060.06664753755, 55199.26460972603, 12029.977086779725, 67380.406544257, -126567.15530957644, 72707.63191075706, 53191.161536116786, 0.028, 1.02, 0.014, 192.0, 0.0, 0.0, 0.0, 0.0, 0.0, 0.0, 0.0, 0.0, 0.0, 1.696029947273297E9, 0.0, 2023-09-29 18:25:47.273
86.0, 30347.94692372643, 51979.24995175004, 42305.68317242661, 6094.203125739471, 57598.18793513632, 47391.46499532044, -159470.2419007113, 41148.55571371981, 38111.15480794368, 66051.48357766672, 55137.28322235146, 12013.660313327351, 67300.29789212918, -126003.75723883597, 72680.94392787742, 53294.58305771149, 0.028, 1.02, 0.014, 192.0, 0.0, 0.0, 0.0, 0.0, 0.0, 0.0, 0.0, 0.0, 0.0, 1.6960299472733E9, 0.0, 2023-09-29 18:25:47.273
88.0, 30334.17824914196, 51971.96328305761, 42352.487725316016, 6098.673474630532, 57587.190876864304, 47456.977958318945, -159285.25886359919, 41217.13086570869, 38136.63579662273, 66038.87719379392, 55181.2267519506, 12011.313380159543, 67375.6009191991, -126585.81901619662, 72691.65041347152, 53175.068280108964, 0.026000000000000002, 1.02, 0.008, 192.0, 0.0, 104.0, 15.5, 112.0, 0.0, 32.0, 0.0, 0.0, 0.0, 1.696029947273303E9, 0.0, 2023-09-29 18:25:47.273
90.0, 30337.0616241767, 51965.90596031022, 42302.62098343623, 6101.355683965169, 57599.774908992644, 47400.56215531375, -159432.22158339282, 41161.63148422617, 38110.037220720915, 66056.62447889143, 55149.82255099089, 12010.486365614697, 67305.41644160944, -125938.17722060409, 72695.67372747348, 53315.54899401057, 0.026000000000000002, 1.02, 0.008, 192.0, 0.0, 0.0, 0.0, 0.0, 0.0, 0.0, 0.0, 0.0, 0.0, 1.696029947273306E9, 0.0, 2023-09-29 18:25:47.273
92.0, 30326.66806300498, 51961.90499805272, 42361.160202164676, 6112.464500959457, 57592.17531587784, 47452.932292572536, -159273.68065997132, 41215.610947085734, 38127.49393314051, 66030.1823652008, 55170.60967333432, 12007.088900457491, 67364.71561964937, -126567.95997237683, 72682.15092207801, 53162.66306193627, 0.026000000000000002, 1.02, 0.008, 192.0, 0.0, 0.0, 0.0, 0.0, 0.0, 0.0, 0.0, 0.0, 0.0, 1.696029947333024E9, 0.0, 2023-09-29 18:25:47.333
94.0, 30336.324016609673, 51966.844733577345, 42315.94262313159, 6118.745341151398, 57587.52615303113, 47410.441626363, -159409.71337672631, 41162.95023714903, 38108.51730209796, 66067.95681333028, 55148.23557713456, 12011.738063304194, 67310.9373224899, -125903.24144402046, 72696.29957631821, 53310.45279627476, 0.026000000000000002, 1.02, 0.008, 192.0, 0.0, 0.0, 0.0, 0.0, 0.0, 0.0, 0.0, 0.0, 0.0, 1.696029947333036E9, 0.0, 2023-09-29 18:25:47.333
96.0, 30329.886714206543, 51965.503628910024, 42373.99010348202, 6118.857099873674, 57589.33664433201, 47456.73208912994, -159265.29875580058, 41211.11824645022, 38125.281110439435, 66016.19017317178, 55155.00815570452, 12008.072377213524, 67372.42697148645, -126550.86088786852, 72667.91286085999, 53142.434733204216, 0.026000000000000002, 1.02, 0.008, 192.0, 0.0, 0.0, 0.0, 0.0, 0.0, 0.0, 0.0, 0.0, 0.0, 1.69602994733304E9, 0.0, 2023-09-29 18:25:47.333
98.0, 30346.404653359015, 51978.04295754945, 42325.0397831249, 6133.966879125462, 57584.4416122963, 47418.57766134473, -159396.65995796444, 41163.95606564952, 38117.05566847988, 66067.17450227434, 55153.46588533711, 12014.174403449822, 67316.25703767026, -125886.05295253432, 72704.36855606659, 53304.95426713875, 0.02, 1.018, 0.01, 192.0, 0.0, 80.0, 15.5, 104.0, 0.0, 40.0, 0.0, 0.0, 0.0, 1.696029947333043E9, 0.0, 2023-09-29 18:25:47.333
100.0, 30348.95275222692, 51981.28396049547, 42405.908394564205, 6147.132056609637, 57602.30065611609, 47458.47552519745, -159319.16645993787, 41213.64399357367, 38142.04491878091, 66024.86265002044, 55149.800199246434, 12024.90324078837, 67365.76615163877, -126554.50422221473, 72637.15686048947, 53122.18405272771, 0.02, 1.018, 0.01, 192.0, 0.0, 0.0, 0.0, 0.0, 0.0, 0.0, 0.0, 0.0, 0.0, 1.696029947333046E9, 0.0, 2023-09-29 18:25:47.333
102.0, 30353.49015635135, 51987.27422800949, 42353.51590556096, 6151.31183282278, 57578.384289548914, 47418.91293751156, -159362.14886452543, 41175.93660067757, 38128.41035466318, 66095.22594156575, 55180.80206880595, 12029.015961768147, 67324.14720346298, -125909.05289757883, 72718.20428588442, 53329.60824127296, 0.02, 1.018, 0.01, 192.0, 0.0, 0.0, 0.0, 0.0, 0.0, 0.0, 0.0, 0.0, 0.0, 1.696029947333049E9, 0.0, 2023-09-29 18:25:47.333
104.0, 30362.788482044758, 51995.96905660261, 42421.44285696064, 6166.063984163283, 57617.7010080458, 47448.64075763712, -159335.43852990135, 41214.44865637406, 38138.08866001233, 66028.84126053349, 55143.83228347687, 12026.75843557816, 67352.3998084545, -126488.11954118247, 72637.67095061195, 53140.892462836804, 0.02, 1.018, 0.01, 192.0, 0.0, 0.0, 0.0, 0.0, 0.0, 0.0, 0.0, 0.0, 0.0, 1.696029947333053E9, 0.0, 2023-09-29 18:25:47.333
106.0, 30370.00809550382, 52005.915582885216, 42374.90652500469, 6175.9434552125285, 57586.22975185273, 47435.788504575314, -159348.871928319, 41194.71206602002, 38145.71060487159, 66112.74970921871, 55194.749557346055, 12039.789502595604, 67332.886735545, -125952.45998531104, 72722.94285570894, 53329.20590987276, 0.02, 1.018, 0.01, 192.0, 0.0, 0.0, 0.0, 0.0, 0.0, 0.0, 0.0, 0.0, 0.0, 1.696029947333056E9, 0.0, 2023-09-29 18:25:47.333
108.0, 30379.68640085297, 52010.54239398747, 42445.15805782772, 6189.578019330266, 57623.78068253764, 47456.30740598529, -159346.5696986401, 41213.35342089575, 38157.31116024389, 66045.9403450418, 55146.2686236225, 12040.817682840549, 67352.91389857697, -126420.08083106052, 72645.00232279328, 53159.556169456984, 0.024, 1.02, 0.002, 192.0, 0.0, 96.0, 15.5, 112.0, 0.0, 8.0, 0.0, 0.0, 0.0, 1.696029947393324E9, 0.0, 2023-09-29 18:25:47.393
110.0, 30388.44828467945, 52025.02632439451, 42398.77818808296, 6195.881211266663, 57581.111202372456, 47453.37932746164, -159318.04887271512, 41214.69452556307, 38160.08277655635, 66123.92558144637, 55207.22183075212, 12054.80987486957, 67348.6000118971, -125997.76697132195, 72740.60073382864, 53328.177729627816, 0.024, 1.02, 0.002, 192.0, 0.0, 0.0, 0.0, 0.0, 0.0, 0.0, 0.0, 0.0, 0.0, 1.696029947393342E9, 0.0, 2023-09-29 18:25:47.393
112.0, 30395.980822560887, 52032.02242040902, 42448.08613635137, 6203.994894503939, 57625.702932560795, 47448.64075763712, -159367.6697454059, 41219.14252270967, 38164.083738813846, 66053.40582768987, 55150.13547541326, 12049.691325389305, 67350.65637238698, -126329.0198241496, 72657.76516887727, 53186.1547453588, 0.024, 1.02, 0.002, 192.0, 0.0, 0.0, 0.0, 0.0, 0.0, 0.0, 0.0, 0.0, 0.0, 1.696029947393346E9, 0.0, 2023-09-29 18:25:47.393
114.0, 30395.466732438414, 52038.25855711205, 42404.29906896342, 6200.932705513562, 57583.86046694046, 47463.23644676643, -159287.605796767, 41228.619662358724, 38167.369445248776, 66133.13450016195, 55218.21888902413, 12056.374496981442, 67350.99164855381, -126055.68034120565, 72755.6211061026, 53327.44012206079, 0.024, 1.02, 0.002, 192.0, 0.0, 0.0, 0.0, 0.0, 0.0, 0.0, 0.0, 0.0, 0.0, 1.696029947393349E9, 0.0, 2023-09-29 18:25:47.393
116.0, 30399.624156907103, 52035.3304785884, 42442.49820023754, 6199.725711312975, 57626.64170582792, 47439.945929044006, -159384.9699956143, 41207.810188270836, 38160.865087612285, 66063.06178129456, 55145.48631256656, 12046.495025932196, 67349.15880550847, -126246.02779698704, 72653.6971513864, 53203.63380952285, 0.024, 1.02, 0.002, 192.0, 0.0, 0.0, 0.0, 0.0, 0.0, 0.0, 0.0, 0.0, 0.0, 1.696029947393352E9, 0.0, 2023-09-29 18:25:47.393
118.0, 30402.842808108668, 52044.695859515174, 42417.218377258585, 6198.161089201104, 57578.85367618247, 47464.82342062276, -159260.7389999317, 41233.224121716514, 38167.48120397105, 66125.73607274724, 55218.42005472423, 12057.335621993021, 67374.01394534278, -126142.20394399214, 72743.23823967436, 53291.185592554284, 0.028, 1.018, 0.008, 192.0, 0.0, 112.0, 15.5, 104.0, 0.0, 32.0, 0.0, 0.0, 0.0, 1.696029947393355E9, 0.0, 2023-09-29 18:25:47.393
120.0, 30415.739764659378, 52051.289624129495, 42436.954967612626, 6211.147452729637, 57621.523156347655, 47434.559158630276, -159400.83973417757, 41198.57891781079, 38162.00502657951, 66062.32417372754, 55148.95083295713, 12053.982860324724, 67341.67097111595, -126149.71413012913, 72656.58052642114, 53213.28976312754, 0.028, 1.018, 0.008, 192.0, 0.0, 0.0, 0.0, 0.0, 0.0, 0.0, 0.0, 0.0, 0.0, 1.696029947393358E9, 0.0, 2023-09-29 18:25:47.393
122.0, 30411.470581468417, 52052.87659798582, 42430.45060997613, 6206.721807327486, 57580.93238841682, 47467.79620263531, -159246.23271778022, 41242.120116009726, 38177.785358164954, 66121.66805525638, 55226.10905481685, 12064.53288370763, 67372.78459939774, -126231.0968316909, 72732.73291978036, 53258.79791483855, 0.028, 1.018, 0.008, 192.0, 0.0, 0.0, 0.0, 0.0, 0.0, 0.0, 0.0, 0.0, 0.0, 1.69602994745359E9, 0.0, 2023-09-29 18:25:47.453
124.0, 30411.78350589079, 52048.629766539314, 42425.24265351804, 6204.307818926313, 57617.656304556884, 47411.9391932415, -159394.58124573008, 41194.04151368637, 38158.428747466656, 66072.74008664371, 55154.002327204034, 12052.507645190673, 67318.04517722668, -126057.08850110634, 72664.56009919169, 53230.500606358124, 0.028, 1.018, 0.008, 192.0, 0.0, 0.0, 0.0, 0.0, 0.0, 0.0, 0.0, 0.0, 0.0, 1.696029947453612E9, 0.0, 2023-09-29 18:25:47.453
126.0, 30411.090601812673, 52053.56950206393, 42428.26013901951, 6203.927839270573, 57578.5407517601, 47459.41429846457, -159203.65264459286, 41238.09680200777, 38171.79509065093, 66112.63795049643, 55221.99633383707, 12058.475560960242, 67371.1529220525, -126284.62925966135, 72736.6221233156, 53231.998173236636, 0.028, 1.018, 0.008, 192.0, 0.0, 0.0, 0.0, 0.0, 0.0, 0.0, 0.0, 0.0, 0.0, 1.696029947453616E9, 0.0, 2023-09-29 18:25:47.453
128.0, 30426.289788042282, 52060.00680446706, 42418.87240634828, 6210.923935285085, 57609.94495271981, 47413.503815353375, -159380.92432986788, 41186.754844993935, 38158.428747466656, 66088.43101125133, 55151.74480101404, 12052.90997659087, 67309.4844591003, -125957.46677606902, 72674.86425338557, 53248.7172780892, 0.024, 1.022, 0.004, 192.0, 0.0, 96.0, 15.5, 120.0, 0.0, 16.0, 0.0, 0.0, 0.0, 1.696029947453619E9, 0.0, 2023-09-29 18:25:47.453
130.0, 30420.657148439546, 52061.50437134557, 42444.286339793965, 6205.9394962715505, 57583.65930124037, 47470.43370848104, -159188.36405138543, 41245.606988144755, 38183.93208789016, 66123.34443609053, 55226.37727575032, 12067.751534909194, 67378.99838435631, -126363.66502805533, 72721.914675464, 53202.18094613325, 0.024, 1.022, 0.004, 192.0, 0.0, 0.0, 0.0, 0.0, 0.0, 0.0, 0.0, 0.0, 0.0, 1.696029947453622E9, 0.0, 2023-09-29 18:25:47.453
132.0, 30442.472451027927, 52073.82018254044, 42415.92197608018, 6221.339848201257, 57615.10820568898, 47412.20741417497, -159386.19934155935, 41183.71500774801, 38163.90492485821, 66099.31631080108, 55163.25594940853, 12059.05670631608, 67306.8916567435, -125894.14428402715, 72689.39288728153, 53278.78037438159, 0.024, 1.022, 0.004, 192.0, 0.0, 0.0, 0.0, 0.0, 0.0, 0.0, 0.0, 0.0, 0.0, 1.696029947453625E9, 0.0, 2023-09-29 18:25:47.453
134.0, 30436.906866658555, 52075.45185988568, 42464.335854570374, 6217.718865599498, 57587.07911814203, 47468.28794101333, -159187.58174032948, 41248.22214224603, 38193.20806183911, 66115.856601698, 55225.527909461016, 12077.988633869725, 67394.13051535256, -126436.86699114645, 72712.50459104832, 53184.321902313466, 0.024, 1.022, 0.004, 192.0, 0.0, 0.0, 0.0, 0.0, 0.0, 0.0, 0.0, 0.0, 0.0, 1.696029947453628E9, 0.0, 2023-09-29 18:25:47.453
136.0, 30450.92141043203, 52082.20208671118, 42422.62749941677, 6221.541013901355, 57599.864315970466, 47403.84786174868, -159336.8019863131, 41181.18926062456, 38171.19159355063, 66120.37165407797, 55182.25493219554, 12069.852598887992, 67318.0898807156, -125831.15706815208, 72716.48320156136, 53302.02618861511, 0.024, 1.022, 0.004, 192.0, 0.0, 0.0, 0.0, 0.0, 0.0, 0.0, 0.0, 0.0, 0.0, 1.696029947453631E9, 0.0, 2023-09-29 18:25:47.453
138.0, 30454.251820355872, 52093.31090370547, 42472.76246223003, 6228.335944215768, 57592.10826064447, 47469.11495555818, -159195.09192646647, 41247.0374997899, 38205.23330035607, 66121.71275874529, 55227.606621695355, 12085.275302562155, 67396.18687584244, -126458.7940524571, 72702.49100953234, 53158.88561712332, 0.02, 1.024, 0.002, 192.0, 0.0, 80.0, 16.0, 0.0, 0.0, 8.0, 0.0, 0.0, 0.0, 1.696029947512472E9, 0.0, 2023-09-29 18:25:47.512
140.0, 30462.678428015523, 52095.70254036219, 42420.61584241579, 6226.927784315084, 57596.60096127999, 47420.05287647878, -159357.43264644535, 41190.26406887342, 38189.07298911488, 66147.4619683578, 55197.18589749168, 12084.045956617112, 67324.30366567418, -125835.82858274324, 72701.68634673195, 53309.64813347437, 0.02, 1.024, 0.002, 192.0, 0.0, 0.0, 0.0, 0.0, 0.0, 0.0, 0.0, 0.0, 0.0, 1.696029947512481E9, 0.0, 2023-09-29 18:25:47.512
142.0, 30447.50159353037, 52082.962046022665, 42469.29794183945, 6215.081359753771, 57594.76811823465, 47464.06346131128, -159197.64002533437, 41247.864514334746, 38201.85818694332, 66108.43582253884, 55210.99927556507, 12079.016814114668, 67382.99934661381, -126507.0067652472, 72679.82634065466, 53155.06346882146, 0.02, 1.024, 0.002, 192.0, 0.0, 0.0, 0.0, 0.0, 0.0, 0.0, 0.0, 0.0, 0.0, 1.696029947512485E9, 0.0, 2023-09-29 18:25:47.512
144.0, 30460.376198336628, 52092.08155776043, 42408.903528321214, 6215.528394642877, 57593.02468216714, 47423.20447244698, -159323.41329138438, 41196.67901953209, 38177.785358164954, 66138.83419499805, 55202.14798476076, 12075.842866402016, 67320.52622086123, -125820.8976174471, 72722.51817256429, 53332.62572677442, 0.02, 1.024, 0.002, 192.0, 0.0, 0.0, 0.0, 0.0, 0.0, 0.0, 0.0, 0.0, 0.0, 1.696029947512488E9, 0.0, 2023-09-29 18:25:47.512
146.0, 30459.79505298079, 52095.76959559556, 42474.14827038626, 6223.351505202235, 57610.07906318654, 47463.92935084455, -159244.89161311288, 41243.39416544368, 38202.99812591054, 66104.61367423699, 55199.644589381765, 12082.973072883258, 67375.42210524346, -126532.10777427051, 72663.66602941346, 53139.014916302556, 0.02, 1.024, 0.002, 192.0, 0.0, 0.0, 0.0, 0.0, 0.0, 0.0, 0.0, 0.0, 0.0, 1.696029947512491E9, 0.0, 2023-09-29 18:25:47.512
148.0, 30462.566669293246, 52093.98145603913, 42413.08330453435, 6216.847147565741, 57594.20932462327, 47418.37649564463, -159316.01486396967, 41197.84131024376, 38180.78049192196, 66157.29673591813, 55217.771854135026, 12083.53186649464, 67328.05875874267, -125872.9101267946, 72735.12455643709, 53331.99987792968, 0.014, 1.02, -0.002, 192.0, 0.0, 56.0, 15.5, 112.0, 127.5, 120.0, 0.0, 0.0, 0.0, 1.696029947512494E9, 0.0, 2023-09-29 18:25:47.512
150.0, 30453.491861044393, 52090.82986007093, 42464.6711307372, 6215.37193243169, 57605.80987999558, 47446.4502866805, -159241.71766540024, 41224.7304588235, 38190.90583216022, 66100.83622942404, 55191.59796137786, 12081.63196821594, 67358.05479980168, -126514.360489173, 72675.02071559677, 53142.792361115506, 0.014, 1.02, -0.002, 192.0, 0.0, 0.0, 0.0, 0.0, 0.0, 0.0, 0.0, 0.0, 0.0, 1.696029947512498E9, 0.0, 2023-09-29 18:25:47.512
152.0, 30466.54527980629, 52102.34100846542, 42409.81994984388, 6219.238784222458, 57583.23461809572, 47424.903205025585, -159302.96144520777, 41190.84521422925, 38181.071064599884, 66169.00905001271, 55215.06729305593, 12090.863238675982, 67343.92849730594, -125922.24042680746, 72750.99429500036, 53326.03196216011, 0.014, 1.02, -0.002, 192.0, 0.0, 0.0, 0.0, 0.0, 0.0, 0.0, 0.0, 0.0, 0.0, 1.696029947572779E9, 0.0, 2023-09-29 18:25:47.572
154.0, 30466.388817595103, 52097.40127294079, 42472.71775874111, 6222.7256563574865, 57614.12472893295, 47450.74182161591, -159272.00427913718, 41222.31647042232, 38199.600660753335, 66097.52817124464, 55184.15483047424, 12087.465773518774, 67370.81764588566, -126495.83089301955, 72666.41529398147, 53146.30158499499, 0.014, 1.02, -0.002, 192.0, 0.0, 0.0, 0.0, 0.0, 0.0, 0.0, 0.0, 0.0, 0.0, 1.696029947572791E9, 0.0, 2023-09-29 18:25:47.572
156.0, 30478.70462878998, 52109.247697502105, 42414.49146443504, 6223.440912180056, 57586.11799313045, 47444.52803665734, -159284.76712522117, 41207.74313303747, 38191.79990193843, 66171.64655585845, 55234.42390375423, 12097.188782356834, 67354.65733464448, -125999.46570390055, 72752.51421362332, 53329.80940697306, 0.014, 1.02, -0.002, 192.0, 0.0, 0.0, 0.0, 0.0, 0.0, 0.0, 0.0, 0.0, 0.0, 1.696029947572796E9, 0.0, 2023-09-29 18:25:47.572
158.0, 30473.630782798624, 52102.944505565705, 42466.03458714898, 6219.082322011272, 57615.421130111354, 47446.33852795822, -159286.13058163293, 41212.86168251773, 38198.952460164124, 66098.08696485603, 55186.03237700849, 12086.929331651847, 67361.899299848, -126455.44129078882, 72661.22968926784, 53160.51729446856, 0.02, 1.02, 0.002, 192.0, 0.0, 80.0, 15.5, 112.0, 0.0, 8.0, 0.0, 0.0, 0.0, 1.696029947572799E9, 0.0, 2023-09-29 18:25:47.572
160.0, 30474.904832232576, 52110.09706379141, 42413.95502256811, 6221.697476112542, 57577.06553662605, 47447.947853559, -159267.7350959462, 41214.20278718505, 38199.04186714195, 66177.90504430592, 55234.669772943234, 12095.937084667336, 67351.86336658757, -126110.41976337669, 72745.36165539762, 53307.12238635092, 0.02, 1.02, 0.002, 192.0, 0.0, 0.0, 0.0, 0.0, 0.0, 0.0, 0.0, 0.0, 0.0, 1.696029947572803E9, 0.0, 2023-09-29 18:25:47.572
162.0, 30472.13321592012, 52104.93381082223, 42460.51370626852, 6220.870461567696, 57615.53288883363, 47432.63690860712, -159305.37543360895, 41205.21738591402, 38188.26832631449, 66103.71960445876, 55169.939121000665, 12082.123706593957, 67350.67872413143, -126408.88260708841, 72660.58148867864, 53176.07410860946, 0.02, 1.02, 0.002, 192.0, 0.0, 0.0, 0.0, 0.0, 0.0, 0.0, 0.0, 0.0, 0.0, 1.696029947572806E9, 0.0, 2023-09-29 18:25:47.572
164.0, 30476.64826830009, 52115.61794467187, 42424.88502560676, 6227.575984904288, 57570.96351038975, 47459.503705442396, -159216.41549067682, 41223.814037300835, 38196.04673338494, 66175.4687041603, 55239.855377656866, 12095.177125355856, 67362.72631439284, -126194.77524695102, 72754.95055376894, 53308.821118929525, 0.02, 1.02, 0.002, 192.0, 0.0, 0.0, 0.0, 0.0, 0.0, 0.0, 0.0, 0.0, 0.0, 1.69602994757281E9, 0.0, 2023-09-29 18:25:47.572
166.0, 30475.97771596643, 52103.39154045481, 42457.78679344497, 6226.123121514693, 57612.76127252117, 47422.042181735305, -159322.94390475083, 41200.47881608949, 38197.52194851899, 66104.83719168154, 55173.04601347995, 12089.745651453215, 67342.45328217189, -126343.57080979, 72664.29187825821, 53199.92341994327, 0.02, 1.02, 0.002, 192.0, 0.0, 0.0, 0.0, 0.0, 0.0, 0.0, 0.0, 0.0, 0.0, 1.696029947572813E9, 0.0, 2023-09-29 18:25:47.572
168.0, 30471.55207056428, 52104.93381082223, 42431.05410707642, 6220.669295867598, 57571.455248767765, 47452.88758908363, -159191.69446130926, 41226.049211746365, 38200.427675298175, 66163.84579704354, 55240.07889510142, 12093.277227077155, 67358.68064864643, -126305.95282387172, 72753.63180084608, 53274.93587433528, 0.022, 1.022, 0.0, 192.0, 0.0, 88.0, 15.5, 120.0, 0.0, 0.0, 0.0, 0.0, 0.0, 1.696029947633003E9, 0.0, 2023-09-29 18:25:47.633
170.0, 30477.050599700287, 52104.17385151075, 42446.856790406324, 6224.402037191634, 57613.07419694355, 47420.29874566779, -159331.59402985504, 41188.74415025046, 38188.40243678122, 66105.39598529291, 55170.81083903442, 12081.810782171582, 67335.63600011301, -126271.41937868827, 72673.5007969738, 53219.81647250849, 0.022, 1.022, 0.0, 192.0, 0.0, 0.0, 0.0, 0.0, 0.0, 0.0, 0.0, 0.0, 0.0, 1.696029947633015E9, 0.0, 2023-09-29 18:25:47.633
172.0, 30470.970925208443, 52107.99599981261, 42447.03560436197, 6219.663467367109, 57572.19285633479, 47467.34916774621, -159171.71200176622, 41229.44667690357, 38205.83679745636, 66159.59896559703, 55248.304337060974, 12094.797145700115, 67381.32296577966, -126420.81843862754, 72748.15562345453, 53247.75615307762, 0.022, 1.022, 0.0, 192.0, 0.0, 0.0, 0.0, 0.0, 0.0, 0.0, 0.0, 0.0, 0.0, 1.696029947633018E9, 0.0, 2023-09-29 18:25:47.633
174.0, 30477.207061911475, 52106.81135735648, 42443.95106362714, 6222.390380190656, 57603.37353984995, 47410.01694321835, -159324.48617511825, 41176.42833905558, 38184.69204720164, 66111.74388071822, 55173.291882668964, 12082.995424627714, 67323.00726449577, -126213.72952624912, 72682.28503254474, 53234.94860350473, 0.022, 1.022, 0.0, 192.0, 0.0, 0.0, 0.0, 0.0, 0.0, 0.0, 0.0, 0.0, 0.0, 1.696029947633022E9, 0.0, 2023-09-29 18:25:47.633
176.0, 30476.692971789, 52113.136901037324, 42456.870371922305, 6223.999705791439, 57574.71860345824, 47468.22088577996, -159151.72954222318, 41234.8334473173, 38208.98839342456, 66157.83317778507, 55251.791209196, 12101.368558569975, 67386.12859083756, -126520.30605319812, 72743.46175711892, 53222.05164695402, 0.022, 1.022, 0.0, 192.0, 0.0, 0.0, 0.0, 0.0, 0.0, 0.0, 0.0, 0.0, 0.0, 1.696029947633025E9, 0.0, 2023-09-29 18:25:47.633
178.0, 30484.44902711499, 52107.638371901325, 42435.39034550075, 6225.653734881132, 57599.774908992644, 47415.26960316535, -159333.06924498908, 41181.502185046935, 38192.09047461635, 66129.5582210491, 55189.69806309916, 12091.556142754096, 67322.22495343983, -126164.01924658052, 72697.2607013298, 53267.15746726483, 0.03, 1.022, 0.002, 192.0, 0.0, 120.0, 15.5, 120.0, 0.0, 8.0, 0.0, 0.0, 0.0, 1.696029947633028E9, 0.0, 2023-09-29 18:25:47.633
180.0, 30477.31882063375, 52106.36432246737, 42461.43012779119, 6221.250441223436, 57571.07526911203, 47468.1538305466, -159153.0259434016, 41244.578807899816, 38218.264367373515, 66150.79237828164, 55246.38208703782, 12099.245142846721, 67397.28211132075, -126632.66827257494, 72738.00793147182, 53203.454995567205, 0.03, 1.022, 0.002, 192.0, 0.0, 0.0, 0.0, 0.0, 0.0, 0.0, 0.0, 0.0, 0.0, 1.696029947633031E9, 0.0, 2023-09-29 18:25:47.633
182.0, 30487.488864360916, 52110.07471204695, 42422.49338895004, 6219.75287434493, 57597.91971420285, 47405.63600130511, -159327.83893678655, 41185.36903683771, 38194.32564906188, 66135.0567501851, 55185.83121130839, 12088.315139808075, 67320.34740690558, -126133.3750049323, 72715.03033817177, 53293.9795606112, 0.03, 1.022, 0.002, 192.0, 0.0, 0.0, 0.0, 0.0, 0.0, 0.0, 0.0, 0.0, 0.0, 1.696029947693202E9, 0.0, 2023-09-29 18:25:47.693
184.0, 30472.043808942297, 52103.726816621645, 42454.72460445459, 6206.252420693925, 57575.47856276972, 47458.22965600844, -159142.7217892077, 41242.54479915438, 38212.47526555959, 66133.49212807324, 55233.12750257582, 12090.81853518707, 67381.81470415767, -126710.8546746796, 72731.10124243514, 53180.63386447834, 0.03, 1.022, 0.002, 192.0, 0.0, 0.0, 0.0, 0.0, 0.0, 0.0, 0.0, 0.0, 0.0, 1.696029947693214E9, 0.0, 2023-09-29 18:25:47.693
186.0, 30483.778474781335, 52108.465386446165, 42416.525473180474, 6211.125100985182, 57598.88083921443, 47408.63113506212, -159315.92545699186, 41191.225193884995, 38187.575422236376, 66147.17139567988, 55188.69223459867, 12087.085793863034, 67318.11223246006, -126131.83273456487, 72728.32962612268, 53300.640380458884, 0.03, 1.022, 0.002, 192.0, 0.0, 0.0, 0.0, 0.0, 0.0, 0.0, 0.0, 0.0, 0.0, 1.696029947693217E9, 0.0, 2023-09-29 18:25:47.693
188.0, 30473.809596754265, 52104.93381082223, 42459.59728474585, 6211.639191107654, 57584.329853574025, 47468.71262415798, -159157.74216148164, 41248.490363179495, 38210.508312047525, 66125.22198262477, 55229.39476125178, 12089.522134008663, 67391.80593392921, -126785.84477732716, 72731.90590523553, 53171.13437308483, 0.032, 1.026, 0.0, 192.0, 0.5, 0.0, 16.0, 8.0, 0.0, 0.0, 0.0, 0.0, 0.0, 1.69602994769322E9, 0.0, 2023-09-29 18:25:47.693
190.0, 30485.767780037855, 52109.6500289023, 42407.92005156518, 6213.337923686257, 57586.31915883055, 47411.961544985956, -159292.4114218249, 41190.308772362325, 38186.90486990272, 66153.40753238292, 55208.36176971934, 12088.739822952726, 67317.4416801264, -126134.76081308852, 72757.14102472557, 53330.52466279563, 0.032, 1.026, 0.0, 192.0, 0.0, 0.0, 0.0, 0.0, 0.0, 0.0, 0.0, 0.0, 0.0, 1.696029947693223E9, 0.0, 2023-09-29 18:25:47.693
192.0, 30483.21968116995, 52112.89103184832, 42462.1230318693, 6216.042484765349, 57591.63887401091, 47464.041109566824, -159161.78782722805, 41248.35625271276, 38208.474303302086, 66123.67971225736, 55225.61731643884, 12094.618331744472, 67380.8088756572, -126826.27908304681, 72724.35101560963, 53158.438582234216, 0.032, 1.026, 0.0, 192.0, 0.0, 0.0, 0.0, 0.0, 0.0, 0.0, 0.0, 0.0, 0.0, 1.696029947693226E9, 0.0, 2023-09-29 18:25:47.693
194.0, 30491.445123129502, 52118.07663656195, 42408.411789943195, 6218.255307466425, 57590.05190015458, 47425.28318468132, -159287.18111362233, 41201.39523761216, 38195.398532795734, 66171.78066632518, 55225.05852282745, 12099.066328891078, 67329.2434011988, -126183.80054042347, 72760.85141430514, 53341.097037922984, 0.032, 1.026, 0.0, 192.0, 0.0, 0.0, 0.0, 0.0, 0.0, 0.0, 0.0, 0.0, 0.0, 1.69602994769323E9, 0.0, 2023-09-29 18:25:47.693
196.0, 30482.906756747576, 52111.751092881095, 42459.373767301295, 6211.549784129833, 57596.6456647689, 47460.755403131894, -159175.2212256457, 41244.39999394417, 38203.40045731073, 66121.35513083401, 55222.19749953717, 12096.004139900702, 67382.12762858006, -126863.94177245401, 72712.77281198178, 53167.26752129407, 0.032, 1.026, 0.0, 192.0, 0.0, 0.0, 0.0, 0.0, 0.0, 0.0, 0.0, 0.0, 0.0, 1.696029947693233E9, 0.0, 2023-09-29 18:25:47.693
198.0, 30484.09139920371, 52114.008619071086, 42395.134853736745, 6206.922973027584, 57574.78565869161, 47420.54461485679, -159243.75167414566, 41200.031781200385, 38181.339285533344, 66178.6203001285, 55231.62993569731, 12097.255837590199, 67321.75556680627, -126230.40392761279, 72778.41988544702, 53358.173770686844, 0.028, 1.024, -0.002, 192.0, 0.0, 112.0, 16.0, 0.0, 127.5, 120.0, 0.0, 0.0, 0.0, 1.696029947753489E9, 0.0, 2023-09-29 18:25:47.753
200.0, 30487.824140527744, 52116.26614526107, 42461.608941746825, 6210.767473073897, 57605.988693951214, 47455.72626062945, -159196.4777346227, 41229.1337524812, 38194.66092522871, 66116.95183717631, 55200.24808648206, 12099.938046924835, 67373.7010209204, -126876.90578423809, 72698.69121297494, 53161.098439824396, 0.028, 1.024, -0.002, 192.0, 0.0, 0.0, 0.0, 0.0, 0.0, 0.0, 0.0, 0.0, 0.0, 1.696029947753499E9, 0.0, 2023-09-29 18:25:47.753
202.0, 30493.300317919293, 52121.339991252426, 42399.22522297206, 6212.8685370526955, 57573.913940657854, 47441.130571500136, -159227.0325692931, 41210.13476969418, 38195.55499500692, 66189.63971014497, 55243.9904503811, 12108.2081923733, 67349.18115725293, -126321.21906533469, 72783.71724888292, 53349.34483162699, 0.028, 1.024, -0.002, 192.0, 0.0, 0.0, 0.0, 0.0, 0.0, 0.0, 0.0, 0.0, 0.0, 1.696029947753503E9, 0.0, 2023-09-29 18:25:47.753
204.0, 30492.562710352267, 52111.57227892546, 42451.68476720867, 6206.99002826095, 57605.80987999558, 47457.49204844142, -159209.75467082916, 41226.11626697973, 38199.868881686794, 66109.7098719728, 55205.12076677332, 12098.909866679891, 67375.64562268801, -126860.83487997472, 72705.41908805599, 53181.036195878536, 0.028, 1.024, -0.002, 192.0, 0.0, 0.0, 0.0, 0.0, 0.0, 0.0, 0.0, 0.0, 0.0, 1.696029947753506E9, 0.0, 2023-09-29 18:25:47.753
206.0, 30488.204120183484, 52110.78996786952, 42390.28452518994, 6199.770414801886, 57570.38236503391, 47452.95464431699, -159201.7303945697, 41216.77323779741, 38188.84947167033, 66180.5201984072, 55259.41315405526, 12102.597904515018, 67356.44547420091, -126415.52107519163, 72798.46940022343, 53356.11741019695, 0.028, 1.024, -0.002, 192.0, 0.0, 0.0, 0.0, 0.0, 0.0, 0.0, 0.0, 0.0, 0.0, 1.696029947753509E9, 0.0, 2023-09-29 18:25:47.753
208.0, 30485.7454282934, 52107.772482368055, 42453.74112769856, 6204.218411948492, 57615.30937138908, 47454.541618173316, -159230.81001410604, 41226.518598379924, 38192.604564738824, 66108.8605056835, 55199.3316649594, 12095.668863733872, 67356.49017768982, -126847.84851644619, 72704.74853572232, 53192.81556520648, 0.028, 1.022, 0.006, 192.0, 0.0, 112.0, 15.5, 120.0, 0.0, 24.0, 0.0, 0.0, 0.0, 1.696029947753512E9, 0.0, 2023-09-29 18:25:47.753
210.0, 30486.974774238442, 52114.902688849295, 42405.751932353014, 6202.966714258995, 57568.10248709947, 47458.83315310874, -159165.60997552992, 41224.81986580132, 38198.192500852645, 66187.73981186627, 55260.08370638892, 12105.525983038662, 67363.21805277087, -126535.32642547209, 72807.11952532762, 53345.67914553633, 0.028, 1.022, 0.006, 192.0, 0.0, 0.0, 0.0, 0.0, 0.0, 0.0, 0.0, 0.0, 0.0, 1.696029947753516E9, 0.0, 2023-09-29 18:25:47.753
212.0, 30494.350849908693, 52114.88033710484, 42446.25329330603, 6212.622667863688, 57618.12569119045, 47440.124742999644, -159242.16470028934, 41213.107551706744, 38192.78337869446, 66115.78954646463, 55193.78843233448, 12100.519192280673, 67345.4484159289, -126795.38897220958, 72714.29273060473, 53222.05164695402, 0.028, 1.022, 0.006, 192.0, 0.0, 0.0, 0.0, 0.0, 0.0, 0.0, 0.0, 0.0, 0.0, 1.696029947812902E9, 0.0, 2023-09-29 18:25:47.812
214.0, 30491.713344062966, 52117.40608422829, 42420.928766838166, 6208.621705606188, 57577.53492325961, 47467.57268519076, -159139.74900719512, 41240.10845900875, 38202.819311954896, 66191.24903574574, 55268.89029370431, 12115.986599443746, 67386.44151525992, -126661.45731943338, 72804.0349845928, 53331.01640117364, 0.028, 1.022, 0.006, 192.0, 0.0, 0.0, 0.0, 0.0, 0.0, 0.0, 0.0, 0.0, 0.0, 1.696029947812915E9, 0.0, 2023-09-29 18:25:47.812
216.0, 30495.37903015364, 52114.969744082664, 42441.93940662616, 6205.246592193436, 57626.775816294656, 47434.760324330375, -159257.94503187478, 41208.86072026023, 38188.60360248132, 66121.13161338944, 55189.07221425441, 12096.674692234361, 67351.41633169846, -126746.8186315082, 72724.0157394428, 53246.102123987934, 0.028, 1.022, 0.006, 192.0, 0.0, 0.0, 0.0, 0.0, 0.0, 0.0, 0.0, 0.0, 0.0, 1.696029947812919E9, 0.0, 2023-09-29 18:25:47.812
218.0, 30492.808579541277, 52121.965840097175, 42436.306767023416, 6207.37000791669, 57590.29776934359, 47476.714548672986, -159119.27480927407, 41252.44662194808, 38211.268271359004, 66190.623186901, 55265.06814540245, 12116.97007619978, 67400.43370728895, -126784.21309998192, 72809.30999628425, 53311.90565966436, 0.026000000000000002, 1.024, 0.012, 192.0, 0.0, 104.0, 16.0, 0.0, 0.0, 48.0, 0.0, 0.0, 0.0, 1.696029947812922E9, 0.0, 2023-09-29 18:25:47.812
220.0, 30492.786227796823, 52115.193261527216, 42437.40200250173, 6203.1231764701815, 57632.72138031977, 47438.13543774312, -159278.08395362902, 41207.2737464039, 38191.84460542734, 66130.58640129404, 55183.7748508185, 12099.356901568997, 67356.49017768982, -126696.59426171712, 72742.05359721823, 53275.472316202206, 0.026000000000000002, 1.024, 0.012, 192.0, 0.0, 0.0, 0.0, 0.0, 0.0, 0.0, 0.0, 0.0, 0.0, 1.696029947812925E9, 0.0, 2023-09-29 18:25:47.812
222.0, 30485.41015212657, 52112.667514403765, 42435.52445596748, 6195.188307188548, 57587.01206290866, 47486.07992959976, -159118.89482961834, 41257.49811619498, 38201.8134834544, 66174.70874484882, 55253.80286619698, 12106.39770107242, 67401.01485264479, -126919.37409870316, 72802.179789803, 53296.997046112665, 0.026000000000000002, 1.024, 0.012, 192.0, 0.0, 0.0, 0.0, 0.0, 0.0, 0.0, 0.0, 0.0, 0.0, 1.696029947812928E9, 0.0, 2023-09-29 18:25:47.812
224.0, 30491.355716151684, 52107.50426143459, 42424.03565931746, 6191.74613854243, 57627.75929305069, 47431.65343185108, -159290.26565435718, 41204.658592302636, 38179.05940759891, 66122.89740120142, 55178.54454261596, 12091.846715432015, 67339.68166585943, -126677.01413357427, 72741.96419024041, 53313.492633520684, 0.026000000000000002, 1.024, 0.012, 192.0, 0.0, 0.0, 0.0, 0.0, 0.0, 0.0, 0.0, 0.0, 0.0, 1.696029947812931E9, 0.0, 2023-09-29 18:25:47.812
226.0, 30479.352829379182, 52100.016427042065, 42429.377726242274, 6182.380757615657, 57589.4931065432, 47483.062444098294, -159087.87060831435, 41254.39122371569, 38199.13127411977, 66147.68548580236, 55248.95253765018, 12091.712604965283, 67397.77384969877, -127022.54975110886, 72805.19727530447, 53300.26040080314, 0.026000000000000002, 1.024, 0.012, 192.0, 0.0, 0.0, 0.0, 0.0, 0.0, 0.0, 0.0, 0.0, 0.0, 1.696029947812934E9, 0.0, 2023-09-29 18:25:47.812
228.0, 30493.546187108303, 52108.957124824185, 42403.47205441858, 6195.098900210727, 57616.628124311945, 47430.33467892822, -159295.78653523762, 41190.71110376252, 38173.67263718518, 66122.71858724578, 55176.55523735944, 12083.777735683649, 67334.38430242352, -126633.1376592085, 72752.24599268986, 53342.438142590305, 0.03, 1.022, 0.008, 192.0, 0.0, 120.0, 15.5, 120.0, 0.0, 32.0, 0.0, 0.0, 0.0, 1.69602994787267E9, 0.0, 2023-09-29 18:25:47.872
230.0, 30482.862053258665, 52109.33710447993, 42441.760592670515, 6186.716996039987, 57591.30359784408, 47482.369540020176, -159103.31566373297, 41247.61864514573, 38201.52291077649, 66135.95081996331, 55245.867996915345, 12095.043014889123, 67403.45119279041, -127148.92651425918, 72787.00295531786, 53265.59284515296, 0.03, 1.022, 0.008, 192.0, 0.0, 0.0, 0.0, 0.0, 0.0, 0.0, 0.0, 0.0, 0.0, 1.69602994787268E9, 0.0, 2023-09-29 18:25:47.872
232.0, 30490.66281207357, 52107.414854456765, 42400.70043810611, 6188.303969896313, 57613.87885974394, 47422.71273406896, -159285.41532581038, 41187.42539732759, 38178.768834920986, 66133.13450016195, 55197.20824923614, 12089.29861656411, 67326.85176454208, -126628.77906903972, 72773.43544643349, 53366.15334345739, 0.03, 1.022, 0.008, 192.0, 0.0, 0.0, 0.0, 0.0, 0.0, 0.0, 0.0, 0.0, 0.0, 1.696029947872684E9, 0.0, 2023-09-29 18:25:47.872
234.0, 30485.9465939935, 52108.28657249053, 42438.407831002216, 6184.370062872179, 57602.367711349456, 47482.54835397582, -159087.4012216808, 41249.5855986578, 38201.45585554312, 66130.78756699414, 55243.92339514773, 12091.556142754096, 67404.18880035744, -127224.05072737345, 72792.72500189842, 53253.992289780654, 0.03, 1.022, 0.008, 192.0, 0.0, 0.0, 0.0, 0.0, 0.0, 0.0, 0.0, 0.0, 0.0, 1.696029947872688E9, 0.0, 2023-09-29 18:25:47.872
236.0, 30499.26823368886, 52115.08150280494, 42389.0551792449, 6188.281618151858, 57616.09168244502, 47427.78658006032, -159293.97604393674, 41194.39914159765, 38185.02732336847, 66149.5630323366, 55201.052749282455, 12096.004139900702, 67321.55440110617, -126640.87136279004, 72773.14487375556, 53366.80154404659, 0.03, 1.022, 0.008, 192.0, 0.0, 0.0, 0.0, 0.0, 0.0, 0.0, 0.0, 0.0, 0.0, 1.696029947872692E9, 0.0, 2023-09-29 18:25:47.872
238.0, 30486.907719005078, 52109.940601580216, 42437.46905773509, 6181.397280859624, 57608.31327537457, 47477.675673684564, -159133.7587396811, 41249.3397294688, 38205.65798350072, 66124.95376169131, 55229.90885137425, 12095.892381178426, 67400.0537276332, -127335.25065603861, 72752.8718415346, 53207.41125433579, 0.03, 1.02, 0.01, 192.0, 0.0, 120.0, 15.5, 112.0, 0.0, 40.0, 0.0, 0.0, 0.0, 1.696029947872695E9, 0.0, 2023-09-29 18:25:47.872
240.0, 30493.434428386026, 52115.528537694045, 42372.693702303615, 6179.430327347556, 57603.5970572945, 47433.843902807705, -159277.07812512852, 41195.6731910316, 38179.14881457673, 66161.7670848092, 55209.25583949755, 12092.96430265478, 67322.76139530676, -126674.77895912874, 72780.40919070353, 53372.300073182596, 0.03, 1.02, 0.01, 192.0, 0.0, 0.0, 0.0, 0.0, 0.0, 0.0, 0.0, 0.0, 0.0, 1.696029947872699E9, 0.0, 2023-09-29 18:25:47.872
242.0, 30480.157492179573, 52107.347799223404, 42427.03079307447, 6167.136867897138, 57605.04992068409, 47478.92737137406, -159152.60126025692, 41249.518543424434, 38199.06421888641, 66123.14327039043, 55220.141139047286, 12099.334549824544, 67375.66797443246, -127388.87249098689, 72737.53854483826, 53188.61343724888, 0.03, 1.02, 0.01, 192.0, 0.0, 0.0, 0.0, 0.0, 0.0, 0.0, 0.0, 0.0, 0.0, 1.696029947932946E9, 0.0, 2023-09-29 18:25:47.932
244.0, 30488.38293413913, 52110.23117425814, 42365.42938535564, 6159.671385249065, 57592.42118506684, 47431.899301040095, -159259.62141270895, 41199.763560266925, 38175.2596110415, 66172.00418376974, 55218.665923913235, 12088.985692141736, 67333.53493613422, -126724.5115905418, 72791.07097280872, 53373.976454016745, 0.03, 1.02, 0.01, 192.0, 0.0, 0.0, 0.0, 0.0, 0.0, 0.0, 0.0, 0.0, 0.0, 1.696029947932957E9, 0.0, 2023-09-29 18:25:47.932
246.0, 30481.386838124614, 52102.78804335452, 42425.600281429324, 6153.8152282017745, 57603.194725894304, 47454.72043212896, -159169.43212383176, 41230.00547051495, 38191.88930891625, 66110.87216268446, 55206.66303714074, 12087.175200840855, 67379.08779133414, -127403.0211452271, 72733.24700990284, 53185.5512482585, 0.03, 1.02, 0.01, 192.0, 0.0, 0.0, 0.0, 0.0, 0.0, 0.0, 0.0, 0.0, 0.0, 1.696029947932961E9, 0.0, 2023-09-29 18:25:47.932
248.0, 30482.21385266946, 52102.76569161007, 42365.2505714, 6149.970728155462, 57581.737051217206, 47428.72535332744, -159235.16860427483, 41188.14065315016, 38175.63959069724, 66174.90991054891, 55226.19846179467, 12094.081889877545, 67336.4406629134, -126788.5269866618, 72805.86782763814, 53370.91426502637, 0.032, 1.016, 0.006, 192.0, 0.5, 0.0, 15.5, 96.0, 0.0, 24.0, 0.0, 0.0, 0.0, 1.696029947932964E9, 0.0, 2023-09-29 18:25:47.932
250.0, 30475.083646188217, 52093.42266242774, 42425.0638395624, 6148.182588599037, 57606.145156162405, 47454.29574898431, -159167.80044648654, 41213.68869706258, 38181.42869251117, 66100.72447070175, 55186.59117061987, 12082.235465316233, 67373.18693079794, -127390.1688921653, 72738.70083554994, 53181.639692978824, 0.032, 1.016, 0.006, 192.0, 0.0, 0.0, 0.0, 0.0, 0.0, 0.0, 0.0, 0.0, 0.0, 1.696029947932967E9, 0.0, 2023-09-29 18:25:47.932
252.0, 30485.52191084885, 52105.91728757826, 42362.411899854174, 6155.424553802557, 57590.32012108804, 47440.16944648856, -159217.19780173278, 41199.78591201138, 38175.41607325269, 66168.7184773348, 55220.65522916976, 12089.410375286387, 67350.76813110926, -126875.36351387067, 72814.58500797571, 53362.711174811266, 0.032, 1.016, 0.006, 192.0, 0.0, 0.0, 0.0, 0.0, 0.0, 0.0, 0.0, 0.0, 0.0, 1.69602994793297E9, 0.0, 2023-09-29 18:25:47.932
254.0, 30472.781416509322, 52094.24967697259, 42421.57696742737, 6152.295309578813, 57624.40653138239, 47448.70781287048, -159192.58853108747, 41218.02493548691, 38183.105073345316, 66102.95964514729, 55178.99157750507, 12074.881741390436, 67365.96731733887, -127391.0629619435, 72726.38502435506, 53192.36853031738, 0.032, 1.016, 0.006, 192.0, 0.0, 0.0, 0.0, 0.0, 0.0, 0.0, 0.0, 0.0, 0.0, 1.696029947932974E9, 0.0, 2023-09-29 18:25:47.932
0.0, 30480.6939340465, 52107.92894457924, 42370.659693558184, 6159.224350359959, 57582.1393826174, 47455.234522251434, -159179.06572569202, 41219.99188899898, 38181.71926518909, 66184.16353275342, 55228.61245019585, 12079.19562807031, 67350.18698575342, -126971.49836677294, 72821.67051096803, 53360.4983521102, 0.032, 1.016, 0.006, 192.0, 0.0, 0.0, 0.0, 0.0, 0.0, 0.0, 0.0, 0.0, 0.0, 1.696029947932977E9, 0.0, 2023-09-29 18:25:47.932
2.0, 30486.415980627058, 52110.901726591794, 42421.73342963856, 6174.60235054521, 57635.38123790995, 47453.08875478373, -159229.11128152744, 41224.35047916776, 38185.72022744659, 66106.62533123796, 55172.91190301322, 12073.540636723119, 67369.07420981815, -127349.08638585644, 72722.7640417533, 53212.86507998289, 0.036000000000000004, 1.022, 0.012, 192.0, 0.5, 16.0, 15.5, 120.0, 0.0, 48.0, 0.0, 0.0, 0.0, 1.696029947993236E9, 0.0, 2023-09-29 18:25:47.993
4.0, 30485.678373060036, 52116.13203479434, 42380.0027227405, 6175.69758602352, 57591.460060055266, 47468.60086543571, -159176.07059193501, 41231.279519948905, 38194.54916650643, 66191.78547761268, 55245.39861028178, 12091.757308454193, 67368.13543655103, -127112.82844696385, 72807.09717358317, 53353.54695958459, 0.036000000000000004, 1.022, 0.012, 192.0, 0.0, 0.0, 0.0, 0.0, 0.0, 0.0, 0.0, 0.0, 0.0, 1.696029947993246E9, 0.0, 2023-09-29 18:25:47.993
6.0, 30483.59966082569, 52107.638371901325, 42411.29516497793, 6173.820039489275, 57632.58726985303, 47449.937158815526, -159262.05775285457, 41208.771313282414, 38181.562802977896, 66121.51159304519, 55173.06836522441, 12071.998366355701, 67345.40371243999, -127324.34300474443, 72721.04295743024, 53241.18474020776, 0.036000000000000004, 1.022, 0.012, 192.0, 0.0, 0.0, 0.0, 0.0, 0.0, 0.0, 0.0, 0.0, 0.0, 1.69602994799325E9, 0.0, 2023-09-29 18:25:47.993
8.0, 30486.974774238442, 52117.96487783967, 42381.4555861301, 6177.105745924205, 57592.93527518932, 47479.709682429995, -159164.13476039586, 41236.84510431828, 38199.55595726442, 66190.98081481228, 55244.683354459215, 12085.901151406902, 67369.58829994063, -127246.93891369569, 72805.84547589367, 53327.618936016435, 0.036000000000000004, 1.022, 0.012, 192.0, 0.0, 0.0, 0.0, 0.0, 0.0, 0.0, 0.0, 0.0, 0.0, 1.696029947993253E9, 0.0, 2023-09-29 18:25:47.993
10.0, 30496.13898946512, 52117.58489818393, 42405.19313874163, 6183.475993093967, 57632.497862875214, 47451.07709778275, -159300.27923587314, 41204.32331613581, 38191.10699786031, 66126.27251461417, 55172.800144290944, 12076.28990129112, 67343.05677927217, -127293.9446322852, 72727.12263192209, 53256.36157469292, 0.036000000000000004, 1.022, 0.012, 192.0, 0.0, 0.0, 0.0, 0.0, 0.0, 0.0, 0.0, 0.0, 0.0, 1.696029947993256E9, 0.0, 2023-09-29 18:25:47.993
12.0, 30487.712381805468, 52117.6519534173, 42394.26313570299, 6174.26707437838, 57588.956664676276, 47484.939990632534, -159131.72473093568, 41238.78970608589, 38209.524835291486, 66184.45410543133, 55261.938901178706, 12092.696081721317, 67393.77288744127, -127374.54502279103, 72815.09909809817, 53323.774435970125, 0.038, 1.026, 0.006, 192.0, 0.5, 24.0, 16.0, 8.0, 0.0, 24.0, 0.0, 0.0, 0.0, 1.69602994799326E9, 0.0, 2023-09-29 18:25:47.993
14.0, 30484.739599792912, 52103.90563057728, 42379.53333610694, 6164.164085884582, 57610.86137424247, 47426.57958585973, -159283.96246242078, 41176.3165803333, 38185.809634424404, 66125.98194193625, 55185.09360374136, 12070.210226799278, 67325.39890115248, -127210.55027372245, 72747.75329205433, 53310.273982319115, 0.038, 1.026, 0.006, 192.0, 0.0, 0.0, 0.0, 0.0, 0.0, 0.0, 0.0, 0.0, 0.0, 1.696029947993263E9, 0.0, 2023-09-29 18:25:47.993
16.0, 30480.60452706868, 52114.343895237915, 42382.52846986395, 6155.625719502655, 57575.29974881408, 47479.86614464118, -159126.0026843551, 41226.49624663547, 38196.60552699632, 66163.33170692108, 55252.41705804075, 12078.726241436749, 67398.33264331015, -127480.24642232018, 72789.50635069684, 53296.52765947911, 0.038, 1.026, 0.006, 192.0, 0.0, 0.0, 0.0, 0.0, 0.0, 0.0, 0.0, 0.0, 0.0, 1.696029948053499E9, 0.0, 2023-09-29 18:25:48.053
18.0, 30501.88338779013, 52124.44688373171, 42366.34580687831, 6164.253492862403, 57607.888592229916, 47427.25013819339, -159333.18100371136, 41175.780138466376, 38184.17795707917, 66138.18599440885, 55178.56689436042, 12075.306424535087, 67319.16276444946, -127198.90501486123, 72711.49876254782, 53303.859031660446, 0.038, 1.026, 0.006, 192.0, 0.0, 0.0, 0.0, 0.0, 0.0, 0.0, 0.0, 0.0, 0.0, 1.696029948053512E9, 0.0, 2023-09-29 18:25:48.053
20.0, 30476.22358515544, 52101.268124731556, 42398.9570020386, 6157.4585625479895, 57589.82838271003, 47476.37927250615, -159168.20277788673, 41240.5331421534, 38206.55205327893, 66139.54945082062, 55258.13910462131, 12086.683462462839, 67406.08869863614, -127629.66783400392, 72755.15171946904, 53257.1215340044, 0.038, 1.026, 0.006, 192.0, 0.0, 0.0, 0.0, 0.0, 0.0, 0.0, 0.0, 0.0, 0.0, 1.696029948053515E9, 0.0, 2023-09-29 18:25:48.053
22.0, 30476.82708225573, 52089.98049378163, 42362.3001411319, 6147.132056609637, 57616.02462721165, 47407.17827167252, -159348.62605912998, 41175.221344854996, 38173.449119740624, 66106.69238647132, 55194.95072304615, 12064.152904051889, 67331.90325878898, -127192.24419501355, 72720.32770160768, 53329.1388546394, 0.038, 1.026, 0.002, 192.0, 0.5, 24.0, 16.0, 8.0, 0.0, 8.0, 0.0, 0.0, 0.0, 1.696029948053519E9, 0.0, 2023-09-29 18:25:48.053
24.0, 30452.508384288358, 52074.96012150766, 42390.12806297876, 6131.776408168842, 57586.565028019555, 47459.03431880884, -159155.43993180274, 41228.35144142526, 38195.21971884009, 66106.78179344915, 55238.84954915638, 12059.1461132939, 67395.51632350878, -127731.70354744239, 72750.01081824432, 53237.42964713927, 0.038, 1.026, 0.002, 192.0, 0.0, 0.0, 0.0, 0.0, 0.0, 0.0, 0.0, 0.0, 0.0, 1.696029948053522E9, 0.0, 2023-09-29 18:25:48.053
26.0, 30450.49672728738, 52064.41009812476, 42335.74626871899, 6118.231251028926, 57595.371615334945, 47388.112233652144, -159292.9031602029, 41150.36620502069, 38159.09929980031, 66090.55442697459, 55175.43765013667, 12040.1918339958, 67313.1948486799, -127143.07035721188, 72746.7698152983, 53360.78892478811, 0.038, 1.026, 0.002, 192.0, 0.0, 0.0, 0.0, 0.0, 0.0, 0.0, 0.0, 0.0, 0.0, 1.696029948053525E9, 0.0, 2023-09-29 18:25:48.053
28.0, 30446.942799918987, 52068.54517084899, 42375.554725593895, 6109.938753836007, 57574.96447264725, 47446.4502866805, -159108.72478589116, 41208.905423749144, 38182.74744543403, 66082.23957803722, 55208.45117669716, 12041.778807852126, 67378.93132912295, -127765.23116412535, 72741.69596930695, 53224.44328361074, 0.038, 1.026, 0.002, 192.0, 0.0, 0.0, 0.0, 0.0, 0.0, 0.0, 0.0, 0.0, 0.0, 1.696029948053528E9, 0.0, 2023-09-29 18:25:48.053
30.0, 30467.104073417675, 52082.87263904484, 42318.289556299394, 6119.192376040504, 57587.66026349786, 47405.591297816194, -159275.75937220568, 41155.32829228977, 38158.562857933386, 66108.81580219457, 55173.60480709134, 12035.47561591573, 67294.57584554862, -127121.9032552127, 72747.55212635423, 53362.308843411076, 0.038, 1.026, 0.002, 192.0, 0.0, 0.0, 0.0, 0.0, 0.0, 0.0, 0.0, 0.0, 0.0, 1.696029948053531E9, 0.0, 2023-09-29 18:25:48.053
32.0, 30464.31010536076, 52087.0971187469, 42386.037693743434, 6128.624812200644, 57585.15686811887, 47463.43761246653, -159131.68002744677, 41221.847083788765, 38189.5647274929, 66080.02675533613, 55205.34428421787, 12049.803084111581, 67394.7563641973, -127827.21255149992, 72719.41128008501, 53194.98368441864, 0.036000000000000004, 1.024, 0.006, 192.0, 0.5, 16.0, 16.0, 0.0, 0.0, 24.0, 0.0, 0.0, 0.0, 1.69602994811299E9, 0.0, 2023-09-29 18:25:48.112
34.0, 30480.001029968385, 52095.546078151, 42326.47029477004, 6128.110722078171, 57589.02371990964, 47418.62236483364, -159268.65151746888, 41167.33117906227, 38172.84562264033, 66115.34251157552, 55201.477432427106, 12045.176273009334, 67325.19773545238, -127153.82154629489, 72767.28871670828, 53372.0989074825, 0.036000000000000004, 1.024, 0.006, 192.0, 0.0, 0.0, 0.0, 0.0, 0.0, 0.0, 0.0, 0.0, 0.0, 1.696029948113E9, 0.0, 2023-09-29 18:25:48.113
36.0, 30470.27802113033, 52092.41683392726, 42388.04935074441, 6117.471291717446, 57592.46588855576, 47463.19174327752, -159155.3281730805, 41212.34759239526, 38194.4150560397, 66078.81976113556, 55208.6299906528, 12050.80891261207, 67389.43664901693, -127863.75765368434, 72713.35395733762, 53187.49585002612, 0.036000000000000004, 1.024, 0.006, 192.0, 0.0, 0.0, 0.0, 0.0, 0.0, 0.0, 0.0, 0.0, 0.0, 1.696029948113004E9, 0.0, 2023-09-29 18:25:48.113
38.0, 30486.32657364924, 52108.97947656864, 42322.648146468186, 6117.985381839917, 57580.93238841682, 47427.31719342675, -159248.31143001455, 41169.25342908543, 38174.85727964131, 66140.44352059884, 55218.33064774641, 12055.882758603426, 67327.23174419782, -127195.93223284867, 72774.39657144506, 53378.290340696614, 0.036000000000000004, 1.024, 0.006, 192.0, 0.0, 0.0, 0.0, 0.0, 0.0, 0.0, 0.0, 0.0, 0.0, 1.696029948113007E9, 0.0, 2023-09-29 18:25:48.113
40.0, 30484.203157925986, 52109.448863202204, 42386.1047489768, 6118.454768473479, 57597.4950310582, 47453.714603628476, -159170.39324884335, 41205.37384812521, 38194.30329731743, 66081.5466739591, 55200.96334230463, 12059.391982482908, 67377.38905875552, -127858.50499373736, 72707.69896599042, 53182.354948801396, 0.036000000000000004, 1.024, 0.006, 192.0, 0.0, 0.0, 0.0, 0.0, 0.0, 0.0, 0.0, 0.0, 0.0, 1.69602994811301E9, 0.0, 2023-09-29 18:25:48.113
42.0, 30504.252672702394, 52129.49837797861, 42334.53927451841, 6125.853195888186, 57585.96153091926, 47428.188911460515, -159243.30463925656, 41180.719873991, 38193.99037289505, 66154.99450623924, 55239.18482532321, 12075.552293724097, 67342.92266880545, -127268.08366395041, 72791.67446990902, 53372.81416330507, 0.034, 1.024, 0.004, 192.0, 0.5, 8.0, 16.0, 0.0, 0.0, 16.0, 0.0, 0.0, 0.0, 1.696029948113013E9, 0.0, 2023-09-29 18:25:48.113
44.0, 30490.640460329112, 52116.06497956097, 42397.43708341564, 6124.109759820672, 57602.65828402738, 47438.82834182124, -159190.08513570848, 41201.52934807889, 38206.105018389826, 66094.04129910962, 55215.00023782256, 12075.1499623239, 67372.27050927526, -127856.73920592538, 72718.85248647362, 53195.16249837429, 0.034, 1.024, 0.004, 192.0, 0.0, 0.0, 0.0, 0.0, 0.0, 0.0, 0.0, 0.0, 0.0, 1.696029948113017E9, 0.0, 2023-09-29 18:25:48.113
46.0, 30498.977661010944, 52128.22432854466, 42336.30506233038, 6130.92704187954, 57569.510647000156, 47432.81572256276, -159203.7196998262, 41179.62463851269, 38194.45975952861, 66158.59313709654, 55262.31888083445, 12077.854523402993, 67363.73214289334, -127339.34102527393, 72812.50629574136, 53386.71694835627, 0.034, 1.024, 0.004, 192.0, 0.0, 0.0, 0.0, 0.0, 0.0, 0.0, 0.0, 0.0, 0.0, 1.696029948172635E9, 0.0, 2023-09-29 18:25:48.172
48.0, 30499.312937177772, 52125.78798839903, 42389.323400178364, 6134.905652392585, 57612.94008647682, 47442.225806978444, -159222.60692389094, 41193.30390611934, 38201.634669498766, 66094.22011306525, 55209.83698485339, 12078.43566875883, 67371.3540877526, -127822.63044388658, 72713.912750949, 53208.707655514205, 0.034, 1.024, 0.004, 192.0, 0.0, 0.0, 0.0, 0.0, 0.0, 0.0, 0.0, 0.0, 0.0, 1.696029948172647E9, 0.0, 2023-09-29 18:25:48.172
50.0, 30489.545224850805, 52121.49645346361, 42341.96005367757, 6127.171948811048, 57567.968376632736, 47444.460981423974, -159174.70713552323, 41192.58865029677, 38200.56178576491, 66173.1217709925, 55272.69009026171, 12087.801049685604, 67368.42600922895, -127455.14541329688, 72809.98054861791, 53367.76266905817, 0.034, 1.024, 0.004, 192.0, 0.0, 0.0, 0.0, 0.0, 0.0, 0.0, 0.0, 0.0, 0.0, 1.69602994817265E9, 0.0, 2023-09-29 18:25:48.172
52.0, 30486.84066377171, 52110.23117425814, 42383.57900185335, 6131.932870380029, 57603.50765031668, 47433.24040570741, -159216.95193254374, 41184.54202229286, 38191.84460542734, 66083.82655189354, 55198.86227832583, 12063.325889507043, 67353.98678231082, -127752.28950408573, 72723.50164932033, 53222.610440565404, 0.03, 1.024, 0.006, 192.0, 0.0, 120.0, 16.0, 0.0, 0.0, 24.0, 0.0, 0.0, 0.0, 1.696029948172654E9, 0.0, 2023-09-29 18:25:48.172
54.0, 30491.199253940496, 52121.183529041235, 42347.61504502476, 6143.935757152529, 57564.28033879762, 47451.881760583135, -159134.74221643712, 41212.0793714618, 38199.377143308775, 66159.88953827495, 55268.33150009293, 12077.2510263027, 67369.54359645171, -127528.9508734883, 72811.94750212997, 53346.81908450354, 0.03, 1.024, 0.006, 192.0, 0.0, 0.0, 0.0, 0.0, 0.0, 0.0, 0.0, 0.0, 0.0, 1.696029948172657E9, 0.0, 2023-09-29 18:25:48.172
56.0, 30494.50731211988, 52118.59072668442, 42392.139719979736, 6153.904635179596, 57614.817633011065, 47429.53001612783, -159254.45815973976, 41197.796606754855, 38198.684239230664, 66091.38144151944, 55194.14606024577, 12071.081944833035, 67354.61263115557, -127697.6394888925, 72708.39187006855, 53235.19447269374, 0.03, 1.024, 0.006, 192.0, 0.0, 0.0, 0.0, 0.0, 0.0, 0.0, 0.0, 0.0, 0.0, 1.69602994817266E9, 0.0, 2023-09-29 18:25:48.172
58.0, 30487.31005040527, 52118.16604353977, 42371.46435635857, 6156.385678814135, 57566.9401963878, 47461.314196743275, -159124.2592482876, 41233.11236299424, 38208.65311725773, 66160.78360805317, 55265.47047680265, 12077.072212347057, 67383.5581402252, -127661.76493904174, 72794.5801966882, 53320.44402604628, 0.03, 1.024, 0.006, 192.0, 0.0, 0.0, 0.0, 0.0, 0.0, 0.0, 0.0, 0.0, 0.0, 1.696029948172663E9, 0.0, 2023-09-29 18:25:48.172
60.0, 30498.552977866293, 52120.06594181847, 42398.3088014494, 6166.622777774665, 57604.848754984, 47431.63108010663, -159255.15106381787, 41202.44576960156, 38196.516120018496, 66105.12776435945, 55194.68250211269, 12072.244235544711, 67332.97614252284, -127635.61339802903, 72717.06434691719, 53264.430554441285, 0.03, 1.024, 0.006, 192.0, 0.0, 0.0, 0.0, 0.0, 0.0, 0.0, 0.0, 0.0, 0.0, 1.696029948172667E9, 0.0, 2023-09-29 18:25:48.172
62.0, 30494.484960375426, 52121.183529041235, 42397.370028182275, 6166.22044637447, 57555.22788229321, 47465.33751074523, -159081.9473960337, 41239.12498225272, 38208.071971901896, 66153.09460796053, 55269.40438382678, 12078.43566875883, 67396.656262476, -127745.4051667935, 72797.9776618454, 53313.02324688712, 0.028, 1.024, -0.002, 192.0, 0.0, 112.0, 16.0, 0.0, 127.5, 120.0, 0.0, 0.0, 0.0, 1.696029948232915E9, 0.0, 2023-09-29 18:25:48.232
64.0, 30506.331384936737, 52125.184491298736, 42411.988069056046, 6181.017301203883, 57600.0431299261, 47415.56017584326, -159252.67002018334, 41199.271821888906, 38202.685201488166, 66111.11803187347, 55200.1810312487, 12078.167447825366, 67338.65348561449, -127561.24914422623, 72713.04103291524, 53294.11367107793, 0.028, 1.024, -0.002, 192.0, 0.0, 0.0, 0.0, 0.0, 0.0, 0.0, 0.0, 0.0, 0.0, 1.696029948232925E9, 0.0, 2023-09-29 18:25:48.232
66.0, 30493.054448730287, 52123.39635174231, 42434.40686874472, 6181.5090395819, 57561.82164690753, 47460.82245836526, -159054.16417767576, 41247.61864514573, 38220.1195621633, 66154.81569228359, 55271.08076466093, 12088.024567130156, 67404.90405618, -127849.29607502176, 72779.96215581443, 53283.04955757255, 0.028, 1.024, -0.002, 192.0, 0.0, 0.0, 0.0, 0.0, 0.0, 0.0, 0.0, 0.0, 0.0, 1.696029948232929E9, 0.0, 2023-09-29 18:25:48.232
68.0, 30503.783286068832, 52129.81130240099, 42427.991918086045, 6199.032807234861, 57600.71368225977, 47411.4921583524, -159249.47372072624, 41198.422455599604, 38201.38880030975, 66120.88574420044, 55198.459946925635, 12083.040128116623, 67333.80315706768, -127506.844998222, 72713.04103291524, 53302.8308514155, 0.028, 1.024, -0.002, 192.0, 0.0, 0.0, 0.0, 0.0, 0.0, 0.0, 0.0, 0.0, 0.0, 1.696029948232932E9, 0.0, 2023-09-29 18:25:48.232
70.0, 30505.638480858623, 52136.51682573758, 42467.64391274976, 6213.784958575364, 57581.334719817016, 47474.457022482995, -159072.98434650712, 41263.868363364745, 38221.30420461943, 66147.35020963552, 55264.26348260206, 12097.859334690493, 67407.07217539218, -127962.55236417681, 72760.20321371594, 53241.855292541426, 0.028, 1.024, -0.002, 192.0, 0.0, 0.0, 0.0, 0.0, 0.0, 0.0, 0.0, 0.0, 0.0, 1.696029948232935E9, 0.0, 2023-09-29 18:25:48.232
72.0, 30516.590835641724, 52140.763657184085, 42452.84705792035, 6219.641115622654, 57605.094624173005, 47418.17532994453, -159247.66322942535, 41206.06675220332, 38211.42473357019, 66147.10434044652, 55216.65426691226, 12098.127555623956, 67344.88962231751, -127483.44272177729, 72737.42678611599, 53325.875499948925, 0.028, 1.022, 0.0, 192.0, 0.0, 112.0, 15.5, 120.0, 0.0, 0.0, 0.0, 0.0, 0.0, 1.696029948232938E9, 0.0, 2023-09-29 18:25:48.232
74.0, 30506.867826803667, 52139.13197983885, 42492.40964560624, 6228.827682593785, 57582.89934192888, 47476.66984518407, -159053.6947910422, 41268.78574714491, 38235.43050711519, 66147.79724452463, 55272.287758861516, 12105.838907461037, 67424.48418432286, -128037.65422554663, 72774.91066156753, 53235.57445234948, 0.028, 1.022, 0.0, 192.0, 0.0, 0.0, 0.0, 0.0, 0.0, 0.0, 0.0, 0.0, 0.0, 1.696029948232941E9, 0.0, 2023-09-29 18:25:48.232
76.0, 30519.317748465273, 52144.76461944159, 42444.554560727425, 6235.063819296815, 57605.295789873104, 47432.1451702291, -159241.27063051114, 41212.124074950705, 38214.12929464928, 66158.54843360763, 55224.72324666062, 12103.514326037684, 67333.51258438975, -127450.16097428334, 72770.26149872084, 53361.727698055234, 0.028, 1.022, 0.0, 192.0, 0.0, 0.0, 0.0, 0.0, 0.0, 0.0, 0.0, 0.0, 0.0, 1.696029948293348E9, 0.0, 2023-09-29 18:25:48.293
78.0, 30500.542283122813, 52135.13101758135, 42498.64578230927, 6225.8996040701395, 57591.594170521996, 47479.44146149653, -159070.7938755505, 41267.0423110774, 38232.21185591362, 66142.5669363221, 55254.02638364153, 12105.414224316386, 67436.30825713972, -128116.53353172941, 72758.07979799269, 53224.19741442173, 0.028, 1.022, 0.0, 192.0, 0.0, 0.0, 0.0, 0.0, 0.0, 0.0, 0.0, 0.0, 0.0, 1.69602994829336E9, 0.0, 2023-09-29 18:25:48.293
80.0, 30514.959158296486, 52141.74713394012, 42451.39419453075, 6234.907357085629, 57603.619409038954, 47429.97705101693, -159238.11903454293, 41210.47004586102, 38208.18373062417, 66163.24229994325, 55217.59304017938, 12099.647474246916, 67359.95469808039, -127465.76249191315, 72773.7260191114, 53374.311730183574, 0.028, 1.022, 0.0, 192.0, 0.0, 0.0, 0.0, 0.0, 0.0, 0.0, 0.0, 0.0, 0.0, 1.696029948293363E9, 0.0, 2023-09-29 18:25:48.293
82.0, 30497.79301855481, 52127.39731399981, 42506.37948589081, 6227.553633159832, 57597.83030722503, 47473.16062130459, -159088.31764320345, 41263.82365987583, 38230.69193729066, 66121.31042734509, 55237.50844448906, 12096.697043978817, 67422.87485872208, -128166.37792186475, 72737.80676577172, 53193.86609719588, 0.024, 1.022, -0.002, 192.0, 0.0, 96.0, 15.5, 120.0, 127.5, 120.0, 0.0, 0.0, 0.0, 1.696029948293367E9, 0.0, 2023-09-29 18:25:48.293
84.0, 30505.303204691794, 52128.961936111686, 42435.882083878765, 6230.302897727835, 57592.13061238893, 47423.83032129172, -159220.4388046788, 41211.25235691695, 38205.680335245175, 66157.22968068477, 55222.68923791519, 12093.724261966261, 67351.28222123173, -127488.091884624, 72780.34213547017, 53371.80833480458, 0.024, 1.022, -0.002, 192.0, 0.0, 0.0, 0.0, 0.0, 0.0, 0.0, 0.0, 0.0, 0.0, 1.69602994829337E9, 0.0, 2023-09-29 18:25:48.293
86.0, 30489.344059150706, 52118.76954064007, 42492.81197700644, 6226.614859892709, 57602.61358053846, 47464.26462701138, -159115.47501271666, 41254.145354526685, 38220.74541100805, 66109.32989231705, 55212.45213895466, 12090.527962509152, 67406.53573352525, -128190.38369540975, 72711.49876254782, 53179.91860865577, 0.024, 1.022, -0.002, 192.0, 0.0, 0.0, 0.0, 0.0, 0.0, 0.0, 0.0, 0.0, 0.0, 1.696029948293373E9, 0.0, 2023-09-29 18:25:48.293
88.0, 30493.412076641573, 52122.21170928618, 42427.03079307447, 6227.75479885993, 57583.88281868492, 47429.77588531684, -159197.4165078898, 41212.21348192853, 38197.074913629884, 66168.04792500114, 55217.81655762393, 12085.074136862057, 67348.10827351907, -127543.12187947296, 72776.14000751257, 53376.39044241792, 0.024, 1.022, -0.002, 192.0, 0.0, 0.0, 0.0, 0.0, 0.0, 0.0, 0.0, 0.0, 0.0, 1.696029948293376E9, 0.0, 2023-09-29 18:25:48.293
90.0, 30483.80082652579, 52112.667514403765, 42491.38146536129, 6230.504063427933, 57598.7467287477, 47456.91090308558, -159113.44100397124, 41242.6342061322, 38211.6706027592, 66104.43486028134, 55198.90698181475, 12081.34139553802, 67389.54840773922, -128168.21076491008, 72709.95649218041, 53190.02159714956, 0.024, 1.022, -0.002, 192.0, 0.0, 0.0, 0.0, 0.0, 0.0, 0.0, 0.0, 0.0, 0.0, 1.696029948293379E9, 0.0, 2023-09-29 18:25:48.293
92.0, 30487.80178878329, 52115.17090978276, 42425.86850236279, 6226.212528492514, 57564.749725431175, 47431.92165278455, -159163.19598712874, 41214.515711607426, 38198.66188748621, 66165.9692127668, 55221.50459545906, 12081.408450771387, 67362.56985218167, -127586.43956022734, 72784.05252504976, 53373.26119819417, 0.026000000000000002, 1.022, 0.004, 192.0, 0.0, 104.0, 15.5, 120.0, 0.0, 16.0, 0.0, 0.0, 0.0, 1.696029948353595E9, 0.0, 2023-09-29 18:25:48.353
94.0, 30478.347000878694, 52103.07861603244, 42483.156023401745, 6221.541013901355, 57603.03826368311, 47446.83026633624, -159151.43896954524, 41236.666290362635, 38204.89802418924, 66095.11418284348, 55176.15290595924, 12074.971148368259, 67376.0032505993, -128143.42268030914, 72690.19755008192, 53182.1537831013, 0.026000000000000002, 1.022, 0.004, 192.0, 0.0, 0.0, 0.0, 0.0, 0.0, 0.0, 0.0, 0.0, 0.0, 1.696029948353604E9, 0.0, 2023-09-29 18:25:48.353
96.0, 30485.432503871027, 52111.70638939219, 42429.86946462029, 6227.330115715279, 57575.165638347346, 47446.696155869504, -159156.0657806475, 41227.81499955833, 38195.73380896256, 66169.612547113, 55224.92441236072, 12081.050822860101, 67353.98678231082, -127682.39559917398, 72778.59869940266, 53348.584872315514, 0.026000000000000002, 1.022, 0.004, 192.0, 0.0, 0.0, 0.0, 0.0, 0.0, 0.0, 0.0, 0.0, 0.0, 1.696029948353613E9, 0.0, 2023-09-29 18:25:48.353
98.0, 30477.497634589392, 52100.083482275426, 42481.30082861195, 6223.329153457779, 57605.87693522894, 47440.9964610334, -159180.80916175953, 41227.59148211378, 38202.77460846599, 66096.56704623307, 55178.812763549424, 12077.00515711369, 67370.08003831864, -128109.89506362619, 72687.87296865857, 53188.85930643789, 0.026000000000000002, 1.022, 0.004, 192.0, 0.0, 0.0, 0.0, 0.0, 0.0, 0.0, 0.0, 0.0, 0.0, 1.696029948353618E9, 0.0, 2023-09-29 18:25:48.353
100.0, 30473.273154887338, 52100.284647975524, 42432.48461872156, 6219.6187638781985, 57562.447495752276, 47449.28895822632, -159130.54008847955, 41232.821790316324, 38193.99037289505, 66164.9633842663, 55230.60175545237, 12074.546465223608, 67366.36964873906, -127781.63734455555, 72790.66864140853, 53338.392476843896, 0.026000000000000002, 1.022, 0.004, 192.0, 0.0, 0.0, 0.0, 0.0, 0.0, 0.0, 0.0, 0.0, 0.0, 1.696029948353621E9, 0.0, 2023-09-29 18:25:48.353
102.0, 30471.283849630818, 52095.90370606229, 42474.192973875164, 6223.999705791439, 57605.47460382874, 47431.51932138435, -159208.570028373, 41220.01424074343, 38188.961230392604, 66086.68757518382, 55159.1208766843, 12061.984784839724, 67354.41146545547, -128060.6765223356, 72696.27722457376, 53201.018655421576, 0.024, 1.022, 0.004, 192.0, 0.0, 96.0, 15.5, 120.0, 0.0, 16.0, 0.0, 0.0, 0.0, 1.696029948353624E9, 0.0, 2023-09-29 18:25:48.353
104.0, 30472.647306042592, 52105.604363155886, 42433.95983385561, 6225.296106969847, 57559.67587943982, 47458.0508420528, -159109.48474520264, 41236.71099385154, 38195.77851245148, 66165.25395694423, 55228.232470540104, 12074.14413382341, 67364.2015295269, -127901.71091576945, 72794.08845831019, 53317.51594752264, 0.024, 1.022, 0.004, 192.0, 0.0, 0.0, 0.0, 0.0, 0.0, 0.0, 0.0, 0.0, 0.0, 1.696029948353628E9, 0.0, 2023-09-29 18:25:48.353
106.0, 30485.544262593303, 52108.64420040181, 42471.35430232934, 6235.868482097207, 57608.581496308034, 47435.98967027541, -159244.17635729033, 41216.68383081959, 38198.30425957492, 66107.76527020517, 55160.43962960716, 12075.753459424193, 67362.56985218167, -128010.00511765543, 72696.47839027386, 53224.2644696551, 0.024, 1.022, 0.004, 192.0, 0.0, 0.0, 0.0, 0.0, 0.0, 0.0, 0.0, 0.0, 0.0, 1.696029948412947E9, 0.0, 2023-09-29 18:25:48.412
108.0, 30474.12252117664, 52100.910496820274, 42447.23677006207, 6219.6187638781985, 57561.6875364408, 47462.2529700104, -159090.798686838, 41232.10653449375, 38214.352812093835, 66170.12663723549, 55243.49871200308, 12085.007081628692, 67390.84480891762, -128031.17221965459, 72785.55009192826, 53297.37702576841, 0.024, 1.022, 0.004, 192.0, 0.0, 0.0, 0.0, 0.0, 0.0, 0.0, 0.0, 0.0, 0.0, 1.696029948412959E9, 0.0, 2023-09-29 18:25:48.412
110.0, 30489.16524519506, 52111.08054054744, 42454.65754922123, 6229.788807605363, 57611.71074053177, 47424.478521880934, -159242.27645901163, 41202.98221146849, 38195.264422329004, 66107.4523457828, 55169.96147274512, 12067.57272095355, 67341.80508158269, -127937.8983900426, 72714.18097188247, 53253.992289780654, 0.024, 1.022, 0.004, 192.0, 0.0, 0.0, 0.0, 0.0, 0.0, 0.0, 0.0, 0.0, 0.0, 1.696029948412963E9, 0.0, 2023-09-29 18:25:48.412
112.0, 30480.26925090185, 52109.113587035376, 42455.28339806598, 6224.022057535894, 57579.61363549395, 47473.831173638246, -159082.21561696718, 41252.603084159266, 38215.29158536096, 66164.44929414384, 55243.67752595872, 12088.829229930549, 67397.55033225422, -128141.05339539688, 72780.69976338146, 53273.25949350113, 0.018000000000000002, 1.02, 0.004, 192.0, 0.0, 72.0, 15.5, 112.0, 0.0, 16.0, 0.0, 0.0, 0.0, 1.696029948412966E9, 0.0, 2023-09-29 18:25:48.412
114.0, 30489.16524519506, 52110.74526438061, 42453.69642420965, 6224.826720336285, 57617.14221443442, 47425.81962654825, -159255.2851742846, 41204.993868469464, 38198.01368689701, 66109.93338941735, 55166.47460061009, 12076.669880946862, 67340.73219784882, -127891.45146506447, 72721.46764057489, 53280.65792091584, 0.018000000000000002, 1.02, 0.004, 192.0, 0.0, 0.0, 0.0, 0.0, 0.0, 0.0, 0.0, 0.0, 0.0, 1.696029948412969E9, 0.0, 2023-09-29 18:25:48.412
116.0, 30473.876651987634, 52101.73751136512, 42466.39221506026, 6218.568231888799, 57579.90420817187, 47476.51338297289, -159054.32063988695, 41252.82660160382, 38213.70461150463, 66146.47849160177, 55235.56384272145, 12085.990558384725, 67401.01485264479, -128241.52448672349, 72778.24107149137, 53265.21286549722, 0.018000000000000002, 1.02, 0.004, 192.0, 0.0, 0.0, 0.0, 0.0, 0.0, 0.0, 0.0, 0.0, 0.0, 1.696029948412972E9, 0.0, 2023-09-29 18:25:48.412
118.0, 30485.968945737954, 52106.14080502281, 42448.71198519612, 6222.32332495729, 57604.91581021736, 47421.43868463501, -159238.36490373194, 41192.16396715212, 38192.29164031645, 66116.25893309819, 55171.32492915689, 12075.328776279543, 67351.81866309866, -127841.85294411815, 72732.0176639578, 53312.01741838663, 0.018000000000000002, 1.02, 0.004, 192.0, 0.0, 0.0, 0.0, 0.0, 0.0, 0.0, 0.0, 0.0, 0.0, 1.696029948412975E9, 0.0, 2023-09-29 18:25:48.412
120.0, 30479.71045729047, 52110.32058123596, 42473.38831107477, 6218.99291503345, 57578.317234315546, 47471.327778259256, -159036.52865130053, 41245.83050558931, 38215.69391676115, 66136.82253799708, 55232.79222640899, 12084.045956617112, 67421.39964358803, -128320.56025511745, 72774.15070225605, 53241.87764428588, 0.018000000000000002, 1.02, 0.004, 192.0, 0.0, 0.0, 0.0, 0.0, 0.0, 0.0, 0.0, 0.0, 0.0, 1.696029948412978E9, 0.0, 2023-09-29 18:25:48.412
122.0, 30489.23230042843, 52112.868680103864, 42448.6672817072, 6238.237767009469, 57613.11890043246, 47426.31136492627, -159262.90711914387, 41199.49533933346, 38196.04673338494, 66126.07134891408, 55175.3705949033, 12085.2529508177, 67345.56017465117, -127822.74220260886, 72741.2265826734, 53330.904642451365, 0.03, 1.024, 0.002, 192.0, 0.0, 120.0, 16.0, 0.0, 0.0, 8.0, 0.0, 0.0, 0.0, 1.696029948472885E9, 0.0, 2023-09-29 18:25:48.472
124.0, 30477.02824795583, 52108.30892423498, 42486.82170949241, 6226.503101170433, 57586.96735941975, 47485.56583947728, -159071.53148311752, 41256.15701152766, 38222.33238486438, 66134.76617750719, 55236.480264244114, 12092.383157298942, 67431.97201871539, -128436.5658088405, 72752.22364094539, 53220.35291437542, 0.03, 1.024, 0.002, 192.0, 0.0, 0.0, 0.0, 0.0, 0.0, 0.0, 0.0, 0.0, 0.0, 1.696029948472897E9, 0.0, 2023-09-29 18:25:48.472
126.0, 30479.665753801557, 52103.65976138828, 42425.98026108507, 6224.245574980447, 57596.66801651335, 47431.65343185108, -159237.06850255353, 41189.63822002867, 38192.76102695001, 66127.50186055922, 55186.367653175315, 12078.636834458928, 67340.7992530822, -127817.0201560283, 72752.78243455678, 53355.84918926349, 0.03, 1.024, 0.002, 192.0, 0.0, 0.0, 0.0, 0.0, 0.0, 0.0, 0.0, 0.0, 0.0, 1.6960299484729E9, 0.0, 2023-09-29 18:25:48.472
128.0, 30472.75906476487, 52099.591743897414, 42473.63418026378, 6219.238784222458, 57587.883780942415, 47486.39285402213, -159079.37694542133, 41248.9373980686, 38214.978660938585, 66108.27936032765, 55213.10033954386, 12075.284072790631, 67409.95555042691, -128480.06230355053, 72743.05942571872, 53199.52108854307, 0.03, 1.024, 0.002, 192.0, 0.0, 0.0, 0.0, 0.0, 0.0, 0.0, 0.0, 0.0, 0.0, 1.696029948472903E9, 0.0, 2023-09-29 18:25:48.472
130.0, 30483.756123036877, 52105.93963932272, 42427.72369715258, 6227.173653504093, 57594.16462113436, 47433.93330978553, -159218.69536861128, 41201.95403122354, 38199.4665502866, 66153.22871842727, 55194.414281179226, 12085.387061284431, 67340.37456993754, -127839.26014176133, 72764.38298992909, 53359.85015152099, 0.03, 1.024, 0.002, 192.0, 0.0, 0.0, 0.0, 0.0, 0.0, 0.0, 0.0, 0.0, 0.0, 1.696029948472907E9, 0.0, 2023-09-29 18:25:48.472
132.0, 30471.485015330916, 52101.491642176115, 42484.206555391145, 6221.473958667989, 57595.61748452395, 47477.42980449555, -159087.02124202505, 41244.914084066644, 38213.21287312661, 66108.12289811646, 55202.12563301631, 12081.855485660493, 67405.23933234684, -128528.36442331845, 72729.9613034679, 53188.68049248225, 0.024, 1.026, 0.006, 192.0, 0.0, 96.0, 16.0, 8.0, 0.0, 24.0, 0.0, 0.0, 0.0, 1.69602994847291E9, 0.0, 2023-09-29 18:25:48.472
134.0, 30490.5957568402, 52118.00958132858, 42424.43799071765, 6232.828644851285, 57589.89543794339, 47445.75738260238, -159217.4883744107, 41203.63041205769, 38192.828082183376, 66157.78847429615, 55201.99152254958, 12084.269474061666, 67363.68743940443, -127870.26201132084, 72773.94953655596, 53365.03575623462, 0.024, 1.026, 0.006, 192.0, 0.0, 0.0, 0.0, 0.0, 0.0, 0.0, 0.0, 0.0, 0.0, 1.696029948472913E9, 0.0, 2023-09-29 18:25:48.472
136.0, 30478.905794490078, 52107.12428177885, 42482.26195362353, 6222.144511001648, 57597.02564442464, 47468.84673462471, -159129.73542567916, 41241.71778460954, 38214.26340511601, 66114.38138656395, 55195.88949631328, 12087.666939218872, 67412.83892546165, -128572.50911861767, 72704.0109281553, 53169.52504748405, 0.024, 1.026, 0.006, 192.0, 0.0, 0.0, 0.0, 0.0, 0.0, 0.0, 0.0, 0.0, 0.0, 1.696029948532957E9, 0.0, 2023-09-29 18:25:48.532
138.0, 30489.813445784268, 52115.819110371966, 42424.37093548429, 6224.267926724902, 57584.4416122963, 47444.72920235744, -159196.1201067114, 41209.35245863825, 38198.684239230664, 66171.31127969161, 55215.69314190068, 12087.085793863034, 67362.77101788175, -127948.33665470322, 72779.89510058107, 53367.22622719124, 0.024, 1.026, 0.006, 192.0, 0.0, 0.0, 0.0, 0.0, 0.0, 0.0, 0.0, 0.0, 0.0, 1.696029948532968E9, 0.0, 2023-09-29 18:25:48.532
140.0, 30480.93980323551, 52111.818148114464, 42480.004427433545, 6223.418560435601, 57604.736996261716, 47466.94683634601, -159139.99487638412, 41233.71586009453, 38208.18373062417, 66098.1987235783, 55186.926446786696, 12080.223808315255, 67401.28307357825, -128551.69964452978, 72712.39283232603, 53187.24998083711, 0.024, 1.026, 0.006, 192.0, 0.0, 0.0, 0.0, 0.0, 0.0, 0.0, 0.0, 0.0, 0.0, 1.696029948532972E9, 0.0, 2023-09-29 18:25:48.532
142.0, 30476.8941374891, 52106.92311607875, 42415.743162124534, 6216.355409187724, 57569.91297840035, 47448.21607449247, -159143.571155497, 41207.787836526375, 38198.39366655274, 66169.29962269064, 55228.79126415149, 12087.10814560749, 67368.09073306213, -128016.6212340142, 72796.32363275572, 53374.244674950205, 0.028, 1.024, 0.008, 192.0, 0.0, 112.0, 16.0, 0.0, 0.0, 32.0, 0.0, 0.0, 0.0, 1.696029948532975E9, 0.0, 2023-09-29 18:25:48.532
144.0, 30480.35865787967, 52108.26422074607, 42471.44370930716, 6214.455510909022, 57604.71464451726, 47449.73599311543, -159135.74804493762, 41216.37090639721, 38202.43933229915, 66084.89943562739, 55180.846772294855, 12074.099430334501, 67385.36863152607, -128506.77263817462, 72715.09739340513, 53199.252867609604, 0.028, 1.024, 0.008, 192.0, 0.0, 0.0, 0.0, 0.0, 0.0, 0.0, 0.0, 0.0, 0.0, 1.696029948532979E9, 0.0, 2023-09-29 18:25:48.532
146.0, 30490.685163818023, 52120.44592147421, 42422.336926738855, 6220.199909234037, 57576.707908714765, 47460.82245836526, -159137.78205368307, 41217.60025234226, 38201.411152054214, 66165.6115848555, 55234.69212468769, 12085.878799662447, 67365.6990964054, -128104.15066530117, 72798.49175196789, 53348.92014848234, 0.028, 1.024, 0.008, 192.0, 0.0, 0.0, 0.0, 0.0, 0.0, 0.0, 0.0, 0.0, 0.0, 1.696029948532982E9, 0.0, 2023-09-29 18:25:48.532
148.0, 30485.90189050459, 52110.87937484734, 42476.092872153866, 6221.943345301551, 57616.09168244502, 47460.01779556487, -159191.80622003155, 41218.53902560938, 38211.491788803556, 66101.08209861304, 55182.61256010683, 12085.923503151358, 67385.50274199281, -128503.5316352286, 72702.20043685441, 53191.362701816885, 0.028, 1.024, 0.008, 192.0, 0.0, 0.0, 0.0, 0.0, 0.0, 0.0, 0.0, 0.0, 0.0, 1.696029948532985E9, 0.0, 2023-09-29 18:25:48.532
150.0, 30482.705591047477, 52108.890069590816, 42423.92390059518, 6217.13772024366, 57569.73416444471, 47471.97597884846, -159121.9123151198, 41227.0326885024, 38209.50248354703, 66167.53383487866, 55246.65030797128, 12092.181991598844, 67389.57075948367, -128235.19894304263, 72806.15840031605, 53335.106770408966, 0.028, 1.024, 0.008, 192.0, 0.0, 0.0, 0.0, 0.0, 0.0, 0.0, 0.0, 0.0, 0.0, 1.696029948532988E9, 0.0, 2023-09-29 18:25:48.532
152.0, 30476.17888166653, 52097.557735151975, 42459.15024985674, 6213.740255086453, 57613.38712136592, 47456.285054240834, -159213.7779848311, 41208.7266097935, 38201.27704158748, 66091.15792407488, 55171.43668787917, 12078.010985614179, 67365.31911674967, -128455.40832941633, 72713.08573640416, 53210.741664259636, 0.026000000000000002, 1.024, 0.002, 192.0, 0.0, 104.0, 16.0, 0.0, 0.0, 8.0, 0.0, 0.0, 0.0, 1.696029948593402E9, 0.0, 2023-09-29 18:25:48.593
154.0, 30473.340210120707, 52100.17288925325, 42427.63429017476, 6207.191193961048, 57570.337661545, 47477.6533219401, -159088.09412575891, 41236.44277291808, 38204.27217534449, 66154.07808471657, 55239.38599102331, 12077.96628212527, 67379.4007157565, -128344.07429028444, 72806.11369682715, 53316.30895332205, 0.026000000000000002, 1.024, 0.002, 192.0, 0.0, 0.0, 0.0, 0.0, 0.0, 0.0, 0.0, 0.0, 0.0, 1.696029948593412E9, 0.0, 2023-09-29 18:25:48.593
156.0, 30477.89996598959, 52097.490679918614, 42447.46028750662, 6215.5060428984225, 57611.06253994257, 47453.692251884015, -159225.91498207033, 41209.821845271814, 38199.243032842045, 66090.91205488588, 55170.34145240086, 12070.210226799278, 67353.60680265508, -128388.53191000604, 72717.80195448422, 53245.18570246526, 0.026000000000000002, 1.024, 0.002, 192.0, 0.0, 0.0, 0.0, 0.0, 0.0, 0.0, 0.0, 0.0, 0.0, 1.696029948593415E9, 0.0, 2023-09-29 18:25:48.593
158.0, 30455.905849445564, 52084.839592556906, 42425.9132058517, 6203.167879959093, 57566.850789409975, 47486.549316233315, -159075.1077622304, 41243.796496843876, 38211.15651263673, 66146.74671253523, 55240.72709569062, 12080.268511804166, 67398.33264331015, -128466.65125687735, 72794.06610656573, 53304.70839794975, 0.026000000000000002, 1.024, 0.002, 192.0, 0.0, 0.0, 0.0, 0.0, 0.0, 0.0, 0.0, 0.0, 0.0, 1.696029948593418E9, 0.0, 2023-09-29 18:25:48.593
160.0, 30452.664846499545, 52071.9426360062, 42419.811179615404, 6195.769452544386, 57605.92163871785, 47442.225806978444, -159243.01406657865, 41200.456464345036, 38187.910698403204, 66092.40962176438, 55157.980937717075, 12060.666031916862, 67339.61461062606, -128335.37946169132, 72718.94189345144, 53272.90186558985, 0.026000000000000002, 1.024, 0.002, 192.0, 0.0, 0.0, 0.0, 0.0, 0.0, 0.0, 0.0, 0.0, 0.0, 1.696029948593421E9, 0.0, 2023-09-29 18:25:48.593
162.0, 30435.40929978005, 52059.42565911122, 42427.52253145249, 6187.253437906914, 57570.695289456286, 47488.67273195657, -159071.62089009536, 41248.468011435034, 38197.09726537434, 66123.16562213488, 55221.37048499233, 12067.595072698006, 67395.67278571997, -128593.36329619448, 72781.34796397066, 53274.57824642399, 0.03, 1.022, 0.012, 192.0, 0.0, 120.0, 15.5, 120.0, 0.0, 48.0, 0.0, 0.0, 0.0, 1.696029948593425E9, 0.0, 2023-09-29 18:25:48.593
164.0, 30441.55602950526, 52055.558807320456, 42411.6080894003, 6192.684911809553, 57606.94981896279, 47435.185007475025, -159245.36099974645, 41190.01819968441, 38176.399550008726, 66073.18712153281, 55150.38134460227, 12052.306479490577, 67338.87700305904, -128290.05012393596, 72729.5142685788, 53290.47033673172, 0.03, 1.022, 0.012, 192.0, 0.0, 0.0, 0.0, 0.0, 0.0, 0.0, 0.0, 0.0, 0.0, 1.696029948593428E9, 0.0, 2023-09-29 18:25:48.593
166.0, 30419.78543040579, 52042.460685069644, 42428.52835995297, 6183.565400071789, 57575.07623136953, 47488.024531367366, -159082.68500360072, 41241.94130205409, 38195.689105473655, 66110.358072562, 55215.9837145786, 12065.784581397127, 67406.20045735841, -128709.54766387316, 72774.26246097832, 53245.118647231895, 0.03, 1.022, 0.012, 192.0, 0.0, 0.0, 0.0, 0.0, 0.0, 0.0, 0.0, 0.0, 0.0, 1.696029948653607E9, 0.0, 2023-09-29 18:25:48.653
168.0, 30417.527904215804, 52029.80959770794, 42403.315592207386, 6182.939551227039, 57606.65924628488, 47434.559158630276, -159278.26276758467, 41182.30684784733, 38170.297523772424, 66072.02483082114, 55147.52032131199, 12044.125741019934, 67329.10929073207, -128288.84312973538, 72730.69891103494, 53313.82790968751, 0.03, 1.022, 0.012, 192.0, 0.0, 0.0, 0.0, 0.0, 0.0, 0.0, 0.0, 0.0, 0.0, 1.696029948653622E9, 0.0, 2023-09-29 18:25:48.653
170.0, 30383.195624732452, 52005.04386485146, 42433.35633675532, 6172.143658655126, 57578.36193780446, 47480.87197314167, -159053.71714278666, 41233.60410137226, 38182.83685241185, 66076.83045587903, 55203.913772572734, 12046.606784654474, 67405.61931200259, -128804.2520051303, 72769.61329813162, 53235.39563839384, 0.03, 1.022, 0.012, 192.0, 0.0, 0.0, 0.0, 0.0, 0.0, 0.0, 0.0, 0.0, 0.0, 1.696029948653625E9, 0.0, 2023-09-29 18:25:48.653
172.0, 30384.33556369967, 51999.120652570804, 42381.41088264118, 6174.0659086782825, 57599.55139154809, 47428.81476030526, -159225.95968555924, 41173.612019254215, 38145.50943917149, 66064.00055456169, 55136.880890951266, 12029.485348401708, 67325.08597673012, -128224.78303012646, 72761.29844919425, 53346.05912519206, 0.034, 1.02, 0.01, 192.0, 0.5, 8.0, 15.5, 112.0, 0.0, 40.0, 0.0, 0.0, 0.0, 1.696029948653629E9, 0.0, 2023-09-29 18:25:48.653
174.0, 30368.555232114224, 51994.11386181282, 42425.823798873884, 6181.374929115168, 57592.97997867823, 47497.14404310513, -159070.16802670577, 41240.3319764533, 38165.000160336516, 66057.339734714, 55175.10237396984, 12043.544595664096, 67391.18008508446, -128854.11874701008, 72765.9699637854, 53217.380132362865, 0.034, 1.02, 0.01, 192.0, 0.0, 0.0, 0.0, 0.0, 0.0, 0.0, 0.0, 0.0, 0.0, 1.696029948653632E9, 0.0, 2023-09-29 18:25:48.653
176.0, 30365.82831929068, 51983.45207970763, 42376.06881571637, 6169.5508562983105, 57591.90709494437, 47439.63300462163, -159218.06951976652, 41181.94921993604, 38134.847657066304, 66069.07440055304, 55136.00917291751, 12035.565022893552, 67330.02571225473, -128235.26599827601, 72770.7308853544, 53360.90068351039, 0.034, 1.02, 0.01, 192.0, 0.0, 0.0, 0.0, 0.0, 0.0, 0.0, 0.0, 0.0, 0.0, 1.696029948653635E9, 0.0, 2023-09-29 18:25:48.653
178.0, 30350.606781316616, 51978.75821337202, 42429.75770589802, 6168.187399886537, 57585.4921442857, 47494.28301981485, -159071.12915171732, 41241.96365379854, 38149.823325851365, 66038.96660077175, 55161.423106363196, 12038.113121761457, 67392.74470719633, -128912.680317483, 72753.14006246807, 53200.2586961101, 0.034, 1.02, 0.01, 192.0, 0.0, 0.0, 0.0, 0.0, 0.0, 0.0, 0.0, 0.0, 0.0, 1.696029948653638E9, 0.0, 2023-09-29 18:25:48.653
180.0, 30357.0664354642, 51974.06434703641, 42375.24180117152, 6171.584865043744, 57590.18601062131, 47441.734068600425, -159231.45821469525, 41194.10856891973, 38130.28790119742, 66078.64094717991, 55146.4697893226, 12035.676781615828, 67326.82941279763, -128262.2222020891, 72781.30326048176, 53364.45461087878, 0.034, 1.02, 0.01, 192.0, 0.0, 0.0, 0.0, 0.0, 0.0, 0.0, 0.0, 0.0, 0.0, 1.696029948653641E9, 0.0, 2023-09-29 18:25:48.653
182.0, 30336.838106732146, 51956.205303216615, 42420.41467671569, 6157.413859059079, 57588.6437402539, 47477.63097019565, -159112.50223070412, 41237.96269154104, 38141.97786354755, 66022.22514417472, 55150.60486204683, 12024.90324078837, 67389.63781471703, -128976.0922165027, 72733.13525118056, 53184.94775115821, 0.03, 1.02, 0.004, 192.0, 0.0, 120.0, 15.5, 112.0, 0.0, 16.0, 0.0, 0.0, 0.0, 1.696029948712993E9, 0.0, 2023-09-29 18:25:48.712
184.0, 30336.212257887397, 51955.26652994949, 42361.18255390913, 6161.995966672417, 57585.4921442857, 47434.42504816354, -159202.31153992552, 41190.465234573516, 38122.21892144906, 66072.0471825656, 55150.33664111336, 12030.804101324571, 67323.09667147358, -128316.82751379343, 72791.8309321202, 53375.6975383398, 0.03, 1.02, 0.004, 192.0, 0.0, 0.0, 0.0, 0.0, 0.0, 0.0, 0.0, 0.0, 0.0, 1.696029948713004E9, 0.0, 2023-09-29 18:25:48.713
186.0, 30329.03734791724, 51949.83505604685, 42421.0628773049, 6164.052327162305, 57602.993560194205, 47468.95849334699, -159136.64211471583, 41231.05600250435, 38137.32870070085, 66002.3320916095, 55132.05291414892, 12024.679723343817, 67371.26468077478, -128977.9474112925, 72725.17803015448, 53185.17126860277, 0.03, 1.02, 0.004, 192.0, 0.0, 0.0, 0.0, 0.0, 0.0, 0.0, 0.0, 0.0, 0.0, 1.696029948713007E9, 0.0, 2023-09-29 18:25:48.713
188.0, 30331.607798529603, 51950.57266361388, 42360.48964983102, 6161.660690505587, 57576.10441161447, 47443.54455990131, -159206.89364753888, 41199.16006316663, 38126.91278778467, 66071.91307209886, 55161.84778950785, 12035.274450215633, 67324.52718311873, -128405.6086427699, 72793.26144376534, 53368.34381441401, 0.03, 1.02, 0.004, 192.0, 0.0, 0.0, 0.0, 0.0, 0.0, 0.0, 0.0, 0.0, 0.0, 1.69602994871301E9, 0.0, 2023-09-29 18:25:48.713
190.0, 30327.092746149632, 51941.02846873146, 42424.03565931746, 6161.995966672417, 57599.88666771492, 47464.66695841157, -159169.14155115385, 41220.70714482154, 38133.3500901878, 66003.74025151017, 55129.97420191458, 12025.86436579995, 67378.12666632255, -128989.88324283162, 72715.96911143888, 53186.37826280335, 0.03, 1.02, 0.004, 192.0, 0.0, 0.0, 0.0, 0.0, 0.0, 0.0, 0.0, 0.0, 0.0, 1.696029948713013E9, 0.0, 2023-09-29 18:25:48.713
192.0, 30323.13648738104, 51939.82147453088, 42360.668463786664, 6155.290443335824, 57565.666146953845, 47451.0994495272, -159184.25133040565, 41209.330106893794, 38128.36565117427, 66073.99178433321, 55174.23065593609, 12032.90516530337, 67348.82352934165, -128491.05936182254, 72806.42662124951, 53365.52749461264, 0.028, 1.018, 0.006, 192.0, 0.0, 112.0, 15.5, 104.0, 0.0, 24.0, 0.0, 0.0, 0.0, 1.696029948713017E9, 0.0, 2023-09-29 18:25:48.713
194.0, 30311.37946979755, 51928.33267788085, 42415.609051657804, 6147.757905454387, 57605.27343812865, 47451.747650116406, -159199.45051663526, 41216.70618256404, 38122.84477029381, 65999.5828270415, 55116.07141686338, 12019.516470374641, 67353.96443056637, -128962.63646634061, 72718.07017541768, 53193.888448940335, 0.028, 1.018, 0.006, 192.0, 0.0, 0.0, 0.0, 0.0, 0.0, 0.0, 0.0, 0.0, 0.0, 1.69602994871302E9, 0.0, 2023-09-29 18:25:48.713
196.0, 30309.14429535202, 51926.61159355779, 42352.62183578275, 6144.40514378609, 57563.006289363664, 47444.3492227017, -159169.76739999861, 41203.22808065749, 38113.5464446004, 66061.43010394933, 55169.179161689186, 12016.230763939711, 67346.38718919602, -128591.5975083825, 72808.37122301712, 53348.40605835987, 0.028, 1.018, 0.006, 192.0, 0.0, 0.0, 0.0, 0.0, 0.0, 0.0, 0.0, 0.0, 0.0, 1.696029948772775E9, 0.0, 2023-09-29 18:25:48.772
198.0, 30308.69726046291, 51921.56009931089, 42397.48178690455, 6145.232158330937, 57607.57566780754, 47439.364783688165, -159231.01117980614, 41194.13092066418, 38116.83215103533, 65987.84816120245, 55104.18028881315, 12002.797365522072, 67346.92363106295, -128925.06318391123, 72707.20722761241, 53202.829146722455, 0.028, 1.018, 0.006, 192.0, 0.0, 0.0, 0.0, 0.0, 0.0, 0.0, 0.0, 0.0, 0.0, 1.696029948772788E9, 0.0, 2023-09-29 18:25:48.772
200.0, 30308.741963951823, 51928.48914009204, 42356.533391062425, 6142.97463214095, 57558.71475442824, 47458.319062986266, -159132.68585594726, 41209.01718247142, 38114.932252756626, 66066.03456330711, 55173.40364139124, 12012.788595293594, 67358.74770387981, -128690.5263293417, 72811.70163294097, 53343.756895513165, 0.028, 1.018, 0.006, 192.0, 0.0, 0.0, 0.0, 0.0, 0.0, 0.0, 0.0, 0.0, 0.0, 1.696029948772791E9, 0.0, 2023-09-29 18:25:48.772
202.0, 30300.985908625833, 51919.88371847674, 42393.07849324685, 6136.35851578218, 57603.150022405396, 47435.72144934195, -159231.12293852842, 41186.263106615916, 38112.562967844366, 65997.9287979518, 55100.156974811194, 12005.725444045716, 67336.28420070221, -128863.68529363697, 72712.43753581496, 53227.17019643429, 0.028, 1.018, 0.016, 192.0, 0.0, 112.0, 15.5, 104.0, 0.0, 64.0, 0.0, 0.0, 0.0, 1.696029948772794E9, 0.0, 2023-09-29 18:25:48.772
204.0, 30293.76629516677, 51922.588279555835, 42358.88032423024, 6125.204995298982, 57554.5349782151, 47462.990577577424, -159091.62570138284, 41208.25722315994, 38113.09940971129, 66056.73623761372, 55170.60967333432, 12004.160821933845, 67351.52809042073, -128796.38419108203, 72805.80077240476, 53312.732674209205, 0.028, 1.018, 0.016, 192.0, 0.0, 0.0, 0.0, 0.0, 0.0, 0.0, 0.0, 0.0, 0.0, 1.696029948772797E9, 0.0, 2023-09-29 18:25:48.772
206.0, 30289.318298020164, 51907.970238682065, 42363.68594928813, 6121.874585375141, 57598.12087990295, 47430.424085906045, -159233.26870599613, 41180.0716734018, 38092.424046090135, 65985.68004199029, 55086.79063162692, 11983.016071679125, 67307.27163639924, -128775.10533036057, 72718.85248647362, 53241.38590590786, 0.028, 1.018, 0.016, 192.0, 0.0, 0.0, 0.0, 0.0, 0.0, 0.0, 0.0, 0.0, 0.0, 1.696029948772801E9, 0.0, 2023-09-29 18:25:48.772
208.0, 30283.171568294954, 51908.886660204735, 42356.24281838451, 6118.678285918032, 57564.92853938682, 47476.3569207617, -159063.86483476937, 41225.132790223695, 38107.55617708638, 66042.69934209577, 55155.63400454927, 11990.660368282839, 67361.85459635909, -128912.43444829399, 72794.69195541048, 53284.99415934017, 0.028, 1.018, 0.016, 192.0, 0.0, 0.0, 0.0, 0.0, 0.0, 0.0, 0.0, 0.0, 0.0, 1.696029948772804E9, 0.0, 2023-09-29 18:25:48.772
210.0, 30290.078257331643, 51905.42213981416, 42354.63349278373, 6122.634544686622, 57607.754481763186, 47434.335641185724, -159232.57580191802, 41174.26021984342, 38087.171386143134, 65983.75779196713, 55075.704166377094, 11979.260978610633, 67300.72257527383, -128712.11811448552, 72730.67655929048, 53274.24297025716, 0.028, 1.018, 0.016, 192.0, 0.0, 0.0, 0.0, 0.0, 0.0, 0.0, 0.0, 0.0, 0.0, 1.696029948772807E9, 0.0, 2023-09-29 18:25:48.772
212.0, 30297.879016146544, 51921.02365744396, 42371.084376702835, 6126.568451710756, 57573.22103657974, 47483.57653422076, -159081.2991954445, 41232.35240368276, 38115.982784746026, 66029.48946112269, 55150.94013821366, 11996.89650498587, 67370.59412844111, -129029.35642353969, 72782.08557153768, 53257.501513660136, 0.03, 1.022, 0.012, 192.0, 0.0, 120.0, 15.5, 120.0, 0.0, 48.0, 0.0, 0.0, 0.0, 1.696029948833009E9, 0.0, 2023-09-29 18:25:48.833
214.0, 30309.233702329842, 51922.61063130029, 42353.78412649443, 6127.30605927778, 57593.270551356145, 47424.36676315866, -159262.7953604216, 41172.87441168719, 38103.8457875068, 66012.34567312547, 55092.51267820748, 11991.867362483426, 67305.12586893151, -128697.3212596561, 72730.05071044574, 53293.30900827754, 0.03, 1.022, 0.012, 192.0, 0.0, 0.0, 0.0, 0.0, 0.0, 0.0, 0.0, 0.0, 0.0, 1.696029948833019E9, 0.0, 2023-09-29 18:25:48.833
216.0, 30307.177341839953, 51928.91382323669, 42383.24372568652, 6126.859024388675, 57573.75747844666, 47492.04784536932, -159083.8472943124, 41231.19011297108, 38125.437572650626, 66029.24359193369, 55154.58347255987, 11998.192906164279, 67382.5523117247, -129144.1326313177, 72779.42571394751, 53242.41408615281, 0.03, 1.022, 0.012, 192.0, 0.0, 0.0, 0.0, 0.0, 0.0, 0.0, 0.0, 0.0, 0.0, 1.696029948833022E9, 0.0, 2023-09-29 18:25:48.833
218.0, 30315.939225666432, 51928.578547069854, 42358.03095794094, 6119.572355696244, 57591.77298447764, 47429.90999578357, -159260.85075865398, 41165.29717031684, 38109.411371876166, 66019.76645228463, 55100.84987888931, 11991.979121205703, 67308.25511315526, -128674.34366635606, 72744.40053038603, 53326.36723832694, 0.03, 1.022, 0.012, 192.0, 0.0, 0.0, 0.0, 0.0, 0.0, 0.0, 0.0, 0.0, 0.0, 1.696029948833025E9, 0.0, 2023-09-29 18:25:48.833
220.0, 30322.398879814016, 51942.23546293205, 42396.23008921505, 6130.703524434987, 57571.56700749004, 47485.6105429662, -159086.08246875793, 41227.81499955833, 38132.52307564295, 66026.8296035325, 55158.49502783955, 12001.299798643566, 67388.96726238338, -129231.23737946003, 72773.23428073339, 53228.17602493478, 0.03, 1.022, 0.012, 192.0, 0.0, 0.0, 0.0, 0.0, 0.0, 0.0, 0.0, 0.0, 0.0, 1.696029948833029E9, 0.0, 2023-09-29 18:25:48.833
222.0, 30333.82062123068, 51946.41523914519, 42349.202018881086, 6126.143768566105, 57581.6923477283, 47427.04897249329, -159256.91685162985, 41165.05130112783, 38112.67472656664, 66042.69934209577, 55117.47957676406, 12005.345464389977, 67311.29495040119, -128657.60220975903, 72768.92039405351, 53347.80256125958, 0.024, 1.024, 0.006, 192.0, 0.0, 96.0, 16.0, 0.0, 0.0, 24.0, 0.0, 0.0, 0.0, 1.696029948833032E9, 0.0, 2023-09-29 18:25:48.833
224.0, 30334.401766586518, 51953.72425958208, 42397.97352528257, 6127.820149400252, 57576.4396877813, 47488.40451102311, -159087.3565181919, 41224.81986580132, 38136.85931406728, 66023.49919360867, 55158.740897028554, 12007.75945279115, 67395.8068961867, -129297.46559828111, 72764.31593469571, 53207.32184735798, 0.024, 1.024, 0.006, 192.0, 0.0, 0.0, 0.0, 0.0, 0.0, 0.0, 0.0, 0.0, 0.0, 1.696029948833035E9, 0.0, 2023-09-29 18:25:48.833
226.0, 30344.884734736057, 51958.57458812888, 42346.81038222437, 6126.859024388675, 57587.10146988648, 47438.13543774312, -159229.17833676082, 41167.442937784544, 38115.78161904593, 66050.61185963296, 55139.38428633026, 12010.173441192323, 67315.16180219196, -128653.71300622381, 72779.04573429177, 53360.92303525485, 0.024, 1.024, 0.006, 192.0, 0.0, 0.0, 0.0, 0.0, 0.0, 0.0, 0.0, 0.0, 0.0, 1.696029948893366E9, 0.0, 2023-09-29 18:25:48.893
228.0, 30343.163650412997, 51959.982748029564, 42403.025019529465, 6127.663687189065, 57584.2404465962, 47483.911810387595, -159081.63447161132, 41225.557473368346, 38138.133363501234, 66021.44283311878, 55155.99163246055, 12013.52620286062, 67383.7593059253, -129342.37025289182, 72755.17407121349, 53196.99534141962, 0.024, 1.024, 0.006, 192.0, 0.0, 0.0, 0.0, 0.0, 0.0, 0.0, 0.0, 0.0, 0.0, 1.696029948893381E9, 0.0, 2023-09-29 18:25:48.893
230.0, 30365.649505335037, 51979.965207572604, 42353.270036371956, 6138.839559416719, 57589.87308619894, 47439.74476334391, -159198.4670398792, 41181.68099900258, 38123.15769471618, 66068.06857205255, 55157.53390282797, 12018.823566296527, 67322.69434007339, -128667.5710877861, 72801.24101653589, 53380.70432909779, 0.024, 1.024, 0.006, 192.0, 0.0, 0.0, 0.0, 0.0, 0.0, 0.0, 0.0, 0.0, 0.0, 1.696029948893386E9, 0.0, 2023-09-29 18:25:48.893
232.0, 30372.667953094002, 51991.364597244814, 42413.44093244564, 6141.9017484070955, 57595.863353712964, 47483.911810387595, -159086.1048205024, 41228.485551891994, 38153.667825897675, 66030.11530996744, 55162.00425171903, 12030.312362946554, 67391.35889904009, -129355.49072688709, 72756.33636192518, 53201.845669966424, 0.026000000000000002, 1.026, 0.012, 192.0, 0.0, 104.0, 16.0, 8.0, 0.0, 48.0, 0.0, 0.0, 0.0, 1.696029948893404E9, 0.0, 2023-09-29 18:25:48.893
234.0, 30393.58918590417, 52011.54822248796, 42347.726803747035, 6145.567434497766, 57581.24531283919, 47449.75834485988, -159204.9266940268, 41182.843289714256, 38148.54927641741, 66099.27160731216, 55177.53871411547, 12043.723409619739, 67338.38526468101, -128727.27259722623, 72813.55682773076, 53388.68390186834, 0.026000000000000002, 1.026, 0.012, 192.0, 0.0, 0.0, 0.0, 0.0, 0.0, 0.0, 0.0, 0.0, 0.0, 1.696029948893408E9, 0.0, 2023-09-29 18:25:48.893
236.0, 30389.96820330241, 52008.01664686402, 42412.34569696733, 6133.475140747445, 57601.42893808233, 47470.83603988124, -159155.1270073804, 41214.13573195168, 38165.53660220344, 66042.96756302925, 55165.312309898414, 12043.946927064291, 67380.18302681245, -129408.73258217963, 72722.98755919785, 53180.186829589235, 0.026000000000000002, 1.026, 0.012, 192.0, 0.0, 0.0, 0.0, 0.0, 0.0, 0.0, 0.0, 0.0, 0.0, 1.696029948893411E9, 0.0, 2023-09-29 18:25:48.893
238.0, 30395.131456271585, 52009.73773118707, 42344.70931824557, 6126.836672644219, 57574.15980984686, 47444.460981423974, -159174.19304540075, 41180.63046701318, 38146.4035089497, 66107.56410450507, 55199.711644615134, 12040.929441562825, 67338.4970234033, -128815.04789770221, 72821.46934526793, 53373.3953086609, 0.026000000000000002, 1.026, 0.012, 192.0, 0.0, 0.0, 0.0, 0.0, 0.0, 0.0, 0.0, 0.0, 0.0, 1.696029948893414E9, 0.0, 2023-09-29 18:25:48.893
240.0, 30393.365668459617, 52006.42967300769, 42400.81219682839, 6123.595669698199, 57599.841964226005, 47453.46873443946, -159154.9705451692, 41196.63431604318, 38154.785413120444, 66037.91606878235, 55150.090771924355, 12032.994572281192, 67362.92748009294, -129361.54804963447, 72727.63672204455, 53182.51141101258, 0.026000000000000002, 1.026, 0.012, 192.0, 0.0, 0.0, 0.0, 0.0, 0.0, 0.0, 0.0, 0.0, 0.0, 1.696029948893418E9, 0.0, 2023-09-29 18:25:48.893
242.0, 30397.88072083959, 52013.96221088913, 42340.44013505461, 6117.225422528437, 57564.36974577543, 47439.856522066184, -159136.9550391382, 41179.17760362358, 38154.003102064504, 66117.60003776551, 55197.11884225832, 12038.224880483733, 67364.62621267154, -128887.13227357058, 72820.61997897863, 53358.35258464248, 0.026000000000000002, 1.024, 0.014, 192.0, 0.0, 104.0, 16.0, 0.0, 0.0, 56.0, 0.0, 0.0, 0.0, 1.696029948953522E9, 0.0, 2023-09-29 18:25:48.953
244.0, 30401.099372041153, 52017.85141442435, 42390.41863565667, 6125.5849749547215, 57600.91484795986, 47442.91871105656, -159171.10850466593, 41180.742225735456, 38156.26062825449, 66043.90633629636, 55139.116065396796, 12033.218089725744, 67361.25109925879, -129306.85333095233, 72729.916599979, 53193.62022800687, 0.026000000000000002, 1.024, 0.014, 192.0, 0.0, 0.0, 0.0, 0.0, 0.0, 0.0, 0.0, 0.0, 0.0, 1.696029948953533E9, 0.0, 2023-09-29 18:25:48.953
246.0, 30404.183912775985, 52028.15556861825, 42341.53537053292, 6122.098102819694, 57557.418353249835, 47449.13249601513, -159103.47212594416, 41183.84911821474, 38152.93021833065, 66113.06263364108, 55204.80784235094, 12045.399790453886, 67355.93138407843, -128980.40610318257, 72826.29732207028, 53346.12618042543, 0.026000000000000002, 1.024, 0.014, 192.0, 0.0, 0.0, 0.0, 0.0, 0.0, 0.0, 0.0, 0.0, 0.0, 1.696029948953536E9, 0.0, 2023-09-29 18:25:48.953
248.0, 30406.620252921613, 52024.84751043886, 42382.19319369712, 6118.9465068514955, 57598.7467287477, 47434.91678654156, -159169.25330987613, 41175.13193787717, 38151.07502354086, 66039.2348217052, 55142.22295787608, 12036.772017094137, 67344.28612521722, -129243.01674878798, 72736.80093727124, 53220.08469344195, 0.026000000000000002, 1.024, 0.014, 192.0, 0.0, 0.0, 0.0, 0.0, 0.0, 0.0, 0.0, 0.0, 0.0, 1.696029948953539E9, 0.0, 2023-09-29 18:25:48.953
250.0, 30414.465715225426, 52037.722115245124, 42355.88519047322, 6117.40423648408, 57561.173446318324, 47464.51049620038, -159070.65976508378, 41196.14257766516, 38158.96518933358, 66115.2084011088, 55209.59111566438, 12045.19862475379, 67362.18987252592, -129091.53897661436, 72816.12727834312, 53331.75400874067, 0.026000000000000002, 1.024, 0.014, 192.0, 0.0, 0.0, 0.0, 0.0, 0.0, 0.0, 0.0, 0.0, 0.0, 1.696029948953543E9, 0.0, 2023-09-29 18:25:48.953
252.0, 30431.45304101146, 52048.74152526159, 42384.89775477621, 6129.965916867962, 57605.56401080656, 47444.57274014625, -159183.08903969396, 41175.8695454442, 38152.88551484174, 66060.02194404864, 55147.52032131199, 12038.269583972644, 67335.94892453539, -129177.52613753393, 72738.87964950557, 53250.77363857909, 0.028, 1.024, 0.016, 192.0, 0.0, 112.0, 16.0, 0.0, 0.0, 64.0, 0.0, 0.0, 0.0, 1.696029948953546E9, 0.0, 2023-09-29 18:25:48.953
254.0, 30432.995311378876, 52058.620996310834, 42370.77145228046, 6129.854158145686, 57566.82843766552, 47477.49685972892, -159026.20214536216, 41213.5769383403, 38170.67750342817, 66138.34245662004, 55233.37337176483, 12058.922595849348, 67379.06543958967, -129187.33855334981, 72827.2360953374, 53323.37210456993, 0.028, 1.024, 0.016, 192.0, 0.0, 0.0, 0.0, 0.0, 0.0, 0.0, 0.0, 0.0, 0.0, 1.696029948953549E9, 0.0, 2023-09-29 18:25:48.953
0.0, 30453.871840700132, 52072.83670578441, 42377.67814131715, 6139.085428605727, 57616.51636558967, 47441.64466162261, -159191.38153688688, 41177.09889138924, 38165.60365743681, 66092.2978630421, 55164.10531569783, 12057.425028970842, 67337.06651175815, -129107.78869483338, 72755.17407121349, 53269.63851089937, 0.028, 1.024, 0.016, 192.0, 0.0, 0.0, 0.0, 0.0, 0.0, 0.0, 0.0, 0.0, 0.0, 1.696029949013857E9, 0.0, 2023-09-29 18:25:49.013
2.0, 30447.009855152355, 52074.06605172945, 42377.07464421685, 6131.30702153528, 57567.342527787994, 47478.34622601822, -159015.04862487898, 41222.02589774441, 38190.592907737846, 66150.07712245907, 55249.153703350275, 12074.635872201428, 67388.05084086071, -129310.78723797647, 72822.81044993526, 53288.59279019747, 0.028, 1.024, 0.016, 192.0, 0.0, 0.0, 0.0, 0.0, 0.0, 0.0, 0.0, 0.0, 0.0, 1.696029949013867E9, 0.0, 2023-09-29 18:25:49.013
4.0, 30458.56570703575, 52083.5431913785, 42366.412862111676, 6135.710315192976, 57604.98286545073, 47435.810856319775, -159191.11331595344, 41169.36518780771, 38170.230468539055, 66106.51357251569, 55176.711699570624, 12065.672822674851, 67332.81968031164, -129054.83741221875, 72761.79018757227, 53299.32162753602, 0.028, 1.024, 0.016, 192.0, 0.0, 0.0, 0.0, 0.0, 0.0, 0.0, 0.0, 0.0, 0.0, 1.696029949013871E9, 0.0, 2023-09-29 18:25:49.013
6.0, 30460.97969543692, 52095.680188617735, 42388.89871703371, 6140.873568162152, 57576.90907441486, 47491.19847908002, -159019.27310458102, 41230.05017400386, 38193.61039323931, 66153.13931144946, 55250.763028951056, 12082.414279271876, 67403.8088207017, -129413.35939328188, 72811.07578409622, 53278.31098774803, 0.028, 1.02, 0.012, 192.0, 0.0, 112.0, 15.5, 112.0, 0.0, 48.0, 0.0, 0.0, 0.0, 1.696029949013874E9, 0.0, 2023-09-29 18:25:49.013
