%OpenBCI Raw EXG Data
%Number of channels = 16
%Sample Rate = 125 Hz
%Board = OpenBCI_GUI$BoardCytonSerialDaisy
Sample Index, EXG Channel 0, EXG Channel 1, EXG Channel 2, EXG Channel 3, EXG Channel 4, EXG Channel 5, EXG Channel 6, EXG Channel 7, EXG Channel 8, EXG Channel 9, EXG Channel 10, EXG Channel 11, EXG Channel 12, EXG Channel 13, EXG Channel 14, EXG Channel 15, Accel Channel 0, Accel Channel 1, Accel Channel 2, Other, Other, Other, Other, Other, Other, Other, Analog Channel 0, Analog Channel 1, Analog Channel 2, Timestamp, Other, Timestamp (Formatted)
56.0, 35244.58828503946, 50192.83147964853, -19386.539684121573, -26169.914146651525, 10617.503299415506, 9159.700174295924, -187500.02235174447, -23017.26764646383, 15190.24553182668, -27627.76197526002, 52339.515368880675, -26822.40627079085, 9273.850533229177, -23588.689993463755, -30596.9230052141, -20352.224451568658, 0.0, 0.0, 0.0, 192.0, 0.0, 0.0, 0.0, 0.0, 0.0, 0.0, 0.0, 0.0, 0.0, 1.695766871736784E9, 0.0, 2023-09-26 17:21:11.736
58.0, 35226.37161330839, 50169.78683111511, -19399.011957527633, -26191.595338773175, 10601.342988174318, 9114.929630151944, -187500.02235174447, -23052.628106192125, 15179.494342743677, -27638.46846085411, 52451.00587022375, -26832.464555795737, 9276.152762908074, -23600.29054883606, -30597.615909292213, -20232.977894899595, 0.0, 0.0, 0.0, 192.0, 0.0, 0.0, 0.0, 0.0, 0.0, 0.0, 0.0, 0.0, 0.0, 1.695766871736794E9, 0.0, 2023-09-26 17:21:11.736
60.0, 35224.672880729784, 50168.84805784799, -19397.804963327046, -26187.52732128231, 10606.595648121316, 9133.61568851658, -187500.02235174447, -23027.79531810228, 15175.113400830436, -27653.04179823897, 52333.12276996646, -26845.49562281318, 9262.942881934987, -23613.589836786967, -30603.29325238386, -20352.55972773549, 0.0, 0.0, 0.0, 192.0, 0.0, 0.0, 0.0, 0.0, 0.0, 0.0, 0.0, 0.0, 0.0, 1.695766871736799E9, 0.0, 2023-09-26 17:21:11.736
62.0, 35233.99355816765, 50173.60897941697, -19396.9779487822, -26183.23578634689, 10597.230267194542, 9120.361104054584, -187500.02235174447, -23049.208289290465, 15179.360232276946, -27651.700693571653, 52431.98453569228, -26834.677378496814, 9272.6882425175, -23608.91832219581, -30603.025031450397, -20252.15569164225, 0.026000000000000002, 0.489, 0.124, 192.0, 0.5, 80.0, 15.0, 72.0, 3.5, 96.0, 0.0, 0.0, 0.0, 1.695766871736817E9, 0.0, 2023-09-26 17:21:11.736
64.0, 35230.73020347717, 50170.21151425976, -19398.78844008308, -26180.41946654552, 10607.065034754878, 9123.624458745058, -187500.02235174447, -23035.171393772533, 15181.662461955842, -27647.029178980494, 52329.3006216646, -26835.63850350839, 9262.607605768157, -23604.00093841564, -30603.829694250788, -20367.155416864804, 0.026000000000000002, 0.489, 0.124, 192.0, 0.0, 0.0, 0.0, 0.0, 0.0, 0.0, 0.0, 0.0, 0.0, 1.695766871736821E9, 0.0, 2023-09-26 17:21:11.736
66.0, 35232.80891571152, 50175.41947071785, -19402.32001570702, -26187.214396859934, 10604.80750856489, 9134.04037166123, -187500.02235174447, -23044.33560899921, 15180.343709032979, -27645.978646991094, 52414.23725059477, -26835.280875597105, 9268.530818048814, -23606.05729890553, -30603.270900639403, -20271.86993025183, 0.026000000000000002, 0.489, 0.124, 192.0, 0.0, 0.0, 0.0, 0.0, 0.0, 0.0, 0.0, 0.0, 0.0, 1.695766871736824E9, 0.0, 2023-09-26 17:21:11.736
68.0, 35226.32690981947, 50165.51764792415, -19408.08676577649, -26190.969489928426, 10602.52763063045, 9116.04721737471, -187500.02235174447, -23037.11599554014, 15181.349537533468, -27646.246867924558, 52340.09651423652, -26841.628771022413, 9260.171265622528, -23608.225418117694, -30603.00267970594, -20349.20696606719, 0.026000000000000002, 0.489, 0.124, 192.0, 0.0, 0.0, 0.0, 0.0, 0.0, 0.0, 0.0, 0.0, 0.0, 1.695766871736827E9, 0.0, 2023-09-26 17:21:11.736
70.0, 35236.40754656882, 50177.96756958575, -19400.286006961585, -26189.114295138635, 10603.041720752923, 9141.930537453954, -187500.02235174447, -23031.79628035978, 15176.901540386862, -27654.4276063952, 52423.51322454372, -26839.50535529916, 9268.307300604261, -23618.373110100405, -30608.05417395284, -20253.87677596531, 0.026000000000000002, 0.489, 0.124, 192.0, 0.0, 0.0, 0.0, 0.0, 0.0, 0.0, 0.0, 0.0, 0.0, 1.695766871736831E9, 0.0, 2023-09-26 17:21:11.736
72.0, 35239.22386637019, 50170.725604382234, -19386.8749602884, -26174.473902520407, 10610.775424334459, 9107.732368437335, -187500.02235174447, -23033.003274560368, 15190.916084160339, -27640.524821344, 52355.675680121865, -26830.564657517036, 9271.749469250379, -23609.745336740656, -30592.5197115564, -20332.085529814427, 0.04, 0.7355, 0.187, 192.0, 0.5, 88.0, 15.0, 88.0, 3.5, 104.0, 0.0, 0.0, 0.0, 1.695766871736834E9, 0.0, 2023-09-26 17:21:11.736
0.0, 17560.268051656254, 25101.00902330983, -9678.886494503797, -13065.712221349744, 5350.828808644868, 4628.286317382613, -93750.01117587223, -11440.002791881894, 7592.395853089793, -13820.105948460812, 26162.672181448008, -13411.270190628791, 4640.065686710559, -11802.928066602715, -15295.969283100283, -10176.033994678735, 0.054, 0.976, 0.262, 192.0, 0.5, 88.0, 15.0, 64.0, 4.0, 24.0, 0.0, 0.0, 0.0, 1.695766871877955E9, 0.0, 2023-09-26 17:21:11.877
2.0, 35116.40103058828, 50180.515668453656, -19359.851701241936, -26137.861745102615, 10677.450678044639, 9174.921712269988, -187500.02235174447, -22923.613837196095, 15268.007250786693, -27559.92443083816, 52503.107786549066, -26751.797110056534, 9363.32456628377, -23502.635777310825, -30512.99220478442, -20086.819837906343, 0.054, 0.976, 0.262, 192.0, 0.0, 0.0, 0.0, 0.0, 0.0, 0.0, 0.0, 0.0, 0.0, 1.695766871877969E9, 0.0, 2023-09-26 17:21:11.877
4.0, 35122.61481554685, 50201.280439052636, -19357.951802963235, -26135.425404956986, 10710.486556349582, 9239.026515367808, -187500.02235174447, -22878.48566514083, 15268.431933931344, -27557.108111036792, 52392.9136863844, -26749.181955955264, 9370.722993698477, -23504.98271047863, -30514.13214375164, -20192.3647752243, 0.054, 0.976, 0.262, 192.0, 0.0, 0.0, 0.0, 0.0, 0.0, 0.0, 0.0, 0.0, 0.0, 1.695766871877973E9, 0.0, 2023-09-26 17:21:11.877
6.0, 35123.732402769616, 50185.27659002264, -19360.9692884647, -26140.65571315953, 10673.002680898033, 9162.471790608382, -187500.02235174447, -22931.414596010996, 15274.086925278536, -27559.432692460145, 52510.81913838615, -26750.835985044956, 9369.158371586605, -23508.22371342465, -30515.585007141235, -20093.950044387584, 0.054, 0.976, 0.262, 192.0, 0.0, 0.0, 0.0, 0.0, 0.0, 0.0, 0.0, 0.0, 0.0, 1.695766871877976E9, 0.0, 2023-09-26 17:21:11.877
8.0, 35121.45252483518, 50193.32321802655, -19366.132541433875, -26140.63336141507, 10707.133794681287, 9235.114960088129, -187500.02235174447, -22878.552720374195, 15266.822608330562, -27564.037151817938, 52373.914703597395, -26755.90983103631, 9361.916406383087, -23512.828172782443, -30525.889161335133, -20214.358891768326, 0.052000000000000005, 0.98, 0.266, 192.0, 0.5, 80.0, 15.0, 80.0, 4.0, 40.0, 0.0, 0.0, 0.0, 1.69576687187798E9, 0.0, 2023-09-26 17:21:11.877
10.0, 35122.52540856903, 50181.9461800988, -19365.864320500412, -26140.163974781513, 10670.745154708047, 9167.05389822172, -187500.02235174447, -22936.421386768983, 15264.565082140576, -27566.093512307827, 52535.56251949818, -26760.223717716184, 9363.257511050406, -23513.521076860558, -30521.351757210705, -20060.243613748982, 0.052000000000000005, 0.98, 0.266, 192.0, 0.0, 0.0, 0.0, 0.0, 0.0, 0.0, 0.0, 0.0, 0.0, 1.695766871877983E9, 0.0, 2023-09-26 17:21:11.877
12.0, 35120.60315854587, 50193.68084593783, -19364.322050132996, -26133.681968889472, 10706.418538858718, 9226.73305591739, -187500.02235174447, -22883.537159387728, 15274.444553189822, -27563.098378550814, 52369.019671561684, -26748.891383277343, 9362.966938372487, -23509.31894890296, -30516.926111808552, -20215.789403413466, 0.052000000000000005, 0.98, 0.266, 192.0, 0.0, 0.0, 0.0, 0.0, 0.0, 0.0, 0.0, 0.0, 0.0, 1.695766871877987E9, 0.0, 2023-09-26 17:21:11.877
14.0, 35122.52540856903, 50185.187183044814, -19365.819617011504, -26135.49246019035, 10680.11053563482, 9182.34249142915, -187500.02235174447, -22923.43502324045, 15271.874102577462, -27572.441407733135, 52518.61989720105, -26751.238316445153, 9369.851275664721, -23511.576475092945, -30516.121449008162, -20083.46707623805, 0.052000000000000005, 0.98, 0.266, 192.0, 0.0, 0.0, 0.0, 0.0, 0.0, 0.0, 0.0, 0.0, 0.0, 1.69576687187799E9, 0.0, 2023-09-26 17:21:11.877
16.0, 35121.497228324086, 50188.137613312916, -19367.563053079015, -26129.50219267633, 10703.222239401608, 9227.403608251048, -187500.02235174447, -22877.546891873706, 15274.444553189822, -27571.904965866204, 52360.68247087985, -26752.467662390194, 9367.705508197012, -23507.687271557723, -30515.294434463318, -20223.366644783815, 0.052000000000000005, 0.98, 0.266, 192.0, 0.0, 0.0, 0.0, 0.0, 0.0, 0.0, 0.0, 0.0, 0.0, 1.695766871937758E9, 0.0, 2023-09-26 17:21:11.937
18.0, 35128.00158596058, 50187.35530225698, -19366.06548620051, -26130.284503732266, 10674.701413476636, 9194.613599135113, -187500.02235174447, -22920.752813905816, 15270.3541839545, -27580.73390492605, 52518.86576639006, -26746.455043131715, 9375.036880378351, -23511.151791948294, -30520.83766708823, -20077.566215701845, 0.054, 0.974, 0.264, 192.0, 0.5, 88.0, 15.0, 56.0, 4.0, 32.0, 0.0, 0.0, 0.0, 1.69576687193777E9, 0.0, 2023-09-26 17:21:11.937
20.0, 35124.201789403174, 50190.05986333607, -19359.53877681956, -26127.222314741888, 10705.703283036148, 9217.658247668534, -187500.02235174447, -22881.123170986557, 15275.07040203457, -27578.74459966953, 52377.066299565595, -26746.76796755409, 9365.939720385042, -23509.162486691774, -30516.769649597365, -20208.167458554206, 0.054, 0.974, 0.264, 192.0, 0.0, 0.0, 0.0, 0.0, 0.0, 0.0, 0.0, 0.0, 0.0, 1.695766871937774E9, 0.0, 2023-09-26 17:21:11.937
22.0, 35131.8907894958, 50192.74207267071, -19362.69037278776, -26130.97740781038, 10686.771355482502, 9196.871125325099, -187500.02235174447, -22909.1075550446, 15271.672936877363, -27582.454989249112, 52510.97560059734, -26743.8622407749, 9378.277883324372, -23512.22467568215, -30511.338175694727, -20084.294090782892, 0.054, 0.974, 0.264, 192.0, 0.0, 0.0, 0.0, 0.0, 0.0, 0.0, 0.0, 0.0, 0.0, 1.695766871937777E9, 0.0, 2023-09-26 17:21:11.937
24.0, 35120.17847540122, 50188.38348250192, -19367.563053079015, -26131.066814788202, 10697.388434098773, 9204.738939373367, -187500.02235174447, -22888.074563512157, 15276.21034100179, -27571.167358299183, 52367.52210468318, -26741.224734929176, 9362.89988313912, -23508.42487912475, -30515.160323996584, -20221.28793254947, 0.054, 0.974, 0.264, 192.0, 0.0, 0.0, 0.0, 0.0, 0.0, 0.0, 0.0, 0.0, 0.0, 1.695766871937781E9, 0.0, 2023-09-26 17:21:11.937
26.0, 35125.72170802614, 50195.80426166109, -19368.904157746336, -26134.419576456497, 10681.675157746693, 9208.784605119778, -187500.02235174447, -22905.15129627601, 15261.391134427922, -27576.330611268357, 52499.553859180676, -26743.90694426381, 9369.694813453534, -23516.18093445074, -30525.19625725702, -20091.06666935285, 0.054, 0.974, 0.264, 192.0, 0.0, 0.0, 0.0, 0.0, 0.0, 0.0, 0.0, 0.0, 0.0, 1.695766871937784E9, 0.0, 2023-09-26 17:21:11.937
28.0, 35125.118210925844, 50193.05499709309, -19363.629146054882, -26128.876343831584, 10695.130907908788, 9187.036357764764, -187500.02235174447, -22900.368022962575, 15276.769134613174, -27563.79128262893, 52391.19260206135, -26739.503650606115, 9362.654013950112, -23506.636739568323, -30518.6024926427, -20189.436696700657, 0.062, 0.978, 0.268, 192.0, 0.5, 120.0, 15.0, 72.0, 4.0, 48.0, 0.0, 0.0, 0.0, 1.695766871937787E9, 0.0, 2023-09-26 17:21:11.937
30.0, 35131.39905111778, 50203.49326175371, -19361.326916375987, -26132.87730608908, 10688.470088061105, 9214.886631356077, -187500.02235174447, -22907.900560844013, 15266.420276930367, -27571.6590966772, 52493.49653643329, -26743.616371585893, 9373.248740821928, -23516.4491553842, -30523.22930374495, -20092.11720134225, 0.062, 0.978, 0.268, 192.0, 0.0, 0.0, 0.0, 0.0, 0.0, 0.0, 0.0, 0.0, 0.0, 1.69576687199799E9, 0.0, 2023-09-26 17:21:11.997
32.0, 35123.71005102516, 50185.611866189465, -19363.852663499434, -26133.63726540056, 10688.626550272293, 9166.80802903271, -187500.02235174447, -22930.408767510507, 15278.40081195841, -27560.684390149643, 52409.27516332569, -26744.555144853013, 9365.403278518115, -23509.40835588078, -30520.010652543388, -20176.025650027474, 0.062, 0.978, 0.268, 192.0, 0.0, 0.0, 0.0, 0.0, 0.0, 0.0, 0.0, 0.0, 0.0, 1.695766871998004E9, 0.0, 2023-09-26 17:21:11.998
34.0, 35113.96469044265, 50190.03751159162, -19374.13446594888, -26142.712073649418, 10697.075509676399, 9235.07025659922, -187500.02235174447, -22892.142581003023, 15262.26285246168, -27573.044904833427, 52459.74540230577, -26751.48418563416, 9372.466429765991, -23517.723204818154, -30529.28662649234, -20125.98009419204, 0.062, 0.978, 0.268, 192.0, 0.0, 0.0, 0.0, 0.0, 0.0, 0.0, 0.0, 0.0, 0.0, 1.695766871998008E9, 0.0, 2023-09-26 17:21:11.998
36.0, 35110.14254214079, 50167.90928458086, -19370.669945558304, -26140.65571315953, 10685.653768259737, 9168.350299400128, -187500.02235174447, -22925.73725291935, 15264.386268184933, -27571.055599576903, 52441.75224801925, -26764.090569506952, 9355.121476068673, -23511.26355067057, -30527.453783447003, -20133.199707651103, 0.062, 0.978, 0.268, 192.0, 0.0, 0.0, 0.0, 0.0, 0.0, 0.0, 0.0, 0.0, 0.0, 1.695766871998011E9, 0.0, 2023-09-26 17:21:11.998
38.0, 35120.60315854587, 50190.372787758446, -19360.946936720247, -26131.60325665513, 10706.440890603173, 9234.466759498926, -187500.02235174447, -22880.00558376379, 15261.033506516636, -27571.189710043636, 52443.339221875576, -26761.408360172318, 9370.387717531648, -23512.425841382246, -30522.581103155746, -20127.924695959653, 0.056, 0.98, 0.266, 192.0, 0.5, 96.0, 15.0, 80.0, 4.0, 40.0, 0.0, 0.0, 0.0, 1.695766871998014E9, 0.0, 2023-09-26 17:21:11.998
40.0, 35114.72464975413, 50175.73239514022, -19361.438675098263, -26133.346692722644, 10686.458431060128, 9167.210360432908, -187500.02235174447, -22919.881095872057, 15271.762343855185, -27561.757273883497, 52441.28286138569, -26752.40060715683, 9365.827961662766, -23505.40739362328, -30510.46645766097, -20134.563164062878, 0.056, 0.98, 0.266, 192.0, 0.0, 0.0, 0.0, 0.0, 0.0, 0.0, 0.0, 0.0, 0.0, 1.695766871998017E9, 0.0, 2023-09-26 17:21:11.998
42.0, 35120.089068423404, 50194.50786048268, -19367.227776912187, -26138.308779991723, 10704.943323724667, 9239.182977578996, -187500.02235174447, -22880.877301797547, 15264.788599585128, -27572.016724588484, 52420.18281461988, -26756.312162436505, 9367.95137738602, -23514.549257105504, -30526.22443750196, -20151.28226891545, 0.056, 0.98, 0.266, 192.0, 0.0, 0.0, 0.0, 0.0, 0.0, 0.0, 0.0, 0.0, 0.0, 1.695766871998021E9, 0.0, 2023-09-26 17:21:11.998
44.0, 35114.45642882066, 50166.47877293573, -19376.056715972034, -26147.763567896316, 10676.802477455436, 9155.073363193675, -187500.02235174447, -22929.469994243384, 15265.861483318984, -27572.3072972664, 52466.562684364646, -26761.63187761687, 9356.820208647277, -23517.45498388469, -30526.269140990873, -20107.182277105127, 0.056, 0.98, 0.266, 192.0, 0.0, 0.0, 0.0, 0.0, 0.0, 0.0, 0.0, 0.0, 0.0, 1.695766871998024E9, 0.0, 2023-09-26 17:21:11.998
46.0, 35113.65176602027, 50185.20953478927, -19373.598024081948, -26144.36610273911, 10711.000646472055, 9234.533814732291, -187500.02235174447, -22878.128037229544, 15264.02864027365, -27575.727114168065, 52390.32088402759, -26762.43654041726, 9366.476162251969, -23519.488992630126, -30528.928998581054, -20172.80699882591, 0.056, 0.98, 0.266, 192.0, 0.0, 0.0, 0.0, 0.0, 0.0, 0.0, 0.0, 0.0, 0.0, 1.695766872058355E9, 0.0, 2023-09-26 17:21:12.058
48.0, 35108.57792002892, 50167.14932526938, -19370.491131602663, -26143.293219005256, 10680.266997846007, 9150.647717791524, -187500.02235174447, -22933.71682568989, 15266.219111230268, -27577.671715935674, 52473.536428634696, -26767.35392419743, 9361.067040093785, -23520.60657985289, -30526.09032703523, -20101.5943409913, 0.052000000000000005, 0.978, 0.26, 192.0, 0.5, 80.0, 15.0, 72.0, 4.0, 16.0, 0.0, 0.0, 0.0, 1.695766872058366E9, 0.0, 2023-09-26 17:21:12.058
50.0, 35116.37867884382, 50189.5457732136, -19374.69325956026, -26143.2708672608, 10699.511849822027, 9231.337515275183, -187500.02235174447, -22877.25631919579, 15262.464018161776, -27578.69989618062, 52375.70284315382, -26756.826252558978, 9368.085487852752, -23518.349053662903, -30525.039795045832, -20185.36867920979, 0.052000000000000005, 0.978, 0.26, 192.0, 0.0, 0.0, 0.0, 0.0, 0.0, 0.0, 0.0, 0.0, 0.0, 1.69576687205837E9, 0.0, 2023-09-26 17:21:12.058
52.0, 35122.23483589111, 50178.481659708224, -19376.391992138862, -26144.1202335501, 10670.767506452503, 9158.023793461776, -187500.02235174447, -22927.704206431416, 15268.253119975701, -27575.302431023414, 52488.15446950847, -26759.687275849257, 9361.871702894176, -23515.376271650348, -30530.024234059365, -20079.868445380744, 0.052000000000000005, 0.978, 0.26, 192.0, 0.0, 0.0, 0.0, 0.0, 0.0, 0.0, 0.0, 0.0, 0.0, 1.695766872058373E9, 0.0, 2023-09-26 17:21:12.058
54.0, 35118.63620503381, 50187.33295051253, -19376.682564816783, -26141.549782937742, 10706.217373158619, 9233.192710064974, -187500.02235174447, -22870.528444114738, 15272.343489211022, -27582.56674797139, 52357.66498537839, -26758.39087467085, 9366.677327952068, -23517.812611795976, -30522.26817873337, -20195.67283340369, 0.052000000000000005, 0.978, 0.26, 192.0, 0.0, 0.0, 0.0, 0.0, 0.0, 0.0, 0.0, 0.0, 0.0, 1.695766872058376E9, 0.0, 2023-09-26 17:21:12.058
56.0, 35118.90442596727, 50173.78779337261, -19368.88180600188, -26135.425404956986, 10678.903541434234, 9167.389174388549, -187500.02235174447, -22914.404918480508, 15270.130666509947, -27583.93020438316, 52490.389643954, -26761.073084005486, 9367.861970408198, -23516.51621061757, -30516.61318738618, -20076.895663368185, 0.052000000000000005, 0.978, 0.26, 192.0, 0.0, 0.0, 0.0, 0.0, 0.0, 0.0, 0.0, 0.0, 0.0, 1.695766872058379E9, 0.0, 2023-09-26 17:21:12.058
58.0, 35110.12019039634, 50184.159002799875, -19374.380335137885, -26136.3194747352, 10708.296085392964, 9238.73594268989, -187500.02235174447, -22867.846234780103, 15272.075268277558, -27580.3092217814, 52338.50954038019, -26750.14308096684, 9371.102973354218, -23510.905922759288, -30509.974719282953, -20218.136336581272, 0.052000000000000005, 0.976, 0.262, 192.0, 0.5, 80.0, 15.0, 64.0, 4.0, 24.0, 0.0, 0.0, 0.0, 1.695766872058383E9, 0.0, 2023-09-26 17:21:12.058
60.0, 35117.51861781104, 50179.71100565327, -19369.105323446434, -26138.487593947364, 10686.100803148844, 9173.871180280588, -187500.02235174447, -22919.188191793943, 15261.949928039305, -27590.300451552925, 52526.64417346051, -26755.596906613937, 9367.839618663744, -23520.98655950863, -30515.987338541432, -20042.876308307208, 0.052000000000000005, 0.976, 0.262, 192.0, 0.0, 0.0, 0.0, 0.0, 0.0, 0.0, 0.0, 0.0, 0.0, 1.695766872118525E9, 0.0, 2023-09-26 17:21:12.118
62.0, 35113.40589683127, 50181.7450143987, -19371.720477547704, -26141.92976259348, 10716.186251185687, 9224.989619849875, -187500.02235174447, -22871.780141804236, 15277.707907880296, -27583.058486349404, 52352.07704926456, -26749.204307699718, 9373.159333844105, -23513.23050418264, -30507.158399481585, -20209.776784154987, 0.052000000000000005, 0.976, 0.262, 192.0, 0.0, 0.0, 0.0, 0.0, 0.0, 0.0, 0.0, 0.0, 0.0, 1.695766872118539E9, 0.0, 2023-09-26 17:21:12.118
64.0, 35122.59246380239, 50176.58176142952, -19371.02757346959, -26145.438986472964, 10687.955997938634, 9175.122877970085, -187500.02235174447, -22923.07739532917, 15267.78373334214, -27592.625032976277, 52517.41290300047, -26753.741711824146, 9378.568456002291, -23525.94864677771, -30513.260425717883, -20054.54391891288, 0.052000000000000005, 0.976, 0.262, 192.0, 0.0, 0.0, 0.0, 0.0, 0.0, 0.0, 0.0, 0.0, 0.0, 1.695766872118542E9, 0.0, 2023-09-26 17:21:12.118
66.0, 35124.648824292286, 50182.86260162146, -19369.239433913164, -26133.145527022545, 10708.49725109306, 9215.02074182281, -187500.02235174447, -22875.736400572827, 15274.757477612196, -27581.672678193176, 52360.6601191354, -26748.69021757725, 9371.192380332039, -23515.912713517275, -30511.628748372645, -20200.52316195049, 0.052000000000000005, 0.976, 0.262, 192.0, 0.0, 0.0, 0.0, 0.0, 0.0, 0.0, 0.0, 0.0, 0.0, 1.695766872118546E9, 0.0, 2023-09-26 17:21:12.118
68.0, 35128.828600505425, 50185.14247955591, -19371.69812580325, -26134.2184107564, 10687.799535727447, 9187.014006020308, -187500.02235174447, -22911.14156379003, 15273.125800266958, -27583.304355538414, 52511.40028374199, -26743.012874485597, 9378.322586813281, -23517.209114695685, -30517.57431239776, -20065.54097718489, 0.05, 0.972, 0.266, 192.0, 0.5, 72.0, 15.0, 48.0, 4.0, 40.0, 0.0, 0.0, 0.0, 1.695766872118549E9, 0.0, 2023-09-26 17:21:12.118
70.0, 35116.110457910356, 50180.35920624247, -19380.392954396364, -26138.577000925186, 10699.26598063302, 9195.48531716887, -187500.02235174447, -22892.67902286995, 15277.88672183594, -27580.041000847938, 52365.868075593484, -26743.70577856371, 9364.620967462179, -23513.588132093922, -30520.681204877044, -20199.964368339108, 0.05, 0.972, 0.266, 192.0, 0.0, 0.0, 0.0, 0.0, 0.0, 0.0, 0.0, 0.0, 0.0, 1.695766872118552E9, 0.0, 2023-09-26 17:21:12.118
72.0, 35116.80336198847, 50184.44957547779, -19380.92939626329, -26142.89088760506, 10686.234913615575, 9199.754500359833, -187500.02235174447, -22907.364118977086, 15265.615614129974, -27592.334460298356, 52506.99699008429, -26753.317028679496, 9369.627758220167, -23523.02056825406, -30525.62094040167, -20068.513759197445, 0.05, 0.972, 0.266, 192.0, 0.0, 0.0, 0.0, 0.0, 0.0, 0.0, 0.0, 0.0, 0.0, 1.695766872118555E9, 0.0, 2023-09-26 17:21:12.118
74.0, 35118.3903358448, 50180.090985309005, -19376.526102605596, -26135.380701468075, 10697.768413754513, 9186.991654275853, -187500.02235174447, -22899.518656673274, 15272.276433977657, -27585.293660794934, 52396.51231724171, -26748.57845885497, 9358.47423773697, -23519.33253041894, -30518.33427170924, -20169.6106993688, 0.05, 0.972, 0.266, 192.0, 0.0, 0.0, 0.0, 0.0, 0.0, 0.0, 0.0, 0.0, 0.0, 1.695766872118558E9, 0.0, 2023-09-26 17:21:12.118
76.0, 35125.9899289596, 50188.58464820202, -19374.581500837983, -26131.089166532656, 10688.537143294472, 9202.7719858613, -187500.02235174447, -22903.229046252854, 15270.980032799249, -27584.287832294445, 52497.56455392415, -26741.180031440264, 9374.679252467067, -23519.667806585767, -30513.908626307086, -20077.342698257293, 0.05, 0.972, 0.266, 192.0, 0.0, 0.0, 0.0, 0.0, 0.0, 0.0, 0.0, 0.0, 0.0, 1.695766872177771E9, 0.0, 2023-09-26 17:21:12.177
78.0, 35112.534178797505, 50168.64689214789, -19377.822503784002, -26134.06194854521, 10693.007492185532, 9179.995558261342, -187500.02235174447, -22903.76548811978, 15274.489256678733, -27581.94089912664, 52393.27131429569, -26745.38215939786, 9361.335261027249, -23514.102222216396, -30518.289568220327, -20179.199597740128, 0.048, 0.968, 0.272, 192.0, 0.5, 64.0, 15.0, 32.0, 4.0, 64.0, 0.0, 0.0, 0.0, 1.695766872177783E9, 0.0, 2023-09-26 17:21:12.177
80.0, 35118.1891701447, 50180.225095775735, -19381.08585847448, -26146.690684162462, 10692.40399508524, 9212.338532488171, -187500.02235174447, -22898.44577293942, 15263.223977473257, -27598.83881793485, 52497.788071368705, -26753.741711824146, 9371.14767684313, -23528.56380087898, -30520.61414964368, -20073.006459832963, 0.048, 0.968, 0.272, 192.0, 0.0, 0.0, 0.0, 0.0, 0.0, 0.0, 0.0, 0.0, 0.0, 1.695766872177787E9, 0.0, 2023-09-26 17:21:12.177
82.0, 35120.2902341235, 50173.05018580559, -19372.59219558146, -26139.82869861468, 10690.168820639708, 9160.549540585225, -187500.02235174447, -22916.371871992575, 15274.73512586774, -27588.3111462964, 52428.83293972408, -26754.948706024734, 9361.312909282793, -23526.50744038909, -30518.066050775775, -20139.03351295394, 0.048, 0.968, 0.272, 192.0, 0.0, 0.0, 0.0, 0.0, 0.0, 0.0, 0.0, 0.0, 0.0, 1.69576687217779E9, 0.0, 2023-09-26 17:21:12.177
84.0, 35132.00254821808, 50191.4456714923, -19363.249166399142, -26131.82677409968, 10709.771300527012, 9223.313239015728, -187500.02235174447, -22883.939490787925, 15279.428992203355, -27587.417076518188, 52449.64241381198, -26744.48808961965, 9383.23997059345, -23523.333492676436, -30507.963062281975, -20119.542791788914, 0.048, 0.968, 0.272, 192.0, 0.0, 0.0, 0.0, 0.0, 0.0, 0.0, 0.0, 0.0, 0.0, 1.695766872177793E9, 0.0, 2023-09-26 17:21:12.177
86.0, 35122.03367019101, 50176.58176142952, -19371.854588014437, -26135.2689427458, 10691.889904962767, 9166.673918565979, -187500.02235174447, -22908.191133521934, 15286.112163795491, -27579.191634558636, 52414.19254710586, -26743.28109541906, 9373.315796055293, -23516.829135039945, -30507.828951815245, -20158.524234118966, 0.048, 0.968, 0.272, 192.0, 0.0, 0.0, 0.0, 0.0, 0.0, 0.0, 0.0, 0.0, 0.0, 1.695766872177797E9, 0.0, 2023-09-26 17:21:12.177
88.0, 35122.10072542438, 50191.98211335923, -19377.151951450345, -26141.12509979309, 10701.098823678354, 9231.24810829736, -187500.02235174447, -22878.86564479657, 15273.394021200422, -27591.84272192034, 52429.145864146456, -26748.399644899328, 9381.831810692765, -23527.043882256017, -30517.9542920535, -20140.3522658768, 0.048, 0.976, 0.266, 192.0, 0.5, 64.0, 15.0, 64.0, 4.0, 40.0, 0.0, 0.0, 0.0, 1.6957668721778E9, 0.0, 2023-09-26 17:21:12.177
90.0, 35123.41947834724, 50176.78292712962, -19371.988698481167, -26134.55368692323, 10683.686814747669, 9157.643813806035, -187500.02235174447, -22920.685758672447, 15280.412468959388, -27587.70764919611, 52461.08650697309, -26746.499746620626, 9369.918330898086, -23522.014739753573, -30519.13893450963, -20115.586533020323, 0.048, 0.976, 0.266, 192.0, 0.0, 0.0, 0.0, 0.0, 0.0, 0.0, 0.0, 0.0, 0.0, 1.695766872238391E9, 0.0, 2023-09-26 17:21:12.238
92.0, 35120.73726901261, 50193.859659893475, -19371.094628702955, -26133.45845144492, 10713.772262784512, 9235.584346721691, -187500.02235174447, -22872.67421158245, 15276.098582279514, -27587.640593962744, 52418.39467506346, -26739.950685495223, 9382.927046171075, -23521.858277542386, -30509.7512018384, -20155.529100361957, 0.048, 0.976, 0.266, 192.0, 0.0, 0.0, 0.0, 0.0, 0.0, 0.0, 0.0, 0.0, 0.0, 1.695766872238406E9, 0.0, 2023-09-26 17:21:12.238
94.0, 35119.038536434, 50175.6429881624, -19375.386163638374, -26134.97837006788, 10681.652806002237, 9153.017002703788, -187500.02235174447, -22928.240648298342, 15276.322099724068, -27592.714439954096, 52488.10976601956, -26750.500708878128, 9371.840580921244, -23527.42386191176, -30512.61222512868, -20095.581721732822, 0.048, 0.976, 0.266, 192.0, 0.0, 0.0, 0.0, 0.0, 0.0, 0.0, 0.0, 0.0, 0.0, 1.695766872238409E9, 0.0, 2023-09-26 17:21:12.238
96.0, 35114.41172533175, 50191.82565114804, -19382.851646286446, -26133.592561911653, 10711.69355055017, 9242.647497969569, -187500.02235174447, -22864.158196944976, 15275.07040203457, -27592.446219020632, 52399.932134143375, -26744.219868686185, 9379.440174036048, -23522.260608942583, -30515.18267574104, -20176.964423294598, 0.048, 0.976, 0.266, 192.0, 0.0, 0.0, 0.0, 0.0, 0.0, 0.0, 0.0, 0.0, 0.0, 1.695766872238413E9, 0.0, 2023-09-26 17:21:12.238
98.0, 35111.6848125082, 50173.00548231667, -19386.40557365484, -26139.426367214488, 10677.674195489191, 9161.331851641162, -187500.02235174447, -22929.15706982101, 15272.052916533105, -27590.143989341737, 52504.359484238565, -26753.518194379594, 9369.203075075517, -23521.143021719818, -30522.29053047783, -20082.304785526372, 0.048, 0.974, 0.266, 192.0, 0.5, 64.0, 15.0, 56.0, 4.0, 40.0, 0.0, 0.0, 0.0, 1.695766872238416E9, 0.0, 2023-09-26 17:21:12.238
100.0, 35114.67994626522, 50191.423319747846, -19376.74962005015, -26131.916181077504, 10713.88402150679, 9240.25586131285, -187500.02235174447, -22869.544967358706, 15274.69042237883, -27587.394724773734, 52399.08276785407, -26748.511403621604, 9378.657862980112, -23520.114841474875, -30519.764783354378, -20177.724382606077, 0.048, 0.974, 0.266, 192.0, 0.0, 0.0, 0.0, 0.0, 0.0, 0.0, 0.0, 0.0, 0.0, 1.695766872238419E9, 0.0, 2023-09-26 17:21:12.238
102.0, 35116.53514105501, 50172.42433696084, -19373.821541526504, -26133.905486334024, 10685.184381626175, 9159.700174295924, -187500.02235174447, -22926.63132269756, 15275.718602623774, -27588.802884674416, 52527.29237404971, -26747.527926865572, 9379.686043225056, -23522.03709149803, -30513.483943162435, -20066.16682602964, 0.048, 0.974, 0.266, 192.0, 0.0, 0.0, 0.0, 0.0, 0.0, 0.0, 0.0, 0.0, 0.0, 1.695766872238422E9, 0.0, 2023-09-26 17:21:12.238
104.0, 35110.23194911861, 50183.13082255493, -19384.9750620097, -26138.755814880828, 10711.179460427698, 9233.885614143088, -187500.02235174447, -22872.85302553809, 15274.466904934277, -27592.625032976277, 52378.385052488455, -26751.707703078715, 9379.484877524957, -23523.22173395416, -30513.975681540454, -20202.37835674028, 0.048, 0.974, 0.266, 192.0, 0.0, 0.0, 0.0, 0.0, 0.0, 0.0, 0.0, 0.0, 0.0, 1.695766872238426E9, 0.0, 2023-09-26 17:21:12.238
106.0, 35111.26012936355, 50173.7430898837, -19387.344346921964, -26140.27573350379, 10680.579922268382, 9168.730279055868, -187500.02235174447, -22922.943284862435, 15266.464980419278, -27596.849512678327, 52532.2991648077, -26755.10516823592, 9370.879455909664, -23527.490917145125, -30525.19625725702, -20060.288317237893, 0.048, 0.974, 0.266, 192.0, 0.0, 0.0, 0.0, 0.0, 0.0, 0.0, 0.0, 0.0, 0.0, 1.695766872297724E9, 0.0, 2023-09-26 17:21:12.297
108.0, 35107.303870594966, 50183.26493302166, -19387.32199517751, -26138.241724758354, 10713.54874533996, 9223.49205297137, -187500.02235174447, -22878.44096165192, 15272.54465491112, -27590.12163759728, 52380.150840300426, -26749.070197232988, 9373.38285128866, -23522.484126387135, -30518.289568220327, -20201.104307306327, 0.05, 0.978, 0.27, 192.0, 0.5, 72.0, 15.0, 72.0, 4.0, 56.0, 0.0, 0.0, 0.0, 1.695766872297736E9, 0.0, 2023-09-26 17:21:12.297
110.0, 35114.97051894313, 50174.23482826172, -19385.712669576726, -26138.509945691818, 10682.435117058172, 9158.627290562068, -187500.02235174447, -22936.555497235717, 15269.795390343117, -27593.988489388048, 52528.45466476139, -26750.92539202278, 9376.065060623296, -23527.468565400668, -30523.89985607861, -20072.447666221582, 0.05, 0.978, 0.27, 192.0, 0.0, 0.0, 0.0, 0.0, 0.0, 0.0, 0.0, 0.0, 0.0, 1.69576687229774E9, 0.0, 2023-09-26 17:21:12.297
112.0, 35105.02399266052, 50176.20178177378, -19390.048908001056, -26144.1202335501, 10714.59927732936, 9214.037265066776, -187500.02235174447, -22877.63629885153, 15275.182160756847, -27591.4627422646, 52341.14704622592, -26750.321894922483, 9374.701604211523, -23522.37236766486, -30516.836704830734, -20255.44139807718, 0.05, 0.978, 0.27, 192.0, 0.0, 0.0, 0.0, 0.0, 0.0, 0.0, 0.0, 0.0, 0.0, 1.695766872297743E9, 0.0, 2023-09-26 17:21:12.297
114.0, 35107.28151885051, 50169.16098227036, -19390.31712893452, -26145.93072485098, 10685.474954304094, 9178.7662123163, -187500.02235174447, -22921.19984879492, 15261.122913494459, -27605.253768593524, 52527.27002230526, -26763.799996829035, 9372.66759546609, -23536.453966671703, -30525.777402612857, -20080.695459925588, 0.05, 0.978, 0.27, 192.0, 0.0, 0.0, 0.0, 0.0, 0.0, 0.0, 0.0, 0.0, 0.0, 1.695766872297746E9, 0.0, 2023-09-26 17:21:12.297
116.0, 35105.1357513828, 50171.61967416044, -19387.590216110973, -26144.008474827824, 10708.698416793159, 9200.693273626957, -187500.02235174447, -22892.231987980842, 15263.73806759573, -27598.59294874584, 52382.296607768134, -26759.866089804902, 9367.481990752458, -23531.961266036185, -30521.23999848843, -20213.889505134764, 0.05, 0.978, 0.27, 192.0, 0.0, 0.0, 0.0, 0.0, 0.0, 0.0, 0.0, 0.0, 0.0, 1.69576687229775E9, 0.0, 2023-09-26 17:21:12.297
118.0, 35113.3388415979, 50171.10558403797, -19386.31616667702, -26149.194079541456, 10686.614893271315, 9177.156886715518, -187500.02235174447, -22930.92285763298, 15269.281300220646, -27605.03025114897, 52531.09217060712, -26756.356865925416, 9380.446002536537, -23538.66678937278, -30522.312882222282, -20074.325212755826, 0.048, 0.976, 0.27, 192.0, 0.5, 64.0, 15.0, 64.0, 4.0, 56.0, 0.0, 0.0, 0.0, 1.695766872297753E9, 0.0, 2023-09-26 17:21:12.297
120.0, 35106.76742872804, 50167.104621780476, -19384.662137587326, -26147.383588240577, 10705.725634780603, 9186.075232753186, -187500.02235174447, -22904.10076428661, 15274.846884590017, -27598.481190023565, 52389.5162212272, -26756.04394150304, 9374.14281060014, -23535.6046003824, -30522.357585711194, -20206.15580155323, 0.048, 0.976, 0.27, 192.0, 0.0, 0.0, 0.0, 0.0, 0.0, 0.0, 0.0, 0.0, 0.0, 1.695766872357658E9, 0.0, 2023-09-26 17:21:12.357
122.0, 35107.61679501734, 50169.85388634848, -19392.21702721322, -26154.536146466275, 10684.737346737069, 9197.564029403215, -187500.02235174447, -22920.685758672447, 15263.961585040282, -27606.66192849421, 52520.56449896866, -26760.648400860835, 9383.99992990493, -23540.790205096033, -30526.112678779686, -20084.808180905366, 0.048, 0.976, 0.27, 192.0, 0.0, 0.0, 0.0, 0.0, 0.0, 0.0, 0.0, 0.0, 0.0, 1.695766872357672E9, 0.0, 2023-09-26 17:21:12.357
124.0, 35121.81015274646, 50177.65464516338, -19372.614547325917, -26134.196059011945, 10709.100748193354, 9181.604883862125, -187500.02235174447, -22895.875322327058, 15274.980995056749, -27594.70374521062, 52418.46173029682, -26756.334514180962, 9376.154467601118, -23528.161469478782, -30519.273044976362, -20177.210292483604, 0.048, 0.976, 0.27, 192.0, 0.0, 0.0, 0.0, 0.0, 0.0, 0.0, 0.0, 0.0, 0.0, 1.695766872357676E9, 0.0, 2023-09-26 17:21:12.357
126.0, 35127.66630979375, 50195.11135758297, -19375.766143294113, -26132.720843877894, 10700.920009722711, 9213.456119710938, -187500.02235174447, -22900.457429940398, 15276.322099724068, -27587.350021284823, 52495.977580067825, -26742.09645296293, 9394.23702886546, -23524.6522455993, -30511.271120461362, -20107.964588161063, 0.048, 0.976, 0.27, 192.0, 0.0, 0.0, 0.0, 0.0, 0.0, 0.0, 0.0, 0.0, 0.0, 1.695766872357679E9, 0.0, 2023-09-26 17:21:12.357
128.0, 35122.23483589111, 50183.55550569958, -19373.329803148485, -26123.60133214013, 10699.824774244402, 9183.683596096469, -187500.02235174447, -22906.82767711016, 15285.463963206288, -27578.45402699161, 52434.71144851583, -26734.47450810367, 9381.18361010356, -23517.477335629148, -30510.824085572254, -20164.268632443982, 0.056, 0.976, 0.274, 192.0, 0.5, 96.0, 15.0, 64.0, 4.0, 72.0, 0.0, 0.0, 0.0, 1.695766872357683E9, 0.0, 2023-09-26 17:21:12.357
130.0, 35118.74796375608, 50186.32712201204, -19381.018803241113, -26131.938532821958, 10692.582809040881, 9214.417244722516, -187500.02235174447, -22900.345671218118, 15282.424125960366, -27586.210082317604, 52503.15249003798, -26737.514345349595, 9393.365310831703, -23518.93019901874, -30518.55778915379, -20093.212436820562, 0.056, 0.976, 0.274, 192.0, 0.0, 0.0, 0.0, 0.0, 0.0, 0.0, 0.0, 0.0, 0.0, 1.695766872357686E9, 0.0, 2023-09-26 17:21:12.357
132.0, 35106.745076983585, 50162.45545893377, -19383.566902109018, -26140.36514048161, 10693.074547418899, 9147.607880545602, -187500.02235174447, -22927.2124680534, 15276.16563751288, -27597.78828594545, 52448.81539926713, -26754.076987990975, 9372.645243721634, -23533.28001895905, -30523.363414211683, -20141.738074033034, 0.056, 0.976, 0.274, 192.0, 0.0, 0.0, 0.0, 0.0, 0.0, 0.0, 0.0, 0.0, 0.0, 1.695766872357689E9, 0.0, 2023-09-26 17:21:12.357
134.0, 35105.18045487171, 50175.21830501775, -19386.472628888205, -26143.74025389436, 10699.847125988857, 9211.645628410057, -187500.02235174447, -22897.596406650115, 15264.386268184933, -27606.75133547203, 52453.03987896918, -26753.428787401772, 9386.011586905908, -23539.180879495252, -30519.742431609924, -20133.534983817935, 0.056, 0.976, 0.274, 192.0, 0.0, 0.0, 0.0, 0.0, 0.0, 0.0, 0.0, 0.0, 0.0, 1.695766872357693E9, 0.0, 2023-09-26 17:21:12.357
136.0, 35109.31552759594, 50163.818915345546, -19375.36381189392, -26132.07264328869, 10694.706224764137, 9151.318270125184, -187500.02235174447, -22921.557476706206, 15272.991689800227, -27601.65513773622, 52458.292538916176, -26756.133348480864, 9371.6617669656, -23535.55989689349, -30520.815315343778, -20128.79641399341, 0.056, 0.976, 0.274, 192.0, 0.0, 0.0, 0.0, 0.0, 0.0, 0.0, 0.0, 0.0, 0.0, 1.695766872417842E9, 0.0, 2023-09-26 17:21:12.417
138.0, 35106.65567000576, 50176.179430029326, -19380.03532648508, -26130.619779899094, 10715.940381996677, 9237.037210111286, -187500.02235174447, -22874.887034283525, 15273.997518300715, -27600.515198769, 52422.641506509965, -26748.9137350218, 9391.57717127528, -23527.289751445027, -30507.22545471495, -20159.239489941538, 0.052000000000000005, 0.976, 0.27, 192.0, 0.5, 80.0, 15.0, 64.0, 4.0, 56.0, 0.0, 0.0, 0.0, 1.695766872417855E9, 0.0, 2023-09-26 17:21:12.417
140.0, 35095.92683266722, 50155.280548963616, -19388.439582400275, -26139.873402103593, 10688.537143294472, 9158.739049284346, -187500.02235174447, -22929.380587265565, 15270.3541839545, -27603.37622205928, 52470.00485301076, -26756.222755458686, 9378.18847634655, -23528.94378053472, -30514.579178640746, -20112.770213218955, 0.052000000000000005, 0.976, 0.27, 192.0, 0.0, 0.0, 0.0, 0.0, 0.0, 0.0, 0.0, 0.0, 0.0, 1.695766872417858E9, 0.0, 2023-09-26 17:21:12.417
142.0, 35105.11339963834, 50182.326159754535, -19386.40557365484, -26135.425404956986, 10712.297047650463, 9234.578518221202, -187500.02235174447, -22875.669345339462, 15264.229805973746, -27605.1643616157, 52428.43060832389, -26750.634819344858, 9384.514020027402, -23532.14007999183, -30517.015518786375, -20145.26964965697, 0.052000000000000005, 0.976, 0.27, 192.0, 0.0, 0.0, 0.0, 0.0, 0.0, 0.0, 0.0, 0.0, 0.0, 1.695766872417861E9, 0.0, 2023-09-26 17:21:12.417
144.0, 35102.65470774826, 50163.036604289606, -19389.89244578987, -26137.191192768958, 10683.284483347474, 9156.816799261189, -187500.02235174447, -22929.045311098733, 15275.517436923676, -27599.12939061277, 52488.86972533104, -26746.477394876172, 9377.272054823883, -23529.971960779665, -30520.323576965762, -20095.067631610353, 0.052000000000000005, 0.976, 0.27, 192.0, 0.0, 0.0, 0.0, 0.0, 0.0, 0.0, 0.0, 0.0, 0.0, 1.695766872417865E9, 0.0, 2023-09-26 17:21:12.417
146.0, 35103.81699845994, 50177.07349980754, -19392.93228303579, -26137.54882068024, 10712.185288928187, 9232.097474586662, -187500.02235174447, -22875.490531383817, 15267.135532752936, -27605.633748249264, 52411.80091044914, -26747.68438907676, 9381.049499636829, -23536.632780627344, -30523.89985607861, -20162.56989986538, 0.052000000000000005, 0.976, 0.27, 192.0, 0.0, 0.0, 0.0, 0.0, 0.0, 0.0, 0.0, 0.0, 0.0, 1.695766872417868E9, 0.0, 2023-09-26 17:21:12.417
148.0, 35097.80437920146, 50158.54390365409, -19395.41332667033, -26143.65084691654, 10685.9219891932, 9148.658412535002, -187500.02235174447, -22931.43694775545, 15270.77886709915, -27602.012765647505, 52520.85507164658, -26755.172223469286, 9375.796839689832, -23535.962228293687, -30521.128239766153, -20069.340773742293, 0.052000000000000005, 0.974, 0.274, 192.0, 0.5, 80.0, 15.0, 56.0, 4.0, 72.0, 0.0, 0.0, 0.0, 1.695766872417871E9, 0.0, 2023-09-26 17:21:12.417
150.0, 35093.3340303104, 50171.79848811609, -19402.387070940385, -26145.93072485098, 10713.347579639862, 9223.11207331563, -187500.02235174447, -22877.345726173608, 15264.073343762559, -27604.247940093035, 52400.15565158793, -26755.038113002553, 9376.28857806785, -23539.27028647307, -30521.03883278833, -20180.540702407445, 0.052000000000000005, 0.974, 0.274, 192.0, 0.0, 0.0, 0.0, 0.0, 0.0, 0.0, 0.0, 0.0, 0.0, 1.695766872478144E9, 0.0, 2023-09-26 17:21:12.478
152.0, 35099.547815268976, 50163.08130777852, -19401.493001162173, -26146.780091140285, 10683.977387425588, 9146.7585142563, -187500.02235174447, -22931.72752043337, 15268.230768231246, -27606.99720466104, 52534.4002287865, -26761.855395061422, 9372.28761581035, -23541.304295218506, -30530.560675926292, -20062.12116028323, 0.052000000000000005, 0.974, 0.274, 192.0, 0.0, 0.0, 0.0, 0.0, 0.0, 0.0, 0.0, 0.0, 0.0, 1.695766872478158E9, 0.0, 2023-09-26 17:21:12.478
154.0, 35093.110512865846, 50174.145421283894, -19403.772879096614, -26143.919067850005, 10715.381588385295, 9226.39777975056, -187500.02235174447, -22875.110551728078, 15264.967413540771, -27605.3655273158, 52370.45018320682, -26758.72615083768, 9378.389642046648, -23540.14200450683, -30524.65981539009, -20215.43177550218, 0.052000000000000005, 0.974, 0.274, 192.0, 0.0, 0.0, 0.0, 0.0, 0.0, 0.0, 0.0, 0.0, 0.0, 1.695766872478162E9, 0.0, 2023-09-26 17:21:12.478
156.0, 35096.61973674533, 50161.96372055575, -19397.06735576002, -26140.923934092993, 10690.146468895253, 9161.108334196608, -187500.02235174447, -22925.938418619447, 15261.301727450102, -27610.03704190696, 52534.914318908974, -26764.001162529134, 9377.875551924177, -23541.483109174147, -30527.096155535717, -20060.087151537795, 0.052000000000000005, 0.974, 0.274, 192.0, 0.0, 0.0, 0.0, 0.0, 0.0, 0.0, 0.0, 0.0, 0.0, 1.695766872478166E9, 0.0, 2023-09-26 17:21:12.478
158.0, 35093.04345763248, 50172.35728172747, -19395.770954581614, -26139.158146281025, 10719.829585531901, 9218.239393024372, -187500.02235174447, -22874.931737772436, 15263.671012362363, -27605.65609999372, 52375.524029198175, -26761.38600842786, 9373.80753443331, -23536.118690504874, -30523.22930374495, -20200.99254858405, 0.05, 0.972, 0.26, 192.0, 0.5, 72.0, 15.0, 48.0, 4.0, 16.0, 0.0, 0.0, 0.0, 1.695766872478169E9, 0.0, 2023-09-26 17:21:12.478
160.0, 35094.09398962188, 50162.16488625585, -19396.575617382005, -26146.243649273354, 10696.69553002066, 9173.401793647026, -187500.02235174447, -22912.884999857546, 15260.340602438522, -27608.09244013935, 52527.31472579417, -26760.313124694007, 9382.256493837416, -23540.61139114039, -30520.770611854867, -20061.40590446066, 0.05, 0.972, 0.26, 192.0, 0.0, 0.0, 0.0, 0.0, 0.0, 0.0, 0.0, 0.0, 0.0, 1.695766872478172E9, 0.0, 2023-09-26 17:21:12.478
162.0, 35095.770370456026, 50167.19402875829, -19392.9769865247, -26140.812175370716, 10727.384475157794, 9211.422110965505, -187500.02235174447, -22870.86372028157, 15262.553425139598, -27606.483114538565, 52376.999244332226, -26757.787377570556, 9378.836676935754, -23538.51032716159, -30512.522818150857, -20195.762240381508, 0.05, 0.972, 0.26, 192.0, 0.0, 0.0, 0.0, 0.0, 0.0, 0.0, 0.0, 0.0, 0.0, 1.695766872478176E9, 0.0, 2023-09-26 17:21:12.478
164.0, 35096.12799836731, 50163.57304615653, -19395.726251092703, -26142.823832371694, 10709.368969126817, 9191.372596189094, -187500.02235174447, -22891.740249602826, 15256.764323325673, -27609.254730851026, 52525.66069670447, -26762.123615994886, 9386.548028772835, -23541.37135045187, -30515.27208271886, -20062.07645679432, 0.05, 0.972, 0.26, 192.0, 0.0, 0.0, 0.0, 0.0, 0.0, 0.0, 0.0, 0.0, 0.0, 1.695766872478179E9, 0.0, 2023-09-26 17:21:12.478
166.0, 35095.92683266722, 50169.07157529254, -19390.138314978878, -26130.038634543256, 10727.183309457698, 9213.25495401084, -187500.02235174447, -22859.33022014263, 15265.21328272978, -27595.910739411207, 52379.63675017795, -26753.026456001575, 9380.021319391886, -23528.250876456605, -30505.86199830318, -20196.18692352616, 0.05, 0.972, 0.26, 192.0, 0.0, 0.0, 0.0, 0.0, 0.0, 0.0, 0.0, 0.0, 0.0, 1.695766872538494E9, 0.0, 2023-09-26 17:21:12.538
168.0, 35101.85004494787, 50169.76447937066, -19391.278253946097, -26133.50315493383, 10694.348596852851, 9210.81861386521, -187500.02235174447, -22890.019165279766, 15254.082113991037, -27597.587120245353, 52526.77828392724, -26757.385046170362, 9384.871647938688, -23530.59780962441, -30518.289568220327, -20055.817968346833, 0.052000000000000005, 0.968, 0.27, 192.0, 0.5, 80.0, 15.0, 32.0, 4.0, 56.0, 0.0, 0.0, 0.0, 1.695766872538513E9, 0.0, 2023-09-26 17:21:12.538
170.0, 35101.24654784758, 50163.32717696753, -19384.55037886505, -26130.731538621374, 10709.301913893452, 9208.941067330965, -187500.02235174447, -22866.169853945954, 15275.472733434766, -27576.59883220182, 52386.31992177009, -26754.25580194662, 9377.026185634873, -23510.727108803643, -30515.294434463318, -20186.978004810575, 0.052000000000000005, 0.968, 0.27, 192.0, 0.0, 0.0, 0.0, 0.0, 0.0, 0.0, 0.0, 0.0, 0.0, 1.695766872538517E9, 0.0, 2023-09-26 17:21:12.538
172.0, 35097.9831931571, 50170.50208693768, -19387.858437044437, -26145.50604170633, 10699.869477733313, 9219.066407569218, -187500.02235174447, -22886.57699663365, 15259.178311726846, -27586.07597185087, 52514.77539715474, -26765.208156729717, 9384.938703172053, -23522.506478131592, -30524.458649689994, -20062.97052657253, 0.052000000000000005, 0.968, 0.27, 192.0, 0.0, 0.0, 0.0, 0.0, 0.0, 0.0, 0.0, 0.0, 0.0, 1.69576687253852E9, 0.0, 2023-09-26 17:21:12.538
174.0, 35096.530329767505, 50166.61288340246, -19377.688393317272, -26139.426367214488, 10703.803384757446, 9182.498953640337, -187500.02235174447, -22888.231025723344, 15270.153018254403, -27575.99533510153, 52425.94956468935, -26768.58327014247, 9375.886246667653, -23518.416108896272, -30521.28470197734, -20145.09083570133, 0.052000000000000005, 0.968, 0.27, 192.0, 0.0, 0.0, 0.0, 0.0, 0.0, 0.0, 0.0, 0.0, 0.0, 1.695766872538524E9, 0.0, 2023-09-26 17:21:12.538
176.0, 35103.168797870734, 50184.60603768898, -19365.55139607804, -26130.59742815464, 10708.877230748802, 9223.223832037906, -187500.02235174447, -22873.680040082938, 15266.576739141554, -27571.189710043636, 52507.086397062114, -26756.401569414327, 9391.688929997556, -23515.46567862817, -30520.681204877044, -20070.12308479823, 0.052000000000000005, 0.968, 0.27, 192.0, 0.0, 0.0, 0.0, 0.0, 0.0, 0.0, 0.0, 0.0, 0.0, 1.695766872538527E9, 0.0, 2023-09-26 17:21:12.538
178.0, 35100.866568191836, 50172.200819516285, -19356.9683262072, -26126.2164862414, 10707.178498170197, 9181.537828628758, -187500.02235174447, -22884.38652567703, 15281.59711141552, -27552.12367202326, 52425.81545422262, -26749.405473399816, 9384.223447349483, -23497.539579575012, -30512.03107977284, -20150.6564200707, 0.048, 0.972, 0.27, 192.0, 0.5, 64.0, 15.0, 48.0, 4.0, 56.0, 0.0, 0.0, 0.0, 1.69576687253853E9, 0.0, 2023-09-26 17:21:12.538
180.0, 35100.732457725106, 50179.17456378634, -19353.72732326118, -26127.714053119907, 10711.894716250268, 9238.624183967613, -187500.02235174447, -22860.33604864312, 15273.97516655626, -27559.96913432707, 52454.00100398076, -26752.355903667918, 9399.132060901173, -23500.668823798755, -30506.04081225882, -20124.41547208017, 0.048, 0.972, 0.27, 192.0, 0.0, 0.0, 0.0, 0.0, 0.0, 0.0, 0.0, 0.0, 0.0, 1.695766872597797E9, 0.0, 2023-09-26 17:21:12.597
182.0, 35095.18922510019, 50164.51181942366, -19348.139387147356, -26121.96965479489, 10700.852954489346, 9186.365805431105, -187500.02235174447, -22878.083333740633, 15275.696250879319, -27559.49974769351, 52438.153617161945, -26760.96132528321, 9381.630644992667, -23497.31606213046, -30505.929053536544, -20134.451405340602, 0.048, 0.972, 0.27, 192.0, 0.0, 0.0, 0.0, 0.0, 0.0, 0.0, 0.0, 0.0, 0.0, 1.695766872597811E9, 0.0, 2023-09-26 17:21:12.597
184.0, 35105.04634440498, 50187.40000574589, -19343.289058600552, -26117.40989892601, 10721.282448921496, 9254.628032997613, -187500.02235174447, -22842.544060056694, 15276.54561716862, -27556.83989010333, 52461.377079651014, -26748.66786583279, 9396.449851566536, -23492.577492305936, -30495.468437131458, -20101.616692735755, 0.048, 0.972, 0.27, 192.0, 0.0, 0.0, 0.0, 0.0, 0.0, 0.0, 0.0, 0.0, 0.0, 1.695766872597815E9, 0.0, 2023-09-26 17:21:12.597
186.0, 35105.828655460915, 50172.893723594396, -19343.713741745203, -26119.73448034936, 10699.914181222222, 9174.80995354771, -187500.02235174447, -22890.95793854689, 15284.659300405896, -27551.386064456234, 52480.01843452674, -26743.839889030445, 9382.770583959888, -23489.202378893184, -30499.402344155595, -20088.183294318118, 0.048, 0.972, 0.27, 192.0, 0.0, 0.0, 0.0, 0.0, 0.0, 0.0, 0.0, 0.0, 0.0, 1.695766872597818E9, 0.0, 2023-09-26 17:21:12.597
188.0, 35105.94041418319, 50188.763462157665, -19352.833253482968, -26127.93757056446, 10712.92289649521, 9243.452160769959, -187500.02235174447, -22860.76073178777, 15278.73608812524, -27556.303448236402, 52440.679364285395, -26744.62220008638, 9392.135964886662, -23495.08088768493, -30507.89600704861, -20123.431995324136, 0.05, 0.968, 0.27, 192.0, 0.5, 72.0, 15.0, 32.0, 4.0, 56.0, 0.0, 0.0, 0.0, 1.695766872597822E9, 0.0, 2023-09-26 17:21:12.597
190.0, 35106.70037349467, 50165.22707524623, -19348.40760808082, -26117.40989892601, 10689.230047372586, 9162.270624908284, -187500.02235174447, -22902.04440379672, 15284.279320750156, -27548.100358021304, 52477.939722292394, -26742.275266918572, 9382.725880470978, -23488.867102726355, -30510.667623361067, -20093.54771298739, 0.05, 0.968, 0.27, 192.0, 0.0, 0.0, 0.0, 0.0, 0.0, 0.0, 0.0, 0.0, 0.0, 1.695766872597825E9, 0.0, 2023-09-26 17:21:12.597
192.0, 35110.50017005207, 50184.33781675551, -19345.323067345988, -26108.089221488146, 10714.398111629262, 9254.49392253088, -187500.02235174447, -22847.79672000369, 15281.820628860072, -27544.434671930634, 52389.20329680482, -26735.368577881884, 9394.304084098827, -23485.000250935587, -30504.118562235664, -20172.784647081455, 0.05, 0.968, 0.27, 192.0, 0.0, 0.0, 0.0, 0.0, 0.0, 0.0, 0.0, 0.0, 0.0, 1.695766872597828E9, 0.0, 2023-09-26 17:21:12.597
194.0, 35109.09201015139, 50169.675072392834, -19351.223927882187, -26117.387547181555, 10680.714032735114, 9174.519380869791, -187500.02235174447, -22906.559456176696, 15283.005271316204, -27544.702892864098, 52493.07185328864, -26731.278208646563, 9385.050461894329, -23484.620271279844, -30506.823123314756, -20073.36408774425, 0.05, 0.968, 0.27, 192.0, 0.0, 0.0, 0.0, 0.0, 0.0, 0.0, 0.0, 0.0, 0.0, 1.695766872597831E9, 0.0, 2023-09-26 17:21:12.597
196.0, 35109.248472362575, 50188.204668546285, -19350.039285426057, -26122.55080015073, 10717.862632019835, 9245.486169515392, -187500.02235174447, -22857.787949775215, 15279.74191662573, -27549.799090599907, 52403.30724755612, -26735.927371493268, 9385.050461894329, -23492.286919628015, -30510.488809405426, -20149.02474272546, 0.05, 0.968, 0.27, 192.0, 0.0, 0.0, 0.0, 0.0, 0.0, 0.0, 0.0, 0.0, 0.0, 1.695766872657639E9, 0.0, 2023-09-26 17:21:12.657
198.0, 35094.69748672217, 50159.683842621314, -19355.20253839523, -26129.658654887517, 10690.414689828718, 9161.845941763633, -187500.02235174447, -22910.403956223006, 15278.892550336428, -27555.431730202643, 52513.43429248742, -26747.39381639884, 9385.408089805615, -23496.801972007986, -30496.98835575442, -20052.666372378633, 0.054, 0.966, 0.272, 192.0, 0.5, 88.0, 15.0, 24.0, 4.0, 64.0, 0.0, 0.0, 0.0, 1.695766872657651E9, 0.0, 2023-09-26 17:21:12.657
200.0, 35092.484664021096, 50174.65951140637, -19351.134520904365, -26123.55662865122, 10731.944231026679, 9238.646535712069, -187500.02235174447, -22849.71897002685, 15269.393058942922, -27564.417131473678, 52382.96716010179, -26753.272325190585, 9382.94939791553, -23502.41225986627, -30501.12342847865, -20171.62235636978, 0.054, 0.966, 0.272, 192.0, 0.0, 0.0, 0.0, 0.0, 0.0, 0.0, 0.0, 0.0, 0.0, 1.695766872657655E9, 0.0, 2023-09-26 17:21:12.657
202.0, 35098.005544901556, 50162.768383356146, -19350.419265081797, -26121.723785605885, 10697.366082354318, 9176.598093104136, -187500.02235174447, -22900.703299129404, 15279.317233481079, -27556.392855214224, 52524.230185059336, -26742.409377385306, 9389.252589851927, -23493.27039638405, -30490.41694288456, -20046.474939164513, 0.054, 0.966, 0.272, 192.0, 0.0, 0.0, 0.0, 0.0, 0.0, 0.0, 0.0, 0.0, 0.0, 1.695766872657658E9, 0.0, 2023-09-26 17:21:12.657
204.0, 35094.228100088614, 50174.592456173, -19363.629146054882, -26129.233971742866, 10709.525431338005, 9238.601832223158, -187500.02235174447, -22859.263164909265, 15276.500913679709, -27559.4550442046, 52381.3131310121, -26742.275266918572, 9381.071851381284, -23497.18195166373, -30502.822161057255, -20179.24430122904, 0.054, 0.966, 0.272, 192.0, 0.0, 0.0, 0.0, 0.0, 0.0, 0.0, 0.0, 0.0, 0.0, 1.695766872657661E9, 0.0, 2023-09-26 17:21:12.657
206.0, 35098.40787630175, 50168.22220900324, -19361.237509398165, -26129.658654887517, 10686.54783803795, 9183.169505973996, -187500.02235174447, -22894.57892114865, 15275.49508517922, -27562.941916339627, 52537.12714161005, -26746.075063475975, 9381.652996737123, -23499.819457509453, -30509.058297760286, -20035.72375008151, 0.054, 0.966, 0.272, 192.0, 0.0, 0.0, 0.0, 0.0, 0.0, 0.0, 0.0, 0.0, 0.0, 1.695766872657665E9, 0.0, 2023-09-26 17:21:12.657
208.0, 35091.54589075397, 50175.71004339577, -19360.92458497579, -26126.976445552882, 10713.280524406497, 9227.78358790679, -187500.02235174447, -22853.85404275108, 15278.803143358606, -27554.917640080173, 52358.7602208567, -26742.588191340947, 9381.764755459399, -23494.857370240377, -30507.158399481585, -20197.796249126943, 0.052000000000000005, 0.968, 0.268, 192.0, 0.5, 80.0, 15.0, 32.0, 4.0, 48.0, 0.0, 0.0, 0.0, 1.695766872657668E9, 0.0, 2023-09-26 17:21:12.657
210.0, 35097.20088210117, 50175.77709862913, -19358.39883785234, -26125.344768207644, 10685.094974648355, 9188.176296731985, -187500.02235174447, -22901.23974099633, 15280.345413726023, -27559.32093373787, 52530.28750780672, -26739.48129886166, 9388.783203218365, -23500.445306354202, -30511.114658250175, -20045.06677926383, 0.052000000000000005, 0.968, 0.268, 192.0, 0.0, 0.0, 0.0, 0.0, 0.0, 0.0, 0.0, 0.0, 0.0, 1.69576687271787E9, 0.0, 2023-09-26 17:21:12.717
212.0, 35094.652783233265, 50175.08419455102, -19360.92458497579, -26120.94147454995, 10707.938457481678, 9215.423073223004, -187500.02235174447, -22870.886072026024, 15287.07328880707, -27550.87197433376, 52381.49194496775, -26737.089662204944, 9381.943569415042, -23492.26456788356, -30514.936806552032, -20190.598987412333, 0.052000000000000005, 0.968, 0.268, 192.0, 0.0, 0.0, 0.0, 0.0, 0.0, 0.0, 0.0, 0.0, 0.0, 1.695766872717885E9, 0.0, 2023-09-26 17:21:12.717
214.0, 35093.3340303104, 50167.14932526938, -19373.93330024878, -26137.682931146974, 10683.843276958856, 9191.037320022264, -187500.02235174447, -22910.515714945283, 15274.668070634374, -27561.287887249935, 52522.53145248073, -26743.750482052623, 9384.603427005224, -23501.02645171004, -30524.391594456625, -20064.043410306385, 0.052000000000000005, 0.968, 0.268, 192.0, 0.0, 0.0, 0.0, 0.0, 0.0, 0.0, 0.0, 0.0, 0.0, 1.695766872717888E9, 0.0, 2023-09-26 17:21:12.717
216.0, 35093.22227158812, 50162.03077578912, -19368.9712129797, -26133.994893311847, 10702.618742301314, 9202.324950972194, -187500.02235174447, -22877.077505240144, 15277.327928224557, -27560.326762238357, 52376.93218909886, -26754.233450202162, 9370.43242102056, -23499.88651274282, -30532.058242804796, -20200.210237528114, 0.052000000000000005, 0.968, 0.268, 192.0, 0.0, 0.0, 0.0, 0.0, 0.0, 0.0, 0.0, 0.0, 0.0, 1.695766872717892E9, 0.0, 2023-09-26 17:21:12.717
218.0, 35099.257242591055, 50165.629406646425, -19354.263765128107, -26130.753890365828, 10703.132832423787, 9200.290942226762, -187500.02235174447, -22896.501171171807, 15278.199646258314, -27563.254840762, 52505.700588905886, -26750.634819344858, 9390.437232308059, -23499.12655343134, -30516.389669941625, -20082.193026804092, 0.054, 0.968, 0.268, 192.0, 0.5, 88.0, 15.0, 32.0, 4.0, 48.0, 0.0, 0.0, 0.0, 1.695766872717895E9, 0.0, 2023-09-26 17:21:12.717
220.0, 35088.41664653023, 50158.92388330983, -19348.362904591908, -26127.73640486436, 10711.335922638884, 9188.086889754164, -187500.02235174447, -22888.253377467798, 15285.821591117572, -27560.885555849738, 52390.834974150064, -26750.72422632268, 9383.508191526913, -23499.528884831536, -30508.09717274871, -20189.771972867486, 0.054, 0.968, 0.268, 192.0, 0.0, 0.0, 0.0, 0.0, 0.0, 0.0, 0.0, 0.0, 0.0, 1.695766872717898E9, 0.0, 2023-09-26 17:21:12.717
222.0, 35092.23879483209, 50168.758650870164, -19349.547547048038, -26129.07750953168, 10710.620666816314, 9208.024645808298, -187500.02235174447, -22878.217444207366, 15275.74095436823, -27566.629954174754, 52489.36146370906, -26748.936086766254, 9400.182592890573, -23500.780582521034, -30497.345983665706, -20097.5933787338, 0.054, 0.968, 0.268, 192.0, 0.0, 0.0, 0.0, 0.0, 0.0, 0.0, 0.0, 0.0, 0.0, 1.695766872717902E9, 0.0, 2023-09-26 17:21:12.717
224.0, 35083.320448794424, 50157.76159259815, -19362.042172198555, -26133.726672378383, 10709.704245293648, 9187.706910098423, -187500.02235174447, -22882.598386120604, 15279.473695692266, -27563.008971572996, 52394.07597709608, -26752.467662390194, 9384.134040371662, -23495.147942918295, -30502.196312212505, -20183.915815820197, 0.054, 0.968, 0.268, 192.0, 0.0, 0.0, 0.0, 0.0, 0.0, 0.0, 0.0, 0.0, 0.0, 1.695766872717905E9, 0.0, 2023-09-26 17:21:12.717
226.0, 35087.232004074096, 50168.64689214789, -19366.467817600707, -26138.018207313802, 10710.68772204968, 9225.436654738982, -187500.02235174447, -22874.797627305703, 15265.59326238552, -27570.27328852097, 52464.75219306376, -26759.597868871435, 9390.90661894162, -23502.345204632904, -30514.914454807575, -20113.999559163996, 0.054, 0.968, 0.268, 192.0, 0.0, 0.0, 0.0, 0.0, 0.0, 0.0, 0.0, 0.0, 0.0, 1.69576687277826E9, 0.0, 2023-09-26 17:21:12.778
228.0, 35086.404989529256, 50156.398136186384, -19364.92554723329, -26135.2689427458, 10701.992893456567, 9170.183142445463, -187500.02235174447, -22896.72468861636, 15280.010137559193, -27561.690218650132, 52407.64348598045, -26759.508461893616, 9378.836676935754, -23497.6960417862, -30515.47324841896, -20171.197673225128, 0.054, 0.966, 0.268, 192.0, 0.5, 88.0, 15.0, 24.0, 4.0, 48.0, 0.0, 0.0, 0.0, 1.695766872778274E9, 0.0, 2023-09-26 17:21:12.778
230.0, 35095.85977743385, 50174.21247651726, -19364.322050132996, -26125.769451352295, 10717.16972794172, 9230.264631541328, -187500.02235174447, -22865.387542890017, 15273.729297367252, -27562.941916339627, 52438.89122472897, -26745.40451114232, 9393.208848620516, -23502.792239522012, -30513.7521640959, -20143.168585678173, 0.054, 0.966, 0.268, 192.0, 0.0, 0.0, 0.0, 0.0, 0.0, 0.0, 0.0, 0.0, 0.0, 1.695766872778278E9, 0.0, 2023-09-26 17:21:12.778
232.0, 35092.14938785427, 50158.83447633201, -19372.16751243681, -26120.852067572127, 10685.58671302637, 9165.824552276677, -187500.02235174447, -22910.046328311724, 15281.708870137796, -27558.27040174847, 52433.19152989287, -26740.688293062245, 9377.204999590516, -23493.762134762066, -30520.144763010117, -20147.54952759141, 0.054, 0.966, 0.268, 192.0, 0.0, 0.0, 0.0, 0.0, 0.0, 0.0, 0.0, 0.0, 0.0, 1.695766872778282E9, 0.0, 2023-09-26 17:21:12.778
234.0, 35086.56145174044, 50167.238732247206, -19381.55524510804, -26132.989064811358, 10701.434099845184, 9248.682468972502, -187500.02235174447, -22862.682981810925, 15262.508721650687, -27579.28104153646, 52440.18762590738, -26752.490014134648, 9380.267188580894, -23504.26745465606, -30536.126260295663, -20133.22205939556, 0.054, 0.966, 0.268, 192.0, 0.0, 0.0, 0.0, 0.0, 0.0, 0.0, 0.0, 0.0, 0.0, 1.695766872778287E9, 0.0, 2023-09-26 17:21:12.778
236.0, 35090.80828318695, 50152.93361579581, -19369.753524035637, -26131.536201421764, 10695.622646286804, 9167.277415666273, -187500.02235174447, -22903.832543353146, 15273.371669455966, -27576.12944556826, 52475.637492613496, -26755.887479291854, 9379.037842635851, -23497.56193131947, -30517.216684486473, -20097.235750822514, 0.054, 0.966, 0.268, 192.0, 0.0, 0.0, 0.0, 0.0, 0.0, 0.0, 0.0, 0.0, 0.0, 1.695766872778293E9, 0.0, 2023-09-26 17:21:12.778
238.0, 35091.27766982051, 50169.473906692736, -19364.41145711082, -26130.306855476723, 10718.063797719931, 9240.457027012948, -187500.02235174447, -22861.43128412143, 15274.131628767447, -27575.74946591252, 52416.31596282911, -26746.477394876172, 9392.538296286857, -23499.908864487275, -30518.066050775775, -20152.802187538407, 0.054, 0.968, 0.264, 192.0, 0.5, 88.0, 15.0, 32.0, 4.0, 32.0, 0.0, 0.0, 0.0, 1.695766872778296E9, 0.0, 2023-09-26 17:21:12.778
240.0, 35089.266012819535, 50149.29028144959, -19366.043134456057, -26137.057082302224, 10685.653768259737, 9151.05004919172, -187500.02235174447, -22921.423366239473, 15276.4562101908, -27574.453064734113, 52485.628722385016, -26747.840851287947, 9382.480011281968, -23503.26162615557, -30519.80948684329, -20096.811067677863, 0.054, 0.968, 0.264, 192.0, 0.0, 0.0, 0.0, 0.0, 0.0, 0.0, 0.0, 0.0, 0.0, 1.695766872838446E9, 0.0, 2023-09-26 17:21:12.838
242.0, 35087.097893607366, 50164.44476419029, -19361.036343698066, -26137.817041613704, 10728.345600169374, 9234.667925199023, -187500.02235174447, -22858.70437129788, 15269.16954149837, -27577.537605468944, 52389.13624157146, -26755.172223469286, 9391.443060808548, -23503.619254066856, -30512.634576873133, -20187.737964122054, 0.054, 0.968, 0.264, 192.0, 0.0, 0.0, 0.0, 0.0, 0.0, 0.0, 0.0, 0.0, 0.0, 1.69576687283846E9, 0.0, 2023-09-26 17:21:12.838
244.0, 35078.358361525345, 50136.21451094324, -19369.55235833554, -26148.612934185618, 10690.057061917432, 9156.794447516733, -187500.02235174447, -22915.969540592378, 15264.810951329584, -27581.65032644872, 52488.512097419756, -26768.359752697917, 9386.793897961843, -23507.486105857624, -30507.583082626235, -20096.36403278876, 0.054, 0.968, 0.264, 192.0, 0.0, 0.0, 0.0, 0.0, 0.0, 0.0, 0.0, 0.0, 0.0, 1.695766872838464E9, 0.0, 2023-09-26 17:21:12.838
246.0, 35088.12607385231, 50157.98511004271, -19364.187939666266, -26141.773300382294, 10724.948135012166, 9226.286021028283, -187500.02235174447, -22859.263164909265, 15262.709887350786, -27586.724172440074, 52378.876790866474, -26767.95742129772, 9386.816249706299, -23516.069175728462, -30519.764783354378, -20190.37546996778, 0.054, 0.968, 0.264, 192.0, 0.0, 0.0, 0.0, 0.0, 0.0, 0.0, 0.0, 0.0, 0.0, 1.695766872838467E9, 0.0, 2023-09-26 17:21:12.838
248.0, 35093.22227158812, 50152.30776695106, -19364.545567577552, -26141.50507944883, 10694.63916953077, 9153.57579631517, -187500.02235174447, -22908.01231956629, 15277.015003802182, -27575.99533510153, 52500.649094658984, -26754.412264157807, 9392.426537564581, -23510.07890821444, -30512.18754198403, -20085.903416383677, 0.048, 0.97, 0.268, 192.0, 0.5, 64.0, 15.0, 40.0, 4.0, 48.0, 0.0, 0.0, 0.0, 1.69576687283847E9, 0.0, 2023-09-26 17:21:12.838
250.0, 35097.536158268, 50169.07157529254, -19366.668983300806, -26134.397224712044, 10712.900544750757, 9225.146082061063, -187500.02235174447, -22856.022161963247, 15277.573797413565, -27572.016724588484, 52374.69701465333, -26750.97009551169, 9389.319645085294, -23507.396698879802, -30520.43533568804, -20199.360871238812, 0.048, 0.97, 0.268, 192.0, 0.0, 0.0, 0.0, 0.0, 0.0, 0.0, 0.0, 0.0, 0.0, 1.695766872838473E9, 0.0, 2023-09-26 17:21:12.838
252.0, 35092.95405065466, 50155.72758385272, -19368.568881579504, -26135.961846823913, 10682.479820547083, 9165.466924365393, -187500.02235174447, -22903.38550846404, 15277.752611369207, -27569.110997809294, 52507.242859273305, -26753.361732168407, 9385.922179928086, -23504.110992444872, -30533.064071305285, -20089.25617805197, 0.048, 0.97, 0.268, 192.0, 0.0, 0.0, 0.0, 0.0, 0.0, 0.0, 0.0, 0.0, 0.0, 1.695766872838477E9, 0.0, 2023-09-26 17:21:12.838
254.0, 35090.47300702012, 50162.36605195595, -19362.891538487856, -26126.752928108326, 10723.674085578214, 9229.30350652975, -187500.02235174447, -22848.176699659434, 15277.640852646931, -27565.110035551792, 52360.302491224116, -26749.517232122093, 9385.631607250167, -23497.31606213046, -30517.529608908848, -20224.48423200658, 0.048, 0.97, 0.268, 192.0, 0.0, 0.0, 0.0, 0.0, 0.0, 0.0, 0.0, 0.0, 0.0, 1.69576687283848E9, 0.0, 2023-09-26 17:21:12.838
0.0, 35090.78593144249, 50155.07938326352, -19363.472683843695, -26129.41278569851, 10690.369986339807, 9180.48729663936, -187500.02235174447, -22893.774258348258, 15272.4552479333, -27575.235375790046, 52536.25542357629, -26750.835985044956, 9387.263284595405, -23505.11682094536, -30522.26817873337, -20061.607070160757, 0.048, 0.97, 0.268, 192.0, 0.0, 0.0, 0.0, 0.0, 0.0, 0.0, 0.0, 0.0, 0.0, 1.695766872898777E9, 0.0, 2023-09-26 17:21:12.898
2.0, 35089.62364073082, 50161.24846473318, -19365.752561778136, -26126.238837985857, 10715.850975018857, 9222.150948304052, -187500.02235174447, -22849.495452582294, 15283.586416672042, -27565.13238729625, 52372.19361927434, -26740.82240352898, 9388.582037518268, -23495.483219085127, -30516.836704830734, -20211.833144644876, 0.05, 0.974, 0.27, 192.0, 0.5, 72.0, 15.0, 56.0, 4.0, 56.0, 0.0, 0.0, 0.0, 1.69576687289879E9, 0.0, 2023-09-26 17:21:12.898
4.0, 35092.79758844347, 50157.29220596459, -19367.45129435674, -26132.02793979978, 10690.369986339807, 9187.796317076245, -187500.02235174447, -22892.097877514112, 15274.60101540101, -27574.453064734113, 52533.88613866403, -26751.81946180099, 9391.398357319636, -23502.90399824429, -30527.6549491471, -20062.411732961147, 0.05, 0.974, 0.27, 192.0, 0.0, 0.0, 0.0, 0.0, 0.0, 0.0, 0.0, 0.0, 0.0, 1.695766872898793E9, 0.0, 2023-09-26 17:21:12.898
6.0, 35081.19703307117, 50144.73052558071, -19359.203500652733, -26128.585771153663, 10717.683818064192, 9207.242334752362, -187500.02235174447, -22865.879281268037, 15279.250178247712, -27572.150835055214, 52382.296607768134, -26755.328685680473, 9387.039767150853, -23497.494876086104, -30515.361489696683, -20206.51342946451, 0.05, 0.974, 0.27, 192.0, 0.0, 0.0, 0.0, 0.0, 0.0, 0.0, 0.0, 0.0, 0.0, 1.695766872898797E9, 0.0, 2023-09-26 17:21:12.898
8.0, 35079.45359700365, 50144.8869877919, -19356.78951225156, -26138.062910802713, 10702.104652178843, 9186.857543809121, -187500.02235174447, -22894.936549059934, 15268.029602531149, -27585.494826495033, 52537.864749177075, -26766.370447441393, 9397.410976578114, -23511.062384970475, -30516.61318738618, -20062.6352504057, 0.05, 0.974, 0.27, 192.0, 0.0, 0.0, 0.0, 0.0, 0.0, 0.0, 0.0, 0.0, 0.0, 1.6957668728988E9, 0.0, 2023-09-26 17:21:12.898
10.0, 35077.82191965842, 50146.02692675912, -19357.616526796406, -26136.431233457475, 10726.26688793503, 9181.873104795588, -187500.02235174447, -22866.460426623875, 15280.97126257077, -27581.873843893274, 52416.22655585129, -26761.788339828057, 9395.824002721787, -23510.03420472553, -30500.31876567826, -20179.22194948458, 0.05, 0.974, 0.27, 192.0, 0.0, 0.0, 0.0, 0.0, 0.0, 0.0, 0.0, 0.0, 0.0, 1.695766872898803E9, 0.0, 2023-09-26 17:21:12.898
12.0, 35090.13773085329, 50152.26306346215, -19362.869186743403, -26137.34765498014, 10709.324265637906, 9188.422165920992, -187500.02235174447, -22886.62170012256, 15279.272529992168, -27580.041000847938, 52518.843414645606, -26753.62995310187, 9409.793843006355, -23513.11874546036, -30509.617091371667, -20090.82080016384, 0.052000000000000005, 0.982, 0.264, 192.0, 0.5, 80.0, 15.0, 88.0, 4.0, 32.0, 0.0, 0.0, 0.0, 1.695766872898807E9, 0.0, 2023-09-26 17:21:12.898
14.0, 35084.81801567293, 50146.116333736936, -19368.099494945945, -26133.234934000368, 10708.609009815336, 9179.660282094514, -187500.02235174447, -22877.301022684696, 15283.161733527391, -27571.323820510366, 52401.5191079997, -26753.38408391286, 9389.632569507667, -23505.13917268982, -30516.07674551925, -20200.61256892831, 0.052000000000000005, 0.982, 0.264, 192.0, 0.0, 0.0, 0.0, 0.0, 0.0, 0.0, 0.0, 0.0, 0.0, 1.695766872957575E9, 0.0, 2023-09-26 17:21:12.957
16.0, 35091.52353900952, 50156.26402571965, -19364.299698388542, -26124.60716064062, 10705.233896402586, 9209.745730131357, -187500.02235174447, -22875.781104061738, 15276.143285768425, -27575.727114168065, 52494.48001318932, -26744.95747625321, 9400.294351612849, -23500.8476377544, -30518.08840252023, -20110.758556217977, 0.052000000000000005, 0.982, 0.264, 192.0, 0.0, 0.0, 0.0, 0.0, 0.0, 0.0, 0.0, 0.0, 0.0, 1.695766872957591E9, 0.0, 2023-09-26 17:21:12.957
18.0, 35083.18633832769, 50149.178522727314, -19367.78657052357, -26123.17664899548, 10706.016207458522, 9180.19672396144, -187500.02235174447, -22876.094028484113, 15284.07815505006, -27571.12265481027, 52418.39467506346, -26745.896249520334, 9390.012549163408, -23497.6960417862, -30517.37314669766, -20177.254995972515, 0.052000000000000005, 0.982, 0.264, 192.0, 0.0, 0.0, 0.0, 0.0, 0.0, 0.0, 0.0, 0.0, 0.0, 1.695766872957595E9, 0.0, 2023-09-26 17:21:12.957
20.0, 35086.673210462715, 50162.29899672258, -19376.079067716488, -26126.417651941498, 10702.439928345673, 9225.7272274169, -187500.02235174447, -22863.24177542231, 15274.131628767447, -27575.36948625678, 52480.2866554602, -26740.44242387324, 9401.389587091158, -23502.50166684409, -30516.9037600641, -20108.523381772447, 0.052000000000000005, 0.982, 0.264, 192.0, 0.0, 0.0, 0.0, 0.0, 0.0, 0.0, 0.0, 0.0, 0.0, 1.695766872957599E9, 0.0, 2023-09-26 17:21:12.957
22.0, 35085.75678894005, 50146.49631339268, -19377.241358428164, -26123.914256562504, 10688.961826439123, 9166.09277321014, -187500.02235174447, -22885.168836732966, 15280.993614315226, -27571.055599576903, 52427.98357343478, -26741.604714584915, 9383.307025826816, -23497.6960417862, -30524.65981539009, -20156.266707928982, 0.052000000000000005, 0.976, 0.266, 192.0, 0.5, 80.0, 15.0, 64.0, 4.0, 40.0, 0.0, 0.0, 0.0, 1.695766872957602E9, 0.0, 2023-09-26 17:21:12.957
24.0, 35083.879242405805, 50161.24846473318, -19377.55428285054, -26122.79666933974, 10704.451585346651, 9240.233509568396, -187500.02235174447, -22847.1932229034, 15274.198684000814, -27578.386971758246, 52451.788181279684, -26739.794223284036, 9396.181630633073, -23499.819457509453, -30522.33523396674, -20128.572896548856, 0.052000000000000005, 0.976, 0.266, 192.0, 0.0, 0.0, 0.0, 0.0, 0.0, 0.0, 0.0, 0.0, 0.0, 1.695766872957605E9, 0.0, 2023-09-26 17:21:12.957
26.0, 35082.202861571655, 50141.31070867905, -19364.63497455537, -26121.209695483412, 10690.191172384164, 9159.990746973843, -187500.02235174447, -22894.19894149291, 15278.467867191777, -27574.967154856582, 52470.608350111055, -26739.81657502849, 9387.509153784413, -23497.18195166373, -30518.021347286864, -20109.708024228577, 0.052000000000000005, 0.976, 0.266, 192.0, 0.0, 0.0, 0.0, 0.0, 0.0, 0.0, 0.0, 0.0, 0.0, 1.695766872957609E9, 0.0, 2023-09-26 17:21:12.957
28.0, 35082.42637901621, 50154.16296174085, -19367.227776912187, -26130.88800083256, 10708.273733648508, 9235.852567655154, -187500.02235174447, -22859.218461420354, 15276.053878790604, -27576.241204290534, 52412.38205580498, -26737.53669709405, 9403.982389447974, -23501.562893576967, -30510.42175417206, -20164.22392895507, 0.052000000000000005, 0.976, 0.266, 192.0, 0.0, 0.0, 0.0, 0.0, 0.0, 0.0, 0.0, 0.0, 0.0, 1.695766872957618E9, 0.0, 2023-09-26 17:21:12.957
30.0, 35082.672248205214, 50140.86367378994, -19360.254032642133, -26130.12804152108, 10696.427309087196, 9158.269662650784, -187500.02235174447, -22889.259205968287, 15274.712774123285, -27582.79026541594, 52472.46354490084, -26747.751444310124, 9391.979502675475, -23508.715451802665, -30510.265291960874, -20109.12687887274, 0.052000000000000005, 0.976, 0.266, 192.0, 0.0, 0.0, 0.0, 0.0, 0.0, 0.0, 0.0, 0.0, 0.0, 1.695766873017947E9, 0.0, 2023-09-26 17:21:13.017
32.0, 35076.972553369116, 50153.55946464056, -19371.251090914142, -26132.3185124777, 10713.660504062236, 9246.40259103806, -187500.02235174447, -22846.36620835855, 15283.474657949766, -27585.763047428496, 52405.83299467957, -26745.24804893113, 9401.501345813436, -23505.54150409001, -30506.241977958918, -20167.93431853465, 0.048, 0.982, 0.266, 192.0, 0.5, 64.0, 15.0, 88.0, 4.0, 40.0, 0.0, 0.0, 0.0, 1.69576687301796E9, 0.0, 2023-09-26 17:21:13.017
34.0, 35082.627544716306, 50143.8364558025, -19364.92554723329, -26121.88024781707, 10693.186306141175, 9162.29297665274, -187500.02235174447, -22901.91029332999, 15265.325041452055, -27581.046829348426, 52513.30018202069, -26744.041054730544, 9391.420709064092, -23503.619254066856, -30509.415925671572, -20065.093942295785, 0.048, 0.982, 0.266, 192.0, 0.0, 0.0, 0.0, 0.0, 0.0, 0.0, 0.0, 0.0, 0.0, 1.695766873017964E9, 0.0, 2023-09-26 17:21:13.017
36.0, 35083.70042845016, 50164.95885431276, -19369.887634502367, -26119.846239071638, 10719.673123320714, 9240.97111713542, -187500.02235174447, -22848.109644426066, 15272.008213044193, -27577.671715935674, 52401.63086672198, -26729.37831036786, 9403.244781880949, -23497.539579575012, -30505.571425625258, -20168.649574357223, 0.048, 0.982, 0.266, 192.0, 0.0, 0.0, 0.0, 0.0, 0.0, 0.0, 0.0, 0.0, 0.0, 1.695766873017967E9, 0.0, 2023-09-26 17:21:13.017
38.0, 35091.791759942986, 50147.099810492975, -19369.462951357717, -26122.394337939542, 10692.247532874053, 9162.762363286301, -187500.02235174447, -22905.844200354124, 15276.813838102084, -27576.755294413008, 52500.40322546998, -26731.05469120201, 9398.66267426761, -23498.32189063095, -30509.37122218266, -20081.34366051479, 0.048, 0.982, 0.266, 192.0, 0.0, 0.0, 0.0, 0.0, 0.0, 0.0, 0.0, 0.0, 0.0, 1.69576687301797E9, 0.0, 2023-09-26 17:21:13.017
40.0, 35077.71016093614, 50151.078421006016, -19381.93522476378, -26132.139698522056, 10712.609972072838, 9242.312221802738, -187500.02235174447, -22864.67228706745, 15279.004309058704, -27583.03613460495, 52363.722308125776, -26732.596961569427, 9400.830793479776, -23501.428783110237, -30509.70649834949, -20202.91479860721, 0.048, 0.982, 0.266, 192.0, 0.0, 0.0, 0.0, 0.0, 0.0, 0.0, 0.0, 0.0, 0.0, 1.695766873017973E9, 0.0, 2023-09-26 17:21:13.017
42.0, 35085.30975405094, 50136.818008043534, -19373.620375826406, -26128.094032775647, 10682.502172291539, 9156.995613216832, -187500.02235174447, -22918.137659804543, 15275.606843901498, -27591.440390520143, 52507.26521101776, -26742.00704598511, 9392.270075353394, -23510.592998336913, -30525.486829934936, -20069.854863864766, 0.052000000000000005, 0.978, 0.27, 192.0, 0.5, 80.0, 15.0, 72.0, 4.0, 56.0, 0.0, 0.0, 0.0, 1.695766873017977E9, 0.0, 2023-09-26 17:21:13.017
44.0, 35082.85106216086, 50150.519627394635, -19372.54749209255, -26121.522619905787, 10720.254268676552, 9234.82438741021, -187500.02235174447, -22849.204879904377, 15282.69234689383, -27583.818445660883, 52345.79620907262, -26734.89919124832, 9397.992121933952, -23502.345204632904, -30515.09326876322, -20223.925438395196, 0.052000000000000005, 0.978, 0.27, 192.0, 0.0, 0.0, 0.0, 0.0, 0.0, 0.0, 0.0, 0.0, 0.0, 1.695766873079777E9, 0.0, 2023-09-26 17:21:13.079
46.0, 35087.723742452115, 50139.23199644471, -19377.129599705888, -26130.016282798802, 10683.172724625198, 9170.697232567934, -187500.02235174447, -22905.35246197611, 15275.83036134605, -27591.97683238707, 52510.729731408326, -26737.223772671674, 9400.651979524133, -23505.720318045656, -30518.267216475873, -20071.017154576442, 0.052000000000000005, 0.978, 0.27, 192.0, 0.0, 0.0, 0.0, 0.0, 0.0, 0.0, 0.0, 0.0, 0.0, 1.695766873079821E9, 0.0, 2023-09-26 17:21:13.079
48.0, 35081.9793441271, 50143.21060695775, -19373.821541526504, -26128.518715920298, 10721.88594602179, 9225.436654738982, -187500.02235174447, -22851.305943883177, 15288.97318708577, -27592.55797774291, 52357.55322665611, -26744.018702986086, 9398.841488223254, -23507.955492491186, -30516.210855985984, -20214.604760957332, 0.052000000000000005, 0.978, 0.27, 192.0, 0.0, 0.0, 0.0, 0.0, 0.0, 0.0, 0.0, 0.0, 0.0, 1.695766873079825E9, 0.0, 2023-09-26 17:21:13.079
50.0, 35086.91907965173, 50134.44872313127, -19367.49599784565, -26131.35738746612, 10698.684835277181, 9172.23950293535, -187500.02235174447, -22891.472028669363, 15282.759402127196, -27598.682355723664, 52511.48969071981, -26748.9137350218, 9406.48578482697, -23515.353919905894, -30509.32651869375, -20066.658564407655, 0.052000000000000005, 0.978, 0.27, 192.0, 0.0, 0.0, 0.0, 0.0, 0.0, 0.0, 0.0, 0.0, 0.0, 1.695766873079828E9, 0.0, 2023-09-26 17:21:13.079
52.0, 35080.034742359494, 50137.91324352184, -19369.373544379898, -26128.40695719802, 10723.40586464475, 9211.600924921147, -187500.02235174447, -22858.32439164214, 15287.497971951721, -27594.189655088147, 52346.17618872836, -26747.594982098937, 9402.820098736298, -23512.93993150472, -30499.51410287787, -20224.350121539846, 0.054, 0.974, 0.268, 192.0, 0.5, 88.0, 15.0, 56.0, 4.0, 48.0, 0.0, 0.0, 0.0, 1.695766873079832E9, 0.0, 2023-09-26 17:21:13.079
54.0, 35084.90742265075, 50143.72469708022, -19378.69422181776, -26132.02793979978, 10696.315550364918, 9187.639854865058, -187500.02235174447, -22892.81313333668, 15277.97612881376, -27600.60460574682, 52508.96394359636, -26748.66786583279, 9407.066930182807, -23517.991425751617, -30504.543245380315, -20066.30093649637, 0.054, 0.974, 0.268, 192.0, 0.0, 0.0, 0.0, 0.0, 0.0, 0.0, 0.0, 0.0, 0.0, 1.695766873079835E9, 0.0, 2023-09-26 17:21:13.079
56.0, 35086.06971336243, 50146.049278503575, -19375.56497759402, -26122.684910617463, 10709.234858660086, 9200.492107926859, -187500.02235174447, -22858.927888742433, 15284.771059128174, -27588.422905018677, 52377.490982710246, -26738.900153505823, 9395.041691665852, -23507.731975046634, -30507.113695992673, -20190.017842056495, 0.054, 0.974, 0.268, 192.0, 0.0, 0.0, 0.0, 0.0, 0.0, 0.0, 0.0, 0.0, 0.0, 1.695766873079839E9, 0.0, 2023-09-26 17:21:13.079
58.0, 35085.913251151236, 50137.60031909947, -19381.667003830316, -26130.55272466573, 10690.995835184554, 9195.10533751313, -187500.02235174447, -22886.979328033845, 15281.887684093439, -27593.31793705439, 52489.22735324232, -26739.43659537275, 9404.407072592625, -23510.83886752592, -30512.522818150857, -20083.44472449359, 0.054, 0.974, 0.268, 192.0, 0.0, 0.0, 0.0, 0.0, 0.0, 0.0, 0.0, 0.0, 0.0, 1.695766873079842E9, 0.0, 2023-09-26 17:21:13.079
60.0, 35082.35932378284, 50135.45455163176, -19376.92843400579, -26122.237875728355, 10704.362178368829, 9191.39494793355, -187500.02235174447, -22868.829711536135, 15284.055803305604, -27588.624070718775, 52381.469593223286, -26739.727168050667, 9391.778336975376, -23507.195533179707, -30517.976643797952, -20194.823467114387, 0.054, 0.974, 0.268, 192.0, 0.0, 0.0, 0.0, 0.0, 0.0, 0.0, 0.0, 0.0, 0.0, 1.695766873138498E9, 0.0, 2023-09-26 17:21:13.138
62.0, 35088.79662618597, 50144.66347034735, -19387.567864366516, -26135.31364623471, 10695.622646286804, 9207.91288708602, -187500.02235174447, -22870.729609814836, 15279.183123014347, -27596.60364348932, 52491.82015559914, -26737.559048838502, 9402.797746991844, -23513.856353027386, -30522.692861878022, -20086.10458208377, 0.056, 0.978, 0.274, 192.0, 0.5, 96.0, 15.0, 72.0, 4.0, 72.0, 0.0, 0.0, 0.0, 1.695766873138511E9, 0.0, 2023-09-26 17:21:13.138
64.0, 35083.92394589471, 50138.49438887768, -19386.003242254646, -26127.535239164263, 10701.478803334094, 9169.937273256453, -187500.02235174447, -22879.782066319236, 15283.295843994123, -27590.03223061946, 52412.0691313826, -26738.38606338335, 9394.684063754567, -23507.262588413072, -30518.222512986962, -20166.07912374486, 0.056, 0.978, 0.274, 192.0, 0.0, 0.0, 0.0, 0.0, 0.0, 0.0, 0.0, 0.0, 0.0, 1.695766873138515E9, 0.0, 2023-09-26 17:21:13.138
66.0, 35078.000733614055, 50145.04345000308, -19388.998376011656, -26126.350596708133, 10697.254323632042, 9211.466814454416, -187500.02235174447, -22874.3505924166, 15274.936291567838, -27595.776628944473, 52458.516056360735, -26742.47643261867, 9404.00474119243, -23508.715451802665, -30520.457687432492, -20112.993730663507, 0.056, 0.978, 0.274, 192.0, 0.0, 0.0, 0.0, 0.0, 0.0, 0.0, 0.0, 0.0, 0.0, 1.695766873138518E9, 0.0, 2023-09-26 17:21:13.138
68.0, 35082.44873076066, 50134.49342662018, -19377.01784098361, -26119.421555926987, 10698.684835277181, 9165.153999943019, -187500.02235174447, -22887.873397812058, 15281.105373037502, -27592.200349831626, 52407.03998888016, -26739.99538898413, 9396.203982377529, -23506.100297701396, -30516.881408319645, -20165.69914408912, 0.056, 0.978, 0.274, 192.0, 0.0, 0.0, 0.0, 0.0, 0.0, 0.0, 0.0, 0.0, 0.0, 1.695766873138522E9, 0.0, 2023-09-26 17:21:13.138
70.0, 35082.85106216086, 50148.977357027215, -19374.179169437786, -26125.680044374472, 10709.905410993744, 9228.49884372936, -187500.02235174447, -22856.2456794078, 15280.747745126218, -27594.547282999432, 52444.54621607617, -26732.395795869328, 9412.453700596536, -23507.821382024453, -30510.488809405426, -20126.494184314513, 0.056, 0.978, 0.274, 192.0, 0.0, 0.0, 0.0, 0.0, 0.0, 0.0, 0.0, 0.0, 0.0, 1.695766873138525E9, 0.0, 2023-09-26 17:21:13.138
72.0, 35078.87245164782, 50133.9346330088, -19377.77780029509, -26136.341826479653, 10692.560457296428, 9160.504837096314, -187500.02235174447, -22890.801476335702, 15274.444553189822, -27600.716364469095, 52453.01752722473, -26748.399644899328, 9396.963941689008, -23515.756251306088, -30509.88531230513, -20119.58749527782, 0.048, 0.976, 0.272, 192.0, 0.5, 64.0, 15.0, 64.0, 4.0, 64.0, 0.0, 0.0, 0.0, 1.695766873138528E9, 0.0, 2023-09-26 17:21:13.138
74.0, 35076.83844290238, 50144.73052558071, -19388.55134112255, -26139.292256747754, 10711.447681361162, 9226.82246289521, -187500.02235174447, -22860.537214343218, 15272.812875844584, -27601.610434247308, 52435.96314620533, -26749.91956352229, 9406.619895293701, -23515.823306539456, -30508.45480065999, -20127.634123281732, 0.048, 0.976, 0.272, 192.0, 0.0, 0.0, 0.0, 0.0, 0.0, 0.0, 0.0, 0.0, 0.0, 1.695766873198749E9, 0.0, 2023-09-26 17:21:13.198
76.0, 35080.79470167097, 50130.648926573864, -19374.335631648974, -26125.07654727418, 10703.468108590616, 9157.152075428019, -187500.02235174447, -22890.75677284679, 15274.153980511903, -27598.59294874584, 52469.066079743636, -26753.473490890683, 9394.281732354371, -23513.65518732729, -30509.393573927115, -20096.185218833118, 0.048, 0.976, 0.272, 192.0, 0.0, 0.0, 0.0, 0.0, 0.0, 0.0, 0.0, 0.0, 0.0, 1.695766873198763E9, 0.0, 2023-09-26 17:21:13.198
78.0, 35086.56145174044, 50151.79367682859, -19377.688393317272, -26126.372948452587, 10721.863594277334, 9240.859358413143, -187500.02235174447, -22844.823937991136, 15282.267663749179, -27589.495788752534, 52411.28682032667, -26732.552258080515, 9414.28654364187, -23502.83694301092, -30501.99514651241, -20148.667114814176, 0.048, 0.976, 0.272, 192.0, 0.0, 0.0, 0.0, 0.0, 0.0, 0.0, 0.0, 0.0, 0.0, 1.695766873198767E9, 0.0, 2023-09-26 17:21:13.198
80.0, 35094.004582644055, 50142.405944157355, -19383.276329431097, -26129.99393105435, 10684.200904870142, 9147.89845322352, -187500.02235174447, -22907.609988166096, 15284.815762617083, -27590.16634108619, 52483.8405828286, -26735.502688348617, 9398.86383996771, -23508.581341335936, -30519.675376376556, -20085.32227102784, 0.048, 0.976, 0.272, 192.0, 0.0, 0.0, 0.0, 0.0, 0.0, 0.0, 0.0, 0.0, 0.0, 1.69576687319877E9, 0.0, 2023-09-26 17:21:13.198
82.0, 35090.98709714259, 50159.14740075438, -19389.624224856405, -26132.094995033145, 10709.190155171174, 9233.30446878725, -187500.02235174447, -22852.08825493911, 15282.468829449277, -27589.071105607884, 52369.19848551732, -26730.875877246366, 9405.301142370838, -23506.41322212377, -30521.84349558872, -20194.309376991914, 0.046, 0.972, 0.274, 192.0, 0.5, 56.0, 15.0, 48.0, 4.0, 72.0, 0.0, 0.0, 0.0, 1.695766873198774E9, 0.0, 2023-09-26 17:21:13.198
84.0, 35088.12607385231, 50138.80731330005, -19384.17039920931, -26122.37198619509, 10684.983215926077, 9159.253139406817, -187500.02235174447, -22905.48657244284, 15275.964471812782, -27593.340288798845, 52477.179762980915, -26742.96817099669, 9395.242857365949, -23508.491934358113, -30524.704518879, -20095.045279865895, 0.046, 0.972, 0.274, 192.0, 0.0, 0.0, 0.0, 0.0, 0.0, 0.0, 0.0, 0.0, 0.0, 1.695766873198777E9, 0.0, 2023-09-26 17:21:13.198
86.0, 35089.78010294201, 50158.901531565374, -19381.957576508234, -26112.3137011902, 10715.135719196287, 9245.754390448856, -187500.02235174447, -22847.014408947758, 15278.914902080884, -27588.534663740953, 52373.713537897296, -26728.819516756477, 9404.116499914706, -23499.08184994243, -30515.339137952225, -20188.810847855908, 0.046, 0.972, 0.274, 192.0, 0.0, 0.0, 0.0, 0.0, 0.0, 0.0, 0.0, 0.0, 0.0, 1.69576687319878E9, 0.0, 2023-09-26 17:21:13.198
88.0, 35096.4856262786, 50150.34081343899, -19385.84678004346, -26119.041576271247, 10686.54783803795, 9169.445534878438, -187500.02235174447, -22902.938473574934, 15275.629195645954, -27584.868977650283, 52501.63257141502, -26731.76994702458, 9397.701549256033, -23500.46765809866, -30521.88819907763, -20072.022983076928, 0.046, 0.972, 0.274, 192.0, 0.0, 0.0, 0.0, 0.0, 0.0, 0.0, 0.0, 0.0, 0.0, 1.695766873198783E9, 0.0, 2023-09-26 17:21:13.198
90.0, 35085.08623660639, 50157.69453736479, -19397.000300526655, -26135.872439846094, 10712.319399394919, 9240.121750846118, -187500.02235174447, -22853.585821817618, 15278.356108469501, -27588.780532929963, 52365.77866861566, -26734.988598226144, 9397.567438789301, -23504.155695933783, -30521.37410895516, -20196.410440970714, 0.046, 0.972, 0.274, 192.0, 0.0, 0.0, 0.0, 0.0, 0.0, 0.0, 0.0, 0.0, 0.0, 1.695766873258629E9, 0.0, 2023-09-26 17:21:13.258
92.0, 35078.73834118108, 50139.65667958936, -19391.702937090748, -26138.822870114192, 10685.653768259737, 9161.376555130071, -187500.02235174447, -22911.812116123692, 15267.02377403066, -27604.56086451541, 52521.23505130233, -26752.33355192346, 9392.225371864482, -23518.907847274288, -30524.346890967718, -20048.888927565687, 0.044, 0.972, 0.272, 192.0, 0.5, 48.0, 15.0, 48.0, 4.0, 64.0, 0.0, 0.0, 0.0, 1.695766873258641E9, 0.0, 2023-09-26 17:21:13.258
94.0, 35067.33895150888, 50141.31070867905, -19387.21023645523, -26133.369044467097, 10721.818890788423, 9224.58728844968, -187500.02235174447, -22861.230118421332, 15265.727372852252, -27602.638614492254, 52375.456973964814, -26749.71839782219, 9395.712243999511, -23515.353919905894, -30515.22737922995, -20181.121847763283, 0.044, 0.972, 0.272, 192.0, 0.0, 0.0, 0.0, 0.0, 0.0, 0.0, 0.0, 0.0, 0.0, 1.695766873258644E9, 0.0, 2023-09-26 17:21:13.258
96.0, 35075.6761521907, 50136.616842343436, -19382.650480586348, -26139.4710707034, 10690.749965995547, 9166.025717976776, -187500.02235174447, -22910.67217715647, 15264.49802690721, -27603.487980781556, 52542.469208534865, -26744.28692391955, 9402.86480222521, -23516.27034142856, -30512.947501295508, -20031.45456689055, 0.044, 0.972, 0.272, 192.0, 0.0, 0.0, 0.0, 0.0, 0.0, 0.0, 0.0, 0.0, 0.0, 1.695766873258648E9, 0.0, 2023-09-26 17:21:13.258
98.0, 35077.598402213865, 50146.20574071476, -19387.21023645523, -26145.081358561678, 10719.918992509723, 9210.170413276008, -187500.02235174447, -22870.05905748118, 15273.192855500325, -27603.666794737197, 52380.24024727825, -26750.746578067134, 9401.344883602249, -23516.404451895294, -30504.342079680217, -20187.268577488492, 0.044, 0.972, 0.272, 192.0, 0.0, 0.0, 0.0, 0.0, 0.0, 0.0, 0.0, 0.0, 0.0, 1.695766873258651E9, 0.0, 2023-09-26 17:21:13.258
100.0, 35083.00752437205, 50144.372897669426, -19389.26659694512, -26147.31653300721, 10691.621684029304, 9174.653491336525, -187500.02235174447, -22895.875322327058, 15263.715715851275, -27612.451030308133, 52537.574176499154, -26757.362694425905, 9400.473165568492, -23526.46273690018, -30516.680242619546, -20043.30099145186, 0.044, 0.972, 0.272, 192.0, 0.0, 0.0, 0.0, 0.0, 0.0, 0.0, 0.0, 0.0, 0.0, 1.695766873258654E9, 0.0, 2023-09-26 17:21:13.258
102.0, 35085.66738196223, 50148.53032213811, -19378.560111351027, -26128.74223336485, 10721.148338454765, 9199.933314315476, -187500.02235174447, -22861.923022499446, 15275.383326456944, -27601.23045459157, 52388.71155842681, -26750.14308096684, 9398.997950434441, -23517.94672226271, -30506.912530292575, -20181.94886230813, 0.042, 0.974, 0.27, 192.0, 0.5, 40.0, 15.0, 56.0, 4.0, 56.0, 0.0, 0.0, 0.0, 1.695766873258658E9, 0.0, 2023-09-26 17:21:13.258
104.0, 35092.41760878773, 50159.72854611022, -19376.30258516104, -26117.45460241492, 10700.472974833605, 9194.814764835211, -187500.02235174447, -22888.208673978887, 15278.467867191777, -27589.540492241442, 52520.31862977966, -26729.37831036786, 9416.074683198296, -23506.502629101593, -30505.884350047632, -20069.340773742293, 0.042, 0.974, 0.27, 192.0, 0.0, 0.0, 0.0, 0.0, 0.0, 0.0, 0.0, 0.0, 0.0, 1.695766873319278E9, 0.0, 2023-09-26 17:21:13.319
106.0, 35092.79758844347, 50161.427278688825, -19387.143181221865, -26122.751965850828, 10702.194059156664, 9214.7748726338, -187500.02235174447, -22861.587746332618, 15282.044146304626, -27582.6114514603, 52395.50648874122, -26727.81368825599, 9399.042653923352, -23500.579416820936, -30520.43533568804, -20186.575673410378, 0.042, 0.974, 0.27, 192.0, 0.0, 0.0, 0.0, 0.0, 0.0, 0.0, 0.0, 0.0, 0.0, 1.695766873319319E9, 0.0, 2023-09-26 17:21:13.319
108.0, 35108.980251429115, 50171.73143288272, -19383.097515475456, -26120.3156257052, 10699.802422499946, 9207.689369641468, -187500.02235174447, -22873.009487749277, 15285.821591117572, -27586.187730573147, 52540.01051664478, -26731.81465051349, 9409.950305217542, -23502.27814939954, -30520.457687432492, -20045.20088973056, 0.042, 0.974, 0.27, 192.0, 0.0, 0.0, 0.0, 0.0, 0.0, 0.0, 0.0, 0.0, 0.0, 1.695766873319324E9, 0.0, 2023-09-26 17:21:13.319
110.0, 35085.197995328665, 50146.69747909278, -19395.63684411488, -26131.670311888494, 10700.741195767068, 9180.710814083912, -187500.02235174447, -22874.305888927687, 15285.106335295002, -27594.167303343693, 52407.28585806917, -26741.91763900729, 9396.159278888617, -23509.587169836424, -30517.99899554241, -20171.04121101394, 0.042, 0.974, 0.27, 192.0, 0.0, 0.0, 0.0, 0.0, 0.0, 0.0, 0.0, 0.0, 0.0, 1.695766873319328E9, 0.0, 2023-09-26 17:21:13.319
112.0, 35078.000733614055, 50150.63138611691, -19396.106230748443, -26136.766509624304, 10694.616817786315, 9194.121860757097, -187500.02235174447, -22883.023069265255, 15263.760419340184, -27614.2168181201, 52497.29633299069, -26747.706740821213, 9401.456642324525, -23528.36263517888, -30527.56554216928, -20087.915073384655, 0.044, 0.972, 0.274, 192.0, 0.5, 48.0, 15.0, 48.0, 4.0, 72.0, 0.0, 0.0, 0.0, 1.695766873319332E9, 0.0, 2023-09-26 17:21:13.319
114.0, 35076.32435277991, 50139.38845865589, -19393.580483624995, -26139.135794536567, 10695.287370119973, 9166.182180187963, -187500.02235174447, -22887.09108675612, 15276.232692746245, -27606.483114538565, 52416.45007329585, -26742.029397729566, 9393.924104443086, -23526.79801306701, -30519.04952753181, -20170.6612313582, 0.044, 0.972, 0.274, 192.0, 0.0, 0.0, 0.0, 0.0, 0.0, 0.0, 0.0, 0.0, 0.0, 1.695766873319336E9, 0.0, 2023-09-26 17:21:13.319
116.0, 35090.294193064474, 50153.62651987392, -19394.854533058948, -26143.248515516345, 10695.086204419877, 9211.332703987682, -187500.02235174447, -22875.15525521699, 15268.096657764514, -27614.84266696485, 52497.586905668606, -26743.795185541534, 9404.38472084817, -23535.694007360224, -30527.6549491471, -20092.564236231356, 0.044, 0.972, 0.274, 192.0, 0.0, 0.0, 0.0, 0.0, 0.0, 0.0, 0.0, 0.0, 0.0, 1.695766873319341E9, 0.0, 2023-09-26 17:21:13.319
118.0, 35084.25922206154, 50138.96377551124, -19392.664062102325, -26142.55561143823, 10688.760660739024, 9153.195816659429, -187500.02235174447, -22901.552665418705, 15278.758439869696, -27607.64540525024, 52465.713318075344, -26746.320932664985, 9392.09126139775, -23529.74844333511, -30518.75895485389, -20127.991751193018, 0.044, 0.972, 0.274, 192.0, 0.0, 0.0, 0.0, 0.0, 0.0, 0.0, 0.0, 0.0, 0.0, 1.695766873319345E9, 0.0, 2023-09-26 17:21:13.319
120.0, 35072.2786870335, 50142.96473776874, -19392.865227802424, -26145.103710306135, 10707.089091192376, 9213.880802855589, -187500.02235174447, -22865.14167370101, 15260.295898949613, -27624.56567580291, 52493.07185328864, -26757.988543270654, 9401.322531857793, -23539.382045195347, -30514.936806552032, -20091.469000753048, 0.044, 0.972, 0.274, 192.0, 0.0, 0.0, 0.0, 0.0, 0.0, 0.0, 0.0, 0.0, 0.0, 1.695766873378236E9, 0.0, 2023-09-26 17:21:13.378
122.0, 35073.15040506726, 50138.47203713322, -19381.08585847448, -26126.68587287496, 10709.771300527012, 9151.832360247656, -187500.02235174447, -22880.989060519823, 15270.220073487768, -27610.193504118146, 52478.54321939269, -26751.886517034356, 9398.774432989889, -23523.825231054456, -30488.852320772687, -20097.749840944987, 0.044, 0.968, 0.274, 192.0, 0.5, 48.0, 15.0, 32.0, 4.0, 72.0, 0.0, 0.0, 0.0, 1.695766873378248E9, 0.0, 2023-09-26 17:21:13.378
124.0, 35082.404027271754, 50161.20376124427, -19387.679623088792, -26127.93757056446, 10717.21443143063, 9227.87299488461, -187500.02235174447, -22850.188356660412, 15267.537864153132, -27601.87865518077, 52424.34023908857, -26735.547391837525, 9415.068854697807, -23517.186762951227, -30492.47330337445, -20147.393065380224, 0.044, 0.968, 0.274, 192.0, 0.0, 0.0, 0.0, 0.0, 0.0, 0.0, 0.0, 0.0, 0.0, 1.695766873378252E9, 0.0, 2023-09-26 17:21:13.378
126.0, 35085.80149242896, 50143.76940056913, -19396.709727848738, -26134.64309390105, 10687.866590960812, 9153.866368993089, -187500.02235174447, -22896.612929894083, 15276.16563751288, -27605.1643616157, 52465.065117486134, -26743.638723330347, 9396.00281667743, -23525.255742699595, -30512.43341117304, -20115.51947778696, 0.044, 0.968, 0.274, 192.0, 0.0, 0.0, 0.0, 0.0, 0.0, 0.0, 0.0, 0.0, 0.0, 1.695766873378255E9, 0.0, 2023-09-26 17:21:13.378
128.0, 35090.78593144249, 50162.12018276694, -19399.146067994367, -26127.93757056446, 10709.145451682265, 9234.7796839213, -187500.02235174447, -22845.58389730262, 15275.360974712488, -27610.193504118146, 52429.81641648012, -26742.05174947402, 9404.295313870349, -23528.0050072676, -30513.193370484518, -20146.409588624192, 0.044, 0.968, 0.274, 192.0, 0.0, 0.0, 0.0, 0.0, 0.0, 0.0, 0.0, 0.0, 0.0, 1.695766873378259E9, 0.0, 2023-09-26 17:21:13.378
130.0, 35082.694599949675, 50144.77522906962, -19389.93714927878, -26118.25926521531, 10687.888942705267, 9152.681726536957, -187500.02235174447, -22893.371926948064, 15275.651547390407, -27604.69497498214, 52491.95426606587, -26739.458947117204, 9397.634494022668, -23518.639626340824, -30509.70649834949, -20087.825666406832, 0.044, 0.968, 0.274, 192.0, 0.0, 0.0, 0.0, 0.0, 0.0, 0.0, 0.0, 0.0, 0.0, 1.695766873378262E9, 0.0, 2023-09-26 17:21:13.378
132.0, 35074.737378923586, 50160.62261588843, -19395.70389934825, -26124.07071877369, 10716.298009907963, 9237.931279889499, -187500.02235174447, -22842.968743201345, 15268.588396142532, -27608.494771539543, 52389.33740727156, -26733.893362747833, 9409.302104628337, -23520.405414152792, -30505.03498375833, -20178.976080295575, 0.05, 0.972, 0.27, 192.0, 0.5, 72.0, 15.0, 48.0, 4.0, 56.0, 0.0, 0.0, 0.0, 1.695766873378265E9, 0.0, 2023-09-26 17:21:13.378
134.0, 35082.828710416405, 50155.50406640817, -19399.36958543892, -26132.139698522056, 10680.758736224025, 9148.457246834903, -187500.02235174447, -22907.76645037728, 15265.325041452055, -27607.310129083413, 52508.65101917399, -26738.05078721652, 9399.489688812459, -23524.115803732373, -30518.222512986962, -20070.748933642975, 0.05, 0.972, 0.27, 192.0, 0.0, 0.0, 0.0, 0.0, 0.0, 0.0, 0.0, 0.0, 0.0, 1.695766873438449E9, 0.0, 2023-09-26 17:21:13.438
136.0, 35089.55658549745, 50169.049223548085, -19409.182001254798, -26140.186326525967, 10701.009416700534, 9223.11207331563, -187500.02235174447, -22860.291345154208, 15271.538826410631, -27605.81256220491, 52379.927322855874, -26736.419109871284, 9401.277828368882, -23525.94864677771, -30528.19139101403, -20193.303548491425, 0.05, 0.972, 0.27, 192.0, 0.0, 0.0, 0.0, 0.0, 0.0, 0.0, 0.0, 0.0, 0.0, 1.695766873438463E9, 0.0, 2023-09-26 17:21:13.438
138.0, 35088.32723955241, 50151.10077275048, -19404.577541897004, -26140.65571315953, 10683.463297303117, 9154.04518294873, -187500.02235174447, -22904.883075342546, 15277.68555613584, -27613.054527408425, 52527.96292638337, -26745.672732075782, 9398.930895201076, -23534.866992815376, -30525.732699123946, -20060.713000382544, 0.05, 0.972, 0.27, 192.0, 0.0, 0.0, 0.0, 0.0, 0.0, 0.0, 0.0, 0.0, 0.0, 1.695766873438472E9, 0.0, 2023-09-26 17:21:13.438
140.0, 35075.29617253497, 50159.77324959913, -19391.144143479367, -26128.183439753466, 10720.276620421007, 9222.888555871077, -187500.02235174447, -22850.411874104964, 15267.984899042238, -27610.864056451806, 52396.69113119735, -26740.375368639874, 9401.456642324525, -23530.88838230233, -30516.769649597365, -20175.265690715994, 0.05, 0.972, 0.27, 192.0, 0.0, 0.0, 0.0, 0.0, 0.0, 0.0, 0.0, 0.0, 0.0, 1.695766873438475E9, 0.0, 2023-09-26 17:21:13.438
142.0, 35074.22328880111, 50149.71496459424, -19384.1256957204, -26123.869553073593, 10694.482707319583, 9168.23854067785, -187500.02235174447, -22895.875322327058, 15262.732239095241, -27604.471457537587, 52542.06687713467, -26734.809784270503, 9410.978485462485, -23524.160507221284, -30502.50923663488, -20043.278639707405, 0.05, 0.97, 0.262, 192.0, 0.5, 72.0, 15.0, 40.0, 4.0, 24.0, 0.0, 0.0, 0.0, 1.695766873438478E9, 0.0, 2023-09-26 17:21:13.438
144.0, 35076.190242313176, 50157.60513038697, -19388.84191380047, -26131.290332232755, 10723.897603022768, 9226.844814639666, -187500.02235174447, -22846.097987425088, 15268.767210098173, -27598.280024323467, 52385.53761071416, -26731.546429580027, 9410.062063939818, -23519.690158330224, -30502.57629186825, -20187.84972284433, 0.05, 0.97, 0.262, 192.0, 0.0, 0.0, 0.0, 0.0, 0.0, 0.0, 0.0, 0.0, 0.0, 1.695766873438482E9, 0.0, 2023-09-26 17:21:13.438
146.0, 35081.80053017146, 50151.21253147275, -19395.03334701459, -26142.622666671596, 10691.129945651288, 9179.526171627782, -187500.02235174447, -22895.47299092686, 15262.59812862851, -27606.103134882826, 52557.89191220903, -26748.757272810613, 9407.826889494287, -23529.815498568478, -30511.60639662819, -20028.34767441126, 0.05, 0.97, 0.262, 192.0, 0.0, 0.0, 0.0, 0.0, 0.0, 0.0, 0.0, 0.0, 0.0, 1.695766873438485E9, 0.0, 2023-09-26 17:21:13.438
148.0, 35078.023085358516, 50155.906397808365, -19386.383221910386, -26136.54299217975, 10714.666332562725, 9219.848718625155, -187500.02235174447, -22854.703409040383, 15269.460114176289, -27595.84368417784, 52408.35874180302, -26755.306333936016, 9398.327398100782, -23521.098318230906, -30515.003861785397, -20160.647649842223, 0.05, 0.97, 0.262, 192.0, 0.0, 0.0, 0.0, 0.0, 0.0, 0.0, 0.0, 0.0, 0.0, 1.695766873438489E9, 0.0, 2023-09-26 17:21:13.438
150.0, 35077.95603012515, 50151.570159384035, -19371.2734426586, -26132.07264328869, 10701.322341122906, 9190.746747344345, -187500.02235174447, -22881.994889020312, 15269.728335109752, -27587.12650384027, 52546.55957777019, -26750.634819344858, 9414.420654108602, -23510.213018681174, -30503.76093432438, -20035.835508803786, 0.05, 0.97, 0.262, 192.0, 0.0, 0.0, 0.0, 0.0, 0.0, 0.0, 0.0, 0.0, 0.0, 1.695766873500285E9, 0.0, 2023-09-26 17:21:13.500
152.0, 35077.598402213865, 50156.6887088643, -19363.137407676866, -26127.445832186444, 10720.097806465365, 9206.281209740784, -187500.02235174447, -22858.1455776865, 15272.723468866763, -27575.525948467966, 52391.34906427254, -26750.880688533867, 9405.14468015965, -23504.647434311802, -30508.477152404448, -20177.165588994692, 0.048, 0.974, 0.26, 192.0, 0.5, 64.0, 15.0, 56.0, 4.0, 16.0, 0.0, 0.0, 0.0, 1.695766873500296E9, 0.0, 2023-09-26 17:21:13.500
154.0, 35089.22130933062, 50167.52930492513, -19363.606794310428, -26128.78693685376, 10697.50019282105, 9199.508631170826, -187500.02235174447, -22879.782066319236, 15275.942120068326, -27561.869032605773, 52515.4459494884, -26733.602790069915, 9414.91239248662, -23497.517227830558, -30511.60639662819, -20066.122122540728, 0.048, 0.974, 0.26, 192.0, 0.0, 0.0, 0.0, 0.0, 0.0, 0.0, 0.0, 0.0, 0.0, 1.6957668735003E9, 0.0, 2023-09-26 17:21:13.500
156.0, 35084.52744299501, 50160.801429844076, -19367.607756567926, -26132.854954344628, 10700.338864366873, 9193.384253190072, -187500.02235174447, -22869.030877236233, 15278.266701491679, -27557.86807034827, 52396.75818643072, -26736.821441271477, 9394.929932943574, -23497.047841196996, -30521.08353627724, -20172.404667425715, 0.048, 0.974, 0.26, 192.0, 0.0, 0.0, 0.0, 0.0, 0.0, 0.0, 0.0, 0.0, 0.0, 1.695766873500304E9, 0.0, 2023-09-26 17:21:13.500
158.0, 35086.382637784794, 50164.6906333793, -19364.63497455537, -26130.440965943453, 10695.35442535334, 9204.940105073465, -187500.02235174447, -22874.663516838973, 15271.337660710535, -27564.171262284668, 52515.02126634375, -26743.39285414134, 9406.441081338058, -23501.85346625489, -30525.7550508684, -20055.72856136901, 0.048, 0.974, 0.26, 192.0, 0.0, 0.0, 0.0, 0.0, 0.0, 0.0, 0.0, 0.0, 0.0, 1.695766873500307E9, 0.0, 2023-09-26 17:21:13.500
160.0, 35078.89480339227, 50154.45353441877, -19357.21419539621, -26125.07654727418, 10698.9754079551, 9176.218113448396, -187500.02235174447, -22872.897729027, 15288.190876029836, -27551.050788289405, 52405.5200702572, -26738.989560483642, 9399.847316723743, -23490.901111471787, -30518.714251364978, -20163.933356277154, 0.048, 0.974, 0.26, 192.0, 0.0, 0.0, 0.0, 0.0, 0.0, 0.0, 0.0, 0.0, 0.0, 1.69576687350031E9, 0.0, 2023-09-26 17:21:13.500
162.0, 35086.98613488509, 50163.953025812276, -19354.77785525058, -26131.089166532656, 10695.287370119973, 9212.20442202144, -187500.02235174447, -22865.164025445465, 15282.066498049082, -27558.35980872629, 52487.729786363816, -26737.894325005334, 9412.565459318812, -23496.153771418783, -30520.457687432492, -20089.144419329696, 0.052000000000000005, 0.98, 0.262, 192.0, 0.5, 80.0, 15.0, 80.0, 4.0, 24.0, 0.0, 0.0, 0.0, 1.695766873500313E9, 0.0, 2023-09-26 17:21:13.500
164.0, 35083.879242405805, 50155.86169431945, -19355.560166306517, -26127.624646142085, 10689.252399117042, 9174.42997389197, -187500.02235174447, -22877.122208729055, 15284.54754168362, -27557.97982907055, 52432.297460114656, -26743.929296008268, 9396.271037610893, -23493.35980336187, -30519.451858932003, -20139.74876877651, 0.052000000000000005, 0.98, 0.262, 192.0, 0.0, 0.0, 0.0, 0.0, 0.0, 0.0, 0.0, 0.0, 0.0, 1.695766873559284E9, 0.0, 2023-09-26 17:21:13.559
166.0, 35084.929774395205, 50173.20664801677, -19355.180186650778, -26122.081413517168, 10700.49532657806, 9230.286983285783, -187500.02235174447, -22849.115472926555, 15280.2560067482, -27562.27136400597, 52485.852239829575, -26743.48226111916, 9408.609200550223, -23493.538617317514, -30515.51795190787, -20087.669204195645, 0.052000000000000005, 0.98, 0.262, 192.0, 0.0, 0.0, 0.0, 0.0, 0.0, 0.0, 0.0, 0.0, 0.0, 1.6957668735593E9, 0.0, 2023-09-26 17:21:13.559
168.0, 35085.30975405094, 50161.561389155555, -19342.81967196699, -26108.335090677156, 10701.322341122906, 9173.781773302768, -187500.02235174447, -22870.684906325925, 15285.59807367302, -27556.303448236402, 52457.75609704925, -26743.191688441242, 9399.042653923352, -23483.189759634704, -30500.87755928964, -20116.033567909428, 0.052000000000000005, 0.98, 0.262, 192.0, 0.0, 0.0, 0.0, 0.0, 0.0, 0.0, 0.0, 0.0, 0.0, 1.695766873559304E9, 0.0, 2023-09-26 17:21:13.559
170.0, 35085.73443719559, 50170.43503170431, -19352.185052893765, -26120.002701282825, 10704.161012668732, 9240.837006668688, -187500.02235174447, -22841.404121089476, 15283.139381782936, -27557.801015114906, 52447.742515533275, -26737.13436569385, 9414.264191897415, -23484.508512557568, -30501.011669756375, -20127.74588200401, 0.052000000000000005, 0.98, 0.262, 192.0, 0.0, 0.0, 0.0, 0.0, 0.0, 0.0, 0.0, 0.0, 0.0, 1.695766873559307E9, 0.0, 2023-09-26 17:21:13.559
172.0, 35086.89672790727, 50156.93457805331, -19353.012067438613, -26125.03184378527, 10696.717881765115, 9169.62434883408, -187500.02235174447, -22871.735438315325, 15287.78854462964, -27554.78352961344, 52460.34889940607, -26735.882668004357, 9400.80844173532, -23488.151846903784, -30510.75703033889, -20120.235695867028, 0.052000000000000005, 0.974, 0.264, 192.0, 0.5, 80.0, 15.0, 56.0, 4.0, 32.0, 0.0, 0.0, 0.0, 1.695766873559311E9, 0.0, 2023-09-26 17:21:13.559
174.0, 35093.15521635475, 50177.67699690783, -19356.40953259582, -26124.294236218244, 10712.07353020591, 9237.081913600197, -187500.02235174447, -22833.759824485758, 15276.992652057726, -27565.534718696443, 52458.1807801939, -26737.648455816325, 9407.62572379419, -23495.371460362847, -30508.343041937715, -20118.916942944164, 0.052000000000000005, 0.974, 0.264, 192.0, 0.0, 0.0, 0.0, 0.0, 0.0, 0.0, 0.0, 0.0, 0.0, 1.695766873559314E9, 0.0, 2023-09-26 17:21:13.559
176.0, 35095.18922510019, 50161.136706010904, -19354.196709894743, -26119.175686737977, 10684.200904870142, 9150.088924180141, -187500.02235174447, -22885.01237452178, 15291.02954757566, -27554.761177868986, 52498.145699279994, -26731.255856902106, 9396.248685866438, -23487.28012887003, -30508.56655938227, -20085.50108498348, 0.052000000000000005, 0.974, 0.264, 192.0, 0.0, 0.0, 0.0, 0.0, 0.0, 0.0, 0.0, 0.0, 0.0, 1.695766873559317E9, 0.0, 2023-09-26 17:21:13.559
178.0, 35090.316544808935, 50175.71004339577, -19361.72924777618, -26126.954093808425, 10716.767396541525, 9237.908928145043, -187500.02235174447, -22835.27974310872, 15283.653471905409, -27558.583326170843, 52415.935983173375, -26730.361787123897, 9406.083453426774, -23490.56583530496, -30509.192408227016, -20162.055809742906, 0.052000000000000005, 0.974, 0.264, 192.0, 0.0, 0.0, 0.0, 0.0, 0.0, 0.0, 0.0, 0.0, 0.0, 1.69576687355932E9, 0.0, 2023-09-26 17:21:13.559
180.0, 35091.47883552061, 50156.30872920856, -19363.986773966168, -26135.023073556793, 10685.743175237558, 9151.631194547557, -187500.02235174447, -22890.935586802436, 15288.97318708577, -27561.26553550548, 52507.39932148449, -26738.028435472064, 9399.601447534735, -23496.55610281898, -30510.913492550077, -20081.075439581327, 0.052000000000000005, 0.974, 0.264, 192.0, 0.0, 0.0, 0.0, 0.0, 0.0, 0.0, 0.0, 0.0, 0.0, 1.695766873617875E9, 0.0, 2023-09-26 17:21:13.617
182.0, 35090.40595178675, 50169.22803750373, -19365.618451311406, -26134.151355523034, 10714.465166862628, 9237.193672322474, -187500.02235174447, -22834.206859374866, 15283.83228586105, -27566.719361152576, 52408.80577669213, -26739.950685495223, 9403.244781880949, -23502.546370333002, -30509.192408227016, -20168.7613330795, 0.054, 0.974, 0.268, 192.0, 0.5, 88.0, 15.0, 56.0, 4.0, 48.0, 0.0, 0.0, 0.0, 1.695766873617906E9, 0.0, 2023-09-26 17:21:13.617
184.0, 35084.10275985036, 50149.11146749395, -19361.818654754003, -26129.45748918742, 10687.754832238536, 9160.840113263144, -187500.02235174447, -22891.784953091737, 15276.411506701888, -27571.83791063284, 52532.455627018884, -26744.979827997668, 9393.678235254078, -23501.384079621326, -30513.148666995607, -20058.075494536817, 0.054, 0.974, 0.268, 192.0, 0.0, 0.0, 0.0, 0.0, 0.0, 0.0, 0.0, 0.0, 0.0, 1.69576687361791E9, 0.0, 2023-09-26 17:21:13.617
186.0, 35073.99977135656, 50162.07547927803, -19362.57861406548, -26125.07654727418, 10715.940381996677, 9238.043038611775, -187500.02235174447, -22839.504222810774, 15270.912977565882, -27573.49193972253, 52402.05554986663, -26742.945819252232, 9396.963941689008, -23495.50557082958, -30501.838684301223, -20178.551397150924, 0.054, 0.974, 0.268, 192.0, 0.0, 0.0, 0.0, 0.0, 0.0, 0.0, 0.0, 0.0, 0.0, 1.695766873617913E9, 0.0, 2023-09-26 17:21:13.617
188.0, 35082.35932378284, 50151.81602857304, -19353.012067438613, -26120.337977449653, 10691.241704373564, 9167.992671488842, -187500.02235174447, -22880.184397719433, 15277.573797413565, -27570.429750732157, 52541.68689747893, -26748.354941410416, 9397.746252744944, -23490.342317860406, -30501.99514651241, -20051.749950855967, 0.054, 0.974, 0.268, 192.0, 0.0, 0.0, 0.0, 0.0, 0.0, 0.0, 0.0, 0.0, 0.0, 1.695766873617917E9, 0.0, 2023-09-26 17:21:13.617
190.0, 35079.94533538167, 50161.919017066844, -19349.279326114574, -26117.40989892601, 10725.730446068103, 9232.790378664778, -187500.02235174447, -22832.485775051806, 15279.294881736623, -27567.680486164154, 52390.94673287234, -26745.40451114232, 9404.451776081536, -23488.93415795972, -30491.914509763064, -20185.636900143254, 0.054, 0.974, 0.268, 192.0, 0.0, 0.0, 0.0, 0.0, 0.0, 0.0, 0.0, 0.0, 0.0, 1.69576687361792E9, 0.0, 2023-09-26 17:21:13.617
192.0, 35082.71695169413, 50153.89474080739, -19351.44744532674, -26124.85302982963, 10701.478803334094, 9173.737069813857, -187500.02235174447, -22879.33503143013, 15278.110239280491, -27570.563861198887, 52541.843359690116, -26743.504612863617, 9406.843412738253, -23496.779620263533, -30496.22839644294, -20048.665410121135, 0.056, 0.97, 0.272, 192.0, 0.5, 96.0, 15.0, 40.0, 4.0, 64.0, 0.0, 0.0, 0.0, 1.695766873617923E9, 0.0, 2023-09-26 17:21:13.617
194.0, 35076.749035924564, 50157.247502475686, -19355.44840758424, -26125.65769263002, 10737.867443307334, 9227.314201273228, -187500.02235174447, -22826.22728660432, 15280.725393381763, -27568.887480364738, 52389.49386948274, -26743.81753728599, 9404.630590037179, -23492.8457132394, -30489.99225973991, -20182.53000766397, 0.056, 0.97, 0.272, 192.0, 0.0, 0.0, 0.0, 0.0, 0.0, 0.0, 0.0, 0.0, 0.0, 1.69576687368017E9, 0.0, 2023-09-26 17:21:13.680
196.0, 35084.862719161836, 50154.7888105856, -19354.844910483946, -26124.60716064062, 10706.686759792181, 9181.046090250742, -187500.02235174447, -22870.48374062583, 15269.862445576484, -27575.16832055668, 52558.204836631405, -26747.282057676563, 9405.994046448952, -23500.691175543212, -30496.60837609868, -20024.905505765142, 0.056, 0.97, 0.272, 192.0, 0.0, 0.0, 0.0, 0.0, 0.0, 0.0, 0.0, 0.0, 0.0, 1.695766873680184E9, 0.0, 2023-09-26 17:21:13.680
198.0, 35085.73443719559, 50162.09783102248, -19348.65347726983, -26112.894846546038, 10731.519547882026, 9217.166509290519, -187500.02235174447, -22831.32348434013, 15283.698175394318, -27555.20821275809, 52377.08865131005, -26729.467717345684, 9405.390549348658, -23483.234463123616, -30488.74056205041, -20200.14318229475, 0.056, 0.97, 0.272, 192.0, 0.0, 0.0, 0.0, 0.0, 0.0, 0.0, 0.0, 0.0, 0.0, 1.695766873680188E9, 0.0, 2023-09-26 17:21:13.680
200.0, 35086.49439650708, 50161.092002522, -19352.810901738514, -26126.08237577467, 10701.679969034192, 9189.383290932572, -187500.02235174447, -22874.797627305703, 15273.774000856163, -27565.579422185354, 52535.58487124263, -26737.044958716033, 9408.139813916661, -23494.097410928895, -30502.57629186825, -20054.655677635157, 0.056, 0.97, 0.272, 192.0, 0.0, 0.0, 0.0, 0.0, 0.0, 0.0, 0.0, 0.0, 0.0, 1.695766873680192E9, 0.0, 2023-09-26 17:21:13.680
202.0, 35078.358361525345, 50151.88308380641, -19350.799244737536, -26126.26118973031, 10725.216355945631, 9199.620389893102, -187500.02235174447, -22849.89778398249, 15285.374556228468, -27563.6571721622, 52386.18581130336, -26737.13436569385, 9405.14468015965, -23491.571663805447, -30495.80371329829, -20192.3647752243, 0.054, 0.972, 0.274, 192.0, 0.5, 88.0, 15.0, 48.0, 4.0, 72.0, 0.0, 0.0, 0.0, 1.695766873680195E9, 0.0, 2023-09-26 17:21:13.680
204.0, 35081.018219115525, 50151.34664193948, -19353.1685296498, -26125.903561819025, 10708.07256794841, 9195.172392746495, -187500.02235174447, -22867.175682446443, 15272.20937874429, -27571.748503655017, 52513.456644231876, -26742.319970407483, 9416.477014598491, -23495.70673652968, -30501.615166856667, -20077.45445697957, 0.054, 0.972, 0.274, 192.0, 0.0, 0.0, 0.0, 0.0, 0.0, 0.0, 0.0, 0.0, 0.0, 1.695766873680198E9, 0.0, 2023-09-26 17:21:13.680
206.0, 35081.10762609335, 50154.565293141044, -19348.720532503194, -26111.330224434165, 10721.394207643772, 9191.238485722362, -187500.02235174447, -22849.629563049028, 15282.245312004723, -27557.711608137088, 52380.910799611906, -26734.09452844793, 9406.19521214905, -23483.569739290448, -30499.804675555788, -20202.735984651565, 0.054, 0.972, 0.274, 192.0, 0.0, 0.0, 0.0, 0.0, 0.0, 0.0, 0.0, 0.0, 0.0, 1.695766873680202E9, 0.0, 2023-09-26 17:21:13.680
208.0, 35077.39723651377, 50162.50016242268, -19358.979983208177, -26111.710204089904, 10702.685797534681, 9219.49109071387, -187500.02235174447, -22857.22915616383, 15272.857579333495, -27563.433654717646, 52491.26136198776, -26730.20532491271, 9412.207831407528, -23484.240291624104, -30503.671527346556, -20093.68182345412, 0.054, 0.972, 0.274, 192.0, 0.0, 0.0, 0.0, 0.0, 0.0, 0.0, 0.0, 0.0, 0.0, 1.695766873680205E9, 0.0, 2023-09-26 17:21:13.680
210.0, 35081.06292260443, 50153.60416812947, -19355.02372443959, -26100.243759184334, 10711.134756938787, 9182.566008873702, -187500.02235174447, -22857.586784075116, 15277.663204391385, -27565.445311718624, 52416.762997718215, -26731.81465051349, 9393.678235254078, -23482.049820667486, -30501.9504430235, -20151.75165554901, 0.054, 0.972, 0.274, 192.0, 0.0, 0.0, 0.0, 0.0, 0.0, 0.0, 0.0, 0.0, 0.0, 1.695766873739904E9, 0.0, 2023-09-26 17:21:13.739
212.0, 35078.11249233633, 50158.432144931816, -19360.835177997968, -26110.950244778425, 10712.162937183732, 9225.615468694625, -187500.02235174447, -22848.780196759726, 15268.789561842628, -27576.755294413008, 52481.38189093851, -26734.161583681296, 9409.793843006355, -23487.660108525768, -30501.615166856667, -20086.238692550505, 0.052000000000000005, 0.972, 0.272, 192.0, 0.5, 80.0, 15.0, 48.0, 4.0, 64.0, 0.0, 0.0, 0.0, 1.695766873739917E9, 0.0, 2023-09-26 17:21:13.739
214.0, 35072.14457656677, 50140.170769711825, -19359.672887286295, -26115.35353843612, 10710.464204605129, 9173.558255858214, -187500.02235174447, -22871.310755170674, 15281.17242827087, -27570.74267515453, 52418.55113727464, -26732.529906336058, 9400.562572546312, -23483.256814868073, -30499.42469590005, -20143.146233933716, 0.052000000000000005, 0.972, 0.272, 192.0, 0.0, 0.0, 0.0, 0.0, 0.0, 0.0, 0.0, 0.0, 0.0, 1.69576687373992E9, 0.0, 2023-09-26 17:21:13.739
216.0, 35073.820957400916, 50153.380650684914, -19361.438675098263, -26123.467221673396, 10719.293143664974, 9218.73113140239, -187500.02235174447, -22861.274821910243, 15267.359050197489, -27582.857320649306, 52453.822190025116, -26733.692197047734, 9413.10190118574, -23495.907902229777, -30505.504370391893, -20108.612788750266, 0.052000000000000005, 0.972, 0.272, 192.0, 0.0, 0.0, 0.0, 0.0, 0.0, 0.0, 0.0, 0.0, 0.0, 1.695766873739924E9, 0.0, 2023-09-26 17:21:13.739
218.0, 35074.67032369022, 50144.26113894715, -19349.122863903387, -26119.332148949165, 10718.287315164485, 9162.270624908284, -187500.02235174447, -22872.785970304725, 15277.394983457922, -27577.78347465795, 52437.99715495076, -26731.948760980224, 9406.865764482709, -23493.22569289514, -30497.16716971006, -20131.344512861313, 0.052000000000000005, 0.972, 0.272, 192.0, 0.0, 0.0, 0.0, 0.0, 0.0, 0.0, 0.0, 0.0, 0.0, 1.695766873739927E9, 0.0, 2023-09-26 17:21:13.739
220.0, 35079.4312452592, 50158.87917982092, -19353.436750583263, -26129.1669165095, 10735.02877176151, 9227.78358790679, -187500.02235174447, -22843.70635076837, 15273.081096778047, -27587.21591081809, 52432.073942670104, -26727.836040000446, 9422.556689090336, -23499.61829180936, -30490.84162602921, -20136.574821063856, 0.052000000000000005, 0.972, 0.272, 192.0, 0.0, 0.0, 0.0, 0.0, 0.0, 0.0, 0.0, 0.0, 0.0, 1.69576687373993E9, 0.0, 2023-09-26 17:21:13.739
222.0, 35065.10377706335, 50129.330173651004, -19360.052866942035, -26135.0677770457, 10720.20956518764, 9155.274528893773, -187500.02235174447, -22875.62464185055, 15275.003346801204, -27593.720268454585, 52448.74834403376, -26749.42782514427, 9407.066930182807, -23506.927312246244, -30489.902852762087, -20122.850849968298, 0.046, 0.976, 0.262, 192.0, 0.5, 56.0, 15.0, 64.0, 4.0, 24.0, 0.0, 0.0, 0.0, 1.695766873739934E9, 0.0, 2023-09-26 17:21:13.739
224.0, 35065.46140497463, 50149.02206051613, -19363.427980354783, -26131.580904910676, 10734.045295005477, 9239.093570601175, -187500.02235174447, -22835.212687875355, 15263.31338445108, -27593.675564965673, 52413.29847732765, -26748.556107110515, 9411.96196221852, -23505.78737327902, -30493.613242341668, -20149.47177761457, 0.046, 0.976, 0.262, 192.0, 0.0, 0.0, 0.0, 0.0, 0.0, 0.0, 0.0, 0.0, 0.0, 1.695766873798822E9, 0.0, 2023-09-26 17:21:13.798
226.0, 35075.340876023874, 50137.175635954816, -19354.196709894743, -26120.56149489421, 10709.234858660086, 9162.471790608382, -187500.02235174447, -22869.410856891973, 15270.823570588062, -27581.627974704264, 52486.612199141055, -26745.985656498156, 9400.540220801857, -23493.40450685078, -30493.389724897115, -20083.26591053795, 0.046, 0.976, 0.262, 192.0, 0.0, 0.0, 0.0, 0.0, 0.0, 0.0, 0.0, 0.0, 0.0, 1.695766873798837E9, 0.0, 2023-09-26 17:21:13.798
228.0, 35077.240774302576, 50158.901531565374, -19359.851701241936, -26119.600369882628, 10732.748893827069, 9250.87293992912, -187500.02235174447, -22824.975588914825, 15274.019870045171, -27578.543433969433, 52395.75235793023, -26739.347188394928, 9413.638343052668, -23489.73882076011, -30492.98739349692, -20166.23558595605, 0.046, 0.976, 0.262, 192.0, 0.0, 0.0, 0.0, 0.0, 0.0, 0.0, 0.0, 0.0, 0.0, 1.695766873798841E9, 0.0, 2023-09-26 17:21:13.798
230.0, 35077.39723651377, 50144.864636047445, -19354.77785525058, -26117.007567525812, 10705.12213768031, 9168.730279055868, -187500.02235174447, -22871.802493548694, 15271.002384543704, -27581.94089912664, 52505.43236797242, -26740.040092473042, 9405.614066793212, -23493.493913828603, -30498.441219144013, -20067.463227208045, 0.046, 0.976, 0.262, 192.0, 0.0, 0.0, 0.0, 0.0, 0.0, 0.0, 0.0, 0.0, 0.0, 1.695766873798844E9, 0.0, 2023-09-26 17:21:13.798
232.0, 35072.39044575577, 50159.99676704369, -19355.314297117508, -26115.84527681414, 10743.008344532054, 9247.050791627264, -187500.02235174447, -22818.47123127833, 15276.143285768425, -27579.28104153646, 52390.00795960522, -26734.787432526045, 9415.00179946444, -23491.5940155499, -30494.060277230776, -20173.52225464848, 0.048, 0.982, 0.264, 192.0, 0.5, 64.0, 15.0, 88.0, 4.0, 32.0, 0.0, 0.0, 0.0, 1.695766873798848E9, 0.0, 2023-09-26 17:21:13.798
234.0, 35075.89966963526, 50146.7868860706, -19352.229756382676, -26116.962864036905, 10715.202774429652, 9165.176351687474, -187500.02235174447, -22871.48956912632, 15278.601977658509, -27575.660058934696, 52510.64032443051, -26737.357883138407, 9415.806462264833, -23490.02939343803, -30493.07680047474, -20067.709096397055, 0.048, 0.982, 0.264, 192.0, 0.0, 0.0, 0.0, 0.0, 0.0, 0.0, 0.0, 0.0, 0.0, 1.695766873798851E9, 0.0, 2023-09-26 17:21:13.798
236.0, 35069.66353293223, 50156.21932223074, -19365.171416422298, -26129.1669165095, 10737.152187484764, 9239.294736301272, -187500.02235174447, -22830.675283750927, 15274.176332256358, -27574.967154856582, 52364.683433137354, -26733.401624369817, 9419.62861056669, -23491.862236483365, -30492.98739349692, -20204.680586419177, 0.048, 0.982, 0.264, 192.0, 0.0, 0.0, 0.0, 0.0, 0.0, 0.0, 0.0, 0.0, 0.0, 1.695766873798854E9, 0.0, 2023-09-26 17:21:13.798
238.0, 35082.02404761601, 50150.40786867236, -19360.634012297873, -26128.652826387028, 10700.025939944499, 9166.428049376971, -187500.02235174447, -22876.742229073316, 15267.895492064417, -27580.823311903874, 52535.94249915391, -26734.653322059316, 9408.542145316856, -23500.579416820936, -30505.638480858623, -20040.797596072865, 0.048, 0.982, 0.264, 192.0, 0.0, 0.0, 0.0, 0.0, 0.0, 0.0, 0.0, 0.0, 0.0, 1.695766873798858E9, 0.0, 2023-09-26 17:21:13.798
240.0, 35078.31365803643, 50155.57112164154, -19350.709837759714, -26124.808326340717, 10743.634193376804, 9218.06057906873, -187500.02235174447, -22837.537269298708, 15280.524227681664, -27574.184843800645, 52375.725194898274, -26732.19463016923, 9411.537279073867, -23495.32675687394, -30496.98835575442, -20187.514446677502, 0.048, 0.982, 0.264, 192.0, 0.0, 0.0, 0.0, 0.0, 0.0, 0.0, 0.0, 0.0, 0.0, 1.695766873858624E9, 0.0, 2023-09-26 17:21:13.858
242.0, 35074.40210275675, 50142.71886857973, -19353.414398838806, -26127.51288741981, 10704.898620235756, 9170.965453501398, -187500.02235174447, -22872.33893541562, 15271.807047344095, -27581.98560261555, 52535.69662996491, -26738.698987805725, 9415.180613420083, -23501.249969154593, -30491.154550451585, -20041.758721084443, 0.042, 0.976, 0.264, 192.0, 0.5, 40.0, 15.0, 64.0, 4.0, 32.0, 0.0, 0.0, 0.0, 1.695766873858639E9, 0.0, 2023-09-26 17:21:13.858
244.0, 35067.78598639798, 50150.49727565018, -19359.516425075108, -26123.534276906765, 10731.206623459653, 9225.235489038883, -187500.02235174447, -22830.228248861822, 15273.55048341161, -27576.21885254608, 52379.927322855874, -26734.92154299278, 9407.357502860727, -23491.50460857208, -30495.624899342645, -20182.306490219413, 0.042, 0.976, 0.264, 192.0, 0.0, 0.0, 0.0, 0.0, 0.0, 0.0, 0.0, 0.0, 0.0, 1.695766873858643E9, 0.0, 2023-09-26 17:21:13.858
246.0, 35073.64214344527, 50152.39717392888, -19362.288041387565, -26119.332148949165, 10711.201812172152, 9194.099509012642, -187500.02235174447, -22857.832653264126, 15267.135532752936, -27576.867053135284, 52544.48086553584, -26732.284037147052, 9415.582944820278, -23489.962338204663, -30490.37223939565, -20023.6761598201, 0.042, 0.976, 0.264, 192.0, 0.0, 0.0, 0.0, 0.0, 0.0, 0.0, 0.0, 0.0, 0.0, 1.695766873858647E9, 0.0, 2023-09-26 17:21:13.858
248.0, 35070.89287887727, 50158.65566237637, -19361.572785564993, -26113.207770968413, 10732.234803704598, 9216.942991845965, -187500.02235174447, -22827.344873827085, 15269.34835545401, -27573.469587978077, 52393.42777650688, -26733.803955770014, 9407.648075538646, -23484.106181157375, -30490.483998117925, -20154.79149279493, 0.042, 0.976, 0.264, 192.0, 0.0, 0.0, 0.0, 0.0, 0.0, 0.0, 0.0, 0.0, 0.0, 1.695766873858651E9, 0.0, 2023-09-26 17:21:13.858
