%OpenBCI Raw EXG Data
%Number of channels = 16
%Sample Rate = 125 Hz
%Board = OpenBCI_GUI$BoardCytonSerialDaisy
Sample Index, EXG Channel 0, EXG Channel 1, EXG Channel 2, EXG Channel 3, EXG Channel 4, EXG Channel 5, EXG Channel 6, EXG Channel 7, EXG Channel 8, EXG Channel 9, EXG Channel 10, EXG Channel 11, EXG Channel 12, EXG Channel 13, EXG Channel 14, EXG Channel 15, Accel Channel 0, Accel Channel 1, Accel Channel 2, Other, Other, Other, Other, Other, Other, Other, Analog Channel 0, Analog Channel 1, Analog Channel 2, Timestamp, Other, Timestamp (Formatted)
208.0, 34511.048735505196, 49868.88764725777, -19254.843205790905, -25709.512914361112, 11304.28299954927, 9675.354918879857, -187500.02235174447, -22002.677262148532, 14750.787884090887, -27034.97136056082, 53017.48848169905, -26168.282469306287, 10320.158042926556, -22956.090921889656, -29934.529058281074, -19137.831823567372, 0.0, 0.0, 0.0, 192.0, 0.0, 0.0, 0.0, 0.0, 0.0, 0.0, 0.0, 0.0, 0.0, 1.695766934027231E9, 0.0, 2023-09-26 17:22:14.027
210.0, 34509.30529943768, 49877.09073747286, -19251.512795867064, -25705.623710825887, 11339.554052299745, 9746.142893569815, -187500.02235174447, -21937.05254042775, 14753.380686447703, -27032.937351815388, 52854.0748779863, -26168.394228028566, 10323.75667378386, -22951.106482876123, -29927.465907033195, -19289.734278885637, 0.0, 0.0, 0.0, 192.0, 0.0, 0.0, 0.0, 0.0, 0.0, 0.0, 0.0, 0.0, 0.0, 1.695766934027241E9, 0.0, 2023-09-26 17:22:14.027
212.0, 34507.51715988125, 49872.39687113725, -19265.81791231846, -25716.66547258681, 11306.182897827972, 9697.170221468237, -187500.02235174447, -21990.897892820587, 14757.381648705203, -27034.747843116267, 53005.418539693186, -26168.08130360619, 10326.103606951667, -22952.045256143243, -29935.22196235919, -19152.74043711906, 0.0, 0.0, 0.0, 192.0, 0.0, 0.0, 0.0, 0.0, 0.0, 0.0, 0.0, 0.0, 0.0, 1.695766934027245E9, 0.0, 2023-09-26 17:22:14.027
214.0, 34514.06622100666, 49887.461946900126, -19268.47776990864, -25715.123202219394, 11331.283906851282, 9733.938841097217, -187500.02235174447, -21952.20702316845, 14755.817026593331, -27038.12295652902, 52865.20604672504, -26172.015210630325, 10318.414606859042, -22953.766340466304, -29938.97705542768, -19283.85577009389, 0.044, 0.962, 0.302, 192.0, 0.5, 48.0, 15.0, 8.0, 4.5, 56.0, 0.0, 0.0, 0.0, 1.695766934027249E9, 0.0, 2023-09-26 17:22:14.027
216.0, 34517.061354763675, 49885.15971722123, -19257.793636059003, -25705.4672486147, 11322.522023024801, 9703.361654682358, -187500.02235174447, -21978.604433370165, 14755.72761961551, -27031.26097098124, 52997.9083535562, -26164.572079726706, 10325.969496484935, -22953.721636977392, -29936.965398426702, -19163.312812246422, 0.044, 0.962, 0.302, 192.0, 0.0, 0.0, 0.0, 0.0, 0.0, 0.0, 0.0, 0.0, 0.0, 1.695766934027252E9, 0.0, 2023-09-26 17:22:14.027
218.0, 34509.90879653797, 49885.15971722123, -19252.22805168963, -25701.42158286829, 11342.951517456951, 9734.005896330584, -187500.02235174447, -21940.248839884858, 14751.637250380189, -27025.002482533753, 52844.10599995923, -26162.82864365919, 10321.387388871597, -22944.15509035052, -29919.665148218293, -19303.43589823674, 0.044, 0.962, 0.302, 192.0, 0.0, 0.0, 0.0, 0.0, 0.0, 0.0, 0.0, 0.0, 0.0, 1.695766934027255E9, 0.0, 2023-09-26 17:22:14.027
220.0, 34523.74452635581, 49893.318103947415, -19251.915127267257, -25699.70049854523, 11314.944781654453, 9725.445178204202, -187500.02235174447, -21970.021363499327, 14750.564366646335, -27026.58945639008, 52982.262132437485, -26160.437007002474, 10335.066656478246, -22944.87034617309, -29925.700119221226, -19173.1252280623, 0.044, 0.962, 0.302, 192.0, 0.0, 0.0, 0.0, 0.0, 0.0, 0.0, 0.0, 0.0, 0.0, 1.695766934027258E9, 0.0, 2023-09-26 17:22:14.027
222.0, 34531.54528517071, 49903.44344418567, -19248.204737687676, -25688.27875712857, 11339.889328466574, 9741.091399322915, -187500.02235174447, -21936.225525882903, 14765.517683686934, -27012.10552598304, 52857.60645361024, -26148.3223615077, 10327.064731963246, -22930.945209377434, -29921.29682556353, -19289.44370620772, 0.041999999999999996, 0.962, 0.303, 192.0, 0.5, 32.0, 15.0, 8.0, 4.5, 64.0, 0.0, 0.0, 0.0, 1.695766934027262E9, 0.0, 2023-09-26 17:22:14.027
224.0, 34532.9534450714, 49905.142176764275, -19261.213452960666, -25697.599434566433, 11315.637685732567, 9744.779437158042, -187500.02235174447, -21960.812444783744, 14761.49436968498, -27014.608921362036, 52994.19796397662, -26142.93559109397, 10336.027781489824, -22931.571058222184, -29928.896418678334, -19156.85315809884, 0.041999999999999996, 0.962, 0.303, 192.0, 0.0, 0.0, 0.0, 0.0, 0.0, 0.0, 0.0, 0.0, 0.0, 1.695766934027265E9, 0.0, 2023-09-26 17:22:14.027
0.0, 17329.598048877484, 25008.27163556476, -9582.461068923601, -12805.649674612247, 5695.112728489963, 4870.020433666758, -93750.01117587223, -10928.237250833185, 7380.814240075856, -13509.014369131848, 26469.94161247511, -13076.753983110666, 5156.59214932825, -11469.238873629436, -14968.203302407659, -9603.047025566939, 0.036000000000000004, 0.968, 0.3, 192.0, 0.5, 16.0, 15.0, 32.0, 4.5, 48.0, 0.0, 0.0, 0.0, 1.695766934191565E9, 0.0, 2023-09-26 17:22:14.191
2.0, 34654.32341746371, 50018.28670719704, -19161.815245367914, -25608.12540151184, 11430.436245255023, 9777.70355674071, -187500.02235174447, -21802.02565217324, 14798.061823613862, -26828.441241793782, 52922.493567763995, -26042.218630578358, 10425.457111055508, -22835.547964042184, -29850.71001657367, -19221.583810041408, 0.036000000000000004, 0.968, 0.3, 192.0, 0.0, 0.0, 0.0, 0.0, 0.0, 0.0, 0.0, 0.0, 0.0, 1.695766934191576E9, 0.0, 2023-09-26 17:22:14.191
4.0, 34651.551801151254, 50022.84646306592, -19175.025126341003, -25623.034015063527, 11415.505279958878, 9792.209838892202, -187500.02235174447, -21823.5503820837, 14782.773230406432, -26837.27018085363, 53023.50110095753, -26046.085482369126, 10437.236480383453, -22844.51101356876, -29859.2483829556, -19125.06897748339, 0.036000000000000004, 0.968, 0.3, 192.0, 0.0, 0.0, 0.0, 0.0, 0.0, 0.0, 0.0, 0.0, 0.0, 1.69576693419158E9, 0.0, 2023-09-26 17:22:14.191
6.0, 34649.13781275008, 50012.519957127566, -19173.214635040124, -25622.162297029772, 11421.517899217355, 9759.665698965277, -187500.02235174447, -21823.528030339246, 14785.611901952256, -26834.58797151899, 52925.80162594338, -26053.193337105913, 10419.645657497127, -22842.544060056694, -29859.538955633518, -19221.36029259685, 0.036000000000000004, 0.968, 0.3, 192.0, 0.0, 0.0, 0.0, 0.0, 0.0, 0.0, 0.0, 0.0, 0.0, 1.695766934191583E9, 0.0, 2023-09-26 17:22:14.191
8.0, 34648.75783309434, 50021.125378742865, -19176.232120541586, -25623.279884252537, 11419.483890471924, 9802.424586108278, -187500.02235174447, -21821.98575997183, 14779.64398618269, -26837.87367795392, 53004.211545492595, -26047.96302890337, 10433.548442548328, -22850.009542704767, -29864.72456034715, -19147.040742282956, 0.036000000000000004, 0.97, 0.304, 192.0, 0.5, 16.0, 15.0, 40.0, 4.5, 64.0, 0.0, 0.0, 0.0, 1.695766934191586E9, 0.0, 2023-09-26 17:22:14.191
10.0, 34651.19417323997, 50012.8552332944, -19166.039725069968, -25612.707509125175, 11416.712274159465, 9753.340155284424, -187500.02235174447, -21832.17815544345, 14782.035622839407, -26830.005863905655, 52968.001719475, -26049.05826438168, 10414.527108016862, -22845.159214157968, -29866.803272581492, -19175.807437396936, 0.036000000000000004, 0.97, 0.304, 192.0, 0.0, 0.0, 0.0, 0.0, 0.0, 0.0, 0.0, 0.0, 0.0, 1.69576693419159E9, 0.0, 2023-09-26 17:22:14.191
12.0, 34648.981350538896, 50017.23617520764, -19169.481893716085, -25617.334320227423, 11424.915364374563, 9810.135937945359, -187500.02235174447, -21810.005224943787, 14778.861675126753, -26827.83774469349, 52990.33111218585, -26041.77159568925, 10435.001305937923, -22841.694693767393, -29859.293086444508, -19157.367248221308, 0.036000000000000004, 0.97, 0.304, 192.0, 0.0, 0.0, 0.0, 0.0, 0.0, 0.0, 0.0, 0.0, 0.0, 1.695766934191593E9, 0.0, 2023-09-26 17:22:14.191
14.0, 34646.030920270794, 50001.45584362219, -19166.08442855888, -25619.41303246177, 11420.199146294493, 9750.412076760778, -187500.02235174447, -21833.206335688395, 14778.124067559727, -26828.083613882496, 52973.72376605556, -26053.68507548393, 10415.06354988379, -22844.175737401933, -29857.594353865905, -19176.455637986142, 0.036000000000000004, 0.97, 0.304, 192.0, 0.0, 0.0, 0.0, 0.0, 0.0, 0.0, 0.0, 0.0, 0.0, 1.695766934191596E9, 0.0, 2023-09-26 17:22:14.191
16.0, 34650.32245520621, 50019.38194267535, -19165.25741401403, -25624.084547052928, 11435.755960435386, 9815.746225803641, -187500.02235174447, -21802.472687062345, 14771.619709923234, -26833.515087785137, 52984.67612083866, -26053.372151061554, 10431.849709969725, -22847.260278136764, -29856.163842220765, -19162.79872212395, 0.036000000000000004, 0.97, 0.304, 192.0, 0.0, 0.0, 0.0, 0.0, 0.0, 0.0, 0.0, 0.0, 0.0, 1.695766934251841E9, 0.0, 2023-09-26 17:22:14.251
18.0, 34647.573190638206, 50005.00977099059, -19161.61407966782, -25621.938779585216, 11414.87943111413, 9741.02434408955, -187500.02235174447, -21844.471614893868, 14781.633291439211, -26823.322692313515, 53002.84808908083, -26049.885278926526, 10424.563041277295, -22840.778272244726, -29851.112347973867, -19151.2205184961, 0.04, 0.964, 0.304, 192.0, 0.5, 32.0, 15.0, 16.0, 4.5, 64.0, 0.0, 0.0, 0.0, 1.695766934251853E9, 0.0, 2023-09-26 17:22:14.251
20.0, 34654.25636223035, 50022.22061422117, -19163.581033179886, -25621.335282484924, 11430.816224910765, 9821.781196806574, -187500.02235174447, -21805.847800475098, 14775.978300092018, -26822.24980857966, 52962.43613510563, -26041.682188711427, 10432.900241959125, -22841.314714111653, -29860.880060300835, -19187.2291788136, 0.04, 0.964, 0.304, 192.0, 0.0, 0.0, 0.0, 0.0, 0.0, 0.0, 0.0, 0.0, 0.0, 1.695766934251857E9, 0.0, 2023-09-26 17:22:14.251
22.0, 34644.175725481, 50000.38295988834, -19167.11260880382, -25624.151602286292, 11403.614151908654, 9742.87953887934, -187500.02235174447, -21856.02746677726, 14778.459343726558, -26820.908703912344, 53022.56232769041, -26043.760900945774, 10421.880831942659, -22839.14659489949, -29858.309609688476, -19132.042721753445, 0.04, 0.964, 0.304, 192.0, 0.0, 0.0, 0.0, 0.0, 0.0, 0.0, 0.0, 0.0, 0.0, 1.69576693425186E9, 0.0, 2023-09-26 17:22:14.251
24.0, 34646.09797550416, 50014.93394552874, -19164.20688202463, -25616.909637082772, 11433.856062156685, 9824.37399916339, -187500.02235174447, -21794.113134636063, 14770.949157589575, -26828.083613882496, 52961.072678693854, -26045.660799224475, 10427.133491889655, -22843.058150179168, -29860.164804478267, -19183.65289970075, 0.04, 0.964, 0.304, 192.0, 0.0, 0.0, 0.0, 0.0, 0.0, 0.0, 0.0, 0.0, 0.0, 1.695766934251863E9, 0.0, 2023-09-26 17:22:14.251
26.0, 34645.8744580596, 50001.00880873309, -19159.445960455654, -25618.049576049994, 11412.465442712957, 9743.863015635374, -187500.02235174447, -21849.56781262968, 14776.246521025483, -26826.831916193, 53050.993746637556, -26044.789081190716, 10424.898317444125, -22838.654856521473, -29853.459281141673, -19102.650177794716, 0.04, 0.964, 0.304, 192.0, 0.0, 0.0, 0.0, 0.0, 0.0, 0.0, 0.0, 0.0, 0.0, 1.695766934251867E9, 0.0, 2023-09-26 17:22:14.251
28.0, 34641.359405679636, 50011.13414897134, -19160.60825116733, -25618.094279538906, 11441.5003587604, 9831.191281222258, -187500.02235174447, -21790.670965989946, 14776.581797192312, -26828.575352260516, 52937.75980922697, -26043.716197456863, 10436.610631538706, -22836.822013476136, -29842.372815891842, -19211.52552503652, 0.036000000000000004, 0.968, 0.306, 192.0, 0.5, 16.0, 15.0, 32.0, 4.5, 72.0, 0.0, 0.0, 0.0, 1.69576693425187E9, 0.0, 2023-09-26 17:22:14.251
30.0, 34644.33218769219, 50004.87566052385, -19160.40708546723, -25620.105936539883, 11404.262352497859, 9750.322669782958, -187500.02235174447, -21854.28403070975, 14770.345660489282, -26828.17302086032, 53075.44655507166, -26044.744377701805, 10426.887622700648, -22839.168946643942, -29854.733330575626, -19079.985508917038, 0.036000000000000004, 0.968, 0.306, 192.0, 0.0, 0.0, 0.0, 0.0, 0.0, 0.0, 0.0, 0.0, 0.0, 1.69576693431136E9, 0.0, 2023-09-26 17:22:14.311
32.0, 34650.74713835086, 50023.1593874883, -19152.94160281916, -25609.198285245693, 11451.290422831826, 9822.18352820677, -187500.02235174447, -21788.815771200156, 14777.386459992704, -26820.305206812052, 52940.57612902834, -26029.746357172295, 10439.248137384431, -22833.24573436329, -29838.528315845528, -19211.771394225525, 0.036000000000000004, 0.968, 0.306, 192.0, 0.0, 0.0, 0.0, 0.0, 0.0, 0.0, 0.0, 0.0, 0.0, 1.695766934311373E9, 0.0, 2023-09-26 17:22:14.311
34.0, 34653.161126752035, 50015.96212577369, -19157.1213790323, -25602.291596209005, 11411.392558979102, 9758.16813208677, -187500.02235174447, -21841.364722414583, 14789.389346765203, -26819.58995098948, 53065.656491000234, -26024.627807692028, 10442.802064752826, -22828.70833023886, -29837.76835653405, -19097.576331803364, 0.036000000000000004, 0.968, 0.306, 192.0, 0.0, 0.0, 0.0, 0.0, 0.0, 0.0, 0.0, 0.0, 0.0, 1.695766934311377E9, 0.0, 2023-09-26 17:22:14.311
36.0, 34644.645112114566, 50022.578242132455, -19164.966841336114, -25599.475276407633, 11432.582012722733, 9822.474100884689, -187500.02235174447, -21798.02468991574, 14786.237750797005, -26824.082651624998, 52919.92311715164, -26021.87854312403, 10440.768056007393, -22825.892010437492, -29841.456394369176, -19232.983199713613, 0.036000000000000004, 0.968, 0.306, 192.0, 0.0, 0.0, 0.0, 0.0, 0.0, 0.0, 0.0, 0.0, 0.0, 1.69576693431138E9, 0.0, 2023-09-26 17:22:14.311
38.0, 34651.484745917885, 50015.26922169557, -19160.69765814515, -25598.357689184868, 11403.144765275094, 9763.353736800402, -187500.02235174447, -21849.6572196075, 14779.755744904965, -26826.250770837163, 53083.761404009034, -26023.443165235898, 10438.64464028414, -22826.27199009323, -29851.514679374064, -19079.694936239117, 0.038, 0.966, 0.304, 192.0, 0.5, 24.0, 15.0, 24.0, 4.5, 64.0, 0.0, 0.0, 0.0, 1.695766934311384E9, 0.0, 2023-09-26 17:22:14.311
40.0, 34647.03674877128, 50019.98543977564, -19163.625736668797, -25599.385869429814, 11430.279783043836, 9805.084443698459, -187500.02235174447, -21812.374509856047, 14783.667300184645, -26826.384881303893, 52924.61698348725, -26024.627807692028, 10432.810834981303, -22823.075690636124, -29842.32811240293, -19232.156185168766, 0.038, 0.966, 0.304, 192.0, 0.0, 0.0, 0.0, 0.0, 0.0, 0.0, 0.0, 0.0, 0.0, 1.695766934311387E9, 0.0, 2023-09-26 17:22:14.311
42.0, 34650.45656567295, 50014.531614128544, -19171.202978039146, -25610.427631190734, 11405.312884487259, 9771.579178759954, -187500.02235174447, -21839.755396813798, 14780.314538516348, -26833.425680807315, 53073.47960155959, -26024.381938503022, 10441.349201363231, -22831.904629695968, -29844.250362426086, -19092.569541045374, 0.038, 0.966, 0.304, 192.0, 0.0, 0.0, 0.0, 0.0, 0.0, 0.0, 0.0, 0.0, 0.0, 1.695766934311391E9, 0.0, 2023-09-26 17:22:14.311
44.0, 34646.99204528237, 50012.49760538311, -19177.193245553168, -25611.992253302607, 11424.960067863472, 9785.861943466896, -187500.02235174447, -21811.100460422094, 14786.327157774826, -26833.53743952959, 52925.82397768784, -26028.405252504977, 10431.53678554735, -22832.2399058628, -29841.165821691255, -19231.686798535204, 0.038, 0.966, 0.304, 192.0, 0.0, 0.0, 0.0, 0.0, 0.0, 0.0, 0.0, 0.0, 0.0, 1.695766934311394E9, 0.0, 2023-09-26 17:22:14.311
46.0, 34648.847240072166, 50013.86106179489, -19180.121324076812, -25613.19924750319, 11400.417852451546, 9775.60249276191, -187500.02235174447, -21840.068321236173, 14778.459343726558, -26841.494660555683, 53068.472810801606, -26031.176868817434, 10436.834148983258, -22840.107719911066, -29853.10165323039, -19097.509276569996, 0.038, 0.966, 0.304, 192.0, 0.0, 0.0, 0.0, 0.0, 0.0, 0.0, 0.0, 0.0, 0.0, 1.695766934371108E9, 0.0, 2023-09-26 17:22:14.371
48.0, 34644.71216734793, 50007.490814625125, -19174.198111796155, -25605.890227066306, 11429.966858621461, 9778.530571285555, -187500.02235174447, -21816.576637813647, 14785.991881607997, -26834.431509307804, 52935.27876559243, -26029.031101349727, 10430.083922157755, -22833.491603552295, -29846.530240360527, -19220.399167585274, 0.042, 0.96, 0.304, 192.0, 0.5, 40.0, 15.0, 0.0, 4.5, 64.0, 0.0, 0.0, 0.0, 1.69576693437112E9, 0.0, 2023-09-26 17:22:14.371
50.0, 34642.834620813686, 50005.76973030207, -19178.154370564745, -25610.695852124198, 11407.413948466057, 9786.197219633725, -187500.02235174447, -21830.16649844247, 14772.156151790161, -26847.283762369607, 53065.61178751133, -26034.10494734108, 10441.237442640953, -22843.393426345996, -29850.57590610694, -19093.68712826814, 0.042, 0.96, 0.304, 192.0, 0.0, 0.0, 0.0, 0.0, 0.0, 0.0, 0.0, 0.0, 0.0, 1.695766934371124E9, 0.0, 2023-09-26 17:22:14.371
52.0, 34635.212675954426, 49994.9514859857, -19178.064963586923, -25609.041823034506, 11416.332294503725, 9769.522818270067, -187500.02235174447, -21819.594123315113, 14777.855846626264, -26844.623904779426, 52961.13973392722, -26039.178793332434, 10426.932326189557, -22837.269048365244, -29848.47484212814, -19196.147524851265, 0.042, 0.96, 0.304, 192.0, 0.0, 0.0, 0.0, 0.0, 0.0, 0.0, 0.0, 0.0, 0.0, 1.695766934371127E9, 0.0, 2023-09-26 17:22:14.371
54.0, 34629.93766426297, 49998.59482033191, -19184.83754215688, -25617.17785801624, 11410.45378571198, 9809.174812933781, -187500.02235174447, -21809.446431332402, 14768.423410466125, -26854.570431062035, 53053.586548994375, -26039.268200310256, 10438.44347458404, -22842.70052226788, -29850.888830529315, -19106.561733074395, 0.042, 0.96, 0.304, 192.0, 0.0, 0.0, 0.0, 0.0, 0.0, 0.0, 0.0, 0.0, 0.0, 1.695766934371131E9, 0.0, 2023-09-26 17:22:14.371
56.0, 34635.972635265905, 49996.40434937529, -19175.31569901892, -25606.560779399966, 11417.02519858184, 9769.03107989205, -187500.02235174447, -21817.940094225418, 14774.659547169156, -26843.46161406775, 52994.756757588, -26040.072863110647, 10420.651485997616, -22831.547001784686, -29846.686702571715, -19163.84925411335, 0.042, 0.96, 0.304, 192.0, 0.0, 0.0, 0.0, 0.0, 0.0, 0.0, 0.0, 0.0, 0.0, 1.695766934371134E9, 0.0, 2023-09-26 17:22:14.371
58.0, 34640.21946671241, 50007.73668381413, -19179.361364765333, -25609.801782345985, 11412.577201435233, 9808.392501877845, -187500.02235174447, -21818.27537039225, 14769.630404666712, -26846.523803058124, 53041.56131047742, -26034.261409552266, 10436.364762349696, -22838.23017337682, -29849.838298539915, -19120.68803557015, 0.046, 0.9560000000000001, 0.308, 192.0, 0.5, 56.0, 14.5, 112.0, 4.5, 80.0, 0.0, 0.0, 0.0, 1.695766934371138E9, 0.0, 2023-09-26 17:22:14.371
60.0, 34634.34095792067, 49993.14099468482, -19177.863797886825, -25603.140962498306, 11407.97274207744, 9750.657945949788, -187500.02235174447, -21832.42402463246, 14778.615805937745, -26838.655989009858, 52996.70135935562, -26030.86394439506, 10423.624268010171, -22832.686940751904, -29849.748891562092, -19165.525634947495, 0.046, 0.9560000000000001, 0.308, 192.0, 0.0, 0.0, 0.0, 0.0, 0.0, 0.0, 0.0, 0.0, 0.0, 1.695766934431356E9, 0.0, 2023-09-26 17:22:14.431
62.0, 34637.89488528906, 50008.69780882571, -19177.37205950881, -25599.49762815209, 11424.870660885652, 9813.421644380289, -187500.02235174447, -21806.183076641926, 14769.384535477702, -26846.613210035946, 53017.89081309925, -26030.886296139517, 10438.421122839585, -22838.61015303256, -29849.592429350905, -19137.228326467077, 0.046, 0.9560000000000001, 0.308, 192.0, 0.0, 0.0, 0.0, 0.0, 0.0, 0.0, 0.0, 0.0, 0.0, 1.695766934431369E9, 0.0, 2023-09-26 17:22:14.431
64.0, 34639.05717600074, 49995.93496274173, -19175.762733908028, -25604.705584610176, 11411.370207234646, 9740.443198733712, -187500.02235174447, -21840.89533578102, 14776.917073359142, -26839.6841692548, 53001.082301268856, -26030.595723461596, 10428.184023879056, -22830.675283750927, -29843.937438003715, -19153.031009796978, 0.046, 0.9560000000000001, 0.308, 192.0, 0.0, 0.0, 0.0, 0.0, 0.0, 0.0, 0.0, 0.0, 0.0, 1.695766934431373E9, 0.0, 2023-09-26 17:22:14.431
66.0, 34630.67527183, 50007.960201258684, -19178.824922898402, -25610.226465490636, 11435.577146479744, 9826.340952675457, -187500.02235174447, -21790.6933177344, 14773.363145990748, -26847.037893180597, 52967.800553774905, -26032.182697317923, 10437.907032717114, -22838.297228610187, -29847.312551416464, -19180.143675821266, 0.046, 0.9560000000000001, 0.308, 192.0, 0.0, 0.0, 0.0, 0.0, 0.0, 0.0, 0.0, 0.0, 0.0, 1.695766934431376E9, 0.0, 2023-09-26 17:22:14.431
68.0, 34628.507152617836, 49987.1954306597, -19177.9755566091, -25607.70071836719, 11410.386730478613, 9737.850396376896, -187500.02235174447, -21843.488138137836, 14769.764515133444, -26852.40231184987, 53023.74697014654, -26040.877525911037, 10426.641753511638, -22838.90072571048, -29844.518583359553, -19127.30415192892, 0.042, 0.9520000000000001, 0.31, 192.0, 0.5, 40.0, 14.5, 96.0, 4.5, 88.0, 0.0, 0.0, 0.0, 1.695766934431379E9, 0.0, 2023-09-26 17:22:14.431
70.0, 34624.930873504985, 50002.036988978034, -19186.625681713307, -25607.052517777982, 11431.665591200066, 9833.627621367887, -187500.02235174447, -21787.385259555016, 14762.343735974282, -26854.145747917384, 52950.120323910756, -26036.094252597602, 10434.084884415255, -22840.979437944825, -29849.10069097289, -19197.667443474227, 0.042, 0.9520000000000001, 0.31, 192.0, 0.0, 0.0, 0.0, 0.0, 0.0, 0.0, 0.0, 0.0, 0.0, 1.695766934431382E9, 0.0, 2023-09-26 17:22:14.431
72.0, 34620.50522810283, 49983.77561375804, -19184.16698982322, -25604.862046821363, 11399.34496871769, 9743.863015635374, -187500.02235174447, -21841.94586777042, 14762.388439463191, -26851.240021138197, 53050.09967685935, -26034.77549967474, 10424.317172088287, -22836.50908905376, -29849.435967139718, -19102.58312256135, 0.042, 0.9520000000000001, 0.31, 192.0, 0.0, 0.0, 0.0, 0.0, 0.0, 0.0, 0.0, 0.0, 0.0, 1.695766934431386E9, 0.0, 2023-09-26 17:22:14.431
74.0, 34624.39443163806, 50001.9028785113, -19182.445905500164, -25603.96797704315, 11431.352666777691, 9818.316676416001, -187500.02235174447, -21794.046079402695, 14764.377744719714, -26850.860041482454, 52946.745210498004, -26030.77453741724, 10432.274393114376, -22840.957086200367, -29849.3465601619, -19198.785030696992, 0.042, 0.9520000000000001, 0.31, 192.0, 0.0, 0.0, 0.0, 0.0, 0.0, 0.0, 0.0, 0.0, 0.0, 1.695766934431389E9, 0.0, 2023-09-26 17:22:14.431
76.0, 34624.66265257152, 49988.961218471675, -19180.344841521364, -25604.325604954436, 11402.943599574995, 9746.925204625752, -187500.02235174447, -21845.119815483074, 14766.97054707653, -26845.629733279915, 53057.74397346306, -26030.10398508358, 10429.614535524195, -22837.291400109698, -29851.894659029804, -19099.856209737805, 0.042, 0.9520000000000001, 0.31, 192.0, 0.0, 0.0, 0.0, 0.0, 0.0, 0.0, 0.0, 0.0, 0.0, 1.695766934491582E9, 0.0, 2023-09-26 17:22:14.491
78.0, 34627.25545492834, 50002.305209911494, -19173.572262951406, -25594.021450760538, 11440.650992471099, 9831.817130067007, -187500.02235174447, -21773.81775067064, 14770.144494789183, -26844.40038733487, 52949.85210297729, -26028.092328082603, 10437.348239105731, -22831.099966895577, -29841.389339135807, -19198.85208593036, 0.048, 0.9500000000000001, 0.308, 192.0, 0.5, 64.0, 14.5, 88.0, 4.5, 80.0, 0.0, 0.0, 0.0, 1.695766934491594E9, 0.0, 2023-09-26 17:22:14.491
80.0, 34635.65971084353, 49996.94079124222, -19170.13009430529, -25590.19930245868, 11415.192355536505, 9763.666661222776, -187500.02235174447, -21822.097518694107, 14772.312614001348, -26839.17007913233, 53068.115182890324, -26026.035967592714, 10442.578547308272, -22823.94740866988, -29834.057966954468, -19090.91551195568, 0.048, 0.9500000000000001, 0.308, 192.0, 0.0, 0.0, 0.0, 0.0, 0.0, 0.0, 0.0, 0.0, 0.0, 1.695766934491597E9, 0.0, 2023-09-26 17:22:14.491
82.0, 34639.392452167565, 50012.34114317193, -19170.912405361225, -25588.366459413348, 11446.350687307202, 9835.147539990849, -187500.02235174447, -21778.10928560606, 14778.615805937745, -26828.865924938433, 52919.833710173814, -26018.369319244543, 10444.67961128707, -22814.067937620635, -29824.826696494427, -19228.155222911268, 0.048, 0.9500000000000001, 0.308, 192.0, 0.0, 0.0, 0.0, 0.0, 0.0, 0.0, 0.0, 0.0, 0.0, 1.695766934491601E9, 0.0, 2023-09-26 17:22:14.491
84.0, 34640.82296381271, 50007.066131480475, -19170.13009430529, -25589.327584424926, 11412.912477602064, 9770.88627468184, -187500.02235174447, -21838.146071213017, 14778.079364070818, -26828.284779582595, 53069.63510151328, -26018.324615755635, 10448.702925289026, -22814.604379487562, -29831.91219948676, -19083.941767685625, 0.048, 0.9500000000000001, 0.308, 192.0, 0.0, 0.0, 0.0, 0.0, 0.0, 0.0, 0.0, 0.0, 0.0, 1.695766934491604E9, 0.0, 2023-09-26 17:22:14.491
86.0, 34621.04166996976, 49992.55984932898, -19184.077582845403, -25601.084602008417, 11435.040704612817, 9806.224382665681, -187500.02235174447, -21800.617492272555, 14776.291224514393, -26836.621980264426, 52895.42560522862, -26025.924208870438, 10438.421122839585, -22822.31573132464, -29840.450565868687, -19247.91416500976, 0.048, 0.9500000000000001, 0.308, 192.0, 0.0, 0.0, 0.0, 0.0, 0.0, 0.0, 0.0, 0.0, 0.0, 1.695766934491607E9, 0.0, 2023-09-26 17:22:14.491
88.0, 34620.75109729184, 49984.80379400299, -19185.105763090345, -25603.230369476125, 11407.279837999326, 9757.721097197664, -187500.02235174447, -21847.489100395334, 14760.510892928945, -26851.374131604927, 53044.04235411195, -26035.334293286123, 10434.084884415255, -22839.37011234404, -29849.86065028437, -19111.121488943278, 0.048, 0.9540000000000001, 0.312, 192.0, 0.5, 64.0, 14.5, 104.0, 4.5, 96.0, 0.0, 0.0, 0.0, 1.69576693449161E9, 0.0, 2023-09-26 17:22:14.491
90.0, 34612.19037916546, 49987.977741715644, -19186.02218461301, -25602.090430508906, 11427.239945797915, 9797.663664539297, -187500.02235174447, -21811.21221914437, 14763.528378430412, -26850.435358337803, 52907.89787863468, -26031.176868817434, 10425.658276755605, -22837.693731509895, -29852.38639740782, -19242.28152540702, 0.048, 0.9540000000000001, 0.312, 192.0, 0.0, 0.0, 0.0, 0.0, 0.0, 0.0, 0.0, 0.0, 0.0, 1.695766934551886E9, 0.0, 2023-09-26 17:22:14.551
92.0, 34617.48774260137, 49987.12837542634, -19183.585844467383, -25607.320738711445, 11412.621904924144, 9773.590835760931, -187500.02235174447, -21842.638771848535, 14758.007497549952, -26856.447977596283, 53068.85279045735, -26034.909610141473, 10437.415294339096, -22843.23696413481, -29846.150260704788, -19086.40045957571, 0.048, 0.9540000000000001, 0.312, 192.0, 0.0, 0.0, 0.0, 0.0, 0.0, 0.0, 0.0, 0.0, 0.0, 1.6957669345519E9, 0.0, 2023-09-26 17:22:14.551
94.0, 34612.10097218764, 49984.02148294705, -19183.898768889758, -25603.92327355424, 11430.100969088195, 9786.443088822734, -187500.02235174447, -21816.107251180085, 14762.321384229826, -26850.636524037902, 52942.408972073674, -26037.10008109809, 10428.698114001527, -22841.64999027848, -29845.47970837113, -19203.45654528815, 0.048, 0.9540000000000001, 0.312, 192.0, 0.0, 0.0, 0.0, 0.0, 0.0, 0.0, 0.0, 0.0, 0.0, 1.695766934551904E9, 0.0, 2023-09-26 17:22:14.551
96.0, 34614.157332677525, 49986.56958181496, -19184.83754215688, -25606.896055566795, 11417.159309048571, 9783.291492854536, -187500.02235174447, -21836.38028340105, 14757.649869638666, -26853.296381628083, 53079.80514524045, -26034.10494734108, 10440.410428096107, -22844.555717057672, -29848.13956596131, -19078.86792169427, 0.048, 0.9540000000000001, 0.312, 192.0, 0.0, 0.0, 0.0, 0.0, 0.0, 0.0, 0.0, 0.0, 0.0, 1.695766934551907E9, 0.0, 2023-09-26 17:22:14.551
98.0, 34614.35849837762, 49984.40146260279, -19179.718992676615, -25601.643395619798, 11429.743341176909, 9774.864885194884, -187500.02235174447, -21813.827373245644, 14766.858788354253, -26842.634599522902, 52953.13780941222, -26030.930999628425, 10431.246212869431, -22837.291400109698, -29843.95978974817, -19201.333129564897, 0.046, 0.962, 0.316, 192.0, 0.5, 56.0, 15.0, 8.0, 4.5, 112.0, 0.0, 0.0, 0.0, 1.69576693455191E9, 0.0, 2023-09-26 17:22:14.551
100.0, 34624.774411293794, 49997.56664008697, -19184.457562501142, -25605.152619499284, 11411.68313165702, 9785.236094622147, -187500.02235174447, -21834.614495589078, 14765.182407520106, -26847.97666644772, 53048.400944280744, -26030.707482183872, 10445.104294431721, -22840.778272244726, -29853.01224625257, -19112.0602622104, 0.046, 0.962, 0.316, 192.0, 0.0, 0.0, 0.0, 0.0, 0.0, 0.0, 0.0, 0.0, 0.0, 1.695766934551914E9, 0.0, 2023-09-26 17:22:14.551
102.0, 34607.98825120786, 49979.88641022282, -19188.056193358447, -25608.48302942312, 11421.160271306071, 9760.850341421406, -187500.02235174447, -21822.16457392747, 14771.284433756404, -26841.11468089994, 52940.75494298398, -26033.702615940885, 10430.977991935968, -22836.866716965047, -29853.43692939722, -19220.063891418446, 0.046, 0.962, 0.316, 192.0, 0.0, 0.0, 0.0, 0.0, 0.0, 0.0, 0.0, 0.0, 0.0, 1.695766934551917E9, 0.0, 2023-09-26 17:22:14.551
104.0, 34591.69382949994, 49969.33638683992, -19196.572207995916, -25617.334320227423, 11420.333256761225, 9794.377958104367, -187500.02235174447, -21823.952713483897, 14753.179520747606, -26862.281782899117, 53012.34758047433, -26045.951371902393, 10441.528015318872, -22849.67426653794, -29852.900487530293, -19150.192338251156, 0.046, 0.962, 0.316, 192.0, 0.0, 0.0, 0.0, 0.0, 0.0, 0.0, 0.0, 0.0, 0.0, 1.69576693455192E9, 0.0, 2023-09-26 17:22:14.551
106.0, 34567.039855365736, 49934.19944455617, -19202.540123765484, -25621.961131329674, 11407.123375788138, 9742.298393523502, -187500.02235174447, -21847.04206550623, 14757.471055683025, -26872.60828883747, 52952.064925678365, -26062.15638663249, 10423.981895921457, -22856.960935230367, -29859.00251376659, -19201.333129564897, 0.046, 0.962, 0.316, 192.0, 0.0, 0.0, 0.0, 0.0, 0.0, 0.0, 0.0, 0.0, 0.0, 1.695766934612189E9, 0.0, 2023-09-26 17:22:14.612
108.0, 34537.803773618194, 49916.89919434777, -19200.908446420246, -25623.771622630553, 11430.570355721755, 9806.246734410135, -187500.02235174447, -21802.338576595615, 14744.082360754295, -26885.92992853283, 52983.446774893615, -26069.97949719185, 10441.148035663133, -22860.403103876484, -29852.60991485237, -19165.41387622522, 0.046, 0.962, 0.308, 192.0, 0.5, 56.0, 15.0, 8.0, 4.5, 80.0, 0.0, 0.0, 0.0, 1.695766934612202E9, 0.0, 2023-09-26 17:22:14.612
110.0, 34505.997241258294, 49873.44740312665, -19205.669367989227, -25631.482974467635, 11409.626771167133, 9733.603564930389, -187500.02235174447, -21845.81271956119, 14736.259250194938, -26899.76565835067, 52972.60617883279, -26090.721916046372, 10426.48529130045, -22861.788912032716, -29851.20175495169, -19171.47119897261, 0.046, 0.962, 0.308, 192.0, 0.0, 0.0, 0.0, 0.0, 0.0, 0.0, 0.0, 0.0, 0.0, 1.695766934612205E9, 0.0, 2023-09-26 17:22:14.612
112.0, 34467.19461288388, 49848.99459469254, -19211.70433899216, -25634.232239035635, 11430.16802432156, 9805.017388465094, -187500.02235174447, -21813.290931378717, 14720.85889826523, -26916.261245758684, 52962.838466505826, -26102.054250485213, 10439.1140269177, -22868.248566180297, -29853.503984630584, -19173.169931551212, 0.046, 0.962, 0.308, 192.0, 0.0, 0.0, 0.0, 0.0, 0.0, 0.0, 0.0, 0.0, 0.0, 1.695766934612209E9, 0.0, 2023-09-26 17:22:14.612
114.0, 34441.825382927105, 49818.462111766596, -19216.532315794506, -25638.3002565265, 11408.77740487783, 9722.11476828036, -187500.02235174447, -21857.301516211217, 14711.426462105092, -26920.999815583207, 52984.989045261034, -26113.54304713524, 10421.925535431568, -22869.63437433653, -29856.253249198588, -19146.59370739385, 0.046, 0.962, 0.308, 192.0, 0.0, 0.0, 0.0, 0.0, 0.0, 0.0, 0.0, 0.0, 0.0, 1.695766934612212E9, 0.0, 2023-09-26 17:22:14.612
116.0, 34412.16461803491, 49803.62055344827, -19215.79470822748, -25641.943590872717, 11428.670457443055, 9800.971722718683, -187500.02235174447, -21809.46878307686, 14701.211714889017, -26925.514867963182, 52921.08540786331, -26109.720898833384, 10430.218032624487, -22873.210653449376, -29854.66627534226, -19202.383661554297, 0.046, 0.962, 0.308, 192.0, 0.0, 0.0, 0.0, 0.0, 0.0, 0.0, 0.0, 0.0, 0.0, 1.695766934612215E9, 0.0, 2023-09-26 17:22:14.612
118.0, 34380.156919974914, 49754.93845402461, -19221.47205131913, -25649.4537770097, 11394.092308770694, 9716.370369955346, -187500.02235174447, -21868.633850650054, 14694.260322363416, -26938.344769280528, 52961.58676881633, -26125.948265307936, 10418.326904574264, -22877.792761062716, -29861.729426590136, -19162.999887824048, 0.05, 0.9580000000000001, 0.31, 192.0, 0.5, 72.0, 14.5, 120.0, 4.5, 88.0, 0.0, 0.0, 0.0, 1.695766934612218E9, 0.0, 2023-09-26 17:22:14.612
120.0, 34347.67983528136, 49744.72370680854, -19231.955019468667, -25654.97465789016, 11411.5937246792, 9802.201068663726, -187500.02235174447, -21818.40948085898, 14676.244816332439, -26952.046388631632, 52891.111718548746, -26139.44871895894, 10416.985799906946, -22886.24172046682, -29877.777979109047, -19217.51579255054, 0.05, 0.9580000000000001, 0.31, 192.0, 0.0, 0.0, 0.0, 0.0, 0.0, 0.0, 0.0, 0.0, 0.0, 1.695766934671039E9, 0.0, 2023-09-26 17:22:14.671
122.0, 34337.040404920626, 49720.3379536078, -19224.824812987426, -25654.706436956698, 11383.810506321253, 9713.285829220513, -187500.02235174447, -21869.170292516985, 14673.786124442355, -26949.319475808083, 52983.64794059371, -26147.562402196218, 10406.793404435326, -22877.01045000678, -29882.270679744564, -19117.64819832423, 0.05, 0.9580000000000001, 0.31, 192.0, 0.0, 0.0, 0.0, 0.0, 0.0, 0.0, 0.0, 0.0, 0.0, 1.695766934671053E9, 0.0, 2023-09-26 17:22:14.671
124.0, 34309.570110985056, 49708.44682555757, -19234.413711358753, -25666.999896407116, 11404.910553087062, 9793.4615365817, -187500.02235174447, -21818.543591325713, 14672.936758153053, -26947.173708340375, 52846.40822963813, -26153.575021454697, 10412.403692293608, -22875.691697083916, -29882.67301114476, -19240.47103410614, 0.05, 0.9580000000000001, 0.31, 192.0, 0.0, 0.0, 0.0, 0.0, 0.0, 0.0, 0.0, 0.0, 0.0, 1.695766934671057E9, 0.0, 2023-09-26 17:22:14.671
126.0, 34297.14254106791, 49679.03192985439, -19234.458414847664, -25678.712210501697, 11371.561750359744, 9707.072044261939, -187500.02235174447, -21880.457923466915, 14661.649127203123, -26955.265039833193, 52979.04348123592, -26174.80917868724, 10398.567962475772, -22885.57116813316, -29899.369764252875, -19107.031119707957, 0.05, 0.9580000000000001, 0.31, 192.0, 0.0, 0.0, 0.0, 0.0, 0.0, 0.0, 0.0, 0.0, 0.0, 1.69576693467106E9, 0.0, 2023-09-26 17:22:14.671
128.0, 34287.59834618549, 49686.16213633563, -19225.003626943068, -25674.666544755288, 11404.128242031127, 9779.894027697328, -187500.02235174447, -21816.04019594672, 14659.302194035316, -26952.5604787541, 52837.24401441145, -26177.625498488607, 10399.953770632002, -22879.692659341414, -29894.67589791726, -19238.99581897209, 0.048, 0.962, 0.306, 192.0, 0.5, 64.0, 15.0, 8.0, 4.5, 72.0, 0.0, 0.0, 0.0, 1.695766934671063E9, 0.0, 2023-09-26 17:22:14.671
130.0, 34275.21547975725, 49661.8210866238, -19226.76941475504, -25681.103847158414, 11373.662814338544, 9713.844622831897, -187500.02235174447, -21878.870949610588, 14658.877510890665, -26950.995856642232, 52952.422553589655, -26181.291184579277, 10404.133546845145, -22876.965746517868, -29899.34741250842, -19135.574297377385, 0.048, 0.962, 0.306, 192.0, 0.0, 0.0, 0.0, 0.0, 0.0, 0.0, 0.0, 0.0, 0.0, 1.695766934671066E9, 0.0, 2023-09-26 17:22:14.671
132.0, 34259.03281677161, 49660.14470578965, -19229.898658978782, -25680.70151575822, 11404.843497853697, 9777.994129418628, -187500.02235174447, -21823.706844294888, 14649.33331600825, -26948.447757774327, 52803.69404598404, -26192.690574251483, 10397.517430486374, -22874.305888927687, -29901.068496831478, -19269.125970497844, 0.048, 0.962, 0.306, 192.0, 0.0, 0.0, 0.0, 0.0, 0.0, 0.0, 0.0, 0.0, 0.0, 1.69576693467107E9, 0.0, 2023-09-26 17:22:14.671
134.0, 34263.10083426247, 49651.852208596734, -19220.443871074185, -25673.995992421627, 11383.184657476504, 9722.092416535905, -187500.02235174447, -21859.5590424012, 14646.964031095986, -26951.75581595371, 52953.49543732351, -26197.339737098187, 10401.384282277142, -22870.975479003846, -29899.34741250842, -19123.079672226868, 0.048, 0.962, 0.306, 192.0, 0.0, 0.0, 0.0, 0.0, 0.0, 0.0, 0.0, 0.0, 0.0, 1.695766934671073E9, 0.0, 2023-09-26 17:22:14.671
136.0, 34247.87929628841, 49648.18652250606, -19225.025978687525, -25674.55478603301, 11400.574314662734, 9765.343042056924, -187500.02235174447, -21830.971161242862, 14653.960127110497, -26950.615876986492, 52796.07210112478, -26198.0326411763, 10396.1539740746, -22869.455560380884, -29891.39019148233, -19270.690592609717, 0.048, 0.962, 0.306, 192.0, 0.0, 0.0, 0.0, 0.0, 0.0, 0.0, 0.0, 0.0, 0.0, 1.695766934731379E9, 0.0, 2023-09-26 17:22:14.731
138.0, 34257.44584291528, 49656.38961272116, -19216.062929160944, -25665.591736506434, 11380.949483030974, 9731.569556184955, -187500.02235174447, -21859.42493193447, 14652.28374627635, -26950.370007797483, 52941.224329617544, -26193.919920196524, 10401.764261932882, -22868.56149060267, -29893.267738016577, -19133.07090199839, 0.04, 0.962, 0.306, 192.0, 0.5, 32.0, 15.0, 8.0, 4.5, 72.0, 0.0, 0.0, 0.0, 1.69576693473139E9, 0.0, 2023-09-26 17:22:14.731
140.0, 34252.70727309075, 49660.189409278566, -19211.74904248107, -25664.18357660575, 11399.322616973235, 9753.11663783987, -187500.02235174447, -21836.201469445405, 14657.04466784533, -26936.266057046185, 52783.64453120763, -26185.336850325686, 10395.975160118956, -22860.067827709656, -29890.607880426396, -19282.022927048558, 0.04, 0.962, 0.306, 192.0, 0.0, 0.0, 0.0, 0.0, 0.0, 0.0, 0.0, 0.0, 0.0, 1.695766934731394E9, 0.0, 2023-09-26 17:22:14.731
142.0, 34255.523592892125, 49658.37891797769, -19208.016301157037, -25673.6607162548, 11391.275988969326, 9738.45389347719, -187500.02235174447, -21858.32969645616, 14653.691906177033, -26938.054196602607, 52917.06209386136, -26185.26979509232, 10413.431872538553, -22867.801531291192, -29886.11517979088, -19157.858986599327, 0.04, 0.962, 0.306, 192.0, 0.0, 0.0, 0.0, 0.0, 0.0, 0.0, 0.0, 0.0, 0.0, 1.695766934731397E9, 0.0, 2023-09-26 17:22:14.731
144.0, 34259.27868596061, 49657.97658657749, -19204.14944936627, -25672.341963331935, 11403.569448419745, 9737.246899276603, -187500.02235174447, -21832.22285893236, 14658.609289957201, -26945.631437972956, 52804.31989482879, -26195.95392894196, 10402.568924733272, -22871.936604015424, -29883.38826696733, -19263.135702983822, 0.04, 0.962, 0.306, 192.0, 0.0, 0.0, 0.0, 0.0, 0.0, 0.0, 0.0, 0.0, 0.0, 1.695766934731402E9, 0.0, 2023-09-26 17:22:14.731
146.0, 34269.00169479867, 49667.096098315254, -19207.703376734662, -25669.212719108193, 11385.218666221937, 9745.02530634705, -187500.02235174447, -21852.719408597877, 14658.341069023738, -26947.397225784927, 52924.99696314299, -26195.484542308397, 10416.024674895367, -22872.405990648986, -29890.227900770653, -19155.377942964788, 0.04, 0.962, 0.306, 192.0, 0.0, 0.0, 0.0, 0.0, 0.0, 0.0, 0.0, 0.0, 0.0, 1.695766934731418E9, 0.0, 2023-09-26 17:22:14.731
148.0, 34266.364188952946, 49661.239941267966, -19213.246609359576, -25665.301163828513, 11392.304169214269, 9730.474320706644, -187500.02235174447, -21848.159652728995, 14661.403258014114, -26932.578019211058, 52828.43742709606, -26185.783885214794, 10398.322093286764, -22865.074618467646, -29889.02090657007, -19250.305801666476, 0.036000000000000004, 0.964, 0.308, 192.0, 0.5, 16.0, 15.0, 16.0, 4.5, 80.0, 0.0, 0.0, 0.0, 1.695766934731422E9, 0.0, 2023-09-26 17:22:14.731
150.0, 34280.37873272642, 49675.25448504144, -19222.14260365279, -25679.919204702284, 11377.082631240206, 9746.522873225555, -187500.02235174447, -21870.623155906578, 14656.083542833752, -26947.732501951756, 52935.61404175926, -26193.29407135178, 10406.34636954622, -22879.446790152408, -29905.650604444818, -19140.759902091017, 0.036000000000000004, 0.964, 0.308, 192.0, 0.0, 0.0, 0.0, 0.0, 0.0, 0.0, 0.0, 0.0, 0.0, 1.695766934791702E9, 0.0, 2023-09-26 17:22:14.791
152.0, 34285.63139267342, 49671.94642686206, -19220.533278052008, -25678.37693433487, 11385.553942388768, 9710.268343719048, -187500.02235174447, -21857.03329527775, 14667.795856928333, -26945.94436239533, 52852.46555238552, -26199.41844933253, 10393.382357762142, -22878.709182585382, -29906.656432945307, -19219.99683618508, 0.036000000000000004, 0.964, 0.308, 192.0, 0.0, 0.0, 0.0, 0.0, 0.0, 0.0, 0.0, 0.0, 0.0, 1.695766934791716E9, 0.0, 2023-09-26 17:22:14.791
154.0, 34304.78683767162, 49699.97551440901, -19216.75583323906, -25663.691838227733, 11399.926114073529, 9766.862960679884, -187500.02235174447, -21824.623265817558, 14672.355612797215, -26937.741272180236, 52909.976590869024, -26187.437914304486, 10413.007189393902, -22872.76361856027, -29892.44072347173, -19167.157312292733, 0.036000000000000004, 0.964, 0.308, 192.0, 0.0, 0.0, 0.0, 0.0, 0.0, 0.0, 0.0, 0.0, 0.0, 1.69576693479172E9, 0.0, 2023-09-26 17:22:14.791
156.0, 34304.76448592717, 49689.470194515015, -19222.79080424199, -25657.478053269155, 11381.664738853544, 9710.670675119243, -187500.02235174447, -21854.529899898756, 14673.249682575428, -26928.621760442467, 52864.35668043574, -26181.42529504601, 10393.672930440061, -22859.821958520646, -29891.47959846015, -19212.687815748195, 0.036000000000000004, 0.964, 0.308, 192.0, 0.0, 0.0, 0.0, 0.0, 0.0, 0.0, 0.0, 0.0, 0.0, 1.695766934791724E9, 0.0, 2023-09-26 17:22:14.791
158.0, 34323.27173033616, 49714.16887213813, -19224.22131588713, -25658.729750958653, 11399.277913484326, 9780.877504453363, -187500.02235174447, -21817.82833550314, 14667.549987739325, -26930.968693610277, 52865.384860680686, -26182.028792146302, 10406.748700946415, -22861.163063187967, -29898.118066563376, -19204.32826332191, 0.04, 0.9580000000000001, 0.306, 192.0, 0.5, 32.0, 14.5, 120.0, 4.5, 72.0, 0.0, 0.0, 0.0, 1.695766934791727E9, 0.0, 2023-09-26 17:22:14.791
160.0, 34333.88880895243, 49712.7830639819, -19221.963789697147, -25657.388646291336, 11383.139953987593, 9717.666771133754, -187500.02235174447, -21859.31317321219, 14679.038784389351, -26923.36910049547, 52870.190485738574, -26181.782922957293, 10397.115099086179, -22856.603307319085, -29888.663278658783, -19198.449754530164, 0.04, 0.9580000000000001, 0.306, 192.0, 0.0, 0.0, 0.0, 0.0, 0.0, 0.0, 0.0, 0.0, 0.0, 1.69576693479173E9, 0.0, 2023-09-26 17:22:14.791
162.0, 34352.217239405785, 49744.43313413062, -19220.153298396268, -25656.695742213222, 11403.88237284212, 9793.617998792888, -187500.02235174447, -21817.60481805859, 14674.255511075917, -26921.446850472315, 52858.70168908855, -26173.266908319823, 10407.173384091066, -22860.671324809948, -29890.987860082136, -19208.396280812776, 0.04, 0.9580000000000001, 0.306, 192.0, 0.0, 0.0, 0.0, 0.0, 0.0, 0.0, 0.0, 0.0, 0.0, 1.695766934791734E9, 0.0, 2023-09-26 17:22:14.791
164.0, 34363.84014652254, 49744.477837619525, -19215.057100660455, -25653.03005612255, 11384.704576099466, 9710.15658499677, -187500.02235174447, -21863.89528082553, 14680.111668123207, -26909.935702077833, 52917.35266653928, -26165.354390782642, 10396.668064197072, -22855.686885796415, -29885.846958857415, -19155.713219131616, 0.04, 0.9580000000000001, 0.306, 192.0, 0.0, 0.0, 0.0, 0.0, 0.0, 0.0, 0.0, 0.0, 0.0, 1.695766934791737E9, 0.0, 2023-09-26 17:22:14.791
166.0, 34381.341562431044, 49770.29410246541, -19214.677121004715, -25657.03101838005, 11417.248716026392, 9792.768632503585, -187500.02235174447, -21806.56305629767, 14685.833714703766, -26901.084411273532, 52848.44223838356, -26156.681913933982, 10412.895430671624, -22853.51876658425, -29880.884871588336, -19223.081376919912, 0.04, 0.9580000000000001, 0.306, 192.0, 0.0, 0.0, 0.0, 0.0, 0.0, 0.0, 0.0, 0.0, 0.0, 1.695766934851866E9, 0.0, 2023-09-26 17:22:14.851
168.0, 34395.89254807145, 49765.55553264088, -19206.585789511897, -25663.84830043892, 11386.179791233515, 9702.86991630434, -187500.02235174447, -21862.732990113855, 14691.555761284324, -26900.659728128878, 52940.44201856161, -26152.859765632125, 10403.462994511485, -22858.033818964224, -29883.38826696733, -19139.821128823893, 0.042, 0.9580000000000001, 0.312, 192.0, 0.5, 40.0, 14.5, 120.0, 4.5, 96.0, 0.0, 0.0, 0.0, 1.695766934851877E9, 0.0, 2023-09-26 17:22:14.851
170.0, 34411.58347267908, 49791.394149231215, -19204.14944936627, -25662.663657982786, 11411.772538634843, 9781.391594575834, -187500.02235174447, -21813.536800567723, 14701.167011400106, -26906.538236920624, 52848.241072683464, -26151.228088286887, 10417.432834796053, -22866.929813257437, -29879.52141517656, -19233.251420647077, 0.042, 0.9580000000000001, 0.312, 192.0, 0.0, 0.0, 0.0, 0.0, 0.0, 0.0, 0.0, 0.0, 0.0, 1.695766934851881E9, 0.0, 2023-09-26 17:22:14.851
172.0, 34431.05184209965, 49790.94711434211, -19205.691719733684, -25652.180689833247, 11369.43833463649, 9706.937933795207, -187500.02235174447, -21866.13045527106, 14708.34192137026, -26892.858969313977, 52964.0007572175, -26143.762605638818, 10412.91778241608, -22856.648010807992, -29886.316345490977, -19132.73562583156, 0.042, 0.9580000000000001, 0.312, 192.0, 0.0, 0.0, 0.0, 0.0, 0.0, 0.0, 0.0, 0.0, 0.0, 1.695766934851884E9, 0.0, 2023-09-26 17:22:14.851
174.0, 34436.90799914694, 49816.11517859879, -19212.285484347998, -25650.63841946583, 11403.144765275094, 9785.526667300066, -187500.02235174447, -21811.391033100015, 14709.817136504309, -26884.92410003234, 52845.514159859915, -26134.30781773422, 10414.30359057231, -22847.148519414488, -29887.255118758098, -19242.862670762857, 0.042, 0.9580000000000001, 0.312, 192.0, 0.0, 0.0, 0.0, 0.0, 0.0, 0.0, 0.0, 0.0, 0.0, 1.695766934851888E9, 0.0, 2023-09-26 17:22:14.851
176.0, 34449.62614174201, 49810.79546341842, -19212.263132603544, -25656.919259657774, 11364.319785156225, 9703.965151782651, -187500.02235174447, -21880.256757766816, 14712.834622005776, -26878.687963329314, 52977.72472831306, -26136.18536426847, 10409.63207598115, -22849.875432238037, -29901.73904916514, -19121.582105348363, 0.042, 0.9580000000000001, 0.312, 192.0, 0.0, 0.0, 0.0, 0.0, 0.0, 0.0, 0.0, 0.0, 0.0, 1.695766934851891E9, 0.0, 2023-09-26 17:22:14.851
178.0, 34453.62710399951, 49822.32896355736, -19206.31756857843, -25656.4051695353, 11409.872640356141, 9779.379937574857, -187500.02235174447, -21810.899294722, 14718.087281952774, -26884.70058258779, 52832.14781667564, -26136.207716012923, 10417.16461386259, -22851.641220050005, -29890.227900770653, -19261.973412272146, 0.038, 0.962, 0.314, 192.0, 0.5, 24.0, 15.0, 8.0, 4.5, 104.0, 0.0, 0.0, 0.0, 1.695766934851895E9, 0.0, 2023-09-26 17:22:14.851
180.0, 34465.808804727654, 49826.95577465961, -19209.67033024673, -25651.666599710778, 11372.075840482217, 9712.212945486659, -187500.02235174447, -21874.93704258645, 14716.880287752187, -26887.494550644704, 52996.8578215668, -26134.151355523034, 10414.191831850032, -22860.20193817639, -29893.468903716675, -19104.930055729157, 0.038, 0.962, 0.314, 192.0, 0.0, 0.0, 0.0, 0.0, 0.0, 0.0, 0.0, 0.0, 0.0, 1.695766934911874E9, 0.0, 2023-09-26 17:22:14.911
182.0, 34466.21113612785, 49835.13651313025, -19213.492478548585, -25641.630666450343, 11404.284704242315, 9770.059260136994, -187500.02235174447, -21821.98575997183, 14715.494479595958, -26883.404181409383, 52842.250805169446, -26126.171782752488, 10409.96735214798, -22854.345781129097, -29889.713810648183, -19251.37868540033, 0.038, 0.962, 0.314, 192.0, 0.0, 0.0, 0.0, 0.0, 0.0, 0.0, 0.0, 0.0, 0.0, 1.69576693491189E9, 0.0, 2023-09-26 17:22:14.911
184.0, 34476.381179855016, 49833.14720787373, -19222.030844930512, -25650.571364232466, 11373.327538171714, 9731.234280018125, -187500.02235174447, -21865.124626770572, 14715.583886573779, -26883.672402342847, 52980.71986207007, -26123.757794351317, 10418.125738874167, -22850.27776363823, -29893.848883372415, -19120.21864893659, 0.038, 0.962, 0.314, 192.0, 0.0, 0.0, 0.0, 0.0, 0.0, 0.0, 0.0, 0.0, 0.0, 1.695766934911894E9, 0.0, 2023-09-26 17:22:14.911
186.0, 34477.34230486659, 49843.138437645255, -19219.90742920726, -25646.16807057477, 11406.788099621308, 9765.186579845737, -187500.02235174447, -21818.990626214818, 14721.842375021264, -26886.622832610945, 52830.40438060813, -26127.423480441987, 10412.783671949348, -22849.80837700467, -29886.696325146717, -19258.017153503555, 0.038, 0.962, 0.314, 192.0, 0.0, 0.0, 0.0, 0.0, 0.0, 0.0, 0.0, 0.0, 0.0, 1.695766934911897E9, 0.0, 2023-09-26 17:22:14.911
188.0, 34483.04199970269, 49847.9664144476, -19215.593542527386, -25645.609276963387, 11387.789116834298, 9748.042791848517, -187500.02235174447, -21850.148957985515, 14712.05231094984, -26890.46733265726, 52977.21063819059, -26128.07168103119, 10422.104349387211, -22856.111568941065, -29890.67493565976, -19116.374148890274, 0.04, 0.962, 0.314, 192.0, 0.5, 32.0, 15.0, 8.0, 4.5, 104.0, 0.0, 0.0, 0.0, 1.695766934911901E9, 0.0, 2023-09-26 17:22:14.911
190.0, 34489.32283989464, 49861.19864716514, -19203.32243482142, -25641.809480405987, 11407.503355443878, 9756.245882063613, -187500.02235174447, -21831.84287927662, 14723.33994189977, -26885.54994887709, 52841.84847376925, -26118.46043091541, 10415.711750472994, -22850.680095038428, -29879.14143552082, -19244.20377543018, 0.04, 0.962, 0.314, 192.0, 0.0, 0.0, 0.0, 0.0, 0.0, 0.0, 0.0, 0.0, 0.0, 1.695766934911905E9, 0.0, 2023-09-26 17:22:14.911
192.0, 34497.36946789855, 49865.087850700365, -19203.054213887957, -25653.32062880047, 11387.610302878655, 9752.73665818413, -187500.02235174447, -21846.79619631722, 14722.669389566112, -26886.75694307768, 52964.06781245087, -26111.21846571189, 10432.54261404784, -22853.831691006624, -29879.856691343393, -19133.003846765023, 0.04, 0.962, 0.314, 192.0, 0.0, 0.0, 0.0, 0.0, 0.0, 0.0, 0.0, 0.0, 0.0, 1.695766934911908E9, 0.0, 2023-09-26 17:22:14.911
194.0, 34500.38695340001, 49864.35024313334, -19198.069774874424, -25651.331323543945, 11405.379939720624, 9735.458759720179, -187500.02235174447, -21841.52118462577, 14730.716017570021, -26882.6442220979, 52839.993278979455, -26116.314663447698, 10420.606782508705, -22851.32829562763, -29881.041333799523, -19257.883043036825, 0.04, 0.962, 0.314, 192.0, 0.0, 0.0, 0.0, 0.0, 0.0, 0.0, 0.0, 0.0, 0.0, 1.695766934911912E9, 0.0, 2023-09-26 17:22:14.911
196.0, 34501.21396794486, 49873.06742347091, -19201.735460965094, -25645.87749789685, 11395.612227393654, 9762.750239700108, -187500.02235174447, -21843.354027671103, 14721.305933154337, -26885.70641108828, 52930.45078879008, -26115.77822158077, 10434.911898960103, -22854.971629973847, -29880.236670999133, -19173.102876317844, 0.04, 0.962, 0.314, 192.0, 0.0, 0.0, 0.0, 0.0, 0.0, 0.0, 0.0, 0.0, 0.0, 1.695766934971045E9, 0.0, 2023-09-26 17:22:14.971
198.0, 34501.01280224476, 49872.59803683735, -19195.924007406713, -25631.617084934365, 11400.35079721818, 9742.54426271251, -187500.02235174447, -21845.969181772376, 14734.337000171781, -26866.238041667708, 52847.81638953881, -26103.88709353055, 10420.092692386233, -22840.912382711456, -29879.364952965374, -19252.18334820072, 0.042, 0.966, 0.314, 192.0, 0.5, 40.0, 15.0, 24.0, 4.5, 104.0, 0.0, 0.0, 0.0, 1.695766934971057E9, 0.0, 2023-09-26 17:22:14.971
200.0, 34512.792171572706, 49888.847755056355, -19197.46627777413, -25641.675369939254, 11399.501430928878, 9786.13016440036, -187500.02235174447, -21831.37349264306, 14731.051293736851, -26869.635506824914, 52942.81130347387, -26101.11547721809, 10433.839015226247, -22842.678170523428, -29882.02481055556, -19159.73653313357, 0.042, 0.966, 0.314, 192.0, 0.0, 0.0, 0.0, 0.0, 0.0, 0.0, 0.0, 0.0, 0.0, 1.69576693497106E9, 0.0, 2023-09-26 17:22:14.971
202.0, 34509.7970378157, 49875.213190938615, -19207.390452312287, -25649.02909386505, 11382.15647723156, 9734.4976347086, -187500.02235174447, -21853.702885353912, 14741.19898571956, -26865.947468989787, 52884.69676789007, -26104.155314464013, 10420.495023786429, -22841.67234202294, -29884.885833845838, -19221.896734463782, 0.042, 0.966, 0.314, 192.0, 0.0, 0.0, 0.0, 0.0, 0.0, 0.0, 0.0, 0.0, 0.0, 1.695766934971063E9, 0.0, 2023-09-26 17:22:14.971
204.0, 34505.48315113582, 49883.259818942526, -19218.119289650833, -25655.108768356895, 11391.63361688061, 9790.55580980251, -187500.02235174447, -21832.84870777711, 14721.372988387704, -26881.861911041968, 52945.627623275235, -26114.83944831365, 10423.624268010171, -22854.546946829196, -29898.25217703011, -19160.31767848941, 0.042, 0.966, 0.314, 192.0, 0.0, 0.0, 0.0, 0.0, 0.0, 0.0, 0.0, 0.0, 0.0, 1.695766934971067E9, 0.0, 2023-09-26 17:22:14.971
206.0, 34500.20813944437, 49870.63108332528, -19206.071699389424, -25636.579172203445, 11390.337215702202, 9731.189576529214, -187500.02235174447, -21848.070245751172, 14724.748101800455, -26869.12141670244, 52924.90755616517, -26112.961901779403, 10411.643732982127, -22841.873507723038, -29887.09865654691, -19179.160199065234, 0.042, 0.966, 0.314, 192.0, 0.0, 0.0, 0.0, 0.0, 0.0, 0.0, 0.0, 0.0, 0.0, 1.69576693497107E9, 0.0, 2023-09-26 17:22:14.971
208.0, 34497.07889522063, 49884.220943954104, -19210.072661646922, -25640.960114116686, 11401.513087929856, 9809.957123989716, -187500.02235174447, -21813.715614523368, 14719.383683131182, -26865.925117245333, 52923.81232068686, -26106.949282520927, 10429.703942502016, -22837.447862320885, -29878.604993653895, -19173.88518737378, 0.04, 0.964, 0.318, 192.0, 0.5, 32.0, 15.0, 16.0, 4.5, 120.0, 0.0, 0.0, 0.0, 1.695766934971073E9, 0.0, 2023-09-26 17:22:14.971
210.0, 34505.75137206929, 49870.20640018063, -19207.703376734662, -25648.894983398317, 11383.363471432147, 9721.243050246603, -187500.02235174447, -21866.57749016017, 14730.403093147648, -26871.244832425695, 52945.0464779194, -26120.49443966084, 10418.192794107532, -22840.42064433344, -29886.517511191072, -19156.562585420917, 0.04, 0.964, 0.318, 192.0, 0.0, 0.0, 0.0, 0.0, 0.0, 0.0, 0.0, 0.0, 0.0, 1.695766935031356E9, 0.0, 2023-09-26 17:22:15.031
212.0, 34511.71928783885, 49882.36574916432, -19210.989083169592, -25655.712265457187, 11401.133108274116, 9793.79681274853, -187500.02235174447, -21824.84678326211, 14727.96675300202, -26883.158312220374, 52905.97562861152, -26121.902599561527, 10431.514433802895, -22858.123225942043, -29884.215281512177, -19194.64995797276, 0.04, 0.964, 0.318, 192.0, 0.0, 0.0, 0.0, 0.0, 0.0, 0.0, 0.0, 0.0, 0.0, 1.695766935031371E9, 0.0, 2023-09-26 17:22:15.031
214.0, 34508.63474710402, 49871.234580425575, -19195.65578647325, -25644.379931018346, 11396.908628572062, 9716.079797277427, -187500.02235174447, -21864.185853503448, 14728.011456490929, -26883.426533153837, 52963.71018453958, -26123.17664899548, 10420.785596464348, -22857.85500500858, -29878.62734539835, -19139.485852657064, 0.04, 0.964, 0.318, 192.0, 0.0, 0.0, 0.0, 0.0, 0.0, 0.0, 0.0, 0.0, 0.0, 1.695766935031374E9, 0.0, 2023-09-26 17:22:15.031
216.0, 34499.67169757744, 49888.66894110071, -19199.455583030653, -25641.720073428165, 11415.97466659244, 9804.123318686881, -187500.02235174447, -21813.402690100993, 14723.161127944128, -26876.005753994676, 52898.13016630771, -26112.045480256736, 10434.151939648622, -22848.37786535953, -29865.77509233655, -19194.001757383558, 0.04, 0.964, 0.318, 192.0, 0.0, 0.0, 0.0, 0.0, 0.0, 0.0, 0.0, 0.0, 0.0, 1.695766935031378E9, 0.0, 2023-09-26 17:22:15.031
218.0, 34507.91949128145, 49876.755461306035, -19200.21554234213, -25647.956210131197, 11387.766765089842, 9717.599715900387, -187500.02235174447, -21871.584280918156, 14727.653828579645, -26870.88720451441, 52995.74023434404, -26111.374927923076, 10425.367704077686, -22845.829766491624, -29878.381476209343, -19102.627826050262, 0.044, 0.962, 0.308, 192.0, 0.5, 48.0, 15.0, 8.0, 4.5, 80.0, 0.0, 0.0, 0.0, 1.695766935031381E9, 0.0, 2023-09-26 17:22:15.031
220.0, 34523.87863682254, 49888.04309225596, -19201.199019098167, -25652.605372977898, 11420.31090501677, 9789.393519090834, -187500.02235174447, -21815.16847791296, 14741.44485490857, -26877.145692961898, 52888.96595108104, -26110.972596522883, 10437.527053061372, -22853.585821817618, -29875.475749430152, -19207.61396975684, 0.044, 0.962, 0.308, 192.0, 0.0, 0.0, 0.0, 0.0, 0.0, 0.0, 0.0, 0.0, 0.0, 1.695766935031384E9, 0.0, 2023-09-26 17:22:15.031
222.0, 34521.64346237701, 49880.309388674425, -19204.57413251092, -25651.152509588304, 11375.428602150512, 9703.272247704535, -187500.02235174447, -21885.71058341391, 14740.81900606382, -26887.40514366688, 53008.838356594846, -26117.70047160393, 10433.503739059417, -22863.174720188945, -29881.667182644273, -19105.44414585163, 0.044, 0.962, 0.308, 192.0, 0.0, 0.0, 0.0, 0.0, 0.0, 0.0, 0.0, 0.0, 0.0, 1.695766935031387E9, 0.0, 2023-09-26 17:22:15.031
224.0, 34514.93793904042, 49901.297676717964, -19206.1834581117, -25636.132137314336, 11406.11754728765, 9789.393519090834, -187500.02235174447, -21819.527068081745, 14739.522604885413, -26874.441131882806, 52862.4791339015, -26102.702451074416, 10431.201509380522, -22849.04841769319, -29881.287202988533, -19246.885984764813, 0.044, 0.962, 0.308, 192.0, 0.0, 0.0, 0.0, 0.0, 0.0, 0.0, 0.0, 0.0, 0.0, 1.695766935031391E9, 0.0, 2023-09-26 17:22:15.031
226.0, 34515.6978983519, 49897.18495573819, -19201.064908631433, -25630.566552944965, 11379.228398707915, 9729.647306161798, -187500.02235174447, -21863.358838958604, 14725.888040767675, -26868.719085302244, 53029.4690167271, -26098.276805672267, 10426.217070366987, -22843.90751646847, -29880.90722333279, -19081.77364847346, 0.044, 0.962, 0.308, 192.0, 0.0, 0.0, 0.0, 0.0, 0.0, 0.0, 0.0, 0.0, 0.0, 1.695766935091653E9, 0.0, 2023-09-26 17:22:15.091
228.0, 34515.720250096354, 49900.314199961926, -19200.506115020053, -25634.388701246822, 11418.746282904898, 9792.433356336756, -187500.02235174447, -21808.395899343002, 14736.594526361767, -26861.253602654175, 52863.39555542416, -26090.29723290172, 10433.839015226247, -22834.43037681942, -29870.737179605625, -19246.1930806867, 0.04, 0.964, 0.314, 192.0, 0.5, 32.0, 15.0, 16.0, 4.5, 104.0, 0.0, 0.0, 0.0, 1.695766935091665E9, 0.0, 2023-09-26 17:22:15.091
230.0, 34516.569616385656, 49878.230676440086, -19209.67033024673, -25651.08545435494, 11380.122468486128, 9731.524852696044, -187500.02235174447, -21867.471559938378, 14742.696552598067, -26881.861911041968, 53007.63136239426, -26107.2622069433, 10440.365724607198, -22853.42935960643, -29872.748836606603, -19114.854230267316, 0.04, 0.964, 0.314, 192.0, 0.0, 0.0, 0.0, 0.0, 0.0, 0.0, 0.0, 0.0, 0.0, 1.695766935091668E9, 0.0, 2023-09-26 17:22:15.091
232.0, 34514.40149717349, 49885.360882921326, -19205.870533689325, -25641.898887383806, 11414.477099713935, 9775.244864850625, -187500.02235174447, -21816.733100024834, 14741.891889797675, -26891.853140813488, 52856.86884604322, -26114.481820402365, 10433.704904759516, -22856.513900341262, -29874.112293018377, -19261.23580470512, 0.04, 0.964, 0.314, 192.0, 0.0, 0.0, 0.0, 0.0, 0.0, 0.0, 0.0, 0.0, 0.0, 1.695766935091672E9, 0.0, 2023-09-26 17:22:15.091
234.0, 34517.7989623307, 49884.869144543314, -19211.36906282533, -25641.78712866153, 11382.782326076309, 9748.243957548613, -187500.02235174447, -21863.18002500296, 14730.447796636558, -26890.400277423894, 53006.938458316145, -26110.726727333873, 10440.052800184823, -22853.33995262861, -29873.91112731828, -19118.20699193561, 0.04, 0.964, 0.314, 192.0, 0.0, 0.0, 0.0, 0.0, 0.0, 0.0, 0.0, 0.0, 0.0, 1.695766935091675E9, 0.0, 2023-09-26 17:22:15.091
236.0, 34513.57448262865, 49890.83706031288, -19209.871495946827, -25637.6520559373, 11407.838631610708, 9775.378975317357, -187500.02235174447, -21822.209277416383, 14731.587735603778, -26875.245794683196, 52855.170113464614, -26109.02799475527, 10428.899279701625, -22842.29819086769, -29868.81492958247, -19263.33686868392, 0.04, 0.964, 0.314, 192.0, 0.0, 0.0, 0.0, 0.0, 0.0, 0.0, 0.0, 0.0, 0.0, 1.695766935091678E9, 0.0, 2023-09-26 17:22:15.091
238.0, 34519.83297107613, 49897.05084527146, -19203.27773133251, -25643.88819264033, 11391.052471524772, 9756.469399508167, -187500.02235174447, -21854.28403070975, 14725.351598900748, -26880.118474974453, 52989.52644938546, -26105.675233086975, 10438.666992028593, -22846.723836269837, -29870.357199949885, -19138.010637523013, 0.04, 0.9560000000000001, 0.312, 192.0, 0.5, 32.0, 14.5, 112.0, 4.5, 96.0, 0.0, 0.0, 0.0, 1.695766935091681E9, 0.0, 2023-09-26 17:22:15.091
240.0, 34523.54336065571, 49899.50953716154, -19202.294254576478, -25638.45671873769, 11409.984399078417, 9769.16519035878, -187500.02235174447, -21823.706844294888, 14733.666447838123, -26875.335201661015, 52863.1273344907, -26097.49449461633, 10432.497910558928, -22847.595554303596, -29865.842147569914, -19258.3971331593, 0.04, 0.9560000000000001, 0.312, 192.0, 0.0, 0.0, 0.0, 0.0, 0.0, 0.0, 0.0, 0.0, 0.0, 1.695766935151951E9, 0.0, 2023-09-26 17:22:15.151
242.0, 34535.18861951693, 49904.6280866418, -19203.255379588056, -25634.83573613593, 11390.940712802496, 9771.757992715597, -187500.02235174447, -21841.431777647947, 14729.91135476963, -26877.54802436209, 53011.34175197384, -26092.443000369432, 10441.952698463523, -22852.177661916932, -29876.23570874163, -19116.374148890274, 0.04, 0.9560000000000001, 0.312, 192.0, 0.0, 0.0, 0.0, 0.0, 0.0, 0.0, 0.0, 0.0, 0.0, 1.695766935151964E9, 0.0, 2023-09-26 17:22:15.151
244.0, 34534.65217765, 49899.487185417085, -19202.160144109745, -25631.058291322985, 11394.472288426434, 9750.79205641652, -187500.02235174447, -21842.5046613818, 14741.310744441838, -26869.56845159155, 52910.04364610239, -26090.990136979835, 10433.347276848232, -22845.38273160252, -29870.647772627806, -19212.75487098156, 0.04, 0.9560000000000001, 0.312, 192.0, 0.0, 0.0, 0.0, 0.0, 0.0, 0.0, 0.0, 0.0, 0.0, 1.695766935151968E9, 0.0, 2023-09-26 17:22:15.151
246.0, 34540.97772133085, 49914.77577862451, -19202.249551087567, -25637.137965814825, 11405.424643209535, 9779.536399786044, -187500.02235174447, -21833.6533705775, 14735.856918794743, -26867.757960290666, 52979.57992310285, -26086.63154681105, 10446.579509565772, -22844.93569671341, -29872.212394739676, -19147.64423938325, 0.04, 0.9560000000000001, 0.312, 192.0, 0.0, 0.0, 0.0, 0.0, 0.0, 0.0, 0.0, 0.0, 0.0, 1.695766935151971E9, 0.0, 2023-09-26 17:22:15.151
248.0, 34533.8028113607, 49903.44344418567, -19214.341844837887, -25644.89402114082, 11397.355663461169, 9741.225509789647, -187500.02235174447, -21840.67181833647, 14741.623668864211, -26869.03200972462, 52898.19722154108, -26092.711221302896, 10430.598012280228, -22847.37203685904, -29871.653601128295, -19223.818984486938, 0.044, 0.9540000000000001, 0.308, 192.0, 0.5, 48.0, 14.5, 104.0, 4.5, 80.0, 0.0, 0.0, 0.0, 1.695766935151974E9, 0.0, 2023-09-26 17:22:15.151
250.0, 34541.84943936461, 49913.97111582412, -19218.499269306572, -25642.97177111766, 11401.133108274116, 9793.305074370513, -187500.02235174447, -21825.6514460625, 14725.843337278766, -26880.520806374647, 52985.43608015014, -26092.68886955844, 10435.53774780485, -22860.023124220745, -29885.332868734942, -19130.522803130487, 0.044, 0.9540000000000001, 0.308, 192.0, 0.0, 0.0, 0.0, 0.0, 0.0, 0.0, 0.0, 0.0, 0.0, 1.695766935151977E9, 0.0, 2023-09-26 17:22:15.151
252.0, 34548.376148745556, 49903.957534308145, -19206.786955211992, -25633.516983213067, 11398.92028557304, 9732.709495152176, -187500.02235174447, -21851.065379508185, 14738.226203707005, -26867.93677424631, 52961.497361838505, -26088.956128234404, 10423.713674987994, -22851.596516561094, -29879.14143552082, -19152.807492352425, 0.044, 0.9540000000000001, 0.308, 192.0, 0.0, 0.0, 0.0, 0.0, 0.0, 0.0, 0.0, 0.0, 0.0, 1.695766935151981E9, 0.0, 2023-09-26 17:22:15.151
254.0, 34548.91259061248, 49911.11009253384, -19207.32339707892, -25639.529602471546, 11413.538326446811, 9788.6112080349, -187500.02235174447, -21828.490117608326, 14739.544956629868, -26874.374076649437, 52958.926911226146, -26090.74426779083, 10444.1655211646, -22851.685923538917, -29870.558365649984, -19158.75305637754, 0.044, 0.9540000000000001, 0.308, 192.0, 0.0, 0.0, 0.0, 0.0, 0.0, 0.0, 0.0, 0.0, 0.0, 1.695766935151984E9, 0.0, 2023-09-26 17:22:15.151
0.0, 34542.899971354, 49892.64755161376, -19212.240780859087, -25646.36923627487, 11395.835744838208, 9720.930125824229, -187500.02235174447, -21856.22863247736, 14742.182462475594, -26879.55968136307, 52948.62275703225, -26098.16504694999, 10433.30257335932, -22852.848214250593, -29867.0491417705, -19176.433286241685, 0.044, 0.9540000000000001, 0.308, 192.0, 0.0, 0.0, 0.0, 0.0, 0.0, 0.0, 0.0, 0.0, 0.0, 1.695766935212135E9, 0.0, 2023-09-26 17:22:15.212
2.0, 34536.19444801741, 49908.40553145475, -19213.581885526408, -25641.74242517262, 11414.410044480568, 9800.681150040764, -187500.02235174447, -21814.18500115693, 14731.788901303877, -26883.22536745374, 52928.774407955934, -26100.847256284625, 10442.82441649728, -22855.57512707414, -29871.944173806212, -19194.761716695037, 0.046, 0.9580000000000001, 0.308, 192.0, 0.5, 56.0, 14.5, 120.0, 4.5, 80.0, 0.0, 0.0, 0.0, 1.695766935212146E9, 0.0, 2023-09-26 17:22:15.212
4.0, 34533.199314260404, 49890.85941205733, -19209.80444071346, -25634.58986694692, 11390.851305824675, 9731.63661141832, -187500.02235174447, -21858.95554530091, 14730.067816980818, -26881.772504064145, 52975.64601607872, -26103.484762130352, 10430.687419258049, -22852.691752039405, -29865.81979582546, -19145.677285871185, 0.046, 0.9580000000000001, 0.308, 192.0, 0.0, 0.0, 0.0, 0.0, 0.0, 0.0, 0.0, 0.0, 0.0, 1.695766935212149E9, 0.0, 2023-09-26 17:22:15.212
6.0, 34539.74837538581, 49912.80882511244, -19204.484725533097, -25630.07481456695, 11417.82986138223, 9818.18256594927, -187500.02235174447, -21800.773954483742, 14729.889003025175, -26875.916347016853, 52924.68403872062, -26095.21461668189, 10439.628117040173, -22845.539193813707, -29862.824662068448, -19184.18934156768, 0.046, 0.9580000000000001, 0.308, 192.0, 0.0, 0.0, 0.0, 0.0, 0.0, 0.0, 0.0, 0.0, 0.0, 1.695766935212153E9, 0.0, 2023-09-26 17:22:15.212
8.0, 34542.140012042524, 49900.4259586842, -19209.536219779995, -25641.563611216978, 11385.77745983332, 9726.383951471324, -187500.02235174447, -21859.46963542338, 14738.717942085023, -26876.005753994676, 53012.6605048967, -26099.193227194934, 10434.598974537728, -22849.406045604475, -29867.563231892975, -19099.92326497117, 0.046, 0.9580000000000001, 0.308, 192.0, 0.0, 0.0, 0.0, 0.0, 0.0, 0.0, 0.0, 0.0, 0.0, 1.695766935212156E9, 0.0, 2023-09-26 17:22:15.212
10.0, 34543.65993066549, 49922.21890952813, -19212.821926214925, -25643.284695540035, 11414.141823547105, 9799.18358316226, -187500.02235174447, -21810.251094132793, 14739.433197907592, -26875.93869876131, 52908.88135539072, -26094.65582307051, 10442.086808930257, -22856.80447301918, -29875.833377341438, -19200.729632464605, 0.046, 0.9580000000000001, 0.308, 192.0, 0.0, 0.0, 0.0, 0.0, 0.0, 0.0, 0.0, 0.0, 0.0, 1.695766935212159E9, 0.0, 2023-09-26 17:22:15.212
12.0, 34550.16428830198, 49914.61931641332, -19205.602312755862, -25635.796861147508, 11394.025253537327, 9720.438387446213, -187500.02235174447, -21864.744647114832, 14740.371971174714, -26874.754056305177, 53014.359237475306, -26093.82880852566, 10434.755436748916, -22860.112531198567, -29877.129778519844, -19111.300302898922, 0.052000000000000005, 0.9580000000000001, 0.308, 192.0, 0.5, 80.0, 14.5, 120.0, 4.5, 80.0, 0.0, 0.0, 0.0, 1.695766935212162E9, 0.0, 2023-09-26 17:22:15.212
14.0, 34547.14680280052, 49927.76214215304, -19205.602312755862, -25629.963055844673, 11420.132091061127, 9806.090272198948, -187500.02235174447, -21804.596102785603, 14742.853014809254, -26864.78517827811, 52879.95819806555, -26079.523692074265, 10440.49983507393, -22849.22723164883, -29867.33971444842, -19247.623592331838, 0.052000000000000005, 0.9580000000000001, 0.308, 192.0, 0.0, 0.0, 0.0, 0.0, 0.0, 0.0, 0.0, 0.0, 0.0, 1.695766935271057E9, 0.0, 2023-09-26 17:22:15.271
16.0, 34552.846497636616, 49918.419112970725, -19209.826792457916, -25635.17101230276, 11385.330424944214, 9730.586079428922, -187500.02235174447, -21857.346219700124, 14741.556613630846, -26866.148634689886, 53016.28148749846, -26084.083447943147, 10437.571756550284, -22848.46727233735, -29871.92182206176, -19125.717178072595, 0.052000000000000005, 0.9580000000000001, 0.308, 192.0, 0.0, 0.0, 0.0, 0.0, 0.0, 0.0, 0.0, 0.0, 0.0, 1.695766935271082E9, 0.0, 2023-09-26 17:22:15.271
18.0, 34542.989378331826, 49923.85058687336, -19217.381682083807, -25640.714244927676, 11412.912477602064, 9793.014501692594, -187500.02235174447, -21806.428945830936, 14736.48276763949, -26867.02035272364, 52879.19823875406, -26090.408991623997, 10436.320058860787, -22852.110606683567, -29875.34163896342, -19256.787807558514, 0.052000000000000005, 0.9580000000000001, 0.308, 192.0, 0.0, 0.0, 0.0, 0.0, 0.0, 0.0, 0.0, 0.0, 0.0, 1.695766935271085E9, 0.0, 2023-09-26 17:22:15.271
20.0, 34547.191506289426, 49917.05565655895, -19214.207734371153, -25641.22833505015, 11379.451916152468, 9728.485015450122, -187500.02235174447, -21865.839882593144, 14733.10765422674, -26872.83180628202, 53037.51564473101, -26092.867683514083, 10434.73308500446, -22858.19028117541, -29880.996630310612, -19105.19827666262, 0.052000000000000005, 0.9580000000000001, 0.308, 192.0, 0.0, 0.0, 0.0, 0.0, 0.0, 0.0, 0.0, 0.0, 0.0, 1.695766935271088E9, 0.0, 2023-09-26 17:22:15.271
22.0, 34541.96119808689, 49923.537662450995, -19206.94341742318, -25632.041768079016, 11417.516936959855, 9784.096155654926, -187500.02235174447, -21812.285102878228, 14741.623668864211, -26871.64716382589, 52898.2866285189, -26084.77635202126, 10435.940079205046, -22853.474063095342, -29866.4009411813, -19235.19602241469, 0.044, 0.9580000000000001, 0.306, 192.0, 0.5, 48.0, 14.5, 120.0, 4.5, 72.0, 0.0, 0.0, 0.0, 1.695766935271092E9, 0.0, 2023-09-26 17:22:15.271
24.0, 34535.25567475029, 49907.60086865436, -19208.686853490693, -25636.422709992257, 11390.963064546952, 9743.058352834983, -187500.02235174447, -21865.795179104232, 14736.996857761964, -26873.45765512677, 53042.58949072236, -26090.49839860182, 10442.064457185801, -22853.675228795437, -29864.568098135962, -19098.02336669247, 0.044, 0.9580000000000001, 0.306, 192.0, 0.0, 0.0, 0.0, 0.0, 0.0, 0.0, 0.0, 0.0, 0.0, 1.695766935271095E9, 0.0, 2023-09-26 17:22:15.271
26.0, 34524.41507868947, 49901.34238020687, -19210.65380700276, -25638.032035593038, 11420.489718972412, 9777.256521851603, -187500.02235174447, -21814.095594179107, 14726.357427401237, -26877.637431339914, 52884.47325044552, -26102.83656154115, 10433.235518125954, -22854.122263684545, -29865.886851058825, -19241.72273179564, 0.044, 0.9580000000000001, 0.306, 192.0, 0.0, 0.0, 0.0, 0.0, 0.0, 0.0, 0.0, 0.0, 0.0, 1.695766935271098E9, 0.0, 2023-09-26 17:22:15.271
28.0, 34532.573465415655, 49909.45606344415, -19208.128059879313, -25639.194326304714, 11401.11075652966, 9759.196312331715, -187500.02235174447, -21836.045007234217, 14722.736444799477, -26879.336163918517, 53017.66729565469, -26105.83169529816, 10443.137340919655, -22854.94927822939, -29866.423292925752, -19113.44607036663, 0.044, 0.9580000000000001, 0.306, 192.0, 0.0, 0.0, 0.0, 0.0, 0.0, 0.0, 0.0, 0.0, 0.0, 1.695766935271101E9, 0.0, 2023-09-26 17:22:15.271
30.0, 34542.87761960955, 49923.47060721763, -19201.824867942916, -25626.386776731822, 11424.513032974368, 9779.894027697328, -187500.02235174447, -21809.42407958795, 14733.889965282675, -26867.579146335025, 52902.13112856521, -26092.711221302896, 10436.700038516527, -22846.81324324766, -29861.975295779146, -19219.57215304043, 0.044, 0.9580000000000001, 0.306, 192.0, 0.0, 0.0, 0.0, 0.0, 0.0, 0.0, 0.0, 0.0, 0.0, 1.695766935331481E9, 0.0, 2023-09-26 17:22:15.331
32.0, 34555.5063552268, 49935.272328290026, -19196.616911484827, -25617.40137546079, 11406.095195543194, 9792.36630110339, -187500.02235174447, -21822.16457392747, 14737.846224051265, -26859.84544275349, 53037.40388600873, -26081.44594209742, 10450.535768334363, -22840.890030967003, -29868.032618526533, -19093.73183175705, 0.042, 0.96, 0.302, 192.0, 0.5, 40.0, 15.0, 0.0, 4.5, 56.0, 0.0, 0.0, 0.0, 1.695766935331503E9, 0.0, 2023-09-26 17:22:15.331
34.0, 34541.514163197775, 49923.09062756188, -19200.304949319954, -25624.576285430943, 11413.672436913543, 9781.279835853558, -187500.02235174447, -21816.755451769288, 14745.803445077354, -26846.70261701377, 52920.14663459619, -26072.080561170646, 10441.93034671907, -22827.188411615898, -29856.789691065514, -19207.345748823376, 0.042, 0.96, 0.302, 192.0, 0.0, 0.0, 0.0, 0.0, 0.0, 0.0, 0.0, 0.0, 0.0, 1.695766935331506E9, 0.0, 2023-09-26 17:22:15.331
36.0, 34528.170171757956, 49915.33457223589, -19212.911333192747, -25651.13015784385, 11395.25459948237, 9770.863922937384, -187500.02235174447, -21840.872984036563, 14727.854994279742, -26879.313812174063, 53027.703228915125, -26092.3088899027, 10444.098465931233, -22863.62175507805, -29877.95679306469, -19104.035985950948, 0.042, 0.96, 0.302, 192.0, 0.0, 0.0, 0.0, 0.0, 0.0, 0.0, 0.0, 0.0, 0.0, 1.69576693533151E9, 0.0, 2023-09-26 17:22:15.331
38.0, 34531.07589853715, 49909.612525655335, -19208.03865290149, -25644.581096718444, 11401.870715841142, 9729.40143697279, -187500.02235174447, -21846.282106194747, 14733.19706120456, -26879.22440519624, 52919.40902702916, -26092.264186413788, 10432.632021025662, -22869.76848480326, -29879.029676798546, -19208.23981860159, 0.042, 0.96, 0.302, 192.0, 0.0, 0.0, 0.0, 0.0, 0.0, 0.0, 0.0, 0.0, 0.0, 1.695766935331513E9, 0.0, 2023-09-26 17:22:15.331
40.0, 34534.49571543881, 49925.974002596624, -19213.537182037497, -25641.630666450343, 11403.815317608753, 9782.263312609592, -187500.02235174447, -21832.155803698995, 14729.598430347256, -26879.738495318714, 52987.224219706564, -26083.770523520772, 10446.266585143398, -22870.28257492573, -29881.91305183328, -19147.77834984998, 0.042, 0.96, 0.302, 192.0, 0.0, 0.0, 0.0, 0.0, 0.0, 0.0, 0.0, 0.0, 0.0, 1.695766935331517E9, 0.0, 2023-09-26 17:22:15.331
42.0, 34532.30524448219, 49913.21115651264, -19210.47499304712, -25640.870707138864, 11398.897933828584, 9729.669657906254, -187500.02235174447, -21849.210184718395, 14735.409883905637, -26872.31771615955, 52938.45271330509, -26083.412895609486, 10435.06836117129, -22859.821958520646, -29875.18517675223, -19194.89582716177, 0.038, 0.964, 0.304, 192.0, 0.5, 24.0, 15.0, 16.0, 4.5, 64.0, 0.0, 0.0, 0.0, 1.69576693533152E9, 0.0, 2023-09-26 17:22:15.331
44.0, 34528.57250315815, 49920.31901124943, -19216.353501838865, -25648.626762464854, 11405.44699495399, 9784.543190544033, -187500.02235174447, -21829.764167042278, 14727.229145434994, -26879.00088775169, 52968.80638227539, -26089.224349167867, 10450.647527056639, -22865.23108067883, -29874.82754884095, -19164.4751029581, 0.038, 0.964, 0.304, 192.0, 0.0, 0.0, 0.0, 0.0, 0.0, 0.0, 0.0, 0.0, 0.0, 1.69576693539172E9, 0.0, 2023-09-26 17:22:15.391
46.0, 34510.60170061609, 49892.22286846911, -19222.36612109734, -25649.02909386505, 11391.655968625066, 9727.076855549438, -187500.02235174447, -21845.030408505252, 14724.457529122536, -26882.331297675526, 52956.66938503616, -26100.60138709562, 10429.838052968747, -22869.746133058805, -29878.71675237617, -19179.89780663226, 0.038, 0.964, 0.304, 192.0, 0.0, 0.0, 0.0, 0.0, 0.0, 0.0, 0.0, 0.0, 0.0, 1.695766935391733E9, 0.0, 2023-09-26 17:22:15.391
48.0, 34511.71928783885, 49903.5775546524, -19214.922990193725, -25640.78130016104, 11421.428492239535, 9800.189411662748, -187500.02235174447, -21800.952768439387, 14716.455604607536, -26887.80747506708, 52970.21454217608, -26099.2602824283, 10443.584375808761, -22866.90746151298, -29867.831452826438, -19160.36238197832, 0.038, 0.964, 0.304, 192.0, 0.0, 0.0, 0.0, 0.0, 0.0, 0.0, 0.0, 0.0, 0.0, 1.695766935391737E9, 0.0, 2023-09-26 17:22:15.391
50.0, 34507.71832558135, 49886.67963584419, -19208.2845220905, -25637.562648959476, 11404.865849598153, 9732.195405029703, -187500.02235174447, -21846.259754450293, 14720.881250009686, -26883.761809320666, 52984.45260339411, -26102.523637118775, 10436.051837927324, -22858.078522453132, -29858.175499221743, -19147.532480660975, 0.038, 0.964, 0.304, 192.0, 0.0, 0.0, 0.0, 0.0, 0.0, 0.0, 0.0, 0.0, 0.0, 1.69576693539174E9, 0.0, 2023-09-26 17:22:15.391
52.0, 34494.06140971916, 49891.46290915763, -19221.673217019226, -25638.83669839343, 11423.171928307049, 9820.216574694703, -187500.02235174447, -21794.426059058438, 14714.712168540022, -26887.829826811532, 52937.312774337865, -26103.730631319362, 10446.713620032504, -22856.938583485913, -29858.71194108867, -19188.994966625567, 0.036000000000000004, 0.962, 0.304, 192.0, 0.5, 16.0, 15.0, 8.0, 4.5, 64.0, 0.0, 0.0, 0.0, 1.695766935391744E9, 0.0, 2023-09-26 17:22:15.391
54.0, 34474.883612976504, 49857.331795374375, -19231.262115390553, -25639.194326304714, 11389.845477324187, 9733.044771319006, -187500.02235174447, -21851.13243474155, 14709.95124697104, -26894.647108870402, 52992.83450756485, -26116.26995995879, 10429.435721568552, -22858.503205597783, -29872.9500023067, -19137.429492167175, 0.036000000000000004, 0.962, 0.304, 192.0, 0.0, 0.0, 0.0, 0.0, 0.0, 0.0, 0.0, 0.0, 0.0, 1.695766935391747E9, 0.0, 2023-09-26 17:22:15.391
56.0, 34459.86324070254, 49855.20837965112, -19234.301952636477, -25644.983428118638, 11415.952314847984, 9812.32640890198, -187500.02235174447, -21799.5446085387, 14701.837563733765, -26901.218521740262, 52901.885259376206, -26118.236913470857, 10435.738913504949, -22864.068789967157, -29872.72648486215, -19221.539106552496, 0.036000000000000004, 0.962, 0.304, 192.0, 0.0, 0.0, 0.0, 0.0, 0.0, 0.0, 0.0, 0.0, 0.0, 1.69576693539175E9, 0.0, 2023-09-26 17:22:15.391
58.0, 34450.25199058676, 49829.41446654969, -19225.85299323237, -25646.190422319225, 11381.687090598, 9718.762006612063, -187500.02235174447, -21861.593051146636, 14701.81521198931, -26907.11938227646, 53000.858783824304, -26120.717957105397, 10429.994515179935, -22870.461388881373, -29876.68274363074, -19126.11950947279, 0.036000000000000004, 0.962, 0.304, 192.0, 0.0, 0.0, 0.0, 0.0, 0.0, 0.0, 0.0, 0.0, 0.0, 1.695766935391753E9, 0.0, 2023-09-26 17:22:15.391
60.0, 34432.57176072261, 49826.15111185922, -19231.41857760174, -25653.141814844825, 11409.470308955946, 9804.056263453516, -187500.02235174447, -21799.209332371873, 14701.546991055846, -26911.41091721188, 52875.9795875525, -26118.03574777076, 10436.565928049795, -22870.215519692367, -29876.369819208365, -19242.77326378504, 0.036000000000000004, 0.962, 0.304, 192.0, 0.0, 0.0, 0.0, 0.0, 0.0, 0.0, 0.0, 0.0, 0.0, 1.695766935451952E9, 0.0, 2023-09-26 17:22:15.451
62.0, 34410.778809878684, 49787.86257360728, -19238.459377105162, -25663.3565620609, 11372.880503282608, 9710.894192563796, -187500.02235174447, -21877.887472854552, 14687.130115882173, -26925.134888307442, 53013.040484552446, -26134.68779738996, 10424.294820343832, -22880.85495005309, -29885.1540547793, -19109.623922064773, 0.036000000000000004, 0.964, 0.302, 192.0, 0.5, 16.0, 15.0, 16.0, 4.5, 56.0, 0.0, 0.0, 0.0, 1.695766935451964E9, 0.0, 2023-09-26 17:22:15.451
64.0, 34383.397922920936, 49782.38639621573, -19242.75091204058, -25659.71322771469, 11412.577201435233, 9785.437260322245, -187500.02235174447, -21806.74187025331, 14678.479990777969, -26928.28648427564, 52857.204122210045, -26139.582829425675, 10423.288991843343, -22880.810246564182, -29884.617612912374, -19256.698400580695, 0.036000000000000004, 0.964, 0.302, 192.0, 0.0, 0.0, 0.0, 0.0, 0.0, 0.0, 0.0, 0.0, 0.0, 1.695766935451967E9, 0.0, 2023-09-26 17:22:15.451
66.0, 34361.51556509919, 49749.50698012197, -19257.61482210336, -25677.61697502339, 11369.997128247873, 9713.866974576351, -187500.02235174447, -21869.639679150543, 14665.784199927355, -26937.8083274136, 52996.12021399978, -26151.94334410946, 10421.67966624256, -22890.041517024223, -29890.160845537288, -19124.264314682998, 0.036000000000000004, 0.964, 0.302, 192.0, 0.0, 0.0, 0.0, 0.0, 0.0, 0.0, 0.0, 0.0, 0.0, 1.695766935451971E9, 0.0, 2023-09-26 17:22:15.451
68.0, 34333.41942231887, 49735.537139837405, -19254.798502301994, -25674.398323821824, 11400.26139024036, 9768.204065347203, -187500.02235174447, -21824.42210011746, 14661.157388825106, -26946.52550775117, 52845.15653194863, -26164.147396582055, 10413.34246556073, -22893.036650781232, -29897.894549118824, -19262.10752273888, 0.036000000000000004, 0.964, 0.302, 192.0, 0.0, 0.0, 0.0, 0.0, 0.0, 0.0, 0.0, 0.0, 0.0, 1.695766935451974E9, 0.0, 2023-09-26 17:22:15.451
70.0, 34317.01324188867, 49707.75392147946, -19249.612897588362, -25683.584890792954, 11380.949483030974, 9723.411169458768, -187500.02235174447, -21868.097408783127, 14649.445074730525, -26963.266964348193, 53001.52933615796, -26178.27369907781, 10419.176270863565, -22894.91419731548, -29889.982031581647, -19111.322654643376, 0.036000000000000004, 0.964, 0.302, 192.0, 0.0, 0.0, 0.0, 0.0, 0.0, 0.0, 0.0, 0.0, 0.0, 1.695766935451977E9, 0.0, 2023-09-26 17:22:15.451
72.0, 34285.720799651244, 49690.96776139352, -19233.989028214102, -25674.241861610637, 11420.445015483501, 9766.773553702064, -187500.02235174447, -21809.938169710418, 14654.228348043962, -26956.04735088913, 52843.99424123696, -26182.65464099105, 10416.96344816249, -22888.09691525661, -29873.82172034046, -19254.932612768724, 0.034, 0.966, 0.3, 192.0, 0.5, 8.0, 15.0, 24.0, 4.5, 48.0, 0.0, 0.0, 0.0, 1.695766935451981E9, 0.0, 2023-09-26 17:22:15.451
74.0, 34265.55952615256, 49666.179676792584, -19234.90544973677, -25678.913376201795, 11387.096212756183, 9739.616184188866, -187500.02235174447, -21854.79812083222, 14632.837728600232, -26956.80731020061, 52979.22229519157, -26194.65752776355, 10421.925535431568, -22886.10761000009, -29874.15699650729, -19120.352759403322, 0.034, 0.966, 0.3, 192.0, 0.0, 0.0, 0.0, 0.0, 0.0, 0.0, 0.0, 0.0, 0.0, 1.695766935512275E9, 0.0, 2023-09-26 17:22:15.512
76.0, 34233.507124603646, 49644.87846432668, -19241.1415864398, -25675.493559300132, 11405.91638158755, 9772.048565393516, -187500.02235174447, -21820.197620415405, 14635.385827468137, -26944.29033330564, 52814.17701413358, -26194.836341719194, 10411.196698093021, -22872.584804604627, -29880.19196751022, -19269.841226320415, 0.034, 0.966, 0.3, 192.0, 0.0, 0.0, 0.0, 0.0, 0.0, 0.0, 0.0, 0.0, 0.0, 1.695766935512288E9, 0.0, 2023-09-26 17:22:15.512
78.0, 34215.759839506136, 49627.24293795144, -19231.46328109065, -25672.140797631837, 11388.057337767761, 9756.491751252623, -187500.02235174447, -21855.401617932515, 14616.632713870134, -26956.159109611406, 52960.22331240455, -26200.379574344108, 10415.309419072797, -22873.076542982646, -29890.2055490262, -19121.380939648265, 0.034, 0.966, 0.3, 192.0, 0.0, 0.0, 0.0, 0.0, 0.0, 0.0, 0.0, 0.0, 0.0, 1.695766935512292E9, 0.0, 2023-09-26 17:22:15.512
80.0, 34208.38376383588, 49614.23422267845, -19231.91031597976, -25682.64611752583, 11396.77451810533, 9755.955309385696, -187500.02235174447, -21835.061530478186, 14627.719179119968, -26946.36904553998, 52809.05846465331, -26200.22311213292, 10408.402730036109, -22867.555662102182, -29885.91401409078, -19265.929671040736, 0.034, 0.966, 0.3, 192.0, 0.0, 0.0, 0.0, 0.0, 0.0, 0.0, 0.0, 0.0, 0.0, 1.695766935512295E9, 0.0, 2023-09-26 17:22:15.512
82.0, 34183.372161790394, 49580.88541995113, -19230.502156079074, -25687.339983861446, 11379.787192319298, 9754.144818084815, -187500.02235174447, -21849.6572196075, 14618.242039470917, -26963.62459225948, 52929.95905041207, -26211.57779831622, 10417.67870398506, -22880.877301797547, -29896.21816828468, -19150.818187095905, 0.034, 0.966, 0.3, 192.0, 0.5, 8.0, 15.0, 24.0, 4.5, 48.0, 0.0, 0.0, 0.0, 1.695766935512298E9, 0.0, 2023-09-26 17:22:15.512
84.0, 34166.98833310465, 49572.81644020277, -19231.060949690458, -25680.500350058122, 11391.186581991504, 9741.78430340103, -187500.02235174447, -21839.84480379162, 14620.32075170526, -26962.082321892063, 52818.0662176688, -26214.19295241749, 10400.423157265563, -22873.791798805214, -29892.574833938463, -19254.932612768724, 0.034, 0.966, 0.3, 192.0, 0.0, 0.0, 0.0, 0.0, 0.0, 0.0, 0.0, 0.0, 0.0, 1.695766935512301E9, 0.0, 2023-09-26 17:22:15.512
86.0, 34168.2623825386, 49577.93498968303, -19241.007475973067, -25689.84337924044, 11367.381974146601, 9764.806600189997, -187500.02235174447, -21854.84282432113, 14604.182792208529, -26966.262098105206, 52924.54992825389, -26213.723565783926, 10408.49213701393, -22877.837464551623, -29904.331851521954, -19147.957163805626, 0.034, 0.966, 0.3, 192.0, 0.0, 0.0, 0.0, 0.0, 0.0, 0.0, 0.0, 0.0, 0.0, 1.695766935512305E9, 0.0, 2023-09-26 17:22:15.512
88.0, 34154.51605969859, 49547.22369280144, -19222.768452497538, -25678.13106514586, 11386.15743948906, 9728.954402083684, -187500.02235174447, -21853.836995820642, 14609.234286455428, -26968.58667952856, 52843.03311622538, -26216.361071629653, 10397.495078741918, -22868.159159202478, -29896.86636887388, -19222.701397264173, 0.034, 0.966, 0.3, 192.0, 0.0, 0.0, 0.0, 0.0, 0.0, 0.0, 0.0, 0.0, 0.0, 1.695766935512308E9, 0.0, 2023-09-26 17:22:15.512
90.0, 34166.92127787129, 49561.5511609973, -19229.786900256506, -25692.503236830624, 11393.06412852575, 9772.674414238265, -187500.02235174447, -21837.430815390446, 14605.434489898025, -26986.602185559535, 52902.13112856521, -26222.396042632587, 10417.522241773873, -22882.643089609515, -29887.00924956909, -19162.396390723752, 0.034, 0.966, 0.3, 192.0, 0.0, 0.0, 0.0, 0.0, 0.0, 0.0, 0.0, 0.0, 0.0, 1.695766935571905E9, 0.0, 2023-09-26 17:22:15.571
92.0, 34156.70653065521, 49546.508436978875, -19221.9861414416, -25679.539225046545, 11385.330424944214, 9728.64147766131, -187500.02235174447, -21847.37734167306, 14611.737681834422, -26972.90056620843, 52849.76099130643, -26222.820725777237, 10403.641808467128, -22869.164987702967, -29882.270679744564, -19213.85010645987, 0.042, 0.966, 0.302, 192.0, 0.5, 40.0, 15.0, 24.0, 4.5, 56.0, 0.0, 0.0, 0.0, 1.695766935571917E9, 0.0, 2023-09-26 17:22:15.571
94.0, 34168.70941742771, 49574.49282103692, -19221.404996085763, -25680.679164013764, 11404.195297264492, 9792.232190636658, -187500.02235174447, -21822.18692567193, 14605.993283509408, -26973.97344994229, 52863.484962401984, -26215.310539640253, 10419.779767963859, -22868.42738013594, -29874.089941273924, -19197.51098126304, 0.042, 0.966, 0.302, 192.0, 0.0, 0.0, 0.0, 0.0, 0.0, 0.0, 0.0, 0.0, 0.0, 1.69576693557192E9, 0.0, 2023-09-26 17:22:15.571
96.0, 34168.8658796389, 49567.541428511315, -19218.23104837311, -25675.337097088945, 11389.130221501617, 9726.182785771225, -187500.02235174447, -21856.85448132211, 14609.413100411071, -26966.19504287184, 52859.998090266956, -26213.835324506203, 10408.872116669669, -22863.130016700034, -29869.038447027022, -19196.03576612899, 0.042, 0.966, 0.302, 192.0, 0.0, 0.0, 0.0, 0.0, 0.0, 0.0, 0.0, 0.0, 0.0, 1.695766935571923E9, 0.0, 2023-09-26 17:22:15.571
98.0, 34194.995068907156, 49597.87274573717, -19214.520658793528, -25672.83370170995, 11407.145727532594, 9795.160269160304, -187500.02235174447, -21808.865285976564, 14613.414062668571, -26965.14451088244, 52834.628860310186, -26206.347490113676, 10422.39492206513, -22864.739342300814, -29873.128816262346, -19216.88994370579, 0.042, 0.966, 0.302, 192.0, 0.0, 0.0, 0.0, 0.0, 0.0, 0.0, 0.0, 0.0, 0.0, 1.695766935571927E9, 0.0, 2023-09-26 17:22:15.571
100.0, 34206.70738300173, 49591.79307124532, -19218.454565817665, -25673.616012765888, 11375.518009128335, 9714.001085043083, -187500.02235174447, -21859.670801123477, 14624.500527918402, -26961.747045725235, 52866.36833743672, -26206.928635469514, 10412.247230082421, -22865.029914978735, -29876.63804014183, -19193.442963772173, 0.042, 0.966, 0.302, 192.0, 0.0, 0.0, 0.0, 0.0, 0.0, 0.0, 0.0, 0.0, 0.0, 1.69576693557193E9, 0.0, 2023-09-26 17:22:15.571
102.0, 34209.12137140291, 49616.93878375755, -19225.361254854353, -25663.669486483275, 11404.262352497859, 9805.41971986529, -187500.02235174447, -21804.484344063323, 14625.394597696615, -26962.104673636517, 52823.78826424936, -26201.452458077965, 10418.952753419013, -22866.080446968135, -29881.77894136655, -19224.154260653766, 0.048, 0.962, 0.298, 192.0, 0.5, 64.0, 15.0, 8.0, 4.5, 40.0, 0.0, 0.0, 0.0, 1.695766935571933E9, 0.0, 2023-09-26 17:22:15.571
104.0, 34225.81812451102, 49624.47132163899, -19225.361254854353, -25657.74627420262, 11372.791096304787, 9722.382989213824, -187500.02235174447, -21863.448245936426, 14625.03696978533, -26942.077510604562, 52914.2904775489, -26192.355298084654, 10407.240439324432, -22853.742284028805, -29882.38243846684, -19133.45088165413, 0.048, 0.962, 0.298, 192.0, 0.0, 0.0, 0.0, 0.0, 0.0, 0.0, 0.0, 0.0, 0.0, 1.695766935632137E9, 0.0, 2023-09-26 17:22:15.632
106.0, 34243.16307820834, 49656.14374353216, -19220.980312941112, -25653.432387522746, 11403.077710041727, 9803.028083208572, -187500.02235174447, -21810.586370299625, 14632.36834196667, -26922.966769095277, 52809.527851286875, -26169.198890828957, 10420.003285408413, -22844.37690310203, -29877.576813408952, -19234.70428403667, 0.048, 0.962, 0.298, 192.0, 0.0, 0.0, 0.0, 0.0, 0.0, 0.0, 0.0, 0.0, 0.0, 1.695766935632151E9, 0.0, 2023-09-26 17:22:15.632
108.0, 34261.603267383965, 49649.415868451106, -19212.866629703836, -25660.31672481498, 11386.87269531163, 9722.4947479361, -187500.02235174447, -21856.250984221817, 14646.695810162522, -26929.538181965137, 52919.274916562434, -26168.483635006385, 10423.02077090988, -22849.271935137742, -29868.457301671184, -19135.954277033125, 0.048, 0.962, 0.298, 192.0, 0.0, 0.0, 0.0, 0.0, 0.0, 0.0, 0.0, 0.0, 0.0, 1.695766935632155E9, 0.0, 2023-09-26 17:22:15.632
110.0, 34272.66738088935, 49666.69376691506, -19211.011434914046, -25665.859957439898, 11418.053378826784, 9793.014501692594, -187500.02235174447, -21801.019823672752, 14650.070923575275, -26936.444871001826, 52802.241182594444, -26172.417542030522, 10429.055741912813, -22859.553737587183, -29862.10940624588, -19247.53418535402, 0.048, 0.962, 0.298, 192.0, 0.0, 0.0, 0.0, 0.0, 0.0, 0.0, 0.0, 0.0, 0.0, 1.695766935632159E9, 0.0, 2023-09-26 17:22:15.632
112.0, 34281.5410234381, 49666.31378725932, -19209.446812802176, -25668.922146430272, 11386.358605189158, 9719.656076390276, -187500.02235174447, -21856.250984221817, 14654.876548633165, -26939.81998441458, 52940.71023949507, -26177.737257210883, 10423.19958486552, -22862.928850999935, -29864.232821969134, -19116.150631445722, 0.042, 0.96, 0.302, 192.0, 0.5, 40.0, 15.0, 0.0, 4.5, 56.0, 0.0, 0.0, 0.0, 1.695766935632163E9, 0.0, 2023-09-26 17:22:15.632
114.0, 34288.91709910835, 49690.27485731541, -19211.436118058697, -25663.84830043892, 11416.488756714913, 9795.450841838223, -187500.02235174447, -21809.737004010323, 14653.244871287927, -26931.37102501047, 52807.918525686095, -26176.530263010296, 10423.065474398789, -22862.280650410732, -29862.377627179343, -19241.208641673165, 0.042, 0.96, 0.302, 192.0, 0.0, 0.0, 0.0, 0.0, 0.0, 0.0, 0.0, 0.0, 0.0, 1.695766935632167E9, 0.0, 2023-09-26 17:22:15.632
116.0, 34313.056983120085, 49706.681037745606, -19200.081431875402, -25649.342018287425, 11391.186581991504, 9736.68810566522, -187500.02235174447, -21849.187832973937, 14654.831845144254, -26910.449792200303, 52973.12026895527, -26159.587640713173, 10425.68062850006, -22849.920135726945, -29859.896583544803, -19088.479171810053, 0.042, 0.96, 0.302, 192.0, 0.0, 0.0, 0.0, 0.0, 0.0, 0.0, 0.0, 0.0, 0.0, 1.695766935632171E9, 0.0, 2023-09-26 17:22:15.632
118.0, 34333.195904874316, 49729.882148490215, -19192.817114927428, -25639.462547238178, 11424.244812040903, 9797.75307151712, -187500.02235174447, -21795.16366662546, 14670.56747324079, -26892.07665825804, 52812.72415074398, -26135.715977634907, 10430.82152972478, -22836.017350675746, -29852.922839274746, -19250.95400225568, 0.042, 0.96, 0.302, 192.0, 0.0, 0.0, 0.0, 0.0, 0.0, 0.0, 0.0, 0.0, 0.0, 1.695766935632174E9, 0.0, 2023-09-26 17:22:15.632
120.0, 34355.12296618497, 49733.301965391875, -19194.314681805932, -25643.68702694023, 11396.014558793851, 9756.02236461906, -187500.02235174447, -21842.392902659525, 14679.128191367174, -26894.535350148126, 52966.79472527441, -26136.230067757377, 10438.890509473147, -22839.347760599587, -29858.264906199565, -19110.428584865163, 0.042, 0.96, 0.302, 192.0, 0.0, 0.0, 0.0, 0.0, 0.0, 0.0, 0.0, 0.0, 0.0, 1.69576693569145E9, 0.0, 2023-09-26 17:22:15.691
122.0, 34358.25221040872, 49738.37581138323, -19191.878341660304, -25637.987332104127, 11424.289515529814, 9796.277856383069, -187500.02235174447, -21797.868227704555, 14684.850237947732, -26896.211730982275, 52823.363581104706, -26142.13092829358, 10430.754474491416, -22836.106757653568, -29853.68279858623, -19243.309705651965, 0.042, 0.9540000000000001, 0.31, 192.0, 0.5, 40.0, 14.5, 104.0, 4.5, 88.0, 0.0, 0.0, 0.0, 1.695766935691461E9, 0.0, 2023-09-26 17:22:15.691
124.0, 34377.5641176181, 49751.630395845226, -19194.85112367286, -25639.037864093527, 11397.154497761072, 9777.345928829423, -187500.02235174447, -21829.853574020097, 14677.787086699855, -26900.41385893987, 52999.3612169458, -26144.99195158386, 10437.571756550284, -22838.587801288108, -29856.029731754035, -19072.900005924705, 0.042, 0.9540000000000001, 0.31, 192.0, 0.0, 0.0, 0.0, 0.0, 0.0, 0.0, 0.0, 0.0, 0.0, 1.695766935691466E9, 0.0, 2023-09-26 17:22:15.691
126.0, 34391.57866139158, 49771.23287573253, -19190.000795126056, -25632.578209945943, 11420.266201527858, 9784.431431821757, -187500.02235174447, -21808.015919687263, 14693.053328162829, -26884.70058258779, 52859.21577921102, -26136.632399157574, 10427.669933756582, -22826.04847264868, -29857.236725954623, -19210.65380700276, 0.042, 0.9540000000000001, 0.31, 192.0, 0.0, 0.0, 0.0, 0.0, 0.0, 0.0, 0.0, 0.0, 0.0, 1.695766935691469E9, 0.0, 2023-09-26 17:22:15.691
128.0, 34405.90612958743, 49791.818832375866, -19191.520713749018, -25636.556820458987, 11404.642332153599, 9787.203048134214, -187500.02235174447, -21825.673797806954, 14692.136906640162, -26876.07280922804, 52989.50409764101, -26128.384605453564, 10442.600899052728, -22828.797737216682, -29858.689589344216, -19092.234264878545, 0.042, 0.9540000000000001, 0.31, 192.0, 0.0, 0.0, 0.0, 0.0, 0.0, 0.0, 0.0, 0.0, 0.0, 1.695766935691473E9, 0.0, 2023-09-26 17:22:15.691
130.0, 34424.25691178524, 49801.98887610303, -19187.51975149152, -25628.957227344185, 11408.844460111197, 9774.350795072412, -187500.02235174447, -21816.531934324736, 14706.822002747298, -26863.153500932873, 52874.37026195172, -26114.83944831365, 10431.82735822527, -22824.282684836708, -29853.839260797413, -19204.238856344087, 0.042, 0.9540000000000001, 0.31, 192.0, 0.0, 0.0, 0.0, 0.0, 0.0, 0.0, 0.0, 0.0, 0.0, 1.695766935691476E9, 0.0, 2023-09-26 17:22:15.691
132.0, 34438.2267520698, 49816.428103021164, -19190.581940481894, -25637.920276870762, 11402.45186119698, 9786.040757422537, -187500.02235174447, -21831.351140898605, 14704.586828301768, -26871.714219059257, 52987.00070226201, -26108.089221488146, 10443.271451386387, -22838.09606291009, -29858.53312713303, -19100.392651604732, 0.036000000000000004, 0.962, 0.31, 192.0, 0.5, 16.0, 15.0, 8.0, 4.5, 88.0, 0.0, 0.0, 0.0, 1.69576693569148E9, 0.0, 2023-09-26 17:22:15.691
134.0, 34448.08387137459, 49815.62344022077, -19176.79091415297, -25633.919314613264, 11430.190376066015, 9755.910605896785, -187500.02235174447, -21820.398786115504, 14714.734520284477, -26879.962012763266, 52887.75895688045, -26114.16889597999, 10440.432779840563, -22838.36428384355, -29842.95396124768, -19192.03480387149, 0.036000000000000004, 0.962, 0.31, 192.0, 0.0, 0.0, 0.0, 0.0, 0.0, 0.0, 0.0, 0.0, 0.0, 1.695766935751261E9, 0.0, 2023-09-26 17:22:15.751
136.0, 34455.34818832257, 49833.63894625175, -19185.530446234996, -25641.250686794603, 11422.233155039925, 9798.155402917315, -187500.02235174447, -21810.45225983289, 14713.751043528444, -26888.90271054539, 52955.417687346664, -26114.638282613552, 10457.420105626596, -22843.594592046094, -29842.976312992134, -19128.801718807426, 0.036000000000000004, 0.962, 0.31, 192.0, 0.0, 0.0, 0.0, 0.0, 0.0, 0.0, 0.0, 0.0, 0.0, 1.695766935751274E9, 0.0, 2023-09-26 17:22:15.751
138.0, 34464.266534360235, 49839.45039981013, -19182.490608989076, -25635.282771025035, 11434.16898657906, 9759.553940242999, -187500.02235174447, -21817.336597125126, 14720.143642442661, -26880.520806374647, 52907.76376816795, -26112.470163401387, 10441.952698463523, -22840.890030967003, -29841.389339135807, -19169.92892860519, 0.036000000000000004, 0.962, 0.31, 192.0, 0.0, 0.0, 0.0, 0.0, 0.0, 0.0, 0.0, 0.0, 0.0, 1.695766935751278E9, 0.0, 2023-09-26 17:22:15.751
140.0, 34485.83596775961, 49871.502801359034, -19179.2272542986, -25623.793974375007, 11440.092198859717, 9819.61307759441, -187500.02235174447, -21790.402745056483, 14717.528488341391, -26869.099064957987, 52949.539178554915, -26094.745230048327, 10457.397753882142, -22831.926981440425, -29833.23095240962, -19128.913477529703, 0.036000000000000004, 0.962, 0.31, 192.0, 0.0, 0.0, 0.0, 0.0, 0.0, 0.0, 0.0, 0.0, 0.0, 1.695766935751282E9, 0.0, 2023-09-26 17:22:15.751
142.0, 34493.32380215214, 49869.8711240138, -19179.070792087412, -25612.439288191712, 11425.78708240832, 9766.79590544652, -187500.02235174447, -21821.806946016186, 14728.302029168848, -26852.02233219413, 52925.086370120815, -26086.005697966302, 10440.477483329474, -22817.934789411403, -29837.164859433757, -19158.12720753279, 0.044, 0.964, 0.304, 192.0, 0.5, 48.0, 15.0, 16.0, 4.5, 64.0, 0.0, 0.0, 0.0, 1.695766935751292E9, 0.0, 2023-09-26 17:22:15.751
144.0, 34507.65127034799, 49891.48526090208, -19181.50713223304, -25606.02433753304, 11432.626716211644, 9840.131979004382, -187500.02235174447, -21787.318204321647, 14724.725750055999, -26854.12339617293, 52935.47993129253, -26080.35070661911, 10451.49689334594, -22811.89981840847, -29841.210525180166, -19143.93384980367, 0.044, 0.964, 0.304, 192.0, 0.0, 0.0, 0.0, 0.0, 0.0, 0.0, 0.0, 0.0, 0.0, 1.695766935751296E9, 0.0, 2023-09-26 17:22:15.751
146.0, 34514.51325589577, 49883.952723020644, -19177.528521719996, -25604.705584610176, 11412.152518290583, 9764.225454834159, -187500.02235174447, -21825.02559721775, 14733.219412949016, -26841.36055008895, 52932.14952136869, -26079.34487811862, 10442.511492074907, -22802.065050848134, -29845.502060115585, -19154.282707486476, 0.044, 0.964, 0.304, 192.0, 0.0, 0.0, 0.0, 0.0, 0.0, 0.0, 0.0, 0.0, 0.0, 1.6957669357513E9, 0.0, 2023-09-26 17:22:15.751
148.0, 34525.845590334604, 49906.7291506206, -19177.21559729762, -25607.365442200356, 11434.638373212621, 9848.960918064227, -187500.02235174447, -21776.87993966102, 14728.369084402215, -26845.94265770229, 52910.75890192496, -26082.094142686623, 10455.16257943661, -22809.731699196305, -29845.591467093407, -19169.057210571435, 0.044, 0.964, 0.304, 192.0, 0.0, 0.0, 0.0, 0.0, 0.0, 0.0, 0.0, 0.0, 0.0, 1.695766935751303E9, 0.0, 2023-09-26 17:22:15.751
150.0, 34535.79211661722, 49900.89534531777, -19174.801608896447, -25611.902846324785, 11403.68120714202, 9764.896007167818, -187500.02235174447, -21822.74571928331, 14737.510947884435, -26841.517012300137, 52994.66735061018, -26082.787046764737, 10444.836073498258, -22812.548018997673, -29853.43692939722, -19090.289663110932, 0.044, 0.964, 0.304, 192.0, 0.0, 0.0, 0.0, 0.0, 0.0, 0.0, 0.0, 0.0, 0.0, 1.695766935811604E9, 0.0, 2023-09-26 17:22:15.811
152.0, 34545.96216034438, 49927.69508691968, -19167.850216370847, -25611.701680624687, 11438.818149425764, 9837.025086525093, -187500.02235174447, -21781.64086123, 14743.992953776475, -26833.671549996325, 52927.90268992218, -26072.84052048213, 10457.107181204223, -22811.139859096987, -29852.296990429997, -19157.50135868804, 0.04, 0.962, 0.308, 192.0, 0.5, 32.0, 15.0, 8.0, 4.5, 80.0, 0.0, 0.0, 0.0, 1.695766935811616E9, 0.0, 2023-09-26 17:22:15.811
154.0, 34552.26535228078, 49923.60471768436, -19167.31377450392, -25620.150640028794, 11413.873602613641, 9745.874672636352, -187500.02235174447, -21837.497870623814, 14744.082360754295, -26833.716253485236, 53014.15807177521, -26074.651011783008, 10455.16257943661, -22813.88912366499, -29842.976312992134, -19087.071011909367, 0.04, 0.962, 0.308, 192.0, 0.0, 0.0, 0.0, 0.0, 0.0, 0.0, 0.0, 0.0, 0.0, 1.69576693581162E9, 0.0, 2023-09-26 17:22:15.811
156.0, 34557.13803257204, 49945.26355806155, -19170.241853027565, -25621.715262140664, 11453.615004255176, 9829.09021724346, -187500.02235174447, -21772.566052981147, 14749.782055590398, -26827.077785382007, 52894.598590683774, -26062.603421521595, 10458.113009704712, -22815.721966710327, -29842.216353680655, -19208.351577323865, 0.04, 0.962, 0.308, 192.0, 0.0, 0.0, 0.0, 0.0, 0.0, 0.0, 0.0, 0.0, 0.0, 1.695766935811623E9, 0.0, 2023-09-26 17:22:15.811
158.0, 34562.61420996359, 49935.42879050122, -19173.594614695863, -25625.11272729787, 11413.761843891365, 9744.488864480123, -187500.02235174447, -21846.639734106033, 14739.634363607689, -26831.391672061884, 53035.70515343013, -26067.54315704622, 10448.837035755758, -22824.79677495918, -29853.034597997023, -19082.913587440682, 0.04, 0.962, 0.308, 192.0, 0.0, 0.0, 0.0, 0.0, 0.0, 0.0, 0.0, 0.0, 0.0, 1.695766935811626E9, 0.0, 2023-09-26 17:22:15.811
160.0, 34569.65500946701, 49952.55022675398, -19166.08442855888, -25615.814401604464, 11448.094123374716, 9817.534365360067, -187500.02235174447, -21791.87796019053, 14749.267965467927, -26827.077785382007, 52896.87846861821, -26058.937735430925, 10457.151884693132, -22819.23119058981, -29846.217315938156, -19219.236876873598, 0.04, 0.962, 0.308, 192.0, 0.0, 0.0, 0.0, 0.0, 0.0, 0.0, 0.0, 0.0, 0.0, 1.695766935811629E9, 0.0, 2023-09-26 17:22:15.811
162.0, 34586.977611419876, 49957.19938960068, -19155.668515642705, -25605.4431921772, 11412.39838747959, 9746.746390670109, -187500.02235174447, -21849.053722507208, 14753.335982958793, -26822.20510509075, 53051.753705949035, -26051.382845805034, 10461.64458532865, -22818.448879533873, -29844.518583359553, -19075.470456537063, 0.038, 0.964, 0.312, 192.0, 0.5, 24.0, 15.0, 16.0, 4.5, 96.0, 0.0, 0.0, 0.0, 1.695766935811633E9, 0.0, 2023-09-26 17:22:15.811
164.0, 34581.18850960595, 49967.72706123914, -19159.08833254437, -25602.895093309296, 11436.806492424786, 9817.288496171057, -187500.02235174447, -21796.527123037235, 14770.949157589575, -26809.799886918056, 52888.98830282549, -26039.20114507689, 10467.366631909208, -22807.675338706416, -29839.735310046115, -19236.62653405983, 0.038, 0.964, 0.312, 192.0, 0.0, 0.0, 0.0, 0.0, 0.0, 0.0, 0.0, 0.0, 0.0, 1.695766935871922E9, 0.0, 2023-09-26 17:22:15.871
166.0, 34587.89403294254, 49963.36847107035, -19163.536329690975, -25604.683232865722, 11404.642332153599, 9770.998033404116, -187500.02235174447, -21829.920629253465, 14756.889910327187, -26821.735718457192, 53060.09090663087, -26050.68994172692, 10464.21503594101, -22815.74431845478, -29852.788728808016, -19074.57638675885, 0.038, 0.964, 0.312, 192.0, 0.0, 0.0, 0.0, 0.0, 0.0, 0.0, 0.0, 0.0, 0.0, 1.695766935871939E9, 0.0, 2023-09-26 17:22:15.871
168.0, 34584.69773348543, 49968.41996531725, -19167.380829737285, -25597.798895573487, 11437.275879058347, 9826.095083486449, -187500.02235174447, -21781.4396955299, 14761.941404574085, -26816.371299787916, 52914.0893118488, -26049.907630670983, 10460.459942872518, -22806.04366136118, -29844.58563859292, -19212.620760514827, 0.038, 0.964, 0.312, 192.0, 0.0, 0.0, 0.0, 0.0, 0.0, 0.0, 0.0, 0.0, 0.0, 1.695766935871943E9, 0.0, 2023-09-26 17:22:15.871
170.0, 34585.03300965226, 49968.17409612824, -19172.499379217552, -25597.21775021765, 11400.037872795805, 9791.472231325179, -187500.02235174447, -21831.015864731773, 14751.905471313654, -26816.21483757673, 53068.182238123685, -26051.740473716316, 10460.482294616973, -22804.0320043602, -29858.354313177388, -19066.887386666225, 0.038, 0.964, 0.312, 192.0, 0.0, 0.0, 0.0, 0.0, 0.0, 0.0, 0.0, 0.0, 0.0, 1.695766935871947E9, 0.0, 2023-09-26 17:22:15.871
172.0, 34584.67538174098, 49979.08174742243, -19163.715143646616, -25583.605537844367, 11436.091236602217, 9820.37303690589, -187500.02235174447, -21781.752619952276, 14763.282509241404, -26805.15072407135, 52913.15053858168, -26038.329427043132, 10458.045954471345, -22787.514065207728, -29844.116251959356, -19215.2359146161, 0.04, 0.96, 0.312, 192.0, 0.5, 32.0, 15.0, 0.0, 4.5, 96.0, 0.0, 0.0, 0.0, 1.69576693587195E9, 0.0, 2023-09-26 17:22:15.871
174.0, 34585.770617219285, 49976.1983723877, -19171.2253297836, -25594.11085773836, 11406.63163741012, 9795.98728370515, -187500.02235174447, -21827.193716429916, 14755.884081826698, -26811.230398563195, 53039.97433662109, -26037.144784587003, 10468.104239476233, -22793.839608888582, -29846.731406060626, -19095.38586084674, 0.04, 0.96, 0.312, 192.0, 0.0, 0.0, 0.0, 0.0, 0.0, 0.0, 0.0, 0.0, 0.0, 1.695766935871953E9, 0.0, 2023-09-26 17:22:15.871
176.0, 34590.71035274391, 49977.38301484383, -19164.586861680375, -25588.20999720216, 11423.618963196155, 9791.583990047455, -187500.02235174447, -21809.714652265866, 14762.902529585665, -26806.536532227583, 52913.195242070586, -26037.278895053732, 10454.894358503147, -22790.911530364934, -29848.67600782824, -19213.827754715414, 0.04, 0.96, 0.312, 192.0, 0.0, 0.0, 0.0, 0.0, 0.0, 0.0, 0.0, 0.0, 0.0, 1.695766935871957E9, 0.0, 2023-09-26 17:22:15.871
178.0, 34599.74045750385, 49985.51904982556, -19162.910480846225, -25600.72697409713, 11422.680189929031, 9795.495545327132, -187500.02235174447, -21823.773899528256, 14759.482712684003, -26811.073936352008, 53047.6186332248, -26029.567543216654, 10471.21113195552, -22800.52278048072, -29844.20565893718, -19091.317843355875, 0.04, 0.96, 0.312, 192.0, 0.0, 0.0, 0.0, 0.0, 0.0, 0.0, 0.0, 0.0, 0.0, 1.69576693587196E9, 0.0, 2023-09-26 17:22:15.871
180.0, 34606.31187037371, 49984.51322132507, -19158.529538932984, -25597.4412676622, 11434.906594146085, 9765.834780434941, -187500.02235174447, -21826.612571074078, 14776.87236987023, -26806.514180483126, 52941.47019880655, -26028.785232160717, 10461.555178350829, -22800.835704903093, -29838.081280956423, -19196.95218765166, 0.04, 0.96, 0.312, 192.0, 0.0, 0.0, 0.0, 0.0, 0.0, 0.0, 0.0, 0.0, 0.0, 1.695766935932226E9, 0.0, 2023-09-26 17:22:15.932
182.0, 34607.07182968519, 49990.65995105028, -19165.3244692474, -25600.50345665258, 11429.139844076615, 9794.89204822684, -187500.02235174447, -21821.35991112708, 14768.266948254937, -26813.376166030906, 53033.17940630668, -26026.639464693006, 10477.536675636373, -22810.312844552143, -29836.740176289106, -19116.083576212357, 0.042, 0.9540000000000001, 0.314, 192.0, 0.5, 40.0, 14.5, 104.0, 4.5, 104.0, 0.0, 0.0, 0.0, 1.695766935932238E9, 0.0, 2023-09-26 17:22:15.932
184.0, 34600.83569298216, 49980.62401778984, -19168.386658237774, -25600.838732819408, 11429.922155132552, 9761.02915537705, -187500.02235174447, -21826.88079200754, 14769.518645944436, -26809.330500284494, 52955.61885304676, -26028.986397860815, 10457.0177742264, -22809.239960818286, -29837.924818745236, -19187.989138125078, 0.042, 0.9540000000000001, 0.314, 192.0, 0.0, 0.0, 0.0, 0.0, 0.0, 0.0, 0.0, 0.0, 0.0, 1.695766935932242E9, 0.0, 2023-09-26 17:22:15.932
186.0, 34599.7181057594, 49993.07393945145, -19177.282652530987, -25606.225503233138, 11432.559660978277, 9813.443996124744, -187500.02235174447, -21809.446431332402, 14755.369991704225, -26821.26633182363, 53022.808196879414, -26035.20018281939, 10470.339413921763, -22816.66073997745, -29840.204696679677, -19118.765785546995, 0.042, 0.9540000000000001, 0.314, 192.0, 0.0, 0.0, 0.0, 0.0, 0.0, 0.0, 0.0, 0.0, 0.0, 1.695766935932246E9, 0.0, 2023-09-26 17:22:15.932
188.0, 34601.305079615726, 49982.85919223537, -19175.807437396936, -25604.951453799185, 11419.483890471924, 9752.602547717399, -187500.02235174447, -21843.51048988229, 14759.326250472815, -26814.605511975948, 52992.8568593093, -26040.810470677672, 10451.049858456834, -22813.26327482024, -29847.33490316092, -19143.08448351437, 0.042, 0.9540000000000001, 0.314, 192.0, 0.0, 0.0, 0.0, 0.0, 0.0, 0.0, 0.0, 0.0, 0.0, 1.695766935932249E9, 0.0, 2023-09-26 17:22:15.932
190.0, 34605.99894595134, 49993.09629119591, -19172.946414106656, -25601.419878175246, 11437.298230802802, 9817.4673101267, -187500.02235174447, -21800.237512616815, 14765.093000542283, -26817.041852121576, 53008.547783916925, -26032.897953140495, 10471.233483699976, -22812.972702142324, -29842.216353680655, -19133.048550253934, 0.042, 0.9540000000000001, 0.314, 192.0, 0.0, 0.0, 0.0, 0.0, 0.0, 0.0, 0.0, 0.0, 0.0, 1.695766935932253E9, 0.0, 2023-09-26 17:22:15.932
192.0, 34601.03685868226, 49976.48894506561, -19175.69567867466, -25603.051555520484, 11415.080596814227, 9753.943652384718, -187500.02235174447, -21840.828280547656, 14767.864616854742, -26815.45487826525, 52993.30389419841, -26040.54224974421, 10459.87879751668, -22805.216646816334, -29842.261057169566, -19151.89107082976, 0.042, 0.9540000000000001, 0.312, 192.0, 0.5, 40.0, 14.5, 104.0, 4.5, 96.0, 0.0, 0.0, 0.0, 1.695766935932257E9, 0.0, 2023-09-26 17:22:15.932
194.0, 34606.91536747401, 49996.0020179751, -19172.40997223973, -25595.83194206142, 11436.02418136885, 9843.082409272482, -187500.02235174447, -21793.755506724778, 14763.617785408234, -26822.160401601843, 52976.182457945644, -26042.755072445285, 10469.870027288203, -22804.65785320495, -29843.62451358134, -19161.278803500987, 0.042, 0.9540000000000001, 0.312, 192.0, 0.0, 0.0, 0.0, 0.0, 0.0, 0.0, 0.0, 0.0, 0.0, 1.695766935991626E9, 0.0, 2023-09-26 17:22:15.991
196.0, 34606.669498284995, 49983.66385503577, -19169.61600418282, -25588.92525302473, 11417.136957304116, 9769.433411292244, -187500.02235174447, -21831.61936183207, 14766.612919165245, -26810.828067163002, 53006.91610657169, -26039.625828221542, 10459.07413471629, -22794.42075424442, -29839.824717023937, -19129.427567652176, 0.042, 0.9540000000000001, 0.312, 192.0, 0.0, 0.0, 0.0, 0.0, 0.0, 0.0, 0.0, 0.0, 0.0, 1.695766935991638E9, 0.0, 2023-09-26 17:22:15.991
198.0, 34605.08252442867, 49999.98062848814, -19171.672364672704, -25591.428648403722, 11449.949318164507, 9849.787932609073, -187500.02235174447, -21785.015974642753, 14764.198930764072, -26815.656043965348, 52947.50516980948, -26034.52963048573, 10468.64068134316, -22797.41588800143, -29832.42628960923, -19177.439114742174, 0.042, 0.9540000000000001, 0.312, 192.0, 0.0, 0.0, 0.0, 0.0, 0.0, 0.0, 0.0, 0.0, 0.0, 1.695766935991642E9, 0.0, 2023-09-26 17:22:15.991
200.0, 34607.11653317411, 49987.776576015545, -19171.448847228152, -25598.62591011833, 11411.526669445833, 9750.009745360583, -187500.02235174447, -21851.646524864023, 14762.343735974282, -26819.075860867008, 53030.228976038576, -26034.61903746355, 10458.247120171443, -22809.262312562743, -29837.81306002296, -19093.843590479326, 0.042, 0.9540000000000001, 0.312, 192.0, 0.0, 0.0, 0.0, 0.0, 0.0, 0.0, 0.0, 0.0, 0.0, 1.695766935991645E9, 0.0, 2023-09-26 17:22:15.991
202.0, 34612.972690221395, 50006.03795123553, -19170.42066698321, -25597.284805451014, 11446.864777429673, 9832.733551589674, -187500.02235174447, -21797.756468982276, 14768.35635523276, -26820.193448089773, 52938.83269296082, -26027.421775748942, 10468.104239476233, -22812.32450155312, -29838.99770247909, -19184.815190412428, 0.042, 0.9560000000000001, 0.308, 192.0, 0.5, 40.0, 14.5, 112.0, 4.5, 80.0, 0.0, 0.0, 0.0, 1.695766935991649E9, 0.0, 2023-09-26 17:22:15.991
204.0, 34609.59757680864, 49988.0000934601, -19172.90171061775, -25608.34891895639, 11413.761843891365, 9741.046695834006, -187500.02235174447, -21871.584280918156, 14771.485599456502, -26815.25371256515, 53047.88685415827, -26028.494659482796, 10467.254873186932, -22813.12916435351, -29840.115289701855, -19084.813485719384, 0.042, 0.9560000000000001, 0.308, 192.0, 0.0, 0.0, 0.0, 0.0, 0.0, 0.0, 0.0, 0.0, 0.0, 1.695766935991652E9, 0.0, 2023-09-26 17:22:15.991
206.0, 34606.15540816253, 50005.79208204652, -19181.820056655415, -25621.6482069073, 11435.957126135485, 9818.048455482538, -187500.02235174447, -21816.46487909137, 14765.897663342676, -26821.914532412833, 52930.20491960108, -26032.38386301802, 10470.987614510968, -22824.41679530344, -29846.396129893797, -19195.298158561964, 0.042, 0.9560000000000001, 0.308, 192.0, 0.0, 0.0, 0.0, 0.0, 0.0, 0.0, 0.0, 0.0, 0.0, 1.695766935991655E9, 0.0, 2023-09-26 17:22:15.991
208.0, 34616.28074840078, 49998.90774475429, -19176.008603097034, -25621.603503418388, 11408.799756622286, 9732.173053285249, -187500.02235174447, -21877.8651211101, 14764.869483097731, -26825.468459781227, 53080.09571791837, -26040.251677066288, 10467.277224931388, -22833.446900063384, -29856.253249198588, -19056.404418516686, 0.042, 0.9560000000000001, 0.308, 192.0, 0.0, 0.0, 0.0, 0.0, 0.0, 0.0, 0.0, 0.0, 0.0, 1.695766935991659E9, 0.0, 2023-09-26 17:22:15.991
210.0, 34616.03487921177, 50012.721122827665, -19178.735515920584, -25617.73665162762, 11445.702486717999, 9807.230211166168, -187500.02235174447, -21815.771975013253, 14775.128933802716, -26812.504447997148, 52918.47025376204, -26026.34889201509, 10473.736879078971, -22821.645178990984, -29844.071548470445, -19216.733481494604, 0.042, 0.9560000000000001, 0.308, 192.0, 0.0, 0.0, 0.0, 0.0, 0.0, 0.0, 0.0, 0.0, 0.0, 1.695766936051342E9, 0.0, 2023-09-26 17:22:16.051
212.0, 34616.459562356424, 50008.49664312561, -19183.719954934117, -25620.083584795426, 11404.530573431322, 9750.210911060682, -187500.02235174447, -21871.025487306775, 14767.059954054352, -26821.847477179468, 53074.328967848895, -26033.188525818412, 10467.657204587127, -22824.79677495918, -29854.04042649751, -19071.35773555729, 0.046, 0.9580000000000001, 0.316, 192.0, 0.5, 56.0, 14.5, 120.0, 4.5, 112.0, 0.0, 0.0, 0.0, 1.695766936051353E9, 0.0, 2023-09-26 17:22:16.051
214.0, 34610.178722164484, 50010.79887280451, -19184.345803778866, -25613.936855070217, 11431.576184222244, 9808.504260600123, -187500.02235174447, -21815.03436744623, 14768.11048604375, -26818.897046911366, 52910.06599784685, -26036.67539795344, 10463.87975977418, -22818.51593476724, -29850.82177529595, -19224.37777809832, 0.046, 0.9580000000000001, 0.316, 192.0, 0.0, 0.0, 0.0, 0.0, 0.0, 0.0, 0.0, 0.0, 0.0, 1.695766936051357E9, 0.0, 2023-09-26 17:22:16.051
216.0, 34616.21369316741, 50006.440282635725, -19175.628623441295, -25603.96797704315, 11412.06311131276, 9772.36148981589, -187500.02235174447, -21843.108158482097, 14760.153265017661, -26825.714328970236, 53066.39409856726, -26040.497546255297, 10466.718431320005, -22818.694748722883, -29852.00641775208, -19073.056468135892, 0.046, 0.9580000000000001, 0.316, 192.0, 0.0, 0.0, 0.0, 0.0, 0.0, 0.0, 0.0, 0.0, 0.0, 1.69576693605136E9, 0.0, 2023-09-26 17:22:16.051
218.0, 34619.27588215779, 50016.029181007056, -19170.59948093885, -25593.90969203826, 11443.132036105639, 9818.09315897145, -187500.02235174447, -21791.833256701622, 14770.099791300272, -26811.677433452303, 52897.90664886316, -26032.652083951485, 10468.64068134316, -22802.020347359223, -29830.1911151637, -19232.33499912441, 0.046, 0.9580000000000001, 0.316, 192.0, 0.0, 0.0, 0.0, 0.0, 0.0, 0.0, 0.0, 0.0, 0.0, 1.695766936051363E9, 0.0, 2023-09-26 17:22:16.051
220.0, 34619.879379258084, 50012.34114317193, -19178.08731533138, -25601.039898519506, 11411.124338045638, 9793.193315648237, -187500.02235174447, -21836.156765956493, 14768.78103837741, -26819.053509122554, 53039.61670870981, -26032.11564208456, 10474.899169790646, -22809.485830007296, -29836.76252803356, -19097.978663203558, 0.046, 0.9580000000000001, 0.316, 192.0, 0.0, 0.0, 0.0, 0.0, 0.0, 0.0, 0.0, 0.0, 0.0, 1.695766936051366E9, 0.0, 2023-09-26 17:22:16.051
222.0, 34616.30310014523, 50013.59284086143, -19178.80257115395, -25596.904825795275, 11431.777349922342, 9809.443033867245, -187500.02235174447, -21806.026614430742, 14769.742163388988, -26815.365471287427, 52903.02519834342, -26031.445089750898, 10463.745649307448, -22811.51983875273, -29839.400033879287, -19223.930743209214, 0.042, 0.96, 0.314, 192.0, 0.5, 40.0, 15.0, 0.0, 4.5, 104.0, 0.0, 0.0, 0.0, 1.69576693605137E9, 0.0, 2023-09-26 17:22:16.051
224.0, 34624.439135126966, 50028.34499220193, -19182.51296073353, -25600.30229095248, 11412.73366364642, 9800.010597707105, -187500.02235174447, -21830.23355367584, 14758.231014994504, -26818.31590155553, 53058.950967663644, -26025.365415259053, 10471.792277311359, -22819.09708012308, -29845.323246159944, -19070.10603786779, 0.042, 0.96, 0.314, 192.0, 0.0, 0.0, 0.0, 0.0, 0.0, 0.0, 0.0, 0.0, 0.0, 1.695766936111614E9, 0.0, 2023-09-26 17:22:16.111
226.0, 34622.51688510381, 50026.69096311223, -19176.679155430695, -25599.363517685357, 11435.465387757467, 9787.538324301044, -187500.02235174447, -21811.65925403348, 14766.434105209602, -26806.35771827194, 52940.37496332824, -26019.91158961196, 10461.666937073105, -22810.402251529962, -29837.544839089496, -19180.546007221463, 0.042, 0.96, 0.314, 192.0, 0.0, 0.0, 0.0, 0.0, 0.0, 0.0, 0.0, 0.0, 0.0, 1.695766936111634E9, 0.0, 2023-09-26 17:22:16.111
228.0, 34624.573245593696, 50029.08259976895, -19180.166027565723, -25615.769698115553, 11420.668532928054, 9798.445975595234, -187500.02235174447, -21830.769995542767, 14761.606128407257, -26814.963139887233, 53048.78092393648, -26021.833839635117, 10473.021623256402, -22820.66170223495, -29843.646865325794, -19079.78434321694, 0.042, 0.96, 0.314, 192.0, 0.0, 0.0, 0.0, 0.0, 0.0, 0.0, 0.0, 0.0, 0.0, 1.69576693611166E9, 0.0, 2023-09-26 17:22:16.111
230.0, 34624.34972814914, 50023.919346799776, -19174.242815285066, -25615.50147718209, 11427.5975737092, 9762.861998422384, -187500.02235174447, -21836.581449101144, 14768.937500588598, -26813.175000330808, 52959.99979496, -26025.857153637073, 10458.314175404808, -22823.27685633622, -29842.95396124768, -19170.733591405584, 0.042, 0.96, 0.314, 192.0, 0.0, 0.0, 0.0, 0.0, 0.0, 0.0, 0.0, 0.0, 0.0, 1.695766936111666E9, 0.0, 2023-09-26 17:22:16.111
232.0, 34623.07567871519, 50027.04859102352, -19186.156295079745, -25625.895038353807, 11422.233155039925, 9803.69863554223, -187500.02235174447, -21824.779728028745, 14759.862692339742, -26820.528724256605, 53025.199833536135, -26029.366377516555, 10472.954568023035, -22828.574219772127, -29849.883002028826, -19113.200201177624, 0.038, 0.9560000000000001, 0.31, 192.0, 0.5, 24.0, 14.5, 112.0, 4.5, 88.0, 0.0, 0.0, 0.0, 1.695766936111672E9, 0.0, 2023-09-26 17:22:16.111
234.0, 34615.29727164475, 50012.13997747183, -19192.548893993964, -25627.79493663251, 11417.762806148865, 9759.062201864983, -187500.02235174447, -21839.5542311137, 14761.181445262606, -26821.288683568084, 52968.04642296391, -26035.311941541666, 10453.262681157908, -22827.724853482825, -29854.57686836444, -19171.493550717063, 0.038, 0.9560000000000001, 0.31, 192.0, 0.0, 0.0, 0.0, 0.0, 0.0, 0.0, 0.0, 0.0, 0.0, 1.695766936111678E9, 0.0, 2023-09-26 17:22:16.111
236.0, 34614.783181522274, 50022.33237294345, -19193.107687605345, -25625.917390098264, 11427.195242309004, 9816.193260692748, -187500.02235174447, -21813.782669756733, 14754.341811459282, -26827.480116782204, 53009.7100746286, -26041.1457468445, 10468.64068134316, -22832.37401632953, -29854.57686836444, -19131.260410697512, 0.038, 0.9560000000000001, 0.31, 192.0, 0.0, 0.0, 0.0, 0.0, 0.0, 0.0, 0.0, 0.0, 0.0, 1.695766936111684E9, 0.0, 2023-09-26 17:22:16.111
238.0, 34615.833713511674, 50014.10693098389, -19185.17281832371, -25612.863971336363, 11425.854137641685, 9762.034983877538, -187500.02235174447, -21829.98768448683, 14759.214491750537, -26820.886352167887, 52978.77526030246, -26041.793947433707, 10457.487160859962, -22824.841478448092, -29848.117214216854, -19159.378905222286, 0.038, 0.9560000000000001, 0.31, 192.0, 0.0, 0.0, 0.0, 0.0, 0.0, 0.0, 0.0, 0.0, 0.0, 1.69576693611169E9, 0.0, 2023-09-26 17:22:16.111
240.0, 34620.885207758576, 50030.40135269181, -19187.94443463617, -25611.58992190241, 11433.632544712133, 9840.89193831586, -187500.02235174447, -21792.74967822429, 14756.912262071643, -26824.216762091728, 52975.6013125898, -26040.38578753302, 10470.40646915513, -22819.41000454545, -29847.42431013874, -19158.775408121994, 0.038, 0.9560000000000001, 0.31, 192.0, 0.0, 0.0, 0.0, 0.0, 0.0, 0.0, 0.0, 0.0, 0.0, 1.695766936172878E9, 0.0, 2023-09-26 17:22:16.172
242.0, 34625.221446182906, 50017.86202405239, -19187.162123580234, -25608.818305589954, 11412.197221779494, 9770.998033404116, -187500.02235174447, -21828.825393775154, 14765.093000542283, -26816.348948043462, 53000.009417535, -26044.520860257253, 10458.0683062158, -22808.636463717994, -29847.67017932775, -19136.133090988766, 0.038, 0.96, 0.316, 192.0, 0.5, 24.0, 15.0, 0.0, 4.5, 112.0, 0.0, 0.0, 0.0, 1.69576693617289E9, 0.0, 2023-09-26 17:22:16.172
244.0, 34624.03680372677, 50025.08163751145, -19188.70439394765, -25614.719166126153, 11438.259355814382, 9838.969688292706, -187500.02235174447, -21791.475628790336, 14762.790770863388, -26818.651177722357, 52965.699489796105, -26039.73758694382, 10471.389945911164, -22811.452783519362, -29843.266885670055, -19162.59755642385, 0.038, 0.96, 0.316, 192.0, 0.0, 0.0, 0.0, 0.0, 0.0, 0.0, 0.0, 0.0, 0.0, 1.695766936172894E9, 0.0, 2023-09-26 17:22:16.172
