%OpenBCI Raw EXG Data
%Number of channels = 16
%Sample Rate = 125 Hz
%Board = OpenBCI_GUI$BoardCytonSerialDaisy
Sample Index, EXG Channel 0, EXG Channel 1, EXG Channel 2, EXG Channel 3, EXG Channel 4, EXG Channel 5, EXG Channel 6, EXG Channel 7, EXG Channel 8, EXG Channel 9, EXG Channel 10, EXG Channel 11, EXG Channel 12, EXG Channel 13, EXG Channel 14, EXG Channel 15, Accel Channel 0, Accel Channel 1, Accel Channel 2, Other, Other, Other, Other, Other, Other, Other, Analog Channel 0, Analog Channel 1, Analog Channel 2, Timestamp, Other, Timestamp (Formatted)
208.0, 34879.33842889529, 49987.3965963598, -19450.063341863555, -26098.455619627908, 10806.66611274077, 9261.110038889652, -187500.02235174447, -22671.26264229568, 15113.109661711414, -27621.905818212726, 52399.708616698816, -26691.46975177166, 9535.812978245376, -23455.07126510993, -30446.920448174533, -20011.49445909196, 0.0, 0.0, 0.0, 192.0, 0.0, 0.0, 0.0, 0.0, 0.0, 0.0, 0.0, 0.0, 0.0, 1.695766887289891E9, 0.0, 2023-09-26 17:21:27.289
210.0, 34882.691190563586, 49970.27516010704, -19451.270336064143, -26098.634433583553, 10777.519437971048, 9186.499915897837, -187500.02235174447, -22712.38985209344, 15120.865717037406, -27617.32371059939, 52429.23527112428, -26682.998440623098, 9524.435940317624, -23447.806948161957, -30450.966113920942, -19988.159237880616, 0.0, 0.0, 0.0, 192.0, 0.0, 0.0, 0.0, 0.0, 0.0, 0.0, 0.0, 0.0, 0.0, 1.695766887289902E9, 0.0, 2023-09-26 17:21:27.289
212.0, 34884.54638535337, 49987.30718938198, -19452.47733026473, -26101.562512107197, 10815.271534356063, 9267.972024437431, -187500.02235174447, -22658.186871789323, 15116.149498957337, -27627.85138223784, 52386.69990142583, -26690.46392327117, 9535.120074167262, -23451.94202088619, -30450.675541243025, -20022.24564817496, 0.0, 0.0, 0.0, 192.0, 0.0, 0.0, 0.0, 0.0, 0.0, 0.0, 0.0, 0.0, 0.0, 1.695766887289915E9, 0.0, 2023-09-26 17:21:27.289
214.0, 34880.94775449607, 49966.36360482736, -19458.42289428984, -26106.055212742715, 10781.699214184191, 9183.77300307429, -187500.02235174447, -22706.041956668134, 15121.335103670968, -27626.51027757052, 52449.061268456135, -26701.79625771001, 9523.206594372583, -23454.288954053995, -30452.620143010634, -19959.07961834426, 0.046, 0.976, 0.272, 192.0, 0.5, 56.0, 15.0, 64.0, 4.0, 64.0, 0.0, 0.0, 0.0, 1.695766887289918E9, 0.0, 2023-09-26 17:21:27.289
216.0, 34876.96914398303, 49988.15655567128, -19461.596842002495, -26095.751058548816, 10807.157851118785, 9272.777649495321, -187500.02235174447, -22659.237403778723, 15112.841440777951, -27621.257617623523, 52369.869037850985, -26696.09656287391, 9528.101626408295, -23453.573698231423, -30462.186689637507, -20020.926895252098, 0.046, 0.976, 0.272, 192.0, 0.0, 0.0, 0.0, 0.0, 0.0, 0.0, 0.0, 0.0, 0.0, 1.695766887289921E9, 0.0, 2023-09-26 17:21:27.289
218.0, 34882.601783585764, 49980.06522417846, -19453.527862254126, -26082.407067108998, 10781.878028139834, 9196.53584915827, -187500.02235174447, -22709.282959614153, 15116.931810013273, -27607.198370361137, 52471.77064082273, -26679.869196399355, 9524.637106017723, -23439.670913180224, -30459.482128558415, -19927.965990062476, 0.046, 0.976, 0.272, 192.0, 0.0, 0.0, 0.0, 0.0, 0.0, 0.0, 0.0, 0.0, 0.0, 1.695766887289925E9, 0.0, 2023-09-26 17:21:27.289
220.0, 34882.80294928586, 49988.692997538215, -19451.829129675523, -26082.585881064642, 10815.42799656725, 9267.189713381495, -187500.02235174447, -22654.878813609936, 15122.787967060563, -27605.969024416096, 52345.527988139154, -26668.156882304775, 9536.707048023587, -23433.725349155113, -30449.669712742536, -20043.16688098513, 0.046, 0.976, 0.272, 192.0, 0.0, 0.0, 0.0, 0.0, 0.0, 0.0, 0.0, 0.0, 0.0, 1.695766887289928E9, 0.0, 2023-09-26 17:21:27.289
222.0, 34878.28789690589, 49969.26933160655, -19462.557967014072, -26102.300119674223, 10776.13362981482, 9194.144212501551, -187500.02235174447, -22708.07596541357, 15116.820051290995, -27621.436431579168, 52455.94560574837, -26694.978975651145, 9530.31444910937, -23447.5834307174, -30456.64345701259, -19944.75215014841, 0.046, 0.976, 0.272, 192.0, 0.0, 0.0, 0.0, 0.0, 0.0, 0.0, 0.0, 0.0, 0.0, 1.695766887289933E9, 0.0, 2023-09-26 17:21:27.289
224.0, 34882.78059754141, 49985.45199459219, -19460.970993157745, -26099.528503361762, 10815.159775633785, 9269.804867482766, -187500.02235174447, -22653.671819409352, 15110.762728543608, -27623.336329857866, 52348.813694574084, -26703.785562966536, 9525.352361840292, -23452.322000541928, -30458.476300057926, -20033.421520402615, 0.048, 0.974, 0.272, 192.0, 0.5, 64.0, 15.0, 56.0, 4.0, 64.0, 0.0, 0.0, 0.0, 1.695766887289937E9, 0.0, 2023-09-26 17:21:27.289
0.0, 17410.265494616688, 25018.19581010292, -9706.06621576145, -13026.887241230876, 5433.418504407228, 4655.711907829274, -93750.01117587223, -11301.556086725723, 7556.431896261203, -13806.225515154067, 26263.21032800798, -13347.388904975523, 4767.872961506005, -11723.154690641724, -15225.784805510619, -9933.226994660736, 0.05, 0.976, 0.269, 192.0, 0.5, 80.0, 15.0, 72.0, 4.0, 40.0, 0.0, 0.0, 0.0, 1.695766887461618E9, 0.0, 2023-09-26 17:21:27.461
2.0, 34817.93818687656, 50019.717218842175, -19414.79228911308, -26056.3002295852, 10854.275328430573, 9253.555149263759, -187500.02235174447, -22632.974104043737, 15099.810373760507, -27508.604825568775, 52646.94126211897, -26591.378640100796, 9644.10718013134, -23353.951973194122, -30407.53667444428, -19874.16534115855, 0.05, 0.976, 0.269, 192.0, 0.0, 0.0, 0.0, 0.0, 0.0, 0.0, 0.0, 0.0, 0.0, 1.69576688746163E9, 0.0, 2023-09-26 17:21:27.461
4.0, 34820.262768299915, 50038.69384988474, -19418.636789159395, -26053.05922663918, 10870.659157116314, 9334.915499081077, -187500.02235174447, -22583.26382437513, 15092.009614945606, -27509.141267435705, 52605.54583138774, -26588.227044132596, 9647.281127843991, -23354.421359827684, -30411.559988446235, -19907.55884737478, 0.05, 0.976, 0.269, 192.0, 0.0, 0.0, 0.0, 0.0, 0.0, 0.0, 0.0, 0.0, 0.0, 1.695766887461634E9, 0.0, 2023-09-26 17:21:27.461
6.0, 34822.006204367426, 50026.26627996758, -19417.161574025344, -26051.2487353383, 10848.9109097613, 9252.728134718911, -187500.02235174447, -22635.566906400552, 15100.592684816444, -27503.240406899502, 52648.3270702752, -26580.091009150867, 9640.62030799631, -23353.214365627096, -30412.632872180093, -19867.705687010966, 0.05, 0.976, 0.269, 192.0, 0.0, 0.0, 0.0, 0.0, 0.0, 0.0, 0.0, 0.0, 0.0, 1.695766887461637E9, 0.0, 2023-09-26 17:21:27.461
8.0, 34825.426021269086, 50051.389640735346, -19416.379262969407, -26048.678284725942, 10873.229607728674, 9338.156502027095, -187500.02235174447, -22585.14137090938, 15094.535362069055, -27500.759363264962, 52590.50310736932, -26565.808244443924, 9645.560043520933, -23353.951973194122, -30412.766982646823, -19922.93684756003, 0.048, 0.974, 0.264, 192.0, 0.5, 64.0, 15.0, 56.0, 4.0, 32.0, 0.0, 0.0, 0.0, 1.69576688746164E9, 0.0, 2023-09-26 17:21:27.461
10.0, 34824.19667532405, 50030.02137303608, -19407.773841354116, -26045.146709102002, 10856.756372065112, 9247.207253838451, -187500.02235174447, -22635.589258145006, 15094.960045213706, -27501.92165397664, 52675.12681187711, -26570.993849157556, 9643.011944653028, -23356.14244415074, -30404.899168598557, -19837.30731455175, 0.048, 0.974, 0.264, 192.0, 0.0, 0.0, 0.0, 0.0, 0.0, 0.0, 0.0, 0.0, 0.0, 1.695766887461643E9, 0.0, 2023-09-26 17:21:27.461
12.0, 34802.60489018022, 50024.61225087789, -19418.07799554801, -26057.417816807967, 10873.497828662137, 9332.099179279707, -187500.02235174447, -22585.70016452076, 15094.088327179948, -27507.55429357938, 52544.5032172803, -26577.58761377187, 9653.271395358015, -23354.644877272236, -30398.014831306322, -19958.878452644167, 0.048, 0.974, 0.264, 192.0, 0.0, 0.0, 0.0, 0.0, 0.0, 0.0, 0.0, 0.0, 0.0, 1.695766887461646E9, 0.0, 2023-09-26 17:21:27.461
14.0, 34798.49216920044, 50006.32852391345, -19416.871001347423, -26063.29632559971, 10860.9137965338, 9244.100361359164, -187500.02235174447, -22631.543592398597, 15080.945501440228, -27525.189819954616, 52669.89650367457, -26608.50007635356, 9642.922537675207, -23369.218214657096, -30403.356898231137, -19832.05465460475, 0.048, 0.974, 0.264, 192.0, 0.0, 0.0, 0.0, 0.0, 0.0, 0.0, 0.0, 0.0, 0.0, 1.69576688746165E9, 0.0, 2023-09-26 17:21:27.461
16.0, 34802.7166489025, 50030.89309106983, -19416.111042035944, -26052.25456383879, 10879.91277932081, 9331.294516479316, -187500.02235174447, -22573.65257425935, 15088.165114899293, -27511.667014559152, 52541.150455612005, -26594.776105258003, 9644.978898165095, -23357.215327884594, -30398.841845851166, -19962.633545712655, 0.048, 0.974, 0.264, 192.0, 0.0, 0.0, 0.0, 0.0, 0.0, 0.0, 0.0, 0.0, 0.0, 1.695766887521891E9, 0.0, 2023-09-26 17:21:27.521
18.0, 34814.83129439727, 50033.910576571296, -19415.306379235553, -26055.093235384615, 10852.062505729498, 9261.579425523214, -187500.02235174447, -22626.693263851794, 15090.5120480671, -27503.62038655524, 52670.50000077487, -26581.029782417987, 9642.497854530557, -23353.013199926998, -30404.519188942813, -19839.16250934154, 0.042, 0.972, 0.262, 192.0, 0.5, 40.0, 15.0, 48.0, 4.0, 24.0, 0.0, 0.0, 0.0, 1.695766887521902E9, 0.0, 2023-09-26 17:21:27.521
20.0, 34813.62430019669, 50046.18168427726, -19417.005111814156, -26057.082540641135, 10868.446334415237, 9324.544289653813, -187500.02235174447, -22579.955766195748, 15089.439164333246, -27501.675784787632, 52554.22622611836, -26570.993849157556, 9637.446360283657, -23360.411627341706, -30408.676613411502, -19959.459598, 0.042, 0.972, 0.262, 192.0, 0.0, 0.0, 0.0, 0.0, 0.0, 0.0, 0.0, 0.0, 0.0, 1.695766887521906E9, 0.0, 2023-09-26 17:21:27.521
22.0, 34805.33180300377, 50022.39942817682, -19416.155745524855, -26059.943563931414, 10855.929357520266, 9258.69605048848, -187500.02235174447, -22634.985761044714, 15083.113620652393, -27511.465848859054, 52698.17146041054, -26579.10753239483, 9641.00028765205, -23367.63124080077, -30404.765058131823, -19812.698043906457, 0.042, 0.972, 0.262, 192.0, 0.0, 0.0, 0.0, 0.0, 0.0, 0.0, 0.0, 0.0, 0.0, 1.695766887521909E9, 0.0, 2023-09-26 17:21:27.521
24.0, 34786.04224753884, 50007.490814625125, -19424.403539228864, -26054.86971794006, 10876.761183352612, 9319.761016340377, -187500.02235174447, -22581.94507145227, 15083.001861930117, -27517.791392539908, 52543.720906224364, -26590.998660445057, 9637.379305050292, -23362.7138570206, -30402.239311008372, -19969.249662071426, 0.042, 0.972, 0.262, 192.0, 0.0, 0.0, 0.0, 0.0, 0.0, 0.0, 0.0, 0.0, 0.0, 1.695766887521912E9, 0.0, 2023-09-26 17:21:27.521
26.0, 34788.165663262094, 49993.163346429275, -19430.79613814308, -26064.033933166735, 10852.487188874149, 9275.236341385405, -187500.02235174447, -22625.91095279586, 15077.70449849421, -27533.147040980704, 52682.12290789162, -26606.153143185755, 9642.76607546402, -23367.541833822947, -30408.63190992259, -19833.50751799435, 0.042, 0.972, 0.262, 192.0, 0.0, 0.0, 0.0, 0.0, 0.0, 0.0, 0.0, 0.0, 0.0, 1.695766887521916E9, 0.0, 2023-09-26 17:21:27.521
28.0, 34790.44554119653, 50008.72016057017, -19435.31119052305, -26059.228308108846, 10861.114962233898, 9307.981647012431, -187500.02235174447, -22596.51840883713, 15088.321577110479, -27528.184953711625, 52552.16986562847, -26607.941282742177, 9635.434703282679, -23368.10062743433, -30420.768907161822, -19973.496493517934, 0.048, 0.974, 0.272, 192.0, 0.5, 64.0, 15.0, 56.0, 4.0, 64.0, 0.0, 0.0, 0.0, 1.695766887521919E9, 0.0, 2023-09-26 17:21:27.521
30.0, 34783.5612039043, 50010.284782682036, -19437.971048113235, -26060.882337198538, 10849.29088941704, 9286.881600246621, -187500.02235174447, -22620.837106804505, 15070.328422823957, -27523.73695656502, 52687.01793992733, -26589.54579705546, 9637.446360283657, -23370.604022813324, -30426.06627059773, -19832.30052379376, 0.048, 0.974, 0.272, 192.0, 0.0, 0.0, 0.0, 0.0, 0.0, 0.0, 0.0, 0.0, 0.0, 1.695766887581259E9, 0.0, 2023-09-26 17:21:27.581
32.0, 34777.41447417909, 50009.68128558175, -19433.835975389004, -26051.740473716316, 10864.400668668828, 9305.120623722152, -187500.02235174447, -22588.762353511138, 15069.233187345648, -27515.10918320527, 52581.5624095872, -26586.796532487457, 9625.778749677987, -23363.652630287725, -30421.819439151222, -19940.99705707992, 0.048, 0.974, 0.272, 192.0, 0.0, 0.0, 0.0, 0.0, 0.0, 0.0, 0.0, 0.0, 0.0, 1.695766887581281E9, 0.0, 2023-09-26 17:21:27.581
34.0, 34769.636067108644, 49995.35381738589, -19437.27814403512, -26062.312848843678, 10860.399706411328, 9298.571562596746, -187500.02235174447, -22603.17922868481, 15064.204044843204, -27521.367671652755, 52690.750681251375, -26595.960747714133, 9637.044028883462, -23365.23960414405, -30420.187761805984, -19829.931238881498, 0.048, 0.974, 0.272, 192.0, 0.0, 0.0, 0.0, 0.0, 0.0, 0.0, 0.0, 0.0, 0.0, 1.695766887581285E9, 0.0, 2023-09-26 17:21:27.581
36.0, 34758.05786348079, 49971.92918919673, -19431.84667013248, -26060.48000579834, 10868.781610582068, 9290.45787935947, -187500.02235174447, -22592.360984368443, 15068.383821056346, -27527.11206997777, 52578.969607230385, -26612.389279888783, 9633.71361895962, -23364.501996577026, -30412.051726824255, -19949.80364439531, 0.048, 0.974, 0.272, 192.0, 0.0, 0.0, 0.0, 0.0, 0.0, 0.0, 0.0, 0.0, 0.0, 1.695766887581288E9, 0.0, 2023-09-26 17:21:27.581
38.0, 34748.22309592046, 49968.621131017346, -19432.807795144057, -26066.2020523789, 10869.67568036028, 9313.234306959428, -187500.02235174447, -22594.216179158233, 15061.320669808469, -27542.87004981876, 52648.46118074193, -26621.84406779338, 9645.850616198852, -23370.33580187986, -30408.274282011305, -19871.907814968567, 0.046, 0.978, 0.27, 192.0, 0.5, 56.0, 15.0, 72.0, 4.0, 56.0, 0.0, 0.0, 0.0, 1.695766887581291E9, 0.0, 2023-09-26 17:21:27.581
40.0, 34753.54281110082, 49969.15757288427, -19428.024521830623, -26060.01061916478, 10866.948767536733, 9276.8903704751, -187500.02235174447, -22597.434830359798, 15062.594719242421, -27543.607657385786, 52592.939447514946, -26623.967483516633, 9634.160653848727, -23371.185168169162, -30406.217921521416, -19927.071920284263, 0.046, 0.978, 0.27, 192.0, 0.0, 0.0, 0.0, 0.0, 0.0, 0.0, 0.0, 0.0, 0.0, 1.695766887581295E9, 0.0, 2023-09-26 17:21:27.581
42.0, 34761.96941876047, 49993.006884218084, -19430.639675931892, -26062.089331399126, 10864.892407046844, 9308.294571434804, -187500.02235174447, -22597.568940826528, 15064.941652410229, -27542.11009050728, 52654.04911685576, -26606.734288541593, 9645.381229565292, -23380.908177007223, -30407.670784911013, -19855.389875816094, 0.046, 0.978, 0.27, 192.0, 0.0, 0.0, 0.0, 0.0, 0.0, 0.0, 0.0, 0.0, 0.0, 1.695766887581298E9, 0.0, 2023-09-26 17:21:27.581
44.0, 34757.14144195813, 49979.61818928936, -19426.683417163305, -26056.16611911847, 10865.294738447039, 9265.043945913785, -187500.02235174447, -22602.19575192878, 15073.88235019235, -27531.805936313383, 52598.16975571749, -26600.676965794202, 9639.234499840082, -23372.705086792124, -30405.770886632312, -19921.215763236974, 0.046, 0.978, 0.27, 192.0, 0.0, 0.0, 0.0, 0.0, 0.0, 0.0, 0.0, 0.0, 0.0, 1.695766887581301E9, 0.0, 2023-09-26 17:21:27.581
46.0, 34757.58847684723, 49991.978703973145, -19426.214030529743, -26052.075749883148, 10878.191694997751, 9326.42183618806, -187500.02235174447, -22582.727382508205, 15059.532530252043, -27537.706796849587, 52624.07542754119, -26598.17357041521, 9645.29182258747, -23372.14629318074, -30401.725220885903, -19882.971928473944, 0.046, 0.978, 0.27, 192.0, 0.0, 0.0, 0.0, 0.0, 0.0, 0.0, 0.0, 0.0, 0.0, 1.695766887641059E9, 0.0, 2023-09-26 17:21:27.641
48.0, 34749.363034887676, 49974.81256423147, -19421.22959151621, -26042.375092789545, 10870.078011760475, 9273.470553573437, -187500.02235174447, -22602.307510651055, 15058.79492268502, -27524.496915876498, 52604.74116858735, -26601.369869872316, 9638.42983703969, -23359.271688374483, -30396.226691749896, -19902.9990915059, 0.048, 0.972, 0.27, 192.0, 0.5, 64.0, 15.0, 48.0, 4.0, 56.0, 0.0, 0.0, 0.0, 1.695766887641071E9, 0.0, 2023-09-26 17:21:27.641
50.0, 34752.715796555975, 49987.75422427109, -19424.001207828667, -26042.82212767865, 10884.293721234051, 9349.04180157683, -187500.02235174447, -22558.587498496476, 15058.5043500071, -27523.35697690928, 52574.52161008378, -26598.151218670755, 9650.633889512288, -23355.807167983912, -30387.844787579157, -19919.092347513717, 0.048, 0.972, 0.27, 192.0, 0.0, 0.0, 0.0, 0.0, 0.0, 0.0, 0.0, 0.0, 0.0, 1.695766887641082E9, 0.0, 2023-09-26 17:21:27.641
52.0, 34756.31442741328, 49977.6959392662, -19421.967199083236, -26042.375092789545, 10867.57461638148, 9270.765992494344, -187500.02235174447, -22597.05485070406, 15059.97956514115, -27525.949779266095, 52610.619677379094, -26600.922834983212, 9639.748589962554, -23361.8644907313, -30394.371496960106, -19884.424791863537, 0.048, 0.972, 0.27, 192.0, 0.0, 0.0, 0.0, 0.0, 0.0, 0.0, 0.0, 0.0, 0.0, 1.695766887641085E9, 0.0, 2023-09-26 17:21:27.641
54.0, 34764.36105541719, 50001.03116047754, -19427.532783452607, -26038.418834020955, 10875.263616474107, 9344.683211408044, -187500.02235174447, -22562.096722375958, 15060.046620374516, -27519.512476862965, 52556.41669707498, -26589.97048020011, 9645.582395265388, -23357.640011029245, -30395.511435927325, -19932.056359297796, 0.048, 0.972, 0.27, 192.0, 0.0, 0.0, 0.0, 0.0, 0.0, 0.0, 0.0, 0.0, 0.0, 1.695766887641088E9, 0.0, 2023-09-26 17:21:27.641
56.0, 34765.232773450945, 49987.41894810426, -19431.26552477664, -26045.794909691205, 10853.135389463352, 9256.706745231957, -187500.02235174447, -22617.171420713836, 15063.064105875983, -27519.87010477425, 52603.64593310904, -26594.55258781345, 9635.971145149606, -23362.266822131496, -30406.39673547706, -19885.90000699759, 0.048, 0.972, 0.27, 192.0, 0.0, 0.0, 0.0, 0.0, 0.0, 0.0, 0.0, 0.0, 0.0, 1.695766887641091E9, 0.0, 2023-09-26 17:21:27.641
58.0, 34757.16379370258, 50002.439320378224, -19439.312152780552, -26056.322581329656, 10867.57461638148, 9338.067095049273, -187500.02235174447, -22573.339649836977, 15055.129236594348, -27521.144154208203, 52520.89977513549, -26592.898558723755, 9635.94879340515, -23365.44076984415, -30408.654261667045, -19962.8123596683, 0.05, 0.968, 0.27, 192.0, 0.5, 72.0, 15.0, 32.0, 4.0, 56.0, 0.0, 0.0, 0.0, 1.695766887641095E9, 0.0, 2023-09-26 17:21:27.641
60.0, 34756.73911055793, 49983.55209631349, -19436.294667279086, -26065.129168645046, 10853.560072608003, 9254.717439975433, -187500.02235174447, -22622.044101005093, 15052.201158070704, -27525.413337399168, 52626.24354675336, -26606.868399008323, 9632.417217781212, -23371.833368758365, -30413.437534980483, -19857.937974684, 0.05, 0.968, 0.27, 192.0, 0.0, 0.0, 0.0, 0.0, 0.0, 0.0, 0.0, 0.0, 0.0, 1.695766887701423E9, 0.0, 2023-09-26 17:21:27.701
62.0, 34760.44950013751, 50000.919401755265, -19431.869021876933, -26062.670476754964, 10877.38703219736, 9333.775560113854, -187500.02235174447, -22573.518463792618, 15055.062181360983, -27522.462907131066, 52538.31178406618, -26604.49911409606, 9639.815645195918, -23369.508787335013, -30409.235407022883, -19939.18656577904, 0.05, 0.968, 0.27, 192.0, 0.0, 0.0, 0.0, 0.0, 0.0, 0.0, 0.0, 0.0, 0.0, 1.695766887701436E9, 0.0, 2023-09-26 17:21:27.701
64.0, 34761.388273404635, 49990.1011574389, -19432.71838816624, -26066.67143901246, 10852.218967940686, 9256.952614420965, -187500.02235174447, -22621.28414169361, 15059.130198851848, -27519.73599430752, 52646.762448163325, -26601.436925105685, 9644.241290598071, -23373.688563548156, -30409.97301458991, -19833.26164880534, 0.05, 0.968, 0.27, 192.0, 0.0, 0.0, 0.0, 0.0, 0.0, 0.0, 0.0, 0.0, 0.0, 1.69576688770144E9, 0.0, 2023-09-26 17:21:27.701
66.0, 34771.06657875378, 50012.78817806103, -19425.02938807361, -26052.813357450173, 10878.035232786564, 9329.394618200615, -187500.02235174447, -22572.691449247774, 15061.343021552924, -27516.58439833932, 52534.69080146442, -26595.31254712493, 9642.184930108182, -23371.699258291635, -30407.871950611112, -19948.306077516805, 0.05, 0.968, 0.27, 192.0, 0.0, 0.0, 0.0, 0.0, 0.0, 0.0, 0.0, 0.0, 0.0, 1.695766887701444E9, 0.0, 2023-09-26 17:21:27.701
68.0, 34781.48249166995, 50006.37322740236, -19422.078957805512, -26049.59470624861, 10852.53189236306, 9262.585254023703, -187500.02235174447, -22615.405632901864, 15062.751181453608, -27517.16554369516, 52655.8819599011, -26593.613814546326, 9646.297651087958, -23369.19586291264, -30407.983709333388, -19830.534735981793, 0.048, 0.968, 0.272, 192.0, 0.5, 64.0, 15.0, 32.0, 4.0, 64.0, 0.0, 0.0, 0.0, 1.695766887701447E9, 0.0, 2023-09-26 17:21:27.701
70.0, 34781.19191899204, 50018.7560938306, -19417.586257169994, -26042.218630578358, 10881.075070032486, 9332.680324635545, -187500.02235174447, -22549.155062336336, 15065.187521599237, -27511.219979670048, 52522.01736235826, -26585.41072433123, 9646.610575510333, -23359.405798841217, -30395.422028949506, -19965.22634806947, 0.048, 0.968, 0.272, 192.0, 0.0, 0.0, 0.0, 0.0, 0.0, 0.0, 0.0, 0.0, 0.0, 1.69576688770145E9, 0.0, 2023-09-26 17:21:27.701
72.0, 34787.27159348388, 50016.52091938507, -19411.595989655973, -26034.86490665256, 10864.445372157737, 9277.963254208953, -187500.02235174447, -22598.418307115833, 15068.137951867337, -27506.72727903453, 52658.81003842474, -26582.750866741048, 9650.633889512288, -23351.739150493046, -30394.662069638023, -19821.34816901066, 0.048, 0.968, 0.272, 192.0, 0.0, 0.0, 0.0, 0.0, 0.0, 0.0, 0.0, 0.0, 0.0, 1.695766887701453E9, 0.0, 2023-09-26 17:21:27.701
74.0, 34783.963535304494, 50028.56850964648, -19414.65817864635, -26023.91255186946, 10881.924436321788, 9342.783313129345, -187500.02235174447, -22553.245431571657, 15072.004803658105, -27491.505741060468, 52515.82592914414, -26573.631355003283, 9651.438552312678, -23339.691560231633, -30388.560043401725, -19967.886205659655, 0.048, 0.968, 0.272, 192.0, 0.0, 0.0, 0.0, 0.0, 0.0, 0.0, 0.0, 0.0, 0.0, 1.695766887701457E9, 0.0, 2023-09-26 17:21:27.701
76.0, 34794.75942787641, 50032.18949224824, -19415.708710635747, -26024.046662336194, 10867.552264637026, 9306.014693500363, -187500.02235174447, -22597.926568737814, 15065.813370443986, -27493.249177127982, 52676.28910258879, -26570.21153810162, 9652.690250002177, -23342.105548632808, -30395.556139416236, -19797.67767163249, 0.048, 0.968, 0.272, 192.0, 0.0, 0.0, 0.0, 0.0, 0.0, 0.0, 0.0, 0.0, 0.0, 1.695766887761032E9, 0.0, 2023-09-26 17:21:27.761
78.0, 34788.50093942892, 50026.84742532342, -19416.871001347423, -26026.81827864865, 10881.209180499218, 9320.006885529387, -187500.02235174447, -22567.930527678793, 15082.398364829824, -27481.44745605558, 52526.57711822714, -26561.96374439761, 9652.422029068712, -23330.728510705056, -30389.49881666885, -19955.95037412052, 0.05, 0.97, 0.264, 192.0, 0.5, 72.0, 15.0, 40.0, 4.0, 32.0, 0.0, 0.0, 0.0, 1.695766887761043E9, 0.0, 2023-09-26 17:21:27.761
80.0, 34773.36880843268, 50006.999076247106, -19433.99243760019, -26053.618020250564, 10858.365697665895, 9297.476327118437, -187500.02235174447, -22599.178266427312, 15056.358582539391, -27513.857485515775, 52646.04719234076, -26586.617718531816, 9645.828264454398, -23361.395104097737, -30405.16738953202, -19826.198497557463, 0.05, 0.97, 0.264, 192.0, 0.0, 0.0, 0.0, 0.0, 0.0, 0.0, 0.0, 0.0, 0.0, 1.695766887761047E9, 0.0, 2023-09-26 17:21:27.761
82.0, 34771.02187526487, 50013.72695132816, -19430.729082909715, -26047.15836610298, 10865.33944193595, 9303.243077187906, -187500.02235174447, -22579.866359217925, 15056.582099983943, -27517.701985562086, 52550.06880164967, -26593.345593612863, 9632.774845692498, -23365.284307632963, -30406.262625010328, -19927.42954819555, 0.05, 0.97, 0.264, 192.0, 0.0, 0.0, 0.0, 0.0, 0.0, 0.0, 0.0, 0.0, 0.0, 1.69576688776105E9, 0.0, 2023-09-26 17:21:27.761
84.0, 34774.62050612218, 50021.99709677662, -19432.204298043765, -26049.59470624861, 10866.546436136538, 9303.712463821466, -187500.02235174447, -22596.1831326703, 15053.922242393763, -27512.67284305964, 52644.30375627324, -26579.86749170631, 9646.521168532512, -23360.121054663785, -30402.284014497283, -19823.87391613411, 0.05, 0.97, 0.264, 192.0, 0.0, 0.0, 0.0, 0.0, 0.0, 0.0, 0.0, 0.0, 0.0, 1.695766887761054E9, 0.0, 2023-09-26 17:21:27.761
86.0, 34763.064654238784, 50015.112759484386, -19436.473481234727, -26051.606363249586, 10869.183941982263, 9290.614341570657, -187500.02235174447, -22590.550493067563, 15051.68706794823, -27511.30938664787, 52550.96287142788, -26592.920910468212, 9635.412351538223, -23362.020952942486, -30406.508494199337, -19924.389710949625, 0.05, 0.97, 0.264, 192.0, 0.0, 0.0, 0.0, 0.0, 0.0, 0.0, 0.0, 0.0, 0.0, 1.695766887761057E9, 0.0, 2023-09-26 17:21:27.761
88.0, 34766.08213974025, 50020.90186129831, -19433.634809688905, -26054.95912491788, 10871.575578638982, 9315.983571527431, -187500.02235174447, -22587.868283732925, 15049.40719001379, -27511.06351745886, 52626.26589849781, -26592.78680000148, 9648.219901111115, -23361.395104097737, -30405.077982554198, -19840.391855286583, 0.048, 0.964, 0.264, 192.0, 0.5, 64.0, 15.0, 16.0, 4.0, 32.0, 0.0, 0.0, 0.0, 1.69576688776106E9, 0.0, 2023-09-26 17:21:27.761
90.0, 34763.914020528086, 50008.02725649205, -19427.912763108347, -26055.808491207183, 10869.742735593645, 9273.805829740266, -187500.02235174447, -22598.53006583811, 15057.275004062058, -27509.945930236096, 52561.84817097762, -26596.31837562542, 9642.117874874815, -23363.250298887528, -30404.49683719836, -19920.768728347866, 0.048, 0.964, 0.264, 192.0, 0.0, 0.0, 0.0, 0.0, 0.0, 0.0, 0.0, 0.0, 0.0, 1.69576688782129E9, 0.0, 2023-09-26 17:21:27.821
92.0, 34772.45238691001, 50030.826035836464, -19428.56096369755, -26052.92511617245, 10883.131430522375, 9317.36937968366, -187500.02235174447, -22576.178321382802, 15049.541300480521, -27513.410450626667, 52599.82378480718, -26590.484570322584, 9651.729124990597, -23367.497130334035, -30402.753401130845, -19874.36650685865, 0.048, 0.964, 0.264, 192.0, 0.0, 0.0, 0.0, 0.0, 0.0, 0.0, 0.0, 0.0, 0.0, 1.695766887821305E9, 0.0, 2023-09-26 17:21:27.821
94.0, 34773.055884010304, 50023.58407063295, -19432.02548408812, -26047.672456225453, 10873.006090284121, 9265.379222080615, -187500.02235174447, -22596.51840883713, 15051.999992370605, -27507.35312787928, 52574.94629322843, -26586.014221431524, 9641.044991140961, -23365.91015647771, -30398.953604573442, -19906.329501429736, 0.048, 0.964, 0.264, 192.0, 0.0, 0.0, 0.0, 0.0, 0.0, 0.0, 0.0, 0.0, 0.0, 1.695766887821309E9, 0.0, 2023-09-26 17:21:27.821
96.0, 34777.615639879186, 50036.212806250194, -19431.556097454562, -26045.86196492457, 10875.174209496285, 9322.666743119567, -187500.02235174447, -22575.351306837954, 15051.754123181598, -27509.498895346987, 52584.84811602213, -26581.096837651356, 9644.442456298168, -23366.29013613345, -30402.68634589748, -19891.107963455674, 0.048, 0.964, 0.264, 192.0, 0.0, 0.0, 0.0, 0.0, 0.0, 0.0, 0.0, 0.0, 0.0, 1.695766887821312E9, 0.0, 2023-09-26 17:21:27.821
98.0, 34776.09572125623, 50020.633640364846, -19427.51043170815, -26044.185584090425, 10869.362755937906, 9259.59012026669, -187500.02235174447, -22601.52519959512, 15061.36537329738, -27512.315215148355, 52602.75186333083, -26587.087105165378, 9641.380267307792, -23370.894595491245, -30398.52892142879, -19886.592911075702, 0.046, 0.968, 0.262, 192.0, 0.5, 56.0, 15.0, 32.0, 4.0, 24.0, 0.0, 0.0, 0.0, 1.695766887821316E9, 0.0, 2023-09-26 17:21:27.821
100.0, 34777.72739860146, 50035.96693706119, -19431.04200733209, -26045.459633524377, 10884.271369489596, 9336.815397359776, -187500.02235174447, -22564.242489843666, 15059.644288974321, -27507.129610434728, 52577.18146767396, -26580.091009150867, 9651.460904057134, -23363.272650631985, -30394.326793471195, -19908.810545064276, 0.046, 0.968, 0.262, 192.0, 0.0, 0.0, 0.0, 0.0, 0.0, 0.0, 0.0, 0.0, 0.0, 1.695766887821319E9, 0.0, 2023-09-26 17:21:27.821
102.0, 34774.44169216653, 50020.72304734267, -19438.731007424714, -26047.20306959189, 10864.065392501998, 9258.718402232935, -187500.02235174447, -22608.90127526537, 15055.084533105439, -27503.4415725996, 52617.23579373787, -26584.024916175, 9645.135360376282, -23359.42815058567, -30403.289842997772, -19875.484094081414, 0.046, 0.968, 0.262, 192.0, 0.0, 0.0, 0.0, 0.0, 0.0, 0.0, 0.0, 0.0, 0.0, 1.695766887821322E9, 0.0, 2023-09-26 17:21:27.821
104.0, 34768.11614848568, 50036.81630335049, -19444.631867960914, -26046.48781376932, 10881.991491555154, 9351.23227253345, -187500.02235174447, -22559.012181641127, 15050.368315025367, -27503.419220855147, 52552.818066217675, -26579.30869809493, 9648.063438899928, -23358.15410115172, -30410.352994245648, -19929.351798218704, 0.046, 0.968, 0.262, 192.0, 0.0, 0.0, 0.0, 0.0, 0.0, 0.0, 0.0, 0.0, 0.0, 1.695766887821325E9, 0.0, 2023-09-26 17:21:27.821
106.0, 34773.055884010304, 50023.47231191067, -19436.38407425691, -26045.05730212418, 10857.583386609958, 9264.507504046858, -187500.02235174447, -22609.549475854576, 15051.93293713724, -27503.665090044153, 52636.30183175825, -26586.50595980954, 9643.257813842036, -23357.349438351328, -30409.570683189715, -19846.44917803397, 0.046, 0.968, 0.262, 192.0, 0.0, 0.0, 0.0, 0.0, 0.0, 0.0, 0.0, 0.0, 0.0, 1.695766887881618E9, 0.0, 2023-09-26 17:21:27.881
108.0, 34782.287154470345, 50044.77352437658, -19427.42102473033, -26040.519897999755, 10882.48322993317, 9347.521882953868, -187500.02235174447, -22555.972344395203, 15057.476169762156, -27500.71465977605, 52550.381726072046, -26579.86749170631, 9648.309308088936, -23356.455368573115, -30406.73201164389, -19932.302228486806, 0.038, 0.968, 0.268, 192.0, 0.5, 24.0, 15.0, 32.0, 4.0, 48.0, 0.0, 0.0, 0.0, 1.695766887881643E9, 0.0, 2023-09-26 17:21:27.881
110.0, 34778.48735791294, 50030.37900094736, -19426.571658441026, -26047.024255636246, 10864.020689013087, 9265.289815102795, -187500.02235174447, -22605.57086534153, 15062.929995409251, -27495.797275995887, 52646.44952374095, -26574.436017803673, 9648.689287744677, -23356.880051717766, -30399.378287718093, -19842.11293960964, 0.038, 0.968, 0.268, 192.0, 0.0, 0.0, 0.0, 0.0, 0.0, 0.0, 0.0, 0.0, 0.0, 1.695766887881647E9, 0.0, 2023-09-26 17:21:27.881
112.0, 34771.02187526487, 50043.05244005352, -19427.46572821924, -26048.477119025843, 10888.361738724916, 9338.782350871845, -187500.02235174447, -22552.88780366037, 15051.93293713724, -27499.753534764473, 52551.409906316985, -26577.00646841603, 9643.90601443124, -23358.087045918353, -30400.272357496306, -19932.168118020072, 0.038, 0.968, 0.268, 192.0, 0.0, 0.0, 0.0, 0.0, 0.0, 0.0, 0.0, 0.0, 0.0, 1.695766887881651E9, 0.0, 2023-09-26 17:21:27.881
114.0, 34769.569011875275, 50025.14869274482, -19430.61732418744, -26051.718121971862, 10866.702898347725, 9259.098381888674, -187500.02235174447, -22610.689414821794, 15054.950422638705, -27495.931386462617, 52651.948052876956, -26575.888881193267, 9650.902110445752, -23364.837272743855, -30395.712601627423, -19832.389930771584, 0.038, 0.968, 0.268, 192.0, 0.0, 0.0, 0.0, 0.0, 0.0, 0.0, 0.0, 0.0, 0.0, 1.695766887881654E9, 0.0, 2023-09-26 17:21:27.881
116.0, 34770.55248863131, 50033.82116959348, -19434.70769342276, -26051.472252782853, 10872.693165861747, 9326.019504787864, -187500.02235174447, -22562.767274709615, 15057.230300573148, -27498.323023119334, 52534.02024913076, -26585.097799908854, 9643.369572564314, -23366.893633233743, -30408.25193026685, -19953.245813041427, 0.038, 0.968, 0.268, 192.0, 0.0, 0.0, 0.0, 0.0, 0.0, 0.0, 0.0, 0.0, 0.0, 1.695766887881658E9, 0.0, 2023-09-26 17:21:27.881
118.0, 34771.42420666507, 50022.42177992127, -19432.293705021584, -26056.72491272985, 10864.557130880015, 9265.178056380517, -187500.02235174447, -22603.84978101847, 15060.895986663818, -27497.563063807855, 52660.28525355879, -26591.8256749899, 9648.95750867814, -23364.501996577026, -30405.10033429865, -19831.674674949012, 0.04, 0.982, 0.264, 192.0, 0.5, 32.0, 15.0, 88.0, 4.0, 32.0, 0.0, 0.0, 0.0, 1.695766887881661E9, 0.0, 2023-09-26 17:21:27.881
120.0, 34775.849852067215, 50037.77742836207, -19424.537649695594, -26044.990246890815, 10871.754392594623, 9323.046722775307, -187500.02235174447, -22561.51557702012, 15054.950422638705, -27490.745781748985, 52543.27387133526, -26593.83733199088, 9638.273374828503, -23358.601136040823, -30409.101296556153, -19946.85321412721, 0.04, 0.982, 0.264, 192.0, 0.0, 0.0, 0.0, 0.0, 0.0, 0.0, 0.0, 0.0, 0.0, 1.695766887943266E9, 0.0, 2023-09-26 17:21:27.943
122.0, 34781.21427073649, 50040.6608033968, -19419.195582770775, -26042.330389300634, 10866.38997392535, 9283.774707767334, -187500.02235174447, -22590.550493067563, 15056.447989517212, -27477.893528687186, 52670.36589030813, -26580.895671951257, 9641.782598707987, -23350.66626675919, -30409.39186923407, -19813.949741595956, 0.04, 0.982, 0.264, 192.0, 0.0, 0.0, 0.0, 0.0, 0.0, 0.0, 0.0, 0.0, 0.0, 1.6957668879433E9, 0.0, 2023-09-26 17:21:27.943
124.0, 34774.665209611085, 50038.71620162919, -19415.440489702283, -26039.67053171045, 10880.53862816556, 9329.506376922891, -187500.02235174447, -22545.735245434673, 15061.499483764112, -27460.19094707858, 52534.53433925323, -26575.39714281525, 9641.849653941352, -23335.087100873843, -30397.277223739296, -19958.207900310506, 0.04, 0.982, 0.264, 192.0, 0.0, 0.0, 0.0, 0.0, 0.0, 0.0, 0.0, 0.0, 0.0, 1.695766887943304E9, 0.0, 2023-09-26 17:21:27.943
126.0, 34781.996581792424, 50034.78229460506, -19405.449259930763, -26041.995113133802, 10870.234473971663, 9295.531725350826, -187500.02235174447, -22580.76042899614, 15061.097152363916, -27459.453339511558, 52650.36107902063, -26581.74503824056, 9646.699982488153, -23338.506917775503, -30399.60180516265, -19830.802956915257, 0.04, 0.982, 0.264, 192.0, 0.0, 0.0, 0.0, 0.0, 0.0, 0.0, 0.0, 0.0, 0.0, 1.695766887943307E9, 0.0, 2023-09-26 17:21:27.943
128.0, 34778.934392802046, 50034.02233529357, -19402.185905240287, -26037.50241249829, 10876.492962419148, 9320.297458207306, -187500.02235174447, -22558.073408374003, 15070.037850146038, -27455.988819120983, 52524.94544088191, -26585.343669097863, 9644.844787698363, -23334.483603773548, -30395.73495337188, -19962.454731757014, 0.038, 0.982, 0.266, 192.0, 0.5, 24.0, 15.0, 88.0, 4.0, 40.0, 0.0, 0.0, 0.0, 1.695766887943311E9, 0.0, 2023-09-26 17:21:27.943
130.0, 34791.04903829683, 50047.701602900226, -19400.26365521713, -26038.463537509866, 10856.398744153828, 9304.785347555322, -187500.02235174447, -22594.70791753625, 15062.035925631038, -27455.854708654253, 52659.90527390305, -26579.10753239483, 9644.10718013134, -23338.149289864217, -30406.866122110623, -19813.078023562197, 0.038, 0.982, 0.266, 192.0, 0.0, 0.0, 0.0, 0.0, 0.0, 0.0, 0.0, 0.0, 0.0, 1.695766887943314E9, 0.0, 2023-09-26 17:21:27.943
132.0, 34799.05096281182, 50057.066983827, -19395.32391969251, -26032.406214762475, 10862.34430817894, 9297.11869920715, -187500.02235174447, -22572.62439401441, 15076.855132204908, -27441.90722011414, 52561.132915155045, -26569.78685495697, 9635.94879340515, -23325.47585075806, -30406.195569776963, -19920.880487070142, 0.038, 0.982, 0.266, 192.0, 0.0, 0.0, 0.0, 0.0, 0.0, 0.0, 0.0, 0.0, 0.0, 1.695766887943317E9, 0.0, 2023-09-26 17:21:27.943
134.0, 34807.32110826029, 50065.27007404209, -19386.8749602884, -26035.87073515305, 10871.8661513169, 9306.88641153412, -187500.02235174447, -22575.261899860132, 15078.486809550144, -27437.883906112183, 52636.212424780424, -26561.293192063953, 9649.940985434174, -23331.04143512743, -30394.662069638023, -19840.816538431234, 0.038, 0.982, 0.266, 192.0, 0.0, 0.0, 0.0, 0.0, 0.0, 0.0, 0.0, 0.0, 0.0, 1.69576688794332E9, 0.0, 2023-09-26 17:21:27.943
136.0, 34797.106361044214, 50052.70839365821, -19378.493056117662, -26034.283761296723, 10885.835991601467, 9290.860210759665, -187500.02235174447, -22567.3270305785, 15085.304091609014, -27439.11325205723, 52547.140723126024, -26569.853910190333, 9652.422029068712, -23328.918019404176, -30378.43470316347, -19942.539327447335, 0.038, 0.982, 0.266, 192.0, 0.0, 0.0, 0.0, 0.0, 0.0, 0.0, 0.0, 0.0, 0.0, 1.695766888002001E9, 0.0, 2023-09-26 17:21:28.002
138.0, 34803.968346591995, 50057.134039060365, -19387.858437044437, -26041.1457468445, 10876.805886841523, 9323.873737320155, -187500.02235174447, -22572.892614947872, 15077.07864964946, -27451.786691163386, 52629.931584588485, -26572.91609918071, 9660.513360561534, -23334.7071212181, -30384.872005566598, -19846.248012333872, 0.046, 0.978, 0.276, 192.0, 0.5, 56.0, 15.0, 72.0, 4.0, 80.0, 0.0, 0.0, 0.0, 1.695766888002014E9, 0.0, 2023-09-26 17:21:28.002
140.0, 34797.48634069996, 50044.61706216539, -19397.045004015567, -26045.90666841348, 10869.027479771075, 9276.577446052725, -187500.02235174447, -22591.3328041235, 15082.398364829824, -27456.681723199097, 52592.35830215911, -26579.576919028394, 9646.834092954885, -23339.378635809262, -30398.998308062353, -19895.690071069013, 0.046, 0.978, 0.276, 192.0, 0.0, 0.0, 0.0, 0.0, 0.0, 0.0, 0.0, 0.0, 0.0, 1.695766888002018E9, 0.0, 2023-09-26 17:21:28.002
142.0, 34811.165608306605, 50067.549951976536, -19392.999338269157, -26038.329427043132, 10878.459915931215, 9326.175966999052, -187500.02235174447, -22569.33868757948, 15080.923149695773, -27449.886792884685, 52632.65849741203, -26572.826692202892, 9656.311232603935, -23337.322275319373, -30394.706773126934, -19846.426826289517, 0.046, 0.978, 0.276, 192.0, 0.0, 0.0, 0.0, 0.0, 0.0, 0.0, 0.0, 0.0, 0.0, 1.695766888002021E9, 0.0, 2023-09-26 17:21:28.002
144.0, 34819.10047758824, 50058.34103326095, -19388.864265544926, -26033.43439500742, 10877.118811263897, 9269.044908171285, -187500.02235174447, -22586.57188255452, 15088.925074210772, -27448.299819028358, 52618.867471083104, -26568.40104680074, 9650.164502878726, -23334.081272373354, -30392.940985314966, -19872.868939980144, 0.046, 0.978, 0.276, 192.0, 0.0, 0.0, 0.0, 0.0, 0.0, 0.0, 0.0, 0.0, 0.0, 1.695766888002025E9, 0.0, 2023-09-26 17:21:28.002
146.0, 34822.43088751208, 50077.34001604796, -19391.45706790174, -26032.78619441822, 10880.62803514338, 9333.887318836132, -187500.02235174447, -22560.018010141615, 15087.896893965828, -27447.606914950244, 52622.711971129414, -26559.013314129512, 9657.428819826702, -23336.00352239651, -30391.376363203093, -19861.201329374475, 0.046, 0.978, 0.276, 192.0, 0.0, 0.0, 0.0, 0.0, 0.0, 0.0, 0.0, 0.0, 0.0, 1.695766888002028E9, 0.0, 2023-09-26 17:21:28.002
148.0, 34820.28512004437, 50056.44113498225, -19390.808867312535, -26026.259485037266, 10862.43371515676, 9265.111001147152, -187500.02235174447, -22595.065545447535, 15092.724870768176, -27440.879039869196, 52628.36696247661, -26556.532270494972, 9656.400639581758, -23330.23677232704, -30389.320002713204, -19864.196463131484, 0.042, 0.972, 0.27, 192.0, 0.5, 40.0, 15.0, 48.0, 4.0, 56.0, 0.0, 0.0, 0.0, 1.695766888002031E9, 0.0, 2023-09-26 17:21:28.002
150.0, 34820.91096888912, 50069.60631246642, -19395.32391969251, -26028.20408680488, 10880.717442121202, 9351.455789978003, -187500.02235174447, -22556.08410311748, 15086.958120698706, -27442.734234658987, 52592.17948820347, -26552.64306695975, 9660.938043706185, -23328.38157753725, -30391.286956225274, -19896.338271658216, 0.042, 0.972, 0.27, 192.0, 0.0, 0.0, 0.0, 0.0, 0.0, 0.0, 0.0, 0.0, 0.0, 1.69576688806147E9, 0.0, 2023-09-26 17:21:28.061
152.0, 34816.93235837607, 50054.65299542582, -19393.40166966935, -26034.48492699682, 10864.95946228021, 9264.97689068042, -187500.02235174447, -22609.95180725477, 15089.327405610968, -27443.024807336904, 52645.80132315175, -26561.896689164245, 9655.663032014732, -23330.750862449513, -30393.857406837633, -19845.912736167043, 0.042, 0.972, 0.27, 192.0, 0.0, 0.0, 0.0, 0.0, 0.0, 0.0, 0.0, 0.0, 0.0, 1.695766888061484E9, 0.0, 2023-09-26 17:21:28.061
154.0, 34816.91000663162, 50072.48968750116, -19394.40749816984, -26039.91640089946, 10886.01480555711, 9351.142865555628, -187500.02235174447, -22558.453388029742, 15086.13110615386, -27445.66231318263, 52578.72373804137, -26562.723703709093, 9661.04980242846, -23335.847060185322, -30393.075095781696, -19905.256617695883, 0.042, 0.972, 0.27, 192.0, 0.0, 0.0, 0.0, 0.0, 0.0, 0.0, 0.0, 0.0, 0.0, 1.695766888061489E9, 0.0, 2023-09-26 17:21:28.061
156.0, 34808.46104722751, 50054.183608792264, -19394.563960381027, -26042.464499767364, 10866.166456480796, 9266.139181392096, -187500.02235174447, -22613.72925206772, 15086.242864876136, -27447.115176572228, 52676.3338060777, -26566.568203755403, 9657.741744249075, -23338.99865615352, -30389.25294747984, -19810.127593294095, 0.042, 0.972, 0.27, 192.0, 0.0, 0.0, 0.0, 0.0, 0.0, 0.0, 0.0, 0.0, 0.0, 1.695766888061492E9, 0.0, 2023-09-26 17:21:28.061
158.0, 34808.19282629405, 50068.06404209901, -19393.669890602814, -26034.306113041177, 10893.524991694092, 9347.745400398422, -187500.02235174447, -22556.777007195593, 15079.917321195284, -27446.66814168312, 52586.05511022271, -26559.259183318518, 9658.188779138181, -23333.433071784148, -30385.475502666894, -19892.493771611902, 0.04, 0.97, 0.274, 192.0, 0.5, 32.0, 15.0, 40.0, 4.0, 72.0, 0.0, 0.0, 0.0, 1.695766888061496E9, 0.0, 2023-09-26 17:21:28.061
160.0, 34810.42800073958, 50047.65689941131, -19395.681547603792, -26040.16227008847, 10868.580444881969, 9267.12265814813, -187500.02235174447, -22609.124792709925, 15075.089344392938, -27451.4290632521, 52688.26963761683, -26570.43505554617, 9657.026488426505, -23335.981170652052, -30387.844787579157, -19785.853598815633, 0.04, 0.97, 0.274, 192.0, 0.0, 0.0, 0.0, 0.0, 0.0, 0.0, 0.0, 0.0, 0.0, 1.695766888061499E9, 0.0, 2023-09-26 17:21:28.061
162.0, 34818.496980487944, 50065.89592288684, -19386.249111443653, -26027.600589704587, 10898.397671985349, 9339.095275294218, -187500.02235174447, -22555.972344395203, 15083.98533868615, -27447.606914950244, 52555.65673776349, -26565.584726999372, 9661.742706506575, -23325.31938854687, -30379.19466247495, -19919.04764402481, 0.04, 0.97, 0.274, 192.0, 0.0, 0.0, 0.0, 0.0, 0.0, 0.0, 0.0, 0.0, 0.0, 1.695766888061503E9, 0.0, 2023-09-26 17:21:28.061
164.0, 34819.23458805497, 50055.70352741522, -19395.145105736865, -26034.417871763453, 10866.345270436439, 9276.510390819358, -187500.02235174447, -22606.487286864198, 15087.762783499096, -27441.57194394731, 52647.2765382858, -26559.14742459624, 9659.999270439062, -23331.510821760992, -30382.167444487506, -19833.529869738803, 0.04, 0.97, 0.274, 192.0, 0.0, 0.0, 0.0, 0.0, 0.0, 0.0, 0.0, 0.0, 0.0, 1.695766888061506E9, 0.0, 2023-09-26 17:21:28.061
166.0, 34817.08882058726, 50074.43428926877, -19394.0275185141, -26024.046662336194, 10887.311206735518, 9344.817321874776, -187500.02235174447, -22551.27847805959, 15085.214684631192, -27435.33580724428, 52529.70636245089, -26552.866584404303, 9654.701907003155, -23326.504031003005, -30385.78842708927, -19948.41783623908, 0.04, 0.97, 0.274, 192.0, 0.0, 0.0, 0.0, 0.0, 0.0, 0.0, 0.0, 0.0, 0.0, 1.695766888121286E9, 0.0, 2023-09-26 17:21:28.121
168.0, 34820.598044466744, 50065.515943231105, -19398.900198805357, -26024.0913658251, 10860.556168622514, 9285.115812434651, -187500.02235174447, -22592.76331576864, 15078.88914095034, -27435.089938055273, 52670.00826239685, -26550.653761703226, 9655.081886658894, -23326.28051355845, -30392.136322514576, -19800.225770500394, 0.038, 0.976, 0.274, 192.0, 0.5, 24.0, 15.0, 64.0, 4.0, 72.0, 0.0, 0.0, 0.0, 1.695766888121298E9, 0.0, 2023-09-26 17:21:28.121
170.0, 34817.69231768755, 50064.398356008336, -19400.84480057297, -26023.398461746987, 10874.034270529064, 9327.56177515528, -187500.02235174447, -22558.40868454083, 15085.751126498119, -27441.862516625228, 52545.17376961396, -26557.426340273185, 9647.81756971092, -23328.538039748437, -30400.8758545966, -19926.55783016179, 0.038, 0.976, 0.274, 192.0, 0.0, 0.0, 0.0, 0.0, 0.0, 0.0, 0.0, 0.0, 0.0, 1.695766888121302E9, 0.0, 2023-09-26 17:21:28.121
172.0, 34817.08882058726, 50052.12724830237, -19402.476477918208, -26035.043720608202, 10862.14314247884, 9288.22270491394, -187500.02235174447, -22588.516484322132, 15086.309920109503, -27444.365912004225, 52651.6798319435, -26559.058017618423, 9655.975956437107, -23333.388368295236, -30396.405505705538, -19817.838945131178, 0.038, 0.976, 0.274, 192.0, 0.0, 0.0, 0.0, 0.0, 0.0, 0.0, 0.0, 0.0, 0.0, 1.695766888121305E9, 0.0, 2023-09-26 17:21:28.121
174.0, 34816.15004732014, 50061.738498418155, -19401.560056395538, -26031.53449672872, 10872.849628072934, 9321.41504543007, -187500.02235174447, -22563.594289254463, 15084.052393919515, -27446.064644582828, 52541.64219399002, -26563.50601476503, 9645.694153987664, -23335.66824622968, -30400.048840051753, -19937.66664715608, 0.038, 0.976, 0.274, 192.0, 0.0, 0.0, 0.0, 0.0, 0.0, 0.0, 0.0, 0.0, 0.0, 1.695766888121308E9, 0.0, 2023-09-26 17:21:28.121
176.0, 34815.41243975311, 50057.402259993825, -19402.945864551766, -26033.52380198524, 10859.57269186648, 9299.063300974763, -187500.02235174447, -22596.361946625944, 15082.42071657428, -27448.56803996182, 52663.43684952699, -26555.571145483395, 9654.120761647317, -23336.696426474624, -30400.38411621858, -19816.699006163955, 0.038, 0.976, 0.274, 192.0, 0.0, 0.0, 0.0, 0.0, 0.0, 0.0, 0.0, 0.0, 0.0, 1.695766888121312E9, 0.0, 2023-09-26 17:21:28.121
178.0, 34795.05000055433, 50040.72785863017, -19410.83603034449, -26033.926133385437, 10869.027479771075, 9319.358684940182, -187500.02235174447, -22566.61177475593, 15078.620920016876, -27454.804176664853, 52549.241787104824, -26563.193090342655, 9643.414276053223, -23336.942295663634, -30400.33941272967, -19937.644295411625, 0.046, 0.97, 0.276, 192.0, 0.5, 56.0, 15.0, 40.0, 4.0, 80.0, 0.0, 0.0, 0.0, 1.695766888121315E9, 0.0, 2023-09-26 17:21:28.121
180.0, 34794.98294532096, 50032.83769283744, -19403.12467850741, -26034.14965082999, 10882.349119466438, 9312.541402881314, -187500.02235174447, -22579.888710962383, 15066.439219288734, -27472.81968269583, 52681.13943113559, -26579.576919028394, 9650.164502878726, -23349.34751383633, -30396.04787779425, -19788.24523547235, 0.046, 0.97, 0.276, 192.0, 0.0, 0.0, 0.0, 0.0, 0.0, 0.0, 0.0, 0.0, 0.0, 1.695766888182987E9, 0.0, 2023-09-26 17:21:28.182
182.0, 34793.37361972018, 50020.52188164257, -19402.8788093184, -26041.995113133802, 10885.523067179092, 9298.12452770764, -187500.02235174447, -22569.2269288572, 15076.050469404516, -27477.3347350758, 52584.24461892183, -26587.869416221314, 9653.517264547023, -23344.541888778436, -30382.01098227632, -19888.22458842094, 0.046, 0.97, 0.276, 192.0, 0.0, 0.0, 0.0, 0.0, 0.0, 0.0, 0.0, 0.0, 0.0, 1.695766888183004E9, 0.0, 2023-09-26 17:21:28.183
184.0, 34800.57088143479, 50032.41300969279, -19394.854533058948, -26040.363435788568, 10885.567770668004, 9311.893202292109, -187500.02235174447, -22575.552472538053, 15074.105867636905, -27483.30265084537, 52649.221140053414, -26580.627451017794, 9661.720354762121, -23349.593383025334, -30383.799121832744, -19819.984712598885, 0.046, 0.97, 0.276, 192.0, 0.0, 0.0, 0.0, 0.0, 0.0, 0.0, 0.0, 0.0, 0.0, 1.695766888183008E9, 0.0, 2023-09-26 17:21:28.183
186.0, 34795.76525637689, 50029.52963465806, -19389.914797534322, -26028.80758390517, 10886.685357890769, 9291.106079948673, -187500.02235174447, -22568.869300945917, 15078.240940361136, -27474.339601318792, 52579.036662463746, -26565.517671766007, 9659.127552405305, -23343.62546725577, -30375.931307784478, -19908.341158430714, 0.046, 0.97, 0.276, 192.0, 0.0, 0.0, 0.0, 0.0, 0.0, 0.0, 0.0, 0.0, 0.0, 1.695766888183011E9, 0.0, 2023-09-26 17:21:28.183
188.0, 34785.68461962755, 50033.62000389338, -19404.89046631938, -26040.76576718876, 10883.377299711383, 9336.61423165968, -187500.02235174447, -22560.26387933062, 15070.551940268511, -27475.211319352547, 52650.539892976274, -26560.35441879683, 9660.848636728364, -23344.944220178633, -30384.73789509987, -19827.71841618042, 0.048, 0.972, 0.272, 192.0, 0.5, 64.0, 15.0, 48.0, 4.0, 64.0, 0.0, 0.0, 0.0, 1.695766888183016E9, 0.0, 2023-09-26 17:21:28.183
190.0, 34777.79445383483, 50015.40333216231, -19395.45803015924, -26032.741490929307, 10885.05368054553, 9279.282007131816, -187500.02235174447, -22575.66423126033, 15066.483922777645, -27473.043200140382, 52640.5263114603, -26574.72659048159, 9648.845749955863, -23345.547717278925, -30389.789389346766, -19844.63868673309, 0.048, 0.972, 0.272, 192.0, 0.0, 0.0, 0.0, 0.0, 0.0, 0.0, 0.0, 0.0, 0.0, 1.695766888183019E9, 0.0, 2023-09-26 17:21:28.183
192.0, 34778.62146837967, 50024.969878789176, -19399.21312322773, -26034.037892107714, 10893.949674838743, 9341.218691017471, -187500.02235174447, -22552.08314085998, 15070.84251294643, -27468.796368693875, 52636.905328858535, -26572.334953824873, 9665.654261786254, -23337.545792763925, -30382.569775887703, -19842.850547176666, 0.048, 0.972, 0.272, 192.0, 0.0, 0.0, 0.0, 0.0, 0.0, 0.0, 0.0, 0.0, 0.0, 1.695766888183022E9, 0.0, 2023-09-26 17:21:28.183
194.0, 34775.156947989104, 50009.77069255957, -19400.777745339605, -26029.947522872393, 10871.843799572445, 9281.919512977543, -187500.02235174447, -22582.682679019294, 15076.944539182728, -27466.136511103694, 52636.68181141398, -26570.54681426845, 9655.595976781366, -23336.227039841062, -30388.761209101824, -19854.74167522689, 0.048, 0.972, 0.272, 192.0, 0.0, 0.0, 0.0, 0.0, 0.0, 0.0, 0.0, 0.0, 0.0, 1.695766888183026E9, 0.0, 2023-09-26 17:21:28.183
196.0, 34778.35324744621, 50030.200186991715, -19401.716518606725, -26024.001958847282, 10880.560979910015, 9350.762885899889, -187500.02235174447, -22552.060789115523, 15066.573329755465, -27473.222014096023, 52640.66042192703, -26565.048285132445, 9654.299575602958, -23342.731397477557, -30400.78644761878, -19843.45404427696, 0.048, 0.972, 0.272, 192.0, 0.0, 0.0, 0.0, 0.0, 0.0, 0.0, 0.0, 0.0, 0.0, 1.695766888241834E9, 0.0, 2023-09-26 17:21:28.241
198.0, 34769.993695019926, 50004.763901801576, -19396.08387900399, -26026.77357515974, 10867.328747192472, 9273.381146595615, -187500.02235174447, -22582.66032727484, 15073.636481003343, -27465.980048892507, 52669.002433896356, -26562.276668819984, 9651.237386612582, -23334.125975862262, -30395.354973716137, -19822.73397716689, 0.038, 0.974, 0.268, 192.0, 0.5, 24.0, 15.0, 56.0, 4.0, 48.0, 0.0, 0.0, 0.0, 1.695766888241846E9, 0.0, 2023-09-26 17:21:28.241
200.0, 34753.453404123, 50002.64048607832, -19400.107193005944, -26039.71523519936, 10885.232494501173, 9349.287670765838, -187500.02235174447, -22543.678884944784, 15069.188483856737, -27478.54172927639, 52603.75769183132, -26576.40297131574, 9655.595976781366, -23342.262010843995, -30393.67859288199, -19885.095344197198, 0.038, 0.974, 0.268, 192.0, 0.0, 0.0, 0.0, 0.0, 0.0, 0.0, 0.0, 0.0, 0.0, 1.69576688824185E9, 0.0, 2023-09-26 17:21:28.241
202.0, 34739.10358418269, 49974.901971209285, -19398.386108682884, -26040.564601488662, 10874.123677506886, 9267.279120359317, -187500.02235174447, -22589.142333166878, 15063.399382042811, -27484.934328190608, 52666.05200362826, -26601.995718717066, 9653.204340124648, -23343.893688189233, -30388.090656768163, -19823.605695200647, 0.038, 0.974, 0.268, 192.0, 0.0, 0.0, 0.0, 0.0, 0.0, 0.0, 0.0, 0.0, 0.0, 1.695766888241853E9, 0.0, 2023-09-26 17:21:28.241
204.0, 34738.656549293584, 49992.671608051256, -19396.08387900399, -26037.547115987196, 10900.834012130977, 9347.767752142878, -187500.02235174447, -22538.22505929769, 15057.051486617505, -27488.15297939217, 52584.98222648886, -26598.03945994848, 9657.697040760166, -23342.597287010823, -30382.748589843344, -19894.12544895714, 0.038, 0.974, 0.268, 192.0, 0.0, 0.0, 0.0, 0.0, 0.0, 0.0, 0.0, 0.0, 0.0, 1.695766888241857E9, 0.0, 2023-09-26 17:21:28.241
206.0, 34740.15411617209, 49973.20323863068, -19396.910893548837, -26035.91543864196, 10874.838933329456, 9264.082820902207, -187500.02235174447, -22594.61851055843, 15060.918338408273, -27487.59418578079, 52669.069489129724, -26590.79749474496, 9654.612500025332, -23342.507880033005, -30386.19075848946, -19812.943913095467, 0.038, 0.974, 0.268, 192.0, 0.0, 0.0, 0.0, 0.0, 0.0, 0.0, 0.0, 0.0, 0.0, 1.69576688824186E9, 0.0, 2023-09-26 17:21:28.241
208.0, 34729.42527883354, 49984.71438702517, -19402.007091284646, -26035.289589797212, 10893.860267860922, 9344.727914896956, -187500.02235174447, -22537.398044752845, 15053.899890649307, -27493.71856376154, 52562.384612844544, -26587.757657499034, 9650.946813934663, -23345.547717278925, -30386.7719038453, -19921.41692893707, 0.04, 0.978, 0.27, 192.0, 0.5, 32.0, 15.0, 72.0, 4.0, 56.0, 0.0, 0.0, 0.0, 1.695766888241863E9, 0.0, 2023-09-26 17:21:28.241
210.0, 34720.88691245162, 49953.66781397675, -19399.257826716643, -26042.48685151182, 10877.364680452905, 9267.010899425853, -187500.02235174447, -22586.527179065608, 15052.044695859517, -27496.02079344044, 52682.72640499192, -26593.099724423853, 9649.605709267344, -23350.66626675919, -30388.358877701627, -19802.773869368302, 0.04, 0.978, 0.27, 192.0, 0.0, 0.0, 0.0, 0.0, 0.0, 0.0, 0.0, 0.0, 0.0, 1.695766888302046E9, 0.0, 2023-09-26 17:21:28.302
212.0, 34711.65564199157, 49954.0924971214, -19409.092594276975, -26051.740473716316, 10883.757279367122, 9325.348952454204, -187500.02235174447, -22549.35622803643, 15052.6034894709, -27512.02464247044, 52560.06003142119, -26606.130791441297, 9652.779656979998, -23360.165758152696, -30387.19658698995, -19925.37318770566, 0.04, 0.978, 0.27, 192.0, 0.0, 0.0, 0.0, 0.0, 0.0, 0.0, 0.0, 0.0, 0.0, 1.69576688830206E9, 0.0, 2023-09-26 17:21:28.302
214.0, 34696.70232495097, 49935.831121901414, -19415.84282110248, -26058.781273219738, 10858.477456388171, 9262.473495301425, -187500.02235174447, -22605.32499615252, 15044.78037891154, -27514.25981691597, 52678.18900086749, -26611.11523045483, 9647.884624944285, -23364.032609943464, -30401.725220885903, -19806.35014848115, 0.04, 0.978, 0.27, 192.0, 0.0, 0.0, 0.0, 0.0, 0.0, 0.0, 0.0, 0.0, 0.0, 1.695766888302064E9, 0.0, 2023-09-26 17:21:28.302
216.0, 34694.82477841673, 49947.69989820718, -19415.485193191194, -26047.136014358523, 10879.063413031508, 9317.436434917026, -187500.02235174447, -22554.810053683526, 15042.746370166109, -27518.707814062574, 52550.985223172334, -26605.21436991863, 9641.24615684106, -23362.24447038704, -30402.39577321956, -19934.8056238658, 0.04, 0.978, 0.27, 192.0, 0.0, 0.0, 0.0, 0.0, 0.0, 0.0, 0.0, 0.0, 0.0, 1.695766888302067E9, 0.0, 2023-09-26 17:21:28.302
218.0, 34673.88119386211, 49911.46772044513, -19422.146013038877, -26055.942601673916, 10856.443447642738, 9260.774762722822, -187500.02235174447, -22609.2365514322, 15039.684181175731, -27524.988654254517, 52669.494172274375, -26605.348480385364, 9643.213110353126, -23361.082179675363, -30405.189741276474, -19815.089680563175, 0.046, 0.978, 0.27, 192.0, 0.5, 56.0, 15.0, 72.0, 4.0, 56.0, 0.0, 0.0, 0.0, 1.69576688830207E9, 0.0, 2023-09-26 17:21:28.302
220.0, 34640.53239113479, 49887.84192655587, -19429.16446079784, -26064.01158142228, 10864.57948262447, 9300.002074241886, -187500.02235174447, -22577.98881268368, 15030.363503737868, -27543.49589866351, 52529.63930721752, -26628.84016380789, 9634.384171293279, -23361.842138986845, -30412.699927413458, -19957.17972006556, 0.046, 0.978, 0.27, 192.0, 0.0, 0.0, 0.0, 0.0, 0.0, 0.0, 0.0, 0.0, 0.0, 1.695766888302074E9, 0.0, 2023-09-26 17:21:28.302
222.0, 34623.522713604296, 49859.16463841971, -19430.349103253975, -26070.53829080323, 10856.421095898282, 9264.55220753577, -187500.02235174447, -22603.80507752956, 15023.725035634643, -27561.913736094684, 52654.92083488951, -26647.258001239064, 9642.475502786101, -23380.34938339584, -30411.67174716851, -19817.838945131178, 0.046, 0.978, 0.27, 192.0, 0.0, 0.0, 0.0, 0.0, 0.0, 0.0, 0.0, 0.0, 0.0, 1.695766888302077E9, 0.0, 2023-09-26 17:21:28.302
224.0, 34603.808474994716, 49844.79246673494, -19431.779614899115, -26068.034895424236, 10869.385107682361, 9295.26350441736, -187500.02235174447, -22567.349382322955, 15020.036997799516, -27563.746579140017, 52527.515891494266, -26651.8401088524, 9635.635868982778, -23376.169607182695, -30403.535712186782, -19944.148653048116, 0.046, 0.978, 0.27, 192.0, 0.0, 0.0, 0.0, 0.0, 0.0, 0.0, 0.0, 0.0, 0.0, 1.69576688830208E9, 0.0, 2023-09-26 17:21:28.302
226.0, 34588.631640509564, 49830.24148109454, -19433.724216666727, -26074.941584460925, 10861.830218056468, 9284.199390911985, -187500.02235174447, -22590.997527956668, 15008.145869749293, -27573.760160655995, 52652.99858486636, -26650.677818140724, 9637.245194583558, -23381.690488063155, -30401.300537741252, -19804.182029268984, 0.046, 0.978, 0.27, 192.0, 0.0, 0.0, 0.0, 0.0, 0.0, 0.0, 0.0, 0.0, 0.0, 1.695766888361499E9, 0.0, 2023-09-26 17:21:28.361
228.0, 34578.23807933785, 49819.82556817837, -19436.85346089047, -26068.72779950235, 10861.897273289833, 9281.159553666062, -187500.02235174447, -22578.257033617145, 15009.77754709453, -27580.018649103484, 52554.87442670756, -26651.504832685572, 9625.465825255613, -23384.886787520267, -30407.49197095537, -19908.385861919625, 0.044, 0.974, 0.272, 192.0, 0.5, 48.0, 15.0, 56.0, 4.0, 64.0, 0.0, 0.0, 0.0, 1.695766888361511E9, 0.0, 2023-09-26 17:21:28.361
230.0, 34554.947561615416, 49798.390245245726, -19437.926344624324, -26071.38765709253, 10858.276290688073, 9293.83299277222, -187500.02235174447, -22587.018917443624, 14995.427727154223, -27591.619204475788, 52639.0734480707, -26650.85663209637, 9633.28893581497, -23384.327993908882, -30409.749497145356, -19810.552276438746, 0.044, 0.974, 0.272, 192.0, 0.0, 0.0, 0.0, 0.0, 0.0, 0.0, 0.0, 0.0, 0.0, 1.695766888361515E9, 0.0, 2023-09-26 17:21:28.361
232.0, 34540.15070678601, 49773.17747750014, -19435.065321334045, -26067.63256402404, 10873.520180406593, 9276.778611752821, -187500.02235174447, -22574.345478337465, 14996.321796932436, -27601.923358669683, 52551.36520282808, -26670.883795128324, 9631.254927069536, -23378.471836861594, -30400.92055808551, -19897.58996934771, 0.044, 0.974, 0.272, 192.0, 0.0, 0.0, 0.0, 0.0, 0.0, 0.0, 0.0, 0.0, 0.0, 1.695766888361518E9, 0.0, 2023-09-26 17:21:28.361
234.0, 34524.035099033725, 49762.113363994766, -19442.731969682216, -26082.049439197715, 10870.39093618285, 9299.711501563967, -187500.02235174447, -22584.292004620078, 14994.399546909279, -27608.874751195282, 52589.45257537992, -26679.66803069926, 9645.604747009844, -23382.986889241565, -30402.06049705273, -19844.236355332894, 0.044, 0.974, 0.272, 192.0, 0.0, 0.0, 0.0, 0.0, 0.0, 0.0, 0.0, 0.0, 0.0, 1.695766888361521E9, 0.0, 2023-09-26 17:21:28.361
236.0, 34512.523950639246, 49745.953052753575, -19448.833995918514, -26088.553796834207, 10862.880750045866, 9258.561940021747, -187500.02235174447, -22589.99169945618, 14993.237256197603, -27613.03217566397, 52510.55091745269, -26694.531940762037, 9635.613517238322, -23385.57969159838, -30407.089639555175, -19931.18464126404, 0.044, 0.974, 0.272, 192.0, 0.0, 0.0, 0.0, 0.0, 0.0, 0.0, 0.0, 0.0, 0.0, 1.695766888361525E9, 0.0, 2023-09-26 17:21:28.361
238.0, 34506.913662780964, 49756.68189009213, -19455.360705299463, -26093.247663169823, 10859.259767444108, 9307.087577234219, -187500.02235174447, -22583.643804030875, 14979.5356368465, -27620.341196100857, 52550.69465049442, -26687.75936219208, 9635.032371882484, -23398.25313070454, -30418.287863527283, -19877.540454571303, 0.042, 0.976, 0.268, 192.0, 0.5, 40.0, 15.0, 64.0, 4.0, 48.0, 0.0, 0.0, 0.0, 1.695766888361528E9, 0.0, 2023-09-26 17:21:28.361
240.0, 34512.03221226123, 49747.60708184327, -19438.999228358178, -26074.382790849544, 10861.137313978352, 9246.760218949345, -187500.02235174447, -22603.827429274017, 14981.703756058665, -27619.60358853383, 52542.82683644615, -26683.803103423492, 9625.6222874668, -23393.849837046844, -30414.01868033632, -19892.60553033418, 0.042, 0.976, 0.268, 192.0, 0.0, 0.0, 0.0, 0.0, 0.0, 0.0, 0.0, 0.0, 0.0, 1.695766888422745E9, 0.0, 2023-09-26 17:21:28.422
242.0, 34494.57549984163, 49750.80338130038, -19443.290763293597, -26080.3060031302, 10873.833104828967, 9324.65604837609, -187500.02235174447, -22567.170568367314, 14976.540503089489, -27624.386861847266, 52545.84432194762, -26678.23751905412, 9633.311287559425, -23391.368793412305, -30401.63581390808, -19878.970966216442, 0.042, 0.976, 0.268, 192.0, 0.0, 0.0, 0.0, 0.0, 0.0, 0.0, 0.0, 0.0, 0.0, 1.69576688842276E9, 0.0, 2023-09-26 17:21:28.422
244.0, 34484.271345647736, 49726.61879379974, -19446.554117984073, -26086.855064255604, 10860.846741300433, 9254.650384742068, -187500.02235174447, -22596.60781581495, 14971.44430535368, -27632.187620662167, 52560.73058375485, -26691.872083171857, 9626.494005500557, -23392.665194590714, -30401.45699995244, -19866.923375955033, 0.042, 0.976, 0.268, 192.0, 0.0, 0.0, 0.0, 0.0, 0.0, 0.0, 0.0, 0.0, 0.0, 1.695766888422763E9, 0.0, 2023-09-26 17:21:28.422
246.0, 34488.07114220514, 49737.61585207175, -19447.023504617635, -26088.956128234404, 10877.632901386369, 9321.750321596899, -187500.02235174447, -22569.584556768485, 14966.973956462618, -27641.75416728904, 52544.212644602376, -26696.968280907666, 9628.125682845794, -23400.91298829472, -30408.609558178137, -19871.30431786827, 0.042, 0.976, 0.268, 192.0, 0.0, 0.0, 0.0, 0.0, 0.0, 0.0, 0.0, 0.0, 0.0, 1.695766888422767E9, 0.0, 2023-09-26 17:21:28.422
248.0, 34491.26744166225, 49725.72472402152, -19440.541498725594, -26082.585881064642, 10868.714555348703, 9243.005125880853, -187500.02235174447, -22604.47562986322, 14980.5861688359, -27631.360606117323, 52565.469153579375, -26688.876949414844, 9631.634906725278, -23391.458200390127, -30397.232520250385, -19855.30046883827, 0.05, 0.97, 0.27, 192.0, 0.5, 72.0, 15.0, 40.0, 4.0, 56.0, 0.0, 0.0, 0.0, 1.69576688842277E9, 0.0, 2023-09-26 17:21:28.422
250.0, 34494.4413893749, 49743.62847133022, -19446.867042406448, -26082.407067108998, 10878.504619420126, 9321.213879729972, -187500.02235174447, -22561.873204931406, 14974.618253066332, -27633.238152651567, 52491.2390102433, -26679.399809765793, 9632.730142203587, -23394.25216844704, -30401.300537741252, -19926.736644117434, 0.05, 0.97, 0.27, 192.0, 0.0, 0.0, 0.0, 0.0, 0.0, 0.0, 0.0, 0.0, 0.0, 1.695766888422773E9, 0.0, 2023-09-26 17:21:28.422
252.0, 34496.65421207598, 49735.44773285958, -19442.016713859644, -26076.997944950814, 10865.585311124958, 9243.429809025503, -187500.02235174447, -22605.928493252813, 14980.452058369168, -27629.550114816444, 52562.36226110009, -26676.672896942247, 9630.405560780235, -23390.85470328983, -30402.485180197382, -19856.97684967242, 0.05, 0.97, 0.27, 192.0, 0.0, 0.0, 0.0, 0.0, 0.0, 0.0, 0.0, 0.0, 0.0, 1.695766888422777E9, 0.0, 2023-09-26 17:21:28.422
254.0, 34484.964249725854, 49743.22613993003, -19453.572565743038, -26085.491607843833, 10877.543494408548, 9330.914536823575, -187500.02235174447, -22558.900422918847, 14967.10806692935, -27632.07586193989, 52476.553914136166, -26677.678725442736, 9630.182043335682, -23394.38627891377, -30404.29567149826, -19939.74535939042, 0.05, 0.97, 0.27, 192.0, 0.0, 0.0, 0.0, 0.0, 0.0, 0.0, 0.0, 0.0, 0.0, 1.69576688842278E9, 0.0, 2023-09-26 17:21:28.422
0.0, 34480.3374386236, 49723.33308736481, -19452.65614422037, -26090.341936390632, 10861.070258744987, 9248.011916638841, -187500.02235174447, -22621.977045771724, 14968.829151252408, -27638.28964689847, 52592.02302599228, -26688.631080225838, 9627.276316556492, -23400.242435961063, -30408.117819800118, -19824.790337656777, 0.05, 0.97, 0.27, 192.0, 0.0, 0.0, 0.0, 0.0, 0.0, 0.0, 0.0, 0.0, 0.0, 1.695766888481521E9, 0.0, 2023-09-26 17:21:28.481
2.0, 34472.1343484085, 49726.305869377364, -19453.70667620977, -26089.224349167867, 10881.902084577332, 9328.232327488939, -187500.02235174447, -22562.36494330942, 14963.621194794321, -27640.793042277463, 52482.67829211692, -26692.14030410532, 9630.249098569047, -23397.649633604247, -30404.385078476083, -19932.57044942027, 0.05, 0.968, 0.272, 192.0, 0.5, 72.0, 15.0, 32.0, 4.0, 64.0, 0.0, 0.0, 0.0, 1.695766888481533E9, 0.0, 2023-09-26 17:21:28.481
4.0, 34478.57165081163, 49714.52650004942, -19447.962277884755, -26085.625718310563, 10863.551302379527, 9258.114905132641, -187500.02235174447, -22612.03051948911, 14968.5832820634, -27641.530649844488, 52602.32718018618, -26699.38226930884, 9634.674743971198, -23394.922720780698, -30404.474485453906, -19815.737881152378, 0.05, 0.968, 0.272, 192.0, 0.0, 0.0, 0.0, 0.0, 0.0, 0.0, 0.0, 0.0, 0.0, 1.695766888481536E9, 0.0, 2023-09-26 17:21:28.481
6.0, 34484.338400881104, 49734.26309040345, -19442.70961793776, -26074.941584460925, 10888.361738724916, 9331.786254857332, -187500.02235174447, -22554.89946066135, 14964.939947717185, -27631.71823402861, 52477.35857693655, -26686.909995902777, 9641.693191730164, -23383.590386341857, -30395.422028949506, -19944.349818748215, 0.05, 0.968, 0.272, 192.0, 0.0, 0.0, 0.0, 0.0, 0.0, 0.0, 0.0, 0.0, 0.0, 1.695766888481539E9, 0.0, 2023-09-26 17:21:28.481
8.0, 34494.06140971916, 49727.66932578914, -19455.04778087709, -26091.325413146667, 10873.184904239763, 9267.994376181887, -187500.02235174447, -22608.543647354087, 14967.085715184894, -27631.427661350688, 52599.17558421798, -26686.462961013673, 9644.822435953909, -23383.992717742054, -30396.8748923391, -19822.890439378076, 0.05, 0.968, 0.272, 192.0, 0.0, 0.0, 0.0, 0.0, 0.0, 0.0, 0.0, 0.0, 0.0, 1.695766888481543E9, 0.0, 2023-09-26 17:21:28.481
10.0, 34490.149854439485, 49747.160046954166, -19461.574490258037, -26089.06788695668, 10877.968177553199, 9318.84459481771, -187500.02235174447, -22569.65161200185, 14972.15956117625, -27631.04768169495, 52484.377024695525, -26692.497932016606, 9638.563947506422, -23390.29590967845, -30405.368555232115, -19940.550022190815, 0.05, 0.968, 0.272, 192.0, 0.0, 0.0, 0.0, 0.0, 0.0, 0.0, 0.0, 0.0, 0.0, 1.695766888481546E9, 0.0, 2023-09-26 17:21:28.481
12.0, 34500.78928480021, 49752.122134223246, -19458.691115223304, -26092.063020713693, 10860.980851767166, 9268.955501193464, -187500.02235174447, -22602.37456588442, 14962.503607571556, -27627.31494037091, 52622.443750195955, -26690.150998848796, 9645.96237492113, -23393.000470757543, -30408.475447711404, -19794.21315124192, 0.05, 0.966, 0.272, 192.0, 0.5, 72.0, 15.0, 24.0, 4.0, 64.0, 0.0, 0.0, 0.0, 1.695766888481549E9, 0.0, 2023-09-26 17:21:28.481
14.0, 34514.468552406855, 49771.545800154905, -19457.819397189545, -26087.793837522728, 10868.446334415237, 9298.236286429918, -187500.02235174447, -22571.70797249174, 14980.720279302632, -27612.495733797045, 52486.120460763035, -26680.13741733282, 9643.011944653028, -23391.7711248125, -30406.866122110623, -19936.213783766485, 0.05, 0.966, 0.272, 192.0, 0.0, 0.0, 0.0, 0.0, 0.0, 0.0, 0.0, 0.0, 0.0, 1.695766888541838E9, 0.0, 2023-09-26 17:21:28.541
16.0, 34524.526837411744, 49775.50205892349, -19455.51716751065, -26085.133979932547, 10858.119828476885, 9270.050736671774, -187500.02235174447, -22607.56017059805, 14980.116782202338, -27610.238207607057, 52617.14638676005, -26673.141321318308, 9645.00124990955, -23396.6214533593, -30409.30246225625, -19792.492066918858, 0.05, 0.966, 0.272, 192.0, 0.0, 0.0, 0.0, 0.0, 0.0, 0.0, 0.0, 0.0, 0.0, 1.695766888541851E9, 0.0, 2023-09-26 17:21:28.541
18.0, 34531.232360748334, 49782.14052702672, -19448.029333118124, -26073.555776304696, 10870.346232693939, 9285.786364768312, -187500.02235174447, -22579.285213862087, 14989.280997429014, -27599.08468712386, 52491.797803854686, -26662.814815379956, 9637.401656794746, -23388.01603174401, -30408.40839247804, -19932.54809767581, 0.05, 0.966, 0.272, 192.0, 0.0, 0.0, 0.0, 0.0, 0.0, 0.0, 0.0, 0.0, 0.0, 1.695766888541855E9, 0.0, 2023-09-26 17:21:28.541
20.0, 34547.12445105606, 49793.58462018784, -19444.721274938736, -26070.78415999224, 10864.892407046844, 9290.36847238165, -187500.02235174447, -22590.930472723303, 14985.347090404879, -27594.32376555488, 52594.92875277147, -26655.08111179842, 9646.722334232609, -23385.892616020756, -30403.893340098068, -19828.098395836165, 0.05, 0.966, 0.272, 192.0, 0.0, 0.0, 0.0, 0.0, 0.0, 0.0, 0.0, 0.0, 0.0, 1.695766888541858E9, 0.0, 2023-09-26 17:21:28.541
22.0, 34545.47042196637, 49796.020960333466, -19438.84276614699, -26057.1495958745, 10870.413287927306, 9289.049719458786, -187500.02235174447, -22578.480551061697, 14987.314043916947, -27588.93699514115, 52515.60241169958, -26649.42612045123, 9635.121778860304, -23381.37756364078, -30400.76409587432, -19918.578257391247, 0.05, 0.97, 0.274, 192.0, 0.5, 72.0, 15.0, 40.0, 4.0, 72.0, 0.0, 0.0, 0.0, 1.695766888541862E9, 0.0, 2023-09-26 17:21:28.541
24.0, 34559.3061517842, 49812.158919830195, -19439.558021969562, -26062.715180243875, 10861.830218056468, 9302.281952176327, -187500.02235174447, -22591.71278377924, 14984.318910159936, -27590.4122102752, 52604.78587207626, -26644.151108759776, 9641.29086032997, -23380.662307818213, -30397.388982461573, -19820.92348586601, 0.05, 0.97, 0.274, 192.0, 0.0, 0.0, 0.0, 0.0, 0.0, 0.0, 0.0, 0.0, 0.0, 1.695766888541865E9, 0.0, 2023-09-26 17:21:28.541
26.0, 34563.7094454419, 49811.443664007624, -19433.411292244353, -26060.368247076065, 10873.721346106691, 9275.728079763423, -187500.02235174447, -22581.542740052075, 14992.96903526414, -27582.723210182576, 52525.07955134864, -26652.42125420824, 9637.356953305836, -23379.20944442862, -30397.54544467276, -19911.246885209905, 0.05, 0.97, 0.274, 192.0, 0.0, 0.0, 0.0, 0.0, 0.0, 0.0, 0.0, 0.0, 0.0, 1.695766888541868E9, 0.0, 2023-09-26 17:21:28.541
28.0, 34575.75703570331, 49830.755571217014, -19441.03323710361, -26068.169005890966, 10879.264578731607, 9320.498623907402, -187500.02235174447, -22562.811978198526, 14986.53173286101, -27580.912718881693, 52582.07649970967, -26648.196774506185, 9647.638755755277, -23378.985926984064, -30393.097447526154, -19842.224698331916, 0.05, 0.97, 0.274, 192.0, 0.0, 0.0, 0.0, 0.0, 0.0, 0.0, 0.0, 0.0, 0.0, 1.695766888541872E9, 0.0, 2023-09-26 17:21:28.541
30.0, 34576.31582931469, 49821.881928668256, -19440.161519069854, -26060.234136609335, 10870.167418738296, 9283.484135089415, -187500.02235174447, -22568.89165269037, 14990.219770696136, -27571.189710043636, 52548.5041795378, -26647.615629150347, 9637.938098661674, -23371.207519913616, -30394.01386904882, -19882.726059284934, 0.05, 0.97, 0.274, 192.0, 0.0, 0.0, 0.0, 0.0, 0.0, 0.0, 0.0, 0.0, 0.0, 1.695766888602245E9, 0.0, 2023-09-26 17:21:28.602
32.0, 34596.63356502457, 49846.75942024701, -19442.351990026473, -26063.117511644068, 10880.87390433239, 9340.36932472817, -187500.02235174447, -22551.949030393247, 14989.370404406834, -27568.64161117573, 52585.7645375448, -26641.647713380782, 9644.598918509355, -23369.53113907947, -30395.556139416236, -19839.8330616752, 0.048, 0.972, 0.274, 192.0, 0.5, 64.0, 15.0, 48.0, 4.0, 72.0, 0.0, 0.0, 0.0, 1.695766888602257E9, 0.0, 2023-09-26 17:21:28.602
34.0, 34602.73559126086, 49845.23950162405, -19438.306324280064, -26059.29536334221, 10868.871017559888, 9273.559960551258, -187500.02235174447, -22586.61658604343, 14997.282921944014, -27557.353980225802, 52582.07649970967, -26634.830431321912, 9638.631002739789, -23366.67011578919, -30397.612499906125, -19853.981715915408, 0.048, 0.972, 0.274, 192.0, 0.0, 0.0, 0.0, 0.0, 0.0, 0.0, 0.0, 0.0, 0.0, 1.695766888602261E9, 0.0, 2023-09-26 17:21:28.602
36.0, 34607.317698874205, 49868.641778068755, -19447.448187762286, -26068.750151246804, 10878.705785120224, 9337.150673526607, -187500.02235174447, -22565.94122242227, 14994.243084698091, -27555.901116836205, 52576.13093568456, -26626.582637617903, 9644.598918509355, -23366.848929744832, -30398.797142362255, -19860.26255610735, 0.048, 0.972, 0.274, 192.0, 0.0, 0.0, 0.0, 0.0, 0.0, 0.0, 0.0, 0.0, 0.0, 1.695766888602264E9, 0.0, 2023-09-26 17:21:28.602
38.0, 34613.12915243258, 49861.77979252098, -19447.64935346238, -26072.572299548665, 10877.7670118531, 9255.633861498101, -187500.02235174447, -22603.22393217372, 14994.01956725354, -27558.672733148665, 52615.89468907055, -26637.333826700906, 9639.659182984733, -23377.15308393873, -30401.904034841544, -19827.606657458145, 0.048, 0.972, 0.274, 192.0, 0.0, 0.0, 0.0, 0.0, 0.0, 0.0, 0.0, 0.0, 0.0, 1.695766888602267E9, 0.0, 2023-09-26 17:21:28.602
40.0, 34624.68500431597, 49881.62814159729, -19444.587164472006, -26069.3536483471, 10889.971064325699, 9333.864967091677, -187500.02235174447, -22557.17933859579, 14993.438421897701, -27559.74561688252, 52577.06970895168, -26633.623437121325, 9648.108142388839, -23377.756581039022, -30395.77965686079, -19855.814558960745, 0.048, 0.972, 0.274, 192.0, 0.0, 0.0, 0.0, 0.0, 0.0, 0.0, 0.0, 0.0, 0.0, 1.695766888602271E9, 0.0, 2023-09-26 17:21:28.602
42.0, 34628.73067006239, 49867.25596991253, -19438.127510324422, -26063.58689827763, 10879.644558387346, 9262.607605768157, -187500.02235174447, -22596.47370534822, 15005.843640070396, -27552.995390057014, 52617.30284897123, -26636.730329600614, 9649.449247056156, -23370.76048502451, -30392.62806089259, -19821.996369599863, 0.042, 0.974, 0.274, 192.0, 0.5, 40.0, 15.0, 56.0, 4.0, 72.0, 0.0, 0.0, 0.0, 1.695766888602274E9, 0.0, 2023-09-26 17:21:28.602
44.0, 34637.69371958896, 49900.71653136212, -19437.1887370573, -26053.640371995018, 10890.909837592822, 9352.059287078297, -187500.02235174447, -22544.908230889825, 15002.669692357744, -27547.250991732002, 52545.08436263614, -26629.354253930363, 9654.925424447707, -23368.033572200966, -30390.39288644706, -19890.41505937756, 0.042, 0.974, 0.274, 192.0, 0.0, 0.0, 0.0, 0.0, 0.0, 0.0, 0.0, 0.0, 0.0, 1.695766888661514E9, 0.0, 2023-09-26 17:21:28.661
46.0, 34653.8316790857, 49902.37056045182, -19424.26942876213, -26042.553906745186, 10875.062450774009, 9285.004053712375, -187500.02235174447, -22578.502902806154, 15007.072986015439, -27529.50370663449, 52655.792552923274, -26607.87422750881, 9655.260700614537, -23357.37179009578, -30390.7728661028, -19784.53484589277, 0.042, 0.974, 0.274, 192.0, 0.0, 0.0, 0.0, 0.0, 0.0, 0.0, 0.0, 0.0, 0.0, 1.695766888661527E9, 0.0, 2023-09-26 17:21:28.661
48.0, 34664.694626890974, 49939.49680799208, -19416.200449013766, -26028.226438549333, 10902.175116798297, 9366.476162251969, -187500.02235174447, -22520.500125944633, 15022.227468756137, -27512.67284305964, 52561.51289481079, -26591.378640100796, 9665.967186208629, -23343.603115511312, -30379.842863064157, -19880.624995306134, 0.042, 0.974, 0.274, 192.0, 0.0, 0.0, 0.0, 0.0, 0.0, 0.0, 0.0, 0.0, 0.0, 1.695766888661531E9, 0.0, 2023-09-26 17:21:28.661
50.0, 34668.47207170392, 49927.35981075285, -19420.000245571166, -26031.758014173272, 10876.180037996774, 9286.613379313158, -187500.02235174447, -22575.50776904914, 15025.222602513148, -27501.96635746555, 52666.677852473, -26579.93454693968, 9668.939968221184, -23337.18816485264, -30377.38417117407, -19785.294805204252, 0.042, 0.974, 0.274, 192.0, 0.0, 0.0, 0.0, 0.0, 0.0, 0.0, 0.0, 0.0, 0.0, 1.695766888661534E9, 0.0, 2023-09-26 17:21:28.661
52.0, 34664.627571657606, 49936.14404632379, -19434.283010278108, -26045.750206202294, 10879.555151409526, 9343.587975929735, -187500.02235174447, -22550.764387937117, 15016.483070431123, -27513.790430282406, 52554.36033658509, -26590.126942411298, 9656.422991326213, -23354.15313889422, -30394.572662660205, -19903.580236861737, 0.038, 0.97, 0.278, 192.0, 0.5, 24.0, 15.0, 40.0, 4.0, 88.0, 0.0, 0.0, 0.0, 1.695766888661537E9, 0.0, 2023-09-26 17:21:28.661
54.0, 34672.3836269836, 49928.18682529769, -19432.427815488318, -26054.847366195605, 10863.797171568534, 9267.077954659218, -187500.02235174447, -22602.41926937333, 15013.823212840942, -27526.150944966193, 52671.438774041984, -26601.0792971944, 9652.824360468909, -23366.491301833546, -30406.441438965972, -19792.045032029753, 0.038, 0.97, 0.278, 192.0, 0.0, 0.0, 0.0, 0.0, 0.0, 0.0, 0.0, 0.0, 0.0, 1.69576688866154E9, 0.0, 2023-09-26 17:21:28.661
56.0, 34672.3836269836, 49941.73198243761, -19428.046873575076, -26044.67732246844, 10895.648407417346, 9338.312964238283, -187500.02235174447, -22537.59921045294, 15024.149718779294, -27521.211209441568, 52549.957042927395, -26593.74792501306, 9656.020659926016, -23359.7634267525, -30386.123703256097, -19921.863963826177, 0.038, 0.97, 0.278, 192.0, 0.0, 0.0, 0.0, 0.0, 0.0, 0.0, 0.0, 0.0, 0.0, 1.695766888661544E9, 0.0, 2023-09-26 17:21:28.661
58.0, 34671.02017057183, 49932.92539512222, -19438.395731257886, -26052.612191750075, 10873.833104828967, 9295.643484073102, -187500.02235174447, -22575.41836207132, 15013.197363996193, -27520.428898385635, 52677.78666946729, -26600.11817218282, 9659.619290783321, -23357.505900562515, -30386.928366056487, -19787.798200583245, 0.038, 0.97, 0.278, 192.0, 0.0, 0.0, 0.0, 0.0, 0.0, 0.0, 0.0, 0.0, 0.0, 1.695766888661547E9, 0.0, 2023-09-26 17:21:28.661
60.0, 34676.25047877437, 49949.19746508569, -19439.66978069184, -26043.738549201316, 10892.29564574905, 9342.671554407067, -187500.02235174447, -22537.353341263934, 15014.091433774405, -27513.857485515775, 52557.82485697566, -26602.085125694888, 9650.43272381219, -23349.48162430306, -30387.733028856877, -19907.290626441318, 0.038, 0.97, 0.278, 192.0, 0.0, 0.0, 0.0, 0.0, 0.0, 0.0, 0.0, 0.0, 0.0, 1.695766888721336E9, 0.0, 2023-09-26 17:21:28.721
62.0, 34685.034714345304, 49953.936034910206, -19437.591068457496, -26046.621924236053, 10881.29858747704, 9304.070091732752, -187500.02235174447, -22578.79347548407, 15011.58803839541, -27515.712680305565, 52685.56507653774, -26598.955881471145, 9658.09937216036, -23351.895612704233, -30392.605709148134, -19772.19668295344, 0.04, 0.97, 0.278, 192.0, 0.5, 32.0, 15.0, 40.0, 4.0, 88.0, 0.0, 0.0, 0.0, 1.695766888721349E9, 0.0, 2023-09-26 17:21:28.721
64.0, 34692.790769671294, 49961.87090419184, -19434.193603300286, -26044.610267235075, 10889.233456758673, 9324.387827442626, -187500.02235174447, -22548.75273093614, 15023.993256568107, -27508.805991268873, 52551.0522784057, -26591.490398823073, 9656.668860515221, -23349.883955703255, -30387.844787579157, -19914.309074200282, 0.04, 0.97, 0.278, 192.0, 0.0, 0.0, 0.0, 0.0, 0.0, 0.0, 0.0, 0.0, 0.0, 1.695766888721353E9, 0.0, 2023-09-26 17:21:28.721
66.0, 34701.329136053224, 49965.73775598261, -19431.064359076543, -26044.833784679628, 10879.778668854078, 9304.673588833046, -187500.02235174447, -22576.915928949828, 15022.540393178511, -27509.901226747184, 52656.79838142376, -26588.852892977346, 9665.631910041799, -23353.43788307165, -30387.330697456684, -19806.5736659257, 0.04, 0.97, 0.278, 192.0, 0.0, 0.0, 0.0, 0.0, 0.0, 0.0, 0.0, 0.0, 0.0, 1.695766888721356E9, 0.0, 2023-09-26 17:21:28.721
68.0, 34701.887929664605, 49969.40344207328, -19434.14889981138, -26042.44214802291, 10885.478363690181, 9312.831975559233, -187500.02235174447, -22563.75075146565, 15025.826099613441, -27504.805029011375, 52550.4040778165, -26588.78583774398, 9658.591110538377, -23353.10260690482, -30387.19658698995, -19922.534516159834, 0.04, 0.97, 0.278, 192.0, 0.0, 0.0, 0.0, 0.0, 0.0, 0.0, 0.0, 0.0, 0.0, 1.695766888721359E9, 0.0, 2023-09-26 17:21:28.721
70.0, 34719.41169731757, 49985.00495970309, -19425.52112645163, -26034.64138920801, 10889.72519513669, 9323.091426264218, -187500.02235174447, -22561.627335742396, 15032.35280899439, -27501.608729554264, 52655.41257326753, -26575.888881193267, 9669.655224043754, -23354.24254587204, -30382.01098227632, -19812.429822972994, 0.04, 0.97, 0.278, 192.0, 0.0, 0.0, 0.0, 0.0, 0.0, 0.0, 0.0, 0.0, 0.0, 1.695766888721362E9, 0.0, 2023-09-26 17:21:28.721
72.0, 34714.85194144869, 49980.17698290074, -19422.99537932818, -26033.054415351682, 10890.194581770253, 9308.518088879358, -187500.02235174447, -22558.118111862914, 15039.013628842073, -27495.05966842886, 52581.629464820566, -26576.738247482568, 9666.05659318645, -23349.99571442553, -30376.467749651405, -19897.545265858804, 0.038, 0.972, 0.274, 192.0, 0.5, 24.0, 15.0, 48.0, 4.0, 72.0, 0.0, 0.0, 0.0, 1.695766888721366E9, 0.0, 2023-09-26 17:21:28.721
74.0, 34720.23871186241, 49990.86111675038, -19423.308303750553, -26039.58112473263, 10890.753375381635, 9325.550118154302, -187500.02235174447, -22566.70118173375, 15032.151643294294, -27502.167523165648, 52676.28910258879, -26574.391314314762, 9676.852485758363, -23354.890746461242, -30380.468711908903, -19794.660186131023, 0.038, 0.972, 0.274, 192.0, 0.0, 0.0, 0.0, 0.0, 0.0, 0.0, 0.0, 0.0, 0.0, 1.69576688878167E9, 0.0, 2023-09-26 17:21:28.781
76.0, 34718.07059265025, 49975.77368924305, -19425.610533429448, -26040.0952148551, 10887.132392779875, 9282.50065833338, -187500.02235174447, -22587.465952332732, 15042.276983532547, -27499.77588650893, 52608.89859305604, -26580.001602173044, 9675.19845666867, -23354.28724936095, -30381.385133431573, -19872.198387646484, 0.038, 0.972, 0.274, 192.0, 0.0, 0.0, 0.0, 0.0, 0.0, 0.0, 0.0, 0.0, 0.0, 1.695766888781684E9, 0.0, 2023-09-26 17:21:28.781
78.0, 34728.3970985886, 49992.29162839552, -19425.87875436291, -26038.754110187783, 10892.29564574905, 9334.379057214148, -187500.02235174447, -22566.745885222663, 15032.330457249935, -27505.699098789588, 52641.80036089425, -26580.31452659542, 9678.975901481617, -23357.483548818058, -30386.414275934017, -19826.26555279083, 0.038, 0.972, 0.274, 192.0, 0.0, 0.0, 0.0, 0.0, 0.0, 0.0, 0.0, 0.0, 0.0, 1.695766888781687E9, 0.0, 2023-09-26 17:21:28.781
80.0, 34726.02781367634, 49986.81545100397, -19425.856402618458, -26033.836726407615, 10872.179075739274, 9284.557018823269, -187500.02235174447, -22588.516484322132, 15038.477186975144, -27497.518360318943, 52616.74405535985, -26573.74311372556, 9673.477372345611, -23352.566165037893, -30386.973069545398, -19860.441370062992, 0.038, 0.972, 0.274, 192.0, 0.0, 0.0, 0.0, 0.0, 0.0, 0.0, 0.0, 0.0, 0.0, 1.695766888781691E9, 0.0, 2023-09-26 17:21:28.781
82.0, 34735.12497366965, 50009.055436737, -19423.42006247283, -26033.680264196428, 10883.712575878213, 9339.095275294218, -187500.02235174447, -22567.21527185622, 15038.968925353161, -27499.820589997842, 52642.023878338805, -26567.752846211537, 9679.355881137357, -23359.18228139666, -30388.090656768163, -19829.864183648133, 0.042, 0.966, 0.274, 192.0, 0.5, 40.0, 15.0, 24.0, 4.0, 72.0, 0.0, 0.0, 0.0, 1.695766888781694E9, 0.0, 2023-09-26 17:21:28.781
84.0, 34734.67793878054, 49995.107948196885, -19418.860306603947, -26030.327502528133, 10876.850590330434, 9276.286873374806, -187500.02235174447, -22581.542740052075, 15045.585041711933, -27491.617499782744, 52653.64678545556, -26566.747017711048, 9674.527904335011, -23354.66722901669, -30381.586299131668, -19827.249029546863, 0.042, 0.966, 0.274, 192.0, 0.0, 0.0, 0.0, 0.0, 0.0, 0.0, 0.0, 0.0, 0.0, 1.695766888781698E9, 0.0, 2023-09-26 17:21:28.781
86.0, 34733.87327598015, 50015.42568390676, -19425.007036329156, -26037.457709009377, 10889.05464280303, 9345.7560951419, -187500.02235174447, -22559.36980955241, 15043.394570755312, -27488.689421259096, 52630.60213692214, -26562.276668819984, 9678.01477647004, -23351.917964448687, -30386.39192418956, -19845.44334953348, 0.042, 0.966, 0.274, 192.0, 0.0, 0.0, 0.0, 0.0, 0.0, 0.0, 0.0, 0.0, 0.0, 1.695766888781701E9, 0.0, 2023-09-26 17:21:28.781
88.0, 34731.52634281234, 49999.95827674369, -19420.93901883829, -26042.844479423104, 10879.689261876258, 9272.755297750868, -187500.02235174447, -22591.735135523693, 15040.421788742757, -27487.974165436528, 52676.17734386651, -26577.69937249415, 9670.10225893286, -23355.248374372528, -30390.54934865825, -19806.5736659257, 0.042, 0.966, 0.274, 192.0, 0.0, 0.0, 0.0, 0.0, 0.0, 0.0, 0.0, 0.0, 0.0, 1.695766888781704E9, 0.0, 2023-09-26 17:21:28.781
90.0, 34731.951025956994, 50016.54327112952, -19423.80004212857, -26051.87458418305, 10889.635788158868, 9353.13217081215, -187500.02235174447, -22555.592364739463, 15038.164262552771, -27479.6369647547, 52597.54390687274, -26573.005506158534, 9676.427802613713, -23350.39804582573, -30386.749552100846, -19878.45687609397, 0.042, 0.966, 0.274, 192.0, 0.0, 0.0, 0.0, 0.0, 0.0, 0.0, 0.0, 0.0, 0.0, 1.695766888841913E9, 0.0, 2023-09-26 17:21:28.841
92.0, 34738.947121971505, 50009.74834081511, -19409.85255358846, -26042.352741045088, 10872.53670365056, 9270.140143649596, -187500.02235174447, -22596.317243137033, 15041.964059110172, -27474.898394930173, 52673.338672320686, -26581.767389985012, 9667.665918787232, -23348.833423713855, -30395.19851150495, -19805.25491300284, 0.046, 0.98, 0.272, 192.0, 0.5, 56.0, 15.0, 80.0, 4.0, 64.0, 0.0, 0.0, 0.0, 1.695766888841923E9, 0.0, 2023-09-26 17:21:28.841
94.0, 34739.014177204874, 50030.40135269181, -19403.88463781889, -26033.1438223295, 10896.229552773184, 9363.503380239414, -187500.02235174447, -22545.914059390314, 15045.02624810055, -27458.939249389085, 52589.5643341022, -26571.55264276894, 9675.891360746786, -23332.561353750392, -30382.815645076713, -19888.761030287867, 0.046, 0.98, 0.272, 192.0, 0.0, 0.0, 0.0, 0.0, 0.0, 0.0, 0.0, 0.0, 0.0, 1.695766888841927E9, 0.0, 2023-09-26 17:21:28.841
96.0, 34746.36790113067, 50015.69390484022, -19390.428887656795, -26025.991264103803, 10880.181000254273, 9282.075975188729, -187500.02235174447, -22592.1821704128, 15051.88823364833, -27448.232763794993, 52683.50871604785, -26569.675096234692, 9675.511381091044, -23324.738243191034, -30383.329735199182, -19797.454154187937, 0.046, 0.98, 0.272, 192.0, 0.0, 0.0, 0.0, 0.0, 0.0, 0.0, 0.0, 0.0, 0.0, 1.695766888841931E9, 0.0, 2023-09-26 17:21:28.841
98.0, 34746.23379066394, 50033.41883819328, -19388.528989378094, -26027.220610048844, 10895.44724171725, 9362.206979061006, -187500.02235174447, -22540.035550598568, 15055.21864357217, -27443.471842226012, 52565.536208812744, -26567.037590388965, 9678.417107870235, -23321.877219900754, -30379.99932527534, -19915.001978278397, 0.046, 0.98, 0.272, 192.0, 0.0, 0.0, 0.0, 0.0, 0.0, 0.0, 0.0, 0.0, 0.0, 1.695766888841934E9, 0.0, 2023-09-26 17:21:28.841
100.0, 34740.04235744981, 50015.89507054032, -19394.31809119202, -26037.3459502871, 10866.747601836634, 9290.524934592835, -187500.02235174447, -22590.058754689548, 15052.6034894709, -27443.561249203834, 52669.44946878547, -26573.676058492194, 9672.940930478684, -23328.38157753725, -30388.403581190538, -19806.417203714514, 0.046, 0.98, 0.272, 192.0, 0.0, 0.0, 0.0, 0.0, 0.0, 0.0, 0.0, 0.0, 0.0, 1.695766888841937E9, 0.0, 2023-09-26 17:21:28.841
102.0, 34746.5020115974, 50039.364402218394, -19383.656309086837, -26023.554923958174, 10897.213029529219, 9357.624871447668, -187500.02235174447, -22541.84604189945, 15048.334306279936, -27444.343560259767, 52574.275740894765, -26569.473930534594, 9666.704793775654, -23328.493336259526, -30387.040124778763, -19896.80765829178, 0.038, 0.98, 0.272, 192.0, 0.5, 24.0, 15.0, 80.0, 4.0, 64.0, 0.0, 0.0, 0.0, 1.695766888841941E9, 0.0, 2023-09-26 17:21:28.841
104.0, 34752.157002944594, 50029.9096143138, -19376.257881672132, -26024.024310591736, 10885.321901478996, 9293.698882305489, -187500.02235174447, -22585.633109287395, 15055.643326716821, -27434.777013632898, 52695.846878987184, -26557.761616440013, 9678.864142759341, -23321.407833267192, -30375.28310719527, -19776.510569633316, 0.038, 0.98, 0.272, 192.0, 0.0, 0.0, 0.0, 0.0, 0.0, 0.0, 0.0, 0.0, 0.0, 1.695766888902084E9, 0.0, 2023-09-26 17:21:28.902
106.0, 34741.472869094956, 50032.12243701487, -19378.560111351027, -26025.58893270361, 10900.141108052863, 9346.516054453381, -187500.02235174447, -22542.2707250441, 15056.760913939586, -27431.29014149787, 52567.2572931358, -26556.465215261607, 9675.667843302232, -23313.964702363577, -30369.33754317016, -19910.196353220505, 0.038, 0.98, 0.272, 192.0, 0.0, 0.0, 0.0, 0.0, 0.0, 0.0, 0.0, 0.0, 0.0, 1.695766888902098E9, 0.0, 2023-09-26 17:21:28.902
108.0, 34744.28918889632, 50020.79010257604, -19378.291890417564, -26034.909610141473, 10883.980796811677, 9296.828126529232, -187500.02235174447, -22583.219120886224, 15051.798826670507, -27441.169612547114, 52700.02665520032, -26567.752846211537, 9678.350052636868, -23323.352435034805, -30373.53967112776, -19774.208339954417, 0.038, 0.98, 0.272, 192.0, 0.0, 0.0, 0.0, 0.0, 0.0, 0.0, 0.0, 0.0, 0.0, 1.695766888902102E9, 0.0, 2023-09-26 17:21:28.902
110.0, 34747.08315695324, 50033.03885853754, -19372.88276825938, -26018.883409367016, 10900.63284643088, 9342.246871262416, -187500.02235174447, -22541.264896543613, 15061.566538997477, -27436.85572586724, 52581.897685754026, -26568.06577063391, 9674.706718290654, -23317.675091943158, -30368.73404606987, -19901.479172882937, 0.038, 0.98, 0.272, 192.0, 0.0, 0.0, 0.0, 0.0, 0.0, 0.0, 0.0, 0.0, 0.0, 1.695766888902105E9, 0.0, 2023-09-26 17:21:28.902
112.0, 34756.24737217991, 50037.33039347296, -19371.78753278107, -26015.843572121095, 10890.507506192625, 9314.7989290713, -187500.02235174447, -22572.087952147478, 15060.918338408273, -27436.207525278038, 52709.99553322739, -26563.39425604275, 9679.802916026463, -23316.33398727584, -30369.58341235917, -19770.743819563846, 0.044, 0.982, 0.274, 192.0, 0.5, 48.0, 15.0, 88.0, 4.0, 72.0, 0.0, 0.0, 0.0, 1.695766888902108E9, 0.0, 2023-09-26 17:21:28.902
114.0, 34750.25710466589, 50038.49268418464, -19373.039230470567, -26003.61716790404, 10902.085709820474, 9345.264356763882, -187500.02235174447, -22534.671131929295, 15070.015498401583, -27427.155068773638, 52586.45744162291, -26551.793700670445, 9680.831096271408, -23304.286397014428, -30355.837089519155, -19903.043794994806, 0.044, 0.982, 0.274, 192.0, 0.0, 0.0, 0.0, 0.0, 0.0, 0.0, 0.0, 0.0, 0.0, 1.695766888902111E9, 0.0, 2023-09-26 17:21:28.902
116.0, 34756.269723924364, 50038.447980695724, -19378.582463095485, -26012.781383130718, 10889.993416070154, 9333.484987435935, -187500.02235174447, -22559.258050830133, 15056.068009861472, -27434.888772355174, 52711.69426580599, -26548.910325635712, 9680.384061382301, -23313.741184919025, -30370.29866818174, -19766.47463637288, 0.044, 0.982, 0.274, 192.0, 0.0, 0.0, 0.0, 0.0, 0.0, 0.0, 0.0, 0.0, 0.0, 1.695766888902115E9, 0.0, 2023-09-26 17:21:28.902
118.0, 34745.78675577483, 50024.679306111255, -19388.149009722354, -26020.090403567603, 10883.265540989107, 9321.88443206363, -187500.02235174447, -22558.498091518653, 15060.203082585704, -27433.793536876863, 52603.69063659795, -26556.465215261607, 9674.796125268474, -23314.47879248605, -30374.143168228053, -19884.44714360799, 0.044, 0.982, 0.274, 192.0, 0.0, 0.0, 0.0, 0.0, 0.0, 0.0, 0.0, 0.0, 0.0, 1.695766888902118E9, 0.0, 2023-09-26 17:21:28.902
120.0, 34743.46217435148, 50022.377076432356, -19384.908006776335, -26026.907685626473, 10893.949674838743, 9331.47333043496, -187500.02235174447, -22564.1754346103, 15048.870748146863, -27447.316342272323, 52695.66806503154, -26563.68482872067, 9681.702814305165, -23323.79946992391, -30378.01002001882, -19785.83124707118, 0.044, 0.982, 0.274, 192.0, 0.0, 0.0, 0.0, 0.0, 0.0, 0.0, 0.0, 0.0, 0.0, 1.695766888961436E9, 0.0, 2023-09-26 17:21:28.961
122.0, 34738.72360452695, 50009.12249197036, -19382.248149186154, -26027.95821761587, 10894.620227172403, 9309.322751679749, -187500.02235174447, -22560.487396775174, 15058.929033151751, -27446.5787347053, 52615.64881988154, -26569.518634023505, 9676.047822957971, -23317.026891353955, -30369.20343270343, -19874.768838258846, 0.04, 0.97, 0.274, 192.0, 0.5, 32.0, 15.0, 40.0, 4.0, 72.0, 0.0, 0.0, 0.0, 1.695766888961449E9, 0.0, 2023-09-26 17:21:28.961
124.0, 34733.269778879854, 50009.927154770754, -19388.327823677995, -26036.742453186806, 10887.042985802054, 9339.855234605699, -187500.02235174447, -22559.012181641127, 15052.335268537436, -27458.156938333148, 52674.76918396583, -26578.481683550082, 9685.055575973462, -23328.828612426354, -30370.34337167065, -19802.326834479194, 0.04, 0.97, 0.274, 192.0, 0.0, 0.0, 0.0, 0.0, 0.0, 0.0, 0.0, 0.0, 0.0, 1.695766888961452E9, 0.0, 2023-09-26 17:21:28.961
126.0, 34733.292130624315, 49999.35477964339, -19389.11013473393, -26030.953351372882, 10882.125602021886, 9298.236286429918, -187500.02235174447, -22568.26580384562, 15059.577233740954, -27454.178327820104, 52637.10649455863, -26586.014221431524, 9676.114878191338, -23327.398100781214, -30373.740836827856, -19848.97492515742, 0.04, 0.97, 0.274, 192.0, 0.0, 0.0, 0.0, 0.0, 0.0, 0.0, 0.0, 0.0, 0.0, 1.695766888961455E9, 0.0, 2023-09-26 17:21:28.961
128.0, 34737.471906837454, 50010.41889314877, -19391.45706790174, -26029.72400542784, 10878.616378142402, 9348.818284132276, -187500.02235174447, -22556.08410311748, 15053.989297627128, -27453.843051653275, 52669.985910652395, -26581.029782417987, 9680.5852270824, -23323.687711201634, -30380.379304931084, -19810.887552605578, 0.04, 0.97, 0.274, 192.0, 0.0, 0.0, 0.0, 0.0, 0.0, 0.0, 0.0, 0.0, 0.0, 1.695766888961459E9, 0.0, 2023-09-26 17:21:28.961
130.0, 34734.52147656935, 50000.94175349972, -19382.963405008722, -26015.642406420997, 10888.607607913926, 9294.592952083702, -187500.02235174447, -22563.884861932384, 15057.632631973343, -27439.67204566861, 52644.99666035136, -26575.39714281525, 9676.271340402525, -23311.684824429136, -30373.360857172116, -19846.516233267335, 0.04, 0.97, 0.274, 192.0, 0.0, 0.0, 0.0, 0.0, 0.0, 0.0, 0.0, 0.0, 0.0, 1.695766888961462E9, 0.0, 2023-09-26 17:21:28.961
132.0, 34736.53313357033, 50018.08554149694, -19385.936187021278, -26008.10986853956, 10901.526916209092, 9366.09618259623, -187500.02235174447, -22532.234791783667, 15050.033038858539, -27440.432004980088, 52646.94126211897, -26567.462273533616, 9680.29465440448, -23304.93459760363, -30368.801101303234, -19831.294695293273, 0.042, 0.972, 0.276, 192.0, 0.5, 40.0, 15.0, 48.0, 4.0, 80.0, 0.0, 0.0, 0.0, 1.695766888961465E9, 0.0, 2023-09-26 17:21:28.961
134.0, 34727.16775264356, 49995.06324470798, -19386.36087016593, -26011.4402784634, 10884.986625312165, 9295.26350441736, -187500.02235174447, -22569.98688816868, 15056.805617428497, -27428.742042629965, 52645.95778536294, -26563.30484906493, 9677.947721236673, -23297.022080066454, -30363.168461700498, -19838.044922118774, 0.042, 0.972, 0.276, 192.0, 0.0, 0.0, 0.0, 0.0, 0.0, 0.0, 0.0, 0.0, 0.0, 1.695766889021247E9, 0.0, 2023-09-26 17:21:29.021
136.0, 34730.98990094542, 50013.0563989945, -19392.239378957674, -26020.045700078692, 10889.568732925503, 9372.600540232723, -187500.02235174447, -22536.615733696908, 15048.4013615133, -27442.868345125717, 52625.46123569742, -26566.72466596659, 9674.036165956995, -23308.84615288331, -30378.501758396837, -19850.696009480478, 0.042, 0.972, 0.276, 192.0, 0.0, 0.0, 0.0, 0.0, 0.0, 0.0, 0.0, 0.0, 0.0, 1.69576688902126E9, 0.0, 2023-09-26 17:21:29.021
138.0, 34731.12401141215, 49992.96218072918, -19391.233550457186, -26021.47621172383, 10873.520180406593, 9285.831068257221, -187500.02235174447, -22584.47081857572, 15059.666640718777, -27440.52141195791, 52686.39209108259, -26566.478796777585, 9670.884569988797, -23311.483658729037, -30383.217976476906, -19801.499819934346, 0.042, 0.972, 0.276, 192.0, 0.0, 0.0, 0.0, 0.0, 0.0, 0.0, 0.0, 0.0, 0.0, 1.695766889021263E9, 0.0, 2023-09-26 17:21:29.021
140.0, 34734.700290525, 50015.604497862405, -19390.674756845805, -26020.850362879082, 10897.39184348486, 9361.42466800507, -187500.02235174447, -22536.191050552257, 15054.324573793958, -27442.734234658987, 52619.11334027211, -26568.691619478657, 9674.639663057287, -23313.316501774374, -30377.78650257427, -19863.92824219802, 0.042, 0.972, 0.276, 192.0, 0.0, 0.0, 0.0, 0.0, 0.0, 0.0, 0.0, 0.0, 0.0, 1.695766889021266E9, 0.0, 2023-09-26 17:21:29.021
142.0, 34722.47388630794, 49991.71048303968, -19387.143181221865, -26025.633636192517, 10872.335537950461, 9268.441411070993, -187500.02235174447, -22601.18992342829, 15055.93389939474, -27444.768243404418, 52688.314341105746, -26573.40783755873, 9675.220808413125, -23316.825725653856, -30377.652392107535, -19803.31031123523, 0.046, 0.97, 0.28200000000000003, 192.0, 0.5, 56.0, 15.0, 40.0, 4.0, 104.0, 0.0, 0.0, 0.0, 1.69576688902127E9, 0.0, 2023-09-26 17:21:29.021
144.0, 34715.43308680452, 50000.69588431071, -19386.65144284385, -26019.933941356416, 10896.073090561997, 9365.13505758465, -187500.02235174447, -22526.17746903628, 15047.440236501723, -27449.685627184586, 52591.86656378109, -26570.07742763489, 9673.902055490262, -23318.94914137711, -30373.360857172116, -19899.333405415226, 0.046, 0.97, 0.28200000000000003, 192.0, 0.0, 0.0, 0.0, 0.0, 0.0, 0.0, 0.0, 0.0, 0.0, 1.695766889021273E9, 0.0, 2023-09-26 17:21:29.021
146.0, 34716.371860071646, 49986.3460643704, -19382.78459105308, -26014.703633153873, 10881.700918877235, 9291.419004371048, -187500.02235174447, -22578.882882461894, 15049.384838269334, -27445.90818237164, 52719.897356021094, -26567.819901444902, 9669.29759613247, -23314.523495974958, -30372.10915948262, -19767.256947428818, 0.046, 0.97, 0.28200000000000003, 192.0, 0.0, 0.0, 0.0, 0.0, 0.0, 0.0, 0.0, 0.0, 0.0, 1.695766889021276E9, 0.0, 2023-09-26 17:21:29.021
148.0, 34718.85290370618, 49998.90774475429, -19383.611605597926, -26005.651176649473, 10898.77765164109, 9363.928063384064, -187500.02235174447, -22528.636160926362, 15052.424675515256, -27445.28233352689, 52605.41172092101, -26556.93460189517, 9673.276206645514, -23304.867542370266, -30364.666028579002, -19886.481152353426, 0.046, 0.97, 0.28200000000000003, 192.0, 0.0, 0.0, 0.0, 0.0, 0.0, 0.0, 0.0, 0.0, 0.0, 1.69576688902128E9, 0.0, 2023-09-26 17:21:29.021
150.0, 34723.23384561943, 49981.16045965677, -19383.097515475456, -26004.62299640453, 10891.915666093311, 9295.844649773198, -187500.02235174447, -22576.960632438735, 15053.11757959337, -27450.534993473888, 52708.45326285998, -26563.05897987592, 9678.864142759341, -23304.196990036606, -30365.224822190386, -19787.48527616087, 0.046, 0.97, 0.28200000000000003, 192.0, 0.0, 0.0, 0.0, 0.0, 0.0, 0.0, 0.0, 0.0, 0.0, 1.695766889081553E9, 0.0, 2023-09-26 17:21:29.081
152.0, 34708.30288032328, 49982.523916068545, -19398.095536004967, -26010.166229029444, 10905.550230211047, 9368.04078436384, -187500.02235174447, -22530.156079549324, 15054.771608683064, -27460.973258134516, 52573.91811298348, -26569.965668912613, 9677.858314258852, -23305.873370870755, -30364.330752412174, -19924.657931883088, 0.046, 0.968, 0.28200000000000003, 192.0, 0.5, 56.0, 15.0, 32.0, 4.0, 104.0, 0.0, 0.0, 0.0, 1.695766889081566E9, 0.0, 2023-09-26 17:21:29.081
154.0, 34714.06963039275, 49970.47632580714, -19404.421079685817, -26022.213819290857, 10887.691186391257, 9300.471460875448, -187500.02235174447, -22574.121960892913, 15047.686105690731, -27470.29393557238, 52713.70592280697, -26574.503073037038, 9675.690195046687, -23314.054109341396, -30372.556194371726, -19778.410467912017, 0.046, 0.968, 0.28200000000000003, 192.0, 0.0, 0.0, 0.0, 0.0, 0.0, 0.0, 0.0, 0.0, 0.0, 1.69576688908157E9, 0.0, 2023-09-26 17:21:29.081
156.0, 34716.77419147184, 49983.06035793547, -19398.654329616347, -26017.229380277324, 10897.39184348486, 9346.203130031006, -187500.02235174447, -22533.665303428807, 15051.418847014767, -27473.847862940773, 52586.83742127865, -26577.721724238603, 9667.285939131492, -23319.79850766641, -30378.81468281921, -19909.391690420114, 0.046, 0.968, 0.28200000000000003, 192.0, 0.0, 0.0, 0.0, 0.0, 0.0, 0.0, 0.0, 0.0, 0.0, 1.695766889081574E9, 0.0, 2023-09-26 17:21:29.081
158.0, 34721.66922350755, 49978.79117474451, -19389.288948689577, -26019.53160995622, 10888.428793958283, 9311.066187747263, -187500.02235174447, -22562.588460753974, 15054.16811158277, -27476.977107164515, 52711.18017568353, -26567.886956678267, 9674.43849735719, -23319.61969371077, -30368.91286002551, -19778.72339233439, 0.046, 0.968, 0.28200000000000003, 192.0, 0.0, 0.0, 0.0, 0.0, 0.0, 0.0, 0.0, 0.0, 0.0, 1.695766889081577E9, 0.0, 2023-09-26 17:21:29.081
160.0, 34722.362127585664, 49982.680378279736, -19382.91870151981, -26016.268255265746, 10896.810698129022, 9334.446112447515, -187500.02235174447, -22538.31446627551, 15058.25848081809, -27481.24629035548, 52595.398139405035, -26574.34661082585, 9669.454058343657, -23320.603170466802, -30362.609668089113, -19895.064222224264, 0.046, 0.968, 0.28200000000000003, 192.0, 0.0, 0.0, 0.0, 0.0, 0.0, 0.0, 0.0, 0.0, 0.0, 1.69576688908158E9, 0.0, 2023-09-26 17:21:29.081
162.0, 34724.5973020312, 49974.67845376473, -19388.17136146681, -26028.91934262745, 10888.406442213827, 9322.979667541942, -187500.02235174447, -22563.683696232285, 15057.587928484432, -27483.950851434573, 52710.26375416086, -26578.526387038994, 9677.947721236673, -23323.62065596827, -30367.258830935818, -19775.191816710452, 0.042, 0.966, 0.274, 192.0, 0.5, 40.0, 15.0, 24.0, 4.0, 72.0, 0.0, 0.0, 0.0, 1.695766889081583E9, 0.0, 2023-09-26 17:21:29.081
164.0, 34720.08224965123, 49969.381090328825, -19378.35894565093, -26018.279912266724, 10902.197468542752, 9329.685190878534, -187500.02235174447, -22536.705140674727, 15061.767704697575, -27485.58252877981, 52617.347552460145, -26585.2766138645, 9675.131401435305, -23324.8052984244, -30360.463900621406, -19866.722210254935, 0.042, 0.966, 0.274, 192.0, 0.0, 0.0, 0.0, 0.0, 0.0, 0.0, 0.0, 0.0, 0.0, 1.695766889141971E9, 0.0, 2023-09-26 17:21:29.141
166.0, 34729.89466546711, 49976.243075876606, -19377.30841366153, -26017.00586283277, 10890.306340492529, 9336.122493281662, -187500.02235174447, -22546.808129168527, 15063.26527157608, -27488.220034625538, 52710.01788497185, -26581.655631262736, 9685.368500395834, -23324.47002225757, -30362.9672960004, -19762.026639226275, 0.042, 0.966, 0.274, 192.0, 0.0, 0.0, 0.0, 0.0, 0.0, 0.0, 0.0, 0.0, 0.0, 1.695766889142004E9, 0.0, 2023-09-26 17:21:29.142
168.0, 34737.628369048645, 49978.90293346679, -19369.21708216871, -26005.62882490502, 10903.829145887988, 9323.404350686593, -187500.02235174447, -22529.284361515565, 15077.905664194306, -27480.95571767756, 52627.71876188741, -26575.97828817109, 9677.76890728103, -23321.117260589275, -30356.37353138608, -19857.11096013915, 0.042, 0.966, 0.274, 192.0, 0.0, 0.0, 0.0, 0.0, 0.0, 0.0, 0.0, 0.0, 0.0, 1.695766889142008E9, 0.0, 2023-09-26 17:21:29.142
170.0, 34746.18908717502, 49990.52584058355, -19373.30745140403, -26007.394612716987, 10906.243134289161, 9347.812455631787, -187500.02235174447, -22531.27366677209, 15077.682146749754, -27482.72150548953, 52697.85853598816, -26571.01620090201, 9690.487049876101, -23323.24067631253, -30355.56886858569, -19784.75836333732, 0.042, 0.966, 0.274, 192.0, 0.0, 0.0, 0.0, 0.0, 0.0, 0.0, 0.0, 0.0, 0.0, 1.695766889142011E9, 0.0, 2023-09-26 17:21:29.142
172.0, 34735.035566691826, 49969.17992462873, -19375.40851538283, -26013.18371453091, 10899.24703827465, 9316.36355118317, -187500.02235174447, -22536.772195908095, 15085.16998114228, -27487.370668336236, 52625.170663019504, -26577.788779471968, 9682.44042187219, -23326.19110658063, -30352.126699939574, -19863.212986375453, 0.046, 0.964, 0.272, 192.0, 0.5, 56.0, 15.0, 16.0, 4.0, 64.0, 0.0, 0.0, 0.0, 1.695766889142015E9, 0.0, 2023-09-26 17:21:29.142
174.0, 34739.438860349524, 49978.36649159986, -19383.946881764758, -26027.220610048844, 10899.649369674848, 9363.32456628377, -187500.02235174447, -22527.36211149241, 15073.010632158594, -27500.133514420217, 52683.77693698132, -26587.824712732403, 9685.457907373657, -23336.227039841062, -30358.139319198053, -19796.023642542797, 0.046, 0.964, 0.272, 192.0, 0.0, 0.0, 0.0, 0.0, 0.0, 0.0, 0.0, 0.0, 0.0, 1.695766889142018E9, 0.0, 2023-09-26 17:21:29.142
176.0, 34738.20951440448, 49964.419003059746, -19374.201521182244, -26019.39749948949, 10901.996302842654, 9308.98747551292, -187500.02235174447, -22543.477719244685, 15080.833742717952, -27497.093677174293, 52659.078259358204, -26595.78193375849, 9680.696985804676, -23330.303827560405, -30356.038255219253, -19830.44532900397, 0.046, 0.964, 0.272, 192.0, 0.0, 0.0, 0.0, 0.0, 0.0, 0.0, 0.0, 0.0, 0.0, 1.695766889142021E9, 0.0, 2023-09-26 17:21:29.142
178.0, 34736.287264381324, 49974.65610202028, -19377.956614250736, -26024.493697225298, 10905.974913355698, 9366.543217485336, -187500.02235174447, -22524.970474835693, 15076.184579871247, -27501.876950487727, 52672.24343684238, -26588.227044132596, 9691.15760220976, -23329.56621999338, -30350.986760972355, -19811.893381106067, 0.046, 0.964, 0.272, 192.0, 0.0, 0.0, 0.0, 0.0, 0.0, 0.0, 0.0, 0.0, 0.0, 1.695766889142024E9, 0.0, 2023-09-26 17:21:29.142
180.0, 34746.34554938621, 49969.13522113982, -19373.821541526504, -26023.19729604689, 10897.324788251495, 9299.957370752976, -187500.02235174447, -22555.234736828177, 15084.387670086346, -27499.418258597645, 52669.74004146338, -26592.40682034574, 9684.429727128712, -23331.019083382977, -30352.372569128584, -19825.55029696826, 0.046, 0.964, 0.272, 192.0, 0.0, 0.0, 0.0, 0.0, 0.0, 0.0, 0.0, 0.0, 0.0, 1.695766889202162E9, 0.0, 2023-09-26 17:21:29.202
182.0, 34749.921828499064, 49986.793099259514, -19380.862341029926, -26023.331406513622, 10908.657122690336, 9372.891112910642, -187500.02235174447, -22517.192067765245, 15088.254521877114, -27495.886682973705, 52644.124942317605, -26583.041439418965, 9692.543410365988, -23328.8062606819, -30349.511545838304, -19847.03032338981, 0.044, 0.972, 0.276, 192.0, 0.5, 48.0, 15.0, 48.0, 4.0, 80.0, 0.0, 0.0, 0.0, 1.695766889202174E9, 0.0, 2023-09-26 17:21:29.202
184.0, 34753.74397680092, 49973.91849445325, -19382.53872186407, -26020.090403567603, 10884.517238678603, 9294.861173017165, -187500.02235174447, -22556.50878626213, 15083.73946949714, -27501.76519176545, 52695.44454758699, -26592.116247667822, 9680.5852270824, -23335.9588189076, -30362.117929711098, -19798.7729071108, 0.044, 0.972, 0.276, 192.0, 0.0, 0.0, 0.0, 0.0, 0.0, 0.0, 0.0, 0.0, 0.0, 1.695766889202177E9, 0.0, 2023-09-26 17:21:29.202
186.0, 34754.034549478834, 49992.2022214177, -19384.326861420497, -26013.362528486556, 10901.705730164735, 9374.589845489245, -187500.02235174447, -22519.717814888696, 15092.993091701639, -27497.5407120634, 52635.9218521025, -26581.096837651356, 9690.263532431547, -23332.13667060574, -30360.218031432396, -19856.194538616484, 0.044, 0.972, 0.276, 192.0, 0.0, 0.0, 0.0, 0.0, 0.0, 0.0, 0.0, 0.0, 0.0, 1.695766889202181E9, 0.0, 2023-09-26 17:21:29.202
188.0, 34758.84017453673, 49980.31109336747, -19380.527064863094, -26008.556903428664, 10884.226666000684, 9292.581295082724, -187500.02235174447, -22558.85571942994, 15092.121373667882, -27496.15490390717, 52702.15007092358, -26580.94037544017, 9684.474430617624, -23328.470984515072, -30359.34631339864, -19793.43084018598, 0.044, 0.972, 0.276, 192.0, 0.0, 0.0, 0.0, 0.0, 0.0, 0.0, 0.0, 0.0, 0.0, 1.695766889202184E9, 0.0, 2023-09-26 17:21:29.202
190.0, 34754.97332274596, 49995.97966623064, -19390.026556256602, -26013.988377331305, 10899.604666185936, 9378.43434553556, -187500.02235174447, -22507.133782760357, 15093.574237057477, -27495.663165529153, 52617.07933152668, -26573.78781721447, 9688.095413219382, -23328.716853704078, -30362.9672960004, -19875.193521403497, 0.044, 0.972, 0.276, 192.0, 0.0, 0.0, 0.0, 0.0, 0.0, 0.0, 0.0, 0.0, 0.0, 1.695766889202187E9, 0.0, 2023-09-26 17:21:29.202
192.0, 34760.31538967078, 49984.02148294705, -19394.586312125484, -26025.879505381527, 10878.48226767567, 9290.949617737488, -187500.02235174447, -22570.433923057786, 15092.188428901247, -27505.788505767407, 52713.77297804034, -26584.69546850866, 9684.92146550673, -23337.121109619275, -30369.449301892437, -19776.130589977576, 0.046, 0.974, 0.274, 192.0, 0.5, 56.0, 15.0, 56.0, 4.0, 72.0, 0.0, 0.0, 0.0, 1.69576688920219E9, 0.0, 2023-09-26 17:21:29.202
194.0, 34758.3037326698, 49997.209012175685, -19396.08387900399, -26028.561714716165, 10903.851497632444, 9370.164200087094, -187500.02235174447, -22519.293131744045, 15097.12816442587, -27502.100467932283, 52594.07938648217, -26580.35923008433, 9689.481221375612, -23337.702254975113, -30364.77778730128, -19895.17598094654, 0.046, 0.974, 0.274, 192.0, 0.0, 0.0, 0.0, 0.0, 0.0, 0.0, 0.0, 0.0, 0.0, 1.695766889261505E9, 0.0, 2023-09-26 17:21:29.261
196.0, 34757.052034980305, 49975.08078516493, -19393.759297580636, -26036.161307830967, 10882.930264822277, 9289.787327025811, -187500.02235174447, -22578.413495828332, 15089.4615160777, -27516.76321229496, 52716.9916292419, -26592.116247667822, 9688.050709730473, -23348.833423713855, -30368.979915258875, -19770.81087479721, 0.046, 0.974, 0.274, 192.0, 0.0, 0.0, 0.0, 0.0, 0.0, 0.0, 0.0, 0.0, 0.0, 1.695766889261528E9, 0.0, 2023-09-26 17:21:29.261
198.0, 34757.543773358324, 49989.520012083056, -19391.54647487956, -26030.953351372882, 10904.656160432836, 9360.396487760127, -187500.02235174447, -22528.770271393096, 15092.501353323622, -27520.563008852365, 52599.60026736263, -26592.607986045838, 9689.950608009172, -23349.012237669496, -30363.034351233764, -19889.65510006608, 0.046, 0.974, 0.274, 192.0, 0.0, 0.0, 0.0, 0.0, 0.0, 0.0, 0.0, 0.0, 0.0, 1.695766889261531E9, 0.0, 2023-09-26 17:21:29.261
200.0, 34773.03353226585, 49986.3460643704, -19389.31130043403, -26028.42760424943, 10891.848610859945, 9293.36360613866, -187500.02235174447, -22571.104475391447, 15097.262274892602, -27519.512476862965, 52719.15974845407, -26590.328108111396, 9694.979750511617, -23344.43013005616, -30360.53095585477, -19764.82060728319, 0.046, 0.974, 0.274, 192.0, 0.0, 0.0, 0.0, 0.0, 0.0, 0.0, 0.0, 0.0, 0.0, 1.695766889261535E9, 0.0, 2023-09-26 17:21:29.261
202.0, 34762.90819202759, 49987.12837542634, -19395.03334701459, -26023.219647791346, 10901.415157486816, 9362.721069183477, -187500.02235174447, -22528.055015570524, 15101.665568550297, -27521.904113519686, 52577.51674384079, -26589.97048020011, 9691.20230569867, -23341.233830599052, -30360.754473299323, -19911.157478232086, 0.042, 0.972, 0.27, 192.0, 0.5, 40.0, 15.0, 48.0, 4.0, 56.0, 0.0, 0.0, 0.0, 1.695766889261538E9, 0.0, 2023-09-26 17:21:29.261
204.0, 34769.12197698617, 49984.28970388052, -19396.910893548837, -26026.594761204098, 10880.225703743185, 9307.825184801244, -187500.02235174447, -22583.174417397313, 15094.110678924404, -27535.851602059796, 52731.54261488231, -26594.865512235825, 9686.396680640779, -23350.75567373701, -30376.19952871794, -19747.676819285967, 0.042, 0.972, 0.27, 192.0, 0.0, 0.0, 0.0, 0.0, 0.0, 0.0, 0.0, 0.0, 0.0, 1.695766889261541E9, 0.0, 2023-09-26 17:21:29.261
206.0, 34767.602058363205, 49988.044796949005, -19389.713631834227, -26018.48107796682, 10906.041968589065, 9344.996135830419, -187500.02235174447, -22535.386387751867, 15103.207838917715, -27531.247142702003, 52602.304828441724, -26587.243567376565, 9690.263532431547, -23342.82080445538, -30364.375455901085, -19883.776591274334, 0.042, 0.972, 0.27, 192.0, 0.0, 0.0, 0.0, 0.0, 0.0, 0.0, 0.0, 0.0, 0.0, 1.695766889261544E9, 0.0, 2023-09-26 17:21:29.261
208.0, 34773.03353226585, 49985.049663191996, -19402.230608729198, -26038.709406698872, 10882.349119466438, 9308.495737134903, -187500.02235174447, -22578.61466152843, 15103.029024962072, -27540.07608176185, 52722.19958569999, -26589.143465655266, 9695.851468545374, -23348.38638882475, -30370.455130392926, -19763.56890959369, 0.042, 0.972, 0.27, 192.0, 0.0, 0.0, 0.0, 0.0, 0.0, 0.0, 0.0, 0.0, 0.0, 1.695766889261548E9, 0.0, 2023-09-26 17:21:29.261
210.0, 34774.598154377716, 49987.32954112644, -19397.290873204576, -26036.831860164628, 10897.883581862878, 9323.583164642236, -187500.02235174447, -22550.697332703752, 15107.722891297686, -27543.764119596974, 52596.448671394435, -26595.11138142483, 9686.128459707315, -23353.639048771747, -30376.087769995665, -19903.468478139457, 0.042, 0.972, 0.27, 192.0, 0.0, 0.0, 0.0, 0.0, 0.0, 0.0, 0.0, 0.0, 0.0, 1.695766889322684E9, 0.0, 2023-09-26 17:21:29.322
212.0, 34779.22496547997, 49985.742567270114, -19395.50273364815, -26043.336217801123, 10891.11100329292, 9308.294571434804, -187500.02235174447, -22570.433923057786, 15109.019292476094, -27549.240296988526, 52693.07526267473, -26590.35045985585, 9698.86895404684, -23357.684714518156, -30369.806929803723, -19811.06636656122, 0.046, 0.968, 0.272, 192.0, 0.5, 56.0, 15.0, 32.0, 4.0, 64.0, 0.0, 0.0, 0.0, 1.695766889322706E9, 0.0, 2023-09-26 17:21:29.322
214.0, 34768.6078868637, 49973.583218286425, -19397.93907379378, -26043.62679047904, 10900.476384219694, 9308.94277202401, -187500.02235174447, -22558.02870488509, 15112.237943677657, -27558.538622681932, 52586.16686894499, -26596.564244814428, 9691.358767909858, -23366.558357066915, -30371.01392400431, -19927.47425168446, 0.046, 0.968, 0.272, 192.0, 0.0, 0.0, 0.0, 0.0, 0.0, 0.0, 0.0, 0.0, 0.0, 1.69576688932271E9, 0.0, 2023-09-26 17:21:29.322
216.0, 34780.52136665837, 49979.28291312253, -19398.69903310526, -26047.985380647824, 10896.67658766229, 9316.072978505252, -187500.02235174447, -22566.589423011475, 15107.342911641947, -27568.462797220087, 52693.187021397, -26596.720707025615, 9698.10899473536, -23371.073409446886, -30369.918688526, -19808.45121245995, 0.046, 0.968, 0.272, 192.0, 0.0, 0.0, 0.0, 0.0, 0.0, 0.0, 0.0, 0.0, 0.0, 1.695766889322713E9, 0.0, 2023-09-26 17:21:29.322
218.0, 34780.00727653591, 49967.81646821695, -19399.660158116836, -26046.845441680605, 10896.050738817543, 9296.31403640676, -187500.02235174447, -22566.008277655637, 15122.028007749082, -27570.69797166562, 52606.48460465486, -26600.028765205, 9692.319892921436, -23373.040362958953, -30370.700999581935, -19909.92813228704, 0.046, 0.968, 0.272, 192.0, 0.0, 0.0, 0.0, 0.0, 0.0, 0.0, 0.0, 0.0, 0.0, 1.695766889322716E9, 0.0, 2023-09-26 17:21:29.322
220.0, 34790.1102650297, 49976.868924721355, -19399.54839939456, -26046.77838644724, 10892.139183537864, 9326.51124316588, -187500.02235174447, -22557.291097318066, 15118.362321658413, -27582.16441657119, 52674.36685256563, -26602.442753606174, 9699.96418952515, -23377.175435683184, -30370.700999581935, -19834.714512194936, 0.046, 0.968, 0.272, 192.0, 0.0, 0.0, 0.0, 0.0, 0.0, 0.0, 0.0, 0.0, 0.0, 1.695766889322719E9, 0.0, 2023-09-26 17:21:29.322
222.0, 34795.3629249767, 49970.38691882932, -19392.1276202354, -26034.082595596625, 10889.546381181048, 9290.12260319264, -187500.02235174447, -22564.331896821488, 15126.319542684501, -27583.013782860493, 52636.81592188072, -26601.772201272513, 9691.716395821142, -23376.549586838435, -30369.002267003332, -19880.870864495144, 0.046, 0.968, 0.278, 192.0, 0.5, 56.0, 15.0, 32.0, 4.0, 88.0, 0.0, 0.0, 0.0, 1.695766889322723E9, 0.0, 2023-09-26 17:21:29.322
224.0, 34805.93530010406, 49987.37424461535, -19392.306434191043, -26034.35081653009, 10898.420023729805, 9340.458731705992, -187500.02235174447, -22553.64776297185, 15131.527499142589, -27579.012820602995, 52676.490268288886, -26584.762523742025, 9703.20519247117, -23372.749790281036, -30368.35406641413, -19830.132404581596, 0.046, 0.968, 0.278, 192.0, 0.0, 0.0, 0.0, 0.0, 0.0, 0.0, 0.0, 0.0, 0.0, 1.695766889381561E9, 0.0, 2023-09-26 17:21:29.381
226.0, 34812.84198914075, 49980.24403813411, -19386.807905055037, -26032.76384267376, 10889.613436414415, 9278.74556526489, -187500.02235174447, -22582.2803476191, 15143.910365570828, -27571.614393188287, 52661.55930299274, -26582.41559057422, 9700.455927903167, -23365.552528566426, -30364.57662160118, -19854.20523335996, 0.046, 0.968, 0.278, 192.0, 0.0, 0.0, 0.0, 0.0, 0.0, 0.0, 0.0, 0.0, 0.0, 1.695766889381574E9, 0.0, 2023-09-26 17:21:29.381
228.0, 34808.10341931623, 49981.80866024598, -19391.12179173491, -26039.71523519936, 10905.147898810852, 9345.376115486159, -187500.02235174447, -22554.117149605412, 15139.641182379864, -27584.667811950185, 52663.056869871245, -26585.20955863113, 9704.389834927302, -23376.48253160507, -30371.907993782523, -19848.393779801583, 0.046, 0.968, 0.278, 192.0, 0.0, 0.0, 0.0, 0.0, 0.0, 0.0, 0.0, 0.0, 0.0, 1.695766889381577E9, 0.0, 2023-09-26 17:21:29.381
230.0, 34813.669003685594, 49972.71150025267, -19393.334614435986, -26045.705502713383, 10890.060471303519, 9271.011861683353, -187500.02235174447, -22587.510655821643, 15149.14067377337, -27586.50065499552, 52679.23953285689, -26596.60894830334, 9700.791204069998, -23375.141426937753, -30367.638810591558, -19842.716436709936, 0.046, 0.968, 0.278, 192.0, 0.0, 0.0, 0.0, 0.0, 0.0, 0.0, 0.0, 0.0, 0.0, 1.695766889381581E9, 0.0, 2023-09-26 17:21:29.381
232.0, 34807.70108791603, 49982.72508176864, -19401.761222095636, -26053.461558039377, 10897.481250462683, 9350.8075893888, -187500.02235174447, -22546.584611723974, 15141.004638791639, -27594.12259985478, 52650.428134254, -26595.826637247403, 9699.807727313964, -23381.82459852989, -30375.998363017843, -19874.45591383647, 0.048, 0.972, 0.276, 192.0, 0.5, 64.0, 15.0, 48.0, 4.0, 80.0, 0.0, 0.0, 0.0, 1.695766889381584E9, 0.0, 2023-09-26 17:21:29.381
234.0, 34809.39982049463, 49967.86117170587, -19399.41428892783, -26052.031046394237, 10879.219875242696, 9269.737812249401, -187500.02235174447, -22593.456219846754, 15142.792778348063, -27597.832989434362, 52726.80404505778, -26602.420401861717, 9695.046805744983, -23384.506807864527, -30372.332676927173, -19801.097488534153, 0.048, 0.972, 0.276, 192.0, 0.0, 0.0, 0.0, 0.0, 0.0, 0.0, 0.0, 0.0, 0.0, 1.695766889381587E9, 0.0, 2023-09-26 17:21:29.381
236.0, 34810.115076317205, 49987.50835508208, -19400.26365521713, -26041.749243944796, 10895.49194520616, 9357.602519703212, -187500.02235174447, -22539.722626176193, 15142.122226014404, -27590.568672486388, 52670.812925197235, -26592.093895923364, 9697.170221468237, -23377.71187755011, -30375.573679873192, -19855.16635837154, 0.048, 0.972, 0.276, 192.0, 0.0, 0.0, 0.0, 0.0, 0.0, 0.0, 0.0, 0.0, 0.0, 1.69576688938159E9, 0.0, 2023-09-26 17:21:29.381
238.0, 34824.06256485731, 49979.95346545619, -19394.541608636573, -26037.882392154028, 10879.711613620713, 9266.02742266982, -187500.02235174447, -22592.85272274646, 15151.934641830283, -27588.489960252045, 52747.47940867894, -26593.949090713155, 9696.879648790318, -23374.62733681528, -30371.19273795995, -19781.405601669027, 0.048, 0.972, 0.276, 192.0, 0.0, 0.0, 0.0, 0.0, 0.0, 0.0, 0.0, 0.0, 0.0, 1.695766889381594E9, 0.0, 2023-09-26 17:21:29.381
240.0, 34823.03438461237, 50003.06516922297, -19394.541608636573, -26029.63459845002, 10899.850535374944, 9356.507284224903, -187500.02235174447, -22534.55937320702, 15155.399162220856, -27577.47055023558, 52639.94516610446, -26581.49916905155, 9704.92627679423, -23366.692467533645, -30364.15193845653, -19894.393669890604, 0.048, 0.972, 0.276, 192.0, 0.0, 0.0, 0.0, 0.0, 0.0, 0.0, 0.0, 0.0, 0.0, 1.695766889442755E9, 0.0, 2023-09-26 17:21:29.442
242.0, 34833.33853880627, 49996.56081158648, -19393.736945836183, -26031.623903706542, 10879.733965365169, 9275.705728018967, -187500.02235174447, -22587.912987221836, 15153.94629883126, -27580.041000847938, 52756.889493094626, -26584.78487548648, 9701.662922103755, -23371.16281642471, -30367.52705186928, -19780.846808057646, 0.046, 0.972, 0.276, 192.0, 0.5, 56.0, 15.0, 48.0, 4.0, 80.0, 0.0, 0.0, 0.0, 1.695766889442768E9, 0.0, 2023-09-26 17:21:29.442
244.0, 34827.88471315917, 50012.60936410539, -19401.60475988445, -26035.06607235266, 10891.44627945975, 9350.56172019979, -187500.02235174447, -22539.812033154016, 15162.104685557448, -27571.4579309771, 52642.18034054999, -26568.06577063391, 9704.702759349675, -23366.75952276701, -30366.945906513443, -19902.060318238775, 0.046, 0.972, 0.276, 192.0, 0.0, 0.0, 0.0, 0.0, 0.0, 0.0, 0.0, 0.0, 0.0, 1.695766889442772E9, 0.0, 2023-09-26 17:21:29.442
246.0, 34836.6242452412, 50001.23232617764, -19396.30739644854, -26039.849345666094, 10868.111058248409, 9266.250940114372, -187500.02235174447, -22599.08885944949, 15150.437074951778, -27584.77957067246, 52787.779603931864, -26579.174587628197, 9695.58324761191, -23382.092819463352, -30382.837996821167, -19755.05289495622, 0.046, 0.972, 0.276, 192.0, 0.0, 0.0, 0.0, 0.0, 0.0, 0.0, 0.0, 0.0, 0.0, 1.695766889442775E9, 0.0, 2023-09-26 17:21:29.442
248.0, 34837.60772199723, 50014.30809668399, -19390.36183242343, -26037.68122645393, 10902.979779598687, 9331.003943801397, -187500.02235174447, -22546.249335557146, 15162.596423935465, -27576.665887435185, 52648.81880865322, -26569.988020657067, 9705.172145983237, -23376.43782811616, -30368.48817688086, -19903.446126395003, 0.046, 0.972, 0.276, 192.0, 0.0, 0.0, 0.0, 0.0, 0.0, 0.0, 0.0, 0.0, 0.0, 1.695766889442778E9, 0.0, 2023-09-26 17:21:29.442
250.0, 34837.20539059703, 50000.919401755265, -19388.908969033833, -26040.34108404411, 10881.365642710405, 9275.146934407585, -187500.02235174447, -22593.255054146655, 15159.690697156275, -27577.761122913496, 52775.39673750362, -26571.798511957946, 9710.223640230137, -23377.980098483575, -30367.28118268027, -19775.638851599557, 0.046, 0.972, 0.276, 192.0, 0.0, 0.0, 0.0, 0.0, 0.0, 0.0, 0.0, 0.0, 0.0, 1.695766889442781E9, 0.0, 2023-09-26 17:21:29.442
252.0, 34826.94593989205, 50008.407236147796, -19391.524123135106, -26036.63069446453, 10895.402538228338, 9333.529690924846, -187500.02235174447, -22550.585573981476, 15157.388467477378, -27577.157625813205, 52647.85768364164, -26578.59344227236, 9702.668750604244, -23375.81197927141, -30370.790406559758, -19910.285760198327, 0.048, 0.974, 0.272, 192.0, 0.5, 64.0, 15.0, 56.0, 4.0, 64.0, 0.0, 0.0, 0.0, 1.695766889442785E9, 0.0, 2023-09-26 17:21:29.442
