%OpenBCI Raw EXG Data
%Number of channels = 16
%Sample Rate = 125 Hz
%Board = OpenBCI_GUI$BoardCytonSerialDaisy
Sample Index, EXG Channel 0, EXG Channel 1, EXG Channel 2, EXG Channel 3, EXG Channel 4, EXG Channel 5, EXG Channel 6, EXG Channel 7, EXG Channel 8, EXG Channel 9, EXG Channel 10, EXG Channel 11, EXG Channel 12, EXG Channel 13, EXG Channel 14, EXG Channel 15, Accel Channel 0, Accel Channel 1, Accel Channel 2, Other, Other, Other, Other, Other, Other, Other, Analog Channel 0, Analog Channel 1, Analog Channel 2, Timestamp, Other, Timestamp (Formatted)
194.0, 34520.36941294306, 50291.447376185344, -18888.45341067951, -25146.137195365096, 11868.77630576805, 10111.90683983646, -187500.02235174447, -21009.566904254785, 14589.050661212286, -26245.820670821748, 53550.21995904684, -25482.620356395288, 11249.856501800597, -22502.194047235735, -29336.10580397914, -18741.71420833042, 0.011, 0.481, 0.156, 192.0, 0.0, 88.0, 15.0, 8.0, 4.5, 96.0, 0.0, 0.0, 0.0, 1.695766997228464E9, 0.0, 2023-09-26 17:23:17.228
196.0, 34523.02927053324, 50282.439623169856, -18880.78676233134, -25146.87480293212, 11842.133026377323, 10023.46098702681, -187500.02235174447, -21068.709620083526, 14595.26444617086, -26233.549563115786, 53631.40149490852, -25486.42015295269, 11239.239423184326, -22494.54975063202, -29331.94837951045, -18664.623041704064, 0.011, 0.481, 0.156, 192.0, 0.0, 0.0, 0.0, 0.0, 0.0, 0.0, 0.0, 0.0, 0.0, 1.695766997228476E9, 0.0, 2023-09-26 17:23:17.228
198.0, 34520.99526178781, 50300.99157106776, -18875.154122728603, -25137.509422005347, 11874.855980259894, 10124.781444642716, -187500.02235174447, -20995.73117443695, 14595.152687448584, -26220.00440597587, 53527.7341041248, -25481.391010450247, 11250.392943667524, -22484.849093538418, -29327.701548063942, -18758.72388586091, 0.011, 0.481, 0.156, 192.0, 0.0, 0.0, 0.0, 0.0, 0.0, 0.0, 0.0, 0.0, 0.0, 1.69576699722848E9, 0.0, 2023-09-26 17:23:17.228
200.0, 34523.67747112244, 50287.42406218339, -18865.96755575747, -25132.59203822518, 11845.351677578888, 10042.41526632491, -187500.02235174447, -21054.806835032326, 14597.790193294311, -26209.633196548606, 53640.09632350163, -25482.307431972913, 11244.357972664593, -22479.01528823558, -29329.869667276107, -18651.189643286427, 0.011, 0.481, 0.156, 192.0, 0.0, 0.0, 0.0, 0.0, 0.0, 0.0, 0.0, 0.0, 0.0, 1.695766997228483E9, 0.0, 2023-09-26 17:23:17.228
202.0, 34526.94082581292, 50299.13637627797, -18870.326145926258, -25131.139174835585, 11869.625672057351, 10117.271258505734, -187500.02235174447, -21011.44445078903, 14601.925266018543, -26201.988899944892, 53514.770092340725, -25481.03338253896, 11247.889548288531, -22473.53911084403, -29328.86383877562, -18769.787999366286, 0.011, 0.481, 0.156, 192.0, 0.0, 0.0, 0.0, 0.0, 0.0, 0.0, 0.0, 0.0, 0.0, 1.695766997228487E9, 0.0, 2023-09-26 17:23:17.228
204.0, 34536.619131162064, 50291.64854188544, -18860.290212665823, -25127.272323044817, 11844.144683378301, 10041.834120969072, -187500.02235174447, -21050.11296869671, 14607.714367832466, -26199.4855045659, 53634.866015299085, -25482.03921103945, 11246.369629665569, -22471.549805587507, -29327.880362019583, -18661.73966666933, 0.0135, 0.7215, 0.23299999999999998, 192.0, 0.0, 64.0, 15.0, 8.0, 4.5, 88.0, 0.0, 0.0, 0.0, 1.69576699722849E9, 0.0, 2023-09-26 17:23:17.228
206.0, 34531.7017473819, 50301.52801293469, -18866.749866813407, -25125.7300526774, 11872.754916281096, 10121.160462040956, -187500.02235174447, -20993.607758713693, 14606.417966654059, -26191.46122830644, 53482.82944951409, -25474.41726618019, 11246.168463965472, -22465.425427606755, -29320.83956251616, -18805.059052116758, 0.0135, 0.7215, 0.23299999999999998, 192.0, 0.0, 0.0, 0.0, 0.0, 0.0, 0.0, 0.0, 0.0, 0.0, 1.695766997228493E9, 0.0, 2023-09-26 17:23:17.228
208.0, 34533.892218338515, 50292.11792851901, -18859.39614288761, -25128.322855034217, 11836.813311196962, 10052.652365285441, -187500.02235174447, -21058.964259501012, 14602.752280563389, -26196.356260342152, 53647.85237882762, -25476.853606325818, 11245.855539543098, -22470.02988696455, -29327.366271897114, -18648.060399062684, 0.0135, 0.7215, 0.23299999999999998, 192.0, 0.0, 0.0, 0.0, 0.0, 0.0, 0.0, 0.0, 0.0, 0.0, 1.695766997228497E9, 0.0, 2023-09-26 17:23:17.228
210.0, 34531.18765725943, 50297.30353323264, -18853.227061417947, -25130.535677735294, 11875.995919227114, 10103.144956009979, -187500.02235174447, -21017.099442136223, 14610.195411467006, -26195.0822109082, 53500.26381018923, -25481.815693594897, 11249.27535644476, -22466.855939251895, -29320.61604507161, -18787.647043186076, 0.0135, 0.7215, 0.23299999999999998, 192.0, 0.0, 0.0, 0.0, 0.0, 0.0, 0.0, 0.0, 0.0, 0.0, 1.6957669972285E9, 0.0, 2023-09-26 17:23:17.228
0.0, 17298.864400251437, 25185.677431306536, -9424.814215280321, -12531.639639334637, 5987.2276767763715, 5118.057741887301, -93750.01117587223, -10435.87302397168, 7302.069044359809, -13102.659654934367, 26827.45776503775, -12741.455464536604, 5632.796064948567, -11240.93815576293, -14660.196263813528, -9323.694923364512, 0.03, 0.966, 0.312, 192.0, 0.0, 120.0, 15.0, 24.0, 4.5, 96.0, 0.0, 0.0, 0.0, 1.695766997368486E9, 0.0, 2023-09-26 17:23:17.368
2.0, 34590.57624227717, 50355.6862897499, -18855.596346330207, -25069.33660141666, 11933.328143754978, 10153.078753123136, -187500.02235174447, -20933.190993451, 14718.646075564156, -26031.71331068436, 53644.99135553734, -25392.185198329116, 11145.652669149957, -22434.423558047245, -29245.491831957323, -18601.25584617327, 0.03, 0.966, 0.312, 192.0, 0.0, 0.0, 0.0, 0.0, 0.0, 0.0, 0.0, 0.0, 0.0, 1.695766997368498E9, 0.0, 2023-09-26 17:23:17.368
4.0, 34588.296364342736, 50366.07985092162, -18852.601212573198, -25068.509586871816, 11976.042327409068, 10213.674332341472, -187500.02235174447, -20873.73535319988, 14718.154337186139, -26035.982493875326, 53506.99168527027, -25388.944195383097, 11138.969497557819, -22437.44104354871, -29249.13516630354, -18726.492670356354, 0.03, 0.966, 0.312, 192.0, 0.0, 0.0, 0.0, 0.0, 0.0, 0.0, 0.0, 0.0, 0.0, 1.695766997368502E9, 0.0, 2023-09-26 17:23:17.368
6.0, 34588.98926842085, 50360.06723166314, -18850.030761960836, -25068.755456060822, 11945.129864827379, 10159.29253808171, -187500.02235174447, -20918.14826943258, 14720.545973842858, -26036.183659575425, 53656.56955916519, -25386.59726221529, 11146.278517994704, -22439.855031949883, -29234.78534636323, -18586.749564021775, 0.03, 0.966, 0.312, 192.0, 0.0, 0.0, 0.0, 0.0, 0.0, 0.0, 0.0, 0.0, 0.0, 1.695766997368505E9, 0.0, 2023-09-26 17:23:17.368
8.0, 34579.78034970527, 50361.16246714145, -18848.35438112669, -25061.7146565574, 11968.08510638298, 10210.478032884364, -187500.02235174447, -20876.46226602343, 14719.115462197717, -26041.078691611136, 53516.82645283061, -25393.12397159624, 11135.259107978238, -22435.518793525553, -29236.3499684751, -18710.868800982094, 0.026000000000000002, 0.962, 0.318, 192.0, 0.0, 104.0, 15.0, 8.0, 4.5, 120.0, 0.0, 0.0, 0.0, 1.695766997368509E9, 0.0, 2023-09-26 17:23:17.368
10.0, 34594.934832445964, 50366.4374788329, -18842.58763105722, -25059.501833856328, 11945.107513082923, 10174.983462689337, -187500.02235174447, -20916.38248162061, 14720.568325587312, -26036.228363064332, 53655.80959985371, -25386.619613959745, 11149.20659651835, -22429.595581244896, -29235.277084741247, -18580.848703485575, 0.026000000000000002, 0.962, 0.318, 192.0, 0.0, 0.0, 0.0, 0.0, 0.0, 0.0, 0.0, 0.0, 0.0, 1.695766997368512E9, 0.0, 2023-09-26 17:23:17.368
12.0, 34591.38090507757, 50368.9408742119, -18844.889860736115, -25059.92651700098, 11969.470914539208, 10198.653960067506, -187500.02235174447, -20890.36505107463, 14735.141662972173, -26026.371243759542, 53508.71276959334, -25376.62838418822, 11146.390276716982, -22425.974598643137, -29232.5501719177, -18723.27401915479, 0.026000000000000002, 0.962, 0.318, 192.0, 0.0, 0.0, 0.0, 0.0, 0.0, 0.0, 0.0, 0.0, 0.0, 1.695766997368515E9, 0.0, 2023-09-26 17:23:17.368
14.0, 34599.42753308148, 50363.755269498266, -18851.327163139245, -25069.850691539134, 11940.346591513944, 10176.391622590021, -187500.02235174447, -20926.463118369953, 14729.956058258542, -26037.323598542644, 53662.3139574902, -25382.238672046504, 11152.335840742093, -22440.05619764998, -29244.709520901386, -18581.429848841413, 0.026000000000000002, 0.962, 0.318, 192.0, 0.0, 0.0, 0.0, 0.0, 0.0, 0.0, 0.0, 0.0, 0.0, 1.695766997368519E9, 0.0, 2023-09-26 17:23:17.368
16.0, 34595.09129465715, 50364.135249154, -18849.15904392708, -25063.99453449184, 11958.540911500564, 10191.657864052995, -187500.02235174447, -20887.213455106434, 14739.053218251851, -26029.165211816457, 53522.34733371107, -25383.736238925012, 11139.505939424747, -22432.523659768543, -29244.486003456834, -18713.88628648356, 0.026000000000000002, 0.962, 0.318, 192.0, 0.0, 0.0, 0.0, 0.0, 0.0, 0.0, 0.0, 0.0, 0.0, 1.695766997428348E9, 0.0, 2023-09-26 17:23:17.428
18.0, 34597.14765514704, 50360.82719097462, -18853.83055851824, -25071.25885143982, 11939.676039180284, 10191.903733242003, -187500.02235174447, -20919.221153166432, 14726.91622101262, -26040.117566599558, 53649.93109106197, -25384.83147440332, 11151.933509341898, -22437.48574703762, -29247.12350930256, -18593.745660036286, 0.024, 0.962, 0.32, 192.0, 0.0, 96.0, 15.0, 8.0, 5.0, 0.0, 0.0, 0.0, 0.0, 1.695766997428359E9, 0.0, 2023-09-26 17:23:17.428
20.0, 34593.48196905637, 50350.47833329181, -18857.20567193099, -25073.225804951886, 11956.439847521764, 10179.230294135845, -187500.02235174447, -20908.76053676135, 14732.05712223734, -26037.614171220564, 53537.09948505157, -25388.653622705177, 11135.683791122889, -22435.988180159115, -29251.12447156006, -18709.57239980369, 0.024, 0.962, 0.32, 192.0, 0.0, 0.0, 0.0, 0.0, 0.0, 0.0, 0.0, 0.0, 0.0, 1.695766997428363E9, 0.0, 2023-09-26 17:23:17.428
22.0, 34605.216634895405, 50369.23144688982, -18853.02589571785, -25064.933307758965, 11954.986984132169, 10206.521774115774, -187500.02235174447, -20900.825667479716, 14728.749064057954, -26041.59278173361, 53652.680355629964, -25381.5904714573, 11149.474817451814, -22440.413825561267, -29246.184736035437, -18598.4395263719, 0.024, 0.962, 0.32, 192.0, 0.0, 0.0, 0.0, 0.0, 0.0, 0.0, 0.0, 0.0, 0.0, 1.695766997428367E9, 0.0, 2023-09-26 17:23:17.428
24.0, 34601.10391391563, 50361.27422586372, -18851.707142794985, -25065.24623218134, 11959.099705111947, 10167.897959697004, -187500.02235174447, -20903.55258030326, 14742.920070042619, -26030.551019972685, 53575.70094772589, -25374.706134165066, 11139.461235935836, -22431.182555101223, -29235.053567296694, -18676.625928476566, 0.024, 0.962, 0.32, 192.0, 0.0, 0.0, 0.0, 0.0, 0.0, 0.0, 0.0, 0.0, 0.0, 1.69576699742837E9, 0.0, 2023-09-26 17:23:17.428
26.0, 34598.4664080699, 50361.02835667472, -18854.769331785363, -25069.269546183295, 11956.372792288399, 10213.316704430188, -187500.02235174447, -20900.04335642378, 14729.598430347256, -26040.899877655494, 53638.62110836758, -25382.126913324228, 11147.418456961925, -22442.0455029065, -29243.569581934167, -18612.63288410102, 0.024, 0.962, 0.32, 192.0, 0.0, 0.0, 0.0, 0.0, 0.0, 0.0, 0.0, 0.0, 0.0, 1.695766997428374E9, 0.0, 2023-09-26 17:23:17.428
28.0, 34584.60832650761, 50342.834036688095, -18855.708105052487, -25071.77294156229, 11960.88784466837, 10160.141904371012, -187500.02235174447, -20913.85673449716, 14731.900660026153, -26039.71523519936, 53576.46090703737, -25392.02873611793, 11136.242584734271, -22439.609162760873, -29238.428680709447, -18673.675498208464, 0.02, 0.966, 0.316, 192.0, 0.0, 80.0, 15.0, 24.0, 4.5, 112.0, 0.0, 0.0, 0.0, 1.695766997428377E9, 0.0, 2023-09-26 17:23:17.428
30.0, 34590.95622193292, 50363.01766193124, -18856.333953897232, -25069.023676994286, 11972.80132446305, 10224.894908058037, -187500.02235174447, -20867.56627173022, 14720.791843031866, -26045.213764335367, 53606.903982985496, -25390.46411400606, 11154.079276809607, -22440.793805217007, -29235.031215552237, -18636.482195434834, 0.02, 0.966, 0.316, 192.0, 0.0, 0.0, 0.0, 0.0, 0.0, 0.0, 0.0, 0.0, 0.0, 1.695766997488453E9, 0.0, 2023-09-26 17:23:17.488
32.0, 34587.75992247581, 50351.01477515874, -18859.01616323187, -25073.315211929705, 11957.468027766708, 10153.704601967884, -187500.02235174447, -20903.19495239198, 14730.648962336656, -26037.614171220564, 53582.920561184954, -25389.145361083196, 11138.991849302274, -22437.239877848613, -29231.92432307295, -18658.722181167865, 0.02, 0.966, 0.316, 192.0, 0.0, 0.0, 0.0, 0.0, 0.0, 0.0, 0.0, 0.0, 0.0, 1.695766997488471E9, 0.0, 2023-09-26 17:23:17.488
34.0, 34584.295402085234, 50354.56870252713, -18867.241605191422, -25080.043087010752, 11970.230873850689, 10230.460492427408, -187500.02235174447, -20871.231957820888, 14725.016322733918, -26051.025217893748, 53575.20920934787, -25399.158942599173, 11148.893672095975, -22448.929840198736, -29237.087576042126, -18657.001096844804, 0.02, 0.966, 0.316, 192.0, 0.0, 0.0, 0.0, 0.0, 0.0, 0.0, 0.0, 0.0, 0.0, 1.695766997488474E9, 0.0, 2023-09-26 17:23:17.488
36.0, 34589.07867539867, 50344.242196588784, -18859.865529521172, -25067.190833948953, 11941.88886188136, 10152.095276367101, -187500.02235174447, -20914.2367141529, 14725.955096001042, -26047.091310869615, 53620.35973314759, -25401.572931000344, 11133.046285277163, -22439.609162760873, -29236.662892897475, -18608.743680565796, 0.02, 0.966, 0.316, 192.0, 0.0, 0.0, 0.0, 0.0, 0.0, 0.0, 0.0, 0.0, 0.0, 1.695766997488478E9, 0.0, 2023-09-26 17:23:17.488
38.0, 34598.93579470346, 50370.170220156935, -18853.58468932923, -25059.390075134048, 11974.164780874824, 10235.73550411886, -187500.02235174447, -20862.60418446114, 14726.871517523708, -26041.235153822323, 53555.20439806037, -25388.07247734934, 11149.184244773895, -22437.217526104156, -29233.13131727354, -18667.08173359415, 0.012, 0.96, 0.318, 192.0, 0.0, 48.0, 15.0, 0.0, 4.5, 120.0, 0.0, 0.0, 0.0, 1.695766997488481E9, 0.0, 2023-09-26 17:23:17.488
40.0, 34597.594690036145, 50358.435554317904, -18856.333953897232, -25061.044104223743, 11946.31450728351, 10150.553005999685, -187500.02235174447, -20919.958760733458, 14740.908413041641, -26031.10981358407, 53613.63185806655, -25378.617689444745, 11148.334878484593, -22427.24864807709, -29226.604607892587, -18613.459898645866, 0.012, 0.96, 0.318, 192.0, 0.0, 0.0, 0.0, 0.0, 0.0, 0.0, 0.0, 0.0, 0.0, 1.695766997488485E9, 0.0, 2023-09-26 17:23:17.488
42.0, 34591.73853298885, 50360.938949696894, -18868.02391624736, -25068.308421171718, 11969.31445232802, 10232.248631983834, -187500.02235174447, -20868.03565836378, 14732.459453637535, -26046.95720040288, 53518.122854009016, -25390.106486094774, 11151.262957008239, -22440.324418583445, -29240.619151666066, -18703.336263100657, 0.012, 0.96, 0.318, 192.0, 0.0, 0.0, 0.0, 0.0, 0.0, 0.0, 0.0, 0.0, 0.0, 1.695766997488488E9, 0.0, 2023-09-26 17:23:17.488
44.0, 34593.683134756466, 50342.52111226572, -18866.481645879943, -25072.68936308496, 11938.93843161326, 10146.976726886836, -187500.02235174447, -20922.015121223347, 14730.023113491907, -26050.667589982462, 53617.36459939058, -25399.918901910652, 11143.931584826898, -22442.805462217984, -29243.12254704506, -18608.162535209958, 0.012, 0.96, 0.318, 192.0, 0.0, 0.0, 0.0, 0.0, 0.0, 0.0, 0.0, 0.0, 0.0, 1.695766997488493E9, 0.0, 2023-09-26 17:23:17.488
46.0, 34591.20209112192, 50356.84858046158, -18865.453465635, -25070.700057828435, 11974.969443675214, 10226.370123192088, -187500.02235174447, -20868.527396741796, 14727.095034968263, -26053.327447572643, 53498.52037412171, -25394.778000685932, 11147.7313813843, -22448.549860542997, -29242.83197436714, -18713.03692019426, 0.012, 0.96, 0.318, 192.0, 0.0, 0.0, 0.0, 0.0, 0.0, 0.0, 0.0, 0.0, 0.0, 1.695766997548162E9, 0.0, 2023-09-26 17:23:17.548
48.0, 34599.829864481675, 50352.51234203725, -18858.16679694257, -25066.654392082026, 11947.543853228552, 10147.781389687229, -187500.02235174447, -20927.938333504004, 14734.873442038708, -26049.080616126135, 53639.693992101435, -25385.83730290381, 11145.518558683225, -22447.566383786965, -29238.965122576374, -18578.568825551134, 0.014, 0.962, 0.32, 192.0, 0.0, 56.0, 15.0, 8.0, 5.0, 0.0, 0.0, 0.0, 0.0, 1.695766997548177E9, 0.0, 2023-09-26 17:23:17.548
50.0, 34598.80168423673, 50365.5881125436, -18861.4525033775, -25062.63107808007, 11983.172533890312, 10231.488672672353, -187500.02235174447, -20867.946251385958, 14735.25342169445, -26044.319694557154, 53512.177289983905, -25381.45636099057, 11148.021954062218, -22442.470186051152, -29234.092442285117, -18702.55395204472, 0.014, 0.962, 0.32, 192.0, 0.0, 0.0, 0.0, 0.0, 0.0, 0.0, 0.0, 0.0, 0.0, 1.69576699754818E9, 0.0, 2023-09-26 17:23:17.548
52.0, 34604.32256511719, 50351.81943795913, -18861.988945244426, -25068.800159549734, 11950.31546954101, 10163.829942206137, -187500.02235174447, -20907.866466983138, 14730.716017570021, -26045.593743991107, 53668.8183151267, -25386.776076170932, 11146.949070328365, -22439.363293571867, -29232.483116684332, -18550.986772893284, 0.014, 0.962, 0.32, 192.0, 0.0, 0.0, 0.0, 0.0, 0.0, 0.0, 0.0, 0.0, 0.0, 1.695766997548184E9, 0.0, 2023-09-26 17:23:17.548
54.0, 34586.30705908621, 50347.14792336797, -18872.136637227137, -25081.33948818916, 11982.546685045563, 10216.44594865393, -187500.02235174447, -20870.44964676495, 14724.524584355902, -26062.91634594397, 53509.629191116, -25406.713832225065, 11139.997677802763, -22453.57900304544, -29236.886410342027, -18702.285731111257, 0.014, 0.962, 0.32, 192.0, 0.0, 0.0, 0.0, 0.0, 0.0, 0.0, 0.0, 0.0, 0.0, 1.695766997548187E9, 0.0, 2023-09-26 17:23:17.548
56.0, 34598.622870281084, 50353.85344670456, -18862.34657315571, -25075.840959053156, 11958.339745800466, 10169.306119597688, -187500.02235174447, -20913.1861821635, 14718.981351730985, -26061.86581395457, 53679.32363502069, -25407.138515369716, 11149.20659651835, -22453.02020943406, -29231.142012017015, -18533.61946745151, 0.014, 0.962, 0.32, 192.0, 0.0, 0.0, 0.0, 0.0, 0.0, 0.0, 0.0, 0.0, 0.0, 1.695766997548191E9, 0.0, 2023-09-26 17:23:17.548
58.0, 34600.70158251543, 50361.67655726392, -18863.12888421165, -25072.26467994031, 11981.65261526735, 10208.153451461012, -187500.02235174447, -20873.80240843325, 14733.15235771565, -26040.20697357738, 53496.508717120734, -25388.050125604885, 11146.099704039063, -22438.82685170494, -29227.74454685981, -18709.930027714974, 0.016, 0.962, 0.318, 192.0, 0.0, 64.0, 15.0, 8.0, 4.5, 120.0, 0.0, 0.0, 0.0, 1.695766997548194E9, 0.0, 2023-09-26 17:23:17.548
60.0, 34614.313794888716, 50365.81162998815, -18867.800398802807, -25069.604822350124, 11943.900518882338, 10180.25847438079, -187500.02235174447, -20909.542847817283, 14727.095034968263, -26048.76769170376, 53644.94665204843, -25389.03360236092, 11150.950032585864, -22447.83460472043, -29237.244038253313, -18568.711706246344, 0.016, 0.962, 0.318, 192.0, 0.0, 0.0, 0.0, 0.0, 0.0, 0.0, 0.0, 0.0, 0.0, 1.695766997608673E9, 0.0, 2023-09-26 17:23:17.608
62.0, 34611.58688206517, 50371.53367656871, -18860.983116743937, -25055.72438904338, 11979.104516399446, 10215.39541666453, -187500.02235174447, -20859.966678615416, 14732.906488526642, -26031.512144984263, 53502.43192940139, -25376.538977210403, 11139.617698147023, -22429.372063800343, -29235.41119520798, -18703.55978054521, 0.016, 0.962, 0.318, 192.0, 0.0, 0.0, 0.0, 0.0, 0.0, 0.0, 0.0, 0.0, 0.0, 1.695766997608686E9, 0.0, 2023-09-26 17:23:17.608
64.0, 34611.20690240942, 50368.7397085118, -18864.715858067975, -25062.72048505789, 11950.471931752198, 10197.312855400189, -187500.02235174447, -20902.36793784713, 14735.074607738807, -26034.35081653009, 53649.93109106197, -25379.288241778406, 11155.040401821185, -22432.300142323988, -29237.154631275494, -18565.62716551151, 0.016, 0.962, 0.318, 192.0, 0.0, 0.0, 0.0, 0.0, 0.0, 0.0, 0.0, 0.0, 0.0, 1.69576699760869E9, 0.0, 2023-09-26 17:23:17.608
66.0, 34604.724896517386, 50360.246045618784, -18867.487474380432, -25070.297726428238, 11962.98890864717, 10191.747271030818, -187500.02235174447, -20882.385478304088, 14740.193157219072, -26040.0952148551, 53520.53684241019, -25385.613785459256, 11145.071523794119, -22436.5469737705, -29239.45686095439, -18688.695870482432, 0.016, 0.962, 0.318, 192.0, 0.0, 0.0, 0.0, 0.0, 0.0, 0.0, 0.0, 0.0, 0.0, 1.695766997608694E9, 0.0, 2023-09-26 17:23:17.608
68.0, 34614.33614663317, 50373.29946438068, -18872.136637227137, -25078.411409665518, 11949.689620696261, 10202.051425224714, -187500.02235174447, -20898.0316994228, 14734.851090294254, -26050.1982033489, 53652.03215504076, -25388.11718083825, 11157.58850068909, -22451.299125111, -29249.828070381653, -18564.420171310925, 0.016, 0.9580000000000001, 0.314, 192.0, 0.0, 64.0, 14.5, 120.0, 4.5, 104.0, 0.0, 0.0, 0.0, 1.695766997608698E9, 0.0, 2023-09-26 17:23:17.608
70.0, 34610.22342565339, 50372.87478123603, -18877.568111129774, -25076.623270109092, 11951.097780596947, 10171.116610898569, -187500.02235174447, -20911.37569086262, 14737.510947884435, -26036.943618886904, 53544.69907816638, -25382.864520891253, 11142.679887137401, -22445.890002952816, -29249.55984944819, -18672.334393541147, 0.016, 0.9580000000000001, 0.314, 192.0, 0.0, 0.0, 0.0, 0.0, 0.0, 0.0, 0.0, 0.0, 0.0, 1.695766997608702E9, 0.0, 2023-09-26 17:23:17.608
72.0, 34618.89590250205, 50379.93793248391, -18879.423305919565, -25073.024639251787, 11951.701277697239, 10207.840527038637, -187500.02235174447, -20900.08805991269, 14728.525546613402, -26037.278895053732, 53619.46566336938, -25378.193006300095, 11152.022916319718, -22449.68979951022, -29259.17109956397, -18604.988587497304, 0.016, 0.9580000000000001, 0.314, 192.0, 0.0, 0.0, 0.0, 0.0, 0.0, 0.0, 0.0, 0.0, 0.0, 1.69576699760871E9, 0.0, 2023-09-26 17:23:17.608
74.0, 34612.27978614328, 50367.26449337775, -18876.67404135156, -25063.726313558378, 11949.421399762798, 10174.759945244783, -187500.02235174447, -20904.446650081474, 14741.958945031041, -26026.170078059447, 53544.632022933016, -25369.27466026243, 11141.58465165909, -22431.20490684568, -29248.621076181065, -18679.866931422584, 0.016, 0.9580000000000001, 0.314, 192.0, 0.0, 0.0, 0.0, 0.0, 0.0, 0.0, 0.0, 0.0, 0.0, 1.695766997608714E9, 0.0, 2023-09-26 17:23:17.608
76.0, 34608.703507030434, 50373.053595191675, -18870.59436685972, -25070.83416829517, 11959.725553956694, 10225.297239458232, -187500.02235174447, -20886.47584753941, 14725.86568902322, -26042.755072445285, 53620.78441629224, -25379.869387134244, 11150.391238974482, -22443.408959318276, -29251.146823304516, -18598.327767649625, 0.016, 0.9580000000000001, 0.314, 192.0, 0.0, 0.0, 0.0, 0.0, 0.0, 0.0, 0.0, 0.0, 0.0, 1.695766997668775E9, 0.0, 2023-09-26 17:23:17.668
78.0, 34598.0640766697, 50352.95937692635, -18867.845102291718, -25075.259813697317, 11957.557434744529, 10156.185645602423, -187500.02235174447, -20913.56616181924, 14733.286468182383, -26043.470328267853, 53582.294712340205, -25391.22407331754, 11145.8314831056, -22443.72188374065, -29239.389805721024, -18634.716407622866, 0.016, 0.962, 0.318, 192.0, 0.0, 64.0, 15.0, 8.0, 4.5, 120.0, 0.0, 0.0, 0.0, 1.695766997668788E9, 0.0, 2023-09-26 17:23:17.668
80.0, 34594.68896325695, 50360.98365318581, -18875.511750639886, -25079.551348632736, 11968.107458127435, 10234.483806429364, -187500.02235174447, -20868.326231041698, 14726.335075656782, -26052.88041268354, 53585.33454958613, -25394.487428008015, 11154.548663443169, -22449.153357643292, -29233.667759140466, -18628.033236030726, 0.016, 0.962, 0.318, 192.0, 0.0, 0.0, 0.0, 0.0, 0.0, 0.0, 0.0, 0.0, 0.0, 1.695766997668792E9, 0.0, 2023-09-26 17:23:17.668
82.0, 34599.38282959257, 50347.90788267945, -18876.897558796118, -25081.96533703391, 11953.802341676039, 10160.991270660314, -187500.02235174447, -20903.150248903068, 14723.25053492195, -26051.62871499404, 53591.593038033614, -25398.756611198976, 11135.236756233782, -22450.896793710806, -29246.005922079796, -18616.164459724958, 0.016, 0.962, 0.318, 192.0, 0.0, 0.0, 0.0, 0.0, 0.0, 0.0, 0.0, 0.0, 0.0, 1.695766997668795E9, 0.0, 2023-09-26 17:23:17.668
84.0, 34617.13011469008, 50382.93306624092, -18871.868416293673, -25072.979935762876, 11970.007356406137, 10242.64219315555, -187500.02235174447, -20863.90058563955, 14731.453625137046, -26044.185584090425, 53566.51438075476, -25382.283375535415, 11152.894634353475, -22448.080473909435, -29241.893201100018, -18641.13135828154, 0.016, 0.962, 0.318, 192.0, 0.0, 0.0, 0.0, 0.0, 0.0, 0.0, 0.0, 0.0, 0.0, 1.695766997668799E9, 0.0, 2023-09-26 17:23:17.668
86.0, 34617.35363213463, 50369.70083352338, -18866.056962735292, -25066.63204033757, 11942.134731070368, 10147.647279220495, -187500.02235174447, -20918.885876999604, 14742.495386897968, -26034.797851419193, 53605.853450996095, -25379.10942782276, 11140.86939583652, -22439.787976716518, -29241.870849355564, -18611.11296547806, 0.016, 0.962, 0.318, 192.0, 0.0, 0.0, 0.0, 0.0, 0.0, 0.0, 0.0, 0.0, 0.0, 1.695766997668802E9, 0.0, 2023-09-26 17:23:17.668
88.0, 34612.12332393209, 50380.40731911747, -18870.97434651546, -25062.653429824524, 11964.50882727013, 10235.400227952032, -187500.02235174447, -20874.65177472255, 14735.856918794743, -26037.167136331456, 53519.91099356544, -25380.584642956812, 11154.34749774307, -22437.597505759895, -29242.876677856053, -18693.56855077369, 0.016, 0.962, 0.318, 192.0, 0.0, 64.0, 15.0, 8.0, 4.5, 120.0, 0.0, 0.0, 0.0, 1.695766997668806E9, 0.0, 2023-09-26 17:23:17.668
90.0, 34609.66463204201, 50364.11289740955, -18871.801361060305, -25066.49792987084, 11938.357286257422, 10148.071962365148, -187500.02235174447, -20933.682731829016, 14730.738369314477, -26037.50241249829, 53623.35486690461, -25385.099695336783, 11144.333916227093, -22440.659694750273, -29249.157518047992, -18596.58433158211, 0.016, 0.962, 0.318, 192.0, 0.0, 0.0, 0.0, 0.0, 0.0, 0.0, 0.0, 0.0, 0.0, 1.695766997729204E9, 0.0, 2023-09-26 17:23:17.729
92.0, 34616.817190267706, 50380.11674643955, -18871.957823271492, -25063.949831002934, 11970.074411639502, 10232.315687217199, -187500.02235174447, -20869.42146652001, 14738.807349062843, -26025.52187747024, 53539.02173507473, -25367.486520706003, 11157.052058822163, -22435.027055147537, -29245.536535446234, -18673.139056341537, 0.016, 0.962, 0.318, 192.0, 0.0, 0.0, 0.0, 0.0, 0.0, 0.0, 0.0, 0.0, 0.0, 1.695766997729218E9, 0.0, 2023-09-26 17:23:17.729
94.0, 34620.39346938056, 50368.1362114115, -18884.765372844384, -25075.930366030978, 11928.276649508078, 10146.95437514238, -187500.02235174447, -20944.791548823305, 14741.690724097578, -26029.29932228319, 53653.19444575244, -25369.811102129355, 11145.965593572331, -22442.000799417594, -29261.294515287223, -18568.935223690896, 0.016, 0.962, 0.318, 192.0, 0.0, 0.0, 0.0, 0.0, 0.0, 0.0, 0.0, 0.0, 0.0, 1.695766997729222E9, 0.0, 2023-09-26 17:23:17.729
96.0, 34610.96103322042, 50364.78344974321, -18888.498114168422, -25083.462903912416, 11973.85185645245, 10216.848280054126, -187500.02235174447, -20875.16586484502, 14743.6800293541, -26039.2458485658, 53515.038313274184, -25379.26589003395, 11147.597270917568, -22448.147529142803, -29259.707541430897, -18703.64918752303, 0.016, 0.962, 0.318, 192.0, 0.0, 0.0, 0.0, 0.0, 0.0, 0.0, 0.0, 0.0, 0.0, 1.695766997729225E9, 0.0, 2023-09-26 17:23:17.729
98.0, 34586.977611419876, 50330.49587374877, -18899.606931162707, -25097.946834319453, 11939.161949057812, 10148.027258876236, -187500.02235174447, -20933.302752173277, 14722.669389566112, -26066.44792156791, 53622.46079712639, -25405.238617091014, 11140.891747580976, -22465.648945051307, -29257.137090818538, -18604.049814230184, 0.016, 0.9580000000000001, 0.314, 192.0, 0.0, 64.0, 14.5, 120.0, 4.5, 104.0, 0.0, 0.0, 0.0, 1.695766997729229E9, 0.0, 2023-09-26 17:23:17.729
100.0, 34583.02135265128, 50337.96135639684, -18877.344593685222, -25080.8701015556, 11985.94415020277, 10225.766626091794, -187500.02235174447, -20849.88604186607, 14714.421595862103, -26068.68309601344, 53497.46984213231, -25408.144343870204, 11138.343648713071, -22464.44195085072, -29248.151689547503, -18713.103975427624, 0.016, 0.9580000000000001, 0.314, 192.0, 0.0, 0.0, 0.0, 0.0, 0.0, 0.0, 0.0, 0.0, 0.0, 1.695766997729232E9, 0.0, 2023-09-26 17:23:17.729
102.0, 34584.89889918553, 50324.01386785673, -18873.321279683267, -25093.87881682859, 11952.528292242087, 10151.91646241146, -187500.02235174447, -20926.843098025693, 14712.7228632835, -26070.33712510313, 53655.94371032044, -25407.496143281, 11151.06179130814, -22468.621727063863, -29231.723157372853, -18558.809883452643, 0.016, 0.9580000000000001, 0.314, 192.0, 0.0, 0.0, 0.0, 0.0, 0.0, 0.0, 0.0, 0.0, 0.0, 1.695766997729236E9, 0.0, 2023-09-26 17:23:17.729
104.0, 34591.06798065519, 50343.4822372773, -18881.457314665, -25097.566854663713, 11978.769240232616, 10199.97271299037, -187500.02235174447, -20879.88208292509, 14723.518755855413, -26068.861909969084, 53495.681702575894, -25404.79158220191, 11149.161893029439, -22468.957003230695, -29235.41119520798, -18715.674426039986, 0.016, 0.9580000000000001, 0.314, 192.0, 0.0, 0.0, 0.0, 0.0, 0.0, 0.0, 0.0, 0.0, 0.0, 1.695766997729239E9, 0.0, 2023-09-26 17:23:17.729
106.0, 34596.47710281338, 50339.61538548653, -18892.342614214733, -25101.903093088044, 11940.234832791666, 10152.318793811655, -187500.02235174447, -20929.90528701607, 14718.19904067505, -26073.421665837966, 53662.02338481229, -25407.339681069814, 11146.390276716982, -22476.64600332332, -29253.918439616973, -18558.988697408284, 0.016, 0.9580000000000001, 0.314, 192.0, 0.0, 0.0, 0.0, 0.0, 0.0, 0.0, 0.0, 0.0, 0.0, 1.695766997788391E9, 0.0, 2023-09-26 17:23:17.788
108.0, 34588.87750969857, 50340.26358607574, -18898.422288706577, -25098.796200608755, 11957.803303933539, 10191.233180908344, -187500.02235174447, -20897.674071511516, 14727.095034968263, -26065.598555278608, 53493.35712115254, -25403.673994979144, 11140.198843502862, -22465.604241562396, -29257.226497796357, -18719.451870852932, 0.016, 0.96, 0.31, 192.0, 0.0, 64.0, 15.0, 0.0, 4.5, 88.0, 0.0, 0.0, 0.0, 1.695766997788404E9, 0.0, 2023-09-26 17:23:17.788
110.0, 34592.29732660024, 50337.871949419015, -18893.773125859872, -25088.961433048422, 11939.810149647015, 10178.447983079908, -187500.02235174447, -20919.19880142198, 14709.124232426195, -26075.12039841657, 53664.48207670237, -25413.821686961855, 11138.455407435347, -22470.186349175736, -29267.26243105679, -18550.807958937643, 0.016, 0.96, 0.31, 192.0, 0.0, 0.0, 0.0, 0.0, 0.0, 0.0, 0.0, 0.0, 0.0, 1.695766997788407E9, 0.0, 2023-09-26 17:23:17.788
112.0, 34596.164178391, 50342.76698145473, -18882.530198398854, -25069.314249672207, 11974.924740186303, 10186.002872705803, -187500.02235174447, -20886.498199283862, 14723.049369221852, -26065.86677621207, 53520.02275228772, -25407.429088047636, 11134.72266611131, -22457.579965302943, -29252.666741927475, -18688.137076871048, 0.016, 0.96, 0.31, 192.0, 0.0, 0.0, 0.0, 0.0, 0.0, 0.0, 0.0, 0.0, 0.0, 1.695766997788411E9, 0.0, 2023-09-26 17:23:17.788
114.0, 34598.08642841416, 50347.952586168365, -18890.666233380583, -25078.992555021356, 11947.40974276182, 10185.958169216892, -187500.02235174447, -20921.389272378598, 14721.194174432061, -26061.888165699027, 53634.55309087671, -25399.002480387986, 11156.426209977415, -22458.272869381057, -29254.544288461722, -18588.06831694464, 0.016, 0.96, 0.31, 192.0, 0.0, 0.0, 0.0, 0.0, 0.0, 0.0, 0.0, 0.0, 0.0, 1.695766997788415E9, 0.0, 2023-09-26 17:23:17.788
116.0, 34591.20209112192, 50339.30246106416, -18893.817829348784, -25086.502741158336, 11959.79260919006, 10162.667651494463, -187500.02235174447, -20918.930580488515, 14724.166956444617, -26066.134997145535, 53521.52031916622, -25402.399945545192, 11138.6789248799, -22464.196081661714, -29265.049608355715, -18696.742498486343, 0.016, 0.96, 0.31, 192.0, 0.0, 0.0, 0.0, 0.0, 0.0, 0.0, 0.0, 0.0, 0.0, 1.695766997788423E9, 0.0, 2023-09-26 17:23:17.788
118.0, 34604.300213372735, 50355.88745545, -18890.64388163613, -25084.938119046466, 11954.271728309599, 10189.534448329741, -187500.02235174447, -20913.65556879706, 14717.528488341391, -26068.213709379877, 53627.44523613992, -25393.97333788554, 11156.023878577218, -22468.77818927505, -29260.087521086636, -18597.701918804876, 0.018000000000000002, 0.96, 0.316, 192.0, 0.0, 72.0, 15.0, 0.0, 4.5, 112.0, 0.0, 0.0, 0.0, 1.695766997788426E9, 0.0, 2023-09-26 17:23:17.788
120.0, 34607.25064364084, 50354.1887228714, -18890.93445431405, -25084.982822535378, 11952.103609097436, 10152.519959511752, -187500.02235174447, -20914.19201066399, 14723.116424455218, -26061.39642732101, 53534.26081350575, -25396.052050119884, 11133.940355055376, -22465.380724117844, -29266.74834093432, -18689.098201882625, 0.018000000000000002, 0.96, 0.316, 192.0, 0.0, 0.0, 0.0, 0.0, 0.0, 0.0, 0.0, 0.0, 0.0, 1.695766997848201E9, 0.0, 2023-09-26 17:23:17.848
122.0, 34602.84734998314, 50361.02835667472, -18890.576826402765, -25090.59311039366, 11962.877149924892, 10206.342960160133, -187500.02235174447, -20895.12597264361, 14725.597468089756, -26055.96495341837, 53595.68340726893, -25389.726506439034, 11149.519520940725, -22460.508043826587, -29258.03116059675, -18629.754320353786, 0.018000000000000002, 0.96, 0.316, 192.0, 0.0, 0.0, 0.0, 0.0, 0.0, 0.0, 0.0, 0.0, 0.0, 1.695766997848214E9, 0.0, 2023-09-26 17:23:17.848
124.0, 34597.63939352505, 50340.464751775835, -18876.07054425127, -25089.810799337723, 11961.2231208352, 10143.735723940817, -187500.02235174447, -20919.355263633166, 14723.831680277788, -26064.279802355744, 53552.43278174791, -25401.036489133417, 11134.007410288741, -22467.16886367427, -29250.565677948678, -18669.138094084035, 0.018000000000000002, 0.96, 0.316, 192.0, 0.0, 0.0, 0.0, 0.0, 0.0, 0.0, 0.0, 0.0, 0.0, 1.695766997848218E9, 0.0, 2023-09-26 17:23:17.848
126.0, 34594.08546615666, 50349.07017339113, -18875.578805873254, -25090.794276093755, 11970.2755773396, 10205.44889038192, -187500.02235174447, -20901.27270236882, 14716.500308096447, -26074.427494338455, 53586.94387518691, -25401.88585542272, 11155.107457054552, -22474.54493934452, -29239.747433632307, -18632.280067477237, 0.018000000000000002, 0.96, 0.316, 192.0, 0.0, 0.0, 0.0, 0.0, 0.0, 0.0, 0.0, 0.0, 0.0, 1.695766997848221E9, 0.0, 2023-09-26 17:23:17.848
128.0, 34603.89788197254, 50343.10225762156, -18875.712916339984, -25083.932290545978, 11955.501074254642, 10140.248851805789, -187500.02235174447, -20924.89849625808, 14725.351598900748, -26063.430436066443, 53576.393851804, -25397.41550653166, 11142.322259226115, -22465.24661365111, -29242.899029600507, -18644.81939611666, 0.02, 0.96, 0.304, 192.0, 0.0, 80.0, 15.0, 0.0, 4.5, 64.0, 0.0, 0.0, 0.0, 1.695766997848224E9, 0.0, 2023-09-26 17:23:17.848
130.0, 34606.4683325849, 50358.435554317904, -18881.144390242625, -25088.961433048422, 11971.169647117811, 10221.028056267269, -187500.02235174447, -20880.843207936672, 14719.71895929801, -26064.59272677812, 53561.41818301895, -25392.40871577367, 11154.615718676534, -22459.77043625956, -29249.828070381653, -18660.30915502419, 0.02, 0.96, 0.304, 192.0, 0.0, 0.0, 0.0, 0.0, 0.0, 0.0, 0.0, 0.0, 0.0, 1.695766997848228E9, 0.0, 2023-09-26 17:23:17.848
132.0, 34609.396411108544, 50343.884568677495, -18867.800398802807, -25080.333659688673, 11953.109437597925, 10142.573433229141, -187500.02235174447, -20912.336815874198, 14732.705322826545, -26050.712293471373, 53589.46962231036, -25395.202683830583, 11143.708067382344, -22454.54012805702, -29248.866945370075, -18631.6989221214, 0.02, 0.96, 0.304, 192.0, 0.0, 0.0, 0.0, 0.0, 0.0, 0.0, 0.0, 0.0, 0.0, 1.695766997848231E9, 0.0, 2023-09-26 17:23:17.848
134.0, 34606.043649440246, 50357.11680139504, -18866.503997624397, -25074.00811600782, 11982.569036790019, 10234.59556515164, -187500.02235174447, -20868.75091418635, 14730.760721058932, -26042.710368956374, 53542.70977290985, -25388.743029683, 11159.376640245515, -22448.77337798755, -29240.797965621707, -18675.575396487166, 0.02, 0.96, 0.304, 192.0, 0.0, 0.0, 0.0, 0.0, 0.0, 0.0, 0.0, 0.0, 0.0, 1.695766997848234E9, 0.0, 2023-09-26 17:23:17.848
136.0, 34610.581053564674, 50350.72420248082, -18856.691581808518, -25064.665086825502, 11947.499149739642, 10142.171101828946, -187500.02235174447, -20934.19682195149, 14726.245668678961, -26026.10302282608, 53613.81067202219, -25388.720677938545, 11142.948108070865, -22440.369122072356, -29250.722140159865, -18603.692186318898, 0.02, 0.96, 0.304, 192.0, 0.0, 0.0, 0.0, 0.0, 0.0, 0.0, 0.0, 0.0, 0.0, 1.695766997908518E9, 0.0, 2023-09-26 17:23:17.908
138.0, 34605.909538973516, 50360.246045618784, -18858.926756254048, -25071.504720628825, 11977.003452420648, 10225.185480735956, -187500.02235174447, -20886.609958006142, 14732.593564104267, -26018.52578145573, 53516.379417941505, -25381.143436568196, 11159.309585012148, -22434.15533711378, -29249.090462814627, -18700.162315388003, 0.016, 0.968, 0.314, 192.0, 0.0, 64.0, 15.0, 32.0, 4.5, 104.0, 0.0, 0.0, 0.0, 1.695766997908529E9, 0.0, 2023-09-26 17:23:17.908
140.0, 34605.57426280669, 50342.34229831008, -18859.485549865432, -25083.284089956775, 11939.340763013455, 10140.159444827968, -187500.02235174447, -20938.018970253346, 14728.212622191028, -26023.06318558016, 53610.74848303181, -25399.047183876897, 11146.055000550152, -22446.359389586378, -29262.859137399097, -18614.555134124177, 0.016, 0.968, 0.314, 192.0, 0.0, 0.0, 0.0, 0.0, 0.0, 0.0, 0.0, 0.0, 0.0, 1.695766997908532E9, 0.0, 2023-09-26 17:23:17.908
142.0, 34611.1174954316, 50362.03418517521, -18853.405875373588, -25082.457075411927, 11967.70512672724, 10223.419692923986, -187500.02235174447, -20879.390344547075, 14730.24663093646, -26013.831915120118, 53518.10050226456, -25393.16867508515, 11149.474817451814, -22444.951229685692, -29264.088483344138, -18699.75998398781, 0.016, 0.968, 0.314, 192.0, 0.0, 0.0, 0.0, 0.0, 0.0, 0.0, 0.0, 0.0, 0.0, 1.695766997908535E9, 0.0, 2023-09-26 17:23:17.908
144.0, 34612.88328324357, 50351.55121702567, -18843.280535135335, -25077.427932909482, 11932.344666998944, 10154.173988601446, -187500.02235174447, -20921.881010756613, 14740.05904675234, -26005.651176649473, 53637.07883800016, -25384.295032536393, 11150.815922119133, -22434.468261536153, -29255.7065791734, -18593.768011780743, 0.016, 0.968, 0.314, 192.0, 0.0, 0.0, 0.0, 0.0, 0.0, 0.0, 0.0, 0.0, 0.0, 1.695766997908538E9, 0.0, 2023-09-26 17:23:17.908
146.0, 34609.955204719925, 50366.325720110624, -18840.553622311785, -25076.556214875727, 11955.679888210285, 10225.45370166942, -187500.02235174447, -20884.978280660904, 14737.287430439883, -25996.419906189432, 53512.06553126163, -25378.908262122663, 11149.787741874188, -22429.86380217836, -29260.288686786735, -18713.238085894358, 0.016, 0.968, 0.314, 192.0, 0.0, 0.0, 0.0, 0.0, 0.0, 0.0, 0.0, 0.0, 0.0, 1.695766997908542E9, 0.0, 2023-09-26 17:23:17.908
148.0, 34602.44501858295, 50344.35395531106, -18830.741206495906, -25086.502741158336, 11953.824693420494, 10145.277994308233, -187500.02235174447, -20922.819784023737, 14727.6761803241, -26004.555941171166, 53652.25567248531, -25394.710945452567, 11151.486474452791, -22439.67621799424, -29253.583163450145, -18582.793305253184, 0.024, 0.964, 0.318, 192.0, 0.0, 96.0, 15.0, 16.0, 4.5, 120.0, 0.0, 0.0, 0.0, 1.695766997908545E9, 0.0, 2023-09-26 17:23:17.908
150.0, 34592.833768467164, 50344.71158322234, -18838.4972618219, -25086.882720814076, 11985.877094969404, 10212.512041629798, -187500.02235174447, -20868.79561767526, 14735.6781048391, -26008.936883084403, 53504.912973035935, -25404.433954290624, 11160.740096657288, -22437.418691804254, -29226.269331725758, -18718.110766185615, 0.024, 0.964, 0.318, 192.0, 0.0, 0.0, 0.0, 0.0, 0.0, 0.0, 0.0, 0.0, 0.0, 1.695766997968866E9, 0.0, 2023-09-26 17:23:17.968
152.0, 34598.645222025545, 50340.040068631184, -18841.023008945347, -25087.463866169914, 11941.665344436806, 10154.911596168471, -187500.02235174447, -20930.978170749924, 14723.00466573294, -26018.279912266724, 53675.12150706309, -25412.21236136107, 11152.380544231004, -22448.505157054085, -29249.49279421482, -18553.7807409502, 0.024, 0.964, 0.318, 192.0, 0.0, 0.0, 0.0, 0.0, 0.0, 0.0, 0.0, 0.0, 0.0, 1.695766997968876E9, 0.0, 2023-09-26 17:23:17.968
154.0, 34611.60923380962, 50359.86606596304, -18831.47881406293, -25073.941060774454, 11976.824638465005, 10204.01837873678, -187500.02235174447, -20885.201798105456, 14743.076532253806, -25997.24692073428, 53513.89837430696, -25386.820779659844, 11158.214349533839, -22425.751081198585, -29233.243075995815, -18708.5665713032, 0.024, 0.964, 0.318, 192.0, 0.0, 0.0, 0.0, 0.0, 0.0, 0.0, 0.0, 0.0, 0.0, 1.69576699796888E9, 0.0, 2023-09-26 17:23:17.968
156.0, 34616.548969334246, 50360.40250782997, -18839.525442066843, -25078.63492711007, 11946.560376472518, 10172.904750454993, -187500.02235174447, -20921.43397586751, 14737.175671717605, -26001.627862647518, 53666.33727149216, -25386.865483148755, 11158.862550123044, -22434.15533711378, -29247.659951169488, -18566.96827017883, 0.024, 0.964, 0.318, 192.0, 0.0, 0.0, 0.0, 0.0, 0.0, 0.0, 0.0, 0.0, 0.0, 1.695766997968883E9, 0.0, 2023-09-26 17:23:17.968
158.0, 34608.52469307479, 50361.296577608184, -18845.4486543475, -25075.14805497504, 11962.072487124502, 10198.87747751206, -187500.02235174447, -20895.37184183262, 14737.376837417703, -25997.62690039002, 53529.522243681226, -25390.575872728336, 11147.26199475074, -22432.166031857258, -29245.760052890786, -18696.206056619412, 0.02, 0.96, 0.322, 192.0, 0.0, 80.0, 15.0, 0.0, 5.0, 8.0, 0.0, 0.0, 0.0, 1.695766997968887E9, 0.0, 2023-09-26 17:23:17.968
160.0, 34608.211768652414, 50363.35293809807, -18841.58180255673, -25069.7165810724, 11948.952013129237, 10178.336224357632, -187500.02235174447, -20917.3883101211, 14732.593564104267, -26005.114734782546, 53686.36443452411, -25391.157018084174, 11160.449523979369, -22434.177688858235, -29247.32467500266, -18545.018857123716, 0.02, 0.96, 0.322, 192.0, 0.0, 0.0, 0.0, 0.0, 0.0, 0.0, 0.0, 0.0, 0.0, 1.69576699796889E9, 0.0, 2023-09-26 17:23:17.968
162.0, 34609.08348668617, 50362.36946134204, -18845.135729925125, -25066.520281615292, 11959.256167323134, 10180.951378458903, -187500.02235174447, -20896.869408711125, 14741.623668864211, -26001.00201380277, 53543.64854617698, -25386.954890126573, 11151.307660497148, -22432.81423244646, -29243.994265078818, -18681.99034714584, 0.02, 0.96, 0.322, 192.0, 0.0, 0.0, 0.0, 0.0, 0.0, 0.0, 0.0, 0.0, 0.0, 1.695766997968893E9, 0.0, 2023-09-26 17:23:17.968
164.0, 34616.3701553786, 50366.99627244428, -18849.53902358282, -25073.024639251787, 11935.183338544768, 10178.224465635356, -187500.02235174447, -20927.558353848264, 14735.834567050288, -25999.459743435353, 53661.39753596754, -25382.931576124618, 11159.980137345809, -22435.11646212536, -29256.578297207154, -18570.656308013953, 0.02, 0.96, 0.322, 192.0, 0.0, 0.0, 0.0, 0.0, 0.0, 0.0, 0.0, 0.0, 0.0, 1.695766997968896E9, 0.0, 2023-09-26 17:23:17.968
166.0, 34610.312832631214, 50362.548275297675, -18846.63329680363, -25076.891491042556, 11959.770257445605, 10165.573378273652, -187500.02235174447, -20917.075385698725, 14743.188290976082, -25992.575406143118, 53538.99938333027, -25384.339736025304, 11146.34557322807, -22431.495479523597, -29252.21970703837, -18693.300329840225, 0.02, 0.96, 0.322, 192.0, 0.0, 0.0, 0.0, 0.0, 0.0, 0.0, 0.0, 0.0, 0.0, 1.695766998029178E9, 0.0, 2023-09-26 17:23:18.029
168.0, 34607.34005061866, 50363.889379964996, -18837.044398432303, -25077.7185055874, 11962.363059802421, 10199.100994956612, -187500.02235174447, -20901.451516324465, 14734.716979827523, -25997.00105154527, 53629.09926522962, -25384.40679125867, 11162.818808891632, -22438.938610427216, -29241.69203539992, -18607.469631131844, 0.014, 0.9560000000000001, 0.324, 192.0, 0.0, 56.0, 14.5, 112.0, 5.0, 16.0, 0.0, 0.0, 0.0, 1.695766998029187E9, 0.0, 2023-09-26 17:23:18.029
170.0, 34603.22732963888, 50349.7854292137, -18829.981247184427, -25068.844863038645, 11962.675984224796, 10160.857160193582, -187500.02235174447, -20909.296978628277, 14739.455549652046, -25993.268310221232, 53547.493046223295, -25389.21241631656, 11153.855759365053, -22430.444947534197, -29227.54338115971, -18687.041841392736, 0.014, 0.9560000000000001, 0.324, 192.0, 0.0, 0.0, 0.0, 0.0, 0.0, 0.0, 0.0, 0.0, 0.0, 1.695766998029191E9, 0.0, 2023-09-26 17:23:18.029
172.0, 34604.70254477293, 50358.837885718094, -18841.15711941208, -25077.517339887305, 11960.977251646193, 10208.846355539126, -187500.02235174447, -20904.9830919484, 14731.163052459127, -26004.511237682254, 53604.75821551779, -25387.4913319935, 11166.283329282205, -22435.228220847635, -29239.300398743202, -18634.247020989304, 0.014, 0.9560000000000001, 0.324, 192.0, 0.0, 0.0, 0.0, 0.0, 0.0, 0.0, 0.0, 0.0, 0.0, 1.695766998029194E9, 0.0, 2023-09-26 17:23:18.029
174.0, 34602.84734998314, 50344.242196588784, -18842.92290722405, -25079.01490676581, 11954.674059709796, 10154.352802557089, -187500.02235174447, -20924.183240435512, 14738.382665918192, -26000.197351002378, 53566.82730517713, -25391.671108206643, 11152.469951208825, -22430.512002767566, -29241.021483066263, -18673.45198076391, 0.014, 0.9560000000000001, 0.324, 192.0, 0.0, 0.0, 0.0, 0.0, 0.0, 0.0, 0.0, 0.0, 0.0, 1.695766998029197E9, 0.0, 2023-09-26 17:23:18.029
176.0, 34611.922158231995, 50358.97199618483, -18843.861680491173, -25081.67476435599, 11963.123019113902, 10214.657809097507, -187500.02235174447, -20897.56231278924, 14734.873442038708, -26007.796944117184, 53598.18680264793, -25393.012212873964, 11163.846989136577, -22435.809366203473, -29251.146823304516, -18639.276163491748, 0.014, 0.9560000000000001, 0.324, 192.0, 0.0, 0.0, 0.0, 0.0, 0.0, 0.0, 0.0, 0.0, 0.0, 1.6957669980292E9, 0.0, 2023-09-26 17:23:18.029
178.0, 34606.825960496186, 50343.325775066114, -18844.465177591464, -25078.322002687695, 11946.046286350047, 10150.53065425523, -187500.02235174447, -20932.654551584073, 14735.432235650092, -26000.04088879119, 53612.357808632594, -25394.018041374453, 11147.530215684203, -22433.753005713585, -29249.78336689274, -18627.92147730845, 0.016, 0.9540000000000001, 0.32, 192.0, 0.0, 64.0, 14.5, 104.0, 5.0, 0.0, 0.0, 0.0, 0.0, 1.695766998029204E9, 0.0, 2023-09-26 17:23:18.029
180.0, 34611.1174954316, 50356.7368217393, -18845.962744469973, -25074.72337183039, 11962.541873758064, 10211.439157895942, -187500.02235174447, -20904.893684970582, 14735.298125183359, -26001.29258648069, 53603.66298003948, -25395.11327685276, 11159.108419312051, -22435.429386547734, -29255.572468706665, -18638.73972162482, 0.016, 0.9540000000000001, 0.32, 192.0, 0.0, 0.0, 0.0, 0.0, 0.0, 0.0, 0.0, 0.0, 0.0, 1.695766998089472E9, 0.0, 2023-09-26 17:23:18.089
182.0, 34611.13984717606, 50350.59009201409, -18845.87333749215, -25073.516377629803, 11942.067675837003, 10134.258584291767, -187500.02235174447, -20948.85956631417, 14744.171767732118, -25990.407286930953, 53606.836927752134, -25385.904358137173, 11152.715820397832, -22427.427462032734, -29251.727968660354, -18648.440378718424, 0.016, 0.9540000000000001, 0.32, 192.0, 0.0, 0.0, 0.0, 0.0, 0.0, 0.0, 0.0, 0.0, 0.0, 1.695766998089485E9, 0.0, 2023-09-26 17:23:18.089
184.0, 34600.07573367068, 50356.87093220603, -18852.4000468731, -25079.037258510263, 11967.101629626946, 10222.793844079239, -187500.02235174447, -20889.538036529786, 14733.353523415748, -26002.678394636918, 53545.61549968905, -25392.341660540304, 11162.952919358364, -22432.456604535175, -29254.49958497281, -18704.18562938996, 0.016, 0.9540000000000001, 0.32, 192.0, 0.0, 0.0, 0.0, 0.0, 0.0, 0.0, 0.0, 0.0, 0.0, 1.695766998089489E9, 0.0, 2023-09-26 17:23:18.089
186.0, 34603.89788197254, 50341.71644946533, -18853.00354397339, -25081.47359865589, 11927.494338452141, 10135.197357558889, -187500.02235174447, -20946.91496454656, 14732.861785037732, -26005.740583627296, 53628.42871289596, -25400.164771099662, 11149.519520940725, -22435.11646212536, -29261.89801238752, -18623.048797017193, 0.016, 0.9540000000000001, 0.32, 192.0, 0.0, 0.0, 0.0, 0.0, 0.0, 0.0, 0.0, 0.0, 0.0, 1.695766998089493E9, 0.0, 2023-09-26 17:23:18.089
188.0, 34601.05921042671, 50356.468600805834, -18834.876279220138, -25075.326868930682, 11984.066603668523, 10232.114521517102, -187500.02235174447, -20871.36606828762, 14733.130005971196, -25999.169170757435, 53547.42599098993, -25393.481599507526, 11163.668175180934, -22427.829793432928, -29245.558887190688, -18698.910617698504, 0.014, 0.9560000000000001, 0.312, 192.0, 0.0, 56.0, 14.5, 112.0, 4.5, 96.0, 0.0, 0.0, 0.0, 1.695766998089496E9, 0.0, 2023-09-26 17:23:18.089
190.0, 34603.875530228084, 50339.50362676426, -18836.127976909636, -25084.82636032419, 11940.234832791666, 10131.822244146138, -187500.02235174447, -20944.27745870083, 14736.236898450483, -26003.550112670677, 53654.35673646411, -25396.20851233107, 11161.723573413323, -22435.54114527001, -29236.193506263913, -18604.58625609711, 0.014, 0.9560000000000001, 0.312, 192.0, 0.0, 0.0, 0.0, 0.0, 0.0, 0.0, 0.0, 0.0, 0.0, 1.695766998089499E9, 0.0, 2023-09-26 17:23:18.089
192.0, 34610.871626242595, 50362.05653691966, -18840.508918822878, -25079.171368976997, 11972.398993062854, 10216.155375976012, -187500.02235174447, -20888.107524884646, 14729.732540813988, -26007.327557483623, 53548.54357821269, -25395.269739063948, 11162.572939702624, -22442.514889540063, -29245.64829416851, -18701.54812354423, 0.014, 0.9560000000000001, 0.312, 192.0, 0.0, 0.0, 0.0, 0.0, 0.0, 0.0, 0.0, 0.0, 0.0, 1.695766998089503E9, 0.0, 2023-09-26 17:23:18.089
194.0, 34614.82788501118, 50351.12653388102, -18841.939430468017, -25074.49985438584, 11936.077408322979, 10136.940793626403, -187500.02235174447, -20947.451406413486, 14741.10957874174, -26001.404345202965, 53686.453841501934, -25389.16771282765, 11160.315413512637, -22436.077587136937, -29255.483061728846, -18574.67962201591, 0.014, 0.9560000000000001, 0.312, 192.0, 0.0, 0.0, 0.0, 0.0, 0.0, 0.0, 0.0, 0.0, 0.0, 1.695766998089506E9, 0.0, 2023-09-26 17:23:18.089
196.0, 34612.413896610014, 50363.84467647609, -18842.34176186821, -25066.386171148562, 11974.790629719571, 10218.569364377185, -187500.02235174447, -20879.837379436183, 14741.44485490857, -25991.457818920353, 53539.15584554146, -25379.77998015642, 11165.165742059438, -22425.81813643195, -29248.531669203243, -18719.071891197193, 0.014, 0.9560000000000001, 0.312, 192.0, 0.0, 0.0, 0.0, 0.0, 0.0, 0.0, 0.0, 0.0, 0.0, 1.695766998148307E9, 0.0, 2023-09-26 17:23:18.148
198.0, 34613.889111744065, 50354.00990891575, -18845.11337818067, -25072.801121807235, 11940.54775721404, 10152.072924622647, -187500.02235174447, -20933.14628996209, 14737.086264739784, -26000.91260682495, 53686.40913801303, -25385.25615754797, 11165.501018226269, -22431.182555101223, -29251.12447156006, -18582.234511641804, 0.018000000000000002, 0.9540000000000001, 0.316, 192.0, 0.0, 72.0, 14.5, 104.0, 4.5, 112.0, 0.0, 0.0, 0.0, 1.695766998148318E9, 0.0, 2023-09-26 17:23:18.148
200.0, 34616.325451889694, 50365.74457475479, -18846.00744795888, -25066.67674382648, 11972.242530851667, 10205.82887003766, -187500.02235174447, -20888.93453942949, 14738.807349062843, -26003.10307778157, 53534.08199955011, -25378.863558633755, 11159.421343734426, -22431.026092890035, -29254.097253572614, -18726.716187800906, 0.018000000000000002, 0.9540000000000001, 0.316, 192.0, 0.0, 0.0, 0.0, 0.0, 0.0, 0.0, 0.0, 0.0, 0.0, 1.695766998148322E9, 0.0, 2023-09-26 17:23:18.148
202.0, 34615.78901002276, 50356.64741476148, -18853.182357929036, -25074.34339217465, 11936.323277511989, 10160.588939260118, -187500.02235174447, -20940.209441209965, 14738.337962429281, -26005.651176649473, 53668.86301861561, -25378.103599322272, 11168.049117094173, -22427.785089944016, -29256.377131507055, -18599.95944499486, 0.018000000000000002, 0.9540000000000001, 0.316, 192.0, 0.0, 0.0, 0.0, 0.0, 0.0, 0.0, 0.0, 0.0, 0.0, 1.695766998148325E9, 0.0, 2023-09-26 17:23:18.148
204.0, 34614.24673965535, 50362.280054364215, -18843.839328746715, -25067.950793260432, 11980.51267630013, 10201.805556035704, -187500.02235174447, -20896.80235347776, 14739.96963977452, -26006.992281316794, 53520.02275228772, -25382.953927869075, 11159.957785601353, -22431.026092890035, -29252.84555588312, -18735.589830349665, 0.018000000000000002, 0.9540000000000001, 0.316, 192.0, 0.0, 0.0, 0.0, 0.0, 0.0, 0.0, 0.0, 0.0, 0.0, 1.695766998148329E9, 0.0, 2023-09-26 17:23:18.148
206.0, 34610.111666931116, 50352.713507737346, -18842.16294791257, -25078.38905792106, 11948.12499858439, 10166.735668985328, -187500.02235174447, -20942.735188333416, 14735.052255994351, -26015.083612809613, 53673.42277448449, -25386.48550349301, 11171.156009573462, -22439.16212787177, -29250.83389888214, -18592.80688676916, 0.018000000000000002, 0.9540000000000001, 0.316, 192.0, 0.0, 0.0, 0.0, 0.0, 0.0, 0.0, 0.0, 0.0, 0.0, 1.695766998148333E9, 0.0, 2023-09-26 17:23:18.148
208.0, 34597.88526271406, 50351.70767923685, -18838.787834499817, -25077.696153842946, 11975.125905886402, 10192.931913486947, -187500.02235174447, -20903.262007625344, 14736.438064150581, -26013.29547325319, 53530.639830903994, -25393.056916362875, 11161.410648990948, -22437.753967971083, -29243.16725053397, -18725.84446976715, 0.028, 0.96, 0.31, 192.0, 0.0, 112.0, 15.0, 0.0, 4.5, 88.0, 0.0, 0.0, 0.0, 1.695766998148336E9, 0.0, 2023-09-26 17:23:18.148
210.0, 34611.54217857625, 50359.15081014047, -18836.463253076465, -25076.10917998662, 11952.304774797532, 10187.925122728959, -187500.02235174447, -20918.28237989931, 14721.417691876613, -26017.072918066136, 53699.037873630274, -25390.03943086141, 11167.803247905165, -22439.475052294143, -29247.972875591862, -18557.87111018552, 0.028, 0.96, 0.31, 192.0, 0.0, 0.0, 0.0, 0.0, 0.0, 0.0, 0.0, 0.0, 0.0, 1.69576699820847E9, 0.0, 2023-09-26 17:23:18.208
212.0, 34611.363364620614, 50359.30727235166, -18835.1445001536, -25073.404618907527, 11964.218254592211, 10180.392584847521, -187500.02235174447, -20903.843152981182, 14742.741256086978, -25999.638557390997, 53566.2461598213, -25383.19979705808, 11161.410648990948, -22427.807441688474, -29241.91555284447, -18688.762925715797, 0.028, 0.96, 0.31, 192.0, 0.0, 0.0, 0.0, 0.0, 0.0, 0.0, 0.0, 0.0, 0.0, 1.695766998208482E9, 0.0, 2023-09-26 17:23:18.208
214.0, 34612.346841376646, 50364.716394509844, -18836.44090133201, -25074.030467752276, 11957.445676022253, 10197.178744933457, -187500.02235174447, -20912.828554252214, 14732.548860615358, -26003.706574881864, 53672.21578028391, -25388.877140149732, 11173.301777041172, -22431.517831268055, -29247.011750580285, -18583.82148549813, 0.028, 0.96, 0.31, 192.0, 0.0, 0.0, 0.0, 0.0, 0.0, 0.0, 0.0, 0.0, 0.0, 1.695766998208485E9, 0.0, 2023-09-26 17:23:18.208
216.0, 34607.18358840747, 50353.048783904174, -18834.473947819944, -25072.24232819585, 11964.08414412548, 10169.462581808875, -187500.02235174447, -20910.883952484604, 14739.097921740762, -26006.47819119432, 53577.71260472687, -25392.92280589614, 11157.20852103335, -22431.875459179337, -29247.92817210295, -18671.999117374315, 0.028, 0.96, 0.31, 192.0, 0.0, 0.0, 0.0, 0.0, 0.0, 0.0, 0.0, 0.0, 0.0, 1.695766998208489E9, 0.0, 2023-09-26 17:23:18.208
218.0, 34610.581053564674, 50362.19064738639, -18836.99969494339, -25070.498892128337, 11963.502998769642, 10207.348788660622, -187500.02235174447, -20902.859676225147, 14737.287430439883, -26006.72406038333, 53653.127390519076, -25389.659451205665, 11174.866399153043, -22430.847278934394, -29244.374244734558, -18601.81463978465, 0.018000000000000002, 0.964, 0.308, 192.0, 0.0, 72.0, 15.0, 16.0, 4.5, 80.0, 0.0, 0.0, 0.0, 1.695766998208492E9, 0.0, 2023-09-26 17:23:18.208
220.0, 34605.95424246243, 50350.36657456953, -18847.68382879303, -25074.47750264138, 11958.451504522742, 10163.96405267287, -187500.02235174447, -20916.76246127635, 14731.900660026153, -26001.76197311425, 53577.4443837934, -25393.12397159624, 11151.575881430612, -22427.87449692184, -29256.086558829138, -18674.16723658648, 0.018000000000000002, 0.964, 0.308, 192.0, 0.0, 0.0, 0.0, 0.0, 0.0, 0.0, 0.0, 0.0, 0.0, 1.695766998208495E9, 0.0, 2023-09-26 17:23:18.208
222.0, 34607.27299538529, 50357.519132795234, -18849.15904392708, -25075.885662542067, 11971.057888395535, 10213.964905019391, -187500.02235174447, -20901.116240157633, 14729.799596047354, -26008.311034239654, 53622.72901805986, -25391.961680884564, 11167.423268249426, -22432.68012197973, -29252.242058782824, -18631.07307327665, 0.018000000000000002, 0.964, 0.308, 192.0, 0.0, 0.0, 0.0, 0.0, 0.0, 0.0, 0.0, 0.0, 0.0, 1.695766998208499E9, 0.0, 2023-09-26 17:23:18.208
224.0, 34594.376038834576, 50338.38603954149, -18852.131825939636, -25073.11404622961, 11952.79651317555, 10152.184683344924, -187500.02235174447, -20928.742996304394, 14730.648962336656, -26009.3392144846, 53591.660093266975, -25399.40481178818, 11150.458294207847, -22432.098976623893, -29257.673532685465, -18663.013716103284, 0.018000000000000002, 0.964, 0.308, 192.0, 0.0, 0.0, 0.0, 0.0, 0.0, 0.0, 0.0, 0.0, 0.0, 1.695766998208502E9, 0.0, 2023-09-26 17:23:18.208
226.0, 34606.22246339589, 50361.05070841917, -18838.541965310807, -25058.80892977821, 11974.053022152546, 10232.516852917297, -187500.02235174447, -20878.31746081322, 14725.306895411837, -26006.746412127784, 53614.592983078124, -25393.436896018615, 11165.25514903726, -22431.696645223696, -29251.325637260157, -18640.97489607035, 0.018000000000000002, 0.964, 0.308, 192.0, 0.0, 0.0, 0.0, 0.0, 0.0, 0.0, 0.0, 0.0, 0.0, 1.695766998268852E9, 0.0, 2023-09-26 17:23:18.268
228.0, 34609.195245408446, 50353.048783904174, -18823.63335175912, -25058.42895012247, 11955.165798087812, 10146.730857697828, -187500.02235174447, -20923.71385380195, 14735.320476927815, -26002.09724928108, 53621.79024479273, -25388.16188432716, 11157.029707077707, -22424.521735253544, -29239.233343509837, -18638.426797202446, 0.02, 0.964, 0.306, 192.0, 0.0, 80.0, 15.0, 16.0, 4.5, 72.0, 0.0, 0.0, 0.0, 1.695766998268859E9, 0.0, 2023-09-26 17:23:18.268
230.0, 34605.73072501788, 50368.47148757833, -18834.451596075487, -25067.995496749343, 11973.85185645245, 10237.724809375382, -187500.02235174447, -20875.83641717868, 14730.514851869924, -26003.058374292657, 53588.19557287641, -25379.042372589396, 11172.608872963057, -22427.762738199563, -29238.003997564796, -18669.4063150175, 0.02, 0.964, 0.306, 192.0, 0.0, 0.0, 0.0, 0.0, 0.0, 0.0, 0.0, 0.0, 0.0, 1.695766998268862E9, 0.0, 2023-09-26 17:23:18.268
232.0, 34607.96589946341, 50347.99728965727, -18840.575974056243, -25073.136397974064, 11947.767370673106, 10142.841654162605, -187500.02235174447, -20939.33772317621, 14726.715055312521, -26004.131258026515, 53658.53651267726, -25386.373744770735, 11156.962651844342, -22435.47409003664, -29243.256657511793, -18599.87003801704, 0.02, 0.964, 0.306, 192.0, 0.0, 0.0, 0.0, 0.0, 0.0, 0.0, 0.0, 0.0, 0.0, 1.695766998268866E9, 0.0, 2023-09-26 17:23:18.268
234.0, 34609.70933553092, 50362.74944099777, -18839.324276366744, -25068.71075257191, 11979.015109421625, 10225.230184224867, -187500.02235174447, -20890.47680979691, 14733.577040860302, -26008.892179595492, 53585.66982575296, -25382.8421691468, 11167.512675227246, -22436.05523539248, -29246.341198246624, -18675.64245172053, 0.02, 0.964, 0.306, 192.0, 0.0, 0.0, 0.0, 0.0, 0.0, 0.0, 0.0, 0.0, 0.0, 1.695766998268869E9, 0.0, 2023-09-26 17:23:18.268
236.0, 34615.1184576891, 50354.4345920604, -18839.525442066843, -25072.801121807235, 11950.002545118636, 10140.852348906083, -187500.02235174447, -20942.846947055692, 14737.667410095622, -26005.24884524928, 53671.81344888371, -25380.763456912453, 11162.282367024705, -22434.20004060269, -29244.731872645843, -18601.993453740295, 0.02, 0.964, 0.306, 192.0, 0.0, 0.0, 0.0, 0.0, 0.0, 0.0, 0.0, 0.0, 0.0, 1.695766998268873E9, 0.0, 2023-09-26 17:23:18.268
238.0, 34619.18647517997, 50374.238237647805, -18838.989000199916, -25069.023676994286, 11985.765336247128, 10228.538242404253, -187500.02235174447, -20881.916091670526, 14739.25438395195, -26003.080726037115, 53579.36663381656, -25373.141512053196, 11167.803247905165, -22432.38954930181, -29241.624980166554, -18684.27022508028, 0.024, 0.964, 0.304, 192.0, 0.0, 96.0, 15.0, 16.0, 4.5, 64.0, 0.0, 0.0, 0.0, 1.695766998268877E9, 0.0, 2023-09-26 17:23:18.268
240.0, 34613.4197251105, 50354.30048159367, -18843.839328746715, -25071.415313651003, 11950.673097452296, 10140.517072739252, -187500.02235174447, -20940.254144698876, 14738.784997318387, -26001.71726962534, 53687.95140838044, -25375.242576031993, 11159.376640245515, -22432.277790579534, -29245.290666257224, -18586.39193611049, 0.024, 0.964, 0.304, 192.0, 0.0, 0.0, 0.0, 0.0, 0.0, 0.0, 0.0, 0.0, 0.0, 1.695766998329128E9, 0.0, 2023-09-26 17:23:18.329
242.0, 34608.45763784142, 50366.16925789944, -18850.96953522796, -25067.72727581588, 11981.719670500717, 10225.587812136151, -187500.02235174447, -20877.691611968472, 14736.7286368285, -26005.092383038093, 53543.31327001015, -25374.236747531504, 11162.863512380543, -22425.68402596522, -29241.73673888883, -18726.80559477873, 0.024, 0.964, 0.304, 192.0, 0.0, 0.0, 0.0, 0.0, 0.0, 0.0, 0.0, 0.0, 0.0, 1.69576699832914E9, 0.0, 2023-09-26 17:23:18.329
244.0, 34608.99407970835, 50355.50747579426, -18856.289250408325, -25073.53872937426, 11944.45931249372, 10156.207997346879, -187500.02235174447, -20937.795452808794, 14726.357427401237, -26008.33338598411, 53685.89504789055, -25382.55159646888, 11156.716782655332, -22430.377892300832, -29252.085596571636, -18592.695128046886, 0.024, 0.964, 0.304, 192.0, 0.0, 0.0, 0.0, 0.0, 0.0, 0.0, 0.0, 0.0, 0.0, 1.695766998329144E9, 0.0, 2023-09-26 17:23:18.329
246.0, 34606.960070962916, 50363.889379964996, -18855.641049819118, -25069.448360138937, 11978.545722788063, 10224.716094102394, -187500.02235174447, -20890.40975456354, 14732.750026315454, -26006.85817085006, 53553.013927103755, -25379.4894074785, 11158.415515233937, -22431.517831268055, -29251.727968660354, -18717.507269085323, 0.024, 0.964, 0.304, 192.0, 0.0, 0.0, 0.0, 0.0, 0.0, 0.0, 0.0, 0.0, 0.0, 1.695766998329148E9, 0.0, 2023-09-26 17:23:18.329
248.0, 34606.043649440246, 50351.41710655893, -18847.773235770852, -25070.83416829517, 11947.65561195083, 10163.96405267287, -187500.02235174447, -20942.176394722035, 14719.495441853458, -26012.535513941708, 53701.11658586462, -25387.044297104396, 11159.086067567596, -22436.435215048223, -29253.493756472322, -18575.685450516397, 0.02, 0.96, 0.308, 192.0, 0.0, 80.0, 15.0, 0.0, 4.5, 80.0, 0.0, 0.0, 0.0, 1.695766998329151E9, 0.0, 2023-09-26 17:23:18.329
250.0, 34598.913442959005, 50352.60174901507, -18844.06284619127, -25069.671877583492, 11981.47380131171, 10213.987256763847, -187500.02235174447, -20893.56135053174, 14732.928840271097, -26014.770688387238, 53548.744743912786, -25384.563253469856, 11158.571977445125, -22434.468261536153, -29240.842669110618, -18720.07771969768, 0.02, 0.96, 0.308, 192.0, 0.0, 0.0, 0.0, 0.0, 0.0, 0.0, 0.0, 0.0, 0.0, 1.695766998329154E9, 0.0, 2023-09-26 17:23:18.329
252.0, 34605.28369012877, 50349.24898734677, -18839.68190427803, -25069.180139205473, 11959.144408600856, 10173.68706151093, -187500.02235174447, -20927.580705592718, 14729.06198848033, -26014.25659826477, 53694.366359039115, -25383.44566624709, 11168.45144849437, -22433.305970824476, -29230.27029398326, -18583.977947709318, 0.02, 0.96, 0.308, 192.0, 0.0, 0.0, 0.0, 0.0, 0.0, 0.0, 0.0, 0.0, 0.0, 1.695766998329158E9, 0.0, 2023-09-26 17:23:18.329
254.0, 34606.33422211817, 50359.70960375186, -18834.71981700895, -25061.401732135026, 11994.303702629055, 10215.082492242158, -187500.02235174447, -20877.244577079367, 14729.889003025175, -26014.346005242587, 53559.31711904015, -25381.523416223936, 11157.141465799985, -22436.569325514953, -29233.667759140466, -18710.242952137345, 0.02, 0.96, 0.308, 192.0, 0.0, 0.0, 0.0, 0.0, 0.0, 0.0, 0.0, 0.0, 0.0, 1.695766998329161E9, 0.0, 2023-09-26 17:23:18.329
0.0, 34617.97948097938, 50362.704737508866, -18837.357322854677, -25061.178214690473, 11965.626414492895, 10196.39643387752, -187500.02235174447, -20907.598246049674, 14734.381703660692, -26006.63465340551, 53711.845423203165, -25364.5360904379, 11174.866399153043, -22429.77439520054, -29227.521029415257, -18568.242319612782, 0.02, 0.96, 0.308, 192.0, 0.0, 0.0, 0.0, 0.0, 0.0, 0.0, 0.0, 0.0, 0.0, 1.695766998389468E9, 0.0, 2023-09-26 17:23:18.389
2.0, 34615.18551292247, 50359.486086307305, -18841.984133956925, -25063.726313558378, 11976.265844853622, 10198.788070534238, -187500.02235174447, -20891.773210975316, 14739.366142674226, -26004.891217337994, 53569.35305230058, -25368.715866651044, 11159.197826289872, -22428.142717855302, -29233.958331818383, -18705.146754401536, 0.018000000000000002, 0.964, 0.31, 192.0, 0.0, 72.0, 15.0, 16.0, 4.5, 88.0, 0.0, 0.0, 0.0, 1.695766998389478E9, 0.0, 2023-09-26 17:23:18.389
4.0, 34614.60436756663, 50359.888417707494, -18846.05215144779, -25067.503758371327, 11958.339745800466, 10201.514983357785, -187500.02235174447, -20913.297940885775, 14733.174709460105, -26015.10596455407, 53687.169097324506, -25374.124988809228, 11171.111306084551, -22435.764662714562, -29239.613323165577, -18594.215046669848, 0.018000000000000002, 0.964, 0.31, 192.0, 0.0, 0.0, 0.0, 0.0, 0.0, 0.0, 0.0, 0.0, 0.0, 1.695766998389481E9, 0.0, 2023-09-26 17:23:18.389
6.0, 34607.094181429646, 50351.61827225903, -18848.466139848966, -25067.05672348222, 11972.331937829487, 10189.601503563108, -187500.02235174447, -20907.46413558294, 14736.214546706027, -26007.66283365045, 53563.60865397557, -25372.649773675177, 11158.616680934034, -22430.266133578556, -29240.775613877253, -18717.17199291849, 0.018000000000000002, 0.964, 0.31, 192.0, 0.0, 0.0, 0.0, 0.0, 0.0, 0.0, 0.0, 0.0, 0.0, 1.695766998389485E9, 0.0, 2023-09-26 17:23:18.389
8.0, 34611.922158231995, 50360.76013574126, -18853.808206773785, -25074.9692410194, 11957.378620788888, 10200.665617068484, -187500.02235174447, -20926.977208492426, 14722.758796543932, -26020.895066367993, 53684.06220484522, -25377.969488855542, 11167.40091650497, -22441.084377894924, -29250.78919539323, -18601.322901406635, 0.018000000000000002, 0.964, 0.31, 192.0, 0.0, 0.0, 0.0, 0.0, 0.0, 0.0, 0.0, 0.0, 0.0, 1.695766998389488E9, 0.0, 2023-09-26 17:23:18.389
10.0, 34612.92798673248, 50356.133324639006, -18849.91900323856, -25063.122816458086, 11963.905330169837, 10165.68513699593, -187500.02235174447, -20922.41745262354, 14740.036695007884, -26010.836781363105, 53587.614427520566, -25376.114294065752, 11153.967518087331, -22432.166031857258, -29249.448090725913, -18698.485934553853, 0.018000000000000002, 0.964, 0.31, 192.0, 0.0, 0.0, 0.0, 0.0, 0.0, 0.0, 0.0, 0.0, 0.0, 1.695766998389492E9, 0.0, 2023-09-26 17:23:18.389
12.0, 34608.85996924162, 50362.548275297675, -18857.20567193099, -25065.42504613698, 11959.949071401248, 10216.937687031948, -187500.02235174447, -20907.218266393935, 14725.552764600847, -26021.275046023733, 53651.80863759621, -25380.249366789983, 11163.668175180934, -22436.032883648026, -29253.136128561036, -18636.41514020147, 0.018000000000000002, 0.9580000000000001, 0.314, 192.0, 0.0, 72.0, 14.5, 120.0, 4.5, 104.0, 0.0, 0.0, 0.0, 1.695766998389495E9, 0.0, 2023-09-26 17:23:18.389
14.0, 34601.439190082456, 50349.405449557955, -18844.26401189137, -25058.33954314465, 11964.061792381024, 10162.15356137199, -187500.02235174447, -20919.98111247791, 14734.24759319396, -26013.563694186654, 53597.71741601437, -25381.478712735025, 11152.693468653379, -22434.132985369324, -29238.003997564796, -18689.522885027276, 0.018000000000000002, 0.9580000000000001, 0.314, 192.0, 0.0, 0.0, 0.0, 0.0, 0.0, 0.0, 0.0, 0.0, 0.0, 1.695766998448414E9, 0.0, 2023-09-26 17:23:18.448
16.0, 34603.22732963888, 50359.70960375186, -18853.227061417947, -25069.62717409458, 11967.146333115857, 10217.764701576794, -187500.02235174447, -20900.557446546252, 14724.144604700161, -26019.732775656317, 53626.59586985062, -25374.996706842987, 11166.708012426856, -22441.10672963938, -29239.859192354586, -18659.39273350152, 0.018000000000000002, 0.9580000000000001, 0.314, 192.0, 0.0, 0.0, 0.0, 0.0, 0.0, 0.0, 0.0, 0.0, 0.0, 1.695766998448425E9, 0.0, 2023-09-26 17:23:18.448
18.0, 34603.69671627244, 50344.75628671125, -18854.72462829645, -25074.879834041578, 11960.060830123524, 10151.983517644825, -187500.02235174447, -20923.736205546404, 14725.91039251213, -26024.448993736387, 53617.18578543494, -25387.60309071578, 11150.078314552107, -22448.415750076267, -29247.74935814731, -18666.679402193953, 0.018000000000000002, 0.9580000000000001, 0.314, 192.0, 0.0, 0.0, 0.0, 0.0, 0.0, 0.0, 0.0, 0.0, 0.0, 1.695766998448429E9, 0.0, 2023-09-26 17:23:18.448
20.0, 34611.87745474309, 50362.280054364215, -18856.53511959733, -25070.610650850613, 11969.001527905648, 10219.485785899853, -187500.02235174447, -20902.055013424757, 14720.970656987509, -26020.38097624552, 53625.05359948321, -25376.091942321294, 11162.170608302427, -22444.124215140848, -29248.419910480967, -18657.939870111928, 0.018000000000000002, 0.9580000000000001, 0.314, 192.0, 0.0, 0.0, 0.0, 0.0, 0.0, 0.0, 0.0, 0.0, 0.0, 1.695766998448433E9, 0.0, 2023-09-26 17:23:18.448
22.0, 34611.34101287615, 50347.4831995348, -18847.750884026394, -25068.174310704984, 11952.595347475451, 10146.932023397925, -187500.02235174447, -20944.29981044529, 14731.274811181405, -26017.072918066136, 53637.41411416699, -25379.10942782276, 11152.201730275361, -22442.425482562245, -29249.962180848383, -18649.17798628545, 0.016, 0.9560000000000001, 0.318, 192.0, 0.0, 64.0, 14.5, 112.0, 4.5, 120.0, 0.0, 0.0, 0.0, 1.695766998448436E9, 0.0, 2023-09-26 17:23:18.448
24.0, 34620.50522810283, 50368.02445268923, -18838.743131010906, -25060.597069334635, 11991.062699683036, 10235.2661174853, -187500.02235174447, -20885.738239972383, 14734.873442038708, -26022.146764057492, 53595.90692471349, -25372.98504984201, 11173.681756696911, -22442.604296517886, -29236.282913241736, -18682.146809357026, 0.016, 0.9560000000000001, 0.318, 192.0, 0.0, 0.0, 0.0, 0.0, 0.0, 0.0, 0.0, 0.0, 0.0, 1.695766998448439E9, 0.0, 2023-09-26 17:23:18.448
26.0, 34611.34101287615, 50345.47154253382, -18850.14252068311, -25072.778770062778, 11953.98115563168, 10142.215805317855, -187500.02235174447, -20945.819729068247, 14745.401113677159, -26016.96115934386, 53652.3674312076, -25371.10750330776, 11169.16670431694, -22438.849203449394, -29238.78630862073, -18628.435567430923, 0.016, 0.9560000000000001, 0.318, 192.0, 0.0, 0.0, 0.0, 0.0, 0.0, 0.0, 0.0, 0.0, 0.0, 1.695766998448443E9, 0.0, 2023-09-26 17:23:18.448
28.0, 34608.79291400825, 50356.69211825039, -18857.049209719804, -25074.276336941282, 11981.47380131171, 10222.860899312604, -187500.02235174447, -20891.169713875024, 14731.811253048332, -26027.086499582114, 53572.862276180065, -25378.707096422568, 11171.40187876247, -22449.041598921016, -29247.995227336316, -18697.23423686436, 0.016, 0.9560000000000001, 0.318, 192.0, 0.0, 0.0, 0.0, 0.0, 0.0, 0.0, 0.0, 0.0, 0.0, 1.695766998448446E9, 0.0, 2023-09-26 17:23:18.448
30.0, 34607.56356806321, 50341.98467039879, -18855.708105052487, -25076.690325342457, 11950.583690474474, 10143.86983440755, -187500.02235174447, -20944.836252312216, 14734.806386805343, -26015.083612809613, 53659.49763768884, -25377.790674899898, 11162.729401913812, -22439.83268020543, -29247.54819244721, -18621.908858049974, 0.016, 0.9560000000000001, 0.318, 192.0, 0.0, 0.0, 0.0, 0.0, 0.0, 0.0, 0.0, 0.0, 0.0, 1.695766998508686E9, 0.0, 2023-09-26 17:23:18.508
32.0, 34592.1632161335, 50339.32481280861, -18856.423360875055, -25075.72920033088, 11983.194885634766, 10233.1650535065, -187500.02235174447, -20882.497237026364, 14723.183479688583, -26037.92709564294, 53556.45609574987, -25393.436896018615, 11165.299852526172, -22450.226241377146, -29249.69395991492, -18713.88628648356, 0.022, 0.9580000000000001, 0.318, 192.0, 0.0, 88.0, 14.5, 120.0, 4.5, 120.0, 0.0, 0.0, 0.0, 1.695766998508699E9, 0.0, 2023-09-26 17:23:18.508
34.0, 34596.03006792427, 50331.099370849064, -18849.49432009391, -25071.884700284565, 11956.216330077212, 10155.001003146292, -187500.02235174447, -20938.421301653543, 14722.445872121558, -26034.127299085536, 53692.53351599378, -25397.303747809383, 11164.49518972578, -22445.755892486086, -29239.83684061013, -18577.786514495197, 0.022, 0.9580000000000001, 0.318, 192.0, 0.0, 0.0, 0.0, 0.0, 0.0, 0.0, 0.0, 0.0, 0.0, 1.695766998508705E9, 0.0, 2023-09-26 17:23:18.508
36.0, 34598.93579470346, 50350.00894665825, -18853.808206773785, -25071.14709271754, 11988.402842092853, 10221.743312089839, -187500.02235174447, -20893.449591809465, 14728.234973935483, -26033.09911884059, 53558.02071786174, -25388.02777386043, 11164.763410659243, -22444.750063985597, -29238.316921987167, -18700.631702021565, 0.022, 0.9580000000000001, 0.318, 192.0, 0.0, 0.0, 0.0, 0.0, 0.0, 0.0, 0.0, 0.0, 0.0, 1.695766998508711E9, 0.0, 2023-09-26 17:23:18.508
38.0, 34608.010602952316, 50348.15375186846, -18863.866491778674, -25082.30061320074, 11942.358248514922, 10146.596747231097, -187500.02235174447, -20960.080142030733, 14726.268020423417, -26028.360549016066, 53698.79200444127, -25381.612823201755, 11158.97430884532, -22447.83460472043, -29255.371303006566, -18570.477494058312, 0.022, 0.9580000000000001, 0.318, 192.0, 0.0, 0.0, 0.0, 0.0, 0.0, 0.0, 0.0, 0.0, 0.0, 1.695766998508717E9, 0.0, 2023-09-26 17:23:18.508
40.0, 34616.05723095623, 50363.66586252044, -18854.992849229915, -25069.895395028045, 11987.195847892268, 10214.16607071949, -187500.02235174447, -20892.28730109779, 14734.985200760986, -26013.116659297546, 53540.564005442146, -25370.839282374298, 11163.042326336184, -22442.380779073334, -29248.956352347894, -18727.342036645656, 0.022, 0.9580000000000001, 0.318, 192.0, 0.0, 0.0, 0.0, 0.0, 0.0, 0.0, 0.0, 0.0, 0.0, 1.69576699850872E9, 0.0, 2023-09-26 17:23:18.508
42.0, 34612.43624835447, 50351.70767923685, -18858.479721364944, -25074.075171241187, 11956.1716265883, 10170.468410309364, -187500.02235174447, -20930.46408062745, 14725.888040767675, -26015.754165143273, 53700.378978297595, -25371.040448074396, 11167.512675227246, -22443.900697696292, -29249.045759325716, -18575.43958132739, 0.026000000000000002, 0.96, 0.314, 192.0, 0.0, 104.0, 15.0, 0.0, 4.5, 104.0, 0.0, 0.0, 0.0, 1.695766998508724E9, 0.0, 2023-09-26 17:23:18.508
44.0, 34605.59661455114, 50352.62410075952, -18858.63618357613, -25069.738932816857, 11987.397013592365, 10214.993085264336, -187500.02235174447, -20877.624556735107, 14729.10669196924, -26010.76972612974, 53553.39390675949, -25370.4369509741, 11162.148256557974, -22434.602372002886, -29242.228477266846, -18709.304178870225, 0.026000000000000002, 0.96, 0.314, 192.0, 0.0, 0.0, 0.0, 0.0, 0.0, 0.0, 0.0, 0.0, 0.0, 1.695766998568847E9, 0.0, 2023-09-26 17:23:18.568
46.0, 34604.38962035056, 50348.31021407965, -18861.83248303324, -25077.83026430968, 11955.970460888204, 10182.851276737605, -187500.02235174447, -20925.27847591382, 14720.233049420483, -26025.38776700351, 53717.74628373937, -25376.561328954856, 11165.92570137092, -22449.131005898835, -29253.44905298341, -18548.90806065894, 0.026000000000000002, 0.96, 0.314, 192.0, 0.0, 0.0, 0.0, 0.0, 0.0, 0.0, 0.0, 0.0, 0.0, 1.695766998568866E9, 0.0, 2023-09-26 17:23:18.568
48.0, 34606.35657386262, 50353.51817053773, -18853.942317240515, -25075.77390381979, 11976.914045442825, 10186.405204105999, -187500.02235174447, -20909.609903050652, 14732.638267593178, -26015.0389093207, 53567.31904355515, -25375.555500454368, 11158.437866978391, -22444.705360496686, -29249.381035492544, -18692.853294951117, 0.026000000000000002, 0.96, 0.314, 192.0, 0.0, 0.0, 0.0, 0.0, 0.0, 0.0, 0.0, 0.0, 0.0, 1.69576699856887E9, 0.0, 2023-09-26 17:23:18.568
50.0, 34611.09514368715, 50358.48025780681, -18849.15904392708, -25076.019773008797, 11969.649728494851, 10185.421727349965, -187500.02235174447, -20927.692464314994, 14728.905526269142, -26024.024310591736, 53693.025254371794, -25375.19787254308, 11174.218198563838, -22451.030904177536, -29245.380073235046, -18583.262691886746, 0.026000000000000002, 0.96, 0.314, 192.0, 0.0, 0.0, 0.0, 0.0, 0.0, 0.0, 0.0, 0.0, 0.0, 1.695766998568874E9, 0.0, 2023-09-26 17:23:18.568
52.0, 34608.94937621944, 50349.763077469244, -18854.814035274274, -25079.461941654914, 11980.065641411024, 10188.483916340341, -187500.02235174447, -20901.09388841318, 14735.096959483262, -26016.022386076736, 53568.391927289005, -25373.297974264384, 11162.215311791339, -22441.844337206407, -29239.345102232113, -18704.23033287887, 0.028, 0.9560000000000001, 0.32, 192.0, 0.0, 112.0, 14.5, 112.0, 5.0, 0.0, 0.0, 0.0, 0.0, 1.695766998568877E9, 0.0, 2023-09-26 17:23:18.568
54.0, 34604.94841396194, 50347.662013490444, -18866.794570302318, -25089.855502826635, 11958.809132434028, 10192.618989064573, -187500.02235174447, -20920.56225783375, 14727.542069857369, -26031.66860719545, 53668.86301861561, -25386.12787558173, 11170.574864217624, -22456.037694935527, -29250.36451224858, -18611.023558500237, 0.028, 0.9560000000000001, 0.32, 192.0, 0.0, 0.0, 0.0, 0.0, 0.0, 0.0, 0.0, 0.0, 0.0, 1.69576699856888E9, 0.0, 2023-09-26 17:23:18.568
56.0, 34608.05530644122, 50355.418068816434, -18860.759599299385, -25069.62717409458, 11969.202693605745, 10185.44407909442, -187500.02235174447, -20907.732356516404, 14732.302991426348, -26019.978644845327, 53564.90505515398, -25381.03167784592, 11156.783837888699, -22442.53724128452, -29250.699788415408, -18708.588923047653, 0.028, 0.9560000000000001, 0.32, 192.0, 0.0, 0.0, 0.0, 0.0, 0.0, 0.0, 0.0, 0.0, 0.0, 1.695766998568884E9, 0.0, 2023-09-26 17:23:18.568
58.0, 34614.93964373346, 50367.35390035557, -18861.16193069958, -25064.8662525256, 11961.312527813021, 10215.976562020369, -187500.02235174447, -20907.262969882842, 14727.877346024197, -26018.861057622562, 53651.27219572928, -25372.247442274984, 11172.385355518503, -22439.117424382857, -29255.237192539837, -18623.182907483926, 0.028, 0.9560000000000001, 0.32, 192.0, 0.0, 0.0, 0.0, 0.0, 0.0, 0.0, 0.0, 0.0, 0.0, 1.695766998568887E9, 0.0, 2023-09-26 17:23:18.568
60.0, 34610.0669634422, 50357.54148453969, -18860.24550917691, -25066.386171148562, 11971.527275029097, 10182.270131381767, -187500.02235174447, -20906.05597568226, 14740.662543852633, -26010.72502264083, 53566.51438075476, -25363.798482870876, 11162.617643191534, -22430.891982423305, -29246.855288369097, -18704.85618172362, 0.028, 0.9560000000000001, 0.32, 192.0, 0.0, 0.0, 0.0, 0.0, 0.0, 0.0, 0.0, 0.0, 0.0, 1.695766998629262E9, 0.0, 2023-09-26 17:23:18.629
62.0, 34603.96493720591, 50358.39085082899, -18874.237701205933, -25087.86619757011, 11963.480647025186, 10212.534393374252, -187500.02235174447, -20917.209496165455, 14727.854994279742, -26021.587970446108, 53637.63763161154, -25370.034619573908, 11172.11713458504, -22453.064912922968, -29258.098215830116, -18632.97297155535, 0.03, 0.9520000000000001, 0.32, 192.0, 0.0, 120.0, 14.5, 96.0, 5.0, 0.0, 0.0, 0.0, 0.0, 1.695766998629275E9, 0.0, 2023-09-26 17:23:18.629
64.0, 34605.93189071797, 50348.80195245767, -18863.151235956102, -25077.29382244275, 11977.182266376289, 10157.079715380636, -187500.02235174447, -20922.46215611245, 14732.034770492884, -26023.554923958174, 53596.10809041358, -25379.4894074785, 11153.788704131688, -22451.5002908111, -29257.494718729824, -18682.012698890292, 0.03, 0.9520000000000001, 0.32, 192.0, 0.0, 0.0, 0.0, 0.0, 0.0, 0.0, 0.0, 0.0, 0.0, 1.695766998629278E9, 0.0, 2023-09-26 17:23:18.629
66.0, 34606.55773956272, 50363.24117937579, -18869.275613936858, -25082.390020178562, 11992.51556307263, 10228.27002147079, -187500.02235174447, -20894.678937754506, 14734.58286936079, -26027.95821761587, 53611.39668362102, -25376.62838418822, 11177.190980576395, -22451.746160000108, -29244.754224390297, -18666.07590509366, 0.03, 0.9520000000000001, 0.32, 192.0, 0.0, 0.0, 0.0, 0.0, 0.0, 0.0, 0.0, 0.0, 0.0, 1.695766998629282E9, 0.0, 2023-09-26 17:23:18.629
68.0, 34606.825960496186, 50346.65618498995, -18861.318392910765, -25074.142226474552, 11973.069545396513, 10152.788180445217, -187500.02235174447, -20926.61958058114, 14731.498328625958, -26030.327502528133, 53620.8067680367, -25381.769285412942, 11156.806189633155, -22452.17084314476, -29246.899991858005, -18650.943774097417, 0.03, 0.9520000000000001, 0.32, 192.0, 0.0, 0.0, 0.0, 0.0, 0.0, 0.0, 0.0, 0.0, 0.0, 1.695766998629285E9, 0.0, 2023-09-26 17:23:18.629
70.0, 34610.2681291423, 50364.20230438737, -18851.193052672512, -25068.688400827457, 11995.018958451625, 10235.936669818959, -187500.02235174447, -20874.294146811266, 14730.470148381013, -26024.560752458663, 53578.20434310488, -25369.16290154015, 11177.302739298671, -22446.046465164003, -29234.11479402957, -18689.83580944965, 0.03, 0.9520000000000001, 0.32, 192.0, 0.0, 0.0, 0.0, 0.0, 0.0, 0.0, 0.0, 0.0, 0.0, 1.695766998629288E9, 0.0, 2023-09-26 17:23:18.629
72.0, 34611.94450997645, 50349.65131874697, -18849.78489277183, -25071.14709271754, 11968.263920338622, 10152.922290911949, -187500.02235174447, -20930.933467261013, 14738.15914847364, -26015.10596455407, 53617.4540063684, -25370.034619573908, 11172.49711424078, -22441.576116272943, -29228.370395704558, -18656.12937881105, 0.028, 0.9540000000000001, 0.318, 192.0, 0.0, 112.0, 14.5, 104.0, 4.5, 120.0, 0.0, 0.0, 0.0, 1.695766998629291E9, 0.0, 2023-09-26 17:23:18.629
74.0, 34598.17583539198, 50349.003118157765, -18869.275613936858, -25084.133456246076, 11984.558342046541, 10246.464341457407, -187500.02235174447, -20875.32232705621, 14727.117386712718, -26030.998054861793, 53544.49791246628, -25381.724581924034, 11177.615663721046, -22453.57900304544, -29237.35579697559, -18722.13408018757, 0.028, 0.9540000000000001, 0.318, 192.0, 0.0, 0.0, 0.0, 0.0, 0.0, 0.0, 0.0, 0.0, 0.0, 1.695766998689435E9, 0.0, 2023-09-26 17:23:18.689
76.0, 34594.77837023477, 50338.05076337466, -18869.476779636952, -25081.11597074461, 11953.444713764753, 10157.325584569644, -187500.02235174447, -20935.739092318905, 14723.116424455218, -26045.638447480018, 53647.65121312752, -25394.465076263557, 11157.856721622555, -22458.027000192047, -29250.945657604418, -18615.44920390239, 0.028, 0.9540000000000001, 0.318, 192.0, 0.0, 0.0, 0.0, 0.0, 0.0, 0.0, 0.0, 0.0, 0.0, 1.695766998689449E9, 0.0, 2023-09-26 17:23:18.689
78.0, 34591.447960310936, 50353.83109496011, -18870.281442437346, -25070.16361596151, 11988.246379881666, 10245.302050745733, -187500.02235174447, -20878.94330965797, 14725.508061111936, -26033.881429896526, 53552.11985732554, -25383.915052880653, 11169.658442694956, -22446.40409307529, -29245.804756379697, -18703.04569042274, 0.028, 0.9540000000000001, 0.318, 192.0, 0.0, 0.0, 0.0, 0.0, 0.0, 0.0, 0.0, 0.0, 0.0, 1.695766998689453E9, 0.0, 2023-09-26 17:23:18.689
80.0, 34596.07477141318, 50345.51624602274, -18867.554529613797, -25064.776845547778, 11958.786780689572, 10165.126343384545, -187500.02235174447, -20930.687598072007, 14723.585811088778, -26033.277932796234, 53665.89023660305, -25382.573948213336, 11162.461180980346, -22442.693703495708, -29249.6045529371, -18596.71844204884, 0.028, 0.9540000000000001, 0.318, 192.0, 0.0, 0.0, 0.0, 0.0, 0.0, 0.0, 0.0, 0.0, 0.0, 1.695766998689456E9, 0.0, 2023-09-26 17:23:18.689
82.0, 34600.94745170444, 50359.57549328512, -18868.985041258937, -25067.10142697113, 11989.118097915423, 10244.720905389895, -187500.02235174447, -20870.159074087034, 14725.753930300943, -26026.885333882015, 53545.30257526667, -25373.521491708936, 11168.250282794272, -22441.86668895086, -29245.581238935145, -18710.913504471006, 0.028, 0.9580000000000001, 0.314, 192.0, 0.0, 112.0, 14.5, 120.0, 4.5, 104.0, 0.0, 0.0, 0.0, 1.695766998689459E9, 0.0, 2023-09-26 17:23:18.689
84.0, 34604.03199243927, 50345.94092916739, -18868.090971480724, -25076.869139298098, 11961.781914446583, 10157.593805503107, -187500.02235174447, -20927.156022448067, 14728.883174524686, -26029.902819383482, 53685.135088579074, -25377.589509199803, 11165.411611248448, -22451.433235577733, -29247.436433724935, -18585.073183187626, 0.028, 0.9580000000000001, 0.314, 192.0, 0.0, 0.0, 0.0, 0.0, 0.0, 0.0, 0.0, 0.0, 0.0, 1.695766998689462E9, 0.0, 2023-09-26 17:23:18.689
86.0, 34594.95718419042, 50348.086696635095, -18875.936433784536, -25084.848712068644, 11993.99077820668, 10233.768550606794, -187500.02235174447, -20871.45547526544, 14724.301066911348, -26036.116604342056, 53546.39781074498, -25383.289204035904, 11165.523369970724, -22458.183462403234, -29249.448090725913, -18715.74148127335, 0.028, 0.9580000000000001, 0.314, 192.0, 0.0, 0.0, 0.0, 0.0, 0.0, 0.0, 0.0, 0.0, 0.0, 1.695766998689466E9, 0.0, 2023-09-26 17:23:18.689
88.0, 34600.94745170444, 50341.76115295424, -18869.141503470124, -25078.63492711007, 11964.307661570032, 10170.714279498372, -187500.02235174447, -20924.540868346798, 14725.999799489951, -26042.1962788339, 53707.7774057123, -25385.50202673698, 11169.099649083573, -22456.976468202647, -29248.285800014237, -18558.787531708185, 0.028, 0.9580000000000001, 0.314, 192.0, 0.0, 0.0, 0.0, 0.0, 0.0, 0.0, 0.0, 0.0, 0.0, 1.695766998689469E9, 0.0, 2023-09-26 17:23:18.689
90.0, 34595.337163846154, 50357.20620837286, -18867.934509269537, -25073.896357285543, 11994.393109606875, 10230.818120338694, -187500.02235174447, -20871.634289221085, 14730.850128036755, -26027.712348426863, 53532.45032220487, -25376.315459765847, 11168.652614194467, -22446.806424475482, -29244.01661682327, -18722.08937669866, 0.028, 0.9580000000000001, 0.314, 192.0, 0.0, 0.0, 0.0, 0.0, 0.0, 0.0, 0.0, 0.0, 0.0, 1.69576699874894E9, 0.0, 2023-09-26 17:23:18.748
92.0, 34600.589823793154, 50353.317004837634, -18861.228985932947, -25082.34531668965, 11965.380545303888, 10184.05827093819, -187500.02235174447, -20921.076347956223, 14716.813232518822, -26038.217668320856, 53705.698693477956, -25385.658488948167, 11170.127829328518, -22456.82000599146, -29242.183773777935, -18552.171415349414, 0.028, 0.96, 0.312, 192.0, 0.0, 112.0, 15.0, 0.0, 4.5, 96.0, 0.0, 0.0, 0.0, 1.695766998748952E9, 0.0, 2023-09-26 17:23:18.748
94.0, 34608.27882388578, 50358.32379559563, -18846.365075870166, -25071.974107262387, 11993.141411917379, 10207.460547382898, -187500.02235174447, -20886.766420217326, 14738.20385196255, -26035.2448863083, 53538.753514141266, -25384.093866836294, 11169.233759550305, -22451.567346044463, -29238.339273731624, -18713.90863822802, 0.028, 0.96, 0.312, 192.0, 0.0, 0.0, 0.0, 0.0, 0.0, 0.0, 0.0, 0.0, 0.0, 1.695766998748956E9, 0.0, 2023-09-26 17:23:18.748
96.0, 34614.93964373346, 50358.703775251364, -18846.58859331472, -25071.750589817835, 11972.868379696416, 10190.137945430035, -187500.02235174447, -20919.13174618861, 14738.96381127403, -26031.33333102862, 53662.492771445846, -25381.50106447948, 11185.774050447233, -22444.705360496686, -29234.718291129866, -18605.279160175225, 0.028, 0.96, 0.312, 192.0, 0.0, 0.0, 0.0, 0.0, 0.0, 0.0, 0.0, 0.0, 0.0, 1.69576699874896E9, 0.0, 2023-09-26 17:23:18.748
98.0, 34613.84440825515, 50362.19064738639, -18849.20374741599, -25064.843900781143, 11994.37075786242, 10211.2603439403, -187500.02235174447, -20885.917053928024, 14743.992953776475, -26016.558827943663, 53530.2374995038, -25371.12985505222, 11176.54277998719, -22439.87738369434, -29230.247942238802, -18731.56651634771, 0.028, 0.96, 0.312, 192.0, 0.0, 0.0, 0.0, 0.0, 0.0, 0.0, 0.0, 0.0, 0.0, 1.695766998748963E9, 0.0, 2023-09-26 17:23:18.748
100.0, 34607.38475410757, 50349.763077469244, -18867.509826124886, -25080.11014224412, 11974.209484363733, 10197.290503655733, -187500.02235174447, -20916.3377781317, 14732.034770492884, -26036.317770042155, 53678.18369605347, -25381.54576796839, 11183.7400417018, -22451.12031115536, -29239.747433632307, -18588.940034978394, 0.028, 0.96, 0.312, 192.0, 0.0, 0.0, 0.0, 0.0, 0.0, 0.0, 0.0, 0.0, 0.0, 1.695766998748966E9, 0.0, 2023-09-26 17:23:18.748
102.0, 34589.79393122124, 50335.90499590695, -18884.474800166467, -25091.53188366078, 11975.550589031052, 10185.086451183135, -187500.02235174447, -20903.686690769995, 14726.491537867969, -26051.360494060576, 53534.73020013931, -25400.32123331085, 11160.11424781254, -22461.737389771628, -29254.946619861916, -18729.28663841327, 0.018000000000000002, 0.96, 0.31, 192.0, 0.0, 72.0, 15.0, 0.0, 4.5, 88.0, 0.0, 0.0, 0.0, 1.69576699874897E9, 0.0, 2023-09-26 17:23:18.748
104.0, 34601.416838338, 50349.36074606905, -18878.573939630263, -25092.0236220388, 11969.2250453502, 10200.956189746403, -187500.02235174447, -20901.89855121357, 14717.640247063668, -26055.96495341837, 53657.173056265485, -25399.494218766, 11170.172532817429, -22469.851073008904, -29260.534555975744, -18612.699939334387, 0.018000000000000002, 0.96, 0.31, 192.0, 0.0, 0.0, 0.0, 0.0, 0.0, 0.0, 0.0, 0.0, 0.0, 1.695766998808843E9, 0.0, 2023-09-26 17:23:18.808
106.0, 34592.81141672271, 50336.86612091853, -18886.68762286754, -25098.10329653064, 11976.556417531541, 10176.279863867745, -187500.02235174447, -20902.434993080496, 14727.698532068556, -26051.762825460773, 53554.80206666018, -25402.10937286727, 11157.566148944636, -22468.755837530596, -29258.79111990823, -18716.94847547394, 0.018000000000000002, 0.96, 0.31, 192.0, 0.0, 0.0, 0.0, 0.0, 0.0, 0.0, 0.0, 0.0, 0.0, 1.69576699880886E9, 0.0, 2023-09-26 17:23:18.808
108.0, 34597.28176561377, 50349.271339091225, -18887.78285834585, -25100.897264587555, 11980.13269664439, 10208.39932065002, -187500.02235174447, -20896.154152888557, 14715.896810996153, -26057.82014820816, 53656.21193125391, -25400.969433900053, 11172.363003774048, -22474.522587600066, -29259.506375730798, -18615.87388704704, 0.018000000000000002, 0.96, 0.31, 192.0, 0.0, 0.0, 0.0, 0.0, 0.0, 0.0, 0.0, 0.0, 0.0, 1.695766998808864E9, 0.0, 2023-09-26 17:23:18.808
110.0, 34588.87750969857, 50339.25775757525, -18891.31443396979, -25107.312215246227, 11972.220179107211, 10151.000040888792, -187500.02235174447, -20922.015121223347, 14719.763662786921, -26050.555831260186, 53571.945854657395, -25401.46117227807, 11155.86741636603, -22473.226186421656, -29262.233288554347, -18697.770678731285, 0.018000000000000002, 0.96, 0.31, 192.0, 0.0, 0.0, 0.0, 0.0, 0.0, 0.0, 0.0, 0.0, 0.0, 1.695766998808867E9, 0.0, 2023-09-26 17:23:18.808
112.0, 34589.816282965694, 50351.32769958112, -18892.36496595919, -25109.569741436215, 11974.142429130368, 10211.439157895942, -187500.02235174447, -20902.14442040258, 14716.612066818723, -26060.323543587154, 53620.672657569965, -25405.909169424674, 11167.467971738335, -22483.575044104462, -29272.626849726064, -18652.955431098395, 0.016, 0.9580000000000001, 0.308, 192.0, 0.0, 64.0, 14.5, 120.0, 4.5, 80.0, 0.0, 0.0, 0.0, 1.695766998808871E9, 0.0, 2023-09-26 17:23:18.808
114.0, 34594.308983601215, 50342.36465005454, -18886.1064775117, -25101.97014832141, 11957.60213823344, 10141.500549495286, -187500.02235174447, -20931.782833550315, 14722.53527909938, -26056.233174351833, 53595.37048284656, -25406.244445591503, 11152.380544231004, -22475.97545098966, -29270.525785747268, -18680.895111667527, 0.016, 0.9580000000000001, 0.308, 192.0, 0.0, 0.0, 0.0, 0.0, 0.0, 0.0, 0.0, 0.0, 0.0, 1.695766998808874E9, 0.0, 2023-09-26 17:23:18.808
116.0, 34589.10102714313, 50352.17706587042, -18888.2075414905, -25102.43953495497, 11977.741059987673, 10227.822986581683, -187500.02235174447, -20883.123085871113, 14716.455604607536, -26057.842499952618, 53597.42684333645, -25400.343585055303, 11172.251245051772, -22474.58964283343, -29260.17692806446, -18680.381021545058, 0.016, 0.9580000000000001, 0.308, 192.0, 0.0, 0.0, 0.0, 0.0, 0.0, 0.0, 0.0, 0.0, 0.0, 1.695766998808877E9, 0.0, 2023-09-26 17:23:18.808
118.0, 34593.8619487121, 50342.632870987996, -18877.903387296607, -25093.074154028196, 11969.917949428314, 10151.804703689182, -187500.02235174447, -20925.256124169366, 14718.91429649762, -26057.77544471925, 53626.79703555072, -25405.372727557748, 11155.129808799007, -22472.39917187681, -29255.728930917852, -18645.802872872697, 0.016, 0.9580000000000001, 0.308, 192.0, 0.0, 0.0, 0.0, 0.0, 0.0, 0.0, 0.0, 0.0, 0.0, 1.695766998808881E9, 0.0, 2023-09-26 17:23:18.808
120.0, 34593.05728591172, 50353.7863914712, -18886.084125767247, -25084.289918457263, 11982.077298412001, 10239.155321020524, -187500.02235174447, -20880.79850444776, 14718.221392419506, -26051.00286614929, 53572.52700001324, -25397.683727465123, 11172.340652029592, -22465.73835202913, -29252.309114016192, -18696.071946152682, 0.016, 0.9580000000000001, 0.308, 192.0, 0.0, 0.0, 0.0, 0.0, 0.0, 0.0, 0.0, 0.0, 0.0, 1.695766998869038E9, 0.0, 2023-09-26 17:23:18.869
122.0, 34593.16904463399, 50334.183911583896, -18887.31347171229, -25080.713639344413, 11958.764428945116, 10153.10110486759, -187500.02235174447, -20935.42616789653, 14723.541107599869, -26053.841537695116, 53622.706666315404, -25405.328024068836, 11154.414552976437, -22460.53039557104, -29260.445148997922, -18646.853404862097, 0.018000000000000002, 0.96, 0.31, 192.0, 0.0, 72.0, 15.0, 0.0, 4.5, 88.0, 0.0, 0.0, 0.0, 1.69576699886905E9, 0.0, 2023-09-26 17:23:18.869
124.0, 34593.99605917884, 50351.30534783666, -18889.54864615782, -25089.05084002624, 11992.694377028272, 10245.860844357116, -187500.02235174447, -20873.914167155526, 14716.746177285455, -26056.523747029754, 53559.25006380679, -25400.656509477678, 11165.277500781716, -22465.805407262495, -29257.584125707643, -18699.357652587612, 0.018000000000000002, 0.96, 0.31, 192.0, 0.0, 0.0, 0.0, 0.0, 0.0, 0.0, 0.0, 0.0, 0.0, 1.695766998869054E9, 0.0, 2023-09-26 17:23:18.869
126.0, 34594.24192836785, 50337.42491452991, -18891.537951414342, -25100.62904365409, 11958.563263245018, 10146.48498850882, -187500.02235174447, -20939.00244700938, 14719.093110453263, -26051.360494060576, 53652.99328005234, -25400.634157733224, 11155.308622754648, -22470.521625342564, -29261.02629435376, -18608.855439288072, 0.018000000000000002, 0.96, 0.31, 192.0, 0.0, 0.0, 0.0, 0.0, 0.0, 0.0, 0.0, 0.0, 0.0, 1.695766998869057E9, 0.0, 2023-09-26 17:23:18.869
128.0, 34592.99023067835, 50353.85344670456, -18892.052041536816, -25098.885607586577, 11998.103499186456, 10232.561556406208, -187500.02235174447, -20870.203777575945, 14721.842375021264, -26054.445034795408, 53525.99066805729, -25397.482561765024, 11164.49518972578, -22475.751933545107, -29261.22746005386, -18726.023283722792, 0.018000000000000002, 0.96, 0.31, 192.0, 0.0, 0.0, 0.0, 0.0, 0.0, 0.0, 0.0, 0.0, 0.0, 1.69576699886906E9, 0.0, 2023-09-26 17:23:18.869
130.0, 34590.93387018846, 50337.15669359645, -18892.36496595919, -25100.83020935419, 11958.585614989473, 10153.749305456795, -187500.02235174447, -20932.90042077308, 14714.376892373193, -26058.378941819545, 53649.30524221722, -25398.913073410164, 11157.8343698781, -22474.835512022437, -29267.016561867782, -18607.939017765406, 0.018000000000000002, 0.96, 0.31, 192.0, 0.0, 0.0, 0.0, 0.0, 0.0, 0.0, 0.0, 0.0, 0.0, 1.695766998869063E9, 0.0, 2023-09-26 17:23:18.869
132.0, 34590.84446321064, 50353.54052228219, -18889.056907779803, -25095.979880807387, 11993.119060172923, 10231.779245350272, -187500.02235174447, -20876.864597423628, 14718.020226719407, -26054.936773173427, 53523.62138314502, -25395.850884419786, 11159.019012334229, -22471.5051020986, -29258.388788508033, -18722.581115076675, 0.018000000000000002, 0.9560000000000001, 0.314, 192.0, 0.0, 72.0, 14.5, 112.0, 4.5, 104.0, 0.0, 0.0, 0.0, 1.695766998869067E9, 0.0, 2023-09-26 17:23:18.869
134.0, 34597.95231794743, 50350.41127805845, -18884.608910633197, -25096.91865407451, 11966.98987090467, 10164.925177684448, -187500.02235174447, -20926.597228836683, 14723.362293644226, -26039.96110438837, 53637.458817655905, -25390.911148895164, 11163.377602503015, -22465.514834584577, -29252.756148905297, -18620.16542198246, 0.018000000000000002, 0.9560000000000001, 0.314, 192.0, 0.0, 0.0, 0.0, 0.0, 0.0, 0.0, 0.0, 0.0, 0.0, 1.695766998929975E9, 0.0, 2023-09-26 17:23:18.929
136.0, 34596.74532374684, 50362.25770261976, -18888.855742079704, -25099.556159920237, 11987.262903125633, 10231.063989527702, -187500.02235174447, -20879.591510247174, 14717.304970896837, -26044.587915490618, 53508.86923180452, -25396.253215819983, 11156.470913466324, -22469.82872126445, -29266.010733367293, -18734.718112315906, 0.018000000000000002, 0.9560000000000001, 0.314, 192.0, 0.0, 0.0, 0.0, 0.0, 0.0, 0.0, 0.0, 0.0, 0.0, 1.695766998929991E9, 0.0, 2023-09-26 17:23:18.929
138.0, 34597.237062124856, 50352.19941761487, -18887.894617068127, -25102.797162866256, 11960.46316152372, 10173.150619644, -187500.02235174447, -20923.490336357398, 14717.908467997131, -26037.994150876304, 53657.441277198945, -25399.31540481036, 11159.68956466789, -22465.24661365111, -29269.341143291134, -18595.399689125978, 0.018000000000000002, 0.9560000000000001, 0.314, 192.0, 0.0, 0.0, 0.0, 0.0, 0.0, 0.0, 0.0, 0.0, 0.0, 1.695766998929994E9, 0.0, 2023-09-26 17:23:18.929
140.0, 34595.53832954625, 50356.35684208356, -18877.72457334096, -25090.280185971285, 12000.048100954069, 10232.159225006011, -187500.02235174447, -20867.007478118834, 14719.897773253653, -26023.264351280257, 53488.95382749484, -25399.06953562135, 11155.286271010193, -22453.333133856435, -29256.06420708468, -18753.18065323599, 0.018000000000000002, 0.9560000000000001, 0.314, 192.0, 0.0, 0.0, 0.0, 0.0, 0.0, 0.0, 0.0, 0.0, 0.0, 1.695766998929998E9, 0.0, 2023-09-26 17:23:18.929
142.0, 34599.38282959257, 50350.8359612031, -18876.159951229092, -25091.73304936088, 11964.307661570032, 10187.008701206292, -187500.02235174447, -20920.115222944645, 14717.237915663472, -26021.00682509027, 53655.831951598164, -25400.36593679976, 11162.058849580151, -22452.863747222873, -29259.729893175354, -18588.06831694464, 0.018000000000000002, 0.962, 0.32, 192.0, 0.0, 72.0, 15.0, 8.0, 5.0, 0.0, 0.0, 0.0, 0.0, 1.695766998930001E9, 0.0, 2023-09-26 17:23:18.930
144.0, 34595.38186733507, 50358.88258920701, -18868.560358114286, -25077.986726520867, 11993.18611540629, 10213.428463152464, -187500.02235174447, -20881.60316724815, 14723.474052366502, -26012.691976152895, 53490.40669088444, -25400.41064028867, 11153.475779709313, -22444.1465668853, -29259.707541430897, -18743.837624053675, 0.018000000000000002, 0.962, 0.32, 192.0, 0.0, 0.0, 0.0, 0.0, 0.0, 0.0, 0.0, 0.0, 0.0, 1.695766998930006E9, 0.0, 2023-09-26 17:23:18.930
146.0, 34603.808474994716, 50365.141077654494, -18862.748904555905, -25084.178159734984, 11979.70801349974, 10191.993140219825, -187500.02235174447, -20903.038490180792, 14724.368122144715, -26000.4879236803, 53630.261555941295, -25392.766343684954, 11163.154085058462, -22437.865726693362, -29255.55011696221, -18607.179058453927, 0.018000000000000002, 0.962, 0.32, 192.0, 0.0, 0.0, 0.0, 0.0, 0.0, 0.0, 0.0, 0.0, 0.0, 1.695766998930011E9, 0.0, 2023-09-26 17:23:18.930
148.0, 34605.976594206884, 50363.84467647609, -18855.149311441102, -25086.145113247054, 12004.250228911666, 10199.212753678888, -187500.02235174447, -20876.59637649016, 14734.448758894057, -25993.491827665788, 53498.341560166074, -25388.564215727358, 11156.001526832762, -22442.581944773432, -29248.710483158888, -18724.74923428884, 0.018000000000000002, 0.962, 0.32, 192.0, 0.0, 0.0, 0.0, 0.0, 0.0, 0.0, 0.0, 0.0, 0.0, 1.695766998930016E9, 0.0, 2023-09-26 17:23:18.930
150.0, 34602.959108705414, 50358.05557466216, -18854.165834685067, -25096.181046507485, 11977.495190798663, 10198.005759478303, -187500.02235174447, -20905.698347770973, 14728.212622191028, -25997.67160387893, 53624.36069540509, -25394.73329719702, 11167.266806038238, -22450.67327626625, -29252.957314605395, -18601.546418851187, 0.018000000000000002, 0.962, 0.32, 192.0, 0.0, 0.0, 0.0, 0.0, 0.0, 0.0, 0.0, 0.0, 0.0, 1.695766998988938E9, 0.0, 2023-09-26 17:23:18.988
152.0, 34605.46250408441, 50359.77665898522, -18841.313581623268, -25079.48429339937, 11989.028690937603, 10188.103936684602, -187500.02235174447, -20888.1298766291, 14734.068779238318, -25995.794057344683, 53520.223917987816, -25392.83339891832, 11152.11232329754, -22449.578040787943, -29249.425738981456, -18699.581170032165, 0.014, 0.9580000000000001, 0.32, 192.0, 0.0, 56.0, 14.5, 120.0, 5.0, 0.0, 0.0, 0.0, 0.0, 1.69576699898895E9, 0.0, 2023-09-26 17:23:18.988
154.0, 34607.18358840747, 50367.57741780012, -18848.06380844877, -25083.97699403489, 11979.775068733104, 10206.678236326961, -187500.02235174447, -20898.970472689925, 14734.471110638513, -25993.178903243414, 53625.72415181687, -25385.054991847872, 11170.217236306338, -22442.269020351057, -29253.985494850338, -18595.846724015086, 0.014, 0.9580000000000001, 0.32, 192.0, 0.0, 0.0, 0.0, 0.0, 0.0, 0.0, 0.0, 0.0, 0.0, 1.695766998988954E9, 0.0, 2023-09-26 17:23:18.988
156.0, 34601.79681799374, 50356.759173483755, -18847.10268343719, -25083.418200423504, 11987.732289759195, 10167.62973876354, -187500.02235174447, -20899.104583156655, 14741.802482819854, -25988.440333418886, 53524.96248781234, -25389.77120992794, 11157.722611155821, -22440.592639516908, -29254.79015765073, -18694.730841485365, 0.014, 0.9580000000000001, 0.32, 192.0, 0.0, 0.0, 0.0, 0.0, 0.0, 0.0, 0.0, 0.0, 0.0, 1.695766998988957E9, 0.0, 2023-09-26 17:23:18.988
158.0, 34605.194283150944, 50367.62212128903, -18850.72366603895, -25089.520226659803, 11982.770202490115, 10215.64128585354, -187500.02235174447, -20893.874274954116, 14733.331171671292, -25994.162379999445, 53597.337436358626, -25388.385401771713, 11171.960672373853, -22447.499328553597, -29253.6055151946, -18626.647427874497, 0.014, 0.9580000000000001, 0.32, 192.0, 0.0, 0.0, 0.0, 0.0, 0.0, 0.0, 0.0, 0.0, 0.0, 1.695766998988961E9, 0.0, 2023-09-26 17:23:18.988
160.0, 34601.03685868226, 50353.94285368238, -18851.371866628157, -25090.213130737917, 11971.639033751373, 10163.025279405747, -187500.02235174447, -20912.873257741125, 14739.746122329965, -25997.112810267547, 53559.45122950688, -25393.74982044099, 11155.487436710291, -22441.933744184225, -29253.158480305494, -18664.533634726242, 0.014, 0.9580000000000001, 0.32, 192.0, 0.0, 0.0, 0.0, 0.0, 0.0, 0.0, 0.0, 0.0, 0.0, 1.695766998988964E9, 0.0, 2023-09-26 17:23:18.988
162.0, 34603.09321917215, 50363.35293809807, -18856.31160215278, -25086.145113247054, 11984.580693790997, 10229.767588349294, -187500.02235174447, -20878.675088724507, 14734.292296682872, -26002.34311847009, 53595.05755842419, -25395.806180930875, 11168.943186872386, -22448.371046587356, -29256.98062860735, -18628.39086394201, 0.018000000000000002, 0.9580000000000001, 0.318, 192.0, 0.0, 72.0, 14.5, 120.0, 4.5, 120.0, 0.0, 0.0, 0.0, 1.695766998988967E9, 0.0, 2023-09-26 17:23:18.988
164.0, 34595.73949524635, 50350.21011235835, -18859.932584754537, -25078.34435443215, 11967.056926138035, 10160.790104960217, -187500.02235174447, -20917.544772332283, 14734.515814127424, -25995.14585675548, 53586.11686064206, -25397.080230364827, 11151.911157597442, -22442.090206395413, -29256.377131507055, -18639.410273958478, 0.018000000000000002, 0.9580000000000001, 0.318, 192.0, 0.0, 0.0, 0.0, 0.0, 0.0, 0.0, 0.0, 0.0, 0.0, 1.695766999049182E9, 0.0, 2023-09-26 17:23:19.049
166.0, 34598.60051853663, 50363.755269498266, -18860.938413255026, -25074.656316597026, 11984.960673446736, 10242.55278617773, -187500.02235174447, -20879.412696291532, 14728.100863468751, -25991.52487415372, 53567.78843018871, -25395.828532675332, 11163.06467808064, -22438.11159588237, -29258.008808852293, -18655.436474732935, 0.018000000000000002, 0.9580000000000001, 0.318, 192.0, 0.0, 0.0, 0.0, 0.0, 0.0, 0.0, 0.0, 0.0, 0.0, 1.695766999049197E9, 0.0, 2023-09-26 17:23:19.049
168.0, 34605.86483548461, 50356.42389731693, -18845.091026436214, -25070.789464806257, 11979.328033843998, 10155.224520590846, -187500.02235174447, -20922.059824712258, 14734.448758894057, -25993.04479277668, 53609.89911674251, -25396.901416409186, 11156.895596610975, -22434.468261536153, -29247.3023232582, -18615.426852157932, 0.018000000000000002, 0.9580000000000001, 0.318, 192.0, 0.0, 0.0, 0.0, 0.0, 0.0, 0.0, 0.0, 0.0, 0.0, 1.6957669990492E9, 0.0, 2023-09-26 17:23:19.049
170.0, 34599.76280924831, 50360.178990385415, -18850.38838987212, -25083.552310890238, 11999.913990487337, 10234.863786085103, -187500.02235174447, -20870.539053742774, 14735.566346116824, -25999.66090913545, 53538.954679841365, -25390.8440936618, 11176.900407898476, -22441.129081383835, -29235.388843463523, -18683.26439657979, 0.018000000000000002, 0.9580000000000001, 0.318, 192.0, 0.0, 0.0, 0.0, 0.0, 0.0, 0.0, 0.0, 0.0, 0.0, 1.695766999049203E9, 0.0, 2023-09-26 17:23:19.049
172.0, 34603.65201278353, 50348.712545479844, -18846.163910170068, -25080.981860277876, 11970.923777928803, 10148.831921676627, -187500.02235174447, -20935.269705685343, 14728.86082278023, -26001.158476013956, 53610.63672430954, -25399.40481178818, 11159.823675134621, -22448.706322754184, -29245.804756379697, -18617.97495102584, 0.024, 0.9580000000000001, 0.316, 192.0, 0.0, 96.0, 14.5, 120.0, 4.5, 112.0, 0.0, 0.0, 0.0, 1.695766999049207E9, 0.0, 2023-09-26 17:23:19.049
174.0, 34600.54512030425, 50368.02445268923, -18851.21540441697, -25080.0207352663, 12002.462089355242, 10243.022172811292, -187500.02235174447, -20876.551673001253, 14729.91135476963, -25990.206121230858, 53517.8322813311, -25390.26294830596, 11173.055907852162, -22435.92112492575, -29241.088538299628, -18707.13605965806, 0.024, 0.9580000000000001, 0.316, 192.0, 0.0, 0.0, 0.0, 0.0, 0.0, 0.0, 0.0, 0.0, 0.0, 1.69576699904921E9, 0.0, 2023-09-26 17:23:19.049
176.0, 34597.8182074807, 50345.76211521174, -18852.78002652884, -25086.949776047444, 11967.70512672724, 10150.195378088401, -187500.02235174447, -20937.28136268632, 14726.58094484579, -26000.10794402456, 53635.06718099918, -25399.673032721643, 11158.393163489482, -22445.241802363613, -29253.739625661332, -18598.618340327543, 0.024, 0.9580000000000001, 0.316, 192.0, 0.0, 0.0, 0.0, 0.0, 0.0, 0.0, 0.0, 0.0, 0.0, 1.695766999049214E9, 0.0, 2023-09-26 17:23:19.049
178.0, 34593.817245223196, 50358.860237462555, -18853.651744562598, -25085.96629929141, 11996.13654567439, 10239.73646637636, -187500.02235174447, -20871.969565387913, 14727.095034968263, -25998.09628702358, 53514.0324847737, -25394.330965796828, 11165.433962992904, -22442.134909884324, -29250.699788415408, -18715.719129528898, 0.024, 0.9580000000000001, 0.316, 192.0, 0.0, 0.0, 0.0, 0.0, 0.0, 0.0, 0.0, 0.0, 0.0, 1.695766999049217E9, 0.0, 2023-09-26 17:23:19.049
180.0, 34604.166102906005, 50350.90301643647, -18847.05797994828, -25083.30644170123, 11966.788705204572, 10157.549102014196, -187500.02235174447, -20936.946086519492, 14726.849165779253, -25993.91651081044, 53647.7629718498, -25393.70511695208, 11160.896558868475, -22443.811290718473, -29254.521936717265, -18593.00805246926, 0.024, 0.9580000000000001, 0.316, 192.0, 0.0, 0.0, 0.0, 0.0, 0.0, 0.0, 0.0, 0.0, 0.0, 1.695766999109457E9, 0.0, 2023-09-26 17:23:19.109
182.0, 34596.47710281338, 50354.00990891575, -18853.718799795963, -25083.641717868057, 11997.835278252993, 10230.236974982856, -187500.02235174447, -20880.597338747662, 14731.051293736851, -25998.25274923477, 53493.04419673017, -25392.40871577367, 11166.439791493392, -22439.38564531632, -29248.64342792552, -18739.38962690707, 0.028, 0.9580000000000001, 0.312, 192.0, 0.0, 112.0, 14.5, 120.0, 4.5, 96.0, 0.0, 0.0, 0.0, 1.695766999109469E9, 0.0, 2023-09-26 17:23:19.109
184.0, 34600.34395460415, 50349.9865949138, -18850.567203827763, -25079.10431374363, 11968.018051149613, 10170.53546554273, -187500.02235174447, -20923.311522401753, 14727.586773346278, -26000.309109724654, 53631.22268095287, -25399.02483213244, 11164.226968792316, -22440.21265986117, -29253.739625661332, -18609.660102088466, 0.028, 0.9580000000000001, 0.312, 192.0, 0.0, 0.0, 0.0, 0.0, 0.0, 0.0, 0.0, 0.0, 0.0, 1.695766999109472E9, 0.0, 2023-09-26 17:23:19.109
186.0, 34591.447960310936, 50357.049746161676, -18855.43988411902, -25071.415313651003, 11994.683682284794, 10236.607222152617, -187500.02235174447, -20877.46809452392, 14725.038674478374, -25997.00105154527, 53495.905220020446, -25399.248349576992, 11157.8343698781, -22436.189345859213, -29256.153614062503, -18733.131138459583, 0.028, 0.9580000000000001, 0.312, 192.0, 0.0, 0.0, 0.0, 0.0, 0.0, 0.0, 0.0, 0.0, 0.0, 1.695766999109475E9, 0.0, 2023-09-26 17:23:19.109
188.0, 34606.043649440246, 50358.79318222919, -18843.235831646423, -25063.39103739155, 11971.616682006917, 10188.126288429057, -187500.02235174447, -20911.062766440245, 14725.955096001042, -25987.456856662855, 53656.65896614301, -25392.11814309575, 11164.696355425878, -22423.270037564045, -29254.27606752826, -18581.832180241607, 0.028, 0.9580000000000001, 0.312, 192.0, 0.0, 0.0, 0.0, 0.0, 0.0, 0.0, 0.0, 0.0, 0.0, 1.695766999109479E9, 0.0, 2023-09-26 17:23:19.109
190.0, 34594.6666115125, 50357.72029849533, -18847.884994493128, -25073.49402588535, 11993.499039828665, 10227.420655181486, -187500.02235174447, -20875.43408577849, 14727.25149717945, -25989.71438285284, 53503.34835092406, -25398.17546584314, 11157.029707077707, -22429.886153922816, -29247.68230291394, -18724.99510347785, 0.028, 0.9580000000000001, 0.312, 192.0, 0.0, 0.0, 0.0, 0.0, 0.0, 0.0, 0.0, 0.0, 0.0, 1.695766999109482E9, 0.0, 2023-09-26 17:23:19.109
192.0, 34596.07477141318, 50349.96424316934, -18843.68286653553, -25079.037258510263, 11979.506847799641, 10182.516000570775, -187500.02235174447, -20923.803260779772, 14729.285505924881, -25999.57150215763, 53656.59191090964, -25401.908207167176, 11165.54572171518, -22443.0960348959, -29246.83293662464, -18581.429848841413, 0.022, 0.9580000000000001, 0.31, 192.0, 0.0, 88.0, 14.5, 120.0, 4.5, 88.0, 0.0, 0.0, 0.0, 1.695766999109485E9, 0.0, 2023-09-26 17:23:19.109
194.0, 34595.001887679326, 50355.61923451653, -18846.901517737093, -25075.595089864146, 11996.382414863398, 10203.59369559213, -187500.02235174447, -20892.66728075353, 14726.11155821223, -25988.261519463245, 53511.59614462807, -25395.090925108307, 11158.6837361674, -22438.648037749295, -29243.5025267008, -18721.061196453717, 0.022, 0.9580000000000001, 0.31, 192.0, 0.0, 0.0, 0.0, 0.0, 0.0, 0.0, 0.0, 0.0, 0.0, 1.695766999168868E9, 0.0, 2023-09-26 17:23:19.168
196.0, 34597.4158760805, 50360.42485957442, -18849.986058471928, -25077.15971197602, 11975.729402986695, 10194.742404787828, -187500.02235174447, -20909.922827473027, 14723.116424455218, -26002.96896731484, 53648.56763465019, -25399.516570510455, 11166.573901960124, -22444.16891862976, -29257.517070474278, -18593.857418758562, 0.022, 0.9580000000000001, 0.31, 192.0, 0.0, 0.0, 0.0, 0.0, 0.0, 0.0, 0.0, 0.0, 0.0, 1.695766999168883E9, 0.0, 2023-09-26 17:23:19.168
198.0, 34596.79002723575, 50358.68142350691, -18851.550680583798, -25072.085865984664, 11995.108365429445, 10196.083509455146, -187500.02235174447, -20889.962719674437, 14731.900660026153, -25992.083667765102, 53514.770092340725, -25391.559349484367, 11160.002489090264, -22430.646113234296, -29245.06714881267, -18719.94360923095, 0.022, 0.9580000000000001, 0.31, 192.0, 0.0, 0.0, 0.0, 0.0, 0.0, 0.0, 0.0, 0.0, 0.0, 1.695766999168887E9, 0.0, 2023-09-26 17:23:19.168
200.0, 34596.7676754913, 50359.57549328512, -18859.418494632067, -25076.422104408994, 11979.328033843998, 10212.288524185244, -187500.02235174447, -20909.09581292818, 14718.176688930595, -26005.20414176037, 53627.82521579567, -25393.727468696532, 11167.69148918289, -22443.319552340457, -29255.483061728846, -18612.58818061211, 0.022, 0.9580000000000001, 0.31, 192.0, 0.0, 0.0, 0.0, 0.0, 0.0, 0.0, 0.0, 0.0, 0.0, 1.69576699916889E9, 0.0, 2023-09-26 17:23:19.168
202.0, 34592.67730625597, 50354.6357577605, -18853.808206773785, -25069.046028738743, 11999.3328451315, 10197.245800166822, -187500.02235174447, -20890.320347585723, 14725.798633789855, -25999.012708546248, 53523.12964476701, -25391.40288727318, 11154.63807042099, -22431.316665567956, -29249.828070381653, -18710.22060039289, 0.02, 0.9520000000000001, 0.31, 192.0, 0.0, 80.0, 14.5, 96.0, 4.5, 88.0, 0.0, 0.0, 0.0, 1.695766999168893E9, 0.0, 2023-09-26 17:23:19.168
204.0, 34595.85125396863, 50359.82136247413, -18853.91996549606, -25072.06351424021, 11993.923722973315, 10226.191309236445, -187500.02235174447, -20888.1298766291, 14720.635380820679, -26002.14195276999, 53619.08568371364, -25384.764419169955, 11174.732288686311, -22430.310837067467, -29237.422852208958, -18614.912762035463, 0.02, 0.9520000000000001, 0.31, 192.0, 0.0, 0.0, 0.0, 0.0, 0.0, 0.0, 0.0, 0.0, 0.0, 1.695766999168896E9, 0.0, 2023-09-26 17:23:19.168
206.0, 34588.38577132056, 50350.455981547355, -18854.97049748546, -25069.984802005863, 11989.878057226904, 10183.074794182157, -187500.02235174447, -20901.71973725793, 14725.306895411837, -26011.2391127633, 53545.90607236697, -25398.957776899075, 11154.280442509706, -22440.19030811671, -29249.93982910393, -18691.400431561524, 0.02, 0.9520000000000001, 0.31, 192.0, 0.0, 0.0, 0.0, 0.0, 0.0, 0.0, 0.0, 0.0, 0.0, 1.6957669991689E9, 0.0, 2023-09-26 17:23:19.168
208.0, 34593.30315510072, 50364.31406310965, -18858.658535320585, -25063.34633390264, 11989.743946760173, 10239.892928587547, -187500.02235174447, -20885.201798105456, 14717.930819741587, -26010.34504298509, 53605.80874750719, -25389.704154694577, 11173.16766657444, -22432.3448458129, -29251.03506458224, -18632.88356457753, 0.02, 0.9520000000000001, 0.31, 192.0, 0.0, 0.0, 0.0, 0.0, 0.0, 0.0, 0.0, 0.0, 0.0, 1.695766999168903E9, 0.0, 2023-09-26 17:23:19.168
210.0, 34593.57137603419, 50354.501647293764, -18847.080331692738, -25060.70882805691, 11983.977196690703, 10175.475201067353, -187500.02235174447, -20918.438842110496, 14722.468223866013, -26003.14778127048, 53577.80201170469, -25388.96654712755, 11154.034573320696, -22427.06983412145, -29252.063244827183, -18660.867948635572, 0.02, 0.9520000000000001, 0.31, 192.0, 0.0, 0.0, 0.0, 0.0, 0.0, 0.0, 0.0, 0.0, 0.0, 1.695766999228576E9, 0.0, 2023-09-26 17:23:19.228
212.0, 34595.627736524075, 50368.47148757833, -18842.230003145934, -25071.705886328924, 12003.803194022561, 10234.349695962632, -187500.02235174447, -20891.23676910839, 14718.601372075245, -26002.745449870283, 53583.635817007525, -25389.055954105374, 11174.084088097106, -22435.04940689199, -29239.92624758795, -18652.776617142754, 0.022, 0.9580000000000001, 0.304, 192.0, 0.0, 88.0, 14.5, 120.0, 4.5, 64.0, 0.0, 0.0, 0.0, 1.695766999228589E9, 0.0, 2023-09-26 17:23:19.228
214.0, 34598.73462900336, 50359.82136247413, -18834.451596075487, -25065.96148800391, 11990.727423516206, 10161.997099160802, -187500.02235174447, -20909.76636526184, 14730.045465236362, -25999.48209517981, 53585.33454958613, -25387.848959904786, 11165.277500781716, -22435.92112492575, -29229.711500371875, -18653.670686920963, 0.022, 0.9580000000000001, 0.304, 192.0, 0.0, 0.0, 0.0, 0.0, 0.0, 0.0, 0.0, 0.0, 0.0, 1.695766999228592E9, 0.0, 2023-09-26 17:23:19.228
216.0, 34607.094181429646, 50375.89226673749, -18837.53613681032, -25066.9673165044, 12008.295894658077, 10228.471187170886, -187500.02235174447, -20886.56525451723, 14733.241764693472, -25993.67064162143, 53551.605767203066, -25377.298936521882, 11180.387280033503, -22432.925991168737, -29237.959294075885, -18683.01852739078, 0.022, 0.9580000000000001, 0.304, 192.0, 0.0, 0.0, 0.0, 0.0, 0.0, 0.0, 0.0, 0.0, 0.0, 1.695766999228596E9, 0.0, 2023-09-26 17:23:19.228
218.0, 34602.17679764948, 50360.98365318581, -18837.312619365766, -25065.849729281632, 11983.597217034963, 10156.476218280342, -187500.02235174447, -20928.117147459645, 14733.48763388248, -25989.55792064165, 53589.38021533254, -25380.137608067707, 11166.931529871408, -22432.143680112804, -29240.820317366164, -18650.429683974944, 0.022, 0.9580000000000001, 0.304, 192.0, 0.0, 0.0, 0.0, 0.0, 0.0, 0.0, 0.0, 0.0, 0.0, 1.695766999228605E9, 0.0, 2023-09-26 17:23:19.228
220.0, 34600.41100983751, 50372.5395050692, -18842.073540934747, -25071.348258417638, 12001.500964343664, 10235.02024829629, -187500.02235174447, -20884.754763216348, 14729.352561158248, -25996.174037000423, 53546.017831089244, -25384.362087769758, 11174.531122986213, -22439.475052294143, -29242.720215644866, -18681.878588423562, 0.022, 0.9580000000000001, 0.304, 192.0, 0.0, 0.0, 0.0, 0.0, 0.0, 0.0, 0.0, 0.0, 0.0, 1.695766999228614E9, 0.0, 2023-09-26 17:23:19.228
222.0, 34602.57912904968, 50360.91659795244, -18835.837404231715, -25069.001325249832, 11969.962652917226, 10144.808607674671, -187500.02235174447, -20938.130728975622, 14737.555651373346, -25990.921377053426, 53615.86703251208, -25384.429143003126, 11168.272634538727, -22433.931819669226, -29245.290666257224, -18618.757262081774, 0.02, 0.9580000000000001, 0.306, 192.0, 0.0, 80.0, 14.5, 120.0, 4.5, 72.0, 0.0, 0.0, 0.0, 1.695766999228617E9, 0.0, 2023-09-26 17:23:19.228
224.0, 34596.611213280106, 50368.20326664487, -18842.654686290585, -25070.72240957289, 12000.271618398621, 10229.387608693554, -187500.02235174447, -20883.257196337843, 14732.370046659715, -25998.990356801794, 53506.790519570175, -25385.859654648266, 11175.045213108686, -22441.330247083934, -29249.224573281357, -18725.285676155767, 0.02, 0.9580000000000001, 0.306, 192.0, 0.0, 0.0, 0.0, 0.0, 0.0, 0.0, 0.0, 0.0, 0.0, 1.695766999288973E9, 0.0, 2023-09-26 17:23:19.288
226.0, 34600.7686377488, 50350.8359612031, -18839.25722113338, -25065.737970559356, 11971.326109328998, 10150.86593042206, -187500.02235174447, -20939.740054576407, 14733.442930393569, -25997.80571434566, 53618.52689010226, -25392.40871577367, 11170.59721596208, -22437.932781926727, -29249.716311659377, -18624.322846451145, 0.02, 0.9580000000000001, 0.306, 192.0, 0.0, 0.0, 0.0, 0.0, 0.0, 0.0, 0.0, 0.0, 0.0, 1.69576699928899E9, 0.0, 2023-09-26 17:23:19.288
228.0, 34594.934832445964, 50363.6882142649, -18846.00744795888, -25060.418255378994, 12000.338673631988, 10248.811274625215, -187500.02235174447, -20874.271795066812, 14729.441968136069, -25997.71630736784, 53484.32701639259, -25394.219207074548, 11172.675928196422, -22428.634456233318, -29248.08463431414, -18745.737522332372, 0.02, 0.9580000000000001, 0.306, 192.0, 0.0, 0.0, 0.0, 0.0, 0.0, 0.0, 0.0, 0.0, 0.0, 1.695766999288994E9, 0.0, 2023-09-26 17:23:19.288
230.0, 34594.24192836785, 50355.19455137188, -18848.98022997144, -25067.235537437864, 11959.591443489962, 10175.117573156069, -187500.02235174447, -20925.479641613918, 14726.156261701139, -25994.743525355283, 53633.94959377642, -25390.866445406253, 11164.361079259048, -22427.06983412145, -29259.372265264068, -18602.082860718117, 0.02, 0.9580000000000001, 0.306, 192.0, 0.0, 0.0, 0.0, 0.0, 0.0, 0.0, 0.0, 0.0, 0.0, 1.695766999288997E9, 0.0, 2023-09-26 17:23:19.288
232.0, 34591.35855333311, 50365.833981732605, -18839.72660776694, -25069.873043283587, 12016.700150573273, 10240.16114952101, -187500.02235174447, -20860.056085593234, 14724.613991333723, -26000.756144613762, 53486.42808037139, -25392.229901818027, 11166.104515326562, -22431.048444634493, -29246.609419180088, -18733.80169079324, 0.022, 0.964, 0.316, 192.0, 0.0, 88.0, 15.0, 16.0, 4.5, 112.0, 0.0, 0.0, 0.0, 1.695766999289E9, 0.0, 2023-09-26 17:23:19.289
234.0, 34594.48779755685, 50357.16150488395, -18839.816014744763, -25077.874967798587, 11974.142429130368, 10162.846465450104, -187500.02235174447, -20936.074368485733, 14723.071720966307, -26015.0389093207, 53656.748373120834, -25399.471867021548, 11169.323166528126, -22445.57707853044, -29247.45878546939, -18571.304508603156, 0.022, 0.964, 0.316, 192.0, 0.0, 0.0, 0.0, 0.0, 0.0, 0.0, 0.0, 0.0, 0.0, 1.695766999289004E9, 0.0, 2023-09-26 17:23:19.289
236.0, 34591.49266379984, 50365.1857811434, -18842.006485701382, -25070.83416829517, 12011.42513888182, 10210.701550328917, -187500.02235174447, -20887.66048999554, 14730.134872214185, -26007.4393162059, 53500.82260380061, -25389.525340738935, 11167.423268249426, -22440.592639516908, -29242.98843657833, -18725.97858023388, 0.022, 0.964, 0.316, 192.0, 0.0, 0.0, 0.0, 0.0, 0.0, 0.0, 0.0, 0.0, 0.0, 1.695766999289007E9, 0.0, 2023-09-26 17:23:19.289
238.0, 34601.28272787127, 50365.565760799145, -18842.498224079398, -25069.873043283587, 11977.383432076387, 10162.041802649714, -187500.02235174447, -20941.99758076639, 14722.6246860772, -26008.221627261835, 53665.778477880776, -25388.854788405275, 11170.507808984257, -22445.621782019352, -29247.525840702754, -18573.517331304232, 0.022, 0.964, 0.316, 192.0, 0.0, 0.0, 0.0, 0.0, 0.0, 0.0, 0.0, 0.0, 0.0, 1.695766999289011E9, 0.0, 2023-09-26 17:23:19.289
240.0, 34598.913442959005, 50370.75136551278, -18838.363151355166, -25065.357990903616, 12010.374606892421, 10195.390605377032, -187500.02235174447, -20893.024908664815, 14740.215508963527, -26006.81346736115, 53492.84303103007, -25380.36112551226, 11169.434925250403, -22438.11159588237, -29235.232381252335, -18744.50817638733, 0.022, 0.964, 0.316, 192.0, 0.0, 0.0, 0.0, 0.0, 0.0, 0.0, 0.0, 0.0, 0.0, 1.695766999350113E9, 0.0, 2023-09-26 17:23:19.350
