%OpenBCI Raw EXG Data
%Number of channels = 16
%Sample Rate = 125 Hz
%Board = OpenBCI_GUI$BoardCytonSerialDaisy
Sample Index, EXG Channel 0, EXG Channel 1, EXG Channel 2, EXG Channel 3, EXG Channel 4, EXG Channel 5, EXG Channel 6, EXG Channel 7, EXG Channel 8, EXG Channel 9, EXG Channel 10, EXG Channel 11, EXG Channel 12, EXG Channel 13, EXG Channel 14, EXG Channel 15, Accel Channel 0, Accel Channel 1, Accel Channel 2, Other, Other, Other, Other, Other, Other, Other, Analog Channel 0, Analog Channel 1, Analog Channel 2, Timestamp, Other, Timestamp (Formatted)
208.0, 34630.4741061299, 49994.43739586323, -19125.06897748339, -25577.123531952326, 11496.172725698081, 9835.3710574354, -187500.02235174447, -21703.230941680784, 14829.711893762576, -26812.951482886256, 53075.75947949404, -25981.600699615563, 10610.976590034556, -22814.291455065188, -29755.536288682975, -19061.031229618937, 0.0, 0.0, 0.0, 192.0, 0.0, 0.0, 0.0, 0.0, 0.0, 0.0, 0.0, 0.0, 0.0, 1.695766949681472E9, 0.0, 2023-09-26 17:22:29.681
210.0, 34632.93279801998, 49983.999131202596, -19120.93390475916, -25572.027334216516, 11484.773336025875, 9763.018460633572, -187500.02235174447, -21733.29403797317, 14848.017972471473, -26798.691069923767, 53067.22111311211, -25978.784379814195, 10603.756976575492, -22803.89789389347, -29748.60724790183, -19073.63761349173, 0.0, 0.0, 0.0, 192.0, 0.0, 0.0, 0.0, 0.0, 0.0, 0.0, 0.0, 0.0, 0.0, 1.695766949681482E9, 0.0, 2023-09-26 17:22:29.681
212.0, 34624.26032117132, 49994.839727263425, -19131.327465930877, -25579.649279075777, 11499.972522255484, 9839.103798759437, -187500.02235174447, -21690.15517117443, 14836.998562455006, -26805.553055471548, 53037.850920897836, -25980.639574603985, 10615.91632555918, -22809.821106174124, -29754.821032860404, -19098.962139959593, 0.0, 0.0, 0.0, 192.0, 0.0, 0.0, 0.0, 0.0, 0.0, 0.0, 0.0, 0.0, 0.0, 1.695766949681488E9, 0.0, 2023-09-26 17:22:29.681
214.0, 34626.89782701705, 49976.06426192096, -19134.926096788182, -25580.990383743094, 11479.140696423137, 9763.085515866938, -187500.02235174447, -21732.578782150602, 14835.858623487786, -26811.520971241116, 53070.10448814684, -25993.04479277668, 10597.967874761567, -22811.922170152924, -29761.57125968591, -19061.075933107848, 0.034, 0.9560000000000001, 0.304, 192.0, 0.5, 8.0, 14.5, 112.0, 4.5, 64.0, 0.0, 0.0, 0.0, 1.695766949681504E9, 0.0, 2023-09-26 17:22:29.681
216.0, 34629.28946367377, 49992.93982898472, -19141.02812302448, -25588.657032091265, 11498.094975721238, 9844.870548828907, -187500.02235174447, -21695.027851465686, 14837.17737641065, -26810.761011929633, 53014.62745840877, -25988.552092141163, 10610.753072590003, -22810.961045141346, -29762.51003295303, -19110.40623312071, 0.034, 0.9560000000000001, 0.304, 192.0, 0.0, 0.0, 0.0, 0.0, 0.0, 0.0, 0.0, 0.0, 0.0, 1.695766949681507E9, 0.0, 2023-09-26 17:22:29.681
218.0, 34634.45271664295, 49987.30718938198, -19133.78615782096, -25591.808628059465, 11475.206789399004, 9746.589928458921, -187500.02235174447, -21753.50001496077, 14837.646763044211, -26814.337291042484, 53096.99363672658, -25997.604548645562, 10594.481002626539, -22821.84634469108, -29775.809320903936, -19034.656171161674, 0.034, 0.9560000000000001, 0.304, 192.0, 0.0, 0.0, 0.0, 0.0, 0.0, 0.0, 0.0, 0.0, 0.0, 1.695766949681511E9, 0.0, 2023-09-26 17:22:29.681
220.0, 34633.33512942018, 50005.56856460197, -19129.94165777465, -25588.16529371325, 11505.292237435848, 9833.292345201058, -187500.02235174447, -21699.364089890016, 14838.563184566878, -26811.92330264131, 53006.379664704764, -25989.513217152744, 10611.58008713485, -22819.47705977882, -29761.45950096363, -19118.721082058084, 0.034, 0.9560000000000001, 0.304, 192.0, 0.0, 0.0, 0.0, 0.0, 0.0, 0.0, 0.0, 0.0, 0.0, 1.695766949681514E9, 0.0, 2023-09-26 17:22:29.681
222.0, 34646.299141204254, 49994.23623016313, -19125.851288539325, -25584.320793666935, 11475.944396966028, 9746.88050113684, -187500.02235174447, -21755.846948128576, 14847.7050480491, -26805.195427560262, 53091.98684596859, -25986.406324673455, 10610.216630723076, -22813.017405631235, -29760.587782929873, -19044.647400933194, 0.034, 0.9560000000000001, 0.304, 192.0, 0.0, 0.0, 0.0, 0.0, 0.0, 0.0, 0.0, 0.0, 0.0, 1.695766949681518E9, 0.0, 2023-09-26 17:22:29.681
224.0, 34651.26122847333, 50015.69390484022, -19124.286666427455, -25575.514206351545, 11510.835470060763, 9838.589708636966, -187500.02235174447, -21678.755781502223, 14847.88386200474, -26806.603587460948, 52967.33116714134, -25983.768818827728, 10617.548002904416, -22812.41390853094, -29760.31956199641, -19160.675306400695, 0.036000000000000004, 0.9580000000000001, 0.304, 192.0, 0.5, 16.0, 14.5, 120.0, 4.5, 64.0, 0.0, 0.0, 0.0, 1.695766949681521E9, 0.0, 2023-09-26 17:22:29.681
0.0, 17241.085140834468, 24958.471948918337, -9547.502940595501, -12762.24258688004, 5767.890008436443, 4928.067914017191, -93750.01117587223, -10796.496069013605, 7424.266031296973, -13397.725033488874, 26567.954011911635, -12987.838743667453, 5312.450863415106, -11401.44603269649, -14876.359984440804, -9500.251352816982, 0.034, 0.9560000000000001, 0.3, 192.0, 0.5, 8.0, 14.5, 112.0, 4.5, 48.0, 0.0, 0.0, 0.0, 1.69576694982477E9, 0.0, 2023-09-26 17:22:29.824
2.0, 34478.28107813372, 49905.633915142294, -19094.871770724272, -25519.187810324172, 11518.300952708836, 9794.601475548921, -187500.02235174447, -21617.37789122795, 14775.620672180734, -26706.89245544582, 53060.984976409076, -25955.4268068584, 10682.25630310253, -22704.63379676745, -29695.96888970958, -19002.067327745837, 0.034, 0.9560000000000001, 0.3, 192.0, 0.0, 0.0, 0.0, 0.0, 0.0, 0.0, 0.0, 0.0, 0.0, 1.695766949824783E9, 0.0, 2023-09-26 17:22:29.824
4.0, 34482.70672353586, 49922.97886883961, -19091.96604394508, -25516.86322890082, 11554.309613026335, 9880.275712046112, -187500.02235174447, -21563.152559179372, 14769.406887222158, -26710.334624091938, 53013.308705485906, -25948.430710843888, 10690.459393317627, -22703.426802566864, -29691.386782096244, -19041.808729387372, 0.034, 0.9560000000000001, 0.3, 192.0, 0.0, 0.0, 0.0, 0.0, 0.0, 0.0, 0.0, 0.0, 0.0, 1.695766949824787E9, 0.0, 2023-09-26 17:22:29.824
6.0, 34484.85249100358, 49911.11009253384, -19087.607453776294, -25511.90114163174, 11524.42533068959, 9796.210801149702, -187500.02235174447, -21614.27099874866, 14776.604148936767, -26707.13832463483, 53100.14523269478, -25952.476376590297, 10683.440945558661, -22700.49872404322, -29688.97279369507, -18956.156844634635, 0.034, 0.9560000000000001, 0.3, 192.0, 0.0, 0.0, 0.0, 0.0, 0.0, 0.0, 0.0, 0.0, 0.0, 1.69576694982479E9, 0.0, 2023-09-26 17:22:29.824
8.0, 34486.439464859905, 49931.003145099065, -19094.603549790805, -25512.95167362114, 11555.918938627117, 9888.05411911656, -187500.02235174447, -21549.60740203946, 14773.698422157577, -26706.445420556716, 53001.0599495244, -25947.737806765774, 10692.649864274248, -22700.185799620846, -29685.48592156004, -19049.251860290988, 0.032, 0.9540000000000001, 0.304, 192.0, 0.5, 0.0, 14.5, 104.0, 4.5, 64.0, 0.0, 0.0, 0.0, 1.695766949824794E9, 0.0, 2023-09-26 17:22:29.824
10.0, 34502.28685167871, 49928.477397975614, -19088.41211657669, -25507.363737507312, 11526.638153390664, 9803.229248908669, -187500.02235174447, -21612.795783614612, 14780.336890260804, -26703.338528077427, 53123.838081817405, -25945.27911487569, 10686.54783803795, -22700.29755834312, -29689.509235561996, -18930.899373400138, 0.032, 0.9540000000000001, 0.304, 192.0, 0.0, 0.0, 0.0, 0.0, 0.0, 0.0, 0.0, 0.0, 0.0, 1.695766949824797E9, 0.0, 2023-09-26 17:22:29.824
12.0, 34509.148837226494, 49952.684337220715, -19086.601625275805, -25501.4181734822, 11559.4281625066, 9881.415651013333, -187500.02235174447, -21555.463559086747, 14781.789753650399, -26695.24719658461, 52992.25336220901, -25936.74074849376, 10691.599332284848, -22693.368517561976, -29682.379029080756, -19054.973906871546, 0.032, 0.9540000000000001, 0.304, 192.0, 0.0, 0.0, 0.0, 0.0, 0.0, 0.0, 0.0, 0.0, 0.0, 1.6957669498248E9, 0.0, 2023-09-26 17:22:29.824
14.0, 34513.50742739528, 49943.36365978285, -19088.076840409856, -25508.168400307706, 11522.99481904445, 9805.75499603212, -187500.02235174447, -21615.008606315685, 14787.98118686452, -26693.302594816996, 53121.69231434969, -25932.963303680815, 10692.024015429499, -22694.26258734019, -29686.06706691588, -18933.64863796814, 0.032, 0.9540000000000001, 0.304, 192.0, 0.0, 0.0, 0.0, 0.0, 0.0, 0.0, 0.0, 0.0, 0.0, 1.695766949824804E9, 0.0, 2023-09-26 17:22:29.824
16.0, 34518.089535008614, 49958.294625079, -19087.696860754117, -25503.966272350106, 11551.739162413975, 9865.255339772146, -187500.02235174447, -21571.93679475031, 14789.389346765203, -26697.817647196967, 52986.50896388399, -25935.153774637434, 10688.06775666091, -22702.510381044198, -29688.235186128044, -19059.15368308469, 0.032, 0.9540000000000001, 0.304, 192.0, 0.0, 0.0, 0.0, 0.0, 0.0, 0.0, 0.0, 0.0, 0.0, 1.695766949884558E9, 0.0, 2023-09-26 17:22:29.884
18.0, 34527.7007851244, 49957.847590189886, -19083.226511863057, -25503.04985082744, 11526.839319090763, 9806.045568710038, -187500.02235174447, -21608.437193445825, 14795.491373001501, -26687.893472658812, 53130.9906400431, -25924.2684750877, 10698.126041665799, -22696.453058296807, -29681.552014535908, -18927.613666965208, 0.034, 0.9580000000000001, 0.304, 192.0, 0.5, 8.0, 14.5, 120.0, 4.5, 64.0, 0.0, 0.0, 0.0, 1.695766949884574E9, 0.0, 2023-09-26 17:22:29.884
20.0, 34524.79505834521, 49969.26933160655, -19087.33923284283, -25501.328766504383, 11556.500083982955, 9862.796647882062, -187500.02235174447, -21560.403294611373, 14796.698367202089, -26687.80406568099, 52978.23881843553, -25921.206286097324, 10691.487573562572, -22692.2062268503, -29678.266308100978, -19074.956366414594, 0.034, 0.9580000000000001, 0.304, 192.0, 0.0, 0.0, 0.0, 0.0, 0.0, 0.0, 0.0, 0.0, 0.0, 1.695766949884577E9, 0.0, 2023-09-26 17:22:29.884
22.0, 34525.934997312426, 49967.280026350025, -19091.92134045617, -25509.733022419576, 11525.47586267899, 9823.457577640722, -187500.02235174447, -21606.98433005623, 14782.192085050594, -26696.051859385, 53143.77583787154, -25931.152812379936, 10690.392338084263, -22703.11387814449, -29690.69387801813, -18917.622437193684, 0.034, 0.9580000000000001, 0.304, 192.0, 0.0, 0.0, 0.0, 0.0, 0.0, 0.0, 0.0, 0.0, 0.0, 1.695766949884581E9, 0.0, 2023-09-26 17:22:29.884
24.0, 34531.388822959525, 49975.3490060984, -19088.68033751015, -25503.988624094563, 11554.644889193165, 9859.667403658319, -187500.02235174447, -21566.79589352559, 14796.698367202089, -26683.28901330102, 52992.409824420196, -25922.949722164838, 10686.994872927055, -22692.362689061487, -29679.92033719067, -19067.53558725543, 0.034, 0.9580000000000001, 0.304, 192.0, 0.0, 0.0, 0.0, 0.0, 0.0, 0.0, 0.0, 0.0, 0.0, 1.695766949884584E9, 0.0, 2023-09-26 17:22:29.884
26.0, 34541.62592192005, 49980.93694221222, -19083.807657218895, -25505.6203014398, 11534.818891861307, 9831.839481811463, -187500.02235174447, -21604.65974863288, 14791.579817721822, -26689.815722681968, 53145.496922194594, -25922.636797742463, 10695.667349775715, -22698.464715297785, -29687.519930305476, -18924.529126230376, 0.034, 0.9580000000000001, 0.304, 192.0, 0.0, 0.0, 0.0, 0.0, 0.0, 0.0, 0.0, 0.0, 0.0, 1.695766949884587E9, 0.0, 2023-09-26 17:22:29.884
28.0, 34543.5034684543, 49988.02244520455, -19083.785305474437, -25501.932263604675, 11546.844130378262, 9841.18251099378, -187500.02235174447, -21582.71033557777, 14796.340739290803, -26684.227786568143, 53009.35244671732, -25918.524076762686, 10687.419556071705, -22696.408354807896, -29684.256575615, -19060.38302902973, 0.042, 0.96, 0.308, 192.0, 0.5, 40.0, 15.0, 0.0, 4.5, 80.0, 0.0, 0.0, 0.0, 1.695766949884591E9, 0.0, 2023-09-26 17:22:29.884
30.0, 34551.5053929693, 49998.974799987656, -19082.82418046286, -25499.630033925776, 11531.846109848751, 9835.013429524115, -187500.02235174447, -21610.135926024428, 14793.725585189533, -26685.90416740229, 53157.61156768937, -25913.56198949361, 10700.092995177865, -22699.64935775392, -29687.564633794384, -18919.522335472386, 0.042, 0.96, 0.308, 192.0, 0.0, 0.0, 0.0, 0.0, 0.0, 0.0, 0.0, 0.0, 0.0, 1.695766949944805E9, 0.0, 2023-09-26 17:22:29.944
32.0, 34552.354759258604, 49995.107948196885, -19077.035078648936, -25496.5678449354, 11544.340734999269, 9822.94348751825, -187500.02235174447, -21596.188437484318, 14803.78387019442, -26673.923632374244, 53023.38934223525, -25911.952663892826, 10686.54783803795, -22690.57454950506, -29685.284755859942, -19047.776645156937, 0.042, 0.96, 0.308, 192.0, 0.0, 0.0, 0.0, 0.0, 0.0, 0.0, 0.0, 0.0, 0.0, 1.695766949944818E9, 0.0, 2023-09-26 17:22:29.944
34.0, 34557.741529672334, 49998.527765098544, -19073.302337324898, -25494.84676061234, 11543.603127432243, 9850.011450053627, -187500.02235174447, -21600.636434630924, 14797.458326513568, -26676.494082986606, 53122.54168063899, -25906.856466157016, 10703.69162603517, -22694.284939084642, -29677.372238322765, -18956.067437656813, 0.042, 0.96, 0.308, 192.0, 0.0, 0.0, 0.0, 0.0, 0.0, 0.0, 0.0, 0.0, 0.0, 1.695766949944822E9, 0.0, 2023-09-26 17:22:29.944
36.0, 34554.99226510433, 49995.040892963516, -19076.610395504285, -25493.885635600764, 11542.95492684304, 9824.46340614121, -187500.02235174447, -21605.218542244264, 14800.721681204044, -26679.489216743616, 53043.14828433374, -25910.83507667006, 10685.989044426566, -22695.96131991879, -29681.328497091356, -19030.878726348725, 0.042, 0.96, 0.308, 192.0, 0.0, 0.0, 0.0, 0.0, 0.0, 0.0, 0.0, 0.0, 0.0, 1.695766949944825E9, 0.0, 2023-09-26 17:22:29.944
38.0, 34566.50341349881, 50009.83774779293, -19077.705630982593, -25492.969214078097, 11538.752798885442, 9865.612967683432, -187500.02235174447, -21591.919254293356, 14795.40196602368, -26682.059667355978, 53123.30163995048, -25905.917692889892, 10701.992893456567, -22698.867046697982, -29680.2556133575, -18946.210318352023, 0.04, 0.9580000000000001, 0.304, 192.0, 0.5, 32.0, 14.5, 120.0, 4.5, 64.0, 0.0, 0.0, 0.0, 1.695766949944829E9, 0.0, 2023-09-26 17:22:29.944
40.0, 34570.057340867206, 50008.22842219215, -19074.86695943677, -25484.85553084082, 11538.596336674254, 9824.150481718836, -187500.02235174447, -21604.70445212179, 14801.191067837604, -26669.855614883378, 53058.056897885435, -25904.17425682238, 10687.777183982991, -22688.71935471527, -29680.16620637968, -19004.615426613742, 0.04, 0.9580000000000001, 0.304, 192.0, 0.0, 0.0, 0.0, 0.0, 0.0, 0.0, 0.0, 0.0, 0.0, 1.695766949944832E9, 0.0, 2023-09-26 17:22:29.944
42.0, 34578.573355504675, 50026.42274217877, -19073.749372214006, -25481.793341850444, 11543.133740798681, 9879.158124823347, -187500.02235174447, -21586.80070481309, 14800.989902137508, -26668.872138127346, 53108.01304674304, -25896.418201496388, 10705.591524313872, -22686.506532014195, -29677.998087167514, -18952.33469633278, 0.04, 0.9580000000000001, 0.304, 192.0, 0.0, 0.0, 0.0, 0.0, 0.0, 0.0, 0.0, 0.0, 0.0, 1.695766949944836E9, 0.0, 2023-09-26 17:22:29.944
44.0, 34579.757997960805, 50013.771654817065, -19074.44227629212, -25484.542606418447, 11521.47490042149, 9804.436243109256, -187500.02235174447, -21624.17282154236, 14808.880067930231, -26660.065550811953, 53092.27741864651, -25893.80304739512, 10691.97931194059, -22685.21013083579, -29683.183691881146, -18972.09363843127, 0.04, 0.9580000000000001, 0.304, 192.0, 0.0, 0.0, 0.0, 0.0, 0.0, 0.0, 0.0, 0.0, 0.0, 1.695766949944839E9, 0.0, 2023-09-26 17:22:29.944
46.0, 34581.32262007268, 50025.61807937838, -19080.00786066149, -25492.499827444535, 11533.47778719399, 9877.4817439892, -187500.02235174447, -21590.980481026232, 14799.000596880986, -26669.453283483184, 53106.06844497543, -25897.826361397074, 10703.155184168243, -22697.995328664223, -29694.761895508993, -18957.542652790864, 0.04, 0.9580000000000001, 0.304, 192.0, 0.0, 0.0, 0.0, 0.0, 0.0, 0.0, 0.0, 0.0, 0.0, 1.695766950005158E9, 0.0, 2023-09-26 17:22:30.005
48.0, 34583.84836719613, 50017.817320563474, -19072.676488480152, -25491.270481499494, 11535.33298198378, 9802.93867623075, -187500.02235174447, -21627.682045421847, 14810.534097019923, -26657.42804496623, 53121.737017838605, -25893.691288672842, 10697.54489630996, -22689.881645426947, -29681.507311046997, -18946.858518941226, 0.04, 0.96, 0.298, 192.0, 0.5, 32.0, 15.0, 0.0, 4.5, 40.0, 0.0, 0.0, 0.0, 1.695766950005172E9, 0.0, 2023-09-26 17:22:30.005
50.0, 34589.972745176885, 50040.057306296505, -19076.319822826365, -25487.29187098645, 11553.393191503668, 9878.174648067314, -187500.02235174447, -21580.36340240996, 14804.789698694909, -26666.27933577053, 53083.73905226458, -25890.852617127017, 10706.306780136441, -22696.698927485817, -29684.793017481927, -18981.838999013784, 0.04, 0.96, 0.298, 192.0, 0.0, 0.0, 0.0, 0.0, 0.0, 0.0, 0.0, 0.0, 0.0, 1.695766950005175E9, 0.0, 2023-09-26 17:22:30.005
52.0, 34591.26914635529, 50034.29055622704, -19076.230415848546, -25484.632013396265, 11523.441853933557, 9797.350740116923, -187500.02235174447, -21627.816155888577, 14806.868410929254, -26658.545632188994, 53137.830273846426, -25887.87983511446, 10698.058986432432, -22688.361726803985, -29686.223529127066, -18933.84980366824, 0.04, 0.96, 0.298, 192.0, 0.0, 0.0, 0.0, 0.0, 0.0, 0.0, 0.0, 0.0, 0.0, 1.695766950005178E9, 0.0, 2023-09-26 17:22:30.005
54.0, 34593.70548650092, 50059.771544906085, -19075.58221525934, -25483.33561221786, 11553.437894992578, 9884.14256383688, -187500.02235174447, -21574.529597107125, 14801.995730637997, -26652.488309441604, 53064.2259793551, -25882.426009467366, 10709.525431338005, -22686.551235503106, -29683.362505836787, -18998.982787011002, 0.04, 0.96, 0.298, 192.0, 0.0, 0.0, 0.0, 0.0, 0.0, 0.0, 0.0, 0.0, 0.0, 1.695766950005182E9, 0.0, 2023-09-26 17:22:30.005
56.0, 34603.20497789443, 50050.09323955694, -19074.799904203406, -25482.88857732875, 11518.166842242104, 9799.585914562454, -187500.02235174447, -21637.47210949327, 14816.971399423051, -26646.676855883226, 53155.644614177305, -25879.4085239659, 10703.311646379429, -22684.338412802033, -29681.39555232472, -18920.975198861983, 0.04, 0.96, 0.298, 192.0, 0.0, 0.0, 0.0, 0.0, 0.0, 0.0, 0.0, 0.0, 0.0, 1.695766950005185E9, 0.0, 2023-09-26 17:22:30.005
58.0, 34608.39058260806, 50070.20980956672, -19071.603604746295, -25473.85847256881, 11557.081229338793, 9889.708148206253, -187500.02235174447, -21574.239024429207, 14817.329027334337, -26643.771129104036, 53047.1715983357, -25873.01592505168, 10707.625533059303, -22681.611499978484, -29683.07193315887, -19027.168336769144, 0.04, 0.962, 0.304, 192.0, 0.5, 32.0, 15.0, 8.0, 4.5, 64.0, 0.0, 0.0, 0.0, 1.695766950005188E9, 0.0, 2023-09-26 17:22:30.005
60.0, 34609.686983786465, 50059.86095188391, -19070.1507413567, -25472.60677487931, 11527.4204644466, 9814.829804280973, -187500.02235174447, -21622.76466164168, 14812.054015642885, -26644.66519888225, 53178.53280049954, -25871.78657910664, 10705.680931291692, -22681.410334278386, -29678.3557150788, -18899.048137551326, 0.04, 0.962, 0.304, 192.0, 0.0, 0.0, 0.0, 0.0, 0.0, 0.0, 0.0, 0.0, 0.0, 1.695766950065414E9, 0.0, 2023-09-26 17:22:30.065
62.0, 34611.13984717606, 50079.19521083775, -19069.703706467593, -25465.878899798263, 11561.730392185496, 9887.33886329399, -187500.02235174447, -21563.644297557392, 14812.50105053199, -26639.92662905772, 53036.82274065289, -25868.702038371808, 10708.139623181776, -22674.14601733041, -29673.706552232095, -19031.43751996011, 0.04, 0.962, 0.304, 192.0, 0.0, 0.0, 0.0, 0.0, 0.0, 0.0, 0.0, 0.0, 0.0, 1.695766950065428E9, 0.0, 2023-09-26 17:22:30.065
64.0, 34612.90563498803, 50066.67823394278, -19068.988450645025, -25469.38812367775, 11528.470996436, 9823.41287415181, -187500.02235174447, -21622.8540686195, 14816.211440111572, -26640.731291858112, 53161.791343902514, -25873.127683773957, 10711.000646472055, -22674.637755708427, -29676.321706333365, -18914.87317262568, 0.04, 0.962, 0.304, 192.0, 0.0, 0.0, 0.0, 0.0, 0.0, 0.0, 0.0, 0.0, 0.0, 1.695766950065432E9, 0.0, 2023-09-26 17:22:30.065
66.0, 34614.716126288906, 50078.725824204186, -19068.58611924483, -25470.081027755863, 11556.991822360973, 9882.265017302636, -187500.02235174447, -21572.339126150506, 14819.810070968875, -26644.061701781953, 53021.60120267883, -25872.993573307227, 10710.330094138395, -22679.06340111058, -29674.377104565756, -19046.368485256255, 0.04, 0.962, 0.304, 192.0, 0.0, 0.0, 0.0, 0.0, 0.0, 0.0, 0.0, 0.0, 0.0, 1.695766950065435E9, 0.0, 2023-09-26 17:22:30.065
68.0, 34615.56549257821, 50070.99212062265, -19064.182825587133, -25469.075199255374, 11534.99770581695, 9831.66066785582, -187500.02235174447, -21619.85893486249, 14820.525326791445, -26646.810966349956, 53183.71840521317, -25872.725352373764, 10714.755739540547, -22685.00896513569, -29675.897023188714, -18896.83531485025, 0.036000000000000004, 0.962, 0.302, 192.0, 0.5, 16.0, 15.0, 8.0, 4.5, 56.0, 0.0, 0.0, 0.0, 1.695766950065439E9, 0.0, 2023-09-26 17:22:30.065
70.0, 34616.90659724553, 50077.407071281326, -19062.707610453082, -25462.257917196504, 11560.277528795903, 9882.24266555818, -187500.02235174447, -21569.70162030478, 14820.88295470273, -26645.782786105014, 53046.00930762402, -25868.992611049725, 10706.865573747824, -22682.662031967884, -29669.772645207962, -19024.95551406807, 0.036000000000000004, 0.962, 0.302, 192.0, 0.0, 0.0, 0.0, 0.0, 0.0, 0.0, 0.0, 0.0, 0.0, 1.695766950065442E9, 0.0, 2023-09-26 17:22:30.065
72.0, 34626.98723399487, 50078.9716933932, -19061.321802296854, -25457.295829927425, 11540.362124486224, 9847.150426763348, -187500.02235174447, -21598.26714971866, 14817.820765712353, -26637.46793716764, 53203.030312422554, -25856.20741322129, 10719.047274475966, -22675.174197575358, -29662.754197448994, -18876.539930884832, 0.036000000000000004, 0.962, 0.302, 192.0, 0.0, 0.0, 0.0, 0.0, 0.0, 0.0, 0.0, 0.0, 0.0, 1.695766950065445E9, 0.0, 2023-09-26 17:22:30.065
74.0, 34621.33224264768, 50074.23312356867, -19069.1002093673, -25463.66607709719, 11559.629328206698, 9871.558531708542, -187500.02235174447, -21565.924175491833, 14828.147271650705, -26634.293989454985, 53044.98112737908, -25856.430930665843, 10710.419501116217, -22670.72620042875, -29663.044770126915, -19026.274266990935, 0.036000000000000004, 0.962, 0.302, 192.0, 0.0, 0.0, 0.0, 0.0, 0.0, 0.0, 0.0, 0.0, 0.0, 1.695766950065448E9, 0.0, 2023-09-26 17:22:30.065
76.0, 34621.55576009223, 50073.02612936809, -19075.06812513687, -25474.90900455821, 11541.591470431265, 9849.609118653432, -187500.02235174447, -21602.17870499834, 14816.12203313375, -26646.1404140163, 53199.02935016505, -25867.78561684914, 10718.153204697754, -22685.143075602424, -29673.125406876257, -18878.17160823007, 0.036000000000000004, 0.962, 0.302, 192.0, 0.0, 0.0, 0.0, 0.0, 0.0, 0.0, 0.0, 0.0, 0.0, 1.695766950124995E9, 0.0, 2023-09-26 17:22:30.124
78.0, 34620.438172869464, 50073.74138519065, -19070.30720356789, -25469.38812367775, 11560.881025896195, 9849.542063420065, -187500.02235174447, -21582.665632088858, 14826.068559416362, -26645.71573087165, 53063.868351443816, -25870.668991883875, 10704.652751046748, -22680.225691822256, -29669.616182996775, -19006.515324892443, 0.034, 0.966, 0.3, 192.0, 0.5, 8.0, 15.0, 24.0, 4.5, 48.0, 0.0, 0.0, 0.0, 1.695766950125007E9, 0.0, 2023-09-26 17:22:30.125
80.0, 34621.220483925405, 50077.85410617043, -19075.87278793726, -25479.960498805107, 11547.38057224519, 9856.560511179032, -187500.02235174447, -21601.731670109235, 14820.637085513723, -26649.60493440687, 53171.46964925166, -25867.83032033805, 10723.40586464475, -22684.338412802033, -29667.87274692926, -18907.564152188796, 0.034, 0.966, 0.3, 192.0, 0.0, 0.0, 0.0, 0.0, 0.0, 0.0, 0.0, 0.0, 0.0, 1.69576695012501E9, 0.0, 2023-09-26 17:22:30.125
82.0, 34622.44982987044, 50075.46246951372, -19070.843645434816, -25474.41726618019, 11555.829531649297, 9838.030915025582, -187500.02235174447, -21595.60729212848, 14822.93931519262, -26645.671027382738, 53071.043261413965, -25873.708829129795, 10705.569172569416, -22685.29953781361, -29674.53356677694, -19003.184914968602, 0.034, 0.966, 0.3, 192.0, 0.0, 0.0, 0.0, 0.0, 0.0, 0.0, 0.0, 0.0, 0.0, 1.695766950125014E9, 0.0, 2023-09-26 17:22:30.125
84.0, 34631.68110033048, 50086.30306557454, -19066.842683177314, -25469.70104810012, 11548.989897845971, 9869.882150874395, -187500.02235174447, -21583.827922800534, 14820.100643646794, -26646.721559372138, 53160.78551540202, -25866.913898815383, 10721.394207643772, -22684.96426164678, -29674.265345843476, -18917.17540230458, 0.034, 0.966, 0.3, 192.0, 0.0, 0.0, 0.0, 0.0, 0.0, 0.0, 0.0, 0.0, 0.0, 1.695766950125017E9, 0.0, 2023-09-26 17:22:30.125
86.0, 34638.677196345, 50089.991103409666, -19053.185767315124, -25456.46881538258, 11561.685688696587, 9848.178607008293, -187500.02235174447, -21573.993155240198, 14833.489338575524, -26631.142393486785, 53082.19678189717, -25858.196718477815, 10716.07449246341, -22672.67080219636, -29659.96022939208, -18989.237426428488, 0.034, 0.966, 0.3, 192.0, 0.0, 0.0, 0.0, 0.0, 0.0, 0.0, 0.0, 0.0, 0.0, 1.69576695012502E9, 0.0, 2023-09-26 17:22:30.125
88.0, 34648.73548134988, 50105.503214061646, -19055.398590016197, -25458.212251450095, 11561.775095674408, 9902.046311145581, -187500.02235174447, -21563.890166746398, 14829.063693173373, -26628.21431496314, 53146.18982627271, -25848.004323006193, 10735.565213628437, -22670.413276006377, -29657.568592735362, -18924.529126230376, 0.032, 0.962, 0.298, 192.0, 0.5, 0.0, 15.0, 8.0, 4.5, 40.0, 0.0, 0.0, 0.0, 1.695766950125023E9, 0.0, 2023-09-26 17:22:30.125
90.0, 34633.29042593127, 50078.7705276931, -19064.071066864857, -25469.410475422203, 11536.808197117829, 9834.745208590652, -187500.02235174447, -21599.451792174794, 14841.401856112703, -26622.671082338227, 53110.471738633125, -25853.189927719824, 10718.130852953298, -22668.647488194405, -29662.06129337088, -18955.508644045432, 0.032, 0.962, 0.298, 192.0, 0.0, 0.0, 0.0, 0.0, 0.0, 0.0, 0.0, 0.0, 0.0, 1.695766950185445E9, 0.0, 2023-09-26 17:22:30.185
92.0, 34627.34486190616, 50078.368196292904, -19067.513235510974, -25476.004240036516, 11558.154113072647, 9881.147430079869, -187500.02235174447, -21572.18266393932, 14817.507841289978, -26652.28714374151, 53124.97802078462, -25868.32205871607, 10720.41073088774, -22691.62508149446, -29674.913546432683, -18939.862422926715, 0.032, 0.962, 0.298, 192.0, 0.0, 0.0, 0.0, 0.0, 0.0, 0.0, 0.0, 0.0, 0.0, 1.695766950185466E9, 0.0, 2023-09-26 17:22:30.185
94.0, 34625.064983971715, 50062.74432691865, -19069.05550587839, -25476.361867947802, 11557.170636316614, 9816.394426392846, -187500.02235174447, -21601.329338709038, 14821.665265758666, -26651.66129489676, 53103.58740134089, -25869.327887216557, 10708.631361559792, -22693.033241395147, -29667.112787617778, -18972.94300472057, 0.032, 0.962, 0.298, 192.0, 0.0, 0.0, 0.0, 0.0, 0.0, 0.0, 0.0, 0.0, 0.0, 1.695766950185469E9, 0.0, 2023-09-26 17:22:30.185
96.0, 34630.40705089653, 50083.37498705089, -19071.558901257384, -25471.153911489717, 11578.069517382326, 9901.129889622915, -187500.02235174447, -21549.60740203946, 14815.943219178107, -26653.9411728312, 53105.66611357524, -25869.238480238735, 10721.103634965853, -22690.619252993973, -29660.20609858109, -18966.08101917279, 0.032, 0.962, 0.298, 192.0, 0.0, 0.0, 0.0, 0.0, 0.0, 0.0, 0.0, 0.0, 0.0, 1.695766950185473E9, 0.0, 2023-09-26 17:22:30.185
98.0, 34633.69275733146, 50071.64032121186, -19073.279985580444, -25468.672867855177, 11549.124008312703, 9818.584897349465, -187500.02235174447, -21596.90369330689, 14820.704140747088, -26645.447509938185, 53142.12180878184, -25868.702038371808, 10707.603181314847, -22685.2548343247, -29667.24689808451, -18931.480518755976, 0.028, 0.964, 0.302, 192.0, 0.0, 112.0, 15.0, 16.0, 4.5, 56.0, 0.0, 0.0, 0.0, 1.695766950185476E9, 0.0, 2023-09-26 17:22:30.185
100.0, 34632.46341138642, 50088.381777808885, -19075.559863514885, -25469.38812367775, 11574.850866180763, 9909.891773449395, -187500.02235174447, -21553.02721894112, 14820.570030280356, -26645.84984133838, 53080.11806966282, -25859.06843651157, 10721.573021599415, -22678.661069710382, -29663.625915482753, -18984.297690903866, 0.028, 0.964, 0.302, 192.0, 0.0, 0.0, 0.0, 0.0, 0.0, 0.0, 0.0, 0.0, 0.0, 1.69576695018548E9, 0.0, 2023-09-26 17:22:30.185
102.0, 34627.68013807299, 50071.4168037673, -19073.905834425193, -25473.366734190793, 11542.351429742746, 9816.32737115948, -187500.02235174447, -21617.020263316663, 14814.847983699798, -26651.88481234131, 53172.22960856314, -25868.098541271513, 10704.07160569091, -22688.831113437547, -29673.59479350982, -18893.68371888205, 0.028, 0.964, 0.302, 192.0, 0.0, 0.0, 0.0, 0.0, 0.0, 0.0, 0.0, 0.0, 0.0, 1.695766950185483E9, 0.0, 2023-09-26 17:22:30.185
104.0, 34625.46731537191, 50089.633475498376, -19075.850436192803, -25468.248184710526, 11576.90722667065, 9909.780014727117, -187500.02235174447, -21554.32362011953, 14818.044283156907, -26646.967428561144, 53079.91690396272, -25865.25986972569, 10717.236783175085, -22685.81362793608, -29665.21288933908, -18980.69906004656, 0.028, 0.964, 0.302, 192.0, 0.0, 0.0, 0.0, 0.0, 0.0, 0.0, 0.0, 0.0, 0.0, 1.695766950185486E9, 0.0, 2023-09-26 17:22:30.185
106.0, 34628.484800873375, 50074.79191718005, -19071.514197768476, -25462.816710807885, 11551.716810669519, 9827.257374198125, -187500.02235174447, -21600.9493590533, 14819.02775991294, -26648.75556811757, 53198.8058327205, -25864.54461390312, 10713.414634873228, -22682.505569756697, -29664.944668405613, -18869.275613936858, 0.028, 0.964, 0.302, 192.0, 0.0, 0.0, 0.0, 0.0, 0.0, 0.0, 0.0, 0.0, 0.0, 1.69576695024469E9, 0.0, 2023-09-26 17:22:30.244
108.0, 34629.08829797367, 50087.733577219675, -19073.68231698064, -25464.38133291976, 11579.902360427663, 9904.01326465765, -187500.02235174447, -21545.472329315227, 14821.17352738065, -26650.208431507162, 53069.03160441299, -25862.197680735313, 10719.091977964876, -22682.259700567687, -29661.770720692963, -18995.965301509535, 0.038, 0.962, 0.302, 192.0, 0.5, 24.0, 15.0, 8.0, 4.5, 56.0, 0.0, 0.0, 0.0, 1.695766950244702E9, 0.0, 2023-09-26 17:22:30.244
110.0, 34639.03482425628, 50080.603370738434, -19074.06229663638, -25465.27540269797, 11545.234804777481, 9822.719970073696, -187500.02235174447, -21605.46441143327, 14823.185184381628, -26651.191908263198, 53202.31505659998, -25860.409541178888, 10713.88402150679, -22684.070191868566, -29665.235241083534, -18871.466084893476, 0.038, 0.962, 0.302, 192.0, 0.0, 0.0, 0.0, 0.0, 0.0, 0.0, 0.0, 0.0, 0.0, 1.695766950244706E9, 0.0, 2023-09-26 17:22:30.244
112.0, 34630.295292174254, 50087.08537663047, -19080.521950783965, -25466.28123119846, 11576.594302248277, 9898.067700632537, -187500.02235174447, -21547.841614227487, 14822.089948903316, -26647.258001239064, 53052.46896177161, -25859.001381278205, 10714.778091285001, -22683.354936046, -29664.855261427794, -19016.975941297525, 0.038, 0.962, 0.302, 192.0, 0.0, 0.0, 0.0, 0.0, 0.0, 0.0, 0.0, 0.0, 0.0, 1.695766950244709E9, 0.0, 2023-09-26 17:22:30.244
114.0, 34633.29042593127, 50077.317664303504, -19079.471418794565, -25467.555280632412, 11546.486502466978, 9834.119359745904, -187500.02235174447, -21596.993100284708, 14816.010274411474, -26651.37072221884, 53217.00015270712, -25864.96929704777, 10711.581791827894, -22687.758229703693, -29672.16428186468, -18862.07835222225, 0.038, 0.962, 0.302, 192.0, 0.0, 0.0, 0.0, 0.0, 0.0, 0.0, 0.0, 0.0, 0.0, 1.695766950244713E9, 0.0, 2023-09-26 17:22:30.244
116.0, 34630.98819625237, 50083.57615275099, -19075.24693909251, -25463.59902186382, 11587.412546564645, 9886.71301444924, -187500.02235174447, -21542.253678113662, 14820.79354772491, -26645.71573087165, 53052.62542398279, -25863.427026680354, 10713.369931384317, -22675.174197575358, -29660.25080207, -19015.545429652386, 0.038, 0.962, 0.302, 192.0, 0.0, 0.0, 0.0, 0.0, 0.0, 0.0, 0.0, 0.0, 0.0, 1.695766950244716E9, 0.0, 2023-09-26 17:22:30.244
118.0, 34639.48185914539, 50077.85410617043, -19076.00689840399, -25466.41534166519, 11559.361107273235, 9833.560566134522, -187500.02235174447, -21592.925082793845, 14821.50880354748, -26646.09571052739, 53193.77669021806, -25863.851709825005, 10720.231916932096, -22683.86902616847, -29661.68131371514, -18886.64291937863, 0.042, 0.96, 0.294, 192.0, 0.5, 40.0, 15.0, 0.0, 4.5, 24.0, 0.0, 0.0, 0.0, 1.695766950244719E9, 0.0, 2023-09-26 17:22:30.244
120.0, 34633.804516053744, 50083.59850449544, -19078.666755994174, -25467.08589399885, 11581.131706372704, 9870.128020063403, -187500.02235174447, -21561.185605667306, 14823.587515781823, -26645.02282679353, 53014.94038283115, -25859.806044078596, 10712.11823369482, -22682.036183123135, -29658.663828213674, -19057.14202608371, 0.042, 0.96, 0.294, 192.0, 0.0, 0.0, 0.0, 0.0, 0.0, 0.0, 0.0, 0.0, 0.0, 1.695766950304573E9, 0.0, 2023-09-26 17:22:30.304
122.0, 34635.413841654525, 50081.072757372, -19083.67354675216, -25472.629126623768, 11546.844130378262, 9850.369077964911, -187500.02235174447, -21591.874550804445, 14814.847983699798, -26651.817757107947, 53168.98860561712, -25862.5553086466, 10719.114329709331, -22691.222750094268, -29668.990334152026, -18908.011187077904, 0.042, 0.96, 0.294, 192.0, 0.0, 0.0, 0.0, 0.0, 0.0, 0.0, 0.0, 0.0, 0.0, 1.695766950304592E9, 0.0, 2023-09-26 17:22:30.304
124.0, 34637.06787074421, 50082.25739982813, -19072.072991379857, -25462.503786385514, 11572.883912668696, 9865.344746749968, -187500.02235174447, -21558.324582377027, 14824.258068115481, -26643.27939072602, 53036.12983657478, -25861.92945980185, 10711.60414357235, -22681.16446508938, -29664.475281772055, -19029.24704900349, 0.042, 0.96, 0.294, 192.0, 0.0, 0.0, 0.0, 0.0, 0.0, 0.0, 0.0, 0.0, 0.0, 1.695766950304596E9, 0.0, 2023-09-26 17:22:30.304
126.0, 34636.732594577385, 50082.30210331704, -19073.548206513908, -25472.00327777902, 11555.360145015735, 9861.433191470289, -187500.02235174447, -21579.22346344274, 14822.335818092326, -26644.531088415515, 53148.514407696064, -25863.44937842481, 10726.065722234933, -22680.851540667005, -29660.563726492375, -18919.298818027833, 0.042, 0.96, 0.294, 192.0, 0.0, 0.0, 0.0, 0.0, 0.0, 0.0, 0.0, 0.0, 0.0, 1.695766950304605E9, 0.0, 2023-09-26 17:22:30.304
128.0, 34634.162143965026, 50079.44108002676, -19071.223625090555, -25473.83612082435, 11568.614729477731, 9857.678098401797, -187500.02235174447, -21565.097160946985, 14819.519498290956, -26636.484460411604, 53030.34073476085, -25866.556270904097, 10706.664408047725, -22682.706735456795, -29666.06225562838, -19022.496822177985, 0.042, 0.966, 0.3, 192.0, 0.5, 40.0, 15.0, 24.0, 4.5, 48.0, 0.0, 0.0, 0.0, 1.695766950304609E9, 0.0, 2023-09-26 17:22:30.304
130.0, 34644.24278071437, 50093.14269937786, -19062.1488168417, -25470.57276613388, 11559.316403784323, 9873.436078242788, -187500.02235174447, -21574.8425215295, 14813.618637754756, -26628.728405085614, 53157.723326411644, -25864.432855180843, 10720.276620421007, -22679.577491233053, -29670.93493591964, -18891.984986303447, 0.042, 0.966, 0.3, 192.0, 0.0, 0.0, 0.0, 0.0, 0.0, 0.0, 0.0, 0.0, 0.0, 1.695766950304612E9, 0.0, 2023-09-26 17:22:30.304
132.0, 34635.70441433244, 50082.65973122833, -19056.449122005597, -25469.209309722104, 11561.819799163319, 9848.290365730569, -187500.02235174447, -21572.719105806245, 14829.242507129016, -26611.830486277402, 53053.586548994375, -25862.130625501948, 10709.033692959989, -22663.417179991866, -29666.1516626062, -18994.49008637549, 0.042, 0.966, 0.3, 192.0, 0.0, 0.0, 0.0, 0.0, 0.0, 0.0, 0.0, 0.0, 0.0, 1.695766950304616E9, 0.0, 2023-09-26 17:22:30.304
134.0, 34640.62179811261, 50091.73453947718, -19052.783435914927, -25479.04407728244, 11571.05106962336, 9882.086203346993, -187500.02235174447, -21566.12534119193, 14819.541850035412, -26617.239608435586, 53122.54168063899, -25868.813797094084, 10723.919954767223, -22668.82630215005, -29671.337267319832, -18929.08888209926, 0.042, 0.966, 0.3, 192.0, 0.0, 0.0, 0.0, 0.0, 0.0, 0.0, 0.0, 0.0, 0.0, 1.695766950304619E9, 0.0, 2023-09-26 17:22:30.304
136.0, 34632.105783475134, 50078.234085826174, -19049.497729479997, -25479.80403659392, 11565.664299209631, 9832.420627167301, -187500.02235174447, -21581.190416954807, 14829.287210617926, -26605.192018174177, 53054.43591528368, -25874.06645704108, 10713.593448828871, -22665.764113159672, -29662.217755582067, -18994.735955564494, 0.042, 0.966, 0.3, 192.0, 0.0, 0.0, 0.0, 0.0, 0.0, 0.0, 0.0, 0.0, 0.0, 1.695766950364763E9, 0.0, 2023-09-26 17:22:30.364
138.0, 34634.05038524275, 50091.645132499354, -19047.44136899011, -25477.546510403936, 11563.67499395311, 9889.596389483975, -187500.02235174447, -21558.995134710687, 14820.927658191642, -26607.606006575348, 53108.393026398786, -25875.02758205266, 10726.423350146217, -22669.742723672716, -29670.800825452905, -18945.048027640347, 0.036000000000000004, 0.968, 0.298, 192.0, 0.5, 16.0, 15.0, 32.0, 4.5, 40.0, 0.0, 0.0, 0.0, 1.695766950364775E9, 0.0, 2023-09-26 17:22:30.364
140.0, 34634.45271664295, 50083.553801006536, -19041.987543343013, -25471.489187656545, 11546.33004025579, 9822.921135773795, -187500.02235174447, -21593.19330372731, 14827.767291994965, -26597.391259359272, 53096.904229748754, -25869.573756405563, 10707.871402248313, -22662.523110213653, -29672.611316753784, -18957.69911500205, 0.036000000000000004, 0.968, 0.298, 192.0, 0.0, 0.0, 0.0, 0.0, 0.0, 0.0, 0.0, 0.0, 0.0, 1.695766950364779E9, 0.0, 2023-09-26 17:22:30.364
142.0, 34639.37010042311, 50100.13879539238, -19041.227584031534, -25466.90708004321, 11562.512703241433, 9901.44281404529, -187500.02235174447, -21544.846480470478, 14825.55446929389, -26596.92187272571, 53107.72247406513, -25861.705942357297, 10718.287315164485, -22660.310287512577, -29676.00878191099, -18947.216146852512, 0.036000000000000004, 0.968, 0.298, 192.0, 0.0, 0.0, 0.0, 0.0, 0.0, 0.0, 0.0, 0.0, 0.0, 1.695766950364782E9, 0.0, 2023-09-26 17:22:30.364
144.0, 34643.728690591895, 50092.092167388466, -19031.392816471198, -25459.978039262063, 11550.599223446754, 9832.577089378488, -187500.02235174447, -21580.005774498677, 14832.84113798632, -26587.377677843295, 53139.283137236016, -25859.157843489393, 10708.921934237711, -22651.86132810847, -29667.515119017975, -18914.917876114592, 0.036000000000000004, 0.968, 0.298, 192.0, 0.0, 0.0, 0.0, 0.0, 0.0, 0.0, 0.0, 0.0, 0.0, 1.695766950364786E9, 0.0, 2023-09-26 17:22:30.364
146.0, 34646.589713882175, 50110.26413563063, -19031.1916507711, -25460.425074151168, 11566.983052132495, 9907.097805392481, -187500.02235174447, -21547.774558994122, 14831.611792041278, -26584.941337697666, 53114.539756123995, -25851.625305607955, 10723.830547789401, -22652.017790319656, -29667.313953317876, -18937.64960022564, 0.036000000000000004, 0.968, 0.298, 192.0, 0.0, 0.0, 0.0, 0.0, 0.0, 0.0, 0.0, 0.0, 0.0, 1.695766950364789E9, 0.0, 2023-09-26 17:22:30.364
148.0, 34645.60623712614, 50089.834641198475, -19025.491955935, -25458.525175872466, 11544.072514065805, 9819.367208405401, -187500.02235174447, -21599.921178808356, 14839.725475278554, -26576.961764927124, 53168.87684689485, -25851.89352654142, 10713.63815231778, -22649.06736005156, -29661.949534648604, -18888.609872890698, 0.034, 0.968, 0.302, 192.0, 0.5, 8.0, 15.0, 32.0, 4.5, 56.0, 0.0, 0.0, 0.0, 1.695766950364793E9, 0.0, 2023-09-26 17:22:30.364
150.0, 34641.89584754656, 50100.02703667009, -19028.19651701409, -25460.872109040276, 11579.209456349547, 9912.14929963938, -187500.02235174447, -21542.45484381376, 14837.98203921104, -26590.506922067038, 53106.51547986454, -25855.82743356555, 10724.501100123061, -22652.1966042753, -29658.19444158011, -18947.55142301934, 0.034, 0.968, 0.302, 192.0, 0.0, 0.0, 0.0, 0.0, 0.0, 0.0, 0.0, 0.0, 0.0, 1.695766950425005E9, 0.0, 2023-09-26 17:22:30.425
152.0, 34651.37298719561, 50089.58877200947, -19020.61927564374, -25455.99942874902, 11547.246461778459, 9822.89878402934, -187500.02235174447, -21601.284635220127, 14844.46404510308, -26583.287308607974, 53203.611457778396, -25853.838128309028, 10720.723655310114, -22645.446377449796, -29651.041883354414, -18858.479721364944, 0.034, 0.968, 0.302, 192.0, 0.0, 0.0, 0.0, 0.0, 0.0, 0.0, 0.0, 0.0, 0.0, 1.695766950425018E9, 0.0, 2023-09-26 17:22:30.425
154.0, 34648.75783309434, 50102.64219077137, -19023.837926845306, -25453.428978136657, 11578.136572615693, 9906.695473992286, -187500.02235174447, -21526.875677928412, 14845.894556748219, -26579.465160306117, 53072.29495910346, -25849.03250325114, 10729.642001347782, -22644.217031504755, -29650.39368276521, -18988.72333630602, 0.034, 0.968, 0.302, 192.0, 0.0, 0.0, 0.0, 0.0, 0.0, 0.0, 0.0, 0.0, 0.0, 1.695766950425022E9, 0.0, 2023-09-26 17:22:30.425
156.0, 34641.51586789082, 50086.683045230275, -19029.515269936954, -25461.453254396114, 11544.608955932732, 9828.106740487427, -187500.02235174447, -21592.9474345383, 14840.060751445384, -26584.337840597374, 53185.12656511385, -25856.632096365942, 10724.411693145239, -22646.34044722801, -29650.59484846531, -18884.49715191092, 0.034, 0.968, 0.302, 192.0, 0.0, 0.0, 0.0, 0.0, 0.0, 0.0, 0.0, 0.0, 0.0, 1.695766950425025E9, 0.0, 2023-09-26 17:22:30.425
158.0, 34634.005681753835, 50091.645132499354, -19035.10320605078, -25460.89446078473, 11576.571950503821, 9899.76643321114, -187500.02235174447, -21540.59964902397, 14839.45725434509, -26584.06961966391, 53045.40581052373, -25859.26960221167, 10722.020056488522, -22649.514394940663, -29651.01953160996, -19016.10422326377, 0.04, 0.96, 0.31, 192.0, 0.5, 32.0, 15.0, 0.0, 4.5, 88.0, 0.0, 0.0, 0.0, 1.695766950425037E9, 0.0, 2023-09-26 17:22:30.425
160.0, 34630.876437530096, 50075.12719334688, -19039.573554941842, -25463.643725352733, 11538.730447140986, 9834.365228934912, -187500.02235174447, -21597.216617729264, 14827.45436757259, -26590.573977300406, 53183.58429474644, -25869.394942449922, 10714.912201751733, -22656.309325255075, -29660.02728462545, -18883.781896088352, 0.04, 0.96, 0.31, 192.0, 0.0, 0.0, 0.0, 0.0, 0.0, 0.0, 0.0, 0.0, 0.0, 1.695766950425041E9, 0.0, 2023-09-26 17:22:30.425
162.0, 34626.875475272594, 50085.7219202187, -19037.472490963042, -25455.75355956001, 11575.901398170161, 9897.62066574343, -187500.02235174447, -21532.754186720158, 14833.578745553345, -26592.295061623463, 53041.36014477732, -25866.93625055984, 10711.939419739178, -22652.509528697676, -29653.947610133604, -19016.68536861961, 0.04, 0.96, 0.31, 192.0, 0.0, 0.0, 0.0, 0.0, 0.0, 0.0, 0.0, 0.0, 0.0, 1.695766950425044E9, 0.0, 2023-09-26 17:22:30.425
164.0, 34635.14562072106, 50087.68887373077, -19037.24897351849, -25458.726341572565, 11541.814987875818, 9839.416723181812, -187500.02235174447, -21585.437248401315, 14829.533079806934, -26593.144427912765, 53191.60857100589, -25863.427026680354, 10715.78391978549, -22652.91186009787, -29656.361598534775, -18874.21534946148, 0.04, 0.96, 0.31, 192.0, 0.0, 0.0, 0.0, 0.0, 0.0, 0.0, 0.0, 0.0, 0.0, 1.695766950425048E9, 0.0, 2023-09-26 17:22:30.425
166.0, 34632.821039297705, 50092.74036797767, -19034.857336861773, -25453.13840545874, 11574.67205222512, 9885.796592926574, -187500.02235174447, -21534.20705010975, 14841.491263090524, -26584.427247575197, 53025.468054469595, -25855.223936465256, 10711.73825403908, -22644.887583838416, -29650.43838625412, -19033.695046150096, 0.04, 0.96, 0.31, 192.0, 0.0, 0.0, 0.0, 0.0, 0.0, 0.0, 0.0, 0.0, 0.0, 1.695766950485357E9, 0.0, 2023-09-26 17:22:30.485
168.0, 34631.18936195247, 50084.82785044049, -19039.1935752861, -25459.620411350777, 11549.146360057159, 9849.027973297594, -187500.02235174447, -21578.776428553632, 14831.075350174351, -26588.137637154778, 53176.610550476384, -25859.291953956123, 10717.505004108549, -22651.1460722859, -29651.935953132626, -18892.052041536816, 0.044, 0.9580000000000001, 0.31, 192.0, 0.5, 48.0, 14.5, 120.0, 4.5, 88.0, 0.0, 0.0, 0.0, 1.695766950485368E9, 0.0, 2023-09-26 17:22:30.485
170.0, 34625.71318456092, 50086.63834174137, -19042.658095676674, -25465.118940486784, 11567.027755621404, 9868.697508418263, -187500.02235174447, -21559.822149255535, 14831.075350174351, -26587.087105165378, 53039.48259824307, -25864.097579014015, 10708.005512715044, -22652.241307764212, -29655.400473523197, -19020.95455181057, 0.044, 0.9580000000000001, 0.31, 192.0, 0.0, 0.0, 0.0, 0.0, 0.0, 0.0, 0.0, 0.0, 0.0, 1.695766950485372E9, 0.0, 2023-09-26 17:22:30.485
172.0, 34631.837562541674, 50088.82881269799, -19041.808729387372, -25467.84585331033, 11544.363086743724, 9847.731572119186, -187500.02235174447, -21585.392544912404, 14820.950009936096, -26593.68086977969, 53203.29853335602, -25867.31623021558, 10719.471957620617, -22658.47744446724, -29662.3518660488, -18864.58174760124, 0.044, 0.9580000000000001, 0.31, 192.0, 0.0, 0.0, 0.0, 0.0, 0.0, 0.0, 0.0, 0.0, 0.0, 1.695766950485375E9, 0.0, 2023-09-26 17:22:30.485
174.0, 34631.010547996826, 50090.34873132095, -19038.925354352636, -25462.682600341155, 11559.76343867343, 9856.024069312105, -187500.02235174447, -21560.69386728929, 14836.439768843624, -26582.79557022996, 53058.615691496816, -25862.287087713135, 10713.146413939765, -22647.659200150872, -29659.669656714163, -19008.66109236015, 0.044, 0.9580000000000001, 0.31, 192.0, 0.0, 0.0, 0.0, 0.0, 0.0, 0.0, 0.0, 0.0, 0.0, 1.695766950485379E9, 0.0, 2023-09-26 17:22:30.485
176.0, 34636.7772980663, 50090.1699173653, -19037.472490963042, -25460.782702062454, 11553.013211847927, 9873.011395098138, -187500.02235174447, -21569.589861582503, 14827.297905361404, -26590.55162555595, 53191.854440194904, -25861.75064584621, 10722.735312311092, -22651.1460722859, -29662.82125268236, -18882.59725363222, 0.044, 0.9580000000000001, 0.31, 192.0, 0.0, 0.0, 0.0, 0.0, 0.0, 0.0, 0.0, 0.0, 0.0, 1.695766950485382E9, 0.0, 2023-09-26 17:22:30.485
178.0, 34643.438117913975, 50088.024149897596, -19030.43169145962, -25449.36096064579, 11570.022889378417, 9857.432229212789, -187500.02235174447, -21556.35762886496, 14841.960649724086, -26575.41949455971, 53078.01700568402, -25853.413445164377, 10714.867498262824, -22635.186926744813, -29645.096319329303, -18993.975996253015, 0.042, 0.962, 0.306, 192.0, 0.5, 40.0, 15.0, 8.0, 4.5, 72.0, 0.0, 0.0, 0.0, 1.695766950485385E9, 0.0, 2023-09-26 17:22:30.485
180.0, 34639.99594926786, 50092.226277855196, -19043.373351499242, -25463.42020790818, 11557.148284572158, 9885.953055137761, -187500.02235174447, -21557.922250976833, 14831.075350174351, -26588.025878432498, 53161.38901250232, -25858.375532433456, 10724.54580361197, -22645.78165361663, -29653.567630477864, -18918.047120338335, 0.042, 0.962, 0.306, 192.0, 0.0, 0.0, 0.0, 0.0, 0.0, 0.0, 0.0, 0.0, 0.0, 1.695766950545661E9, 0.0, 2023-09-26 17:22:30.545
182.0, 34633.71510907592, 50078.47995501518, -19047.933107368124, -25467.532928887955, 11567.608900977242, 9848.938566319772, -187500.02235174447, -21568.204053426274, 14829.868355973764, -26588.98700344408, 53089.41639535623, -25867.182119748846, 10705.300951635953, -22648.82149086255, -29656.987447379524, -18983.738897292485, 0.042, 0.962, 0.306, 192.0, 0.0, 0.0, 0.0, 0.0, 0.0, 0.0, 0.0, 0.0, 0.0, 1.695766950545673E9, 0.0, 2023-09-26 17:22:30.545
184.0, 34629.37887065159, 50082.95030390624, -19052.62697370374, -25475.5125016585, 11563.76440093093, 9884.209619070247, -187500.02235174447, -21565.588899325, 14822.581687281334, -26599.089991937875, 53162.37248925835, -25870.31136397259, 10718.287315164485, -22659.505624712187, -29663.31299106038, -18910.805155134818, 0.042, 0.962, 0.306, 192.0, 0.0, 0.0, 0.0, 0.0, 0.0, 0.0, 0.0, 0.0, 0.0, 1.695766950545677E9, 0.0, 2023-09-26 17:22:30.545
186.0, 34634.25155094285, 50075.46246951372, -19039.28298226392, -25466.75061783202, 11557.930595628095, 9822.071769484493, -187500.02235174447, -21590.68990834831, 14831.12005366326, -26594.30671862444, 53116.149081724776, -25871.96539306228, 10705.435062102684, -22654.699999654295, -29664.11765386077, -18964.60580403874, 0.042, 0.962, 0.306, 192.0, 0.0, 0.0, 0.0, 0.0, 0.0, 0.0, 0.0, 0.0, 0.0, 1.695766950545681E9, 0.0, 2023-09-26 17:22:30.545
188.0, 34635.61500735462, 50088.42648129779, -19043.485110221518, -25466.549452131923, 11563.987918375484, 9885.81894467103, -187500.02235174447, -21570.908614505366, 14830.874184474253, -26594.440829091174, 53122.18405272771, -25868.232651738246, 10725.059893734444, -22655.63877292142, -29659.893174158715, -18961.163635392622, 0.042, 0.9580000000000001, 0.308, 192.0, 0.5, 40.0, 14.5, 120.0, 4.5, 80.0, 0.0, 0.0, 0.0, 1.695766950545685E9, 0.0, 2023-09-26 17:22:30.545
190.0, 34637.73842307788, 50079.284617815574, -19039.28298226392, -25460.84975729582, 11550.085133324283, 9823.994019507649, -187500.02235174447, -21593.640338616413, 14835.344533365314, -26592.160951156733, 53126.27442196303, -25868.97025930527, 10705.680931291692, -22653.425950220342, -29662.329514304343, -18957.65441151314, 0.042, 0.9580000000000001, 0.308, 192.0, 0.0, 0.0, 0.0, 0.0, 0.0, 0.0, 0.0, 0.0, 0.0, 1.695766950545688E9, 0.0, 2023-09-26 17:22:30.545
192.0, 34643.88515280309, 50095.73550173468, -19041.741674154007, -25461.073274740374, 11569.106467855749, 9898.738252966197, -187500.02235174447, -21549.585050295, 14830.181280396138, -26597.860645992834, 53122.87695680583, -25860.141320245424, 10718.421425631217, -22656.510490955174, -29661.793072437416, -18956.715638246016, 0.042, 0.9580000000000001, 0.308, 192.0, 0.0, 0.0, 0.0, 0.0, 0.0, 0.0, 0.0, 0.0, 0.0, 1.695766950545692E9, 0.0, 2023-09-26 17:22:30.545
194.0, 34648.422556927515, 50087.37594930839, -19038.075988063334, -25459.173376461673, 11551.13566531368, 9812.102891457425, -187500.02235174447, -21599.094164263508, 14839.233736900538, -26597.078334936898, 53146.12277103934, -25858.06260801108, 10709.704245293648, -22651.97308683075, -29659.312028802877, -18943.237536339468, 0.042, 0.9580000000000001, 0.308, 192.0, 0.0, 0.0, 0.0, 0.0, 0.0, 0.0, 0.0, 0.0, 0.0, 1.695766950545696E9, 0.0, 2023-09-26 17:22:30.545
196.0, 34645.76269933733, 50100.36231283693, -19048.648363190696, -25465.342457931336, 11575.566122003333, 9896.994816898683, -187500.02235174447, -21555.418855597836, 14831.36592285227, -26601.68279429469, 53070.75268873605, -25855.96154403228, 10721.193041943676, -22653.71652289826, -29660.474319514553, -19018.249990731478, 0.042, 0.9580000000000001, 0.308, 192.0, 0.0, 0.0, 0.0, 0.0, 0.0, 0.0, 0.0, 0.0, 0.0, 1.69576695060435E9, 0.0, 2023-09-26 17:22:30.604
198.0, 34645.44977491495, 50086.39247255236, -19048.29073527941, -25463.643725352733, 11548.744028656964, 9804.123318686881, -187500.02235174447, -21613.823963859555, 14830.449501329602, -26601.816904761425, 53144.736962883115, -25862.68941911333, 10709.614838315825, -22657.00222933319, -29664.452930027597, -18952.960545177528, 0.042, 0.9560000000000001, 0.296, 192.0, 0.5, 40.0, 14.5, 112.0, 4.5, 32.0, 0.0, 0.0, 0.0, 1.695766950604364E9, 0.0, 2023-09-26 17:22:30.604
200.0, 34642.4769929024, 50098.75298723614, -19053.901023137692, -25465.4095131647, 11577.689537726586, 9891.876267418416, -187500.02235174447, -21552.401370096373, 14831.254164129992, -26602.398050117263, 53038.09679008684, -25853.3016864421, 10721.371855899317, -22652.934211842326, -29661.837775926328, -19059.131331340235, 0.042, 0.9560000000000001, 0.296, 192.0, 0.0, 0.0, 0.0, 0.0, 0.0, 0.0, 0.0, 0.0, 0.0, 1.695766950604367E9, 0.0, 2023-09-26 17:22:30.604
202.0, 34650.25539997285, 50083.17382135079, -19049.0953980798, -25465.677734098164, 11548.364049001224, 9813.823975780484, -187500.02235174447, -21604.570341655057, 14829.466024573569, -26600.900483238758, 53165.926416626746, -25854.911012042885, 10714.17459418471, -22658.566851445063, -29662.284810815432, -18942.343466561255, 0.042, 0.9560000000000001, 0.296, 192.0, 0.0, 0.0, 0.0, 0.0, 0.0, 0.0, 0.0, 0.0, 0.0, 1.69576695060437E9, 0.0, 2023-09-26 17:22:30.604
204.0, 34641.26999870181, 50092.20392611074, -19052.157587070178, -25466.124768987273, 11576.86252318174, 9899.140584366392, -187500.02235174447, -21545.87466071542, 14828.728417006543, -26600.162875671733, 53056.96166240712, -25852.69818934181, 10718.086149464387, -22657.404560733386, -29661.68131371514, -19045.116787566756, 0.042, 0.9560000000000001, 0.296, 192.0, 0.0, 0.0, 0.0, 0.0, 0.0, 0.0, 0.0, 0.0, 0.0, 1.695766950604374E9, 0.0, 2023-09-26 17:22:30.604
206.0, 34642.02995801329, 50078.99404513765, -19048.626011446242, -25464.247222453025, 11551.582700202787, 9831.548909133544, -187500.02235174447, -21597.641300873915, 14829.22015538456, -26596.251320392053, 53194.69311174072, -25858.88962255593, 10714.554573840449, -22654.67764790984, -29662.374217793255, -18910.067547567793, 0.042, 0.9560000000000001, 0.296, 192.0, 0.0, 0.0, 0.0, 0.0, 0.0, 0.0, 0.0, 0.0, 0.0, 1.695766950604377E9, 0.0, 2023-09-26 17:22:30.604
208.0, 34649.07075751672, 50095.13200463438, -19047.53077596793, -25463.353152674816, 11576.14726735917, 9894.513773264143, -187500.02235174447, -21546.008771182154, 14832.639972286222, -26597.145390170266, 53050.90433965973, -25859.44841616731, 10713.794614528968, -22653.53770894262, -29661.971886393058, -19041.607563687274, 0.044, 0.964, 0.28600000000000003, 192.0, 0.5, 48.0, 15.0, 16.0, 4.0, 120.0, 0.0, 0.0, 0.0, 1.69576695060438E9, 0.0, 2023-09-26 17:22:30.604
210.0, 34651.551801151254, 50090.90752493233, -19050.19063355811, -25470.12573124477, 11537.523452940399, 9832.80060682304, -187500.02235174447, -21593.08154500503, 14838.853757244797, -26597.055983192444, 53185.01480639158, -25863.494081913723, 10713.21346917313, -22658.075113067047, -29671.471377786565, -18920.4164052506, 0.044, 0.964, 0.28600000000000003, 192.0, 0.0, 0.0, 0.0, 0.0, 0.0, 0.0, 0.0, 0.0, 0.0, 1.69576695066467E9, 0.0, 2023-09-26 17:22:30.664
212.0, 34646.54501039327, 50100.317609348014, -19039.417092730655, -25457.295829927425, 11582.29399708438, 9885.57307548202, -187500.02235174447, -21543.684189758802, 14826.247373372003, -26594.664346535727, 53048.06566811391, -25857.01207602168, 10708.74312028207, -22654.20826127628, -29662.24010732652, -19048.15662481268, 0.044, 0.964, 0.28600000000000003, 192.0, 0.0, 0.0, 0.0, 0.0, 0.0, 0.0, 0.0, 0.0, 0.0, 1.695766950664685E9, 0.0, 2023-09-26 17:22:30.664
214.0, 34654.54693490826, 50099.71411224772, -19040.53467995342, -25459.66511483969, 11550.487464724478, 9841.048400527048, -187500.02235174447, -21595.383774683927, 14827.968457695062, -26592.63033779029, 53208.95352470321, -25853.033465508637, 10721.349504154863, -22653.984743831727, -29658.44031076912, -18896.79061136134, 0.044, 0.964, 0.28600000000000003, 192.0, 0.0, 0.0, 0.0, 0.0, 0.0, 0.0, 0.0, 0.0, 0.0, 1.695766950664699E9, 0.0, 2023-09-26 17:22:30.664
216.0, 34653.56345815223, 50107.179594895795, -19038.701836908083, -25455.932373515654, 11569.933482400595, 9879.873380645917, -187500.02235174447, -21558.525748077125, 14830.896536218708, -26587.69060226567, 53070.81974396941, -25852.273506197158, 10714.398111629262, -22649.2461740072, -29663.603563738296, -19023.703816378573, 0.044, 0.964, 0.28600000000000003, 192.0, 0.0, 0.0, 0.0, 0.0, 0.0, 0.0, 0.0, 0.0, 0.0, 1.695766950664702E9, 0.0, 2023-09-26 17:22:30.664
218.0, 34659.95605706645, 50103.29039136057, -19034.432653717122, -25453.116053714282, 11550.107485068738, 9850.525540176099, -187500.02235174447, -21595.540236895115, 14834.22694614255, -26582.080314407387, 53213.42387359427, -25846.394997405412, 10729.910222281245, -22647.726255384237, -29659.222621825054, -18890.107439769203, 0.038, 0.964, 0.298, 192.0, 0.5, 24.0, 15.0, 16.0, 4.5, 40.0, 0.0, 0.0, 0.0, 1.695766950664705E9, 0.0, 2023-09-26 17:22:30.664
220.0, 34656.33507446469, 50105.637324528376, -19031.973961827036, -25444.64474256572, 11574.67205222512, 9879.024014356615, -187500.02235174447, -21559.151596921874, 14840.776007267954, -26576.44767480465, 53055.97818565109, -25844.942134015815, 10719.673123320714, -22639.47846168023, -29651.86889789926, -19042.412226487664, 0.038, 0.964, 0.298, 192.0, 0.0, 0.0, 0.0, 0.0, 0.0, 0.0, 0.0, 0.0, 0.0, 1.695766950664709E9, 0.0, 2023-09-26 17:22:30.664
222.0, 34653.8316790857, 50105.61497278392, -19038.344208996798, -25451.75259730251, 11555.941290371573, 9875.313624777034, -187500.02235174447, -21574.08256221802, 14828.415492584169, -26577.900538194244, 53196.95063793071, -25838.63894207942, 10727.853861791356, -22641.803043103584, -29654.528755489442, -18906.960655088504, 0.038, 0.964, 0.298, 192.0, 0.0, 0.0, 0.0, 0.0, 0.0, 0.0, 0.0, 0.0, 0.0, 1.695766950664712E9, 0.0, 2023-09-26 17:22:30.664
224.0, 34655.79863259776, 50102.19515588226, -19036.421958973642, -25447.237544922536, 11572.392174290679, 9866.931720606295, -187500.02235174447, -21562.012620212154, 14831.45532983009, -26574.525424781496, 53082.48735457508, -25839.644770579907, 10712.319399394919, -22639.1431855134, -29654.90873514518, -19012.61735112874, 0.038, 0.964, 0.298, 192.0, 0.0, 0.0, 0.0, 0.0, 0.0, 0.0, 0.0, 0.0, 0.0, 1.695766950664715E9, 0.0, 2023-09-26 17:22:30.664
226.0, 34654.837507586184, 50102.48572856018, -19044.401531744188, -25460.492129384536, 11556.500083982955, 9877.504095733655, -187500.02235174447, -21576.69771631929, 14829.778948995943, -26579.576919028394, 53180.79032668952, -25838.68364556833, 10730.089036236886, -22643.591182660006, -29654.886383400728, -18921.846916895738, 0.038, 0.964, 0.298, 192.0, 0.0, 0.0, 0.0, 0.0, 0.0, 0.0, 0.0, 0.0, 0.0, 1.695766950724961E9, 0.0, 2023-09-26 17:22:30.724
228.0, 34656.64799888706, 50094.7743767231, -19042.032246831925, -25455.954725260108, 11567.787714932885, 9842.590670894466, -187500.02235174447, -21572.428533128328, 14838.049094444406, -26583.35436384134, 53079.89455221827, -25847.222011950256, 10717.236783175085, -22645.669894894352, -29659.15556659169, -19019.613447143252, 0.04, 0.962, 0.306, 192.0, 0.5, 32.0, 15.0, 8.0, 4.5, 72.0, 0.0, 0.0, 0.0, 1.695766950724972E9, 0.0, 2023-09-26 17:22:30.724
230.0, 34663.46528094593, 50102.15045239335, -19048.760121912972, -25456.401760149212, 11557.260043294436, 9882.354424280456, -187500.02235174447, -21566.862948758957, 14832.058826930384, -26588.249395877054, 53147.97796582913, -25844.02571249315, 10731.988934515588, -22648.01682806216, -29658.216793324566, -18958.83905396927, 0.04, 0.962, 0.306, 192.0, 0.0, 0.0, 0.0, 0.0, 0.0, 0.0, 0.0, 0.0, 0.0, 1.695766950724976E9, 0.0, 2023-09-26 17:22:30.724
232.0, 34663.5323361793, 50093.20975461123, -19042.52398520994, -25452.669018825178, 11557.841188650274, 9842.993002294661, -187500.02235174447, -21570.55098659408, 14837.311486877381, -26588.137637154778, 53096.32308439292, -25842.21522119227, 10714.107538951343, -22645.91576408336, -29659.848470669804, -19011.008025527957, 0.04, 0.962, 0.306, 192.0, 0.0, 0.0, 0.0, 0.0, 0.0, 0.0, 0.0, 0.0, 0.0, 1.695766950724979E9, 0.0, 2023-09-26 17:22:30.724
234.0, 34666.90744959205, 50110.91233621983, -19042.00989508747, -25450.769120546476, 11570.514627756433, 9904.080319891014, -187500.02235174447, -21540.10791064595, 14840.708952034587, -26590.864549978323, 53146.61450941736, -25836.515526356165, 10732.324210682418, -22646.80983386157, -29647.599714708296, -18962.57179529331, 0.04, 0.962, 0.306, 192.0, 0.0, 0.0, 0.0, 0.0, 0.0, 0.0, 0.0, 0.0, 0.0, 1.695766950724982E9, 0.0, 2023-09-26 17:22:30.724
236.0, 34663.91231583504, 50099.82587097, -19045.38500850022, -25450.165623446184, 11558.95877587304, 9836.555699891533, -187500.02235174447, -21570.059248216065, 14844.374638125259, -26584.40489583074, 53116.39495091378, -25835.330883900035, 10716.856803519346, -22641.825394848038, -29646.72799667454, -18993.41720264163, 0.04, 0.962, 0.306, 192.0, 0.0, 0.0, 0.0, 0.0, 0.0, 0.0, 0.0, 0.0, 0.0, 1.695766950724986E9, 0.0, 2023-09-26 17:22:30.724
238.0, 34659.28550473279, 50110.040618186074, -19052.87284289275, -25455.865318282285, 11569.352337044756, 9903.409767557356, -187500.02235174447, -21540.13026239041, 14828.907230962186, -26594.48553258008, 53118.85364280387, -25838.5495351016, 10726.490405379584, -22652.017790319656, -29654.126424089245, -18989.304481661857, 0.04, 0.964, 0.306, 192.0, 0.5, 32.0, 15.0, 16.0, 4.5, 72.0, 0.0, 0.0, 0.0, 1.695766950724989E9, 0.0, 2023-09-26 17:22:30.724
240.0, 34662.34769372317, 50092.29333308856, -19051.039999847413, -25457.206422949606, 11556.231863049492, 9826.251545697636, -187500.02235174447, -21579.022297742642, 14837.736170022032, -26589.523445311006, 53130.208328987166, -25839.15303220189, 10717.9296872532, -22645.871060594447, -29648.762005419972, -18980.453190857555, 0.04, 0.964, 0.306, 192.0, 0.0, 0.0, 0.0, 0.0, 0.0, 0.0, 0.0, 0.0, 0.0, 1.695766950785277E9, 0.0, 2023-09-26 17:22:30.785
242.0, 34663.21941175692, 50104.519737305614, -19058.080799350835, -25461.855585796307, 11570.268758567425, 9904.19207861329, -187500.02235174447, -21554.74830326418, 14829.644838529211, -26600.296986138463, 53096.904229748754, -25841.701131069796, 10728.79263505848, -22653.783578131628, -29656.272191556956, -19012.058557517357, 0.04, 0.964, 0.306, 192.0, 0.0, 0.0, 0.0, 0.0, 0.0, 0.0, 0.0, 0.0, 0.0, 1.695766950785292E9, 0.0, 2023-09-26 17:22:30.785
244.0, 34661.00658905585, 50090.616952254415, -19054.638630704718, -25457.47464388307, 11547.961717601029, 9819.210746194214, -187500.02235174447, -21604.056251532587, 14837.780873510943, -26597.36890761482, 53147.97796582913, -25846.573811361053, 10719.337847153885, -22652.33071474203, -29660.049636369902, -18959.911937703127, 0.04, 0.964, 0.306, 192.0, 0.0, 0.0, 0.0, 0.0, 0.0, 0.0, 0.0, 0.0, 0.0, 1.695766950785296E9, 0.0, 2023-09-26 17:22:30.785
246.0, 34657.00562679835, 50103.15628089384, -19056.76204642797, -25458.27930668346, 11577.778944704407, 9912.752796739675, -187500.02235174447, -21539.415006567837, 14825.353303593793, -26604.633224562793, 53073.569008537415, -25845.791500305117, 10726.021018746022, -22653.604764175983, -29655.087549100823, -19022.76504311145, 0.04, 0.964, 0.306, 192.0, 0.0, 0.0, 0.0, 0.0, 0.0, 0.0, 0.0, 0.0, 0.0, 1.695766950785299E9, 0.0, 2023-09-26 17:22:30.785
248.0, 34656.55859190924, 50092.89683018885, -19052.80578765938, -25454.255992681505, 11556.924767127606, 9831.437150411266, -187500.02235174447, -21595.942568295308, 14831.209460641083, -26604.812038518434, 53173.83893416393, -25849.121910228958, 10717.236783175085, -22652.643639164406, -29647.979694364036, -18928.306571043322, 0.042, 0.962, 0.306, 192.0, 0.5, 40.0, 15.0, 8.0, 4.5, 72.0, 0.0, 0.0, 0.0, 1.695766950785303E9, 0.0, 2023-09-26 17:22:30.785
250.0, 34658.257324487844, 50104.653847772344, -19052.58227021483, -25450.05386472391, 11591.01117742195, 9915.703227007774, -187500.02235174447, -21531.658951241847, 14828.773120495454, -26601.12400068331, 53069.00925266853, -25841.812889792072, 10728.12208272482, -22649.022656562647, -29636.33443550282, -19021.42393844413, 0.042, 0.962, 0.306, 192.0, 0.0, 0.0, 0.0, 0.0, 0.0, 0.0, 0.0, 0.0, 0.0, 1.695766950785306E9, 0.0, 2023-09-26 17:22:30.785
252.0, 34661.58773441169, 50089.16408886482, -19055.890328394216, -25456.17824270466, 11548.341697256768, 9823.546984618544, -187500.02235174447, -21605.106783521984, 14825.17448963815, -26601.63809080578, 53192.92732392876, -25843.936305515326, 10721.103634965853, -22649.46969145175, -29643.889325128715, -18903.809059120307, 0.042, 0.962, 0.306, 192.0, 0.0, 0.0, 0.0, 0.0, 0.0, 0.0, 0.0, 0.0, 0.0, 1.69576695078531E9, 0.0, 2023-09-26 17:22:30.785
254.0, 34657.89969657656, 50102.37396983791, -19060.42773251864, -25455.19476594863, 11583.791563962885, 9907.634247259408, -187500.02235174447, -21528.753224462656, 14822.112300647772, -26603.40387861775, 53042.09775234434, -25844.11511947097, 10721.394207643772, -22649.089711796012, -29652.137118832725, -19048.33543876832, 0.042, 0.962, 0.306, 192.0, 0.0, 0.0, 0.0, 0.0, 0.0, 0.0, 0.0, 0.0, 0.0, 1.695766950785313E9, 0.0, 2023-09-26 17:22:30.785
0.0, 34660.47014718892, 50089.1193853759, -19060.941822641114, -25460.08979798434, 11547.984069345483, 9834.745208590652, -187500.02235174447, -21593.61798687196, 14820.88295470273, -26599.69348903817, 53180.07507086695, -25842.706959570285, 10721.394207643772, -22648.44151120681, -29653.232354311032, -18923.143318074148, 0.042, 0.962, 0.306, 192.0, 0.0, 0.0, 0.0, 0.0, 0.0, 0.0, 0.0, 0.0, 0.0, 1.695766950845686E9, 0.0, 2023-09-26 17:22:30.845
2.0, 34657.00562679835, 50100.36231283693, -19060.651249963197, -25459.9109840287, 11577.108392370748, 9897.575962254521, -187500.02235174447, -21545.472329315227, 14817.910172690175, -26600.855779749847, 53036.241595297055, -25844.226878193247, 10716.789748285979, -22653.224784520244, -29660.362560792277, -19056.67263945015, 0.034, 0.96, 0.308, 192.0, 0.5, 8.0, 15.0, 0.0, 4.5, 80.0, 0.0, 0.0, 0.0, 1.695766950845698E9, 0.0, 2023-09-26 17:22:30.845
4.0, 34661.92301057852, 50092.15922262183, -19056.426770261143, -25464.5601468754, 11541.546766942354, 9832.487682400666, -187500.02235174447, -21609.912408579876, 14821.084120402827, -26602.800381517456, 53197.77765247556, -25846.73027357224, 10723.428216389206, -22658.231575278234, -29660.42961602564, -18903.116155042193, 0.034, 0.96, 0.308, 192.0, 0.0, 0.0, 0.0, 0.0, 0.0, 0.0, 0.0, 0.0, 0.0, 1.695766950845702E9, 0.0, 2023-09-26 17:22:30.845
6.0, 34655.061025030736, 50098.73063549169, -19057.074970850346, -25461.94499277413, 11570.827552178807, 9880.968616124228, -187500.02235174447, -21562.12437893443, 14820.592382024812, -26600.855779749847, 53044.10940934532, -25841.075282225047, 10720.097806465365, -22657.583374689028, -29662.284810815432, -19056.024438860946, 0.034, 0.96, 0.308, 192.0, 0.0, 0.0, 0.0, 0.0, 0.0, 0.0, 0.0, 0.0, 0.0, 1.695766950845705E9, 0.0, 2023-09-26 17:22:30.845
8.0, 34660.76071986684, 50094.41674881181, -19051.710552181074, -25458.771045061476, 11558.936424128584, 9843.641202883864, -187500.02235174447, -21588.47708564724, 14819.921829691153, -26603.515637340028, 53211.45692008221, -25838.571886846054, 10728.591469358382, -22657.00222933319, -29653.411168266677, -18899.003434062415, 0.034, 0.96, 0.308, 192.0, 0.0, 0.0, 0.0, 0.0, 0.0, 0.0, 0.0, 0.0, 0.0, 1.695766950845708E9, 0.0, 2023-09-26 17:22:30.845
10.0, 34651.5294494068, 50091.645132499354, -19053.565746970864, -25455.887670026743, 11581.824610450818, 9875.71595617723, -187500.02235174447, -21552.826053241024, 14826.292076860915, -26596.273672136507, 53045.808141923924, -25838.147203701403, 10723.048236733466, -22652.1966042753, -29644.82809839584, -19059.846587162803, 0.034, 0.96, 0.308, 192.0, 0.0, 0.0, 0.0, 0.0, 0.0, 0.0, 0.0, 0.0, 0.0, 1.695766950845711E9, 0.0, 2023-09-26 17:22:30.845
12.0, 34657.206792498444, 50092.51685053312, -19055.085665593822, -25460.380370662257, 11560.031659606893, 9853.56537742202, -187500.02235174447, -21587.22538795774, 14818.558373279378, -26610.26586416553, 53192.279123339555, -25843.958657259784, 10730.044332747977, -22659.90795611238, -29651.1983455656, -18919.008245349916, 0.04, 0.9520000000000001, 0.308, 192.0, 0.5, 32.0, 14.5, 96.0, 4.5, 80.0, 0.0, 0.0, 0.0, 1.695766950845715E9, 0.0, 2023-09-26 17:22:30.845
14.0, 34648.02022552732, 50083.59850449544, -19054.124540582245, -25458.346361916825, 11584.618578507732, 9864.160104293836, -187500.02235174447, -21559.01748645514, 14824.347475093304, -26608.50007635356, 53038.09679008684, -25846.842032294517, 10718.332018653397, -22658.00805783368, -29645.655112940683, -19064.227529076044, 0.04, 0.9520000000000001, 0.308, 192.0, 0.0, 0.0, 0.0, 0.0, 0.0, 0.0, 0.0, 0.0, 0.0, 1.695766950904414E9, 0.0, 2023-09-26 17:22:30.904
16.0, 34655.99979829786, 50091.08633888797, -19052.559918470375, -25460.492129384536, 11566.29014805438, 9872.787877653585, -187500.02235174447, -21569.74632379369, 14819.921829691153, -26614.02095723402, 53171.96138762968, -25841.008226991682, 10729.753760070058, -22663.707752669783, -29643.33053151733, -18930.5193937444, 0.04, 0.9520000000000001, 0.308, 192.0, 0.0, 0.0, 0.0, 0.0, 0.0, 0.0, 0.0, 0.0, 0.0, 1.695766950904428E9, 0.0, 2023-09-26 17:22:30.904
18.0, 34653.33994070768, 50090.63930399887, -19053.029305103937, -25459.41924565068, 11572.280415568403, 9858.214540268724, -187500.02235174447, -21565.946527236287, 14828.12491990625, -26607.181323430697, 53071.02090966951, -25839.845936280006, 10716.342713396873, -22657.203395033288, -29644.53752571792, -19026.09545303529, 0.04, 0.9520000000000001, 0.308, 192.0, 0.0, 0.0, 0.0, 0.0, 0.0, 0.0, 0.0, 0.0, 0.0, 1.695766950904432E9, 0.0, 2023-09-26 17:22:30.904
20.0, 34670.349618238164, 50105.436158828285, -19056.471473750054, -25462.28026894096, 11561.95390963005, 9881.415651013333, -187500.02235174447, -21564.35955337996, 14824.36982683776, -26613.819791533922, 53179.67273946676, -25838.862459523974, 10730.26785019253, -22663.081903825034, -29647.465604241563, -18924.685588441564, 0.04, 0.9520000000000001, 0.308, 192.0, 0.0, 0.0, 0.0, 0.0, 0.0, 0.0, 0.0, 0.0, 0.0, 1.695766950904435E9, 0.0, 2023-09-26 17:22:30.904
22.0, 34669.589658926685, 50102.46337681572, -19047.754293412483, -25450.90323101321, 11571.38634579019, 9847.440999441267, -187500.02235174447, -21568.9416609933, 14839.099626433806, -26600.766372772025, 53098.781776283, -25835.800270533597, 10717.63911457528, -22657.806892133583, -29651.131290332236, -19006.1353452367, 0.042, 0.9540000000000001, 0.304, 192.0, 0.5, 40.0, 14.5, 104.0, 4.5, 64.0, 0.0, 0.0, 0.0, 1.695766950904439E9, 0.0, 2023-09-26 17:22:30.904
24.0, 34657.653827387556, 50101.32343784851, -19064.562805242873, -25459.12867297276, 11560.568101473822, 9898.984122155205, -187500.02235174447, -21561.31971613404, 14818.290152345915, -26601.146352427764, 53155.488151966114, -25829.4970785972, 10733.531204883004, -22652.82245312005, -29653.500575244496, -18949.965411420515, 0.042, 0.9540000000000001, 0.304, 192.0, 0.0, 0.0, 0.0, 0.0, 0.0, 0.0, 0.0, 0.0, 0.0, 1.695766950904442E9, 0.0, 2023-09-26 17:22:30.904
26.0, 34661.52067917832, 50094.304990089535, -19061.321802296854, -25457.18407120515, 11556.254214793948, 9839.774351093096, -187500.02235174447, -21589.169989725353, 14819.005408168485, -26597.9277012262, 53135.863320334356, -25841.701131069796, 10710.844184260868, -22656.465787466263, -29666.911621917683, -18969.99257445247, 0.042, 0.9540000000000001, 0.304, 192.0, 0.0, 0.0, 0.0, 0.0, 0.0, 0.0, 0.0, 0.0, 0.0, 1.695766950904445E9, 0.0, 2023-09-26 17:22:30.904
28.0, 34665.611048413644, 50110.174728652804, -19058.125502839746, -25455.708856071098, 11565.23961606498, 9899.520564022132, -187500.02235174447, -21555.12828291992, 14812.054015642885, -26598.687660537682, 53168.630977705834, -25837.141375200914, 10726.512757124037, -22657.270450266657, -29664.408226538686, -18938.49896651494, 0.042, 0.9540000000000001, 0.304, 192.0, 0.0, 0.0, 0.0, 0.0, 0.0, 0.0, 0.0, 0.0, 0.0, 1.695766950904448E9, 0.0, 2023-09-26 17:22:30.904
30.0, 34667.44389145898, 50096.62957151289, -19054.035133604426, -25452.445501380626, 11562.356241030246, 9833.337048689968, -187500.02235174447, -21576.98828899721, 14831.075350174351, -26592.116247667822, 53139.506654680576, -25834.41446237737, 10719.762530298536, -22647.547441428596, -29655.042845611915, -18974.239405898978, 0.042, 0.9540000000000001, 0.304, 192.0, 0.0, 0.0, 0.0, 0.0, 0.0, 0.0, 0.0, 0.0, 0.0, 1.695766950964756E9, 0.0, 2023-09-26 17:22:30.964
32.0, 34669.72376939342, 50113.192214154275, -19060.96417438557, -25458.32401017237, 11575.275549325414, 9910.070587405036, -187500.02235174447, -21545.785253737602, 14819.586553524323, -26600.676965794202, 53127.99550628609, -25834.190944932812, 10734.22410896112, -22655.750531643695, -29658.619124724763, -18982.80012402536, 0.038, 0.96, 0.306, 192.0, 0.5, 24.0, 15.0, 0.0, 4.5, 72.0, 0.0, 0.0, 0.0, 1.695766950964769E9, 0.0, 2023-09-26 17:22:30.964
34.0, 34671.690722905485, 50095.73550173468, -19062.595851730806, -25463.46491139709, 11555.717772927019, 9828.218499209703, -187500.02235174447, -21587.739478080213, 14824.056902415385, -26597.391259359272, 53156.22575953314, -25841.41055839188, 10719.963695998633, -22654.409426976377, -29656.29454330141, -18958.3249638468, 0.038, 0.96, 0.306, 192.0, 0.0, 0.0, 0.0, 0.0, 0.0, 0.0, 0.0, 0.0, 0.0, 1.695766950964773E9, 0.0, 2023-09-26 17:22:30.964
36.0, 34673.45651071746, 50108.923030963306, -19059.690124951616, -25460.31331542889, 11588.038395409394, 9913.57981128452, -187500.02235174447, -21538.208012367253, 14821.486451803024, -26600.140523927275, 53102.51451760704, -25839.421253135355, 10731.36308567084, -22656.018752577158, -29649.141985075712, -19009.778679582916, 0.038, 0.96, 0.306, 192.0, 0.0, 0.0, 0.0, 0.0, 0.0, 0.0, 0.0, 0.0, 0.0, 1.695766950964776E9, 0.0, 2023-09-26 17:22:30.964
38.0, 34672.20481302796, 50096.0260744126, -19051.62114520325, -25457.720513072076, 11560.657508451643, 9834.253470212636, -187500.02235174447, -21589.102934491984, 14818.848945957297, -26600.185227416187, 53183.8525156799, -25840.74000605822, 10721.796539043968, -22657.583374689028, -29642.81644139486, -18937.2696205699, 0.038, 0.96, 0.306, 192.0, 0.0, 0.0, 0.0, 0.0, 0.0, 0.0, 0.0, 0.0, 0.0, 1.695766950964779E9, 0.0, 2023-09-26 17:22:30.964
40.0, 34670.215507771434, 50111.67229553131, -19051.554089969886, -25455.306524670905, 11594.430994323611, 9917.603125286476, -187500.02235174447, -21526.875677928412, 14823.83338497083, -26600.989890216577, 53087.136517421786, -25833.565096088067, 10735.945193284178, -22657.158691544377, -29632.06525231186, -19026.251915246477, 0.038, 0.96, 0.306, 192.0, 0.0, 0.0, 0.0, 0.0, 0.0, 0.0, 0.0, 0.0, 0.0, 1.695766950964783E9, 0.0, 2023-09-26 17:22:30.964
42.0, 34673.21064152844, 50095.69079824577, -19054.90685163818, -25459.531004372955, 11570.022889378417, 9831.146577733347, -187500.02235174447, -21579.80460879858, 14818.580725023834, -26604.856742007345, 53200.169289132275, -25837.409596134377, 10723.830547789401, -22665.49589222621, -29637.42967098113, -18920.014073850405, 0.036000000000000004, 0.96, 0.302, 192.0, 0.5, 16.0, 15.0, 0.0, 4.5, 56.0, 0.0, 0.0, 0.0, 1.695766950964786E9, 0.0, 2023-09-26 17:22:30.964
44.0, 34671.66837116103, 50107.55957455154, -19061.72413369705, -25463.777835819466, 11601.136517660203, 9912.730444995219, -187500.02235174447, -21523.45586102675, 14821.307637847382, -26599.89465473827, 53069.791563724466, -25833.945075743806, 10732.07834149341, -22660.019714834656, -29638.234333781522, -19041.361694498264, 0.036000000000000004, 0.96, 0.302, 192.0, 0.0, 0.0, 0.0, 0.0, 0.0, 0.0, 0.0, 0.0, 0.0, 1.695766951025514E9, 0.0, 2023-09-26 17:22:31.025
46.0, 34678.77622589782, 50099.15531863634, -19064.11577035377, -25468.85168181082, 11547.067647822816, 9829.291382943557, -187500.02235174447, -21600.904655564387, 14824.79450998241, -26602.398050117263, 53193.307303584494, -25839.06362522407, 10725.104597223353, -22666.59112770452, -29656.16043283468, -18923.389187263154, 0.036000000000000004, 0.96, 0.302, 192.0, 0.0, 0.0, 0.0, 0.0, 0.0, 0.0, 0.0, 0.0, 0.0, 1.695766951025529E9, 0.0, 2023-09-26 17:22:31.025
48.0, 34688.85686264716, 50118.646039801366, -19053.901023137692, -25455.597097348822, 11582.584569762299, 9908.371854826433, -187500.02235174447, -21539.012675167643, 14826.850870472297, -26599.738192527082, 53061.43201129819, -25832.78278503213, 10723.897603022768, -22663.417179991866, -29658.417959024664, -19042.52398520994, 0.036000000000000004, 0.96, 0.302, 192.0, 0.0, 0.0, 0.0, 0.0, 0.0, 0.0, 0.0, 0.0, 0.0, 1.695766951025533E9, 0.0, 2023-09-26 17:22:31.025
50.0, 34686.75579866836, 50110.35354260845, -19061.72413369705, -25462.61554510779, 11545.927708855595, 9837.025086525093, -187500.02235174447, -21597.864818318467, 14825.710931505077, -26598.39708785976, 53211.568678804484, -25830.189982675314, 10723.361161155839, -22661.33846775752, -29664.184709094134, -18898.422288706577, 0.036000000000000004, 0.96, 0.302, 192.0, 0.0, 0.0, 0.0, 0.0, 0.0, 0.0, 0.0, 0.0, 0.0, 1.695766951025536E9, 0.0, 2023-09-26 17:22:31.025
52.0, 34679.11150206465, 50113.885118232385, -19068.20613958909, -25467.5105771435, 11578.315386571336, 9894.089090119493, -187500.02235174447, -21539.236192612196, 14826.627353027745, -26601.056945449942, 53056.93931066267, -25836.895506011904, 10717.236783175085, -22658.656258422885, -29661.43544452613, -19039.73001715303, 0.04, 0.96, 0.306, 192.0, 0.5, 32.0, 15.0, 0.0, 4.5, 72.0, 0.0, 0.0, 0.0, 1.695766951025539E9, 0.0, 2023-09-26 17:22:31.025
54.0, 34682.21839454394, 50105.436158828285, -19070.038982634425, -25472.495016157034, 11546.62061293371, 9843.66355462832, -187500.02235174447, -21594.154428738886, 14821.5982105253, -26609.036518220488, 53198.917591442776, -25848.40665440639, 10719.829585531901, -22671.754380673694, -29667.24689808451, -18899.830448607263, 0.04, 0.96, 0.306, 192.0, 0.0, 0.0, 0.0, 0.0, 0.0, 0.0, 0.0, 0.0, 0.0, 1.695766951025542E9, 0.0, 2023-09-26 17:22:31.025
56.0, 34680.16203405405, 50106.93372570679, -19063.847549420305, -25465.85654805381, 11577.130744115204, 9880.923912635317, -187500.02235174447, -21555.418855597836, 14824.213364626572, -26603.135657684288, 53047.23865356907, -25842.103462469993, 10714.867498262824, -22666.501720726697, -29658.306200302388, -19040.981714842525, 0.04, 0.96, 0.306, 192.0, 0.0, 0.0, 0.0, 0.0, 0.0, 0.0, 0.0, 0.0, 0.0, 1.695766951025546E9, 0.0, 2023-09-26 17:22:31.025
58.0, 34680.00557184286, 50104.56444079452, -19061.34415404131, -25469.36577193329, 11565.396078276168, 9861.656708914841, -187500.02235174447, -21574.596652340493, 14822.246411114504, -26607.784820530993, 53190.98272216114, -25843.73513981523, 10726.468053635128, -22669.20628180579, -29651.3995112657, -18903.518486442386, 0.04, 0.96, 0.306, 192.0, 0.0, 0.0, 0.0, 0.0, 0.0, 0.0, 0.0, 0.0, 0.0, 1.695766951025549E9, 0.0, 2023-09-26 17:22:31.025
60.0, 34673.54591769528, 50097.56834478001, -19063.66873546466, -25466.772969576476, 11586.29495934188, 9880.163953323836, -187500.02235174447, -21549.138015405897, 14822.961666937073, -26604.812038518434, 53050.79258093746, -25840.851764780495, 10718.823757031412, -22664.311249770075, -29643.643455939706, -19033.225659516535, 0.04, 0.96, 0.306, 192.0, 0.0, 0.0, 0.0, 0.0, 0.0, 0.0, 0.0, 0.0, 0.0, 1.695766951085359E9, 0.0, 2023-09-26 17:22:31.085
62.0, 34678.84328113119, 50098.373007580405, -19068.384953544733, -25470.483359156056, 11563.943214886573, 9869.18924679628, -187500.02235174447, -21577.681193075325, 14812.724567976544, -26612.97042524462, 53178.801021433, -25848.02667475065, 10725.641039090282, -22673.29665104111, -29654.595810722807, -18909.911085356605, 0.04, 0.964, 0.314, 192.0, 0.5, 32.0, 15.0, 16.0, 4.5, 104.0, 0.0, 0.0, 0.0, 1.695766951085369E9, 0.0, 2023-09-26 17:22:31.085
64.0, 34678.06097007525, 50100.13879539238, -19066.239186077022, -25464.5601468754, 11573.308595813347, 9865.612967683432, -187500.02235174447, -21551.84257648499, 14825.398007082702, -26601.369869872316, 53048.825627425394, -25839.868288024463, 10715.761568041036, -22667.641659693916, -29654.86403165627, -19038.09833980779, 0.04, 0.964, 0.314, 192.0, 0.0, 0.0, 0.0, 0.0, 0.0, 0.0, 0.0, 0.0, 0.0, 1.695766951085373E9, 0.0, 2023-09-26 17:22:31.085
66.0, 34683.60420270017, 50108.54305130757, -19066.708572710584, -25466.638859109746, 11565.977223632006, 9884.38843302589, -187500.02235174447, -21557.005829454163, 14819.050111657396, -26607.40484087525, 53165.72525092665, -25834.056834466082, 10727.585640857893, -22670.994421362215, -29655.10990084528, -18931.346408289242, 0.04, 0.964, 0.314, 192.0, 0.0, 0.0, 0.0, 0.0, 0.0, 0.0, 0.0, 0.0, 0.0, 1.695766951085376E9, 0.0, 2023-09-26 17:22:31.085
68.0, 34670.371969982625, 50099.24472561416, -19068.0496773779, -25464.13546373075, 11567.363031788234, 9859.533293191587, -187500.02235174447, -21562.88433824591, 14821.709969247577, -26605.348480385364, 53073.725470748606, -25839.868288024463, 10710.195983671663, -22666.38996200442, -29657.188613079623, -19012.70675810656, 0.04, 0.964, 0.314, 192.0, 0.0, 0.0, 0.0, 0.0, 0.0, 0.0, 0.0, 0.0, 0.0, 1.695766951085379E9, 0.0, 2023-09-26 17:22:31.085
70.0, 34672.67419966152, 50108.69951351875, -19068.943747156114, -25465.141292231237, 11566.111334098738, 9889.596389483975, -187500.02235174447, -21564.761884780157, 14810.98113190903, -26610.93641649919, 53156.136352555324, -25839.130680457438, 10726.736274568591, -22673.788389419125, -29660.42961602564, -18926.205507064522, 0.04, 0.964, 0.314, 192.0, 0.0, 0.0, 0.0, 0.0, 0.0, 0.0, 0.0, 0.0, 0.0, 1.695766951085383E9, 0.0, 2023-09-26 17:22:31.085
72.0, 34682.19604279948, 50101.7257692487, -19059.891290651714, -25455.84296653783, 11560.18812181808, 9837.293307458558, -187500.02235174447, -21584.721992578747, 14822.782852981432, -26600.565207071926, 53087.31533137743, -25838.013093234673, 10711.246515661063, -22668.893357383415, -29663.201232338102, -18989.483295617498, 0.04, 0.96, 0.308, 192.0, 0.5, 32.0, 15.0, 0.0, 4.5, 80.0, 0.0, 0.0, 0.0, 1.695766951085386E9, 0.0, 2023-09-26 17:22:31.085
74.0, 34689.61682195864, 50118.154301423354, -19053.275174292943, -25448.60100133431, 11584.86444769674, 9908.505965293165, -187500.02235174447, -21537.850384455967, 14825.5991727828, -26595.536064569482, 53120.46296840465, -25826.926627984838, 10735.565213628437, -22661.33846775752, -29650.505441487487, -18960.291917358867, 0.04, 0.96, 0.308, 192.0, 0.0, 0.0, 0.0, 0.0, 0.0, 0.0, 0.0, 0.0, 0.0, 1.695766951145444E9, 0.0, 2023-09-26 17:22:31.145
76.0, 34689.28154579181, 50106.553746051046, -19051.978773114537, -25445.69527455512, 11568.90530215565, 9852.134865776881, -187500.02235174447, -21569.54515809359, 14832.17058565266, -26589.41168658873, 53094.266723903034, -25828.6477123079, 10724.635210589793, -22649.0450083071, -29647.10797633028, -18980.497894346463, 0.04, 0.96, 0.308, 192.0, 0.0, 0.0, 0.0, 0.0, 0.0, 0.0, 0.0, 0.0, 0.0, 1.695766951145457E9, 0.0, 2023-09-26 17:22:31.145
78.0, 34693.12604583812, 50119.830682257496, -19052.694028937105, -25445.13648094374, 11582.472811040023, 9925.15801491237, -187500.02235174447, -21544.041817670088, 14825.465062316069, -26591.84802673436, 53107.09662522038, -25828.982988474727, 10737.420408418227, -22652.35306648649, -29653.38881652222, -18959.822530725305, 0.04, 0.96, 0.308, 192.0, 0.0, 0.0, 0.0, 0.0, 0.0, 0.0, 0.0, 0.0, 0.0, 1.695766951145461E9, 0.0, 2023-09-26 17:22:31.145
80.0, 34678.887984620094, 50093.43327205578, -19055.398590016197, -25452.378446147257, 11566.424258521112, 9837.069790014004, -187500.02235174447, -21586.532483879626, 14836.5515275659, -26588.31645111042, 53107.811881042944, -25826.59135181801, 10728.814986802934, -22651.011961819167, -29648.002046108493, -18963.42116158261, 0.04, 0.96, 0.308, 192.0, 0.0, 0.0, 0.0, 0.0, 0.0, 0.0, 0.0, 0.0, 0.0, 1.695766951145464E9, 0.0, 2023-09-26 17:22:31.145
82.0, 34668.405016470555, 50095.355522078935, -19067.423828533152, -25466.772969576476, 11584.417412807634, 9903.521526279632, -187500.02235174447, -21547.573393294024, 14819.430091313136, -26611.517561855027, 53078.7769649955, -25837.767224045663, 10734.112350238842, -22672.022601607157, -29656.87568865725, -18992.970167752526, 0.042, 0.96, 0.296, 192.0, 0.5, 40.0, 15.0, 0.0, 4.5, 32.0, 0.0, 0.0, 0.0, 1.695766951145467E9, 0.0, 2023-09-26 17:22:31.145
84.0, 34667.42153971452, 50076.91533290331, -19067.937918655625, -25467.08589399885, 11561.19395031857, 9822.876432284884, -187500.02235174447, -21591.718088593258, 14816.278495344937, -26617.060794479945, 53129.47072142014, -25850.999456763206, 10717.773225042012, -22675.10714234199, -29659.96022939208, -18947.99845790845, 0.042, 0.96, 0.296, 192.0, 0.0, 0.0, 0.0, 0.0, 0.0, 0.0, 0.0, 0.0, 0.0, 1.695766951145471E9, 0.0, 2023-09-26 17:22:31.145
86.0, 34675.35640899616, 50098.61887676941, -19074.57638675885, -25470.505710900514, 11585.356186074756, 9910.24940136068, -187500.02235174447, -21543.773596736624, 14816.949047678596, -26617.37371890232, 53056.60403449584, -25843.712788070774, 10728.83733854739, -22675.420066764364, -29658.753235191496, -19018.29469422039, 0.042, 0.96, 0.296, 192.0, 0.0, 0.0, 0.0, 0.0, 0.0, 0.0, 0.0, 0.0, 0.0, 1.695766951145474E9, 0.0, 2023-09-26 17:22:31.145
88.0, 34672.09305430568, 50084.671388229304, -19060.67360170765, -25458.569879361377, 11560.52339798491, 9828.196147465247, -187500.02235174447, -21595.763754339667, 14819.295980846404, -26611.02582347701, 53158.863265378866, -25841.522317114155, 10718.64494307577, -22671.799084162605, -29658.239145069023, -18922.204544807024, 0.042, 0.96, 0.296, 192.0, 0.0, 0.0, 0.0, 0.0, 0.0, 0.0, 0.0, 0.0, 0.0, 1.695766951145477E9, 0.0, 2023-09-26 17:22:31.145
90.0, 34671.981295583406, 50100.898754703856, -19062.640555219717, -25461.76617881849, 11591.704081500064, 9918.20662238677, -187500.02235174447, -21530.295494830072, 14812.590457509812, -26606.287253652485, 53048.57975823638, -25828.58065707453, 10730.871347292823, -22662.143130557914, -29645.76687166296, -19029.068235047846, 0.042, 0.96, 0.296, 192.0, 0.0, 0.0, 0.0, 0.0, 0.0, 0.0, 0.0, 0.0, 0.0, 1.695766951204445E9, 0.0, 2023-09-26 17:22:31.204
92.0, 34670.215507771434, 50093.79089996707, -19061.947651141603, -25458.03343749445, 11565.127857342704, 9835.5722231355, -187500.02235174447, -21575.043687229598, 14812.478698787536, -26607.89657925327, 53182.73492845714, -25834.481517610733, 10724.434044889695, -22667.239328293723, -29647.845583897306, -18902.02091956388, 0.044, 0.962, 0.296, 192.0, 0.5, 48.0, 15.0, 8.0, 4.5, 32.0, 0.0, 0.0, 0.0, 1.695766951204456E9, 0.0, 2023-09-26 17:22:31.204
94.0, 34664.04642630177, 50110.06296993053, -19064.272232564956, -25453.13840545874, 11601.270628126935, 9914.607991529465, -187500.02235174447, -21521.64536972587, 14805.88493417322, -26600.20757916064, 53049.42912452568, -25829.474726852743, 10727.987972258088, -22661.919613113358, -29642.90584837268, -19023.122671022735, 0.044, 0.962, 0.296, 192.0, 0.0, 0.0, 0.0, 0.0, 0.0, 0.0, 0.0, 0.0, 0.0, 1.695766951204459E9, 0.0, 2023-09-26 17:22:31.204
96.0, 34672.02599907231, 50100.58583028148, -19068.183787844635, -25455.306524670905, 11550.688630424576, 9843.03770578357, -187500.02235174447, -21591.203998470784, 14798.486506758512, -26597.279500636996, 53202.47151881117, -25827.530125085133, 10720.880117521301, -22662.478406724742, -29651.511269987976, -18874.572977372765, 0.044, 0.962, 0.296, 192.0, 0.0, 0.0, 0.0, 0.0, 0.0, 0.0, 0.0, 0.0, 0.0, 1.695766951204463E9, 0.0, 2023-09-26 17:22:31.204
98.0, 34673.858842117654, 50110.91233621983, -19063.691087209118, -25448.84687052332, 11586.026738408416, 9905.711997236253, -187500.02235174447, -21528.77557620711, 14806.913114418163, -26591.535102311984, 53058.86156068582, -25823.462107594267, 10715.69451280767, -22657.2480985222, -29654.30523804489, -19006.604731870262, 0.044, 0.962, 0.296, 192.0, 0.0, 0.0, 0.0, 0.0, 0.0, 0.0, 0.0, 0.0, 0.0, 1.695766951204466E9, 0.0, 2023-09-26 17:22:31.204
100.0, 34674.43998747349, 50101.81517622652, -19061.701781952594, -25448.064559467384, 11564.993746875973, 9849.564415164521, -187500.02235174447, -21575.155445951874, 14810.623503997746, -26597.681832037193, 53198.00116992011, -25827.5971803185, 10724.411693145239, -22658.52214795615, -29646.951514119093, -18880.45148616451, 0.044, 0.962, 0.296, 192.0, 0.0, 0.0, 0.0, 0.0, 0.0, 0.0, 0.0, 0.0, 0.0, 1.695766951204469E9, 0.0, 2023-09-26 17:22:31.204
102.0, 34672.40597872806, 50112.36519960943, -19060.67360170765, -25440.867297752775, 11600.06363392635, 9900.124061122426, -187500.02235174447, -21529.602590751958, 14812.568105765356, -26592.83150349039, 53041.11427558831, -25823.90914248337, 10718.622591331316, -22658.96918284526, -29638.971941348547, -19032.06336880486, 0.04, 0.964, 0.3, 192.0, 0.5, 32.0, 15.0, 16.0, 4.5, 48.0, 0.0, 0.0, 0.0, 1.695766951204472E9, 0.0, 2023-09-26 17:22:31.204
104.0, 34678.84328113119, 50110.01826644162, -19062.126465097244, -25444.532983843445, 11568.547674244366, 9859.80151412505, -187500.02235174447, -21579.60344309848, 14810.064710386361, -26588.69643076616, 53192.18971636173, -25817.225970891235, 10727.205661202153, -22657.96335434477, -29642.861144883773, -18892.610835148196, 0.04, 0.964, 0.3, 192.0, 0.0, 0.0, 0.0, 0.0, 0.0, 0.0, 0.0, 0.0, 0.0, 1.695766951264687E9, 0.0, 2023-09-26 17:22:31.264
106.0, 34670.573135682724, 50111.381722853395, -19060.80771217438, -25447.304600155905, 11596.91203795815, 9890.825735429018, -187500.02235174447, -21543.50537580316, 14808.768309207953, -26584.673116764203, 53044.757609934524, -25818.947055214296, 10719.114329709331, -22654.20826127628, -29644.783394906928, -19032.979790327525, 0.04, 0.964, 0.3, 192.0, 0.0, 0.0, 0.0, 0.0, 0.0, 0.0, 0.0, 0.0, 0.0, 1.695766951264701E9, 0.0, 2023-09-26 17:22:31.264
108.0, 34671.93659209449, 50105.45851057274, -19070.217796590066, -25463.19669046363, 11567.944177144072, 9869.770392152119, -187500.02235174447, -21571.690925561303, 14804.230905083527, -26596.877169236803, 53196.123623385865, -25827.798346018597, 10730.916050781734, -22663.68540092533, -29649.633723453728, -18890.330957213755, 0.04, 0.964, 0.3, 192.0, 0.0, 0.0, 0.0, 0.0, 0.0, 0.0, 0.0, 0.0, 0.0, 1.695766951264705E9, 0.0, 2023-09-26 17:22:31.264
110.0, 34664.068778046225, 50101.166975637316, -19071.469494279565, -25462.347324174327, 11591.748784988975, 9878.107592833949, -187500.02235174447, -21541.31490484654, 14807.896591174198, -26597.190093659174, 53056.380517051286, -25832.648674565397, 10717.102672708354, -22665.607650948485, -29651.82419441035, -19021.178069255122, 0.04, 0.964, 0.3, 192.0, 0.0, 0.0, 0.0, 0.0, 0.0, 0.0, 0.0, 0.0, 0.0, 1.695766951264708E9, 0.0, 2023-09-26 17:22:31.264
112.0, 34674.37293224012, 50107.58192629599, -19069.971927401057, -25456.37940840476, 11571.878084168207, 9878.979310867704, -187500.02235174447, -21559.55392832207, 14798.173582336138, -26598.508846582037, 53186.02063489207, -25828.714767541263, 10726.535108868493, -22667.77577016065, -29649.812537409372, -18900.478649196466, 0.038, 0.9580000000000001, 0.3, 192.0, 0.5, 24.0, 14.5, 120.0, 4.5, 48.0, 0.0, 0.0, 0.0, 1.695766951264712E9, 0.0, 2023-09-26 17:22:31.264
114.0, 34666.97450482542, 50101.88223145989, -19066.86503492177, -25452.08787346934, 11590.027700665916, 9873.659595687343, -187500.02235174447, -21547.394579338383, 14807.114280118261, -26591.758619756536, 53061.29790083145, -25829.2959128971, 10711.31357089443, -22660.064418323567, -29643.598752450795, -19019.76990935444, 0.038, 0.9580000000000001, 0.3, 192.0, 0.0, 0.0, 0.0, 0.0, 0.0, 0.0, 0.0, 0.0, 0.0, 1.695766951264715E9, 0.0, 2023-09-26 17:22:31.264
116.0, 34673.27769676181, 50109.973562952706, -19062.77466568645, -25450.523251357467, 11584.663281996642, 9898.29121807709, -187500.02235174447, -21550.143843906386, 14800.229942826027, -26589.36698309982, 53157.20923628918, -25825.138488428413, 10730.401960659261, -22654.409426976377, -29639.284865770922, -18932.642809467652, 0.038, 0.9580000000000001, 0.3, 192.0, 0.0, 0.0, 0.0, 0.0, 0.0, 0.0, 0.0, 0.0, 0.0, 1.695766951264718E9, 0.0, 2023-09-26 17:22:31.264
118.0, 34665.2310687579, 50093.58973426697, -19062.66290696417, -25455.306524670905, 11585.512648285943, 9862.416668226322, -187500.02235174447, -21556.15646316486, 14803.78387019442, -26585.053096419942, 53068.204589868146, -25831.77695653164, 10713.593448828871, -22655.77288338815, -29646.996217608004, -19016.975941297525, 0.038, 0.9580000000000001, 0.3, 192.0, 0.0, 0.0, 0.0, 0.0, 0.0, 0.0, 0.0, 0.0, 0.0, 1.695766951264722E9, 0.0, 2023-09-26 17:22:31.264
120.0, 34664.94049607998, 50106.30787686204, -19064.316936053867, -25461.028571251463, 11581.064651139337, 9914.317418851546, -187500.02235174447, -21541.493718802183, 14796.810125924365, -26583.622584774803, 53141.76418087056, -25835.755567044685, 10729.217318203131, -22658.946831100802, -29651.10893858778, -18942.65639098363, 0.038, 0.9580000000000001, 0.3, 192.0, 0.0, 0.0, 0.0, 0.0, 0.0, 0.0, 0.0, 0.0, 0.0, 1.695766951325129E9, 0.0, 2023-09-26 17:22:31.325
122.0, 34663.66644664603, 50098.663580258326, -19052.82813940384, -25455.306524670905, 11573.196837091069, 9865.90354036135, -187500.02235174447, -21551.08261717351, 14805.46025102857, -26566.031761888476, 53106.38136939781, -25836.292008911612, 10715.448643618662, -22645.91576408336, -29652.919429888658, -18973.345336120765, 0.032, 0.964, 0.308, 192.0, 0.5, 0.0, 15.0, 16.0, 4.5, 80.0, 0.0, 0.0, 0.0, 1.695766951325141E9, 0.0, 2023-09-26 17:22:31.325
124.0, 34673.47886246191, 50114.935650221785, -19045.608525944775, -25454.770082803978, 11584.685633741097, 9920.48650032121, -187500.02235174447, -21527.25565758415, 14804.320312061349, -26560.756750197026, 53137.36088721286, -25829.139450685914, 10733.59826011637, -22642.92063032635, -29654.05936885588, -18941.918783416604, 0.032, 0.964, 0.308, 192.0, 0.0, 0.0, 0.0, 0.0, 0.0, 0.0, 0.0, 0.0, 0.0, 1.695766951325144E9, 0.0, 2023-09-26 17:22:31.325
126.0, 34665.85691760265, 50097.83656571348, -19041.76402589846, -25457.742864816533, 11564.502008497955, 9855.442923956267, -187500.02235174447, -21562.839634757, 14814.088024388317, -26548.64210470225, 53116.57376486943, -25832.894543754406, 10718.108501208842, -22635.186926744813, -29647.800880408395, -18975.245234399466, 0.032, 0.964, 0.308, 192.0, 0.0, 0.0, 0.0, 0.0, 0.0, 0.0, 0.0, 0.0, 0.0, 1.695766951325148E9, 0.0, 2023-09-26 17:22:31.325
128.0, 34661.073644289216, 50108.16307165183, -19044.02155208845, -25460.536832873444, 11579.991767405483, 9933.249346405191, -187500.02235174447, -21519.79017493608, 14802.129841104728, -26555.05705536092, 53117.78075907001, -25839.868288024463, 10724.009361745044, -22641.2442494922, -29656.58511597933, -18968.047972684857, 0.032, 0.964, 0.308, 192.0, 0.0, 0.0, 0.0, 0.0, 0.0, 0.0, 0.0, 0.0, 0.0, 1.695766951325151E9, 0.0, 2023-09-26 17:22:31.325
130.0, 34664.26994374632, 50092.62860925539, -19034.90204035068, -25458.36871366128, 11559.204645062047, 9847.820979097007, -187500.02235174447, -21570.79685578309, 14817.127861634239, -26542.450671488128, 53141.54066342601, -25839.085976968527, 10714.912201751733, -22629.017845275146, -29648.605543208785, -18947.1714433636, 0.032, 0.964, 0.308, 192.0, 0.0, 0.0, 0.0, 0.0, 0.0, 0.0, 0.0, 0.0, 0.0, 1.695766951325154E9, 0.0, 2023-09-26 17:22:31.325
132.0, 34666.77333912532, 50108.14071990737, -19033.695046150096, -25456.17824270466, 11584.05978489635, 9933.025828960637, -187500.02235174447, -21512.078823098997, 14821.642914014212, -26543.367093010795, 53068.517514290514, -25831.86636350946, 10731.296030437474, -22630.224839475733, -29643.82226989535, -19018.115880264748, 0.03, 0.96, 0.3, 192.0, 0.0, 120.0, 15.0, 0.0, 4.5, 48.0, 0.0, 0.0, 0.0, 1.695766951325157E9, 0.0, 2023-09-26 17:22:31.325
134.0, 34667.37683622561, 50091.823946455, -19031.66103740466, -25454.859489781797, 11547.604089689743, 9836.689810358264, -187500.02235174447, -21577.74824830869, 14822.626390770245, -26543.635313944258, 53150.056678063476, -25836.426119378346, 10717.236783175085, -22635.253981978178, -29648.33732227532, -18943.50575727293, 0.03, 0.96, 0.3, 192.0, 0.0, 0.0, 0.0, 0.0, 0.0, 0.0, 0.0, 0.0, 0.0, 1.695766951385439E9, 0.0, 2023-09-26 17:22:31.385
136.0, 34664.04642630177, 50106.129062906395, -19030.565801926354, -25452.84783278082, 11591.52526754442, 9932.15411092688, -187500.02235174447, -21510.134221331387, 14819.40773956868, -26541.266029032, 53066.41645031172, -25835.509697855676, 10730.670181592724, -22632.99645578819, -29641.274171027446, -19024.217906501046, 0.03, 0.96, 0.3, 192.0, 0.0, 0.0, 0.0, 0.0, 0.0, 0.0, 0.0, 0.0, 0.0, 1.695766951385454E9, 0.0, 2023-09-26 17:22:31.385
138.0, 34661.990065811886, 50089.074681886996, -19029.224697259033, -25453.22781243656, 11563.183255575092, 9850.302022731546, -187500.02235174447, -21568.181701681817, 14829.734245507032, -26543.210630799607, 53177.43756502123, -25837.387244389924, 10730.245498448074, -22626.71561559625, -29635.35095874679, -18924.015036107903, 0.03, 0.96, 0.3, 192.0, 0.0, 0.0, 0.0, 0.0, 0.0, 0.0, 0.0, 0.0, 0.0, 1.695766951385458E9, 0.0, 2023-09-26 17:22:31.385
140.0, 34656.3797779536, 50100.96580993722, -19030.901078093182, -25453.74190255903, 11589.96064543255, 9924.196889900792, -187500.02235174447, -21517.93498014629, 14822.447576814602, -26544.998770356033, 53067.5787410234, -25839.667122324365, 10732.279507193507, -22633.130566254924, -29638.837830881817, -19023.033264044912, 0.03, 0.96, 0.3, 192.0, 0.0, 0.0, 0.0, 0.0, 0.0, 0.0, 0.0, 0.0, 0.0, 1.695766951385461E9, 0.0, 2023-09-26 17:22:31.385
142.0, 34661.36421696714, 50091.10869063243, -19025.96134256856, -25448.37748388976, 11555.76247641593, 9847.99979305265, -187500.02235174447, -21573.859044773468, 14828.12491990625, -26541.601305198827, 53185.5512482585, -25836.560229845076, 10732.860652549345, -22631.230667976222, -29636.937932603116, -18914.180268547567, 0.04, 0.96, 0.306, 192.0, 0.5, 32.0, 15.0, 0.0, 4.5, 72.0, 0.0, 0.0, 0.0, 1.695766951385464E9, 0.0, 2023-09-26 17:22:31.385
144.0, 34662.90648733455, 50105.30204836155, -19022.318008222344, -25439.436786107635, 11589.357148332258, 9923.951020711782, -187500.02235174447, -21525.623980238914, 14830.6506670297, -26539.187316797656, 53049.7196972036, -25830.905238497882, 10733.151225227264, -22626.134470240413, -29633.853391868284, -19045.742636411505, 0.04, 0.96, 0.306, 192.0, 0.0, 0.0, 0.0, 0.0, 0.0, 0.0, 0.0, 0.0, 0.0, 1.695766951385468E9, 0.0, 2023-09-26 17:22:31.385
146.0, 34665.29812399127, 50094.14852787835, -19026.453080946576, -25440.710835541588, 11556.298918282857, 9863.422496726811, -187500.02235174447, -21569.41104762686, 14827.230850128039, -26537.19801154113, 53201.26452461058, -25830.5476105866, 10731.586603115393, -22621.2394382047, -29638.48020297053, -18904.07728005377, 0.04, 0.96, 0.306, 192.0, 0.0, 0.0, 0.0, 0.0, 0.0, 0.0, 0.0, 0.0, 0.0, 1.695766951385471E9, 0.0, 2023-09-26 17:22:31.385
148.0, 34656.29037097578, 50102.46337681572, -19035.550240939887, -25446.254068166505, 11578.069517382326, 9918.877174720428, -187500.02235174447, -21526.562753506038, 14826.873222216753, -26538.293247019443, 53050.61376698181, -25828.535953585622, 10726.915088524234, -22624.346330683988, -29640.15658380468, -19038.05363631888, 0.04, 0.96, 0.306, 192.0, 0.0, 0.0, 0.0, 0.0, 0.0, 0.0, 0.0, 0.0, 0.0, 1.695766951385474E9, 0.0, 2023-09-26 17:22:31.385
150.0, 34658.65965588804, 50097.05425465754, -19033.873860105738, -25452.71372231409, 11558.71290668403, 9861.500246703656, -187500.02235174447, -21576.898882019388, 14821.084120402827, -26540.77429065398, 53211.501623571115, -25829.83235476403, 10728.904393780756, -22631.63299937642, -29644.068139084357, -18888.22989323496, 0.04, 0.96, 0.306, 192.0, 0.0, 0.0, 0.0, 0.0, 0.0, 0.0, 0.0, 0.0, 0.0, 1.695766951445547E9, 0.0, 2023-09-26 17:22:31.445
152.0, 34657.81028959874, 50103.133929149386, -19037.561897940865, -25450.61265833529, 11574.225017336013, 9902.783918712606, -187500.02235174447, -21534.229401854205, 14820.145347135705, -26543.09887207733, 53058.59333975236, -25835.040311222114, 10720.030751232, -22633.711711610762, -29644.917505373658, -19028.844717603293, 0.042, 0.9580000000000001, 0.308, 192.0, 0.5, 40.0, 14.5, 120.0, 4.5, 80.0, 0.0, 0.0, 0.0, 1.695766951445562E9, 0.0, 2023-09-26 17:22:31.445
154.0, 34666.41571121403, 50100.675237259304, -19030.588153670808, -25444.175355932162, 11563.295014297368, 9881.683871946798, -187500.02235174447, -21555.37415210893, 14813.573934265845, -26543.188279055154, 53215.92726897327, -25830.72642454224, 10725.88690827929, -22633.085862766013, -29642.682330928128, -18877.92573904106, 0.042, 0.9580000000000001, 0.308, 192.0, 0.0, 0.0, 0.0, 0.0, 0.0, 0.0, 0.0, 0.0, 0.0, 1.695766951445565E9, 0.0, 2023-09-26 17:22:31.445
156.0, 34667.28742924779, 50101.77047273761, -19023.61440940075, -25435.189954661128, 11591.167639633137, 9897.888886676894, -187500.02235174447, -21528.306189573552, 14821.307637847382, -26529.44195621514, 53064.963586922124, -25820.377566859435, 10718.577887842404, -22617.79726955858, -29621.76109811796, -19022.541525666897, 0.042, 0.9580000000000001, 0.308, 192.0, 0.0, 0.0, 0.0, 0.0, 0.0, 0.0, 0.0, 0.0, 0.0, 1.695766951445569E9, 0.0, 2023-09-26 17:22:31.445
158.0, 34666.10278679166, 50101.368141337414, -19024.329665223322, -25442.744844287023, 11568.212398077536, 9895.497250020177, -187500.02235174447, -21543.751244992167, 14816.993751167507, -26534.582857439862, 53194.20137336271, -25818.76824125865, 10729.306725180952, -22622.9381707833, -29629.047766810392, -18899.897503840628, 0.042, 0.9580000000000001, 0.308, 192.0, 0.0, 0.0, 0.0, 0.0, 0.0, 0.0, 0.0, 0.0, 0.0, 1.695766951445572E9, 0.0, 2023-09-26 17:22:31.445
160.0, 34658.81611809923, 50093.29916158905, -19022.362711711256, -25444.42122512117, 11581.24346509498, 9878.889903889883, -187500.02235174447, -21540.13026239041, 14822.536983792423, -26529.129031792767, 53066.438802056175, -25823.05977619407, 10720.969524499122, -22621.977045771724, -29629.271284254944, -19016.886534319703, 0.042, 0.9580000000000001, 0.308, 192.0, 0.0, 0.0, 0.0, 0.0, 0.0, 0.0, 0.0, 0.0, 0.0, 1.695766951445576E9, 0.0, 2023-09-26 17:22:31.445
162.0, 34662.90648733455, 50097.076606402, -19020.172240754633, -25445.51646059948, 11579.835305194296, 9890.646921473375, -187500.02235174447, -21545.427625826316, 14811.674035987144, -26540.550773209427, 53169.972082373155, -25828.178325674337, 10735.721675839624, -22632.214144732257, -29631.461755211563, -18917.98006510497, 0.038, 0.96, 0.304, 192.0, 0.5, 24.0, 15.0, 0.0, 4.5, 64.0, 0.0, 0.0, 0.0, 1.695766951445579E9, 0.0, 2023-09-26 17:22:31.445
164.0, 34659.41961519952, 50090.70635923223, -19021.37923495522, -25440.442614608124, 11581.86931393973, 9866.238816528179, -187500.02235174447, -21544.421797325827, 14819.452443057591, -26532.794717883437, 53062.43783979867, -25826.032558206625, 10727.339771668885, -22626.089766751502, -29623.14690627419, -19025.201383257077, 0.038, 0.96, 0.304, 192.0, 0.0, 0.0, 0.0, 0.0, 0.0, 0.0, 0.0, 0.0, 0.0, 1.695766951504538E9, 0.0, 2023-09-26 17:22:31.504
166.0, 34665.96867632493, 50106.39728383986, -19027.302447235877, -25442.744844287023, 11567.944177144072, 9904.974389669227, -187500.02235174447, -21544.578259537015, 14813.082195887828, -26533.174697539176, 53153.476494965136, -25823.12683142744, 10735.788731072991, -22629.75545284217, -29638.39079599271, -18935.302667057833, 0.038, 0.96, 0.304, 192.0, 0.0, 0.0, 0.0, 0.0, 0.0, 0.0, 0.0, 0.0, 0.0, 1.695766951504551E9, 0.0, 2023-09-26 17:22:31.504
168.0, 34663.91231583504, 50094.01441741162, -19023.837926845306, -25442.78954777593, 11572.414526035134, 9862.90840660434, -187500.02235174447, -21547.238117127195, 14817.999579667996, -26529.01727307049, 53095.76429078154, -25826.21137216227, 10722.26592567753, -22622.53583938311, -29634.412185479665, -18988.969205495025, 0.038, 0.96, 0.304, 192.0, 0.0, 0.0, 0.0, 0.0, 0.0, 0.0, 0.0, 0.0, 0.0, 1.695766951504555E9, 0.0, 2023-09-26 17:22:31.504
170.0, 34668.24855425937, 50101.14462389286, -19029.269400747944, -25446.835213522343, 11574.426183036112, 9911.344636838989, -187500.02235174447, -21533.581201265002, 14811.428166798136, -26541.780119154468, 53148.0450210625, -25832.089880954016, 10732.83830080489, -22629.844859819994, -29640.58126694933, -18935.03444612437, 0.038, 0.96, 0.304, 192.0, 0.0, 0.0, 0.0, 0.0, 0.0, 0.0, 0.0, 0.0, 0.0, 1.695766951504558E9, 0.0, 2023-09-26 17:22:31.504
172.0, 34663.26411524584, 50089.02997839809, -19023.68146463412, -25439.79441401892, 11565.977223632006, 9850.816112854018, -187500.02235174447, -21555.441207342294, 14822.805204725886, -26535.521630706982, 53114.62916310182, -25832.469860609755, 10720.880117521301, -22626.693263851794, -29638.167278548157, -18968.651469785153, 0.038, 0.964, 0.306, 192.0, 0.5, 24.0, 15.0, 16.0, 4.5, 72.0, 0.0, 0.0, 0.0, 1.695766951504561E9, 0.0, 2023-09-26 17:22:31.504
174.0, 34667.66740890353, 50104.96677219472, -19020.932200066116, -25440.241448908026, 11580.95289241706, 9919.614782287454, -187500.02235174447, -21522.830012182, 14819.988884924518, -26536.885087118757, 53122.54168063899, -25824.020901205648, 10735.74402758408, -22628.123775496933, -29633.138136045713, -18960.537786547877, 0.038, 0.964, 0.306, 192.0, 0.0, 0.0, 0.0, 0.0, 0.0, 0.0, 0.0, 0.0, 0.0, 1.695766951504565E9, 0.0, 2023-09-26 17:22:31.504
176.0, 34664.3817024686, 50088.6723504868, -19026.788357113404, -25441.78371927544, 11554.220206048514, 9845.18347325128, -187500.02235174447, -21570.640393571903, 14825.800338482899, -26530.894819604735, 53118.317200936945, -25827.64188380741, 10720.947172754666, -22626.24622896269, -29638.346092503798, -18970.216091897022, 0.038, 0.964, 0.306, 192.0, 0.0, 0.0, 0.0, 0.0, 0.0, 0.0, 0.0, 0.0, 0.0, 1.695766951504568E9, 0.0, 2023-09-26 17:22:31.504
178.0, 34669.38849322659, 50106.73256000669, -19035.058502561867, -25444.42122512117, 11576.840171437285, 9921.96171545526, -187500.02235174447, -21519.92428540281, 14818.088986645816, -26543.92588662218, 53095.49606984807, -25831.173459431346, 10729.396132158772, -22634.874002322438, -29643.218772795055, -18994.579493353307, 0.038, 0.964, 0.306, 192.0, 0.0, 0.0, 0.0, 0.0, 0.0, 0.0, 0.0, 0.0, 0.0, 1.695766951504571E9, 0.0, 2023-09-26 17:22:31.504
180.0, 34668.62853391511, 50093.612086011424, -19032.264534504957, -25441.515498341978, 11556.365973516224, 9833.42645566779, -187500.02235174447, -21568.338163893004, 14823.40870182618, -26546.049302345433, 53140.691297136706, -25829.720596041752, 10717.616762830827, -22634.561077900064, -29641.90001987219, -18953.653449255642, 0.038, 0.964, 0.306, 192.0, 0.0, 0.0, 0.0, 0.0, 0.0, 0.0, 0.0, 0.0, 0.0, 1.69576695156478E9, 0.0, 2023-09-26 17:22:31.564
182.0, 34666.303952491755, 50106.01730418412, -19035.282020006423, -25445.203536177105, 11582.025776150916, 9916.306724108068, -187500.02235174447, -21519.0302156246, 14826.94027745012, -26557.24752631754, 53070.52917129149, -25827.373662873946, 10732.927707782712, -22636.125700011933, -29634.255723268478, -19022.63093264472, 0.038, 0.964, 0.318, 192.0, 0.5, 24.0, 15.0, 16.0, 4.5, 120.0, 0.0, 0.0, 0.0, 1.695766951564791E9, 0.0, 2023-09-26 17:22:31.564
184.0, 34664.89579259107, 50086.48187953018, -19037.271325262944, -25454.680675826155, 11549.99572634646, 9824.016371252104, -187500.02235174447, -21581.726858821734, 14833.466986831068, -26562.92486940919, 53157.23158803363, -25832.223991420746, 10727.093902479875, -22639.456109935774, -29639.01664483746, -18947.84199569726, 0.038, 0.964, 0.318, 192.0, 0.0, 0.0, 0.0, 0.0, 0.0, 0.0, 0.0, 0.0, 0.0, 1.695766951564795E9, 0.0, 2023-09-26 17:22:31.564
186.0, 34665.58869666919, 50101.88223145989, -19037.04780781839, -25453.22781243656, 11581.198761606069, 9904.862630946951, -187500.02235174447, -21525.221648838717, 14826.269725116459, -26576.984116671578, 53069.83626721338, -25838.415424634866, 10734.31351593894, -22652.308362997577, -29644.224601295544, -19029.694083892595, 0.038, 0.964, 0.318, 192.0, 0.0, 0.0, 0.0, 0.0, 0.0, 0.0, 0.0, 0.0, 0.0, 1.695766951564798E9, 0.0, 2023-09-26 17:22:31.564
188.0, 34665.32047573572, 50085.54310626306, -19035.77375838444, -25450.32208565737, 11543.916051854618, 9824.530461374577, -187500.02235174447, -21594.17678048334, 14831.768254252465, -26568.35634331183, 53178.24222782162, -25835.487346111222, 10732.637135104793, -22644.28408673812, -29643.978732106538, -18931.18994607806, 0.038, 0.964, 0.318, 192.0, 0.0, 0.0, 0.0, 0.0, 0.0, 0.0, 0.0, 0.0, 0.0, 1.695766951564802E9, 0.0, 2023-09-26 17:22:31.564
190.0, 34666.54982168077, 50103.402150082846, -19035.550240939887, -25442.454271609102, 11572.839209179785, 9919.301857865079, -187500.02235174447, -21516.59387547897, 14829.443672829113, -26556.219346072598, 53030.87717662778, -25826.792517518108, 10731.005457759555, -22637.33269421252, -29651.555973476887, -19068.183787844635, 0.038, 0.964, 0.318, 192.0, 0.0, 0.0, 0.0, 0.0, 0.0, 0.0, 0.0, 0.0, 0.0, 1.695766951564805E9, 0.0, 2023-09-26 17:22:31.564
192.0, 34673.83649037319, 50098.26124885813, -19024.173203012135, -25440.08498669684, 11556.231863049492, 9850.838464598473, -187500.02235174447, -21565.83476851401, 14825.800338482899, -26553.045398359944, 53197.26356235309, -25824.043252950105, 10731.586603115393, -22636.818604090047, -29645.096319329303, -18905.88777135465, 0.03, 0.966, 0.308, 192.0, 0.0, 120.0, 15.0, 24.0, 4.5, 80.0, 0.0, 0.0, 0.0, 1.695766951564808E9, 0.0, 2023-09-26 17:22:31.564
194.0, 34669.90258334906, 50109.481824574694, -19022.76504311145, -25436.978094217553, 11590.228866366013, 9915.09972990748, -187500.02235174447, -21507.317901530016, 14831.209460641083, -26549.53617448046, 53049.20560708113, -25819.081165681026, 10732.301858937963, -22631.454185420775, -29630.366519733256, -19045.42971198913, 0.03, 0.966, 0.308, 192.0, 0.0, 0.0, 0.0, 0.0, 0.0, 0.0, 0.0, 0.0, 0.0, 1.695766951625119E9, 0.0, 2023-09-26 17:22:31.625
196.0, 34665.34282748018, 50092.44979529975, -19029.04588330339, -25446.36582688878, 11549.57104320181, 9854.302984989046, -187500.02235174447, -21567.108817947963, 14815.920867433653, -26556.39816002824, 53214.094425927935, -25829.362968130466, 10727.295068179974, -22641.981857059225, -29642.10118557229, -18884.899483311117, 0.03, 0.966, 0.308, 192.0, 0.0, 0.0, 0.0, 0.0, 0.0, 0.0, 0.0, 0.0, 0.0, 1.695766951625131E9, 0.0, 2023-09-26 17:22:31.625
198.0, 34666.0804350472, 50097.47893780219, -19024.128499523224, -25440.062634952385, 11592.44168906709, 9901.107537878459, -187500.02235174447, -21510.78242192059, 14825.5991727828, -26543.814127899903, 53055.55350250644, -25827.01603496266, 10726.69157107968, -22632.99645578819, -29636.245028525, -19031.90690659367, 0.03, 0.966, 0.308, 192.0, 0.0, 0.0, 0.0, 0.0, 0.0, 0.0, 0.0, 0.0, 0.0, 1.695766951625135E9, 0.0, 2023-09-26 17:22:31.625
200.0, 34669.12027229313, 50097.21071686873, -19024.86610709025, -25442.02958846445, 11557.349450272257, 9858.862740857929, -187500.02235174447, -21562.616117312446, 14821.329989591837, -26542.003636599024, 53204.28201011205, -25823.90914248337, 10732.815949060434, -22635.030464533625, -29637.697891914595, -18892.566131659285, 0.03, 0.966, 0.308, 192.0, 0.0, 0.0, 0.0, 0.0, 0.0, 0.0, 0.0, 0.0, 0.0, 1.695766951625138E9, 0.0, 2023-09-26 17:22:31.625
202.0, 34665.56634492473, 50099.982333181186, -19025.313141979354, -25442.70014079811, 11581.757555217453, 9894.15614535286, -187500.02235174447, -21525.869849427923, 14824.392178582213, -26534.806374884414, 53045.69638320165, -25824.691453539308, 10723.338809411385, -22630.33659819801, -29638.323740759344, -19047.508424223473, 0.036000000000000004, 0.972, 0.302, 192.0, 0.5, 16.0, 15.0, 48.0, 4.5, 56.0, 0.0, 0.0, 0.0, 1.695766951625142E9, 0.0, 2023-09-26 17:22:31.625
204.0, 34672.42833047251, 50103.91624020532, -19021.62510414423, -25447.12578620026, 11565.060802109338, 9867.468162473222, -187500.02235174447, -21559.106893432963, 14818.178393623639, -26546.40693025672, 53199.99047517663, -25829.765299530663, 10735.341696183885, -22638.249115735187, -29639.463679726563, -18902.423250964075, 0.036000000000000004, 0.972, 0.302, 192.0, 0.0, 0.0, 0.0, 0.0, 0.0, 0.0, 0.0, 0.0, 0.0, 1.695766951625145E9, 0.0, 2023-09-26 17:22:31.625
206.0, 34668.114443792634, 50099.28942910307, -19017.33356920881, -25441.873126253264, 11591.368805333233, 9875.872418388417, -187500.02235174447, -21531.591896008482, 14823.945143693109, -26540.997808098535, 53065.656491000234, -25827.552476829587, 10725.462225134639, -22633.734063355216, -29630.478278455532, -19030.744615881995, 0.036000000000000004, 0.972, 0.302, 192.0, 0.0, 0.0, 0.0, 0.0, 0.0, 0.0, 0.0, 0.0, 0.0, 1.695766951625148E9, 0.0, 2023-09-26 17:22:31.625
208.0, 34666.54982168077, 50102.01634192662, -19026.5424879244, -25443.057768709394, 11565.776057931907, 9884.522543492621, -187500.02235174447, -21542.87952695841, 14816.099681389294, -26546.764558168004, 53195.31896058547, -25828.58065707453, 10734.537033383493, -22641.803043103584, -29636.82617388084, -18908.97231208948, 0.036000000000000004, 0.972, 0.302, 192.0, 0.0, 0.0, 0.0, 0.0, 0.0, 0.0, 0.0, 0.0, 0.0, 1.695766951625151E9, 0.0, 2023-09-26 17:22:31.625
210.0, 34670.59548742718, 50100.38466458138, -19018.205287242567, -25430.6525505367, 11578.650662738164, 9873.056098587049, -187500.02235174447, -21530.630770996904, 14826.716760005565, -26533.73349115056, 53081.816802241425, -25822.836258749518, 10720.321323909919, -22625.79919407358, -29633.942798846103, -19014.070214518335, 0.036000000000000004, 0.972, 0.302, 192.0, 0.0, 0.0, 0.0, 0.0, 0.0, 0.0, 0.0, 0.0, 0.0, 1.695766951685407E9, 0.0, 2023-09-26 17:22:31.685
212.0, 34665.76751062483, 50100.898754703856, -19024.62023790124, -25440.12969018575, 11573.912092913639, 9903.655636746364, -187500.02235174447, -21537.02336991112, 14819.161870379672, -26545.222287800585, 53163.534779970025, -25823.797383761095, 10738.135664240797, -22630.068377264546, -29631.640569167208, -18937.873117670195, 0.032, 0.966, 0.3, 192.0, 0.5, 0.0, 15.0, 24.0, 4.5, 48.0, 0.0, 0.0, 0.0, 1.695766951685419E9, 0.0, 2023-09-26 17:22:31.685
214.0, 34659.531373921796, 50092.11451913292, -19028.084758291814, -25438.229791907048, 11566.223092821014, 9866.61879618392, -187500.02235174447, -21555.061227686554, 14821.218230869561, -26542.20480229912, 53088.65643604475, -25827.77599427414, 10720.343675654374, -22626.693263851794, -29635.641531424706, -19010.67274936113, 0.032, 0.966, 0.3, 192.0, 0.0, 0.0, 0.0, 0.0, 0.0, 0.0, 0.0, 0.0, 0.0, 1.695766951685423E9, 0.0, 2023-09-26 17:22:31.685
216.0, 34658.10086227666, 50107.64898152935, -19036.354903740277, -25442.6554373092, 11565.91016839864, 9913.512756051154, -187500.02235174447, -21541.806643224554, 14813.305713332382, -26549.938505880655, 53156.80690488898, -25830.50290709769, 10729.59729785887, -22634.516374411152, -29652.38298802173, -18945.964449163013, 0.032, 0.966, 0.3, 192.0, 0.0, 0.0, 0.0, 0.0, 0.0, 0.0, 0.0, 0.0, 0.0, 1.695766951685426E9, 0.0, 2023-09-26 17:22:31.685
218.0, 34657.38560645409, 50097.68010350229, -19029.917601337147, -25435.592286061325, 11572.682746968598, 9866.551740950554, -187500.02235174447, -21541.96310543574, 14824.191012882116, -26542.785947654957, 53106.984866498104, -25820.914008726362, 10722.757664055547, -22622.401728916375, -29634.881572113227, -18989.595054339774, 0.032, 0.966, 0.3, 192.0, 0.0, 0.0, 0.0, 0.0, 0.0, 0.0, 0.0, 0.0, 0.0, 1.695766951685429E9, 0.0, 2023-09-26 17:22:31.685
220.0, 34653.451699429956, 50103.6256675274, -19036.600772929283, -25445.717626299578, 11580.662319739142, 9931.304744637579, -187500.02235174447, -21513.866962655422, 14820.927658191642, -26552.888936148756, 53137.18207325722, -25821.361043615467, 10737.97920202961, -22631.56594414305, -29633.96515059056, -18956.112141145724, 0.032, 0.966, 0.3, 192.0, 0.0, 0.0, 0.0, 0.0, 0.0, 0.0, 0.0, 0.0, 0.0, 1.695766951685433E9, 0.0, 2023-09-26 17:22:31.685
222.0, 34656.96092330944, 50090.43813829877, -19034.209136272566, -25440.5543733304, 11564.390249775679, 9853.4759704442, -187500.02235174447, -21553.183681152306, 14820.257105857982, -26551.570183225893, 53136.84679709039, -25827.083090196025, 10719.181384942698, -22632.169441243346, -29633.182839534624, -18956.55917603483, 0.044, 0.96, 0.306, 192.0, 0.5, 48.0, 15.0, 0.0, 4.5, 72.0, 0.0, 0.0, 0.0, 1.695766951685436E9, 0.0, 2023-09-26 17:22:31.685
224.0, 34655.61981864212, 50100.69758900376, -19038.925354352636, -25445.248239666016, 11587.412546564645, 9924.263945134157, -187500.02235174447, -21522.40532903735, 14822.000541925496, -26553.96181988261, 53109.17533745472, -25824.087956439016, 10734.40292291676, -22634.829298833527, -29632.53463894542, -18987.337528149787, 0.044, 0.96, 0.306, 192.0, 0.0, 0.0, 0.0, 0.0, 0.0, 0.0, 0.0, 0.0, 0.0, 1.695766951745749E9, 0.0, 2023-09-26 17:22:31.745
226.0, 34652.602333140654, 50081.586847494465, -19041.54050845391, -25456.491167127035, 11556.924767127606, 9834.722856846198, -187500.02235174447, -21571.623870327934, 14821.642914014212, -26563.483663020572, 53147.24035826211, -25832.022825720647, 10721.036579732488, -22645.13345302742, -29634.255723268478, -18947.1714433636, 0.044, 0.96, 0.306, 192.0, 0.0, 0.0, 0.0, 0.0, 0.0, 0.0, 0.0, 0.0, 0.0, 1.695766951745762E9, 0.0, 2023-09-26 17:22:31.745
228.0, 34653.585809896686, 50097.90362094684, -19042.456929976575, -25458.256954939003, 11584.77504071892, 9920.218279387747, -187500.02235174447, -21512.034119610085, 14819.720663991055, -26568.132825867277, 53096.12191869282, -25832.291046654114, 10730.021981003521, -22649.96142982977, -29636.78147039193, -18991.62906308521, 0.044, 0.96, 0.306, 192.0, 0.0, 0.0, 0.0, 0.0, 0.0, 0.0, 0.0, 0.0, 0.0, 1.695766951745765E9, 0.0, 2023-09-26 17:22:31.745
230.0, 34652.44587092946, 50077.63058872588, -19040.892307864706, -25456.669981082676, 11566.558368987844, 9826.162138719814, -187500.02235174447, -21571.378001138928, 14819.988884924518, -26572.513767780518, 53170.93320738473, -25834.235648421723, 10722.26592567753, -22651.52605194164, -29629.740670888506, -18923.1656698186, 0.044, 0.96, 0.306, 192.0, 0.0, 0.0, 0.0, 0.0, 0.0, 0.0, 0.0, 0.0, 0.0, 1.695766951745769E9, 0.0, 2023-09-26 17:22:31.745
232.0, 34647.7296528494, 50088.71705397571, -19049.833005646826, -25459.441597395136, 11588.53013378741, 9920.218279387747, -187500.02235174447, -21513.84461091097, 14809.774137708442, -26576.850006204848, 53068.29399684596, -25837.789575790117, 10728.211489702642, -22651.48134845273, -29635.619179680252, -19021.870973333236, 0.038, 0.9580000000000001, 0.304, 192.0, 0.5, 24.0, 14.5, 120.0, 4.5, 64.0, 0.0, 0.0, 0.0, 1.695766951745772E9, 0.0, 2023-09-26 17:22:31.745
234.0, 34652.736443607384, 50071.28269330057, -19045.541470711407, -25460.46977764008, 11564.18908407558, 9833.962897534717, -187500.02235174447, -21572.137960450407, 14811.40581505368, -26578.772256228003, 53182.77963194605, -25841.20939269178, 10720.902469265757, -22652.867156608958, -29635.552124446887, -18909.531105700866, 0.038, 0.9580000000000001, 0.304, 192.0, 0.0, 0.0, 0.0, 0.0, 0.0, 0.0, 0.0, 0.0, 0.0, 1.695766951745775E9, 0.0, 2023-09-26 17:22:31.745
236.0, 34647.17085923802, 50082.704434717234, -19057.20908131708, -25466.974135276574, 11580.885837183696, 9928.846052747494, -187500.02235174447, -21510.35773877594, 14805.683768473122, -26580.046305661956, 53054.39121179476, -25838.281314168136, 10724.344637911874, -22654.364723487466, -29645.319836773855, -19026.788357113404, 0.038, 0.9580000000000001, 0.304, 192.0, 0.0, 0.0, 0.0, 0.0, 0.0, 0.0, 0.0, 0.0, 0.0, 1.695766951745778E9, 0.0, 2023-09-26 17:22:31.745
238.0, 34657.00562679835, 50074.456641013225, -19048.29073527941, -25461.788530562942, 11554.510778726433, 9846.85985408543, -187500.02235174447, -21565.141864435896, 14807.337797562814, -26580.98507892908, 53215.48023408416, -25844.74096831572, 10717.192079686176, -22656.085807810523, -29648.71730193106, -18871.846064549216, 0.038, 0.9580000000000001, 0.304, 192.0, 0.0, 0.0, 0.0, 0.0, 0.0, 0.0, 0.0, 0.0, 0.0, 1.695766951745782E9, 0.0, 2023-09-26 17:22:31.745
240.0, 34657.05033028726, 50091.33220807698, -19045.742636411505, -25455.485338626546, 11585.400889563667, 9915.949096196782, -187500.02235174447, -21514.895142900365, 14815.764405222466, -26568.44575028965, 53047.97626113609, -25830.48055535323, 10726.892736779779, -22647.61449666196, -29639.24016228201, -19037.092511307303, 0.038, 0.9580000000000001, 0.304, 192.0, 0.0, 0.0, 0.0, 0.0, 0.0, 0.0, 0.0, 0.0, 0.0, 1.695766951805433E9, 0.0, 2023-09-26 17:22:31.805
242.0, 34655.37394945311, 50087.08537663047, -19045.72028466705, -25456.915850271685, 11552.722639170008, 9850.078505286992, -187500.02235174447, -21573.322602906537, 14806.68959697361, -26570.412703801718, 53202.203297877706, -25831.173459431346, 10721.729483810603, -22652.57658393104, -29648.404377508687, -18890.576826402765, 0.034, 0.9580000000000001, 0.306, 192.0, 0.5, 8.0, 14.5, 120.0, 4.5, 72.0, 0.0, 0.0, 0.0, 1.695766951805445E9, 0.0, 2023-09-26 17:22:31.805
244.0, 34653.38464419659, 50094.9755424232, -19039.66296191966, -25452.803129291908, 11596.263837368946, 9911.09876764998, -187500.02235174447, -21510.625959709403, 14811.875201687242, -26567.283459577975, 53046.9704326356, -25824.199715161292, 10726.490405379584, -22644.686418138317, -29635.1944965356, -19037.58424968532, 0.034, 0.9580000000000001, 0.306, 192.0, 0.0, 0.0, 0.0, 0.0, 0.0, 0.0, 0.0, 0.0, 0.0, 1.695766951805449E9, 0.0, 2023-09-26 17:22:31.805
246.0, 34650.81419358423, 50080.93864690526, -19047.06138933437, -25466.996487021028, 11563.987918375484, 9857.432229212789, -187500.02235174447, -21556.134111420408, 14806.6448934847, -26578.816959716914, 53207.925344458265, -25836.4484711228, 10732.391265915783, -22655.169386287856, -29632.691101156608, -18884.340689699733, 0.034, 0.9580000000000001, 0.306, 192.0, 0.0, 0.0, 0.0, 0.0, 0.0, 0.0, 0.0, 0.0, 0.0, 1.695766951805452E9, 0.0, 2023-09-26 17:22:31.805
248.0, 34643.54987663626, 50083.19617309525, -19047.798996901394, -25465.23069920906, 11596.085023413305, 9904.996741413683, -187500.02235174447, -21505.19448580676, 14810.198820853093, -26581.052134162444, 53044.288223300966, -25845.657389838387, 10722.757664055547, -22656.91282235537, -29629.80772612187, -19035.639647917706, 0.034, 0.9580000000000001, 0.306, 192.0, 0.0, 0.0, 0.0, 0.0, 0.0, 0.0, 0.0, 0.0, 0.0, 1.695766951805456E9, 0.0, 2023-09-26 17:22:31.805
