%OpenBCI Raw EXG Data
%Number of channels = 16
%Sample Rate = 125 Hz
%Board = OpenBCI_GUI$BoardCytonSerialDaisy
Sample Index, EXG Channel 0, EXG Channel 1, EXG Channel 2, EXG Channel 3, EXG Channel 4, EXG Channel 5, EXG Channel 6, EXG Channel 7, EXG Channel 8, EXG Channel 9, EXG Channel 10, EXG Channel 11, EXG Channel 12, EXG Channel 13, EXG Channel 14, EXG Channel 15, Accel Channel 0, Accel Channel 1, Accel Channel 2, Other, Other, Other, Other, Other, Other, Other, Analog Channel 0, Analog Channel 1, Analog Channel 2, Timestamp, Other, Timestamp (Formatted)
0.0, 43236.476866778954, 62209.30811277725, -30132.54316241064, -19372.21221592572, -21890.784429405267, -3618.0992267250094, -187500.02235174447, -2492.8677073559415, 0.0, 0.0, 0.0, 0.0, 0.0, 0.0, 0.0, 0.0, 0.0, 0.0, 0.0, 192.0, 0.0, 0.0, 0.0, 0.0, 0.0, 0.0, 0.0, 0.0, 0.0, 1.695771079316498E9, 0.0, 2023-09-26 18:31:19.316
180.0, 43238.7567447134, 62249.518901052346, -30128.653958875413, -19371.78753278107, -21893.757211417822, -3619.887366281434, -187500.02235174447, -2477.042672281584, 15326.635876492963, -23354.66722901669, -187500.02235174447, 3329.7617232515486, -2124.3544965212936, -6823.294678127132, 3139.14604653669, -24043.10095824015, 0.0, 0.0, 0.0, 192.0, 0.0, 0.0, 0.0, 0.0, 0.0, 0.0, 0.0, 0.0, 0.0, 1.695771079316506E9, 0.0, 2023-09-26 18:31:19.316
182.0, 43245.55167502781, 62192.49960094686, -30120.42851691586, -19363.964422221714, -21888.795124148743, -3612.8018632891017, -187500.02235174447, -2488.1514892758714, 15341.052751666637, -23343.13372887775, -187500.02235174447, 3319.7928452244814, -2108.7529788914894, -6805.994427918724, 3108.9264880331148, -24040.03876924977, 0.0, 0.0, 0.0, 192.0, 0.0, 0.0, 0.0, 0.0, 0.0, 0.0, 0.0, 0.0, 0.0, 1.695771079316509E9, 0.0, 2023-09-26 18:31:19.316
184.0, 43236.09688712322, 62257.11849416715, -30136.38766245695, -19375.78849503857, -21902.42968826648, -3621.2731744376633, -187500.02235174447, -2474.3604629469473, 15319.975056645282, -23361.573918053382, -187500.02235174447, 3326.364258094342, -2133.6975257036124, -6829.35200087452, 3134.0274970564246, -24048.599487376152, -0.03, 0.912, 0.42, 192.0, 127.5, 8.0, 14.0, 64.0, 6.5, 16.0, 0.0, 0.0, 0.0, 1.695771079316513E9, 0.0, 2023-09-26 18:31:19.316
186.0, 43245.10464013871, 62198.86984811662, -30126.754060596715, -19361.59513730945, -21888.817475893196, -3608.532680098138, -187500.02235174447, -2499.595582436989, 15329.340437572057, -23355.494243561538, -187500.02235174447, 3315.1883858666883, -2118.99007785202, -6812.431730321852, 3101.66217108514, -24042.318647184213, -0.03, 0.912, 0.42, 192.0, 0.0, 0.0, 0.0, 0.0, 0.0, 0.0, 0.0, 0.0, 0.0, 1.695771079316516E9, 0.0, 2023-09-26 18:31:19.316
188.0, 43236.23099758995, 62249.00481092987, -30140.76860437019, -19376.615509583415, -21902.630853966577, -3615.282906923641, -187500.02235174447, -2473.4440414242795, 15339.46577781031, -23348.408740569204, -187500.02235174447, 3333.4497610866742, -2118.8783191297434, -6809.4813000537515, 3121.465816672542, -24033.98144650238, -0.03, 0.912, 0.42, 192.0, 0.0, 0.0, 0.0, 0.0, 0.0, 0.0, 0.0, 0.0, 0.0, 1.695771079316519E9, 0.0, 2023-09-26 18:31:19.316
190.0, 43252.59247453124, 62197.66285391604, -30122.30606345011, -19354.800206995038, -21880.52497870028, -3602.117729439465, -187500.02235174447, -2498.008608580662, 15323.998370647238, -23355.33778135035, -187500.02235174447, 3316.5071387895514, -2124.6450691992127, -6814.1751663893665, 3104.2326216975002, -24051.013475777327, -0.03, 0.912, 0.42, 192.0, 0.0, 0.0, 0.0, 0.0, 0.0, 0.0, 0.0, 0.0, 0.0, 1.695771079316522E9, 0.0, 2023-09-26 18:31:19.316
192.0, 43240.611939503186, 62247.17196788454, -30137.43819444635, -19373.799189782047, -21893.53369397327, -3609.5161568541716, -187500.02235174447, -2467.006739021151, 15334.593097519053, -23344.67599924517, -187500.02235174447, 3333.807388997959, -2116.9113656176764, -6807.715512241783, 3125.265613229944, -24037.04363549276, -0.03, 0.912, 0.42, 192.0, 0.0, 0.0, 0.0, 0.0, 0.0, 0.0, 0.0, 0.0, 0.0, 1.695771079316525E9, 0.0, 2023-09-26 18:31:19.316
194.0, 43250.62552101917, 62197.21581902693, -30126.53054315216, -19360.79047450906, -21877.887472854552, -3606.6551335638924, -187500.02235174447, -2500.4002452373797, 15330.815652706106, -23349.95101093662, -187500.02235174447, 3325.000801682568, -2112.3069062598834, -6807.82727096406, 3114.559127635852, -24043.70445534044, -0.024, 0.912, 0.422, 192.0, 127.5, 32.0, 14.0, 64.0, 6.5, 24.0, 0.0, 0.0, 0.0, 1.695771079316528E9, 0.0, 2023-09-26 18:31:19.316
0.0, 21691.026889208188, 31315.129258052024, -15071.401306557813, -9651.796180223964, -10939.949564927765, -1804.1881089434755, -93750.01117587223, -1180.2391624735787, 7662.066240556985, -11677.892408119727, -93750.01117587223, 1667.082508454622, -1062.1996000051022, -3410.831500390947, 1567.8631148175139, -12023.651543098873, -0.02, 0.922, 0.40800000000000003, 192.0, 127.5, 48.0, 14.0, 104.0, 6.0, 96.0, 0.0, 0.0, 0.0, 1.695771079493335E9, 0.0, 2023-09-26 18:31:19.493
2.0, 43390.994476198495, 62582.068155058405, -30106.52573186466, -19278.044316535514, -21859.84961507912, -3592.5958863015044, -187500.02235174447, -2383.5900287139452, 15423.441281728898, -23140.15753747911, -187500.02235174447, 3460.92175971529, -2080.522725644437, -6714.285220418599, 3136.3744302242317, -23895.266520412748, -0.02, 0.922, 0.40800000000000003, 192.0, 0.0, 0.0, 0.0, 0.0, 0.0, 0.0, 0.0, 0.0, 0.0, 1.695771079493345E9, 0.0, 2023-09-26 18:31:19.493
4.0, 43380.26563885995, 62607.41503327073, -30131.179705998864, -19295.053994066002, -21876.94869958743, -3602.0953776950096, -187500.02235174447, -2358.9360545797413, 15415.796985125184, -23131.775633308367, -187500.02235174447, 3465.0344806950666, -2071.023234250931, -6706.149185436868, 3130.7641423659497, -23885.699973785875, -0.02, 0.922, 0.40800000000000003, 192.0, 0.0, 0.0, 0.0, 0.0, 0.0, 0.0, 0.0, 0.0, 0.0, 1.695771079493349E9, 0.0, 2023-09-26 18:31:19.493
6.0, 43389.943944209095, 62592.48406797458, -30117.09810699202, -19280.86063633688, -21864.387019203547, -3602.989447473222, -187500.02235174447, -2388.6638747053, 15408.018578054736, -23135.62013335468, -187500.02235174447, 3473.1481639323433, -2069.860943539255, -6711.714769806239, 3146.589177440307, -23894.752430290275, -0.02, 0.922, 0.40800000000000003, 192.0, 0.0, 0.0, 0.0, 0.0, 0.0, 0.0, 0.0, 0.0, 0.0, 1.695771079493352E9, 0.0, 2023-09-26 18:31:19.493
8.0, 43370.788499210896, 62614.61229498533, -30143.07083404909, -19305.156982559798, -21895.299481785238, -3618.278040680652, -187500.02235174447, -2380.952522868219, 15407.236266998802, -23134.748415320926, -187500.02235174447, 3461.3240911154858, -2082.780251834423, -6718.71086582075, 3119.588270138296, -23905.995357751293, -0.016, 0.93, 0.388, 192.0, 127.5, 64.0, 14.5, 8.0, 6.0, 16.0, 0.0, 0.0, 0.0, 1.695771079493355E9, 0.0, 2023-09-26 18:31:19.493
10.0, 43394.95073496708, 62608.44321351567, -30117.925121536868, -19270.936461798723, -21867.292745982737, -3601.1566044278866, -187500.02235174447, -2395.2352875751603, 15392.126487747013, -23134.52489787637, -187500.02235174447, 3474.8468965109464, -2073.5042778854704, -6715.38045589691, 3133.5357586784075, -23906.129468218027, -0.016, 0.93, 0.388, 192.0, 0.0, 0.0, 0.0, 0.0, 0.0, 0.0, 0.0, 0.0, 0.0, 1.695771079493358E9, 0.0, 2023-09-26 18:31:19.493
12.0, 43385.13831915121, 62602.36353902383, -30135.20302000082, -19275.272700223053, -21881.776676389778, -3598.1391189264205, -187500.02235174447, -2372.570618697479, 15431.800834155183, -23111.837877254235, -187500.02235174447, 3479.741928546659, -2070.7550133174677, -6690.70413001825, 3119.2529939714664, -23884.694145285386, -0.016, 0.93, 0.388, 192.0, 0.0, 0.0, 0.0, 0.0, 0.0, 0.0, 0.0, 0.0, 0.0, 1.695771079493361E9, 0.0, 2023-09-26 18:31:19.493
14.0, 43399.13051118023, 62614.165260096226, -30117.232217458753, -19250.3952086443, -21861.03425753525, -3584.929237953334, -187500.02235174447, -2379.2314385451605, 15412.980665323814, -23112.28491214334, -187500.02235174447, 3494.158803720332, -2088.8599263262663, -6692.55932480804, 3147.684412918617, -23883.889482484996, -0.016, 0.93, 0.388, 192.0, 0.0, 0.0, 0.0, 0.0, 0.0, 0.0, 0.0, 0.0, 0.0, 1.695771079493364E9, 0.0, 2023-09-26 18:31:19.493
16.0, 43403.93613623812, 62586.22557952709, -30112.895979034423, -19252.116292967356, -21865.75047561532, -3571.697005235792, -187500.02235174447, -2359.89717959132, 15408.666778643941, -23095.834028224235, -187500.02235174447, 3491.0072077521336, -2067.9163417716436, -6670.207580352733, 3118.2918689598882, -23867.371543332523, -0.016, 0.93, 0.388, 192.0, 0.0, 0.0, 0.0, 0.0, 0.0, 0.0, 0.0, 0.0, 0.0, 1.69577107955361E9, 0.0, 2023-09-26 18:31:19.553
18.0, 43397.38707511271, 62623.86591718983, -30129.570380398083, -19253.256231934578, -21868.455036694413, -3580.9506274402893, -187500.02235174447, -2376.7503949106213, 15415.864040358549, -23097.53276080284, -187500.02235174447, 3509.5815073944937, -2068.7880598054003, -6675.639054255374, 3165.1858288271224, -23867.460950310346, -0.008, 0.928, 0.39, 192.0, 127.5, 96.0, 14.5, 0.0, 6.0, 24.0, 0.0, 0.0, 0.0, 1.695771079553619E9, 0.0, 2023-09-26 18:31:19.553
20.0, 43410.01581072996, 62585.510323704526, -30112.87362728997, -19248.96469699916, -21873.931214085962, -3572.1216883804427, -187500.02235174447, -2362.534685437046, 15415.014674069247, -23085.41811530806, -187500.02235174447, 3492.1024432304434, -2053.9241497426215, -6665.469010528209, 3115.810825325349, -23869.40555207796, -0.008, 0.928, 0.39, 192.0, 0.0, 0.0, 0.0, 0.0, 0.0, 0.0, 0.0, 0.0, 0.0, 1.695771079553623E9, 0.0, 2023-09-26 18:31:19.553
22.0, 43403.89143274921, 62636.27113536253, -30110.39258365543, -19252.63038308983, -21859.31317321219, -3582.962284441267, -187500.02235174447, -2360.1654005247833, 15410.700787389373, -23091.00605142189, -187500.02235174447, 3516.890527831379, -2090.513955415959, -6677.60600776744, 3171.779593441438, -23866.745694487774, -0.008, 0.928, 0.39, 192.0, 0.0, 0.0, 0.0, 0.0, 0.0, 0.0, 0.0, 0.0, 0.0, 1.695771079553626E9, 0.0, 2023-09-26 18:31:19.553
24.0, 43411.71454330856, 62577.66486140071, -30103.418839385373, -19242.32622889593, -21848.673742851468, -3569.1042028789766, -187500.02235174447, -2359.271330746571, 15425.922325363437, -23079.204330349487, -187500.02235174447, 3496.997475266156, -2044.804638004856, -6662.004490137636, 3128.372505709232, -23865.516348542733, -0.008, 0.928, 0.39, 192.0, 0.0, 0.0, 0.0, 0.0, 0.0, 0.0, 0.0, 0.0, 0.0, 1.695771079553629E9, 0.0, 2023-09-26 18:31:19.553
26.0, 43402.460921104066, 62638.81923423043, -30106.570435353573, -19258.15126397029, -21865.057571537207, -3586.672674020848, -187500.02235174447, -2358.310205734993, 15403.794098352684, -23093.531798545337, -187500.02235174447, 3509.760321350136, -2067.9610452605543, -6681.517563047119, 3181.3461400683095, -23868.310316599647, -0.008, 0.928, 0.39, 192.0, 0.0, 0.0, 0.0, 0.0, 0.0, 0.0, 0.0, 0.0, 0.0, 1.695771079553632E9, 0.0, 2023-09-26 18:31:19.553
28.0, 43418.665935834164, 62570.51230317501, -30089.67251654536, -19249.925822010737, -21847.958487028896, -3577.128479138432, -187500.02235174447, -2368.7708221400767, 15427.755168408772, -23074.08578086922, -187500.02235174447, 3495.052873498544, -2054.2817776539064, -6658.808190680527, 3144.2869477614104, -23864.66698225343, -0.002, 0.926, 0.39, 192.0, 127.5, 120.0, 14.0, 120.0, 6.0, 24.0, 0.0, 0.0, 0.0, 1.695771079553635E9, 0.0, 2023-09-26 18:31:19.553
30.0, 43403.511453093466, 62637.76870224103, -30107.844484787525, -19265.504987896085, -21857.636792378045, -3598.407339859884, -187500.02235174447, -2362.4452784592245, 15415.014674069247, -23091.85541771119, -187500.02235174447, 3502.6524666133487, -2070.2632749394506, -6686.546705549563, 3182.687244735628, -23878.972098704828, -0.002, 0.926, 0.39, 192.0, 0.0, 0.0, 0.0, 0.0, 0.0, 0.0, 0.0, 0.0, 0.0, 1.695771079613001E9, 0.0, 2023-09-26 18:31:19.613
32.0, 43408.85352001828, 62585.91265510472, -30106.72689756476, -19258.888871537314, -21858.5085104118, -3591.791223501113, -187500.02235174447, -2382.5171449800905, 15412.555982179163, -23086.42394380855, -187500.02235174447, 3481.9771029921894, -2032.7346959989902, -6678.902408945848, 3141.783552382416, -23884.78355226321, -0.002, 0.926, 0.39, 192.0, 0.0, 0.0, 0.0, 0.0, 0.0, 0.0, 0.0, 0.0, 0.0, 1.695771079613012E9, 0.0, 2023-09-26 18:31:19.613
34.0, 43411.06634271936, 62649.34690586888, -30117.366327925483, -19264.38740067332, -21877.753362387823, -3591.120671167454, -187500.02235174447, -2358.824295857465, 15413.04772055718, -23087.005089164388, -187500.02235174447, 3502.3842456798848, -2088.345836203794, -6682.478688058697, 3168.113907350768, -23874.144121902482, -0.002, 0.926, 0.39, 192.0, 0.0, 0.0, 0.0, 0.0, 0.0, 0.0, 0.0, 0.0, 0.0, 1.695771079613016E9, 0.0, 2023-09-26 18:31:19.613
36.0, 43415.4472846326, 62595.143925564764, -30103.731763807747, -19248.830586532426, -21856.295687710728, -3572.65813024737, -187500.02235174447, -2373.621150686878, 15428.358665509066, -23075.113961114166, -187500.02235174447, 3491.9683327637117, -2045.3634316162386, -6667.815943696016, 3132.8652063447485, -23872.154816645958, -0.002, 0.926, 0.39, 192.0, 0.0, 0.0, 0.0, 0.0, 0.0, 0.0, 0.0, 0.0, 0.0, 1.695771079613019E9, 0.0, 2023-09-26 18:31:19.613
38.0, 43400.80689201438, 62662.86971126434, -30118.57332212607, -19266.644926863304, -21877.775714132276, -3584.593961786504, -187500.02235174447, -2355.5385894225346, 15404.799926853173, -23086.021612408356, -187500.02235174447, 3498.7856148225806, -2091.9444670610987, -6685.764394493627, 3160.6037212137844, -23874.76997074723, -0.012, 0.932, 0.394, 192.0, 127.5, 80.0, 14.5, 16.0, 6.0, 40.0, 0.0, 0.0, 0.0, 1.695771079613022E9, 0.0, 2023-09-26 18:31:19.613
40.0, 43414.195586943104, 62599.45781224463, -30093.069981702567, -19234.503118336575, -21841.297667181214, -3560.699946963781, -187500.02235174447, -2365.395708727325, 15417.115738048047, -23070.71066745647, -187500.02235174447, 3493.443547897762, -2067.6257690937246, -6667.637129740373, 3142.3423459937985, -23870.299621856168, -0.012, 0.932, 0.394, 192.0, 0.0, 0.0, 0.0, 0.0, 0.0, 0.0, 0.0, 0.0, 0.0, 1.695771079613025E9, 0.0, 2023-09-26 18:31:19.613
42.0, 43410.37343864125, 62661.39449613029, -30102.077734718056, -19247.33301965392, -21854.775769087766, -3568.9924441567, -187500.02235174447, -2334.595004867912, 15426.078787574625, -23064.675696453538, -187500.02235174447, 3513.1354347628876, -2065.7035190705683, -6668.642958240862, 3175.8699626767593, -23859.749598473263, -0.012, 0.932, 0.394, 192.0, 0.0, 0.0, 0.0, 0.0, 0.0, 0.0, 0.0, 0.0, 0.0, 1.695771079613029E9, 0.0, 2023-09-26 18:31:19.613
44.0, 43431.83111331834, 62596.417974998716, -30084.442208342818, -19227.462318833153, -21840.04596949172, -3553.502685249172, -187500.02235174447, -2349.9283015642527, 15437.09819759109, -23042.65922816506, -187500.02235174447, 3517.0022865536557, -2025.3139168398282, -6647.989946364159, 3166.5716369833517, -23853.28994432568, -0.012, 0.932, 0.394, 192.0, 0.0, 0.0, 0.0, 0.0, 0.0, 0.0, 0.0, 0.0, 0.0, 1.695771079613032E9, 0.0, 2023-09-26 18:31:19.613
46.0, 43407.713581051066, 62658.198196673184, -30096.467446859773, -19257.592470358904, -21866.398676204524, -3572.8369442030125, -187500.02235174447, -2335.6678886017667, 15421.831956128117, -23057.47843473893, -187500.02235174447, 3513.9177458188233, -2078.6675308546464, -6669.157048363334, 3167.041023616913, -23867.10332239906, -0.012, 0.932, 0.394, 192.0, 0.0, 0.0, 0.0, 0.0, 0.0, 0.0, 0.0, 0.0, 0.0, 1.695771079672807E9, 0.0, 2023-09-26 18:31:19.672
48.0, 43430.95939528458, 62625.832870701895, -30069.48889130222, -19228.222278144633, -21841.677646836957, -3552.7203741932362, -187500.02235174447, -2363.272293004071, 15423.262467773257, -23050.303524768773, -187500.02235174447, 3522.992554067678, -2075.6276936087243, -6662.69739421575, 3158.8826368907257, -23871.26074686775, -0.018000000000000002, 0.924, 0.404, 192.0, 127.5, 56.0, 14.0, 112.0, 6.0, 80.0, 0.0, 0.0, 0.0, 1.695771079672828E9, 0.0, 2023-09-26 18:31:19.672
50.0, 43428.56775862787, 62651.38091461432, -30072.349914592498, -19234.436063103207, -21847.444396906423, -3546.528940979116, -187500.02235174447, -2327.397743153303, 15445.368343039554, -23024.531963411806, -187500.02235174447, 3538.504664719661, -2060.249693423473, -6641.865568383404, 3163.0847648483236, -23855.413360048933, -0.018000000000000002, 0.924, 0.404, 192.0, 0.0, 0.0, 0.0, 0.0, 0.0, 0.0, 0.0, 0.0, 0.0, 1.695771079672832E9, 0.0, 2023-09-26 18:31:19.672
52.0, 43443.54342741292, 62617.316856064426, -30054.915553917355, -19211.056138402957, -21831.261733920783, -3533.0061355836556, -187500.02235174447, -2358.399612712814, 15449.838691930616, -23020.374538943117, -187500.02235174447, 3546.3501270234738, -2055.108792198753, -6637.775199148083, 3172.6736632196503, -23855.346304815568, -0.018000000000000002, 0.924, 0.404, 192.0, 0.0, 0.0, 0.0, 0.0, 0.0, 0.0, 0.0, 0.0, 0.0, 1.695771079672835E9, 0.0, 2023-09-26 18:31:19.672
54.0, 43443.74459311302, 62629.87853644831, -30067.656048256882, -19225.71888276564, -21840.582411358646, -3529.8545396154573, -187500.02235174447, -2318.9711354936526, 15457.572395512152, -22998.559236354737, -187500.02235174447, 3543.287938033097, -2053.4994665979702, -6616.876318082371, 3158.592064212807, -23835.967342372816, -0.018000000000000002, 0.924, 0.404, 192.0, 0.0, 0.0, 0.0, 0.0, 0.0, 0.0, 0.0, 0.0, 0.0, 1.695771079672838E9, 0.0, 2023-09-26 18:31:19.672
56.0, 43432.21109297408, 62636.62876327381, -30082.095275175012, -19231.105653179366, -21849.768978329776, -3545.8136851565464, -187500.02235174447, -2364.769859882577, 15430.884412632515, -23017.334701697197, -187500.02235174447, 3539.666955431337, -2059.5344376009034, -6638.1998822927335, 3177.300474321899, -23855.301601326657, -0.018000000000000002, 0.924, 0.404, 192.0, 0.0, 0.0, 0.0, 0.0, 0.0, 0.0, 0.0, 0.0, 0.0, 1.695771079672842E9, 0.0, 2023-09-26 18:31:19.672
58.0, 43437.37434594326, 62627.03986490249, -30070.76294073617, -19231.86561249085, -21856.27333596627, -3535.0401443290884, -187500.02235174447, -2331.7563333220883, 15441.680305204429, -23013.579608628705, -187500.02235174447, 3524.2889552460856, -2070.643254595191, -6630.488530455653, 3141.135351793212, -23855.234546093292, -0.022, 0.92, 0.41200000000000003, 192.0, 127.5, 40.0, 14.0, 96.0, 6.0, 112.0, 0.0, 0.0, 0.0, 1.695771079672845E9, 0.0, 2023-09-26 18:31:19.672
60.0, 43431.808761573884, 62639.71330400864, -30083.749304264704, -19229.451624089674, -21829.585353086633, -3544.1149525779433, -187500.02235174447, -2354.4880574331355, 15445.234232572822, -23022.94498955548, -187500.02235174447, 3534.3919437398845, -2057.7910015333896, -6638.892786370849, 3175.400576043198, -23853.111130370038, -0.022, 0.92, 0.41200000000000003, 192.0, 0.0, 0.0, 0.0, 0.0, 0.0, 0.0, 0.0, 0.0, 0.0, 1.695771079733729E9, 0.0, 2023-09-26 18:31:19.733
62.0, 43420.632889346234, 62633.946553939175, -30086.319754877062, -19244.024961474533, -21852.272373708773, -3555.4696387612394, -187500.02235174447, -2338.46185665868, 15436.897031890992, -23022.430899433006, -187500.02235174447, 3510.453225428251, -2060.339100401294, -6640.41270499381, 3139.0119360699578, -23859.6825432399, -0.022, 0.92, 0.41200000000000003, 192.0, 0.0, 0.0, 0.0, 0.0, 0.0, 0.0, 0.0, 0.0, 0.0, 1.69577107973374E9, 0.0, 2023-09-26 18:31:19.733
64.0, 43436.39086918722, 62644.94361221119, -30069.265373857663, -19219.70626350716, -21829.250076919805, -3546.9759758682226, -187500.02235174447, -2351.045888787018, 15434.81831965665, -23031.706873381958, -187500.02235174447, 3525.406542468851, -2074.6889203416017, -6648.302870786532, 3178.1274888667454, -23865.06931365363, -0.022, 0.92, 0.41200000000000003, 192.0, 0.0, 0.0, 0.0, 0.0, 0.0, 0.0, 0.0, 0.0, 0.0, 1.695771079733744E9, 0.0, 2023-09-26 18:31:19.733
66.0, 43426.33258418233, 62625.430539301706, -30079.614231540472, -19235.061911947956, -21842.28114393725, -3544.561987467049, -187500.02235174447, -2329.9681937656637, 15449.123436108046, -23020.486297665393, -187500.02235174447, 3511.9731440512114, -2046.972757217021, -6635.450617724731, 3145.493941961997, -23853.20053734786, -0.022, 0.92, 0.41200000000000003, 192.0, 0.0, 0.0, 0.0, 0.0, 0.0, 0.0, 0.0, 0.0, 0.0, 1.695771079733747E9, 0.0, 2023-09-26 18:31:19.733
68.0, 43436.726145354056, 62654.30899313796, -30074.42862682684, -19233.184365413712, -21837.69903632391, -3542.4832752327056, -187500.02235174447, -2337.567786880468, 15445.077770361635, -23026.32010296823, -187500.02235174447, 3525.8088738690467, -2062.7754405469227, -6644.100742828935, 3185.145936625712, -23854.13931061498, -0.018000000000000002, 0.914, 0.404, 192.0, 127.5, 56.0, 14.0, 72.0, 6.0, 80.0, 0.0, 0.0, 0.0, 1.69577107973375E9, 0.0, 2023-09-26 18:31:19.733
70.0, 43422.801008558396, 62622.18953635568, -30092.131208435443, -19254.351467412886, -21863.962336058896, -3552.452153259773, -187500.02235174447, -2347.1343335073393, 15446.932965151425, -23025.828364590212, -187500.02235174447, 3501.870155557413, -2053.0077282199536, -6639.69744917124, 3141.135351793212, -23862.4318078079, -0.018000000000000002, 0.914, 0.404, 192.0, 0.0, 0.0, 0.0, 0.0, 0.0, 0.0, 0.0, 0.0, 0.0, 1.695771079733753E9, 0.0, 2023-09-26 18:31:19.733
72.0, 43425.237348704024, 62673.82206604744, -30090.544234579116, -19251.065760977956, -21836.670856078967, -3557.011909128655, -187500.02235174447, -2345.234435228638, 15423.933020106915, -23048.783606145815, -187500.02235174447, 3511.995495795667, -2072.833725551811, -6667.391260551365, 3172.785421941927, -23873.92060445793, -0.018000000000000002, 0.914, 0.404, 192.0, 0.0, 0.0, 0.0, 0.0, 0.0, 0.0, 0.0, 0.0, 0.0, 1.695771079733756E9, 0.0, 2023-09-26 18:31:19.733
74.0, 43426.869026049266, 62624.581173012404, -30077.28965011712, -19247.8918132653, -21847.42204516197, -3552.5639119820494, -187500.02235174447, -2346.9331678072417, 15438.1934330694, -23034.90317283907, -187500.02235174447, 3498.092710744466, -2060.249693423473, -6645.352440518433, 3141.71649714905, -23866.09749389857, -0.018000000000000002, 0.914, 0.404, 192.0, 0.0, 0.0, 0.0, 0.0, 0.0, 0.0, 0.0, 0.0, 0.0, 1.695771079733759E9, 0.0, 2023-09-26 18:31:19.733
76.0, 43426.55610162689, 62684.26033070807, -30086.47621708825, -19259.648830848793, -21853.61347837609, -3567.316063322552, -187500.02235174447, -2344.295661961515, 15437.679342946929, -23041.720454897935, -187500.02235174447, 3515.862347586435, -2073.616036607747, -6658.987004636169, 3176.272294076955, -23874.993488191783, -0.018000000000000002, 0.914, 0.404, 192.0, 0.0, 0.0, 0.0, 0.0, 0.0, 0.0, 0.0, 0.0, 0.0, 1.695771079793122E9, 0.0, 2023-09-26 18:31:19.793
78.0, 43435.69796510911, 62624.938800923686, -30079.77069375166, -19256.363124413863, -21844.18104221595, -3563.51626676515, -187500.02235174447, -2367.8991041063196, 15448.251718074289, -23039.97701883042, -187500.02235174447, 3493.9576380202343, -2066.93286501561, -6656.617719723907, 3130.0265347989243, -23884.001241207272, -0.016, 0.92, 0.4, 192.0, 127.5, 64.0, 14.0, 96.0, 6.0, 64.0, 0.0, 0.0, 0.0, 1.695771079793137E9, 0.0, 2023-09-26 18:31:19.793
80.0, 43416.02842998844, 62689.244769721605, -30112.44894414532, -19272.970470544158, -21865.75047561532, -3579.8777437064346, -187500.02235174447, -2354.1974847552165, 15444.742494194807, -23046.682542167015, -187500.02235174447, 3512.7778068516027, -2050.839609007789, -6669.201751852245, 3161.296625291899, -23884.001241207272, -0.016, 0.92, 0.4, 192.0, 0.0, 0.0, 0.0, 0.0, 0.0, 0.0, 0.0, 0.0, 0.0, 1.695771079793142E9, 0.0, 2023-09-26 18:31:19.793
82.0, 43425.036183003926, 62641.97083019863, -30091.751228779704, -19249.81406328846, -21846.03623700574, -3564.6785574768255, -187500.02235174447, -2373.7329094091547, 15438.975744125337, -23051.398760247084, -187500.02235174447, 3490.8507455409463, -2055.220550921029, -6665.2231413392, 3113.5756508798186, -23889.030383709716, -0.016, 0.92, 0.4, 192.0, 0.0, 0.0, 0.0, 0.0, 0.0, 0.0, 0.0, 0.0, 0.0, 1.695771079793158E9, 0.0, 2023-09-26 18:31:19.793
84.0, 43415.246118932504, 62713.138784544324, -30092.757057280192, -19246.215432431156, -21860.207242990404, -3556.676632961826, -187500.02235174447, -2334.818522312465, 15427.15167130848, -23042.569821187237, -187500.02235174447, 3520.60091741096, -2096.146595018696, -6659.009356380625, 3164.649386960195, -23872.11011315705, -0.016, 0.92, 0.4, 192.0, 0.0, 0.0, 0.0, 0.0, 0.0, 0.0, 0.0, 0.0, 0.0, 1.695771079793161E9, 0.0, 2023-09-26 18:31:19.793
86.0, 43432.27814820745, 62653.8396065044, -30068.81833896856, -19219.28158036251, -21842.5046613818, -3536.9400426077896, -187500.02235174447, -2350.822371342465, 15430.146805065491, -23029.203478002964, -187500.02235174447, 3519.0362952990886, -2080.455670411071, -6635.74119040265, 3143.437581472109, -23856.91092692744, -0.016, 0.92, 0.4, 192.0, 0.0, 0.0, 0.0, 0.0, 0.0, 0.0, 0.0, 0.0, 0.0, 1.695771079793165E9, 0.0, 2023-09-26 18:31:19.793
88.0, 43428.679517350145, 62710.79185137652, -30078.742513506713, -19218.834545473404, -21842.45995789289, -3535.1071995624543, -187500.02235174447, -2311.5727080789457, 15449.324601808145, -23024.97899830091, -187500.02235174447, 3541.1421705653875, -2075.292417441895, -6634.109513057413, 3168.6503492176953, -23841.890554653473, -0.012, 0.928, 0.396, 192.0, 127.5, 80.0, 14.5, 0.0, 6.0, 48.0, 0.0, 0.0, 0.0, 1.695771079793168E9, 0.0, 2023-09-26 18:31:19.793
90.0, 43451.85827635029, 62644.18365289971, -30053.99913239469, -19190.470181759618, -21828.110137952583, -3510.2520597281527, -187500.02235174447, -2335.7349438351325, 15446.307116306678, -23012.797297572768, -187500.02235174447, 3543.7126211777477, -2041.2954141253729, -6616.228117493167, 3163.285930548421, -23835.81088016163, -0.012, 0.928, 0.396, 192.0, 0.0, 0.0, 0.0, 0.0, 0.0, 0.0, 0.0, 0.0, 0.0, 1.695771079853002E9, 0.0, 2023-09-26 18:31:19.853
92.0, 43431.76405808498, 62707.617903663864, -30078.51899606216, -19226.009455443556, -21847.17617597296, -3531.50856870515, -187500.02235174447, -2305.4259783537364, 15452.587956498619, -23005.242407946876, -187500.02235174447, 3559.18002834082, -2063.8483242807774, -6615.69167562624, 3183.491907536019, -23823.94210385586, -0.012, 0.928, 0.396, 192.0, 0.0, 0.0, 0.0, 0.0, 0.0, 0.0, 0.0, 0.0, 0.0, 1.695771079853012E9, 0.0, 2023-09-26 18:31:19.853
94.0, 43450.11484028278, 62655.404228616266, -30071.366437836463, -19204.618835999827, -21824.98089372884, -3525.6300599134042, -187500.02235174447, -2346.2849672180378, 15442.753188938284, -23016.395928430073, -187500.02235174447, 3542.8185513995354, -2048.4032688621605, -6626.8675478538935, 3171.064337618868, -23846.226793077803, -0.012, 0.928, 0.396, 192.0, 0.0, 0.0, 0.0, 0.0, 0.0, 0.0, 0.0, 0.0, 0.0, 1.695771079853016E9, 0.0, 2023-09-26 18:31:19.853
96.0, 43443.74459311302, 62691.39053718931, -30061.41991155385, -19227.238801388597, -21839.62128634707, -3533.6543361728595, -187500.02235174447, -2301.626181796334, 15457.661802489973, -22993.530093852296, -187500.02235174447, 3554.933196894312, -2049.386745618194, -6611.780120346561, 3171.3549102967872, -23832.972208615807, -0.012, 0.928, 0.396, 192.0, 0.0, 0.0, 0.0, 0.0, 0.0, 0.0, 0.0, 0.0, 0.0, 1.695771079853019E9, 0.0, 2023-09-26 18:31:19.853
98.0, 43445.108049524795, 62667.7423915556, -30065.867908700457, -19224.578943798417, -21834.122757211062, -3542.371516510429, -187500.02235174447, -2354.041022544029, 15439.020447614248, -23018.496992408873, -187500.02235174447, 3543.0644205885437, -2076.6558738536687, -6635.987059591658, 3185.145936625712, -23855.592174004578, -0.014, 0.926, 0.4, 192.0, 127.5, 72.0, 14.0, 120.0, 6.0, 64.0, 0.0, 0.0, 0.0, 1.695771079853022E9, 0.0, 2023-09-26 18:31:19.853
100.0, 43450.53952342743, 62675.945481770694, -30069.019504668657, -19229.205754900668, -21836.670856078967, -3531.7767896386135, -187500.02235174447, -2308.6893330442113, 15448.363476796565, -23005.22005620242, -187500.02235174447, 3541.5445019655826, -2029.739562241979, -6623.73830363015, 3155.2840060334215, -23848.57372624561, -0.014, 0.926, 0.4, 192.0, 0.0, 0.0, 0.0, 0.0, 0.0, 0.0, 0.0, 0.0, 0.0, 1.695771079853025E9, 0.0, 2023-09-26 18:31:19.853
102.0, 43446.359747214294, 62669.038792734005, -30073.311039604076, -19232.223240402134, -21850.93126904145, -3547.1994933127758, -187500.02235174447, -2351.6046823984007, 15443.915479649959, -23004.728317824403, -187500.02235174447, 3551.379269525918, -2069.100984227775, -6628.052190310024, 3181.301436579399, -23852.418226291924, -0.014, 0.926, 0.4, 192.0, 0.0, 0.0, 0.0, 0.0, 0.0, 0.0, 0.0, 0.0, 0.0, 1.695771079853028E9, 0.0, 2023-09-26 18:31:19.853
104.0, 43436.97201454306, 62686.54020864251, -30089.940737478824, -19243.287353907508, -21845.23157420535, -3552.2286358152196, -187500.02235174447, -2334.729115334644, 15435.779444668227, -23019.256951720352, -187500.02235174447, 3526.5241296916165, -2074.375995919227, -6640.233891038167, 3141.6717936601394, -23868.422075321923, -0.014, 0.926, 0.4, 192.0, 0.0, 0.0, 0.0, 0.0, 0.0, 0.0, 0.0, 0.0, 0.0, 1.695771079853032E9, 0.0, 2023-09-26 18:31:19.853
106.0, 43448.93019782665, 62678.98531901662, -30080.307135618586, -19224.80246124297, -21832.8040042882, -3543.600862455471, -187500.02235174447, -2345.8155805844763, 15436.740569679807, -23010.919751038524, -187500.02235174447, 3542.8185513995354, -2062.350757402272, -6629.192129277245, 3177.00990164398, -23854.184014103892, -0.014, 0.926, 0.4, 192.0, 0.0, 0.0, 0.0, 0.0, 0.0, 0.0, 0.0, 0.0, 0.0, 1.695771079913211E9, 0.0, 2023-09-26 18:31:19.913
108.0, 43437.37434594326, 62671.341022412904, -30089.024315956154, -19233.810214258458, -21846.304457939204, -3541.0080600986553, -187500.02235174447, -2319.4181703827585, 15439.646296458995, -23006.382346914095, -187500.02235174447, 3532.2685280166306, -2032.6899925100795, -6622.955992574214, 3145.5833489398183, -23851.121825113514, -0.012, 0.918, 0.394, 192.0, 127.5, 80.0, 14.0, 88.0, 6.0, 40.0, 0.0, 0.0, 0.0, 1.695771079913219E9, 0.0, 2023-09-26 18:31:19.913
110.0, 43427.91955803866, 62695.43620293572, -30091.86298750198, -19234.503118336575, -21852.406484175503, -3552.8991881488787, -187500.02235174447, -2344.8097520839874, 15431.331447521621, -23024.062576778244, -187500.02235174447, 3539.666955431337, -2072.4313941516157, -6638.736324159661, 3183.9612941695805, -23852.887612925486, -0.012, 0.918, 0.394, 192.0, 0.0, 0.0, 0.0, 0.0, 0.0, 0.0, 0.0, 0.0, 0.0, 1.695771079913223E9, 0.0, 2023-09-26 18:31:19.913
112.0, 43431.11585749577, 62675.744316070595, -30089.024315956154, -19239.308743394464, -21863.60470814761, -3549.2335020582086, -187500.02235174447, -2340.026478770552, 15435.824148157139, -23027.191821001987, -187500.02235174447, 3511.4590539287396, -2080.7238913445344, -6641.0162020941025, 3132.5299301779187, -23861.53773802969, -0.012, 0.918, 0.394, 192.0, 0.0, 0.0, 0.0, 0.0, 0.0, 0.0, 0.0, 0.0, 0.0, 1.695771079913226E9, 0.0, 2023-09-26 18:31:19.913
114.0, 43438.08960176582, 62703.7510518731, -30088.71139153378, -19234.927801481226, -21835.575620600655, -3547.5571212240607, -187500.02235174447, -2341.1887694822276, 15433.745435922794, -23028.667036136037, -187500.02235174447, 3533.989612339689, -2071.9173040291435, -6643.161969561812, 3184.877715692248, -23855.525118771213, -0.012, 0.918, 0.394, 192.0, 0.0, 0.0, 0.0, 0.0, 0.0, 0.0, 0.0, 0.0, 0.0, 1.695771079913229E9, 0.0, 2023-09-26 18:31:19.913
116.0, 43420.25290969049, 62686.2943394535, -30111.733688322747, -19265.661450107273, -21868.343277972137, -3567.1596011113647, -187500.02235174447, -2341.8146183269764, 15433.320752778143, -23029.717568125438, -187500.02235174447, 3511.2131847397313, -2058.4615538670487, -6641.105609071924, 3139.503674447975, -23863.348229330568, -0.012, 0.918, 0.394, 192.0, 0.0, 0.0, 0.0, 0.0, 0.0, 0.0, 0.0, 0.0, 0.0, 1.695771079913232E9, 0.0, 2023-09-26 18:31:19.913
118.0, 43414.30734566538, 62739.84911916842, -30103.32943240755, -19264.879139051336, -21868.94677507243, -3574.7815459706244, -187500.02235174447, -2357.684356890244, 15413.204182768368, -23065.346248787195, -187500.02235174447, 3503.5241846471054, -2087.8317460813223, -6679.327092090499, 3164.5376282379184, -23889.388011621002, -0.012, 0.926, 0.396, 192.0, 127.5, 80.0, 14.0, 120.0, 6.0, 48.0, 0.0, 0.0, 0.0, 1.695771079913235E9, 0.0, 2023-09-26 18:31:19.913
120.0, 43429.59593887281, 62679.946444028195, -30078.027257684145, -19243.37676088533, -21851.914745797487, -3551.89335964839, -187500.02235174447, -2346.262615473582, 15432.560793466664, -23036.89247809559, -187500.02235174447, 3497.9362485332786, -2057.3439666442832, -6648.45933299772, 3120.594098638785, -23872.11011315705, -0.012, 0.926, 0.396, 192.0, 0.0, 0.0, 0.0, 0.0, 0.0, 0.0, 0.0, 0.0, 0.0, 1.695771079973427E9, 0.0, 2023-09-26 18:31:19.973
122.0, 43434.42391567516, 62717.74324390212, -30079.368362351463, -19234.883097992315, -21849.4560539074, -3547.8476939019793, -187500.02235174447, -2334.79617056801, 15442.999058127292, -23027.616504146637, -187500.02235174447, 3535.822455385024, -2065.256484181462, -6644.905405629326, 3168.806811428882, -23854.20636584835, -0.012, 0.926, 0.396, 192.0, 0.0, 0.0, 0.0, 0.0, 0.0, 0.0, 0.0, 0.0, 0.0, 1.695771079973463E9, 0.0, 2023-09-26 18:31:19.973
124.0, 43430.66882260666, 62666.35658339937, -30088.33141187804, -19240.001647472578, -21875.249967008825, -3552.4968567486835, -187500.02235174447, -2352.074069031962, 15443.222575571845, -23018.40758543105, -187500.02235174447, 3522.0314290560996, -2061.0990597127748, -6634.489492713153, 3135.6368226572067, -23855.56982226012, -0.012, 0.926, 0.396, 192.0, 0.0, 0.0, 0.0, 0.0, 0.0, 0.0, 0.0, 0.0, 0.0, 1.695771079973467E9, 0.0, 2023-09-26 18:31:19.973
126.0, 43430.557063884386, 62736.94339238923, -30084.397504853907, -19242.885022507315, -21842.057626492697, -3561.3928510418955, -187500.02235174447, -2337.7018973472, 15438.171081324946, -23036.55720192876, -187500.02235174447, 3531.8438448719794, -2071.358510417761, -6657.534141246574, 3169.4103085291754, -23863.81761596413, -0.012, 0.926, 0.396, 192.0, 0.0, 0.0, 0.0, 0.0, 0.0, 0.0, 0.0, 0.0, 0.0, 1.69577107997347E9, 0.0, 2023-09-26 18:31:19.973
128.0, 43449.287825737934, 62664.903720009774, -30060.101158630987, -19210.27382734702, -21826.523164096256, -3532.246176272175, -187500.02235174447, -2339.534740392535, 15450.844520431105, -23023.61554188914, -187500.02235174447, 3526.5688331805272, -2040.289585624884, -6637.328164258977, 3140.3306889928213, -23850.406569290946, -0.022, 0.928, 0.392, 192.0, 127.5, 40.0, 14.5, 0.0, 6.0, 32.0, 0.0, 0.0, 0.0, 1.695771079973474E9, 0.0, 2023-09-26 18:31:19.973
130.0, 43448.28199723745, 62722.88414512684, -30061.46461504276, -19210.340882580385, -21837.98960900183, -3534.526054206616, -187500.02235174447, -2307.3929318658033, 15453.146750110001, -23011.567951627727, -187500.02235174447, 3562.9127696648566, -2045.318728127328, -6628.946260088237, 3191.560887284385, -23823.204496288836, -0.022, 0.928, 0.392, 192.0, 0.0, 0.0, 0.0, 0.0, 0.0, 0.0, 0.0, 0.0, 0.0, 1.695771079973479E9, 0.0, 2023-09-26 18:31:19.973
132.0, 43446.02447104746, 62668.36824040035, -30067.499586045695, -19205.289388333487, -21836.6038008456, -3532.6485076723707, -187500.02235174447, -2332.762161822577, 15457.974726912347, -23006.002367258356, -187500.02235174447, 3553.860313160457, -2049.923187485121, -6618.485643683153, 3167.7339276950274, -23821.930446854883, -0.022, 0.928, 0.392, 192.0, 0.0, 0.0, 0.0, 0.0, 0.0, 0.0, 0.0, 0.0, 0.0, 1.695771079973484E9, 0.0, 2023-09-26 18:31:19.973
134.0, 43427.22665396055, 62749.61683149539, -30093.874644502957, -19239.174632927734, -21872.925385585473, -3554.7543829386696, -187500.02235174447, -2319.2617081715716, 15429.744473665294, -23033.115033282644, -187500.02235174447, 3549.4570195027613, -2064.921208014632, -6647.833484152971, 3182.6648929911726, -23843.72339769881, -0.022, 0.928, 0.392, 192.0, 0.0, 0.0, 0.0, 0.0, 0.0, 0.0, 0.0, 0.0, 0.0, 1.695771079973489E9, 0.0, 2023-09-26 18:31:19.973
136.0, 43434.58037788634, 62697.38080470334, -30092.600595069005, -19233.27377239153, -21854.395789432027, -3548.9652811247447, -187500.02235174447, -2350.375336453359, 15441.412084270965, -23025.537791912295, -187500.02235174447, 3529.474559959717, -2071.2243999510288, -6640.300946271533, 3151.9312443651256, -23855.61452574903, -0.022, 0.928, 0.392, 192.0, 0.0, 0.0, 0.0, 0.0, 0.0, 0.0, 0.0, 0.0, 0.0, 1.69577108003376E9, 0.0, 2023-09-26 18:31:20.033
138.0, 43443.498723924014, 62743.80537793701, -30084.822187998558, -19235.687760792705, -21839.934210769443, -3543.086772332999, -187500.02235174447, -2312.3550191348813, 15435.555927223675, -23020.531001154304, -187500.02235174447, 3534.3472402509738, -2058.036870722398, -6637.484626470164, 3156.692165934106, -23851.52415651371, -0.016, 0.924, 0.394, 192.0, 127.5, 64.0, 14.0, 112.0, 6.0, 40.0, 0.0, 0.0, 0.0, 1.695771080033771E9, 0.0, 2023-09-26 18:31:20.033
140.0, 43459.48022120955, 62681.15343822879, -30068.170138379355, -19212.106670392357, -21828.735986797332, -3534.3248885065186, -187500.02235174447, -2340.2276444706495, 15455.784255955728, -23012.484373150393, -187500.02235174447, 3536.761228652147, -2043.3741263597165, -6624.610021663907, 3156.4462967450972, -23843.790452932175, -0.016, 0.924, 0.394, 192.0, 0.0, 0.0, 0.0, 0.0, 0.0, 0.0, 0.0, 0.0, 0.0, 1.695771080033775E9, 0.0, 2023-09-26 18:31:20.033
142.0, 43432.32285169636, 62744.43122678176, -30102.658880073894, -19249.635249332816, -21868.94677507243, -3560.9905196417, -187500.02235174447, -2315.8195395254543, 15443.043761616203, -23015.36774818513, -187500.02235174447, 3544.696097933781, -2042.2788908814064, -6631.427303722776, 3163.0177096149578, -23840.840022664073, -0.016, 0.924, 0.394, 192.0, 0.0, 0.0, 0.0, 0.0, 0.0, 0.0, 0.0, 0.0, 0.0, 1.695771080033778E9, 0.0, 2023-09-26 18:31:20.033
144.0, 43442.8058198459, 62719.374921247356, -30087.057362444088, -19236.313609637455, -21852.89822255352, -3558.0400893735996, -187500.02235174447, -2358.5113714350905, 15422.122528806036, -23033.942047827488, -187500.02235174447, 3529.7204291487255, -2091.899763572188, -6648.638146953363, 3159.039099101913, -23864.354057831057, -0.016, 0.924, 0.394, 192.0, 0.0, 0.0, 0.0, 0.0, 0.0, 0.0, 0.0, 0.0, 0.0, 1.695771080033782E9, 0.0, 2023-09-26 18:31:20.033
146.0, 43448.43845944863, 62740.1620435908, -30094.433438114338, -19245.25430741958, -21865.28108898176, -3552.8097811710577, -187500.02235174447, -2322.502711117591, 15446.038895373214, -23022.94498955548, -187500.02235174447, 3529.765132637636, -2051.778382274912, -6637.93166135927, 3149.0478693303908, -23853.24524083677, -0.016, 0.924, 0.394, 192.0, 0.0, 0.0, 0.0, 0.0, 0.0, 0.0, 0.0, 0.0, 0.0, 1.695771080033785E9, 0.0, 2023-09-26 18:31:20.033
148.0, 43454.62989266276, 62717.2515055241, -30084.777484509646, -19229.585734556407, -21838.97308575786, -3551.088696847999, -187500.02235174447, -2349.8388945864317, 15418.590953182096, -23035.41726296154, -187500.02235174447, 3531.8214931275243, -2070.6209028507355, -6647.02882135258, 3170.1926195851115, -23860.554261273654, -0.012, 0.924, 0.406, 192.0, 127.5, 80.0, 14.0, 112.0, 6.0, 88.0, 0.0, 0.0, 0.0, 1.695771080033789E9, 0.0, 2023-09-26 18:31:20.033
150.0, 43449.53369492694, 62735.870508655375, -30104.96110975279, -19242.95207774068, -21872.835978607654, -3554.352051538474, -187500.02235174447, -2317.987658737619, 15438.1934330694, -23024.286094222796, -187500.02235174447, 3532.1120658054433, -2060.5626178458474, -6636.9034811143265, 3151.6630234316617, -23854.4298832929, -0.012, 0.924, 0.406, 192.0, 0.0, 0.0, 0.0, 0.0, 0.0, 0.0, 0.0, 0.0, 0.0, 1.695771080093153E9, 0.0, 2023-09-26 18:31:20.093
152.0, 43450.80774436089, 62724.42641549426, -30092.377077624453, -19231.70915027966, -21847.42204516197, -3557.213074828753, -187500.02235174447, -2354.041022544029, 15435.466520245853, -23033.137385027097, -187500.02235174447, 3537.3647257524403, -2052.3595276307497, -6645.911234129815, 3165.074070104846, -23860.35309557356, -0.012, 0.924, 0.406, 192.0, 0.0, 0.0, 0.0, 0.0, 0.0, 0.0, 0.0, 0.0, 0.0, 1.695771080093163E9, 0.0, 2023-09-26 18:31:20.093
154.0, 43449.06430829338, 62713.80933687799, -30084.598670554005, -19231.351522368375, -21849.90308879651, -3546.1713130678313, -187500.02235174447, -2320.491054116613, 15430.795005654694, -23027.437690190996, -187500.02235174447, 3530.1451122933763, -2071.2020482065736, -6637.0822950699685, 3142.9234913496366, -23855.838043193584, -0.012, 0.924, 0.406, 192.0, 0.0, 0.0, 0.0, 0.0, 0.0, 0.0, 0.0, 0.0, 0.0, 1.695771080093167E9, 0.0, 2023-09-26 18:31:20.093
156.0, 43452.5064769395, 62715.12808980085, -30087.32558337755, -19230.323342123433, -21839.531879369246, -3551.6921939482922, -187500.02235174447, -2344.854455572898, 15435.86885164605, -23026.90124832407, -187500.02235174447, 3545.7913334120913, -2056.8969317551773, -6638.915138115303, 3181.0332156459353, -23849.87012742402, -0.012, 0.924, 0.406, 192.0, 0.0, 0.0, 0.0, 0.0, 0.0, 0.0, 0.0, 0.0, 0.0, 1.69577108009317E9, 0.0, 2023-09-26 18:31:20.093
158.0, 43445.06334603588, 62695.90558956929, -30088.487874089227, -19240.158109683765, -21849.791330074233, -3552.5862637265045, -187500.02235174447, -2326.8389495419206, 15442.619078471553, -23020.486297665393, -187500.02235174447, 3533.6766879173147, -2050.0349462073978, -6630.890861855849, 3146.2091977845666, -23848.417264034422, -0.012, 0.924, 0.4, 192.0, 127.5, 80.0, 14.0, 112.0, 6.0, 64.0, 0.0, 0.0, 0.0, 1.695771080093173E9, 0.0, 2023-09-26 18:31:20.093
160.0, 43452.19355251713, 62705.6509501518, -30078.697810017802, -19222.85785947536, -21834.32392291116, -3540.359859509452, -187500.02235174447, -2332.9409757782196, 15438.841633658605, -23028.55527741376, -187500.02235174447, 3547.579472968516, -2046.5257223279148, -6639.74215266015, 3183.804831958393, -23848.752540201254, -0.012, 0.924, 0.4, 192.0, 0.0, 0.0, 0.0, 0.0, 0.0, 0.0, 0.0, 0.0, 0.0, 1.695771080093176E9, 0.0, 2023-09-26 18:31:20.093
162.0, 43433.3510319413, 62688.21658947666, -30098.993193983224, -19240.918068995248, -21850.819510319176, -3547.087734590499, -187500.02235174447, -2323.2626704290715, 15432.449034744388, -23024.42020468953, -187500.02235174447, 3529.631022170904, -2063.4012893916715, -6628.700390899228, 3157.407421756676, -23838.895420896464, -0.012, 0.924, 0.4, 192.0, 0.0, 0.0, 0.0, 0.0, 0.0, 0.0, 0.0, 0.0, 0.0, 1.695771080093179E9, 0.0, 2023-09-26 18:31:20.093
164.0, 43437.70962211009, 62726.013389350584, -30089.404295611897, -19238.101749193876, -21847.66791435098, -3552.0051183706664, -187500.02235174447, -2337.1654554802726, 15427.464595730853, -23044.827347377224, -187500.02235174447, 3534.4589989732503, -2053.5665218313366, -6650.918024887804, 3182.530782524441, -23851.747673958263, -0.012, 0.924, 0.4, 192.0, 0.0, 0.0, 0.0, 0.0, 0.0, 0.0, 0.0, 0.0, 0.0, 1.695771080093183E9, 0.0, 2023-09-26 18:31:20.093
166.0, 43435.85442732029, 62689.736508099624, -30092.175911924354, -19243.846147518892, -21852.540594642236, -3549.9711096252336, -187500.02235174447, -2328.0012402535963, 15433.097235333591, -23027.303579724263, -187500.02235174447, 3520.3103447330413, -2052.292472397384, -6635.785893891561, 3151.260692031466, -23842.181127331394, -0.012, 0.924, 0.4, 192.0, 0.0, 0.0, 0.0, 0.0, 0.0, 0.0, 0.0, 0.0, 0.0, 1.695771080152903E9, 0.0, 2023-09-26 18:31:20.152
168.0, 43438.33547095484, 62740.51967150208, -30097.987365482735, -19239.755778283572, -21856.809777833198, -3553.346223037985, -187500.02235174447, -2324.335554162926, 15416.66870315894, -23036.69131239549, -187500.02235174447, 3535.6212896849265, -2081.3273884448276, -6649.845141153949, 3193.684303007639, -23846.629124478, -0.016, 0.928, 0.388, 192.0, 127.5, 64.0, 14.5, 0.0, 6.0, 16.0, 0.0, 0.0, 0.0, 1.695771080152911E9, 0.0, 2023-09-26 18:31:20.152
170.0, 43438.4025261882, 62693.40219419029, -30108.939720265833, -19234.27960089202, -21848.51728064028, -3547.378307268418, -187500.02235174447, -2332.560996122479, 15432.381979511021, -23030.343416970187, -187500.02235174447, 3516.6223068979157, -2033.517007054926, -6635.584728191463, 3148.980814097025, -23847.14321460047, -0.016, 0.928, 0.388, 192.0, 0.0, 0.0, 0.0, 0.0, 0.0, 0.0, 0.0, 0.0, 0.0, 1.695771080152915E9, 0.0, 2023-09-26 18:31:20.152
172.0, 43440.1012587668, 62752.34374431894, -30097.517978849173, -19234.838394503404, -21867.203339004915, -3555.0673073610437, -187500.02235174447, -2332.9633275226747, 15423.843613129095, -23032.936219327, -187500.02235174447, 3536.895339118879, -2091.2068594940733, -6642.804341650527, 3190.4880035505303, -23843.745749443264, -0.016, 0.928, 0.388, 192.0, 0.0, 0.0, 0.0, 0.0, 0.0, 0.0, 0.0, 0.0, 0.0, 1.695771080152918E9, 0.0, 2023-09-26 18:31:20.152
174.0, 43454.115802540284, 62679.946444028195, -30087.794970011113, -19215.928818694214, -21828.601876330602, -3537.387077496896, -187500.02235174447, -2322.525062862046, 15430.392674254499, -23028.108242524653, -187500.02235174447, 3522.836091856491, -2057.3439666442832, -6629.2144810217005, 3151.1489333091895, -23841.44351976437, -0.016, 0.928, 0.388, 192.0, 0.0, 0.0, 0.0, 0.0, 0.0, 0.0, 0.0, 0.0, 0.0, 1.695771080152921E9, 0.0, 2023-09-26 18:31:20.152
176.0, 43446.69502338112, 62732.69656094272, -30093.204092169297, -19220.980312941112, -21849.210184718395, -3544.0031938556667, -187500.02235174447, -2306.543565576502, 15439.221613314345, -23023.257913977854, -187500.02235174447, 3548.7194119357364, -2035.5733675448141, -6633.260146768111, 3187.783442471438, -23831.80991790413, -0.016, 0.928, 0.388, 192.0, 0.0, 0.0, 0.0, 0.0, 0.0, 0.0, 0.0, 0.0, 0.0, 1.695771080152924E9, 0.0, 2023-09-26 18:31:20.152
178.0, 43457.31210199739, 62671.609243346364, -30090.164254923377, -19209.402109313265, -21839.487175880335, -3536.0683245740324, -187500.02235174447, -2326.436618141725, 15439.109854592069, -23011.590303372184, -187500.02235174447, 3543.3549932664628, -2048.4926758399815, -6616.585745404452, 3171.5337242524297, -23826.959589357328, -0.01, 0.92, 0.398, 192.0, 127.5, 88.0, 14.0, 96.0, 6.0, 56.0, 0.0, 0.0, 0.0, 1.695771080152928E9, 0.0, 2023-09-26 18:31:20.152
180.0, 43451.41124146119, 62739.22327032367, -30096.176874181852, -19226.09886242138, -21856.250984221817, -3548.3170805355408, -187500.02235174447, -2312.8691092573536, 15443.647258716495, -23017.669977864025, -187500.02235174447, 3558.934159151812, -2056.3381381437944, -6633.058981068013, 3189.5715820278624, -23832.48047023779, -0.01, 0.92, 0.398, 192.0, 0.0, 0.0, 0.0, 0.0, 0.0, 0.0, 0.0, 0.0, 0.0, 1.695771080213167E9, 0.0, 2023-09-26 18:31:20.213
182.0, 43451.61240716129, 62683.88035105233, -30099.14965619441, -19224.064853675944, -21861.66010638, -3550.529903236616, -187500.02235174447, -2344.340365450426, 15439.109854592069, -23019.771041842825, -187500.02235174447, 3544.4502287447726, -2057.8580567667555, -6630.197957777734, 3166.146953838701, -23840.61650521952, -0.01, 0.92, 0.398, 192.0, 0.0, 0.0, 0.0, 0.0, 0.0, 0.0, 0.0, 0.0, 0.0, 1.695771080213179E9, 0.0, 2023-09-26 18:31:20.213
184.0, 43454.69694789612, 62731.22134580867, -30080.664763529872, -19228.80342350047, -21852.13826324204, -3546.7077549347587, -187500.02235174447, -2308.3093533884708, 15439.042799358702, -23020.978036043412, -187500.02235174447, 3551.3345660370073, -2071.716138329046, -6633.684829912762, 3180.787346456927, -23838.15781332944, -0.01, 0.92, 0.398, 192.0, 0.0, 0.0, 0.0, 0.0, 0.0, 0.0, 0.0, 0.0, 0.0, 1.695771080213183E9, 0.0, 2023-09-26 18:31:20.213
186.0, 43455.76983162997, 62679.20883646117, -30085.269222887662, -19223.99779844258, -21825.562039084678, -3548.6523567023705, -187500.02235174447, -2346.553188151501, 15417.160441536957, -23018.65345462006, -187500.02235174447, 3538.0352780860994, -2057.992167233487, -6634.780065391072, 3180.7426429680163, -23847.679656467397, -0.01, 0.92, 0.398, 192.0, 0.0, 0.0, 0.0, 0.0, 0.0, 0.0, 0.0, 0.0, 0.0, 1.695771080213186E9, 0.0, 2023-09-26 18:31:20.213
188.0, 43453.02056706197, 62716.24567702362, -30098.210882927287, -19230.502156079074, -21846.59503061712, -3548.205321813264, -187500.02235174447, -2303.727245775133, 15442.172043582446, -23013.423146417517, -187500.02235174447, 3547.2665485461416, -2030.9242046981103, -6630.0414955665465, 3185.145936625712, -23839.20834531884, -0.008, 0.92, 0.40800000000000003, 192.0, 127.5, 96.0, 14.0, 96.0, 6.0, 96.0, 0.0, 0.0, 0.0, 1.69577108021319E9, 0.0, 2023-09-26 18:31:20.213
190.0, 43465.49284046803, 62674.73848757011, -30074.898013460403, -19207.010472656548, -21834.07805372215, -3536.0012693406666, -187500.02235174447, -2326.5260251195464, 15430.862060888061, -23020.955684298955, -187500.02235174447, 3547.1324380794094, -2057.478077111015, -6632.544890945541, 3182.687244735628, -23841.532926742188, -0.008, 0.92, 0.40800000000000003, 192.0, 0.0, 0.0, 0.0, 0.0, 0.0, 0.0, 0.0, 0.0, 0.0, 1.695771080213193E9, 0.0, 2023-09-26 18:31:20.213
192.0, 43458.96613108709, 62713.94344734472, -30099.596691083516, -19222.880211219814, -21848.18200447345, -3540.091638575988, -187500.02235174447, -2295.144175904295, 15448.989325641314, -23005.041242246778, -187500.02235174447, 3556.967205639745, -2060.964949246043, -6619.156196016812, 3185.525916281452, -23826.020816090208, -0.008, 0.92, 0.40800000000000003, 192.0, 0.0, 0.0, 0.0, 0.0, 0.0, 0.0, 0.0, 0.0, 0.0, 1.695771080213197E9, 0.0, 2023-09-26 18:31:20.213
194.0, 43465.53754395695, 62670.44695263469, -30079.413065840374, -19207.099879634367, -21834.74860605581, -3537.118856563432, -187500.02235174447, -2335.17615022375, 15434.52774697873, -23015.948893540968, -187500.02235174447, 3541.8127228990465, -2045.0058037049537, -6625.4593879532085, 3183.8271837028487, -23834.71564468332, -0.008, 0.92, 0.40800000000000003, 192.0, 0.0, 0.0, 0.0, 0.0, 0.0, 0.0, 0.0, 0.0, 0.0, 1.6957710802132E9, 0.0, 2023-09-26 18:31:20.213
196.0, 43457.893247353226, 62690.96585404466, -30104.983461497246, -19220.689740263195, -21848.249059706817, -3539.152865308865, -187500.02235174447, -2296.462928827158, 15443.826072672138, -23014.02664351781, -187500.02235174447, 3538.6611269308482, -2045.1175624272303, -6620.027914050569, 3173.143049853212, -23830.15588881444, -0.008, 0.92, 0.40800000000000003, 192.0, 0.0, 0.0, 0.0, 0.0, 0.0, 0.0, 0.0, 0.0, 0.0, 1.695771080273389E9, 0.0, 2023-09-26 18:31:20.273
198.0, 43453.60171241781, 62679.63351960582, -30098.970842238767, -19210.385586069297, -21848.137300984537, -3540.896301376379, -187500.02235174447, -2325.9448797637083, 15425.67645617443, -23025.090757023187, -187500.02235174447, 3538.772885653125, -2070.0174057504423, -6627.739265887651, 3184.073052891857, -23835.76617667272, -0.012, 0.922, 0.398, 192.0, 127.5, 80.0, 14.0, 104.0, 6.0, 56.0, 0.0, 0.0, 0.0, 1.695771080273398E9, 0.0, 2023-09-26 18:31:20.273
200.0, 43431.6522993627, 62709.33898798693, -30126.61995012998, -19238.66054280526, -21879.809722877708, -3558.867103918446, -187500.02235174447, -2306.767083021055, 15411.974836823325, -23035.0372833058, -187500.02235174447, 3524.9148040908344, -2065.770574303934, -6637.037591581058, 3157.3180147788544, -23838.046054607163, -0.012, 0.922, 0.398, 192.0, 0.0, 0.0, 0.0, 0.0, 0.0, 0.0, 0.0, 0.0, 0.0, 1.695771080273402E9, 0.0, 2023-09-26 18:31:20.273
202.0, 43440.23536923354, 62713.786985133534, -30120.853200060512, -19221.04736817448, -21852.965277786887, -3552.2733393041303, -187500.02235174447, -2335.2879089460266, 15414.657046157963, -23045.028513077323, -187500.02235174447, 3530.346277993474, -2073.12429822973, -6647.229987052678, 3166.9963201280025, -23845.891516910975, -0.012, 0.922, 0.398, 192.0, 0.0, 0.0, 0.0, 0.0, 0.0, 0.0, 0.0, 0.0, 0.0, 1.695771080273405E9, 0.0, 2023-09-26 18:31:20.273
204.0, 43435.85442732029, 62715.77629039005, -30111.510170878195, -19234.70428403667, -21870.109065784105, -3554.933196894312, -187500.02235174447, -2306.521213832046, 15423.441281728898, -23032.17626001552, -187500.02235174447, 3522.3890569673845, -2077.482888398515, -6632.8578153679155, 3136.7320581355166, -23836.414377261925, -0.012, 0.922, 0.398, 192.0, 0.0, 0.0, 0.0, 0.0, 0.0, 0.0, 0.0, 0.0, 0.0, 1.695771080273408E9, 0.0, 2023-09-26 18:31:20.273
206.0, 43440.503590167, 62727.66741844028, -30108.76090631019, -19225.04833043198, -21855.982763288353, -3552.049821859577, -187500.02235174447, -2330.929318777242, 15417.67453165943, -23050.169414302043, -187500.02235174447, 3527.664068658837, -2068.6315975942134, -6653.421420266798, 3178.686282478128, -23850.451272779857, -0.012, 0.922, 0.398, 192.0, 0.0, 0.0, 0.0, 0.0, 0.0, 0.0, 0.0, 0.0, 0.0, 1.695771080273412E9, 0.0, 2023-09-26 18:31:20.273
208.0, 43445.39862220271, 62702.61111290588, -30109.118534221478, -19229.18340315621, -21852.048856264217, -3541.7456676656807, -187500.02235174447, -2306.185937665217, 15431.174985310434, -23030.164603014542, -187500.02235174447, 3523.1043127899547, -2068.385728405205, -6629.50505369962, 3150.880712375726, -23835.29679003916, -0.014, 0.93, 0.396, 192.0, 127.5, 72.0, 14.5, 8.0, 6.0, 48.0, 0.0, 0.0, 0.0, 1.695771080273415E9, 0.0, 2023-09-26 18:31:20.273
210.0, 43451.254779250005, 62725.32048527247, -30088.733743278237, -19225.182440898712, -21851.914745797487, -3549.568778225038, -187500.02235174447, -2320.155777949784, 15429.833880643117, -23033.383254216107, -187500.02235174447, 3538.147036808376, -2063.26717892494, -6636.2552805251225, 3194.6007245303067, -23836.34732202856, -0.014, 0.93, 0.396, 192.0, 0.0, 0.0, 0.0, 0.0, 0.0, 0.0, 0.0, 0.0, 0.0, 1.695771080333764E9, 0.0, 2023-09-26 18:31:20.333
212.0, 43432.00992727398, 62706.81324086348, -30121.948435538823, -19248.47295862114, -21878.84859786613, -3565.9973103996886, -187500.02235174447, -2332.248071700105, 15420.200278782879, -23047.196632289488, -187500.02235174447, 3507.2345742266866, -2070.6209028507355, -6646.872359141393, 3148.399668741187, -23852.060598380638, -0.014, 0.93, 0.396, 192.0, 0.0, 0.0, 0.0, 0.0, 0.0, 0.0, 0.0, 0.0, 0.0, 1.695771080333776E9, 0.0, 2023-09-26 18:31:20.333
214.0, 43446.18093325865, 62734.21647956568, -30104.67053707487, -19233.89962123628, -21846.19269921693, -3559.4929527631944, -187500.02235174447, -2331.957499022186, 15419.730892149317, -23051.51051896936, -187500.02235174447, 3519.572737166016, -2057.2545596664622, -6655.254263312133, 3179.848573189804, -23854.407531548444, -0.014, 0.93, 0.396, 192.0, 0.0, 0.0, 0.0, 0.0, 0.0, 0.0, 0.0, 0.0, 0.0, 1.695771080333779E9, 0.0, 2023-09-26 18:31:20.333
216.0, 43442.67170937917, 62690.67528136674, -30108.827961543557, -19240.71690329515, -21864.387019203547, -3563.2033423427756, -187500.02235174447, -2334.7067635901885, 15441.76971218225, -23035.685483895002, -187500.02235174447, 3513.1577865073427, -2077.1476122316853, -6638.4904549706525, 3143.012898327458, -23847.56789774512, -0.014, 0.93, 0.396, 192.0, 0.0, 0.0, 0.0, 0.0, 0.0, 0.0, 0.0, 0.0, 0.0, 1.695771080333782E9, 0.0, 2023-09-26 18:31:20.333
218.0, 43433.842770319316, 62735.28936329954, -30122.507229150204, -19237.833528260413, -21862.80004534722, -3567.4278220448286, -187500.02235174447, -2334.438542656725, 15412.71244439035, -23054.17037655954, -187500.02235174447, 3524.445417457273, -2082.1096995007633, -6660.439868025765, 3178.328654566843, -23861.180110118403, -0.014, 0.928, 0.4, 192.0, 127.5, 72.0, 14.5, 0.0, 6.0, 64.0, 0.0, 0.0, 0.0, 1.695771080333786E9, 0.0, 2023-09-26 18:31:20.333
220.0, 43432.501665652, 62687.05429876498, -30120.92025529388, -19242.437987618207, -21875.38407747556, -3568.321891823041, -187500.02235174447, -2338.2383392141273, 15431.510261477264, -23038.278286251818, -187500.02235174447, 3512.7554551071476, -2043.3070711263504, -6636.590556691952, 3133.2004825115782, -23852.306467569648, -0.014, 0.928, 0.4, 192.0, 0.0, 0.0, 0.0, 0.0, 0.0, 0.0, 0.0, 0.0, 0.0, 1.695771080333789E9, 0.0, 2023-09-26 18:31:20.333
222.0, 43426.220825460055, 62749.68388672875, -30127.759889097204, -19242.661505062762, -21864.342315714635, -3572.4122610583618, -187500.02235174447, -2327.8000745534987, 15407.750357121273, -23057.165510316554, -187500.02235174447, 3526.702943647259, -2085.998903035987, -6662.563283749018, 3169.7008812070944, -23864.130540386504, -0.014, 0.928, 0.4, 192.0, 0.0, 0.0, 0.0, 0.0, 0.0, 0.0, 0.0, 0.0, 0.0, 1.695771080333792E9, 0.0, 2023-09-26 18:31:20.333
224.0, 43441.62117738977, 62678.85120854989, -30096.087467204034, -19229.36221711185, -21851.914745797487, -3558.732993451714, -187500.02235174447, -2343.1557229942946, 15420.62496192753, -23040.625219419628, -187500.02235174447, 3515.325905719508, -2074.018368007942, -6640.747981160639, 3139.838950614804, -23853.222889092314, -0.014, 0.928, 0.4, 192.0, 0.0, 0.0, 0.0, 0.0, 0.0, 0.0, 0.0, 0.0, 0.0, 1.695771080333795E9, 0.0, 2023-09-26 18:31:20.333
226.0, 43439.27424422196, 62725.678113183756, -30109.118534221478, -19234.883097992315, -21861.928327313464, -3563.9185981653454, -187500.02235174447, -2328.4929786316134, 15426.123491063536, -23046.57078344474, -187500.02235174447, 3532.246176272175, -2064.7647458034453, -6650.359231276421, 3176.585218499329, -23850.451272779857, -0.014, 0.928, 0.4, 192.0, 0.0, 0.0, 0.0, 0.0, 0.0, 0.0, 0.0, 0.0, 0.0, 1.695771080393177E9, 0.0, 2023-09-26 18:31:20.393
228.0, 43443.006985545995, 62650.26332739155, -30098.85908351649, -19223.28254262001, -21834.5027368668, -3549.4570195027613, -187500.02235174447, -2332.493940889113, 15439.646296458995, -23035.640780406095, -187500.02235174447, 3529.921594848823, -2039.5743298023142, -6629.259184510611, 3159.396727013198, -23837.66607495142, -0.016, 0.926, 0.4, 192.0, 127.5, 64.0, 14.0, 120.0, 6.0, 64.0, 0.0, 0.0, 0.0, 1.695771080393187E9, 0.0, 2023-09-26 18:31:20.393
230.0, 43418.822398045355, 62712.22236302166, -30126.284673963153, -19253.81502554596, -21867.248042493826, -3578.5589907835715, -187500.02235174447, -2316.668905814756, 15413.584162424107, -23048.738902656904, -187500.02235174447, 3533.833150128502, -2077.0358535094088, -6650.091010342957, 3183.514259280474, -23845.10920585504, -0.016, 0.926, 0.4, 192.0, 0.0, 0.0, 0.0, 0.0, 0.0, 0.0, 0.0, 0.0, 0.0, 1.695771080393191E9, 0.0, 2023-09-26 18:31:20.393
232.0, 43413.45797937608, 62666.64715607729, -30119.355633182007, -19250.730484811127, -21863.04591453623, -3584.7504239976915, -187500.02235174447, -2351.0011852981074, 15408.912647832949, -23060.473568495938, -187500.02235174447, 3515.571774908516, -2058.059222466853, -6657.489437757664, 3161.967177625558, -23863.348229330568, -0.016, 0.926, 0.4, 192.0, 0.0, 0.0, 0.0, 0.0, 0.0, 0.0, 0.0, 0.0, 0.0, 1.695771080393194E9, 0.0, 2023-09-26 18:31:20.393
234.0, 43425.08088649284, 62710.74714788761, -30112.091316234033, -19250.305801666476, -21862.04008603574, -3575.8097262155684, -187500.02235174447, -2321.496882617102, 15401.782441351706, -23061.099417340687, -187500.02235174447, 3521.830263356002, -2087.31765595885, -6663.166780849312, 3167.264541061466, -23866.879804954508, -0.016, 0.926, 0.4, 192.0, 0.0, 0.0, 0.0, 0.0, 0.0, 0.0, 0.0, 0.0, 0.0, 1.695771080393197E9, 0.0, 2023-09-26 18:31:20.393
236.0, 43433.61925287476, 62653.34786812638, -30115.086449991042, -19236.917106737747, -21845.253925949804, -3570.4229558018396, -187500.02235174447, -2340.8981968043086, 15424.67062767394, -23054.460949237462, -187500.02235174447, 3525.473597702217, -2063.222475436029, -6650.493341743153, 3166.236360816522, -23859.43667405089, -0.016, 0.926, 0.4, 192.0, 0.0, 0.0, 0.0, 0.0, 0.0, 0.0, 0.0, 0.0, 0.0, 1.6957710803932E9, 0.0, 2023-09-26 18:31:20.393
238.0, 43424.54444462591, 62694.18450524623, -30125.52471465167, -19251.82572028944, -21865.057571537207, -3576.860258204968, -187500.02235174447, -2312.8020540239877, 15425.140014307502, -23057.90311788358, -187500.02235174447, 3529.6533739153597, -2042.1894839035851, -6653.51082724462, 3165.4540497605863, -23857.648534494467, -0.014, 0.928, 0.398, 192.0, 127.5, 72.0, 14.5, 0.0, 6.0, 56.0, 0.0, 0.0, 0.0, 1.695771080393203E9, 0.0, 2023-09-26 18:31:20.393
240.0, 43424.186816714624, 62663.78613278701, -30126.19526698533, -19247.221260931645, -21879.988536833353, -3587.253819376686, -187500.02235174447, -2370.335444251948, 15404.2858367307, -23069.883652911623, -187500.02235174447, 3515.7729406086137, -2073.7501470744787, -6664.239664583167, 3159.374375268743, -23873.04888642417, -0.014, 0.928, 0.398, 192.0, 0.0, 0.0, 0.0, 0.0, 0.0, 0.0, 0.0, 0.0, 0.0, 1.695771080452835E9, 0.0, 2023-09-26 18:31:20.452
242.0, 43423.62802310324, 62696.41967969176, -30127.938703052845, -19249.94817375519, -21864.431722692458, -3577.6202175164485, -187500.02235174447, -2318.6805628157335, 15415.662874658452, -23060.451216751484, -187500.02235174447, 3516.9799348092006, -2080.768594833445, -6655.813056923516, 3146.4550669735754, -23864.309354342146, -0.014, 0.928, 0.398, 192.0, 0.0, 0.0, 0.0, 0.0, 0.0, 0.0, 0.0, 0.0, 0.0, 1.695771080452847E9, 0.0, 2023-09-26 18:31:20.452
244.0, 43419.381191656736, 62673.12916196933, -30138.019339802187, -19253.367990656854, -21871.71839138489, -3589.3772350999398, -187500.02235174447, -2364.0322523155514, 15420.33438924961, -23072.47645526844, -187500.02235174447, 3513.671876629815, -2078.3099029433615, -6662.116248859912, 3160.715479936061, -23870.18786313389, -0.014, 0.928, 0.398, 192.0, 0.0, 0.0, 0.0, 0.0, 0.0, 0.0, 0.0, 0.0, 0.0, 1.695771080452851E9, 0.0, 2023-09-26 18:31:20.452
246.0, 43420.23055794604, 62684.282682452525, -30142.690854393346, -19263.135702983822, -21873.37242047458, -3585.1304036534316, -187500.02235174447, -2331.3987054108034, 15414.299418246677, -23072.632917479626, -187500.02235174447, 3495.701074087748, -2069.190391205596, -6664.999623894647, 3131.2335289995112, -23876.647517281475, -0.014, 0.928, 0.398, 192.0, 0.0, 0.0, 0.0, 0.0, 0.0, 0.0, 0.0, 0.0, 0.0, 1.695771080452854E9, 0.0, 2023-09-26 18:31:20.452
248.0, 43415.58139509933, 62680.7958103175, -30143.026130560178, -19265.95202278519, -21877.731010643365, -3597.334456126029, -187500.02235174447, -2370.4472029742246, 15413.114775790547, -23083.98760366292, -187500.02235174447, 3502.5183561466165, -2091.31861821635, -6675.303778088543, 3158.457953746075, -23882.280156884215, -0.012, 0.932, 0.394, 192.0, 127.5, 80.0, 14.5, 16.0, 6.0, 40.0, 0.0, 0.0, 0.0, 1.695771080452857E9, 0.0, 2023-09-26 18:31:20.452
250.0, 43420.40937190168, 62671.631595090825, -30139.33809272505, -19270.48942690962, -21878.692135654943, -3593.735825268725, -187500.02235174447, -2343.5133509055795, 15421.206107283368, -23079.606661749684, -187500.02235174447, 3487.5203356171055, -2067.3128446713504, -6669.157048363334, 3126.6514213861733, -23884.40357260747, -0.012, 0.932, 0.394, 192.0, 0.0, 0.0, 0.0, 0.0, 0.0, 0.0, 0.0, 0.0, 0.0, 1.69577108045286E9, 0.0, 2023-09-26 18:31:20.452
252.0, 43416.27429917745, 62680.371127172846, -30143.42846196037, -19271.919938554758, -21882.290766512248, -3604.4870143517273, -187500.02235174447, -2370.983644841152, 15418.166270037445, -23082.51238852887, -187500.02235174447, 3500.4619956567285, -2046.5033705834594, -6678.0530426565465, 3154.5687502108517, -23894.215988423348, -0.012, 0.932, 0.394, 192.0, 0.0, 0.0, 0.0, 0.0, 0.0, 0.0, 0.0, 0.0, 0.0, 1.695771080452863E9, 0.0, 2023-09-26 18:31:20.452
254.0, 43404.74079903851, 62681.0416795065, -30151.9668283423, -19290.650700408307, -21908.174086591494, -3610.633744076937, -187500.02235174447, -2360.7465458806214, 15414.657046157963, -23086.178074619544, -187500.02235174447, 3482.3347309034743, -2097.8453275972997, -6681.383452580387, 3119.1635869936454, -23898.73104080332, -0.012, 0.932, 0.394, 192.0, 0.0, 0.0, 0.0, 0.0, 0.0, 0.0, 0.0, 0.0, 0.0, 1.695771080452866E9, 0.0, 2023-09-26 18:31:20.452
0.0, 43415.536691610425, 62702.812278605976, -30144.88132534997, -19275.406810689787, -21877.03810656525, -3606.0739882080543, -187500.02235174447, -2377.2197815441828, 15407.213915254346, -23094.537627045826, -187500.02235174447, 3494.1364519758768, -2093.0397025394086, -6694.995664953669, 3145.2480727729885, -23908.364642663557, -0.012, 0.932, 0.394, 192.0, 0.0, 0.0, 0.0, 0.0, 0.0, 0.0, 0.0, 0.0, 0.0, 1.695771080513171E9, 0.0, 2023-09-26 18:31:20.513
2.0, 43424.72325858155, 62658.08643795091, -30114.840580802036, -19254.262060435067, -21873.797103619232, -3577.508458794172, -187500.02235174447, -2349.3918596973253, 15435.019485356748, -23069.481321511426, -187500.02235174447, 3495.1422804763656, -2069.5927226057916, -6669.045289641058, 3109.6640956001397, -23889.075087198627, -0.016, 0.926, 0.396, 192.0, 127.5, 64.0, 14.0, 120.0, 6.0, 48.0, 0.0, 0.0, 0.0, 1.69577108051318E9, 0.0, 2023-09-26 18:31:20.513
4.0, 43420.141150968215, 62690.11648775536, -30131.29146472114, -19264.186234973222, -21867.270394238283, -3587.2314676322303, -187500.02235174447, -2360.567731924979, 15432.76195916676, -23064.586289475716, -187500.02235174447, 3523.350181978963, -2074.5324581304144, -6671.414574553321, 3161.1848665696225, -23879.86616848304, -0.016, 0.926, 0.396, 192.0, 0.0, 0.0, 0.0, 0.0, 0.0, 0.0, 0.0, 0.0, 0.0, 1.695771080513184E9, 0.0, 2023-09-26 18:31:20.513
6.0, 43410.574604341346, 62657.03590596151, -30142.556743926616, -19273.126932755345, -21876.43460946496, -3584.8845344644233, -187500.02235174447, -2367.8320488729537, 15430.638543443507, -23082.467685039963, -187500.02235174447, 3492.1694984638098, -2061.255521923962, -6678.567132779019, 3120.325877705321, -23892.696069800386, -0.016, 0.926, 0.396, 192.0, 0.0, 0.0, 0.0, 0.0, 0.0, 0.0, 0.0, 0.0, 0.0, 1.695771080513187E9, 0.0, 2023-09-26 18:31:20.513
8.0, 43408.048857217895, 62704.779232118046, -30130.30798796511, -19272.18815948822, -21874.780580375264, -3583.5881332860154, -187500.02235174447, -2363.0934790484284, 15427.19637479739, -23085.686336241524, -187500.02235174447, 3508.6203823829155, -2085.395405935694, -6687.597237538963, 3155.082840333324, -23895.4900378573, -0.016, 0.926, 0.396, 192.0, 0.0, 0.0, 0.0, 0.0, 0.0, 0.0, 0.0, 0.0, 0.0, 1.69577108051319E9, 0.0, 2023-09-26 18:31:20.513
10.0, 43408.78646478492, 62655.06895244944, -30128.00575828621, -19272.545787399507, -21880.390868233546, -3575.6979674932923, -187500.02235174447, -2364.6804529047554, 15429.073921331636, -23079.159626860575, -187500.02235174447, 3489.4649373847174, -2073.772498818934, -6675.907275188837, 3116.4143224256427, -23885.230587152313, -0.016, 0.926, 0.396, 192.0, 0.0, 0.0, 0.0, 0.0, 0.0, 0.0, 0.0, 0.0, 0.0, 1.695771080513193E9, 0.0, 2023-09-26 18:31:20.513
12.0, 43405.16548218316, 62703.304016983995, -30125.59176988504, -19275.317403711964, -21858.15088250052, -3582.8058222300797, -187500.02235174447, -2352.409345198792, 15436.807624913172, -23088.32384208725, -187500.02235174447, 3500.1043677454436, -2084.099004757286, -6688.580714294996, 3149.71842166405, -23887.599872064577, -0.016, 0.924, 0.398, 192.0, 127.5, 64.0, 14.0, 112.0, 6.0, 56.0, 0.0, 0.0, 0.0, 1.695771080513196E9, 0.0, 2023-09-26 18:31:20.513
14.0, 43403.980839727024, 62644.96596395564, -30122.28371170565, -19271.785828088025, -21861.19071974644, -3578.246066361197, -187500.02235174447, -2360.143048780328, 15433.790139411705, -23085.731039730435, -187500.02235174447, 3482.0441582255553, -2058.8638852672443, -6680.1764583798, 3118.6718486156287, -23884.224758651824, -0.016, 0.924, 0.398, 192.0, 0.0, 0.0, 0.0, 0.0, 0.0, 0.0, 0.0, 0.0, 0.0, 1.695771080573521E9, 0.0, 2023-09-26 18:31:20.573
16.0, 43394.36958961125, 62702.20878150568, -30114.997043013223, -19274.713906611672, -21865.929289570962, -3579.9000954508897, -187500.02235174447, -2342.9992607831077, 15421.899011361482, -23089.396725821105, -187500.02235174447, 3492.5271263750947, -2085.931847802621, -6688.536010806086, 3153.9876048550136, -23880.939052216894, -0.016, 0.924, 0.398, 192.0, 0.0, 0.0, 0.0, 0.0, 0.0, 0.0, 0.0, 0.0, 0.0, 1.695771080573533E9, 0.0, 2023-09-26 18:31:20.573
18.0, 43404.04789496039, 62635.22060337313, -30101.563644595582, -19271.09292400991, -21852.831167320153, -3571.8758191914344, -187500.02235174447, -2363.9875488266407, 15440.115683092557, -23088.748525231902, -187500.02235174447, 3480.0772047134883, -2075.2030104640735, -6674.812039710527, 3130.8535493437707, -23874.702915513866, -0.016, 0.924, 0.398, 192.0, 0.0, 0.0, 0.0, 0.0, 0.0, 0.0, 0.0, 0.0, 0.0, 1.695771080573537E9, 0.0, 2023-09-26 18:31:20.573
20.0, 43394.25783088897, 62693.871580823856, -30115.62289185797, -19287.700270140205, -21868.38798146105, -3583.990464686211, -187500.02235174447, -2349.5483219085127, 15435.779444668227, -23092.86124621168, -187500.02235174447, 3486.693321072259, -2077.996978520987, -6689.608894539941, 3154.166418810656, -23881.207273150358, -0.016, 0.924, 0.398, 192.0, 0.0, 0.0, 0.0, 0.0, 0.0, 0.0, 0.0, 0.0, 0.0, 1.69577108057354E9, 0.0, 2023-09-26 18:31:20.573
22.0, 43386.25590637397, 62638.99804818608, -30117.053403503112, -19281.754706115094, -21860.341353457137, -3579.6318745174262, -187500.02235174447, -2374.626979187367, 15434.1924708119, -23097.108077658188, -187500.02235174447, 3469.728347030681, -2058.6627195671463, -6686.122022404912, 3132.4405232000977, -23883.844778996085, -0.018000000000000002, 0.92, 0.398, 192.0, 127.5, 56.0, 14.0, 96.0, 6.0, 56.0, 0.0, 0.0, 0.0, 1.695771080573543E9, 0.0, 2023-09-26 18:31:20.573
24.0, 43384.60187728428, 62698.07370878145, -30118.01452851469, -19296.52920920005, -21873.014792563295, -3585.8456594760014, -187500.02235174447, -2339.780609581543, 15428.202203297878, -23113.24603715492, -187500.02235174447, 3474.3328063884746, -2085.708330358068, -6702.081167946001, 3146.1197908067456, -23881.96723246184, -0.018000000000000002, 0.92, 0.398, 192.0, 0.0, 0.0, 0.0, 0.0, 0.0, 0.0, 0.0, 0.0, 0.0, 1.695771080573547E9, 0.0, 2023-09-26 18:31:20.573
26.0, 43401.052761203384, 62643.311934865946, -30105.63166208645, -19282.179389259745, -21853.389960931538, -3578.179011127831, -187500.02235174447, -2373.6435024313337, 15435.15359582348, -23110.183848164543, -187500.02235174447, 3467.7837452630697, -2065.8823330262107, -6697.3649498659315, 3126.3161452193435, -23890.10326744357, -0.018000000000000002, 0.92, 0.398, 192.0, 0.0, 0.0, 0.0, 0.0, 0.0, 0.0, 0.0, 0.0, 0.0, 1.69577108057355E9, 0.0, 2023-09-26 18:31:20.573
28.0, 43395.77774951193, 62688.30599645448, -30115.48878139124, -19290.42718296375, -21858.32969645616, -3576.1002988934874, -187500.02235174447, -2336.472551402158, 15436.137072579513, -23096.683394513537, -187500.02235174447, 3480.3230739024966, -2080.209801222062, -6690.32415036251, 3142.007069826969, -23875.4852265698, -0.018000000000000002, 0.92, 0.398, 192.0, 0.0, 0.0, 0.0, 0.0, 0.0, 0.0, 0.0, 0.0, 0.0, 1.695771080573553E9, 0.0, 2023-09-26 18:31:20.573
30.0, 43398.258793146466, 62646.41882734524, -30102.72593530726, -19273.126932755345, -21865.594013404134, -3574.7368424817137, -187500.02235174447, -2371.721252408177, 15442.306154049178, -23098.359775347686, -187500.02235174447, 3475.0704139554996, -2069.413908650149, -6690.726481762706, 3137.7602383804606, -23883.464799340345, -0.018000000000000002, 0.92, 0.398, 192.0, 0.0, 0.0, 0.0, 0.0, 0.0, 0.0, 0.0, 0.0, 0.0, 1.695771080633762E9, 0.0, 2023-09-26 18:31:20.633
32.0, 43382.16553713865, 62700.51004892708, -30119.333281437554, -19288.169656773767, -21864.208205247905, -3587.924371710345, -187500.02235174447, -2343.3568886943926, 15432.985476611315, -23098.538589303327, -187500.02235174447, 3480.2113151802205, -2084.322522201839, -6694.727444020205, 3136.1509127796785, -23881.363735361545, -0.02, 0.924, 0.4, 192.0, 127.5, 48.0, 14.0, 112.0, 6.0, 64.0, 0.0, 0.0, 0.0, 1.695771080633774E9, 0.0, 2023-09-26 18:31:20.633
34.0, 43399.19756641359, 62657.39353387279, -30094.031106714145, -19256.229013947133, -21846.818548061678, -3572.188743613809, -187500.02235174447, -2368.1896767842386, 15443.915479649959, -23085.507522285883, -187500.02235174447, 3492.124794974899, -2078.801641321378, -6683.126888647901, 3143.0576018163683, -23879.553244060666, -0.02, 0.924, 0.4, 192.0, 0.0, 0.0, 0.0, 0.0, 0.0, 0.0, 0.0, 0.0, 0.0, 1.695771080633778E9, 0.0, 2023-09-26 18:31:20.633
36.0, 43384.93715345111, 62695.190333746716, -30105.43049638635, -19271.785828088025, -21860.341353457137, -3579.7212814952472, -187500.02235174447, -2334.5503013790017, 15434.371284767543, -23089.307318843286, -187500.02235174447, 3493.6894170867704, -2077.5946471207913, -6690.793536996071, 3134.9886220680028, -23879.508540571755, -0.02, 0.924, 0.4, 192.0, 0.0, 0.0, 0.0, 0.0, 0.0, 0.0, 0.0, 0.0, 0.0, 1.695771080633781E9, 0.0, 2023-09-26 18:31:20.633
38.0, 43400.02458095844, 62673.15151371378, -30081.96116470828, -19253.211528445667, -21844.672780593966, -3572.4122610583618, -187500.02235174447, -2364.7028046492105, 15444.407218027976, -23087.76504847587, -187500.02235174447, 3503.3677224359185, -2080.925057044632, -6687.686644516783, 3157.049793845391, -23876.75927600375, -0.02, 0.924, 0.4, 192.0, 0.0, 0.0, 0.0, 0.0, 0.0, 0.0, 0.0, 0.0, 0.0, 1.695771080633784E9, 0.0, 2023-09-26 18:31:20.633
40.0, 43400.78454026992, 62683.32155744095, -30088.264356644675, -19262.24163320561, -21863.22472849187, -3568.031319145122, -187500.02235174447, -2328.8059030539875, 15454.130226866035, -23081.551263517293, -187500.02235174447, 3498.673856100304, -2059.9144172566434, -6679.908237446337, 3139.1907500256, -23866.745694487774, -0.02, 0.924, 0.4, 192.0, 0.0, 0.0, 0.0, 0.0, 0.0, 0.0, 0.0, 0.0, 0.0, 1.695771080633788E9, 0.0, 2023-09-26 18:31:20.633
42.0, 43404.4949298495, 62677.33128992692, -30088.39846711141, -19256.76545581406, -21841.6552950925, -3574.602732014982, -187500.02235174447, -2364.456935460202, 15443.602555227586, -23081.37244956165, -187500.02235174447, 3512.0401992845777, -2062.998957991476, -6680.958769435736, 3168.560942239874, -23868.846758466574, -0.014, 0.922, 0.4, 192.0, 127.5, 72.0, 14.0, 104.0, 6.0, 64.0, 0.0, 0.0, 0.0, 1.695771080633791E9, 0.0, 2023-09-26 18:31:20.633
44.0, 43398.50466233548, 62677.73362132712, -30098.702621305303, -19274.043354278012, -21860.453112179413, -3583.409319330373, -187500.02235174447, -2345.5473596510124, 15454.219633843857, -23079.964289660966, -187500.02235174447, 3496.3269229324965, -2078.958103532565, -6680.958769435736, 3129.3112789763545, -23876.938089959396, -0.014, 0.922, 0.4, 192.0, 0.0, 0.0, 0.0, 0.0, 0.0, 0.0, 0.0, 0.0, 0.0, 1.695771080693349E9, 0.0, 2023-09-26 18:31:20.693
46.0, 43408.27237466245, 62680.080554494925, -30089.42664735635, -19259.961755271168, -21850.37247543007, -3575.6532640043815, -187500.02235174447, -2368.435545973247, 15440.026276114737, -23092.05658341129, -187500.02235174447, 3501.7807485795915, -2101.1310340322298, -6693.18517365279, 3159.8214101578487, -23890.72911628832, -0.014, 0.922, 0.4, 192.0, 0.0, 0.0, 0.0, 0.0, 0.0, 0.0, 0.0, 0.0, 0.0, 1.69577108069337E9, 0.0, 2023-09-26 18:31:20.693
48.0, 43398.191737913105, 62658.622879817834, -30102.033031229144, -19272.679897866237, -21863.26943198078, -3577.4190518163505, -187500.02235174447, -2348.2966242190155, 15459.159369368479, -23075.42688553654, -187500.02235174447, 3491.186021707776, -2075.4265279086267, -6674.499115288153, 3123.9915637959916, -23878.18978764889, -0.014, 0.922, 0.4, 192.0, 0.0, 0.0, 0.0, 0.0, 0.0, 0.0, 0.0, 0.0, 0.0, 1.695771080693374E9, 0.0, 2023-09-26 18:31:20.693
50.0, 43396.26948788995, 62682.40513591828, -30091.86298750198, -19263.426275661743, -21855.021638276772, -3582.09056640751, -187500.02235174447, -2368.368490739881, 15437.142901080002, -23092.771839233857, -187500.02235174447, 3498.2044694667425, -2094.894897329199, -6697.901391732859, 3155.7310409225274, -23893.992470978796, -0.014, 0.922, 0.4, 192.0, 0.0, 0.0, 0.0, 0.0, 0.0, 0.0, 0.0, 0.0, 0.0, 1.695771080693377E9, 0.0, 2023-09-26 18:31:20.693
52.0, 43378.1869266256, 62650.799769258476, -30112.67246158987, -19278.267833980066, -21860.542519157236, -3584.1469268973983, -187500.02235174447, -2350.46474343118, 15453.996116399303, -23084.412286807572, -187500.02235174447, 3483.6534838263374, -2055.354661387761, -6681.60697002494, 3123.7233428625277, -23879.86616848304, -0.012, 0.924, 0.396, 192.0, 127.5, 80.0, 14.0, 112.0, 6.0, 48.0, 0.0, 0.0, 0.0, 1.69577108069338E9, 0.0, 2023-09-26 18:31:20.693
54.0, 43368.50862127646, 62687.25546446508, -30109.744383066227, -19281.352374714897, -21869.147940772527, -3585.2645141201633, -187500.02235174447, -2358.1537435238056, 15423.329523006621, -23105.62409229566, -187500.02235174447, 3485.866306527413, -2102.0698072993528, -6704.2939906470765, 3157.3850700122202, -23885.163531918948, -0.012, 0.924, 0.396, 192.0, 0.0, 0.0, 0.0, 0.0, 0.0, 0.0, 0.0, 0.0, 0.0, 1.695771080693384E9, 0.0, 2023-09-26 18:31:20.693
56.0, 43382.90314470568, 62629.49855679257, -30091.639470057427, -19262.398095416796, -21847.265582950782, -3562.9127696648566, -187500.02235174447, -2350.822371342465, 15434.348933023088, -23097.219836380464, -187500.02235174447, 3465.3027016285305, -2094.9843043070205, -6685.719691004717, 3112.4133601681424, -23877.00514519276, -0.012, 0.924, 0.396, 192.0, 0.0, 0.0, 0.0, 0.0, 0.0, 0.0, 0.0, 0.0, 0.0, 1.695771080693387E9, 0.0, 2023-09-26 18:31:20.693
58.0, 43375.616476013245, 62677.13012422683, -30106.078696975554, -19272.076400765945, -21853.457016164903, -3576.524982038138, -187500.02235174447, -2343.8486270724093, 15444.34016279461, -23094.828199723746, -187500.02235174447, 3489.64375134036, -2065.7035190705683, -6686.680816016295, 3167.53276199493, -23865.382238076003, -0.012, 0.924, 0.396, 192.0, 0.0, 0.0, 0.0, 0.0, 0.0, 0.0, 0.0, 0.0, 0.0, 1.69577108069339E9, 0.0, 2023-09-26 18:31:20.693
60.0, 43383.03725517241, 62617.316856064426, -30094.76871428117, -19267.360182685876, -21850.95362078591, -3573.1051651364764, -187500.02235174447, -2355.4491824447136, 15444.317811050156, -23091.922472944556, -187500.02235174447, 3463.738079516659, -2083.3613971902605, -6676.13079263339, 3126.9419940640923, -23868.95851718885, -0.012, 0.924, 0.396, 192.0, 0.0, 0.0, 0.0, 0.0, 0.0, 0.0, 0.0, 0.0, 0.0, 1.695771080752922E9, 0.0, 2023-09-26 18:31:20.752
62.0, 43378.07516790333, 62679.052374249986, -30107.173932453865, -19279.452476436196, -21873.931214085962, -3588.3490548549958, -187500.02235174447, -2349.503618419602, 15431.465557988353, -23103.187752150032, -187500.02235174447, 3481.9100477588236, -2096.258353740973, -6693.207525397244, 3163.978834626536, -23873.384162591003, -0.016, 0.92, 0.396, 192.0, 127.5, 64.0, 14.0, 96.0, 6.0, 48.0, 0.0, 0.0, 0.0, 1.695771080752931E9, 0.0, 2023-09-26 18:31:20.752
64.0, 43386.07709241832, 62622.07777763341, -30098.166179438376, -19273.037525777523, -21849.56781262968, -3578.2684181056525, -187500.02235174447, -2362.400574970314, 15438.43930225841, -23099.365603848175, -187500.02235174447, 3461.569960304494, -2083.5625628903585, -6687.999568939158, 3124.7068196185614, -23875.261709125247, -0.016, 0.92, 0.396, 192.0, 0.0, 0.0, 0.0, 0.0, 0.0, 0.0, 0.0, 0.0, 0.0, 1.695771080752935E9, 0.0, 2023-09-26 18:31:20.752
66.0, 43379.326865592826, 62676.817199804456, -30105.274034175163, -19284.392211960818, -21865.348144215124, -3587.0303019321327, -187500.02235174447, -2351.8952550763197, 15432.560793466664, -23102.070164927267, -187500.02235174447, 3478.1102512014213, -2093.3079234728725, -6697.007321954647, 3158.390898512709, -23874.92643295842, -0.016, 0.92, 0.396, 192.0, 0.0, 0.0, 0.0, 0.0, 0.0, 0.0, 0.0, 0.0, 0.0, 1.695771080752939E9, 0.0, 2023-09-26 18:31:20.752
68.0, 43389.943944209095, 62606.185687325684, -30096.936833493335, -19268.544825142006, -21851.355952186103, -3571.764060469158, -187500.02235174447, -2372.4365082307468, 15443.513148249764, -23093.174170634054, -187500.02235174447, 3467.314358629508, -2077.7958128208893, -6680.914065946826, 3125.198557996578, -23877.96627020434, -0.016, 0.92, 0.396, 192.0, 0.0, 0.0, 0.0, 0.0, 0.0, 0.0, 0.0, 0.0, 0.0, 1.695771080752943E9, 0.0, 2023-09-26 18:31:20.752
70.0, 43380.220935371035, 62670.91633926825, -30112.694813334325, -19289.95779633019, -21876.725182142876, -3587.477336821239, -187500.02235174447, -2344.8321038284425, 15439.512185992264, -23089.732001987937, -187500.02235174447, 3487.4532803837396, -2081.059167511364, -6686.122022404912, 3148.8243518858376, -23873.67473526892, -0.016, 0.92, 0.396, 192.0, 0.0, 0.0, 0.0, 0.0, 0.0, 0.0, 0.0, 0.0, 0.0, 1.695771080752948E9, 0.0, 2023-09-26 18:31:20.752
72.0, 43384.04308367289, 62622.05542588895, -30109.230292943754, -19278.804275846993, -21854.75341734331, -3585.1304036534316, -187500.02235174447, -2378.046796089029, 15426.056435830169, -23110.452069098006, -187500.02235174447, 3464.6545010393265, -2104.8861271007213, -6700.002455711658, 3124.192729496089, -23891.623186066532, -0.01, 0.924, 0.394, 192.0, 127.5, 88.0, 14.0, 112.0, 6.0, 40.0, 0.0, 0.0, 0.0, 1.695771080752951E9, 0.0, 2023-09-26 18:31:20.752
74.0, 43385.51829880694, 62674.425563147735, -30116.047575002623, -19288.169656773767, -21867.18098726046, -3585.4656798202614, -187500.02235174447, -2334.7067635901885, 15439.668648203451, -23101.84664748271, -187500.02235174447, 3478.870210512902, -2080.4109669221602, -6694.794499253571, 3138.184921525112, -23873.71943875783, -0.01, 0.924, 0.394, 192.0, 0.0, 0.0, 0.0, 0.0, 0.0, 0.0, 0.0, 0.0, 0.0, 1.695771080813261E9, 0.0, 2023-09-26 18:31:20.813
76.0, 43393.989609955504, 62633.4324638167, -30101.38483063994, -19268.924804797745, -21855.04399002123, -3577.9331419388227, -187500.02235174447, -2371.698900663722, 15430.48208123232, -23113.42485111056, -187500.02235174447, 3467.090841184955, -2097.3088857303724, -6698.616647555429, 3128.3278022203212, -23882.704840028866, -0.01, 0.924, 0.394, 192.0, 0.0, 0.0, 0.0, 0.0, 0.0, 0.0, 0.0, 0.0, 0.0, 1.69577108081329E9, 0.0, 2023-09-26 18:31:20.813
78.0, 43395.15190066718, 62673.62090034734, -30107.62096734297, -19279.96656655867, -21858.28499296725, -3574.3792145704288, -187500.02235174447, -2329.7893798100213, 15441.076808104135, -23094.47057181246, -187500.02235174447, 3485.061643727022, -2095.9901328075093, -6686.256132871644, 3146.075087317835, -23866.209252620847, -0.01, 0.924, 0.394, 192.0, 0.0, 0.0, 0.0, 0.0, 0.0, 0.0, 0.0, 0.0, 0.0, 1.695771080813294E9, 0.0, 2023-09-26 18:31:20.813
80.0, 43401.03040945893, 62627.88923119179, -30095.416914870373, -19262.733371583625, -21844.27044919377, -3566.9360836668116, -187500.02235174447, -2359.4724964466686, 15429.230383542823, -23099.902045715102, -187500.02235174447, 3484.8604780269243, -2101.1757375211405, -6687.083147416491, 3151.6630234316617, -23870.992525934285, -0.01, 0.924, 0.394, 192.0, 0.0, 0.0, 0.0, 0.0, 0.0, 0.0, 0.0, 0.0, 0.0, 1.695771080813297E9, 0.0, 2023-09-26 18:31:20.813
82.0, 43403.086769948815, 62652.185577414704, -30091.90769099089, -19267.315479196965, -21843.264620693284, -3559.962339396756, -187500.02235174447, -2315.4172081252586, 15434.974781867837, -23098.113906158676, -187500.02235174447, 3487.7215013172035, -2090.737472860512, -6683.350406092454, 3150.7913053979046, -23859.123749628514, -0.016, 0.922, 0.394, 192.0, 127.5, 64.0, 14.0, 104.0, 6.0, 40.0, 0.0, 0.0, 0.0, 1.6957710808133E9, 0.0, 2023-09-26 18:31:20.813
84.0, 43414.44145613211, 62617.8309461869, -30079.636583284926, -19251.557499355975, -21831.395844387513, -3555.8272666725243, -187500.02235174447, -2350.8670748313757, 15454.621965244052, -23090.670775255057, -187500.02235174447, 3497.64567585536, -2072.9231325296323, -6675.169667621812, 3168.4491835175972, -23853.513461770235, -0.016, 0.922, 0.394, 192.0, 0.0, 0.0, 0.0, 0.0, 0.0, 0.0, 0.0, 0.0, 0.0, 1.695771080813303E9, 0.0, 2023-09-26 18:31:20.813
86.0, 43400.24809840299, 62650.82212100293, -30097.540330593627, -19272.76930484406, -21859.715504612388, -3568.076022634032, -187500.02235174447, -2319.3511151493926, 15446.731799451329, -23089.19556012101, -187500.02235174447, 3497.019827010611, -2085.3283507023275, -6675.504943788642, 3148.1537995521785, -23852.239412336283, -0.016, 0.922, 0.394, 192.0, 0.0, 0.0, 0.0, 0.0, 0.0, 0.0, 0.0, 0.0, 0.0, 1.695771080813307E9, 0.0, 2023-09-26 18:31:20.813
88.0, 43398.21408965756, 62654.06312394895, -30107.822133043068, -19265.259118707076, -21849.187832973937, -3573.015758158655, -187500.02235174447, -2358.46666794618, 15424.715331162852, -23105.24411263992, -187500.02235174447, 3494.7175973317144, -2101.7792346214337, -6690.190039895778, 3163.4200410151534, -23868.220909621825, -0.016, 0.922, 0.394, 192.0, 0.0, 0.0, 0.0, 0.0, 0.0, 0.0, 0.0, 0.0, 0.0, 1.69577108081331E9, 0.0, 2023-09-26 18:31:20.813
90.0, 43400.65042980319, 62658.555824584466, -30100.937795750833, -19270.690592609717, -21854.66401036549, -3565.6173307439485, -187500.02235174447, -2325.7437140636107, 15445.681267461929, -23090.42490606605, -187500.02235174447, 3487.967370506212, -2071.9396557735986, -6673.336824576477, 3134.6980493900837, -23854.72045597082, -0.016, 0.922, 0.394, 192.0, 0.0, 0.0, 0.0, 0.0, 0.0, 0.0, 0.0, 0.0, 0.0, 1.695771080873526E9, 0.0, 2023-09-26 18:31:20.873
92.0, 43398.459958846564, 62664.61314733185, -30097.38386838244, -19266.01907801856, -21854.59695513212, -3573.3286825810296, -187500.02235174447, -2360.6124354138897, 15423.754206151272, -23101.04198468232, -187500.02235174447, 3493.2870856865748, -2127.483740745037, -6686.122022404912, 3165.655215460684, -23866.00808692075, -0.018000000000000002, 0.924, 0.4, 192.0, 127.5, 56.0, 14.0, 112.0, 6.0, 64.0, 0.0, 0.0, 0.0, 1.695771080873535E9, 0.0, 2023-09-26 18:31:20.873
94.0, 43403.243232160006, 62656.186539672206, -30098.0544207161, -19268.522473397552, -21857.27916446676, -3565.1032406214763, -187500.02235174447, -2324.469664629658, 15436.539403979708, -23088.927339187543, -187500.02235174447, 3482.804117537036, -2096.7277403745343, -6669.514676274619, 3132.909909833659, -23858.833176950597, -0.018000000000000002, 0.924, 0.4, 192.0, 0.0, 0.0, 0.0, 0.0, 0.0, 0.0, 0.0, 0.0, 0.0, 1.695771080873539E9, 0.0, 2023-09-26 18:31:20.873
96.0, 43421.77282831345, 62665.59662408789, -30089.270185145164, -19249.232917932623, -21845.544498627725, -3566.734917966714, -187500.02235174447, -2355.404478955803, 15427.91163061996, -23098.248016625406, -187500.02235174447, 3500.417292167818, -2105.9143073456657, -6678.924760690304, 3165.789325927416, -23866.72334274332, -0.018000000000000002, 0.924, 0.4, 192.0, 0.0, 0.0, 0.0, 0.0, 0.0, 0.0, 0.0, 0.0, 0.0, 1.695771080873542E9, 0.0, 2023-09-26 18:31:20.873
98.0, 43423.4492091476, 62638.908641208254, -30091.594766568516, -19260.18527271572, -21849.32194344067, -3567.8078017005687, -187500.02235174447, -2330.012897254574, 15453.01263964327, -23069.593080233702, -187500.02235174447, 3507.8827748158906, -2072.2302284515176, -6649.286347542567, 3138.3860872252094, -23849.892479168473, -0.018000000000000002, 0.924, 0.4, 192.0, 0.0, 0.0, 0.0, 0.0, 0.0, 0.0, 0.0, 0.0, 0.0, 1.695771080873545E9, 0.0, 2023-09-26 18:31:20.873
100.0, 43422.21986320256, 62681.39930741779, -30096.66861255987, -19261.727543083136, -21859.961373801398, -3586.3821013429288, -187500.02235174447, -2357.9078743347973, 15435.53357547922, -23096.258711368886, -187500.02235174447, 3515.571774908516, -2086.512993158459, -6682.881019458892, 3176.562866754874, -23870.746656745276, -0.018000000000000002, 0.924, 0.4, 192.0, 0.0, 0.0, 0.0, 0.0, 0.0, 0.0, 0.0, 0.0, 0.0, 1.695771080873548E9, 0.0, 2023-09-26 18:31:20.873
102.0, 43424.87972079274, 62640.92029820923, -30081.536481563628, -19255.267888935556, -21841.94586777042, -3577.3072930940743, -187500.02235174447, -2357.8408191014314, 15449.168139596957, -23079.494903027404, -187500.02235174447, 3505.5581933925387, -2087.340007703305, -6666.586597750974, 3126.5396626638967, -23870.500787556266, -0.016, 0.92, 0.398, 192.0, 127.5, 64.0, 14.0, 96.0, 6.0, 56.0, 0.0, 0.0, 0.0, 1.695771080873551E9, 0.0, 2023-09-26 18:31:20.873
104.0, 43424.85736904829, 62681.51106614007, -30091.259490401688, -19262.71101983917, -21848.964315529385, -3585.957418198278, -187500.02235174447, -2357.1479150233167, 15444.116645350057, -23085.37341181915, -187500.02235174447, 3531.1062373049544, -2077.5052401429703, -6673.515638532119, 3176.1158318657676, -23862.34240083008, -0.016, 0.92, 0.398, 192.0, 0.0, 0.0, 0.0, 0.0, 0.0, 0.0, 0.0, 0.0, 0.0, 1.695771080933767E9, 0.0, 2023-09-26 18:31:20.933
106.0, 43427.22665396055, 62631.46551030464, -30083.548138564605, -19257.726580825638, -21845.633905605544, -3579.1624878838647, -187500.02235174447, -2364.7028046492105, 15447.134130851524, -23087.832103709236, -187500.02235174447, 3505.602896881449, -2076.8793912982214, -6675.79551646656, 3130.8982528326815, -23873.808845735653, -0.016, 0.92, 0.398, 192.0, 0.0, 0.0, 0.0, 0.0, 0.0, 0.0, 0.0, 0.0, 0.0, 1.695771080933777E9, 0.0, 2023-09-26 18:31:20.933
108.0, 43430.154732484196, 62670.93869101271, -30078.809568740082, -19251.892775522803, -21846.773844572766, -3577.9107901943676, -187500.02235174447, -2346.575539895957, 15455.49368327781, -23081.126580372642, -187500.02235174447, 3535.7554001516583, -2083.830783823822, -6673.068603643013, 3175.4452795321085, -23860.040171151184, -0.016, 0.92, 0.398, 192.0, 0.0, 0.0, 0.0, 0.0, 0.0, 0.0, 0.0, 0.0, 0.0, 1.695771080933781E9, 0.0, 2023-09-26 18:31:20.933
110.0, 43428.88068305024, 62614.00879788504, -30082.60936529748, -19253.837377290416, -21847.958487028896, -3574.267455848152, -187500.02235174447, -2364.121659293373, 15454.53255826623, -23074.063429124766, -187500.02235174447, 3516.0635132865327, -2072.2302284515176, -6662.093897115457, 3144.912796606159, -23860.375447318012, -0.016, 0.92, 0.398, 192.0, 0.0, 0.0, 0.0, 0.0, 0.0, 0.0, 0.0, 0.0, 0.0, 1.695771080933785E9, 0.0, 2023-09-26 18:31:20.933
112.0, 43419.98468875703, 62679.78998181701, -30106.212807442287, -19272.277566466044, -21864.878757581566, -3590.248953133697, -187500.02235174447, -2359.047813302018, 15439.19926156989, -23090.55901653278, -187500.02235174447, 3518.566908665527, -2089.7539961044786, -6681.696377002761, 3169.6338259737286, -23871.43956082339, -0.018000000000000002, 0.922, 0.398, 192.0, 127.5, 56.0, 14.0, 104.0, 6.0, 56.0, 0.0, 0.0, 0.0, 1.695771080933788E9, 0.0, 2023-09-26 18:31:20.933
114.0, 43420.40937190168, 62620.08847237688, -30094.81341777008, -19269.394191431307, -21862.822397091677, -3588.0137786881664, -187500.02235174447, -2373.464688475691, 15449.928098908436, -23089.173208376553, -187500.02235174447, 3495.2540391986417, -2066.6199405932357, -6674.186190865778, 3129.847720843282, -23881.229624894815, -0.018000000000000002, 0.922, 0.398, 192.0, 0.0, 0.0, 0.0, 0.0, 0.0, 0.0, 0.0, 0.0, 0.0, 1.695771080933792E9, 0.0, 2023-09-26 18:31:20.933
116.0, 43391.2403453875, 62689.75885984408, -30129.05629027561, -19296.126877799856, -21881.419048478492, -3610.5890405880264, -187500.02235174447, -2354.242188244127, 15429.833880643117, -23106.42875509605, -187500.02235174447, 3494.7175973317144, -2100.706350887579, -6695.532106820597, 3158.05562234588, -23885.3870493635, -0.018000000000000002, 0.922, 0.398, 192.0, 0.0, 0.0, 0.0, 0.0, 0.0, 0.0, 0.0, 0.0, 0.0, 1.695771080933795E9, 0.0, 2023-09-26 18:31:20.933
118.0, 43399.75636002498, 62628.73859748109, -30118.52861863716, -19282.67112763776, -21857.14505400003, -3606.2528021636967, -187500.02235174447, -2387.6133427159, 15420.423796227431, -23114.14010693313, -187500.02235174447, 3467.761393518614, -2090.93863856061, -6701.2318016567, 3117.308392203855, -23900.787401293208, -0.018000000000000002, 0.922, 0.398, 192.0, 0.0, 0.0, 0.0, 0.0, 0.0, 0.0, 0.0, 0.0, 0.0, 1.695771080933799E9, 0.0, 2023-09-26 18:31:20.933
120.0, 43388.31226686386, 62694.31861571296, -30116.29344419163, -19300.999558091113, -21884.90592061352, -3617.853357536001, -187500.02235174447, -2357.2596737455933, 15424.201241040379, -23109.91562723108, -187500.02235174447, 3485.6204373384044, -2108.6859236581236, -6701.1200429344235, 3145.784514639916, -23886.839912753097, -0.018000000000000002, 0.922, 0.398, 192.0, 0.0, 0.0, 0.0, 0.0, 0.0, 0.0, 0.0, 0.0, 0.0, 1.695771080993173E9, 0.0, 2023-09-26 18:31:20.993
122.0, 43413.65914507618, 62623.597696256365, -30095.32750789255, -19262.308688438974, -21852.89822255352, -3595.702778780792, -187500.02235174447, -2375.9904355991407, 15421.76490089475, -23110.206199908996, -187500.02235174447, 3472.3658528764076, -2095.5878014073137, -6700.0695109450235, 3126.8972905751816, -23897.456991369367, -0.02, 0.926, 0.406, 192.0, 127.5, 48.0, 14.0, 120.0, 6.0, 88.0, 0.0, 0.0, 0.0, 1.695771080993181E9, 0.0, 2023-09-26 18:31:20.993
124.0, 43400.717485036555, 62666.8930252663, -30105.63166208645, -19278.62546189135, -21875.94287108694, -3601.7153980392695, -187500.02235174447, -2335.0643915014734, 15449.212843085867, -23088.882635698636, -187500.02235174447, 3500.707864845737, -2085.283647213417, -6685.674987515806, 3148.4220204856424, -23871.01487767874, -0.02, 0.926, 0.406, 192.0, 0.0, 0.0, 0.0, 0.0, 0.0, 0.0, 0.0, 0.0, 0.0, 1.695771080993184E9, 0.0, 2023-09-26 18:31:20.993
126.0, 43379.55038303738, 62641.54614705398, -30124.273016962175, -19286.225055006154, -21884.28007176877, -3619.6638488368812, -187500.02235174447, -2383.8135461584984, 15426.972857352837, -23108.641577797127, -187500.02235174447, 3481.4630128697177, -2102.449786955093, -6701.432967356797, 3138.497845947486, -23891.556130833167, -0.02, 0.926, 0.406, 192.0, 0.0, 0.0, 0.0, 0.0, 0.0, 0.0, 0.0, 0.0, 0.0, 1.695771080993188E9, 0.0, 2023-09-26 18:31:20.993
128.0, 43384.75833949546, 62676.25840619307, -30115.1088017355, -19281.598243903907, -21885.62117643609, -3609.3596946429843, -187500.02235174447, -2350.732964364644, 15420.446147971887, -23113.357795877197, -187500.02235174447, 3477.7526232901364, -2114.095045816308, -6706.193888925778, 3120.325877705321, -23889.857398254564, -0.02, 0.926, 0.406, 192.0, 0.0, 0.0, 0.0, 0.0, 0.0, 0.0, 0.0, 0.0, 0.0, 1.695771080993191E9, 0.0, 2023-09-26 18:31:20.993
130.0, 43408.58529908482, 62623.64239974528, -30090.298365390106, -19251.937479011714, -21855.356914443604, -3591.210078145275, -187500.02235174447, -2370.9389413522413, 15436.740569679807, -23095.14112414612, -187500.02235174447, 3497.4892136441727, -2102.22626951054, -6687.127850905401, 3135.0333255569135, -23873.764142246742, -0.02, 0.926, 0.406, 192.0, 0.0, 0.0, 0.0, 0.0, 0.0, 0.0, 0.0, 0.0, 0.0, 1.695771080993194E9, 0.0, 2023-09-26 18:31:20.993
132.0, 43405.12077869425, 62638.34984759687, -30104.469371374773, -19266.555519885485, -21865.973993059873, -3593.2664386351635, -187500.02235174447, -2334.818522312465, 15451.87270067605, -23085.351060074696, -187500.02235174447, 3509.7156178612254, -2083.7860803349117, -6676.84604845596, 3136.1285610352234, -23854.228717592803, -0.022, 0.93, 0.406, 192.0, 127.5, 40.0, 14.5, 8.0, 6.0, 88.0, 0.0, 0.0, 0.0, 1.695771080993197E9, 0.0, 2023-09-26 18:31:20.993
134.0, 43402.30445889288, 62632.04665566047, -30101.96597599578, -19263.649793106295, -21872.433647207457, -3603.145909684409, -187500.02235174447, -2367.988511084141, 15436.427645257432, -23105.869961484666, -187500.02235174447, 3506.452263170751, -2087.8093943368667, -6699.600124311462, 3152.3112240208657, -23870.880767212006, -0.022, 0.93, 0.406, 192.0, 0.0, 0.0, 0.0, 0.0, 0.0, 0.0, 0.0, 0.0, 0.0, 1.695771081052992E9, 0.0, 2023-09-26 18:31:21.052
136.0, 43408.00415372898, 62634.61710627283, -30097.473275360262, -19266.734333841126, -21857.74855110032, -3595.479261336239, -187500.02235174447, -2337.5230833915575, 15446.552985495686, -23096.57163579126, -187500.02235174447, 3501.4901759016725, -2088.4575949260707, -6687.932513705792, 3138.140218036201, -23857.11209262754, -0.022, 0.93, 0.406, 192.0, 0.0, 0.0, 0.0, 0.0, 0.0, 0.0, 0.0, 0.0, 0.0, 1.695771081053003E9, 0.0, 2023-09-26 18:31:21.053
138.0, 43396.62711580123, 62644.34011511089, -30119.53444713765, -19277.016136290567, -21874.691173397445, -3612.086607466532, -187500.02235174447, -2385.9369618817523, 15439.57924122563, -23105.534685317838, -187500.02235174447, 3512.666048129326, -2086.1777169916295, -6693.676912030806, 3166.593988727807, -23863.86231945304, -0.022, 0.93, 0.406, 192.0, 0.0, 0.0, 0.0, 0.0, 0.0, 0.0, 0.0, 0.0, 0.0, 1.695771081053007E9, 0.0, 2023-09-26 18:31:21.053
140.0, 43389.519261064444, 62660.14279844079, -30119.37798492646, -19286.314461983977, -21887.85635088162, -3612.019552233166, -187500.02235174447, -2356.8349906009425, 15419.976761338326, -23123.52783960436, -187500.02235174447, 3483.2288006816866, -2115.8161301393666, -6710.060740716546, 3117.2860404593994, -23883.19657840688, -0.022, 0.93, 0.406, 192.0, 0.0, 0.0, 0.0, 0.0, 0.0, 0.0, 0.0, 0.0, 0.0, 1.69577108105301E9, 0.0, 2023-09-26 18:31:21.053
142.0, 43408.25002291799, 62665.37310664334, -30106.704545820303, -19266.37670592984, -21874.646469908534, -3603.3470753845068, -187500.02235174447, -2373.1070605644063, 15431.666723688451, -23116.06235695629, -187500.02235174447, 3507.860423071435, -2100.8851648432214, -6702.036464457091, 3151.752430409483, -23871.372505590025, -0.02, 0.932, 0.4, 192.0, 127.5, 48.0, 14.5, 16.0, 6.0, 64.0, 0.0, 0.0, 0.0, 1.695771081053013E9, 0.0, 2023-09-26 18:31:21.053
144.0, 43405.56781358335, 62644.13894941079, -30113.968862768277, -19273.484560666628, -21883.408353735012, -3600.6872177943255, -187500.02235174447, -2354.532760922046, 15442.507319749275, -23099.164438148076, -187500.02235174447, 3507.0334085265886, -2085.1048332577748, -6687.9772171947025, 3113.5980026242737, -23867.751522988263, -0.02, 0.932, 0.4, 192.0, 0.0, 0.0, 0.0, 0.0, 0.0, 0.0, 0.0, 0.0, 0.0, 1.695771081053016E9, 0.0, 2023-09-26 18:31:21.053
146.0, 43405.70192405009, 62682.71806034065, -30110.213769699785, -19268.835397819927, -21881.486103711857, -3610.8349097770347, -187500.02235174447, -2373.0400053310404, 15426.011732341258, -23118.074013957266, -187500.02235174447, 3517.8516528429573, -2129.4953977460145, -6709.792519783083, 3150.4336774866197, -23875.753447503263, -0.02, 0.932, 0.4, 192.0, 0.0, 0.0, 0.0, 0.0, 0.0, 0.0, 0.0, 0.0, 0.0, 1.695771081053019E9, 0.0, 2023-09-26 18:31:21.053
148.0, 43407.66887756215, 62648.139911668295, -30110.14671446642, -19269.43889492022, -21883.296595012736, -3605.537546341127, -187500.02235174447, -2360.8136011139873, 15439.57924122563, -23102.807772494292, -187500.02235174447, 3507.860423071435, -2090.290437971406, -6688.647769528362, 3111.47458690102, -23867.52800554371, -0.02, 0.932, 0.4, 192.0, 0.0, 0.0, 0.0, 0.0, 0.0, 0.0, 0.0, 0.0, 0.0, 1.695771081053022E9, 0.0, 2023-09-26 18:31:21.053
150.0, 43409.389961885216, 62691.36818544486, -30116.494609891728, -19270.53413039853, -21891.99142360585, -3617.5851366025377, -187500.02235174447, -2372.8388396309424, 15438.461654002866, -23109.178019664054, -187500.02235174447, 3523.797216868069, -2091.9444670610987, -6706.596220325973, 3150.165456553156, -23874.54645330268, -0.02, 0.932, 0.4, 192.0, 0.0, 0.0, 0.0, 0.0, 0.0, 0.0, 0.0, 0.0, 0.0, 1.695771081113178E9, 0.0, 2023-09-26 18:31:21.113
152.0, 43415.8496160328, 62648.60929830185, -30091.974746224256, -19259.38060991533, -21869.304402983715, -3603.7047032957917, -187500.02235174447, -2359.919531335775, 15438.729874936329, -23104.059470183787, -187500.02235174447, 3504.842937569969, -2098.828804353333, -6695.80032775406, 3105.8419472982823, -23872.62420327952, -0.02, 0.926, 0.396, 192.0, 127.5, 48.0, 14.0, 120.0, 6.0, 48.0, 0.0, 0.0, 0.0, 1.695771081113187E9, 0.0, 2023-09-26 18:31:21.113
154.0, 43414.08382822083, 62694.07274652395, -30097.76384803818, -19263.51568263956, -21883.162484546006, -3609.76202604318, -187500.02235174447, -2362.177057525761, 15430.81735739915, -23104.797077750813, -187500.02235174447, 3528.4687314592284, -2105.936659090121, -6702.2823336461, 3160.849590402793, -23866.455121809857, -0.02, 0.926, 0.396, 192.0, 0.0, 0.0, 0.0, 0.0, 0.0, 0.0, 0.0, 0.0, 0.0, 1.695771081113191E9, 0.0, 2023-09-26 18:31:21.113
156.0, 43425.237348704024, 62631.48786204909, -30088.309060133586, -19249.970525499648, -21855.982763288353, -3591.9476857123004, -187500.02235174447, -2362.825258114965, 15453.459674532376, -23092.9506531895, -187500.02235174447, 3515.4823679306946, -2080.2992081998837, -6679.215333368223, 3125.466778930042, -23857.313258327635, -0.02, 0.926, 0.396, 192.0, 0.0, 0.0, 0.0, 0.0, 0.0, 0.0, 0.0, 0.0, 0.0, 1.695771081113194E9, 0.0, 2023-09-26 18:31:21.113
158.0, 43418.37536315624, 62683.656833607776, -30097.741496293726, -19255.91608952476, -21872.455998951915, -3596.2615723921745, -187500.02235174447, -2344.4297724282474, 15438.886337147516, -23093.308281100784, -187500.02235174447, 3537.856464130457, -2087.8317460813223, -6683.484516559186, 3167.622168972751, -23849.62425823501, -0.02, 0.926, 0.396, 192.0, 0.0, 0.0, 0.0, 0.0, 0.0, 0.0, 0.0, 0.0, 0.0, 1.695771081113197E9, 0.0, 2023-09-26 18:31:21.113
160.0, 43419.247081190006, 62629.610315514845, -30097.696792804814, -19248.875290021337, -21867.024525049274, -3586.5162118096605, -187500.02235174447, -2363.2499412596158, 15437.411122013466, -23092.838894467222, -187500.02235174447, 3512.1966614957646, -2082.9590657900653, -6673.672100743306, 3123.589232395796, -23856.66505773843, -0.02, 0.926, 0.396, 192.0, 0.0, 0.0, 0.0, 0.0, 0.0, 0.0, 0.0, 0.0, 0.0, 1.6957710811132E9, 0.0, 2023-09-26 18:31:21.113
162.0, 43412.250985175495, 62679.36529867236, -30113.72299357927, -19257.1454354698, -21869.483216939356, -3590.181897900331, -187500.02235174447, -2341.1664177377725, 15420.937886349904, -23098.62799628115, -187500.02235174447, 3520.22093775522, -2096.6606851411684, -6678.075394401002, 3159.329671779832, -23850.183051846394, -0.024, 0.924, 0.394, 192.0, 127.5, 32.0, 14.0, 112.0, 6.0, 40.0, 0.0, 0.0, 0.0, 1.695771081113203E9, 0.0, 2023-09-26 18:31:21.113
164.0, 43414.82143578785, 62618.38973979828, -30101.876569017957, -19254.418522646254, -21867.7621326163, -3589.153717655387, -187500.02235174447, -2363.5852174264455, 15443.58020348313, -23084.881673441134, -187500.02235174447, 3508.352161449452, -2081.3497401892832, -6662.518580260108, 3135.7262296350277, -23846.226793077803, -0.024, 0.924, 0.394, 192.0, 0.0, 0.0, 0.0, 0.0, 0.0, 0.0, 0.0, 0.0, 0.0, 1.695771081173601E9, 0.0, 2023-09-26 18:31:21.173
166.0, 43401.768017025955, 62681.95810102917, -30134.934799067356, -19275.518569412063, -21892.550217217235, -3603.0565027065877, -187500.02235174447, -2348.855417830398, 15419.708540404861, -23105.110002173187, -187500.02235174447, 3510.4979289171615, -2098.8511560977886, -6686.502002060653, 3152.2441687875, -23862.163586874438, -0.024, 0.924, 0.394, 192.0, 0.0, 0.0, 0.0, 0.0, 0.0, 0.0, 0.0, 0.0, 0.0, 1.695771081173612E9, 0.0, 2023-09-26 18:31:21.173
168.0, 43402.88560424872, 62625.34113232388, -30114.415897657385, -19267.60605187488, -21866.33162097116, -3603.1682614288643, -187500.02235174447, -2380.393729256836, 15420.62496192753, -23106.831086496244, -187500.02235174447, 3494.829356053991, -2112.8880516157215, -6683.059833414535, 3125.176206252123, -23869.941993944885, -0.024, 0.924, 0.394, 192.0, 0.0, 0.0, 0.0, 0.0, 0.0, 0.0, 0.0, 0.0, 0.0, 1.695771081173615E9, 0.0, 2023-09-26 18:31:21.173
170.0, 43393.00613319947, 62662.042696719494, -30120.58497912705, -19273.81983683346, -21871.450170451426, -3600.4189968608616, -187500.02235174447, -2333.3433071784148, 15426.525822463731, -23101.891350971622, -187500.02235174447, 3505.379379436896, -2093.8220135953443, -6680.8693624579155, 3142.3423459937985, -23862.00712466325, -0.024, 0.924, 0.394, 192.0, 0.0, 0.0, 0.0, 0.0, 0.0, 0.0, 0.0, 0.0, 0.0, 1.695771081173618E9, 0.0, 2023-09-26 18:31:21.173
172.0, 43382.947848194584, 62616.82511768641, -30130.68796762085, -19282.24644449311, -21871.360763473604, -3610.410226632384, -187500.02235174447, -2378.8067554005092, 15411.080767045114, -23113.357795877197, -187500.02235174447, 3489.241419940164, -2101.935696832621, -6689.586542795485, 3137.8049418693713, -23876.066371925637, -0.018000000000000002, 0.926, 0.4, 192.0, 127.5, 56.0, 14.0, 120.0, 6.0, 64.0, 0.0, 0.0, 0.0, 1.695771081173621E9, 0.0, 2023-09-26 18:31:21.173
174.0, 43377.31520859185, 62652.766722770546, -30140.992121814743, -19290.49423819712, -21887.454019481425, -3607.5268515976495, -187500.02235174447, -2349.213045741683, 15412.176002523423, -23117.42581336806, -187500.02235174447, 3486.693321072259, -2095.1407665182073, -6698.795461511071, 3124.6844678741063, -23881.363735361545, -0.018000000000000002, 0.926, 0.4, 192.0, 0.0, 0.0, 0.0, 0.0, 0.0, 0.0, 0.0, 0.0, 0.0, 1.695771081173624E9, 0.0, 2023-09-26 18:31:21.173
176.0, 43386.56883079634, 62611.795975183966, -30122.373118683474, -19276.90437756829, -21883.22953977937, -3600.888383494423, -187500.02235174447, -2379.2761420340707, 15410.633732156008, -23116.352929634206, -187500.02235174447, 3489.956675762734, -2106.383693979227, -6691.79936549656, 3119.923546305126, -23879.665002782942, -0.018000000000000002, 0.926, 0.4, 192.0, 0.0, 0.0, 0.0, 0.0, 0.0, 0.0, 0.0, 0.0, 0.0, 1.695771081173628E9, 0.0, 2023-09-26 18:31:21.173
178.0, 43390.54744130939, 62632.06900740493, -30129.23510423125, -19278.804275846993, -21871.159597773505, -3593.37819735744, -187500.02235174447, -2341.948728793708, 15420.177927038423, -23106.719327773968, -187500.02235174447, 3491.901277530346, -2099.968743320554, -6685.876153215904, 3117.5542613928633, -23871.372505590025, -0.018000000000000002, 0.926, 0.4, 192.0, 0.0, 0.0, 0.0, 0.0, 0.0, 0.0, 0.0, 0.0, 0.0, 1.695771081173631E9, 0.0, 2023-09-26 18:31:21.173
180.0, 43382.90314470568, 62604.91163789173, -30137.661711890905, -19281.01709854807, -21892.147885817038, -3600.28488639413, -187500.02235174447, -2368.077918061962, 15420.267334016246, -23108.41806035257, -187500.02235174447, 3497.9809520221893, -2081.193277978096, -6682.992778181169, 3136.106209290768, -23867.14802588797, -0.018000000000000002, 0.926, 0.4, 192.0, 0.0, 0.0, 0.0, 0.0, 0.0, 0.0, 0.0, 0.0, 0.0, 1.695771081233895E9, 0.0, 2023-09-26 18:31:21.233
182.0, 43374.32007483484, 62633.61127777235, -30152.145642297943, -19295.948063844215, -21886.023507836286, -3606.431616119339, -187500.02235174447, -2348.766010852577, 15401.469516929332, -23125.651255327615, -187500.02235174447, 3474.9810069776786, -2111.7257609040453, -6702.2376301571885, 3109.5746886223187, -23882.190749906393, -0.018000000000000002, 0.928, 0.404, 192.0, 127.5, 56.0, 14.5, 0.0, 6.0, 80.0, 0.0, 0.0, 0.0, 1.695771081233904E9, 0.0, 2023-09-26 18:31:21.233
184.0, 43382.70197900558, 62612.82415542891, -30133.906618822413, -19281.598243903907, -21881.19553103394, -3608.66679056487, -187500.02235174447, -2373.1294123088614, 15414.05354905767, -23123.259618670898, -187500.02235174447, 3480.747757047148, -2109.4682347140592, -6700.002455711658, 3126.562014408352, -23878.949746960374, -0.018000000000000002, 0.928, 0.404, 192.0, 0.0, 0.0, 0.0, 0.0, 0.0, 0.0, 0.0, 0.0, 0.0, 1.695771081233907E9, 0.0, 2023-09-26 18:31:21.233
186.0, 43382.813737727854, 62612.757100195544, -30140.500383436727, -19292.81881962047, -21895.34418527415, -3616.7134185687805, -187500.02235174447, -2355.1809615112497, 15418.747415393284, -23116.755261034403, -187500.02235174447, 3474.958655233223, -2106.2719352569507, -6695.08507193149, 3104.679656586606, -23874.077066669117, -0.018000000000000002, 0.928, 0.404, 192.0, 0.0, 0.0, 0.0, 0.0, 0.0, 0.0, 0.0, 0.0, 0.0, 1.69577108123391E9, 0.0, 2023-09-26 18:31:21.233
188.0, 43384.19954588408, 62611.59480948387, -30139.896886336435, -19293.422316720764, -21891.879664883574, -3635.444180422328, -187500.02235174447, -2393.3577410409143, 15405.67164488693, -23129.965142007488, -187500.02235174447, 3480.993626236156, -2117.5372144624253, -6713.61466808494, 3128.148988264679, -23893.344270389593, -0.018000000000000002, 0.928, 0.404, 192.0, 0.0, 0.0, 0.0, 0.0, 0.0, 0.0, 0.0, 0.0, 0.0, 1.695771081233913E9, 0.0, 2023-09-26 18:31:21.233
190.0, 43374.16361262365, 62606.69977744816, -30154.939610354857, -19309.895552384325, -21903.457868511425, -3641.1885787473416, -187500.02235174447, -2375.632807687856, 15411.058415300658, -23134.882525787656, -187500.02235174447, 3460.966463204201, -2110.518766703459, -6715.626325085917, 3088.988731978981, -23900.362718148557, -0.018000000000000002, 0.928, 0.404, 192.0, 0.0, 0.0, 0.0, 0.0, 0.0, 0.0, 0.0, 0.0, 0.0, 1.695771081233916E9, 0.0, 2023-09-26 18:31:21.233
192.0, 43392.82731924383, 62601.357710523334, -30136.365310712496, -19284.638081149827, -21878.625080421578, -3624.8047500616017, -187500.02235174447, -2381.6454269463334, 15412.444223456887, -23131.842688541736, -187500.02235174447, 3479.83133552448, -2103.7908916224114, -6715.648676830373, 3124.192729496089, -23894.931244245916, -0.014, 0.924, 0.398, 192.0, 127.5, 72.0, 14.0, 112.0, 6.0, 56.0, 0.0, 0.0, 0.0, 1.69577108123392E9, 0.0, 2023-09-26 18:31:21.233
194.0, 43379.952714437575, 62588.17018129471, -30165.73550292677, -19302.988863347633, -21896.70764168592, -3630.951479786811, -187500.02235174447, -2363.138182537339, 15425.743511407794, -23122.47730761496, -187500.02235174447, 3474.578675577483, -2094.805490351378, -6700.13656617839, 3099.203479195056, -23878.323898115625, -0.014, 0.924, 0.398, 192.0, 0.0, 0.0, 0.0, 0.0, 0.0, 0.0, 0.0, 0.0, 0.0, 1.695771081293214E9, 0.0, 2023-09-26 18:31:21.293
196.0, 43382.612572027756, 62623.50828927854, -30150.849241119537, -19291.947101586713, -21902.96613013341, -3632.7396193432355, -187500.02235174447, -2381.399557757325, 15401.693034373884, -23142.839746813745, -187500.02235174447, 3481.060681469522, -2121.0687900863636, -6721.773054811127, 3129.758313865461, -23894.48420935681, -0.014, 0.924, 0.398, 192.0, 0.0, 0.0, 0.0, 0.0, 0.0, 0.0, 0.0, 0.0, 0.0, 1.695771081293225E9, 0.0, 2023-09-26 18:31:21.293
198.0, 43386.90410696317, 62583.36455623681, -30153.374988242984, -19289.62252016336, -21887.85635088162, -3622.3237064270625, -187500.02235174447, -2372.861191375398, 15415.52876419172, -23124.176040193564, -187500.02235174447, 3473.4834400991726, -2095.185470007118, -6696.649694043362, 3087.692330800573, -23881.609604550555, -0.014, 0.924, 0.398, 192.0, 0.0, 0.0, 0.0, 0.0, 0.0, 0.0, 0.0, 0.0, 0.0, 1.695771081293229E9, 0.0, 2023-09-26 18:31:21.293
200.0, 43386.47942381852, 62626.458719546645, -30154.33611325456, -19288.236712007132, -21893.310176528714, -3624.9388605283334, -187500.02235174447, -2368.5696564399786, 15404.263484986244, -23132.222668197475, -187500.02235174447, 3494.0246932536, -2130.702391946601, -6709.4572436162525, 3138.721363392039, -23885.163531918948, -0.014, 0.924, 0.398, 192.0, 0.0, 0.0, 0.0, 0.0, 0.0, 0.0, 0.0, 0.0, 0.0, 1.695771081293232E9, 0.0, 2023-09-26 18:31:21.293
202.0, 43381.51733654944, 62578.91655909021, -30164.729674426282, -19294.428145221253, -21899.65807195402, -3624.7823983171465, -187500.02235174447, -2379.2314385451605, 15420.200278782879, -23115.928246489555, -187500.02235174447, 3477.797326779047, -2090.4692519270484, -6691.888772474382, 3092.341493647277, -23882.280156884215, -0.018000000000000002, 0.922, 0.396, 192.0, 127.5, 56.0, 14.0, 104.0, 6.0, 48.0, 0.0, 0.0, 0.0, 1.695771081293235E9, 0.0, 2023-09-26 18:31:21.293
204.0, 43387.976990697025, 62630.72790273761, -30144.702511394324, -19286.62738640635, -21893.578397462177, -3624.5141773836826, -187500.02235174447, -2369.37431924037, 15403.034139041203, -23129.093423973733, -187500.02235174447, 3487.0062454946337, -2122.856929642788, -6706.842089514982, 3131.6135086552513, -23888.49394184279, -0.018000000000000002, 0.922, 0.396, 192.0, 0.0, 0.0, 0.0, 0.0, 0.0, 0.0, 0.0, 0.0, 0.0, 1.695771081293238E9, 0.0, 2023-09-26 18:31:21.293
206.0, 43394.30253437788, 62564.79025659445, -30139.829831103067, -19280.01127004758, -21876.747533887334, -3615.1040929679984, -187500.02235174447, -2371.9671215971853, 15420.33438924961, -23107.456935340993, -187500.02235174447, 3479.764280291114, -2103.4332637111265, -6681.137583391379, 3104.366732164232, -23876.312241114647, -0.018000000000000002, 0.922, 0.396, 192.0, 0.0, 0.0, 0.0, 0.0, 0.0, 0.0, 0.0, 0.0, 0.0, 1.695771081293241E9, 0.0, 2023-09-26 18:31:21.293
208.0, 43378.09751964778, 62630.102053892864, -30164.282639537174, -19301.49129646913, -21893.62310095109, -3633.276061210163, -187500.02235174447, -2359.628958657856, 15415.372301980533, -23120.912685503088, -187500.02235174447, 3495.5669636210164, -2111.3681329927604, -6700.561249323041, 3147.5503024518853, -23881.363735361545, -0.018000000000000002, 0.922, 0.396, 192.0, 0.0, 0.0, 0.0, 0.0, 0.0, 0.0, 0.0, 0.0, 0.0, 1.695771081293244E9, 0.0, 2023-09-26 18:31:21.293
210.0, 43394.66016228917, 62559.068210013895, -30144.903677094422, -19276.367935701364, -21875.540539686746, -3614.2323749342413, -187500.02235174447, -2368.7708221400767, 15412.421871712431, -23118.34223489073, -187500.02235174447, 3476.992663978656, -2081.863830311755, -6689.787708495583, 3107.3842176656985, -23883.95653771836, -0.018000000000000002, 0.922, 0.396, 192.0, 0.0, 0.0, 0.0, 0.0, 0.0, 0.0, 0.0, 0.0, 0.0, 1.695771081353023E9, 0.0, 2023-09-26 18:31:21.353
212.0, 43375.70588299107, 62629.610315514845, -30159.611124946015, -19301.3571860024, -21912.286807571272, -3637.3217269565735, -187500.02235174447, -2360.523028436068, 15408.19739201038, -23121.471479114472, -187500.02235174447, 3492.6835885862815, -2109.89291785871, -6698.37077836642, 3137.536720935908, -23880.62612779452, -0.02, 0.928, 0.398, 192.0, 127.5, 48.0, 14.5, 0.0, 6.0, 56.0, 0.0, 0.0, 0.0, 1.695771081353032E9, 0.0, 2023-09-26 18:31:21.353
214.0, 43395.889508234206, 62559.783465836466, -30134.264246733695, -19275.026831034047, -21873.305365241216, -3620.7143808262804, -187500.02235174447, -2387.009845615607, 15420.893182860993, -23118.275179657365, -187500.02235174447, 3475.4056901223294, -2119.2359470410283, -6691.575848052007, 3107.0265897544136, -23889.09743894308, -0.02, 0.928, 0.398, 192.0, 0.0, 0.0, 0.0, 0.0, 0.0, 0.0, 0.0, 0.0, 0.0, 1.695771081353035E9, 0.0, 2023-09-26 18:31:21.353
216.0, 43379.12569989273, 62624.04473114547, -30158.15826155642, -19295.14340104382, -21902.206170821926, -3635.801808333613, -187500.02235174447, -2369.821354129476, 15417.138089792501, -23120.443298869526, -187500.02235174447, 3492.1694984638098, -2113.51390046047, -6699.309551633543, 3132.4181714556426, -23885.87878774152, -0.02, 0.928, 0.398, 192.0, 0.0, 0.0, 0.0, 0.0, 0.0, 0.0, 0.0, 0.0, 0.0, 1.695771081353038E9, 0.0, 2023-09-26 18:31:21.353
218.0, 43395.196604156095, 62563.02446878248, -30139.606313658514, -19271.852883321393, -21885.71058341391, -3619.730904070247, -187500.02235174447, -2396.755206198121, 15413.472403701831, -23119.32571164676, -187500.02235174447, 3479.473707613195, -2105.4449207121042, -6692.648731785862, 3109.3958746666763, -23887.82338950913, -0.02, 0.928, 0.398, 192.0, 0.0, 0.0, 0.0, 0.0, 0.0, 0.0, 0.0, 0.0, 0.0, 1.695771081353041E9, 0.0, 2023-09-26 18:31:21.353
220.0, 43385.45124357358, 62613.8299839294, -30148.323493996086, -19284.23574974963, -21898.316967286704, -3627.285793696141, -187500.02235174447, -2359.2266272576603, 15416.378130481022, -23114.408327866597, -187500.02235174447, 3494.40467290934, -2109.7588073919783, -6694.570981809018, 3124.0586190293575, -23876.669869025933, -0.02, 0.928, 0.398, 192.0, 0.0, 0.0, 0.0, 0.0, 0.0, 0.0, 0.0, 0.0, 0.0, 1.695771081353044E9, 0.0, 2023-09-26 18:31:21.353
222.0, 43385.51829880694, 62569.30530897443, -30138.131098524464, -19270.95881354318, -21885.33060375817, -3623.083665738543, -187500.02235174447, -2391.1896218287498, 15410.589028667096, -23118.632807568647, -187500.02235174447, 3490.604876351938, -2109.490586458515, -6695.75562426515, 3124.304488218366, -23881.5872528061, -0.02, 0.926, 0.396, 192.0, 127.5, 48.0, 14.0, 120.0, 6.0, 48.0, 0.0, 0.0, 0.0, 1.695771081353048E9, 0.0, 2023-09-26 18:31:21.353
224.0, 43384.624229028734, 62613.673521718214, -30149.664598663403, -19280.99474680361, -21894.830095151676, -3622.703686082803, -187500.02235174447, -2359.7407173801325, 15407.370377465533, -23119.593932580225, -187500.02235174447, 3488.056777484033, -2114.385618494227, -6698.504888833152, 3125.198557996578, -23876.736924259298, -0.02, 0.926, 0.396, 192.0, 0.0, 0.0, 0.0, 0.0, 0.0, 0.0, 0.0, 0.0, 0.0, 1.695771081413278E9, 0.0, 2023-09-26 18:31:21.413
226.0, 43401.56685132586, 62570.601710152834, -30122.82015357258, -19255.33494416892, -21871.71839138489, -3609.784377787635, -187500.02235174447, -2388.4850607496574, 15411.371339723033, -23117.49286860143, -187500.02235174447, 3489.554344362539, -2096.6606851411684, -6694.302760875555, 3130.6076801547624, -23869.83023522261, -0.02, 0.926, 0.396, 192.0, 0.0, 0.0, 0.0, 0.0, 0.0, 0.0, 0.0, 0.0, 0.0, 1.69577108141329E9, 0.0, 2023-09-26 18:31:21.413
228.0, 43389.89924072019, 62606.96799838162, -30136.611179901505, -19270.62353737635, -21883.207188034918, -3612.5559941000934, -187500.02235174447, -2349.123638763862, 15429.409197498466, -23103.970063205965, -187500.02235174447, 3499.4561671562396, -2090.22338273804, -6681.1599351358345, 3131.4123429551537, -23851.85943268054, -0.02, 0.926, 0.396, 192.0, 0.0, 0.0, 0.0, 0.0, 0.0, 0.0, 0.0, 0.0, 0.0, 1.695771081413293E9, 0.0, 2023-09-26 18:31:21.413
230.0, 43405.27724090544, 62577.79897186744, -30114.885284290947, -19242.37093238484, -21871.13724602905, -3595.2333921472305, -187500.02235174447, -2381.2877990350485, 15410.298455989177, -23121.33736864774, -187500.02235174447, 3493.3541409199406, -2102.293324743906, -6693.363987608432, 3142.43175297162, -23861.604793263054, -0.02, 0.926, 0.396, 192.0, 0.0, 0.0, 0.0, 0.0, 0.0, 0.0, 0.0, 0.0, 0.0, 1.695771081413296E9, 0.0, 2023-09-26 18:31:21.413
232.0, 43397.81175825736, 62593.78046915299, -30122.82015357258, -19254.552633112984, -21862.75534185831, -3588.3937583439065, -187500.02235174447, -2340.384106681837, 15442.753188938284, -23095.118772401664, -187500.02235174447, 3502.898335802357, -2099.5887636648135, -6668.061812885024, 3131.7029156330727, -23839.789490674673, -0.018000000000000002, 0.93, 0.398, 192.0, 127.5, 56.0, 14.5, 8.0, 6.0, 56.0, 0.0, 0.0, 0.0, 1.6957710814133E9, 0.0, 2023-09-26 18:31:21.413
234.0, 43405.09842694979, 62579.34124223486, -30114.326490679563, -19238.079397449423, -21854.86517606559, -3579.7212814952472, -187500.02235174447, -2374.5152204650904, 15432.203165555378, -23102.89717947211, -187500.02235174447, 3512.2637167291305, -2097.9347345751207, -6675.75081297765, 3154.747564166494, -23844.796281432664, -0.018000000000000002, 0.93, 0.398, 192.0, 0.0, 0.0, 0.0, 0.0, 0.0, 0.0, 0.0, 0.0, 0.0, 1.695771081413303E9, 0.0, 2023-09-26 18:31:21.413
236.0, 43382.813737727854, 62590.42770748469, -30131.604389143515, -19270.46707516516, -21881.351993245127, -3595.769834014158, -187500.02235174447, -2352.766973110077, 15450.53159600873, -23092.61537702267, -187500.02235174447, 3505.9381730482787, -2084.9036675576767, -6664.5525890055405, 3122.3822381952095, -23843.81280467663, -0.018000000000000002, 0.93, 0.398, 192.0, 0.0, 0.0, 0.0, 0.0, 0.0, 0.0, 0.0, 0.0, 0.0, 1.695771081413306E9, 0.0, 2023-09-26 18:31:21.413
238.0, 43400.426912358635, 62594.272207531, -30113.141848223433, -19254.843205790905, -21865.348144215124, -3588.66197927737, -187500.02235174447, -2372.1235838083726, 15431.554964966175, -23106.80873475179, -187500.02235174447, 3505.7593590926363, -2110.0046765809866, -6680.690548502273, 3145.940976851103, -23861.045999651673, -0.018000000000000002, 0.93, 0.398, 192.0, 0.0, 0.0, 0.0, 0.0, 0.0, 0.0, 0.0, 0.0, 0.0, 1.695771081413309E9, 0.0, 2023-09-26 18:31:21.413
240.0, 43391.2403453875, 62589.15365805074, -30123.513057650693, -19272.791656588513, -21877.887472854552, -3596.418034603362, -187500.02235174447, -2360.366566224881, 15447.022372129248, -23095.23053112394, -187500.02235174447, 3495.097576987455, -2089.2399059820063, -6667.458315784731, 3113.486243901997, -23857.514424027733, -0.018000000000000002, 0.93, 0.398, 192.0, 0.0, 0.0, 0.0, 0.0, 0.0, 0.0, 0.0, 0.0, 0.0, 1.695771081474441E9, 0.0, 2023-09-26 18:31:21.474
242.0, 43395.665990789654, 62622.94949566716, -30111.44311564483, -19270.847054820904, -21878.535673443756, -3605.6716568078587, -187500.02235174447, -2383.9029531363194, 15430.884412632515, -23103.657138783594, -187500.02235174447, 3505.8487660704573, -2118.699505174101, -6686.256132871644, 3148.265558274455, -23867.550357288168, -0.014, 0.926, 0.396, 192.0, 127.5, 72.0, 14.0, 120.0, 6.0, 48.0, 0.0, 0.0, 0.0, 1.695771081474452E9, 0.0, 2023-09-26 18:31:21.474
244.0, 43408.13826419572, 62581.75523063603, -30098.300289905106, -19264.05212450649, -21862.46476918039, -3590.919505467356, -187500.02235174447, -2366.982682583652, 15452.029162887236, -23088.882635698636, -187500.02235174447, 3493.488251386673, -2092.3691502057495, -6666.69835647325, 3106.691313587584, -23860.554261273654, -0.014, 0.926, 0.396, 192.0, 0.0, 0.0, 0.0, 0.0, 0.0, 0.0, 0.0, 0.0, 0.0, 1.695771081474456E9, 0.0, 2023-09-26 18:31:21.474
246.0, 43404.98666822752, 62616.28867581948, -30097.137999193434, -19262.91218553927, -21863.13532151405, -3595.5239648251495, -187500.02235174447, -2372.2576942751043, 15456.20893910038, -23091.251920610895, -187500.02235174447, 3518.902184832357, -2087.362359447761, -6674.879094943893, 3157.2956630343992, -23857.67088623892, -0.014, 0.926, 0.396, 192.0, 0.0, 0.0, 0.0, 0.0, 0.0, 0.0, 0.0, 0.0, 0.0, 1.695771081474459E9, 0.0, 2023-09-26 18:31:21.474
