%OpenBCI Raw EXG Data
%Number of channels = 16
%Sample Rate = 125 Hz
%Board = OpenBCI_GUI$BoardCytonSerialDaisy
Sample Index, EXG Channel 0, EXG Channel 1, EXG Channel 2, EXG Channel 3, EXG Channel 4, EXG Channel 5, EXG Channel 6, EXG Channel 7, EXG Channel 8, EXG Channel 9, EXG Channel 10, EXG Channel 11, EXG Channel 12, EXG Channel 13, EXG Channel 14, EXG Channel 15, Accel Channel 0, Accel Channel 1, Accel Channel 2, Other, Other, Other, Other, Other, Other, Other, Analog Channel 0, Analog Channel 1, Analog Channel 2, Timestamp, Other, Timestamp (Formatted)
0.0, 43489.11863435729, 61290.67376740859, -30001.04784978007, -19420.69314964928, -21852.965277786887, -3444.7838002185586, -187500.02235174447, -2717.502739131777, 0.0, 0.0, 0.0, 0.0, 0.0, 0.0, 0.0, 0.0, 0.0, 0.0, 0.0, 192.0, 0.0, 0.0, 0.0, 0.0, 0.0, 0.0, 0.0, 0.0, 0.0, 1.695771047609692E9, 0.0, 2023-09-26 18:30:47.609
224.0, 43493.00783789252, 61255.626232102666, -30006.144047515878, -19419.441451959785, -21852.38413243105, -3441.8557216949134, -187500.02235174447, -2720.2967071886906, 15370.065315969625, -23343.603115511312, -187500.02235174447, 3245.4062396772197, -2316.5124436035685, -6969.117458953555, 3369.458421404174, -24291.741763560985, -0.11, 0.868, 0.47800000000000004, 192.0, 126.0, 72.0, 13.5, 16.0, 7.0, 120.0, 0.0, 0.0, 0.0, 1.6957710476097E9, 0.0, 2023-09-26 18:30:47.609
226.0, 43475.52877372847, 61299.21213379051, -30016.202332520767, -19437.23344054621, -21871.807798362708, -3457.680756769271, -187500.02235174447, -2719.15676822147, 15354.396743106456, -23354.175490638674, -187500.02235174447, 3261.6336061517727, -2333.8126938119763, -6982.819078304658, 3404.0812735654445, -24297.732031075007, -0.11, 0.868, 0.47800000000000004, 192.0, 0.0, 0.0, 0.0, 0.0, 0.0, 0.0, 0.0, 0.0, 0.0, 1.695771047609704E9, 0.0, 2023-09-26 18:30:47.609
228.0, 43476.84752665133, 61271.29480496584, -30019.957425589255, -19434.14889981138, -21871.204301262416, -3452.472800311184, -187500.02235174447, -2727.3822101810233, 15345.61250753552, -23365.77604601098, -187500.02235174447, 3229.268280180488, -2353.4822289326466, -6987.557648129184, 3350.459438617163, -24312.685348115607, -0.11, 0.868, 0.47800000000000004, 192.0, 0.0, 0.0, 0.0, 0.0, 0.0, 0.0, 0.0, 0.0, 0.0, 1.695771047609708E9, 0.0, 2023-09-26 18:30:47.609
230.0, 43483.08366335436, 61320.625104978695, -30020.225646522722, -19431.936077110302, -21872.500702440822, -3454.9091404568126, -187500.02235174447, -2715.781654808719, 15340.672772010896, -23367.921813478686, -187500.02235174447, 3245.003908277024, -2359.5171999355794, -6997.0794912671445, 3386.8257268459474, -24313.735880105007, -0.11, 0.868, 0.47800000000000004, 192.0, 0.0, 0.0, 0.0, 0.0, 0.0, 0.0, 0.0, 0.0, 0.0, 1.695771047609711E9, 0.0, 2023-09-26 18:30:47.609
232.0, 43493.968962904095, 61279.60965390321, -30012.961329574744, -19425.45407121826, -21864.09644652563, -3443.375640317874, -187500.02235174447, -2722.6212886120425, 15351.982754705281, -23354.644877272236, -187500.02235174447, 3234.587995360851, -2331.018725755063, -6978.281674180231, 3356.6285200868274, -24305.91276954565, -0.11, 0.868, 0.47800000000000004, 192.0, 0.0, 0.0, 0.0, 0.0, 0.0, 0.0, 0.0, 0.0, 0.0, 1.695771047609714E9, 0.0, 2023-09-26 18:30:47.609
234.0, 43491.28675356946, 61318.92637240009, -30011.977852818713, -19427.912763108347, -21867.225690749372, -3445.96844267469, -187500.02235174447, -2707.422102382434, 15352.876824483494, -23358.467025574093, -187500.02235174447, 3251.329451957876, -2353.057545787996, -6989.055215007689, 3391.4748896926512, -24304.973996278524, -0.112, 0.866, 0.482, 192.0, 126.0, 64.0, 13.5, 8.0, 7.5, 8.0, 0.0, 0.0, 0.0, 1.695771047609718E9, 0.0, 2023-09-26 18:30:47.609
236.0, 43497.03115189447, 61272.54650265533, -30012.536646430093, -19418.972065326223, -21857.99442028933, -3438.0112216486004, -187500.02235174447, -2729.706791604375, 15358.84474025306, -23348.90047894722, -187500.02235174447, 3243.327527442876, -2327.956536764686, -6976.0464997347, 3358.61782534335, -24307.00800502396, -0.112, 0.866, 0.482, 192.0, 0.0, 0.0, 0.0, 0.0, 0.0, 0.0, 0.0, 0.0, 0.0, 1.695771047609721E9, 0.0, 2023-09-26 18:30:47.609
238.0, 43485.63176222226, 61324.201384091546, -30026.50648671466, -19441.03323710361, -21879.27328101078, -3458.284253869564, -187500.02235174447, -2716.675724586931, 15347.110074414024, -23356.47772031757, -187500.02235174447, 3254.9280828151805, -2341.7475630936106, -6990.530430141739, 3382.6683023772603, -24311.076022514826, -0.112, 0.866, 0.482, 192.0, 0.0, 0.0, 0.0, 0.0, 0.0, 0.0, 0.0, 0.0, 0.0, 1.695771047609724E9, 0.0, 2023-09-26 18:30:47.609
0.0, 21704.616749837012, 30818.00410962154, -14995.517134132044, -9710.022474530038, -10948.465579565238, -1701.794767593714, -93750.01117587223, -1326.196053766734, 7687.413118769303, -11670.493980705021, -93750.01117587223, 1620.1885485873877, -1154.6464150722522, -3483.7875942930696, 1671.172877689943, -12153.73869582876, -0.114, 0.874, 0.468, 192.0, 126.0, 56.0, 13.5, 40.0, 7.0, 80.0, 0.0, 0.0, 0.0, 1.695771047704898E9, 0.0, 2023-09-26 18:30:47.704
2.0, 43425.08088649284, 61595.05982340096, -29966.246183663156, -19391.144143479367, -21866.912766326997, -3388.278590235542, -187500.02235174447, -2689.2054306513587, 15343.04205692316, -23289.198969507095, -187500.02235174447, 3326.9454034501796, -2374.85049663192, -6940.70839175086, 3364.742203324104, -24269.39001910568, -0.114, 0.874, 0.468, 192.0, 0.0, 0.0, 0.0, 0.0, 0.0, 0.0, 0.0, 0.0, 0.0, 1.695771047763227E9, 0.0, 2023-09-26 18:30:47.763
4.0, 43422.55513936939, 61598.12201239134, -29969.576593586993, -19399.771916839116, -21871.181949517962, -3382.645950632805, -187500.02235174447, -2653.2414738227694, 15362.46572285482, -23274.424466422137, -187500.02235174447, 3326.677182516716, -2355.8515138449093, -6918.960144395846, 3347.620767071339, -24249.005228162438, -0.114, 0.874, 0.468, 192.0, 0.0, 0.0, 0.0, 0.0, 0.0, 0.0, 0.0, 0.0, 0.0, 1.695771047763236E9, 0.0, 2023-09-26 18:30:47.763
6.0, 43418.68828757862, 61593.29403558899, -29966.983791230177, -19396.530913893093, -21861.525995913267, -3386.959837312679, -187500.02235174447, -2684.3998055934676, 15347.311240114122, -23290.38361196323, -187500.02235174447, 3324.196138882177, -2369.5307814515572, -6933.779350969715, 3374.1075842508776, -24259.108216656237, -0.114, 0.874, 0.468, 192.0, 0.0, 0.0, 0.0, 0.0, 0.0, 0.0, 0.0, 0.0, 0.0, 1.69577104776324E9, 0.0, 2023-09-26 18:30:47.763
8.0, 43413.30151716489, 61591.08121288791, -29969.509538353628, -19403.974044796712, -21863.13532151405, -3385.372863456352, -187500.02235174447, -2656.90715991344, 15354.12852217299, -23283.923957815645, -187500.02235174447, 3311.5003480315627, -2359.584255168945, -6923.341086309086, 3345.3408891368977, -24253.006190419936, -0.108, 0.876, 0.46, 192.0, 126.0, 80.0, 13.5, 48.0, 7.0, 48.0, 0.0, 0.0, 0.0, 1.695771047763243E9, 0.0, 2023-09-26 18:30:47.763
10.0, 43418.37536315624, 61585.537980263, -29960.054750449035, -19392.485248146684, -21849.679571351957, -3384.970532056157, -187500.02235174447, -2677.4707648123226, 15354.374391362, -23284.549806660394, -187500.02235174447, 3323.905566204258, -2359.539551680035, -6925.062170632144, 3380.902514565291, -24253.56498403132, -0.108, 0.876, 0.46, 192.0, 0.0, 0.0, 0.0, 0.0, 0.0, 0.0, 0.0, 0.0, 0.0, 1.695771047763246E9, 0.0, 2023-09-26 18:30:47.763
12.0, 43411.69219156411, 61569.66824169973, -29962.64755280585, -19403.057623274046, -21854.775769087766, -3382.8918198218134, -187500.02235174447, -2656.482476768789, 15362.219853665812, -23278.60424263528, -187500.02235174447, 3311.9920864095793, -2350.4200399422693, -6918.4237025289185, 3348.201912427177, -24251.910954941628, -0.108, 0.876, 0.46, 192.0, 0.0, 0.0, 0.0, 0.0, 0.0, 0.0, 0.0, 0.0, 0.0, 1.695771047763249E9, 0.0, 2023-09-26 18:30:47.763
14.0, 43411.78159854193, 61590.254198343064, -29968.74957904215, -19406.879771575903, -21862.956507558407, -3396.2358112616316, -187500.02235174447, -2680.0859189135936, 15354.84377799556, -23288.595472406803, -187500.02235174447, 3327.124217405822, -2364.121659293373, -6933.153502124966, 3385.126994267344, -24259.555251545342, -0.108, 0.876, 0.46, 192.0, 0.0, 0.0, 0.0, 0.0, 0.0, 0.0, 0.0, 0.0, 0.0, 1.695771047763253E9, 0.0, 2023-09-26 18:30:47.763
16.0, 43415.42493288815, 61574.42916326871, -29961.79818651655, -19401.40359418435, -21859.961373801398, -3391.2737239925536, -187500.02235174447, -2667.4795350408003, 15351.312202371622, -23290.584777663324, -187500.02235174447, 3308.4381590411854, -2368.435545973247, -6936.75213298227, 3333.1368366642996, -24268.339487116278, -0.108, 0.876, 0.46, 192.0, 0.0, 0.0, 0.0, 0.0, 0.0, 0.0, 0.0, 0.0, 0.0, 1.695771047823532E9, 0.0, 2023-09-26 18:30:47.823
18.0, 43417.81656954486, 61597.965550180146, -29956.098491680445, -19393.669890602814, -21853.8593475651, -3390.0443780475116, -187500.02235174447, -2663.2774070832024, 15360.990507720771, -23281.197044992095, -187500.02235174447, 3337.540130321995, -2363.764031382088, -6931.99121141329, 3388.1668315132656, -24255.084902654282, -0.112, 0.88, 0.464, 192.0, 126.0, 64.0, 13.5, 64.0, 7.0, 64.0, 0.0, 0.0, 0.0, 1.695771047823543E9, 0.0, 2023-09-26 18:30:47.823
20.0, 43425.371459170754, 61557.50889271604, -29947.694235765248, -19386.003242254646, -21843.7563590713, -3373.302921450487, -187500.02235174447, -2649.5757877320993, 15370.244129925268, -23270.84818730929, -187500.02235174447, 3326.1854441386995, -2350.2859294755376, -6916.479100761307, 3352.8510752738807, -24251.687437497072, -0.112, 0.88, 0.464, 192.0, 0.0, 0.0, 0.0, 0.0, 0.0, 0.0, 0.0, 0.0, 0.0, 1.695771047823546E9, 0.0, 2023-09-26 18:30:47.823
22.0, 43413.39092414271, 61595.90918969026, -29960.92646848279, -19400.241303472674, -21855.334562699147, -3388.8597355913803, -187500.02235174447, -2659.768183203719, 15360.52112108721, -23282.158170003673, -187500.02235174447, 3339.8647117453474, -2365.395708727325, -6929.912499178947, 3397.1745845287546, -24253.095597397758, -0.112, 0.88, 0.464, 192.0, 0.0, 0.0, 0.0, 0.0, 0.0, 0.0, 0.0, 0.0, 0.0, 1.695771047823549E9, 0.0, 2023-09-26 18:30:47.823
24.0, 43416.38605789973, 61554.87138687031, -29952.432805589775, -19391.03238475709, -21844.695132338424, -3381.0813285209333, -187500.02235174447, -2665.6243402510095, 15358.308298386133, -23283.454571182083, -187500.02235174447, 3319.32345859092, -2360.3218627359706, -6926.649144488471, 3355.0191944860453, -24258.012981177926, -0.112, 0.88, 0.464, 192.0, 0.0, 0.0, 0.0, 0.0, 0.0, 0.0, 0.0, 0.0, 0.0, 1.695771047823553E9, 0.0, 2023-09-26 18:30:47.823
26.0, 43418.330659667336, 61592.914055933245, -29949.191802643756, -19387.21023645523, -21841.878812537052, -3379.136726753322, -187500.02235174447, -2636.969403859306, 15361.616356565519, -23281.26410022546, -187500.02235174447, 3339.350621622875, -2360.7465458806214, -6926.336220066098, 3397.711026395682, -24246.032446149882, -0.112, 0.88, 0.464, 192.0, 0.0, 0.0, 0.0, 0.0, 0.0, 0.0, 0.0, 0.0, 0.0, 1.695771047823556E9, 0.0, 2023-09-26 18:30:47.823
28.0, 43442.381136701246, 61527.73636910157, -29924.35901455391, -19362.332744876476, -21819.862344248577, -3356.8520375313806, -187500.02235174447, -2645.418363263412, 15380.749449819263, -23260.387570904204, -187500.02235174447, 3333.941499464691, -2338.46185665868, -6899.357664508541, 3370.799526071492, -24231.839088420762, -0.11, 0.882, 0.464, 192.0, 126.0, 72.0, 13.5, 72.0, 7.0, 64.0, 0.0, 0.0, 0.0, 1.695771047823559E9, 0.0, 2023-09-26 18:30:47.823
30.0, 43431.2499679625, 61569.936462633195, -29938.48531704966, -19379.431829384786, -21836.246172934316, -3370.3077876934753, -187500.02235174447, -2632.8566828795297, 15379.296586429668, -23264.522643628436, -187500.02235174447, 3354.0133659855564, -2346.7543538515993, -6909.885336146991, 3412.284363780542, -24228.352216285733, -0.11, 0.882, 0.464, 192.0, 0.0, 0.0, 0.0, 0.0, 0.0, 0.0, 0.0, 0.0, 0.0, 1.695771047823562E9, 0.0, 2023-09-26 18:30:47.823
32.0, 43429.41712491717, 61533.27960172649, -29937.25597110462, -19381.26467243012, -21836.849670034608, -3370.4642499046627, -187500.02235174447, -2658.203561091848, 15375.385031149988, -23267.13779772971, -187500.02235174447, 3334.388534353797, -2346.3743741958588, -6908.6783419464045, 3379.6061133868834, -24237.002341389936, -0.11, 0.882, 0.464, 192.0, 0.0, 0.0, 0.0, 0.0, 0.0, 0.0, 0.0, 0.0, 0.0, 1.695771047883786E9, 0.0, 2023-09-26 18:30:47.883
34.0, 43427.696040594106, 61579.97239589362, -29940.809898473013, -19389.221893456208, -21844.784539316242, -3375.314578451464, -187500.02235174447, -2631.828502634585, 15367.405458379444, -23275.095018755797, -187500.02235174447, 3344.1115431918556, -2358.332557479448, -6921.485891519295, 3396.1687560282658, -24238.99164664646, -0.11, 0.882, 0.464, 192.0, 0.0, 0.0, 0.0, 0.0, 0.0, 0.0, 0.0, 0.0, 0.0, 1.695771047883795E9, 0.0, 2023-09-26 18:30:47.883
36.0, 43431.51818889596, 61532.676104626196, -29933.143250124846, -19379.543588107063, -21836.424986889957, -3371.6041888718833, -187500.02235174447, -2663.389165805479, 15374.513313116231, -23270.55761463137, -187500.02235174447, 3336.221377399132, -2350.84472308692, -6915.3168100496305, 3373.839363317414, -24242.992608903958, -0.11, 0.882, 0.464, 192.0, 0.0, 0.0, 0.0, 0.0, 0.0, 0.0, 0.0, 0.0, 0.0, 1.695771047883799E9, 0.0, 2023-09-26 18:30:47.883
38.0, 43417.59305210031, 61571.97047137863, -29945.704930508728, -19395.055698759046, -21848.964315529385, -3379.7178721091595, -187500.02235174447, -2632.5884619460658, 15370.177074691901, -23274.55857688887, -187500.02235174447, 3342.099886190878, -2358.176095268261, -6921.776464197214, 3384.702311122693, -24237.874059423695, -0.112, 0.884, 0.47000000000000003, 192.0, 126.0, 64.0, 13.5, 80.0, 7.0, 88.0, 0.0, 0.0, 0.0, 1.695771047883802E9, 0.0, 2023-09-26 18:30:47.883
40.0, 43415.246118932504, 61540.275697741, -29947.0683869205, -19392.55230338005, -21846.729141083855, -3384.411738444774, -187500.02235174447, -2673.4698025548223, 15364.119751944514, -23286.583815405826, -187500.02235174447, 3324.2855458599984, -2362.892313348331, -6930.314830579142, 3369.748994082093, -24250.61455376322, -0.112, 0.884, 0.47000000000000003, 192.0, 0.0, 0.0, 0.0, 0.0, 0.0, 0.0, 0.0, 0.0, 0.0, 1.695771047883805E9, 0.0, 2023-09-26 18:30:47.883
42.0, 43416.40840964418, 61566.494293987074, -29943.961494441213, -19392.239378957674, -21845.36568467208, -3375.0910610069113, -187500.02235174447, -2633.5719387020995, 15370.534702603187, -23283.029888037432, -187500.02235174447, 3324.3526010933642, -2357.2596737455933, -6923.60930724255, 3370.6207121158495, -24245.76422521642, -0.112, 0.884, 0.47000000000000003, 192.0, 0.0, 0.0, 0.0, 0.0, 0.0, 0.0, 0.0, 0.0, 0.0, 1.695771047883808E9, 0.0, 2023-09-26 18:30:47.883
44.0, 43423.40450565869, 61534.75481686054, -29939.580552527972, -19381.30937591903, -21836.022655489764, -3375.4263371737406, -187500.02235174447, -2660.841066937574, 15368.14306594647, -23280.794713591902, -187500.02235174447, 3327.615955783839, -2354.979795811152, -6919.742455451782, 3378.577933141939, -24246.926515928095, -0.112, 0.884, 0.47000000000000003, 192.0, 0.0, 0.0, 0.0, 0.0, 0.0, 0.0, 0.0, 0.0, 0.0, 1.695771047883812E9, 0.0, 2023-09-26 18:30:47.883
46.0, 43407.35595313978, 61570.361145777846, -29956.59023005846, -19402.90116106286, -21856.250984221817, -3389.91026758078, -187500.02235174447, -2633.9966218467503, 15367.85249326855, -23284.952138060587, -187500.02235174447, 3324.5761185379174, -2360.232455758149, -6926.671496232927, 3371.71594759416, -24245.473652538498, -0.112, 0.884, 0.47000000000000003, 192.0, 0.0, 0.0, 0.0, 0.0, 0.0, 0.0, 0.0, 0.0, 0.0, 1.695771047943383E9, 0.0, 2023-09-26 18:30:47.943
48.0, 43406.439531617114, 61563.789732907986, -29958.06544519251, -19400.330710450497, -21856.116873755083, -3401.1308432973437, -187500.02235174447, -2682.902238714962, 15347.266536625211, -23301.827705124346, -187500.02235174447, 3318.0941126458783, -2375.7445664101324, -6943.2564906187645, 3372.006520272079, -24264.4279318366, -0.106, 0.882, 0.468, 192.0, 126.0, 88.0, 13.5, 72.0, 7.0, 80.0, 0.0, 0.0, 0.0, 1.695771047943395E9, 0.0, 2023-09-26 18:30:47.943
50.0, 43415.044953232406, 61571.72460218961, -29952.566916056505, -19398.050832516055, -21850.08190275215, -3387.652741390794, -187500.02235174447, -2642.646746950954, 15357.70480128584, -23292.574082919848, -187500.02235174447, 3317.4682638011295, -2364.2557697601046, -6933.108798636055, 3354.5274561080287, -24256.80598697734, -0.106, 0.882, 0.468, 192.0, 0.0, 0.0, 0.0, 0.0, 0.0, 0.0, 0.0, 0.0, 0.0, 1.695771047943399E9, 0.0, 2023-09-26 18:30:47.943
52.0, 43409.233499674025, 61566.427238753706, -29958.132500425876, -19397.670852860316, -21850.975972530363, -3399.1638897852768, -187500.02235174447, -2671.0558141536494, 15351.08868492707, -23300.84422836831, -187500.02235174447, 3326.006630183057, -2370.4248512297695, -6940.3731155840305, 3381.103680265389, -24256.18013813259, -0.106, 0.882, 0.468, 192.0, 0.0, 0.0, 0.0, 0.0, 0.0, 0.0, 0.0, 0.0, 0.0, 1.695771047943402E9, 0.0, 2023-09-26 18:30:47.943
54.0, 43411.71454330856, 61564.974375364116, -29959.227735904187, -19404.398727941363, -21854.082865009652, -3393.2406775046206, -187500.02235174447, -2642.1550085729373, 15347.84768198105, -23295.03277480993, -187500.02235174447, 3317.4906155455847, -2367.8096971284986, -6934.069923647634, 3347.6878223047047, -24254.973143932002, -0.106, 0.882, 0.468, 192.0, 0.0, 0.0, 0.0, 0.0, 0.0, 0.0, 0.0, 0.0, 0.0, 1.695771047943405E9, 0.0, 2023-09-26 18:30:47.943
56.0, 43424.58914811482, 61553.88791011428, -29946.55429679803, -19391.233550457186, -21840.962391014386, -3390.200840258699, -187500.02235174447, -2669.4241368084117, 15348.428827336887, -23299.011385322978, -187500.02235174447, 3327.8841767173026, -2369.2178570291826, -6938.249699860776, 3375.873372062847, -24256.98480093298, -0.106, 0.882, 0.468, 192.0, 0.0, 0.0, 0.0, 0.0, 0.0, 0.0, 0.0, 0.0, 0.0, 1.695771047943408E9, 0.0, 2023-09-26 18:30:47.943
58.0, 43415.26847067696, 61552.94913684716, -29965.128596440387, -19406.499791920163, -21854.552251643214, -3388.032721046534, -187500.02235174447, -2635.784761403175, 15360.923452487405, -23284.5945101493, -187500.02235174447, 3323.0785516594115, -2353.1693045102725, -6921.910574663946, 3352.225226429132, -24242.746739714952, -0.106, 0.886, 0.462, 192.0, 126.0, 88.0, 13.5, 88.0, 7.0, 56.0, 0.0, 0.0, 0.0, 1.695771047943411E9, 0.0, 2023-09-26 18:30:47.943
60.0, 43412.74272355351, 61570.986994622595, -29970.895346509857, -19397.13441099339, -21852.540594642236, -3389.0385495470227, -187500.02235174447, -2656.8177529356185, 15341.857414467027, -23303.057051069387, -187500.02235174447, 3324.866691215836, -2371.9671215971853, -6940.216653372843, 3377.7062151081823, -24252.067417152815, -0.106, 0.886, 0.462, 192.0, 0.0, 0.0, 0.0, 0.0, 0.0, 0.0, 0.0, 0.0, 0.0, 1.695771047943414E9, 0.0, 2023-09-26 18:30:47.943
62.0, 43431.98757552953, 61536.297087227955, -29951.941067211756, -19381.93522476378, -21841.051797992208, -3364.183409712721, -187500.02235174447, -2628.878072366485, 15363.829179266595, -23276.950213545588, -187500.02235174447, 3323.235013870599, -2343.334536949937, -6909.3265425356085, 3343.619804813839, -24229.626265719686, -0.106, 0.886, 0.462, 192.0, 0.0, 0.0, 0.0, 0.0, 0.0, 0.0, 0.0, 0.0, 0.0, 1.695771048003598E9, 0.0, 2023-09-26 18:30:48.003
64.0, 43429.59593887281, 61551.47392171311, -29955.472642835695, -19386.182056210288, -21842.41525440398, -3374.7334330956264, -187500.02235174447, -2642.132656828482, 15357.861263497027, -23284.37099270475, -187500.02235174447, 3341.0493542014783, -2371.6765489192667, -6921.977629897312, 3391.094910036911, -24234.387187288667, -0.106, 0.886, 0.462, 192.0, 0.0, 0.0, 0.0, 0.0, 0.0, 0.0, 0.0, 0.0, 0.0, 1.695771048003609E9, 0.0, 2023-09-26 18:30:48.003
66.0, 43425.796142315405, 61521.7237498431, -29957.707817281225, -19398.095536004967, -21844.873946294065, -3372.8558865613804, -187500.02235174447, -2633.7284009132864, 15368.254824668746, -23269.75295183098, -187500.02235174447, 3331.2369383855985, -2340.98760378213, -6905.325580278109, 3355.6003398418834, -24227.480498251974, -0.106, 0.886, 0.462, 192.0, 0.0, 0.0, 0.0, 0.0, 0.0, 0.0, 0.0, 0.0, 0.0, 1.695771048003613E9, 0.0, 2023-09-26 18:30:48.003
68.0, 43410.30638340788, 61567.81304690994, -29972.996410488657, -19418.726196137213, -21857.837958078144, -3397.286343251031, -187500.02235174447, -2657.4436017803673, 15331.597963762042, -23308.913208116675, -187500.02235174447, 3327.347734850375, -2383.075938591473, -6950.677269777927, 3395.677017650249, -24255.3754753322, -0.114, 0.89, 0.468, 192.0, 126.0, 56.0, 13.5, 104.0, 7.0, 80.0, 0.0, 0.0, 0.0, 1.695771048003616E9, 0.0, 2023-09-26 18:30:48.003
70.0, 43436.077944764846, 61512.20190670514, -29945.615523530905, -19400.755393595147, -21836.067358978675, -3373.638197617316, -187500.02235174447, -2640.1209998275044, 15364.633842066985, -23285.354469460784, -187500.02235174447, 3314.2496125995654, -2345.592063139923, -6920.345952552075, 3352.2475781735875, -24241.338579814266, -0.114, 0.89, 0.468, 192.0, 0.0, 0.0, 0.0, 0.0, 0.0, 0.0, 0.0, 0.0, 0.0, 1.695771048003619E9, 0.0, 2023-09-26 18:30:48.003
72.0, 43423.717430081066, 61555.20666303715, -29962.35698012793, -19413.31707397903, -21850.66304810799, -3388.4350524467295, -187500.02235174447, -2640.545682972155, 15355.603737307041, -23301.313615001873, -187500.02235174447, 3328.42061858423, -2364.6804529047554, -6939.255528361265, 3405.57884044395, -24244.33371357128, -0.114, 0.89, 0.468, 192.0, 0.0, 0.0, 0.0, 0.0, 0.0, 0.0, 0.0, 0.0, 0.0, 1.695771048003623E9, 0.0, 2023-09-26 18:30:48.003
74.0, 43421.14697946871, 61523.645999866254, -29964.435692362273, -19408.46674543223, -21850.864213808087, -3384.031758789034, -187500.02235174447, -2648.7934766761637, 15350.932222715883, -23297.75968763348, -187500.02235174447, 3308.3711038078195, -2356.4997144341132, -6930.359534068052, 3361.4117934002634, -24248.938172929073, -0.114, 0.89, 0.468, 192.0, 0.0, 0.0, 0.0, 0.0, 0.0, 0.0, 0.0, 0.0, 0.0, 1.695771048003626E9, 0.0, 2023-09-26 18:30:48.003
76.0, 43420.02939224594, 61557.553596204954, -29957.417244603308, -19400.26365521713, -21845.857423050096, -3383.115337266366, -187500.02235174447, -2629.906252611429, 15337.789396976163, -23305.18046679264, -187500.02235174447, 3322.60916502585, -2362.981720326152, -6939.99313592829, 3395.900535094802, -24243.75256821544, -0.114, 0.89, 0.468, 192.0, 0.0, 0.0, 0.0, 0.0, 0.0, 0.0, 0.0, 0.0, 0.0, 1.695771048063858E9, 0.0, 2023-09-26 18:30:48.063
78.0, 43424.45503764809, 61507.97742700308, -29954.802090502035, -19393.84870455846, -21838.97308575786, -3379.6284651313385, -187500.02235174447, -2647.43002026439, 15351.13338841598, -23292.909359086676, -187500.02235174447, 3320.552804535962, -2345.1673799952723, -6922.625830486516, 3371.581837127428, -24237.672893723597, -0.116, 0.888, 0.46, 192.0, 126.0, 48.0, 13.5, 96.0, 7.0, 48.0, 0.0, 0.0, 0.0, 1.695771048063869E9, 0.0, 2023-09-26 18:30:48.063
80.0, 43418.35301141179, 61550.11046530133, -29962.64755280585, -19403.03527152959, -21852.674705108966, -3387.1610030127767, -187500.02235174447, -2631.068543323105, 15346.461873824821, -23303.235865025028, -187500.02235174447, 3335.0590866874563, -2351.537627165035, -6934.85223470357, 3392.190145515221, -24242.724387970495, -0.116, 0.888, 0.46, 192.0, 0.0, 0.0, 0.0, 0.0, 0.0, 0.0, 0.0, 0.0, 0.0, 1.695771048063873E9, 0.0, 2023-09-26 18:30:48.063
82.0, 43420.4987788795, 61518.99683701955, -29964.189823173267, -19399.59310288347, -21851.288896952738, -3388.613866402372, -187500.02235174447, -2658.4047267919454, 15349.166434903913, -23304.487562714527, -187500.02235174447, 3319.390513824286, -2353.2810632325486, -6934.047571903178, 3362.0599939894673, -24251.28510609688, -0.116, 0.888, 0.46, 192.0, 0.0, 0.0, 0.0, 0.0, 0.0, 0.0, 0.0, 0.0, 0.0, 1.695771048063876E9, 0.0, 2023-09-26 18:30:48.063
84.0, 43422.801008558396, 61561.35339276236, -29966.134424940876, -19401.537704651084, -21856.6086121331, -3392.190145515221, -187500.02235174447, -2631.4038194899344, 15345.590155791064, -23307.460344727082, -187500.02235174447, 3332.488636075096, -2345.4579526731914, -6942.027144673722, 3377.9744360416457, -24250.145167129656, -0.116, 0.888, 0.46, 192.0, 0.0, 0.0, 0.0, 0.0, 0.0, 0.0, 0.0, 0.0, 0.0, 1.695771048063879E9, 0.0, 2023-09-26 18:30:48.063
86.0, 43443.52107566847, 61509.47499388159, -29945.704930508728, -19382.31520441952, -21838.66016133549, -3380.8801628208357, -187500.02235174447, -2654.2473023232583, 15358.062429197125, -23292.685841642124, -187500.02235174447, 3334.5002930760734, -2350.7106126201884, -6923.877528176014, 3367.2903021920088, -24237.73994895696, -0.116, 0.888, 0.46, 192.0, 0.0, 0.0, 0.0, 0.0, 0.0, 0.0, 0.0, 0.0, 0.0, 1.695771048063882E9, 0.0, 2023-09-26 18:30:48.063
88.0, 43426.13141848224, 61558.47001772762, -29969.196613931254, -19403.996396541166, -21858.352048200613, -3398.2474682626093, -187500.02235174447, -2622.843101363552, 15354.195577406357, -23297.647928911203, -187500.02235174447, 3339.507083834062, -2349.436563186236, -6934.2710893477315, 3382.1989157436988, -24239.41632979111, -0.116, 0.88, 0.466, 192.0, 126.0, 48.0, 13.5, 64.0, 7.0, 72.0, 0.0, 0.0, 0.0, 1.695771048063885E9, 0.0, 2023-09-26 18:30:48.063
90.0, 43433.216921474566, 61532.877270326295, -29963.20634641723, -19394.78747782558, -21850.595992874623, -3397.8227851179586, -187500.02235174447, -2659.09763087006, 15346.551280802641, -23303.14645804721, -187500.02235174447, 3327.750066250571, -2354.0633742884847, -6938.607327772061, 3368.3408341814084, -24251.41921656361, -0.116, 0.88, 0.466, 192.0, 0.0, 0.0, 0.0, 0.0, 0.0, 0.0, 0.0, 0.0, 0.0, 1.695771048063889E9, 0.0, 2023-09-26 18:30:48.063
92.0, 43427.4501714051, 61561.59926195136, -29968.146081941853, -19402.521181407115, -21856.809777833198, -3396.1464042838106, -187500.02235174447, -2626.777008387686, 15354.955536717838, -23299.123144045254, -187500.02235174447, 3329.739371507093, -2345.7038218621997, -6935.27691784822, 3369.9278080377353, -24245.116024627212, -0.116, 0.88, 0.466, 192.0, 0.0, 0.0, 0.0, 0.0, 0.0, 0.0, 0.0, 0.0, 0.0, 1.695771048124086E9, 0.0, 2023-09-26 18:30:48.124
94.0, 43423.426857403145, 61538.3757994623, -29969.196613931254, -19399.41428892783, -21851.31124869719, -3403.5671834429722, -187500.02235174447, -2678.364834590535, 15341.075103411093, -23312.645949440714, -187500.02235174447, 3325.8948714607805, -2355.2480167446156, -6947.3021563651755, 3379.9860930426235, -24256.157786388136, -0.116, 0.88, 0.466, 192.0, 0.0, 0.0, 0.0, 0.0, 0.0, 0.0, 0.0, 0.0, 0.0, 1.695771048124096E9, 0.0, 2023-09-26 18:30:48.124
96.0, 43413.234461931526, 61572.84218941238, -29975.9244890123, -19413.071204790023, -21866.33162097116, -3408.059884078489, -187500.02235174447, -2640.5680347166103, 15347.89238546996, -23306.678033671145, -187500.02235174447, 3329.225281384621, -2354.7786301110546, -6944.441133074896, 3370.5760086269393, -24252.357989830733, -0.116, 0.88, 0.466, 192.0, 0.0, 0.0, 0.0, 0.0, 0.0, 0.0, 0.0, 0.0, 0.0, 1.6957710481241E9, 0.0, 2023-09-26 18:30:48.124
98.0, 43423.11393298077, 61555.34077350388, -29972.59407908846, -19396.955597037744, -21854.37343768757, -3402.315485753475, -187500.02235174447, -2674.6991484998644, 15336.336533586567, -23313.025929096453, -187500.02235174447, 3330.387572096297, -2355.1586097667946, -6949.917310466446, 3382.578895399439, -24263.355048102745, -0.116, 0.882, 0.47200000000000003, 192.0, 126.0, 48.0, 13.5, 72.0, 7.0, 96.0, 0.0, 0.0, 0.0, 1.695771048124103E9, 0.0, 2023-09-26 18:30:48.124
100.0, 43433.149866241205, 61559.31938401692, -29957.305485881032, -19399.056661016544, -21858.910841811998, -3395.9899420726233, -187500.02235174447, -2630.5991566895436, 15356.833083252084, -23293.46815269806, -187500.02235174447, 3335.6625837877496, -2344.0944962614176, -6927.0514758886675, 3366.507991136073, -24246.300667083346, -0.116, 0.882, 0.47200000000000003, 192.0, 0.0, 0.0, 0.0, 0.0, 0.0, 0.0, 0.0, 0.0, 0.0, 1.695771048124106E9, 0.0, 2023-09-26 18:30:48.124
102.0, 43427.249005705, 61564.50498873055, -29966.424997618797, -19404.801059341557, -21860.14018775704, -3413.647820192316, -187500.02235174447, -2677.381357834501, 15337.878803953983, -23311.729527918047, -187500.02235174447, 3336.7354675216043, -2364.0322523155514, -6949.559682555161, 3390.3349507254306, -24264.115007414224, -0.116, 0.882, 0.47200000000000003, 192.0, 0.0, 0.0, 0.0, 0.0, 0.0, 0.0, 0.0, 0.0, 0.0, 1.695771048124109E9, 0.0, 2023-09-26 18:30:48.124
104.0, 43421.482255635536, 61570.53995973348, -29967.31906739701, -19409.51727742163, -21862.129493013563, -3407.9257736117574, -187500.02235174447, -2643.294947540158, 15347.400647091943, -23307.28153077144, -187500.02235174447, 3319.7034382466604, -2348.7213073636663, -6942.3177173516415, 3360.160095710766, -24258.28120211139, -0.116, 0.882, 0.47200000000000003, 192.0, 0.0, 0.0, 0.0, 0.0, 0.0, 0.0, 0.0, 0.0, 0.0, 1.695771048124113E9, 0.0, 2023-09-26 18:30:48.124
106.0, 43435.74266859802, 61565.35435501985, -29960.658247549327, -19391.16649522382, -21848.204356217906, -3397.3310467399415, -187500.02235174447, -2654.1578953454373, 15349.94874595985, -23309.47200172806, -187500.02235174447, 3329.6276127848164, -2346.553188151501, -6939.836673717103, 3394.738244383126, -24248.4240828066, -0.116, 0.882, 0.47200000000000003, 192.0, 0.0, 0.0, 0.0, 0.0, 0.0, 0.0, 0.0, 0.0, 0.0, 1.695771048183016E9, 0.0, 2023-09-26 18:30:48.183
108.0, 43434.28980520843, 61563.700325930164, -29975.991544245666, -19405.56101865304, -21869.19264426144, -3404.5953636879167, -187500.02235174447, -2642.1550085729373, 15345.813673235616, -23301.67124291316, -187500.02235174447, 3322.877385959314, -2346.240263729127, -6932.952336424868, 3362.3952701562966, -24250.994533418958, -0.12, 0.884, 0.47200000000000003, 192.0, 126.0, 32.0, 13.5, 80.0, 7.0, 96.0, 0.0, 0.0, 0.0, 1.695771048183027E9, 0.0, 2023-09-26 18:30:48.183
110.0, 43434.44626741961, 61579.27949181551, -29979.23254719169, -19400.93420755079, -21870.958432073407, -3413.7819306590477, -187500.02235174447, -2662.3162820716243, 15338.661115009918, -23312.489487229526, -187500.02235174447, 3338.456551844663, -2358.600778412912, -6946.117513909044, 3388.7256251246486, -24259.398789334155, -0.12, 0.884, 0.47200000000000003, 192.0, 0.0, 0.0, 0.0, 0.0, 0.0, 0.0, 0.0, 0.0, 0.0, 1.69577104818303E9, 0.0, 2023-09-26 18:30:48.183
112.0, 43432.94870054111, 61558.33590726089, -29974.806901789536, -19402.118850006922, -21871.494873940333, -3408.551622456506, -187500.02235174447, -2648.4358487648788, 15345.456045324332, -23308.622635438758, -187500.02235174447, 3323.100903403867, -2345.0556212729957, -6937.668554504938, 3343.8209705139366, -24262.483330068986, -0.12, 0.884, 0.47200000000000003, 192.0, 0.0, 0.0, 0.0, 0.0, 0.0, 0.0, 0.0, 0.0, 0.0, 1.695771048183033E9, 0.0, 2023-09-26 18:30:48.183
114.0, 43432.725183096554, 61581.82759068342, -29975.41039888983, -19399.324881950008, -21866.733952371356, -3410.2280032906538, -187500.02235174447, -2657.0859738690824, 15340.024571421693, -23315.886952386732, -187500.02235174447, 3342.5469210799843, -2351.2247027426606, -6946.922176709435, 3386.579857656939, -24257.70005675555, -0.12, 0.884, 0.47200000000000003, 192.0, 0.0, 0.0, 0.0, 0.0, 0.0, 0.0, 0.0, 0.0, 0.0, 1.695771048183037E9, 0.0, 2023-09-26 18:30:48.183
116.0, 43427.58428187183, 61552.50210195805, -29971.83411977698, -19407.684434376293, -21868.65620239451, -3408.7304364121483, -187500.02235174447, -2657.4659535248225, 15344.874899968494, -23304.979301092542, -187500.02235174447, 3323.5702900374285, -2356.1197347783727, -6932.281784091209, 3348.358374638364, -24253.050893908847, -0.12, 0.884, 0.47200000000000003, 192.0, 0.0, 0.0, 0.0, 0.0, 0.0, 0.0, 0.0, 0.0, 0.0, 1.69577104818304E9, 0.0, 2023-09-26 18:30:48.183
118.0, 43420.18585445712, 61594.52338153403, -29978.98667800268, -19409.85255358846, -21872.299536740727, -3415.681828937749, -187500.02235174447, -2658.4717820253113, 15328.245202093745, -23326.52638274746, -187500.02235174447, 3325.6042987828614, -2368.5473046955235, -6957.382793114519, 3386.8480785904026, -24264.80791149234, -0.12, 0.89, 0.466, 192.0, 126.0, 32.0, 13.5, 104.0, 7.0, 72.0, 0.0, 0.0, 0.0, 1.695771048183043E9, 0.0, 2023-09-26 18:30:48.183
120.0, 43418.26360443397, 61564.14736081927, -29982.965288515723, -19412.445355945274, -21875.294670497737, -3411.9043841248017, -187500.02235174447, -2668.641825752476, 15338.348190587545, -23317.27276054296, -187500.02235174447, 3314.428426555208, -2353.7728016105657, -6943.703525507871, 3350.3029764059756, -24260.784597490383, -0.12, 0.89, 0.466, 192.0, 0.0, 0.0, 0.0, 0.0, 0.0, 0.0, 0.0, 0.0, 0.0, 1.695771048183046E9, 0.0, 2023-09-26 18:30:48.183
122.0, 43428.187778972126, 61599.507820547566, -29980.84187279247, -19405.1810389973, -21869.23734775035, -3408.7527881566034, -187500.02235174447, -2649.2405115652696, 15327.887574182461, -23322.771289678967, -187500.02235174447, 3331.639269785794, -2364.3228249934705, -6953.203016901376, 3386.4904506791177, -24260.51637655692, -0.12, 0.89, 0.466, 192.0, 0.0, 0.0, 0.0, 0.0, 0.0, 0.0, 0.0, 0.0, 0.0, 1.695771048243391E9, 0.0, 2023-09-26 18:30:48.243
124.0, 43440.011851788986, 61548.277622256, -29970.940049998768, -19395.055698759046, -21861.32483021317, -3400.415587474774, -187500.02235174447, -2664.0820698835937, 15347.601812792042, -23304.196990036606, -187500.02235174447, 3326.520720305529, -2344.4297724282474, -6930.873624190524, 3355.399174141786, -24246.479481038987, -0.12, 0.89, 0.466, 192.0, 0.0, 0.0, 0.0, 0.0, 0.0, 0.0, 0.0, 0.0, 0.0, 1.695771048243399E9, 0.0, 2023-09-26 18:30:48.243
126.0, 43429.66299410618, 61597.76438448005, -29981.288907681574, -19409.964312310734, -21873.260661752305, -3412.731398669648, -187500.02235174447, -2650.738078443775, 15340.471606310799, -23310.969568606564, -187500.02235174447, 3342.7927902689926, -2357.617301656878, -6945.022278430734, 3393.285380993531, -24251.03923690787, -0.12, 0.89, 0.466, 192.0, 0.0, 0.0, 0.0, 0.0, 0.0, 0.0, 0.0, 0.0, 0.0, 1.695771048243402E9, 0.0, 2023-09-26 18:30:48.243
128.0, 43428.27718594995, 61566.20372130915, -29980.819521048015, -19408.42204194332, -21870.824321606677, -3413.223137047665, -187500.02235174447, -2673.0227676657164, 15339.398722576943, -23318.09977508781, -187500.02235174447, 3319.614031268839, -2355.6503481448112, -6948.1291709100215, 3363.155229467777, -24260.583431790285, -0.10400000000000001, 0.884, 0.468, 192.0, 126.0, 96.0, 13.5, 80.0, 7.0, 80.0, 0.0, 0.0, 0.0, 1.695771048243405E9, 0.0, 2023-09-26 18:30:48.243
130.0, 43429.506531894986, 61603.66524501625, -29984.21698620522, -19407.729137865204, -21875.071153053184, -3414.5865934594385, -187500.02235174447, -2657.9800436472947, 15334.816614963605, -23317.831554154345, -187500.02235174447, 3329.225281384621, -2361.1265255363614, -6953.247720390287, 3383.0482820330003, -24258.392960833666, -0.10400000000000001, 0.884, 0.468, 192.0, 0.0, 0.0, 0.0, 0.0, 0.0, 0.0, 0.0, 0.0, 0.0, 1.695771048243408E9, 0.0, 2023-09-26 18:30:48.243
132.0, 43454.45107870711, 61538.08522678438, -29956.344360869454, -19378.26953867311, -21844.471614893868, -3389.619694902861, -187500.02235174447, -2665.2443605952694, 15352.809769250129, -23295.9491963326, -187500.02235174447, 3333.650926786772, -2335.757295579588, -6927.900842177969, 3366.932674280724, -24246.74770197245, -0.10400000000000001, 0.884, 0.468, 192.0, 0.0, 0.0, 0.0, 0.0, 0.0, 0.0, 0.0, 0.0, 0.0, 1.695771048243412E9, 0.0, 2023-09-26 18:30:48.243
134.0, 43433.015755774475, 61589.494239031585, -29986.586271117485, -19410.813678600036, -21876.881644354064, -3413.6925236812262, -187500.02235174447, -2647.385316775479, 15353.972059961805, -23300.21837952356, -187500.02235174447, 3347.419601371241, -2346.8437608294203, -6939.099066150077, 3397.934543840235, -24245.09367288276, -0.10400000000000001, 0.884, 0.468, 192.0, 0.0, 0.0, 0.0, 0.0, 0.0, 0.0, 0.0, 0.0, 0.0, 1.695771048243415E9, 0.0, 2023-09-26 18:30:48.243
136.0, 43448.3043489819, 61543.18142452019, -29973.44344537776, -19389.69128008977, -21861.548347657725, -3400.415587474774, -187500.02235174447, -2678.72246250182, 15349.23349013728, -23307.013309837977, -187500.02235174447, 3325.9172232052356, -2345.0779730174513, -6940.350763839575, 3373.5264388950395, -24252.08976889727, -0.10400000000000001, 0.884, 0.468, 192.0, 0.0, 0.0, 0.0, 0.0, 0.0, 0.0, 0.0, 0.0, 0.0, 1.695771048303511E9, 0.0, 2023-09-26 18:30:48.303
138.0, 43444.21397974658, 61584.71096571815, -29987.145064728866, -19404.465783174728, -21878.826246121676, -3406.897593366813, -187500.02235174447, -2645.507770241233, 15348.451179081343, -23302.878237113746, -187500.02235174447, 3335.5061215765622, -2349.525970164057, -6939.836673717103, 3376.7227383521486, -24247.261792094923, -0.10200000000000001, 0.878, 0.47000000000000003, 192.0, 126.0, 104.0, 13.5, 56.0, 7.0, 88.0, 0.0, 0.0, 0.0, 1.695771048303522E9, 0.0, 2023-09-26 18:30:48.303
140.0, 43444.3033867244, 61554.73727640358, -29985.55809087254, -19401.560056395538, -21872.455998951915, -3407.38933174483, -187500.02235174447, -2681.1140991585376, 15348.697048270351, -23305.8510191263, -187500.02235174447, 3329.7617232515486, -2350.151819008806, -6939.479045805818, 3368.072613247945, -24255.330771843288, -0.10200000000000001, 0.878, 0.47000000000000003, 192.0, 0.0, 0.0, 0.0, 0.0, 0.0, 0.0, 0.0, 0.0, 0.0, 1.695771048303526E9, 0.0, 2023-09-26 18:30:48.303
142.0, 43428.97009002806, 61588.108430875356, -30002.70187886976, -19421.587219427493, -21890.76207766081, -3417.0676370939777, -187500.02235174447, -2653.28617731168, 15336.22477486429, -23316.579856464847, -187500.02235174447, 3320.172824880222, -2359.0031098131076, -6950.856083733569, 3360.361261410864, -24256.64952476615, -0.10200000000000001, 0.878, 0.47000000000000003, 192.0, 0.0, 0.0, 0.0, 0.0, 0.0, 0.0, 0.0, 0.0, 0.0, 1.695771048303529E9, 0.0, 2023-09-26 18:30:48.303
144.0, 43434.625081375256, 61567.27660504301, -29995.79518983307, -19411.17130651132, -21878.625080421578, -3416.3747330158635, -187500.02235174447, -2690.0100934517495, 15327.597001504542, -23323.218324568075, -187500.02235174447, 3312.5732317654174, -2357.4161359567806, -6956.354612869574, 3362.641139345305, -24264.47263532551, -0.10200000000000001, 0.878, 0.47000000000000003, 192.0, 0.0, 0.0, 0.0, 0.0, 0.0, 0.0, 0.0, 0.0, 0.0, 1.695771048303532E9, 0.0, 2023-09-26 18:30:48.303
146.0, 43436.36851744277, 61581.82759068342, -29991.99539327567, -19420.670797904826, -21880.614385678102, -3410.7867969020367, -187500.02235174447, -2645.9995086192503, 15351.625126793997, -23314.836420397332, -187500.02235174447, 3313.0202666545233, -2350.9117783202864, -6946.095162164589, 3351.174694439733, -24253.028542164393, -0.10200000000000001, 0.878, 0.47000000000000003, 192.0, 0.0, 0.0, 0.0, 0.0, 0.0, 0.0, 0.0, 0.0, 0.0, 1.695771048303535E9, 0.0, 2023-09-26 18:30:48.303
148.0, 43459.435517720645, 61547.00357282205, -29970.202442431742, -19391.814695813024, -21848.450225406912, -3395.542907183517, -187500.02235174447, -2668.5077152857443, 15341.969173189304, -23322.883048401243, -187500.02235174447, 3314.517833533029, -2344.60858638389, -6953.13596166801, 3370.1066219933778, -24258.66118176713, -0.1, 0.884, 0.464, 192.0, 126.0, 112.0, 13.5, 80.0, 7.0, 64.0, 0.0, 0.0, 0.0, 1.695771048303538E9, 0.0, 2023-09-26 18:30:48.303
150.0, 43434.98270928654, 61562.67214568522, -29987.055657751043, -19424.582353184505, -21879.832074622165, -3410.540927713028, -187500.02235174447, -2639.0481160936497, 15362.108094943536, -23304.979301092542, -187500.02235174447, 3321.6033365253616, -2343.8039235834985, -6934.628717259016, 3364.0045957570787, -24240.89154492516, -0.1, 0.884, 0.464, 192.0, 0.0, 0.0, 0.0, 0.0, 0.0, 0.0, 0.0, 0.0, 0.0, 1.695771048303542E9, 0.0, 2023-09-26 18:30:48.303
152.0, 43434.13334299724, 61567.74599167657, -29988.664983351828, -19419.150879281864, -21874.55706293071, -3419.1016458394106, -187500.02235174447, -2673.536857788188, 15326.501766026231, -23341.09972013232, -187500.02235174447, 3308.236993341088, -2374.4481652317245, -6970.682081065426, 3378.7567470975814, -24267.13249291569, -0.1, 0.884, 0.464, 192.0, 0.0, 0.0, 0.0, 0.0, 0.0, 0.0, 0.0, 0.0, 0.0, 1.695771048363964E9, 0.0, 2023-09-26 18:30:48.363
154.0, 43440.57064540037, 61554.31259325893, -29986.899195539856, -19418.212106014744, -21873.75240013032, -3406.7634829000813, -187500.02235174447, -2637.6623079374203, 15347.17712964739, -23320.916094889177, -187500.02235174447, 3307.7676067075263, -2349.168342252772, -6949.783199999714, 3345.8549792593694, -24248.37937931769, -0.1, 0.884, 0.464, 192.0, 0.0, 0.0, 0.0, 0.0, 0.0, 0.0, 0.0, 0.0, 0.0, 1.695771048363973E9, 0.0, 2023-09-26 18:30:48.363
156.0, 43437.95549129909, 61563.05212534096, -29987.726210084704, -19412.22183850072, -21873.305365241216, -3410.2056515461986, -187500.02235174447, -2663.724441972309, 15330.636838750463, -23330.214420582586, -187500.02235174447, 3317.5353190344954, -2366.5132959500907, -6962.747211783792, 3377.9744360416457, -24254.481405553986, -0.1, 0.884, 0.464, 192.0, 0.0, 0.0, 0.0, 0.0, 0.0, 0.0, 0.0, 0.0, 0.0, 1.695771048363976E9, 0.0, 2023-09-26 18:30:48.363
158.0, 43422.175159713646, 61563.38740150779, -30012.08961154099, -19441.36851327044, -21898.316967286704, -3427.729419199159, -187500.02235174447, -2654.8060959346412, 15338.929335943383, -23318.859734399288, -187500.02235174447, 3311.679161987205, -2358.310205734993, -6950.654918033471, 3336.221377399132, -24251.218050863514, -0.108, 0.882, 0.458, 192.0, 126.0, 80.0, 13.5, 72.0, 7.0, 40.0, 0.0, 0.0, 0.0, 1.69577104836398E9, 0.0, 2023-09-26 18:30:48.363
160.0, 43425.036183003926, 61586.767326208035, -30007.97689056121, -19432.494870721683, -21888.973938104384, -3430.992773889634, -187500.02235174447, -2678.7895177351857, 15311.436690263356, -23350.24158361454, -187500.02235174447, 3305.5100805175402, -2390.6531799618224, -6986.618874862061, 3359.2436741880983, -24282.421086123122, -0.108, 0.882, 0.458, 192.0, 0.0, 0.0, 0.0, 0.0, 0.0, 0.0, 0.0, 0.0, 0.0, 1.695771048363983E9, 0.0, 2023-09-26 18:30:48.363
162.0, 43423.560967869875, 61566.986032365094, -30011.9331493298, -19435.065321334045, -21893.153714317526, -3422.521462741073, -187500.02235174447, -2657.197732591359, 15334.816614963605, -23326.19110658063, -187500.02235174447, 3298.089301358378, -2351.537627165035, -6957.628662303528, 3324.79963598247, -24264.249117880958, -0.108, 0.882, 0.458, 192.0, 0.0, 0.0, 0.0, 0.0, 0.0, 0.0, 0.0, 0.0, 0.0, 1.695771048363986E9, 0.0, 2023-09-26 18:30:48.363
164.0, 43425.393810915215, 61598.56904728044, -30005.60760564895, -19426.75047239667, -21891.499685227835, -3426.3659627873853, -187500.02235174447, -2670.2735030977137, 15319.79624268964, -23339.04335964243, -187500.02235174447, 3310.092188130878, -2375.1634210542943, -6975.264188678764, 3361.545903866995, -24273.390981363176, -0.108, 0.882, 0.458, 192.0, 0.0, 0.0, 0.0, 0.0, 0.0, 0.0, 0.0, 0.0, 0.0, 1.695771048363989E9, 0.0, 2023-09-26 18:30:48.363
166.0, 43440.86121807829, 61558.76059040554, -29998.164474745332, -19411.84185884498, -21882.04489732324, -3412.440825991729, -187500.02235174447, -2666.697223984864, 15337.945859187348, -23316.691615187123, -187500.02235174447, 3309.0193043970235, -2369.2625605180933, -6952.37600235653, 3321.9609644366465, -24261.99159169097, -0.108, 0.882, 0.458, 192.0, 0.0, 0.0, 0.0, 0.0, 0.0, 0.0, 0.0, 0.0, 0.0, 1.695771048424101E9, 0.0, 2023-09-26 18:30:48.424
168.0, 43446.09152628083, 61582.85577092836, -29990.810750819535, -19402.722347107214, -21878.178045532473, -3412.9772678586564, -187500.02235174447, -2659.5893692480768, 15336.671809753396, -23318.52445823246, -187500.02235174447, 3330.1640546517438, -2369.9107611072973, -6955.70641228037, 3371.157153982777, -24255.442530565564, -0.10400000000000001, 0.888, 0.464, 192.0, 126.0, 96.0, 13.5, 96.0, 7.0, 64.0, 0.0, 0.0, 0.0, 1.695771048424111E9, 0.0, 2023-09-26 18:30:48.424
170.0, 43453.624064162264, 61524.338903944365, -29980.618355347917, -19389.55716962304, -21866.666897137988, -3400.907325852791, -187500.02235174447, -2667.680700740898, 15351.960402960827, -23300.21837952356, -187500.02235174447, 3324.6431737712833, -2347.8719410743643, -6934.114627136544, 3335.7072872766603, -24248.692303740063, -0.10400000000000001, 0.888, 0.464, 192.0, 0.0, 0.0, 0.0, 0.0, 0.0, 0.0, 0.0, 0.0, 0.0, 1.695771048424115E9, 0.0, 2023-09-26 18:30:48.424
172.0, 43451.6571106502, 61558.246500283065, -29993.202387476253, -19395.770954581614, -21873.014792563295, -3405.847061377414, -187500.02235174447, -2651.609796477532, 15353.815597750618, -23300.196027779108, -187500.02235174447, 3348.4701333606404, -2349.727135864155, -6936.349801582075, 3381.5283634100397, -24239.908068169127, -0.10400000000000001, 0.888, 0.464, 192.0, 0.0, 0.0, 0.0, 0.0, 0.0, 0.0, 0.0, 0.0, 0.0, 1.695771048424118E9, 0.0, 2023-09-26 18:30:48.424
174.0, 43454.98752057404, 61520.002665520034, -29982.473550137707, -19393.200503969252, -21867.650373894023, -3401.8908026088243, -187500.02235174447, -2670.161744375437, 15357.525987330198, -23304.688728414625, -187500.02235174447, 3328.2418046285875, -2341.7475630936106, -6936.349801582075, 3344.715040292149, -24247.440606050564, -0.10400000000000001, 0.888, 0.464, 192.0, 0.0, 0.0, 0.0, 0.0, 0.0, 0.0, 0.0, 0.0, 0.0, 1.695771048424121E9, 0.0, 2023-09-26 18:30:48.424
176.0, 43456.68625315264, 61554.64786942576, -29983.99346876067, -19389.378355667395, -21868.14211227204, -3399.2309450186426, -187500.02235174447, -2638.7575434157307, 15356.766028018717, -23306.253350526495, -187500.02235174447, 3341.1164094348446, -2353.7057463772, -6939.99313592829, 3378.197953486199, -24239.148108857647, -0.10400000000000001, 0.888, 0.464, 192.0, 0.0, 0.0, 0.0, 0.0, 0.0, 0.0, 0.0, 0.0, 0.0, 1.695771048424124E9, 0.0, 2023-09-26 18:30:48.424
178.0, 43455.03222406295, 61519.71209284212, -29996.443390422275, -19399.74956509466, -21873.260661752305, -3415.614773704383, -187500.02235174447, -2674.4309275664004, 15358.107132686036, -23303.012347580476, -187500.02235174447, 3332.287470374998, -2337.9030630472976, -6933.0864468916, 3354.5721595969394, -24241.003303647438, -0.10400000000000001, 0.878, 0.468, 192.0, 126.0, 96.0, 13.5, 56.0, 7.0, 80.0, 0.0, 0.0, 0.0, 1.695771048424127E9, 0.0, 2023-09-26 18:30:48.424
180.0, 43453.24408450652, 61554.7819798925, -30002.858341080948, -19412.423004200817, -21882.111952556606, -3422.6779249522597, -187500.02235174447, -2657.6000639915546, 15344.338458101567, -23317.742147176523, -187500.02235174447, 3333.1815401532103, -2364.5463424380237, -6952.4654093343515, 3364.7645550685593, -24255.531937543386, -0.10400000000000001, 0.878, 0.468, 192.0, 0.0, 0.0, 0.0, 0.0, 0.0, 0.0, 0.0, 0.0, 0.0, 1.695771048424131E9, 0.0, 2023-09-26 18:30:48.424
182.0, 43453.19938101761, 61515.107633484324, -29993.56001538754, -19410.724271622214, -21875.540539686746, -3425.069561608978, -187500.02235174447, -2685.2715236272247, 15342.349152845045, -23319.239714055027, -187500.02235174447, 3322.184481881199, -2358.1537435238056, -6949.447923832885, 3346.4361246152075, -24261.052818423846, -0.10400000000000001, 0.878, 0.468, 192.0, 0.0, 0.0, 0.0, 0.0, 0.0, 0.0, 0.0, 0.0, 0.0, 1.695771048483542E9, 0.0, 2023-09-26 18:30:48.483
184.0, 43432.658127863186, 61572.90924464575, -30016.068222054033, -19438.574545213527, -21899.926292887485, -3447.510713042106, -187500.02235174447, -2663.2550553387473, 15335.017780663704, -23332.874278172767, -187500.02235174447, 3323.525586548518, -2368.301435506515, -6969.497438609295, 3354.125124707833, -24272.47455984051, -0.10400000000000001, 0.878, 0.468, 192.0, 0.0, 0.0, 0.0, 0.0, 0.0, 0.0, 0.0, 0.0, 0.0, 1.695771048483551E9, 0.0, 2023-09-26 18:30:48.483
186.0, 43440.59299714482, 61532.251421481546, -30001.47253292472, -19420.89431534938, -21878.9156530995, -3441.1851693612543, -187500.02235174447, -2695.7991952656744, 15328.803995705128, -23341.010313154497, -187500.02235174447, 3309.6451532417723, -2360.6571389028, -6971.754964799281, 3337.785999511004, -24284.52215010192, -0.10400000000000001, 0.878, 0.468, 192.0, 0.0, 0.0, 0.0, 0.0, 0.0, 0.0, 0.0, 0.0, 0.0, 1.695771048483555E9, 0.0, 2023-09-26 18:30:48.483
188.0, 43424.07505799235, 61570.29409054448, -30013.60953016395, -19444.40835051636, -21895.433592251968, -3454.5291608010725, -187500.02235174447, -2665.9596164178392, 15334.257821352223, -23340.160946865195, -187500.02235174447, 3311.746217220571, -2369.106098306906, -6975.867685779058, 3348.559540338462, -24277.526054087408, -0.10200000000000001, 0.886, 0.468, 192.0, 126.0, 104.0, 13.5, 88.0, 7.0, 80.0, 0.0, 0.0, 0.0, 1.695771048483558E9, 0.0, 2023-09-26 18:30:48.483
190.0, 43441.26354947848, 61529.27863946899, -29992.9788700317, -19417.89918159237, -21868.79031286124, -3437.407724548307, -187500.02235174447, -2686.165593405437, 15333.922545185394, -23347.08998764634, -187500.02235174447, 3302.0455601269678, -2361.3500429809146, -6974.973616000845, 3350.0347554725117, -24283.00223147896, -0.10200000000000001, 0.886, 0.468, 192.0, 0.0, 0.0, 0.0, 0.0, 0.0, 0.0, 0.0, 0.0, 0.0, 1.695771048483561E9, 0.0, 2023-09-26 18:30:48.483
192.0, 43438.15665699919, 61553.55263394745, -30004.333556215, -19431.26552477664, -21883.60951943511, -3441.0734106389777, -187500.02235174447, -2658.2706163252137, 15345.098417413046, -23334.304789817907, -187500.02235174447, 3312.3050108319535, -2350.174170753261, -6962.724860039337, 3350.7053078061713, -24268.786522005383, -0.10200000000000001, 0.886, 0.468, 192.0, 0.0, 0.0, 0.0, 0.0, 0.0, 0.0, 0.0, 0.0, 0.0, 1.695771048483564E9, 0.0, 2023-09-26 18:30:48.483
194.0, 43434.11099125278, 61549.64107866777, -30006.814599849535, -19423.330655495007, -21879.742667644343, -3445.8566839524133, -187500.02235174447, -2700.9847999793055, 15325.36182705901, -23350.062769658896, -187500.02235174447, 3306.7841299514926, -2368.703766906711, -6980.159220714477, 3359.4895433771067, -24284.298632657366, -0.10200000000000001, 0.886, 0.468, 192.0, 0.0, 0.0, 0.0, 0.0, 0.0, 0.0, 0.0, 0.0, 0.0, 1.695771048483567E9, 0.0, 2023-09-26 18:30:48.483
196.0, 43439.855389577795, 61542.93555533118, -29996.64455612237, -19414.926399579814, -21871.919557084984, -3422.163834829788, -187500.02235174447, -2651.9897761332722, 15351.625126793997, -23324.961760635586, -187500.02235174447, 3313.444949799174, -2341.5240456490574, -6951.169008155944, 3337.875406488825, -24256.2248416215, -0.10200000000000001, 0.886, 0.468, 192.0, 0.0, 0.0, 0.0, 0.0, 0.0, 0.0, 0.0, 0.0, 0.0, 1.695771048543336E9, 0.0, 2023-09-26 18:30:48.543
198.0, 43441.71058436759, 61525.56824988941, -29999.326765457008, -19408.46674543223, -21867.739780871845, -3426.2765558095643, -187500.02235174447, -2687.193773650381, 15338.303487098634, -23335.400025296214, -187500.02235174447, 3319.8599004578473, -2352.766973110077, -6960.668499549449, 3374.934598795724, -24258.683533511583, -0.10400000000000001, 0.882, 0.464, 192.0, 126.0, 96.0, 13.5, 72.0, 7.0, 64.0, 0.0, 0.0, 0.0, 1.69577104854335E9, 0.0, 2023-09-26 18:30:48.543
200.0, 43447.07500303686, 61515.6217236068, -29996.1304659999, -19405.762184353138, -21869.080885539162, -3414.29602078152, -187500.02235174447, -2651.676851710898, 15355.246109395757, -23314.85877214179, -187500.02235174447, 3320.8210254694254, -2336.561958379979, -6941.647165017983, 3348.559540338462, -24246.99357116146, -0.10400000000000001, 0.882, 0.464, 192.0, 0.0, 0.0, 0.0, 0.0, 0.0, 0.0, 0.0, 0.0, 0.0, 1.695771048543354E9, 0.0, 2023-09-26 18:30:48.543
202.0, 43451.61240716129, 61513.587714861365, -30000.55611140205, -19403.862286074436, -21867.270394238283, -3423.2814220525534, -187500.02235174447, -2679.2142008798364, 15341.790359233662, -23324.380615279748, -187500.02235174447, 3335.5955285543837, -2352.722269621166, -6955.237025646809, 3377.1474214967993, -24258.23649862248, -0.10400000000000001, 0.882, 0.464, 192.0, 0.0, 0.0, 0.0, 0.0, 0.0, 0.0, 0.0, 0.0, 0.0, 1.695771048543357E9, 0.0, 2023-09-26 18:30:48.543
204.0, 43436.569683142865, 61520.11442424231, -30017.834009866, -19426.169327040832, -21886.738763658854, -3430.0092971336007, -187500.02235174447, -2656.974215146806, 15345.053713924137, -23316.490449487024, -187500.02235174447, 3323.6373452707944, -2347.6707753742667, -6949.246758132787, 3340.4682088456407, -24255.12960614319, -0.10400000000000001, 0.882, 0.464, 192.0, 0.0, 0.0, 0.0, 0.0, 0.0, 0.0, 0.0, 0.0, 0.0, 1.69577104854336E9, 0.0, 2023-09-26 18:30:48.543
206.0, 43447.09735478131, 61528.94336330216, -30002.545416658573, -19409.383166954896, -21873.28301349676, -3428.1317505993547, -187500.02235174447, -2680.8905817139844, 15325.518289270198, -23335.42237704067, -187500.02235174447, 3323.6373452707944, -2367.7426418951322, -6970.346804898597, 3366.6197498583497, -24271.46873134002, -0.10400000000000001, 0.882, 0.464, 192.0, 0.0, 0.0, 0.0, 0.0, 0.0, 0.0, 0.0, 0.0, 0.0, 1.695771048543364E9, 0.0, 2023-09-26 18:30:48.543
208.0, 43460.28488400995, 61497.38270013127, -29987.547396129063, -19401.068318017522, -21864.968164559385, -3414.4301312482517, -187500.02235174447, -2654.515523256722, 15357.302469885644, -23308.443821483117, -187500.02235174447, 3327.9512319506684, -2337.9701182806634, -6939.590804528094, 3332.9803744531127, -24256.04602766586, -0.10200000000000001, 0.88, 0.468, 192.0, 126.0, 104.0, 13.5, 64.0, 7.0, 80.0, 0.0, 0.0, 0.0, 1.695771048543367E9, 0.0, 2023-09-26 18:30:48.543
210.0, 43451.6571106502, 61525.63530512277, -29994.07410551001, -19403.147030251865, -21873.797103619232, -3424.1084365973998, -187500.02235174447, -2668.7982879636634, 15352.742714016762, -23307.527399960447, -187500.02235174447, 3355.086249719411, -2345.525007906557, -6948.084467421111, 3382.7577093550813, -24252.045065408358, -0.10200000000000001, 0.88, 0.468, 192.0, 0.0, 0.0, 0.0, 0.0, 0.0, 0.0, 0.0, 0.0, 0.0, 1.69577104854337E9, 0.0, 2023-09-26 18:30:48.543
212.0, 43452.104145539306, 61508.08918572536, -29996.376335188907, -19406.41038494234, -21877.8651211101, -3420.442750506729, -187500.02235174447, -2667.904218185451, 15356.52015882971, -23307.974434849555, -187500.02235174447, 3338.903586733769, -2349.2801009750488, -6944.1952638858875, 3335.0143831985456, -24258.3259056003, -0.10200000000000001, 0.88, 0.468, 192.0, 0.0, 0.0, 0.0, 0.0, 0.0, 0.0, 0.0, 0.0, 0.0, 1.695771048603653E9, 0.0, 2023-09-26 18:30:48.603
214.0, 43447.32087222587, 61549.64107866777, -29997.672736367316, -19402.990568040677, -21879.65326066652, -3422.253241807609, -187500.02235174447, -2670.0946891420713, 15348.205309892335, -23317.51862973197, -187500.02235174447, 3352.068764217945, -2365.015729071585, -6958.433325103918, 3371.38067142733, -24265.344353359265, -0.10200000000000001, 0.88, 0.468, 192.0, 0.0, 0.0, 0.0, 0.0, 0.0, 0.0, 0.0, 0.0, 0.0, 1.695771048603662E9, 0.0, 2023-09-26 18:30:48.603
216.0, 43463.280017766956, 61508.17859270318, -29976.438579134774, -19385.131524220888, -21860.587222646147, -3398.962724085179, -187500.02235174447, -2665.4902297842777, 15366.556092090143, -23297.13383878873, -187500.02235174447, 3346.838456015403, -2345.0332695285406, -6934.561662025651, 3332.913319219747, -24252.84972820875, -0.10200000000000001, 0.88, 0.468, 192.0, 0.0, 0.0, 0.0, 0.0, 0.0, 0.0, 0.0, 0.0, 0.0, 1.695771048603666E9, 0.0, 2023-09-26 18:30:48.603
218.0, 43454.49578219602, 61556.279546771, -29983.680544338295, -19397.402631926852, -21870.310231484204, -3413.379599258852, -187500.02235174447, -2663.120944872015, 15367.51721710172, -23305.09105981482, -187500.02235174447, 3366.6644533472604, -2355.8068103559986, -6947.391563342997, 3383.4953169221067, -24245.2724868384, -0.10200000000000001, 0.882, 0.47400000000000003, 192.0, 126.0, 104.0, 13.5, 72.0, 7.0, 104.0, 0.0, 0.0, 0.0, 1.695771048603669E9, 0.0, 2023-09-26 18:30:48.603
220.0, 43470.65609343721, 61505.07170022389, -29957.618410303407, -19378.493056117662, -21846.84089980613, -3390.312598980975, -187500.02235174447, -2663.2774070832024, 15384.124563232013, -23294.250463753997, -187500.02235174447, 3350.6382525728054, -2333.633879856334, -6927.476159033318, 3341.451685601674, -24240.779786202882, -0.10200000000000001, 0.882, 0.47400000000000003, 192.0, 0.0, 0.0, 0.0, 0.0, 0.0, 0.0, 0.0, 0.0, 0.0, 1.695771048603672E9, 0.0, 2023-09-26 18:30:48.603
222.0, 43454.78635487394, 61554.24553802556, -29969.64364882036, -19396.285044704087, -21860.43076043496, -3403.4107212317854, -187500.02235174447, -2649.6204912210096, 15378.89425502947, -23302.632367924736, -187500.02235174447, 3364.4739823906402, -2349.145990508317, -6942.027144673722, 3388.7703286135593, -24239.729254213486, -0.10200000000000001, 0.882, 0.47400000000000003, 192.0, 0.0, 0.0, 0.0, 0.0, 0.0, 0.0, 0.0, 0.0, 0.0, 1.695771048603675E9, 0.0, 2023-09-26 18:30:48.603
224.0, 43449.60075016031, 61514.10180498384, -29966.335590640974, -19397.670852860316, -21858.195585989426, -3398.5827444294387, -187500.02235174447, -2672.6874914988866, 15378.514275373731, -23301.22420802405, -187500.02235174447, 3341.384630368308, -2342.596929382912, -6933.645240502982, 3349.7665345390483, -24247.060626394825, -0.10200000000000001, 0.882, 0.47400000000000003, 192.0, 0.0, 0.0, 0.0, 0.0, 0.0, 0.0, 0.0, 0.0, 0.0, 1.695771048603679E9, 0.0, 2023-09-26 18:30:48.603
226.0, 43424.343278925815, 61576.39611678078, -29990.006088019145, -19425.007036329156, -21875.093504797638, -3415.637125448838, -187500.02235174447, -2654.1355436009817, 15362.868054255016, -23320.692577444624, -187500.02235174447, 3342.1445896797886, -2367.3850139838473, -6958.23215940382, 3367.491467892107, -24256.068379410313, -0.10200000000000001, 0.882, 0.47400000000000003, 192.0, 0.0, 0.0, 0.0, 0.0, 0.0, 0.0, 0.0, 0.0, 0.0, 1.695771048663922E9, 0.0, 2023-09-26 18:30:48.663
228.0, 43429.752401084, 61527.289334212466, -29978.69610532476, -19414.009978057144, -21857.23446097785, -3404.4612532211845, -187500.02235174447, -2679.013035179739, 15359.80586526464, -23324.559429235393, -187500.02235174447, 3321.7150952476377, -2361.439449958736, -6952.688926778905, 3332.958022708657, -24261.38809459068, -0.106, 0.878, 0.47400000000000003, 192.0, 126.0, 88.0, 13.5, 56.0, 7.0, 104.0, 0.0, 0.0, 0.0, 1.695771048663935E9, 0.0, 2023-09-26 18:30:48.663
230.0, 43406.506586850475, 61582.721660461626, -29997.13629450039, -19439.021580102635, -21874.601766419622, -3421.8509104074137, -187500.02235174447, -2656.4154215354233, 15353.077990183592, -23333.254257828507, -187500.02235174447, 3324.3302493489086, -2373.8446681314313, -6966.94933974139, 3351.8228950289367, -24260.31521085682, -0.106, 0.878, 0.47400000000000003, 192.0, 0.0, 0.0, 0.0, 0.0, 0.0, 0.0, 0.0, 0.0, 0.0, 1.695771048663939E9, 0.0, 2023-09-26 18:30:48.663
232.0, 43419.31413642337, 61528.965715046616, -29975.969192501212, -19419.30734149305, -21844.918649782976, -3405.7129509106817, -187500.02235174447, -2677.2472473677694, 15360.297603642655, -23330.84026942733, -187500.02235174447, 3306.22533634011, -2361.953540081208, -6958.4556768483735, 3331.0804761744116, -24263.578565547297, -0.106, 0.878, 0.47400000000000003, 192.0, 0.0, 0.0, 0.0, 0.0, 0.0, 0.0, 0.0, 0.0, 0.0, 1.695771048663942E9, 0.0, 2023-09-26 18:30:48.663
234.0, 43404.472578105044, 61564.95202361966, -29992.889463053878, -19441.010885359156, -21858.866138323086, -3421.3591720293966, -187500.02235174447, -2643.160837073426, 15356.721324529806, -23337.18816485264, -187500.02235174447, 3307.0747026294116, -2364.456935460202, -6967.642243819505, 3356.650871831283, -24259.84582422326, -0.106, 0.878, 0.47400000000000003, 192.0, 0.0, 0.0, 0.0, 0.0, 0.0, 0.0, 0.0, 0.0, 0.0, 1.695771048663945E9, 0.0, 2023-09-26 18:30:48.663
236.0, 43420.96816551306, 61508.98325550357, -29967.94491624176, -19413.965274568232, -21831.261733920783, -3402.4048927312965, -187500.02235174447, -2669.2453228527693, 15366.444333367865, -23327.263990314485, -187500.02235174447, 3302.336132804887, -2351.55997890949, -6953.895920979491, 3354.9297875082243, -24262.080998668793, -0.106, 0.878, 0.47400000000000003, 192.0, 0.0, 0.0, 0.0, 0.0, 0.0, 0.0, 0.0, 0.0, 0.0, 1.695771048663948E9, 0.0, 2023-09-26 18:30:48.663
238.0, 43402.103293192784, 61549.75283739005, -29988.866149051926, -19437.61342020195, -21857.32386795567, -3419.6604394507935, -187500.02235174447, -2638.2211015488033, 15367.293699657166, -23326.884010658745, -187500.02235174447, 3307.186461351688, -2354.979795811152, -6957.13692392551, 3366.99972951409, -24257.364780588723, -0.11, 0.876, 0.464, 192.0, 126.0, 72.0, 13.5, 48.0, 7.0, 64.0, 0.0, 0.0, 0.0, 1.695771048663952E9, 0.0, 2023-09-26 18:30:48.663
240.0, 43412.11687470876, 61522.528412643485, -29977.93614601328, -19418.994417070677, -21845.74566432782, -3416.8217679049694, -187500.02235174447, -2673.1121746435374, 15352.60860355003, -23336.76348170799, -187500.02235174447, 3302.000856638057, -2364.792211627032, -6964.311833895664, 3363.6693195902494, -24269.412370850132, -0.11, 0.876, 0.464, 192.0, 0.0, 0.0, 0.0, 0.0, 0.0, 0.0, 0.0, 0.0, 0.0, 1.695771048663955E9, 0.0, 2023-09-26 18:30:48.663
242.0, 43418.57652885634, 61535.78299710548, -29975.723323312202, -19416.625132158417, -21847.489100395334, -3404.930639854746, -187500.02235174447, -2632.454351479334, 15370.266481669723, -23320.156135577698, -187500.02235174447, 3309.3098770749425, -2355.695051633722, -6953.13596166801, 3351.152342695277, -24258.191795133567, -0.11, 0.876, 0.464, 192.0, 0.0, 0.0, 0.0, 0.0, 0.0, 0.0, 0.0, 0.0, 0.0, 1.695771048724185E9, 0.0, 2023-09-26 18:30:48.724
244.0, 43420.632889346234, 61524.920049300206, -29976.058599479034, -19413.585294912493, -21849.813681818687, -3413.424302747763, -187500.02235174447, -2669.871171697518, 15362.733943788284, -23321.43018501165, -187500.02235174447, 3318.898775446269, -2360.0759935469623, -6954.18649365741, 3367.2903021920088, -24261.030466679393, -0.11, 0.876, 0.464, 192.0, 0.0, 0.0, 0.0, 0.0, 0.0, 0.0, 0.0, 0.0, 0.0, 1.695771048724194E9, 0.0, 2023-09-26 18:30:48.724
246.0, 43421.21403470207, 61538.93459307368, -29979.187843702777, -19425.565829940537, -21861.213071490893, -3412.9772678586564, -187500.02235174447, -2645.127790585493, 15372.255786926245, -23318.47975474355, -187500.02235174447, 3307.7899584519814, -2359.7183656356774, -6950.744325011293, 3341.51874083504, -24260.426969579097, -0.11, 0.876, 0.464, 192.0, 0.0, 0.0, 0.0, 0.0, 0.0, 0.0, 0.0, 0.0, 0.0, 1.695771048724198E9, 0.0, 2023-09-26 18:30:48.724
248.0, 43425.393810915215, 61547.070628055415, -29974.628087833895, -19414.948751324268, -21857.413274933493, -3416.8217679049694, -187500.02235174447, -2669.62530250851, 15352.921527972405, -23331.935504905643, -187500.02235174447, 3312.0144381540345, -2381.690130435244, -6967.195208930399, 3362.23880794511, -24270.954641217548, -0.114, 0.874, 0.468, 192.0, 126.0, 56.0, 13.5, 40.0, 7.0, 80.0, 0.0, 0.0, 0.0, 1.695771048724201E9, 0.0, 2023-09-26 18:30:48.724
250.0, 43425.59497661531, 61544.70134314315, -29979.41136114733, -19417.65331240336, -21859.067304023185, -3413.021971347567, -187500.02235174447, -2649.5310842431886, 15358.196539663857, -23322.704234445602, -187500.02235174447, 3310.1145398753333, -2368.1226215508727, -6956.511075080762, 3328.8229499844256, -24262.17040564661, -0.114, 0.874, 0.468, 192.0, 0.0, 0.0, 0.0, 0.0, 0.0, 0.0, 0.0, 0.0, 0.0, 1.695771048724204E9, 0.0, 2023-09-26 18:30:48.724
252.0, 43433.08281100784, 61543.24847975356, -29960.054750449035, -19403.862286074436, -21847.60085911761, -3411.971439358168, -187500.02235174447, -2664.5291047726996, 15370.08766771408, -23324.134746090742, -187500.02235174447, 3327.7277145061153, -2371.3189210079818, -6958.94741522639, 3368.5643516259615, -24257.878870711193, -0.114, 0.874, 0.468, 192.0, 0.0, 0.0, 0.0, 0.0, 0.0, 0.0, 0.0, 0.0, 0.0, 1.695771048724208E9, 0.0, 2023-09-26 18:30:48.724
254.0, 43434.80389533089, 61524.137738244266, -29959.31714288201, -19405.248094230665, -21844.851594549607, -3403.924811354257, -187500.02235174447, -2639.4727992383005, 15373.574539849109, -23315.70813843109, -187500.02235174447, 3315.1213306333225, -2355.426830700258, -6946.452790075874, 3333.807388997959, -24249.474614796, -0.114, 0.874, 0.468, 192.0, 0.0, 0.0, 0.0, 0.0, 0.0, 0.0, 0.0, 0.0, 0.0, 1.695771048724211E9, 0.0, 2023-09-26 18:30:48.724
0.0, 43434.13334299724, 61550.915128101726, -29960.07710219349, -19402.543533151573, -21842.594068359624, -3409.445692234718, -187500.02235174447, -2652.101534855549, 15374.580368349598, -23323.754766435002, -187500.02235174447, 3335.528473321018, -2365.5745226829677, -6960.355575127074, 3379.3155407089644, -24249.69813224055, -0.114, 0.874, 0.468, 192.0, 0.0, 0.0, 0.0, 0.0, 0.0, 0.0, 0.0, 0.0, 0.0, 1.695771048783584E9, 0.0, 2023-09-26 18:30:48.783
2.0, 43441.21884598957, 61527.26698246801, -29941.905133951324, -19400.42011742832, -21840.314190425182, -3397.8898403513244, -187500.02235174447, -2641.6632701949206, 15391.008900524248, -23309.203780794596, -187500.02235174447, 3329.806426740459, -2336.27138570206, -6940.820150473136, 3340.3340983789085, -24240.153937358136, -0.108, 0.88, 0.47000000000000003, 192.0, 126.0, 80.0, 13.5, 64.0, 7.0, 88.0, 0.0, 0.0, 0.0, 1.695771048783596E9, 0.0, 2023-09-26 18:30:48.783
4.0, 43443.94575881312, 61559.229977039104, -29952.70102652324, -19406.924475064814, -21844.337504427138, -3410.429168990752, -187500.02235174447, -2645.172494074404, 15386.918531288926, -23315.350510519806, -187500.02235174447, 3350.2806246615205, -2362.1323540368503, -6952.443057589896, 3385.7528431120927, -24241.875021681193, -0.108, 0.88, 0.47000000000000003, 192.0, 0.0, 0.0, 0.0, 0.0, 0.0, 0.0, 0.0, 0.0, 0.0, 1.695771048783599E9, 0.0, 2023-09-26 18:30:48.783
6.0, 43440.011851788986, 61538.666372140215, -29960.412378360317, -19414.99345481318, -21855.155748743506, -3415.5030149821064, -187500.02235174447, -2663.970311161317, 15374.289795671679, -23324.09004260183, -187500.02235174447, 3326.0513336719673, -2363.9428453377304, -6958.209807659365, 3337.830702999914, -24258.88469921168, -0.108, 0.88, 0.47000000000000003, 192.0, 0.0, 0.0, 0.0, 0.0, 0.0, 0.0, 0.0, 0.0, 0.0, 1.695771048783602E9, 0.0, 2023-09-26 18:30:48.783
8.0, 43441.7552878565, 61576.57493073642, -29965.754445285136, -19413.339425723487, -21857.435626677947, -3418.185224316743, -187500.02235174447, -2660.259921581736, 15369.908853758438, -23323.508897245993, -187500.02235174447, 3346.4137728707524, -2363.629920915356, -6959.774429771237, 3373.5711423839502, -24257.85651896674, -0.108, 0.88, 0.47000000000000003, 192.0, 0.0, 0.0, 0.0, 0.0, 0.0, 0.0, 0.0, 0.0, 0.0, 1.695771048783606E9, 0.0, 2023-09-26 18:30:48.783
10.0, 43449.39958446021, 61540.25334599654, -29953.997427701644, -19407.46091693174, -21852.250021964315, -3408.842195134425, -187500.02235174447, -2656.974215146806, 15380.2800631857, -23314.501144230504, -187500.02235174447, 3331.929842463713, -2358.824295857465, -6945.916348208946, 3334.4779413316182, -24256.89539395516, -0.108, 0.88, 0.47000000000000003, 192.0, 0.0, 0.0, 0.0, 0.0, 0.0, 0.0, 0.0, 0.0, 0.0, 1.695771048783609E9, 0.0, 2023-09-26 18:30:48.783
12.0, 43450.003081560506, 61575.882026658306, -29954.198593401743, -19409.539629166084, -21853.36760918708, -3411.77027365807, -187500.02235174447, -2650.8498371660517, 15373.976871249304, -23322.726586190056, -187500.02235174447, 3347.620767071339, -2377.6891681777442, -6955.572301813639, 3371.648892360794, -24253.475577053498, -0.11, 0.882, 0.466, 192.0, 126.0, 72.0, 13.5, 72.0, 7.0, 72.0, 0.0, 0.0, 0.0, 1.695771048783612E9, 0.0, 2023-09-26 18:30:48.783
14.0, 43465.17991604566, 61514.99587476205, -29946.219020631197, -19392.46289640223, -21838.771920057767, -3390.7596338700814, -187500.02235174447, -2656.1472006019594, 15395.300435459667, -23298.094963800308, -187500.02235174447, 3343.5303978360175, -2341.2558247155935, -6928.481987533807, 3335.0367349430007, -24243.84197519326, -0.11, 0.882, 0.466, 192.0, 0.0, 0.0, 0.0, 0.0, 0.0, 0.0, 0.0, 0.0, 0.0, 1.695771048783615E9, 0.0, 2023-09-26 18:30:48.783
16.0, 43447.67850013715, 61562.40392475175, -29963.988657473168, -19405.73983260868, -21857.435626677947, -3402.8519276204024, -187500.02235174447, -2644.770162674208, 15375.116810216525, -23316.08811808683, -187500.02235174447, 3356.0473747309898, -2356.946749323219, -6952.063077934155, 3372.1182789943555, -24248.17821361759, -0.11, 0.882, 0.466, 192.0, 0.0, 0.0, 0.0, 0.0, 0.0, 0.0, 0.0, 0.0, 0.0, 1.695771048843376E9, 0.0, 2023-09-26 18:30:48.843
18.0, 43453.98169207355, 61514.86176429532, -29950.108224166423, -19395.2792162036, -21851.221841719373, -3390.200840258699, -187500.02235174447, -2651.8556656665405, 15382.157609719947, -23304.353452247793, -187500.02235174447, 3341.742258279593, -2345.4579526731914, -6932.147673624477, 3342.1892931686994, -24243.171422859603, -0.11, 0.882, 0.466, 192.0, 0.0, 0.0, 0.0, 0.0, 0.0, 0.0, 0.0, 0.0, 0.0, 1.695771048843386E9, 0.0, 2023-09-26 18:30:48.843
20.0, 43428.0983719943, 61576.016137125036, -29986.2286432062, -19425.94580959628, -21880.837903122654, -3418.0958173389217, -187500.02235174447, -2643.004374862239, 15355.491978584765, -23321.318426289374, -187500.02235174447, 3344.737392036604, -2374.694034420733, -6952.979499456823, 3364.965720768657, -24248.737007228974, -0.11, 0.882, 0.466, 192.0, 0.0, 0.0, 0.0, 0.0, 0.0, 0.0, 0.0, 0.0, 0.0, 1.69577104884339E9, 0.0, 2023-09-26 18:30:48.843
22.0, 43444.43749719113, 61530.776206347495, -29968.50370985314, -19402.789402340582, -21856.966240044385, -3401.3990642308077, -187500.02235174447, -2668.7312327302975, 15345.791321491162, -23328.09100485933, -187500.02235174447, 3324.3078976044535, -2374.6716826762777, -6954.007679701767, 3327.481845317107, -24262.952716702548, -0.114, 0.884, 0.462, 192.0, 126.0, 56.0, 13.5, 80.0, 7.0, 56.0, 0.0, 0.0, 0.0, 1.695771048843393E9, 0.0, 2023-09-26 18:30:48.843
24.0, 43431.74170634052, 61566.89662538727, -29981.06539023702, -19414.278198990607, -21868.119760527585, -3399.2756485075533, -187500.02235174447, -2631.5379299566666, 15359.649403053452, -23314.076461085853, -187500.02235174447, 3339.998822212079, -2357.013804556585, -6939.389638827996, 3343.1504181802775, -24239.282219324377, -0.114, 0.884, 0.462, 192.0, 0.0, 0.0, 0.0, 0.0, 0.0, 0.0, 0.0, 0.0, 0.0, 1.695771048843397E9, 0.0, 2023-09-26 18:30:48.843
26.0, 43444.1022210243, 61514.3700259173, -29966.581459829984, -19396.396803426363, -21845.678609094455, -3387.0492442905006, -187500.02235174447, -2658.248264580758, 15348.89821397045, -23316.75867042049, -187500.02235174447, 3325.51489180504, -2365.1945430272276, -6935.187510870399, 3332.8239122419254, -24244.71369322702, -0.114, 0.884, 0.462, 192.0, 0.0, 0.0, 0.0, 0.0, 0.0, 0.0, 0.0, 0.0, 0.0, 1.695771048843401E9, 0.0, 2023-09-26 18:30:48.843
28.0, 43419.35883991228, 61560.079343328405, -29992.688297353783, -19427.46572821924, -21870.623155906578, -3407.814014889481, -187500.02235174447, -2630.0180113337055, 15359.55999607563, -23314.65760644169, -187500.02235174447, 3332.354525608364, -2361.9982435701186, -6939.903728950469, 3345.005612970068, -24244.84780369375, -0.114, 0.884, 0.462, 192.0, 0.0, 0.0, 0.0, 0.0, 0.0, 0.0, 0.0, 0.0, 0.0, 1.695771048843404E9, 0.0, 2023-09-26 18:30:48.843
30.0, 43432.501665652, 61521.74610158755, -29974.35986690043, -19406.231570986696, -21847.578507373157, -3399.9462008412124, -187500.02235174447, -2668.485363541289, 15346.283059869178, -23327.934542648145, -187500.02235174447, 3313.646115499272, -2359.204275513205, -6951.66074653396, 3338.9482902226796, -24265.679629526097, -0.114, 0.884, 0.462, 192.0, 0.0, 0.0, 0.0, 0.0, 0.0, 0.0, 0.0, 0.0, 0.0, 1.695771048903677E9, 0.0, 2023-09-26 18:30:48.903
32.0, 43413.32386890935, 61556.90539561575, -30000.265538724132, -19440.809719659057, -21875.47348445338, -3420.3533435289078, -187500.02235174447, -2634.1754358023927, 15356.117827429514, -23311.438955240126, -187500.02235174447, 3322.0280196700123, -2350.822371342465, -6941.4907028067955, 3335.640232043294, -24251.50862354143, -0.108, 0.878, 0.458, 192.0, 126.0, 80.0, 13.5, 56.0, 7.0, 40.0, 0.0, 0.0, 0.0, 1.695771048903689E9, 0.0, 2023-09-26 18:30:48.903
34.0, 43421.92929052464, 61543.89668034276, -29982.45119839325, -19429.767957898137, -21860.095484268128, -3421.381523773852, -187500.02235174447, -2672.7545467322525, 15330.815652706106, -23345.771234723477, -187500.02235174447, 3298.044597869468, -2379.56671471199, -6974.995967745301, 3333.6956302756826, -24283.13634194569, -0.108, 0.878, 0.458, 192.0, 0.0, 0.0, 0.0, 0.0, 0.0, 0.0, 0.0, 0.0, 0.0, 1.695771048903692E9, 0.0, 2023-09-26 18:30:48.903
36.0, 43428.47835165005, 61553.26206126953, -29981.177148959297, -19431.958428854756, -21859.961373801398, -3410.0044858461006, -187500.02235174447, -2631.5602817011218, 15353.74854251725, -23326.61578972528, -187500.02235174447, 3302.7608159495376, -2356.209141756194, -6955.415839602451, 3321.290412102987, -24263.533862058386, -0.108, 0.878, 0.458, 192.0, 0.0, 0.0, 0.0, 0.0, 0.0, 0.0, 0.0, 0.0, 0.0, 1.695771048903695E9, 0.0, 2023-09-26 18:30:48.903
38.0, 43436.54733139841, 61535.15714826073, -29968.213137175222, -19418.010940314645, -21850.618344619077, -3409.780968401548, -187500.02235174447, -2659.4105552924343, 15357.056600696636, -23325.22998156905, -187500.02235174447, 3317.8482434568696, -2353.728098121655, -6955.885226236013, 3346.61493857085, -24264.070303925313, -0.108, 0.878, 0.458, 192.0, 0.0, 0.0, 0.0, 0.0, 0.0, 0.0, 0.0, 0.0, 0.0, 1.695771048903699E9, 0.0, 2023-09-26 18:30:48.903
40.0, 43431.16056098468, 61546.93651758868, -29981.31125942603, -19430.70673116526, -21863.18002500296, -3411.6361631913383, -187500.02235174447, -2635.941223614362, 15359.828217009095, -23323.397138523716, -187500.02235174447, 3312.617935254328, -2350.08476377544, -6954.991156457801, 3322.3856475812972, -24261.94688820206, -0.108, 0.878, 0.458, 192.0, 0.0, 0.0, 0.0, 0.0, 0.0, 0.0, 0.0, 0.0, 0.0, 1.695771048903702E9, 0.0, 2023-09-26 18:30:48.903
42.0, 43437.88843606573, 61549.931651345694, -29972.907003510834, -19415.46284144674, -21857.14505400003, -3412.2173085471763, -187500.02235174447, -2657.1530291024483, 15350.66400178242, -23324.00063562401, -187500.02235174447, 3324.0843801599003, -2357.974929568163, -6958.56743557065, 3349.7665345390483, -24261.857481224237, -0.112, 0.88, 0.46, 192.0, 126.0, 64.0, 13.5, 64.0, 7.0, 48.0, 0.0, 0.0, 0.0, 1.695771048903705E9, 0.0, 2023-09-26 18:30:48.903
44.0, 43439.229540733046, 61541.70620938614, -29980.64070709237, -19421.006074071654, -21864.118798270083, -3416.307677782497, -187500.02235174447, -2648.2793865536914, 15368.277176413201, -23313.115336074276, -187500.02235174447, 3321.0892464028893, -2353.415173699281, -6946.408086586963, 3316.2165661116323, -24259.555251545342, -0.112, 0.88, 0.46, 192.0, 0.0, 0.0, 0.0, 0.0, 0.0, 0.0, 0.0, 0.0, 0.0, 1.695771048903708E9, 0.0, 2023-09-26 18:30:48.903
46.0, 43438.179008743646, 61558.09003807188, -29984.21698620522, -19416.60278041396, -21857.6591441225, -3425.807169176003, -187500.02235174447, -2664.1714768614147, 15355.715496029317, -23325.14057459123, -187500.02235174447, 3330.096999418378, -2363.3616999818923, -6961.651976305482, 3351.8899502623026, -24268.451245838554, -0.112, 0.88, 0.46, 192.0, 0.0, 0.0, 0.0, 0.0, 0.0, 0.0, 0.0, 0.0, 0.0, 1.695771048963857E9, 0.0, 2023-09-26 18:30:48.963
48.0, 43424.43268590364, 61553.66439266973, -29991.682468853294, -19434.50652772266, -21871.450170451426, -3431.551567501017, -187500.02235174447, -2653.576749989599, 15361.303432143144, -23316.579856464847, -187500.02235174447, 3320.195176624677, -2352.7446213656212, -6953.560644812661, 3311.5003480315627, -24267.288955126878, -0.112, 0.88, 0.46, 192.0, 0.0, 0.0, 0.0, 0.0, 0.0, 0.0, 0.0, 0.0, 0.0, 1.695771048963871E9, 0.0, 2023-09-26 18:30:48.963
50.0, 43430.422953417656, 61574.250349313064, -29986.45216065075, -19426.571658441026, -21860.631926135055, -3435.418419291785, -187500.02235174447, -2666.5407617736773, 15344.740789501762, -23338.261048586493, -187500.02235174447, 3329.8958337182803, -2374.1352408093503, -6976.38177590153, 3347.3078426489647, -24281.214091922535, -0.112, 0.88, 0.46, 192.0, 0.0, 0.0, 0.0, 0.0, 0.0, 0.0, 0.0, 0.0, 0.0, 1.695771048963877E9, 0.0, 2023-09-26 18:30:48.963
52.0, 43457.625026419766, 61521.74610158755, -29959.987695215666, -19402.923512807312, -21839.062492735684, -3406.3611514998856, -187500.02235174447, -2644.859569652029, 15376.681432328396, -23307.32623426035, -187500.02235174447, 3331.035772685501, -2334.9973362681076, -6941.401295828974, 3312.3050108319535, -24262.37157134671, -0.108, 0.878, 0.466, 192.0, 126.0, 80.0, 13.5, 56.0, 7.0, 72.0, 0.0, 0.0, 0.0, 1.695771048963883E9, 0.0, 2023-09-26 18:30:48.963
54.0, 43430.4006016732, 61575.21147432464, -29992.241262464675, -19430.84084163199, -21865.929289570962, -3436.6030617479164, -187500.02235174447, -2659.4776105258, 15361.75046703225, -23323.441842012628, -187500.02235174447, 3347.0396217155007, -2355.270368489071, -6961.629624561027, 3369.5701801264504, -24264.740856258974, -0.108, 0.878, 0.466, 192.0, 0.0, 0.0, 0.0, 0.0, 0.0, 0.0, 0.0, 0.0, 0.0, 1.695771048963889E9, 0.0, 2023-09-26 18:30:48.963
56.0, 43422.46573239157, 61549.26109901203, -29995.683431110792, -19431.958428854756, -21870.533748928756, -3434.256128580109, -187500.02235174447, -2674.475631055311, 15349.591118048564, -23330.214420582586, -187500.02235174447, 3316.060103900445, -2359.0701650464734, -6959.975595471335, 3307.8570136853477, -24283.33750764579, -0.108, 0.878, 0.466, 192.0, 0.0, 0.0, 0.0, 0.0, 0.0, 0.0, 0.0, 0.0, 0.0, 1.695771048963896E9, 0.0, 2023-09-26 18:30:48.963
58.0, 43429.931215039636, 61586.25323608557, -29992.84475956497, -19426.482251463207, -21865.28108898176, -3433.451465779718, -187500.02235174447, -2653.3085290561353, 15340.851585966539, -23335.24356308503, -187500.02235174447, 3328.2194528841324, -2369.888409362842, -6968.536313597717, 3349.18538918321, -24279.00126922146, -0.108, 0.878, 0.466, 192.0, 0.0, 0.0, 0.0, 0.0, 0.0, 0.0, 0.0, 0.0, 0.0, 1.695771048963902E9, 0.0, 2023-09-26 18:30:48.963
60.0, 43440.99532854502, 61540.208642507634, -29982.473550137707, -19415.21697225773, -21856.51920515528, -3417.380561516352, -187500.02235174447, -2651.386279032979, 15357.637746052475, -23313.338853518828, -187500.02235174447, 3322.9220894482246, -2349.6377288863337, -6941.982441184812, 3315.8812899448026, -24266.193719648567, -0.108, 0.878, 0.466, 192.0, 0.0, 0.0, 0.0, 0.0, 0.0, 0.0, 0.0, 0.0, 0.0, 1.695771049024383E9, 0.0, 2023-09-26 18:30:49.024
62.0, 43420.074095734846, 61595.66332050125, -30005.965233560233, -19440.161519069854, -21881.597862434133, -3439.6652507382933, -187500.02235174447, -2654.8507994235515, 15333.855489952028, -23333.991865395532, -187500.02235174447, 3326.967755194635, -2375.7222146656773, -6968.111630453066, 3348.961871738657, -24276.497873842465, -0.11, 0.88, 0.466, 192.0, 126.0, 72.0, 13.5, 64.0, 7.0, 72.0, 0.0, 0.0, 0.0, 1.695771049024395E9, 0.0, 2023-09-26 18:30:49.024
64.0, 43429.26066270598, 61545.79657862146, -29995.75048634416, -19426.571658441026, -21874.490007697346, -3429.986945389145, -187500.02235174447, -2674.676796755409, 15336.425940564388, -23335.37767355176, -187500.02235174447, 3303.8113479389367, -2370.715423907688, -6963.976557728834, 3299.944496148169, -24285.930310002605, -0.11, 0.88, 0.466, 192.0, 0.0, 0.0, 0.0, 0.0, 0.0, 0.0, 0.0, 0.0, 0.0, 1.695771049024399E9, 0.0, 2023-09-26 18:30:49.024
66.0, 43431.540540640424, 61585.42622154072, -29998.253881723154, -19430.773786398626, -21880.23440602236, -3434.278480324564, -187500.02235174447, -2643.7196306848086, 15340.963344688815, -23322.927751890154, -187500.02235174447, 3325.9842784386015, -2366.490944205635, -6958.142752425999, 3327.5041970615625, -24273.145112174167, -0.11, 0.88, 0.466, 192.0, 0.0, 0.0, 0.0, 0.0, 0.0, 0.0, 0.0, 0.0, 0.0, 1.695771049024402E9, 0.0, 2023-09-26 18:30:49.024
68.0, 43440.59299714482, 61534.93363081618, -29982.786474560082, -19413.31707397903, -21868.99147856134, -3421.515634240584, -187500.02235174447, -2665.9819681622944, 15348.160606403424, -23315.41756575317, -187500.02235174447, 3319.971659180124, -2360.880656347353, -6946.497493564784, 3300.5926967373725, -24272.161635418135, -0.11, 0.88, 0.466, 192.0, 0.0, 0.0, 0.0, 0.0, 0.0, 0.0, 0.0, 0.0, 0.0, 1.695771049024405E9, 0.0, 2023-09-26 18:30:49.024
70.0, 43427.204302216094, 61582.56519825044, -30004.110038770443, -19434.50652772266, -21892.05847883922, -3433.0491343795225, -187500.02235174447, -2643.9207963849067, 15339.242260365756, -23322.637179212237, -187500.02235174447, 3329.1358744067998, -2378.13620306685, -6958.969766970846, 3320.1057696468556, -24272.67572554061, -0.11, 0.88, 0.466, 192.0, 0.0, 0.0, 0.0, 0.0, 0.0, 0.0, 0.0, 0.0, 0.0, 1.695771049024408E9, 0.0, 2023-09-26 18:30:49.024
72.0, 43426.73491558253, 61553.41852348072, -30002.344250958475, -19425.99051308519, -21886.068211325197, -3432.602099490416, -187500.02235174447, -2673.0898228990823, 15332.112053884513, -23327.912190903688, -187500.02235174447, 3312.5732317654174, -2383.9029531363194, -6960.869665249546, 3300.9279729042023, -24283.203397179055, -0.106, 0.878, 0.468, 192.0, 126.0, 88.0, 13.5, 56.0, 7.0, 80.0, 0.0, 0.0, 0.0, 1.695771049024414E9, 0.0, 2023-09-26 18:30:49.024
74.0, 43424.11976148126, 61588.309596575455, -30010.390878962386, -19432.874850377422, -21886.29172876975, -3427.5729569879722, -187500.02235174447, -2637.3717352595017, 15338.862280710016, -23317.94331287662, -187500.02235174447, 3321.424522569719, -2375.3645867543923, -6951.66074653396, 3311.835624198392, -24267.04308593787, -0.106, 0.878, 0.468, 192.0, 0.0, 0.0, 0.0, 0.0, 0.0, 0.0, 0.0, 0.0, 0.0, 1.695771049024417E9, 0.0, 2023-09-26 18:30:49.024
76.0, 43428.99244177252, 61551.74214264657, -29993.35884968744, -19418.27916124811, -21874.981746075362, -3422.3426487854304, -187500.02235174447, -2678.096613657071, 15332.4696817958, -23327.688673459135, -187500.02235174447, 3310.4721677866182, -2365.3510052384145, -6957.271034392243, 3311.098016631367, -24276.74374303147, -0.106, 0.878, 0.468, 192.0, 0.0, 0.0, 0.0, 0.0, 0.0, 0.0, 0.0, 0.0, 0.0, 1.69577104908361E9, 0.0, 2023-09-26 18:30:49.083
78.0, 43424.320927181354, 61575.05501211346, -30002.36660270293, -19427.912763108347, -21885.308252013714, -3417.872299894369, -187500.02235174447, -2631.202653789837, 15346.819501736105, -23310.366071506272, -187500.02235174447, 3324.263194115543, -2374.8728483763753, -6942.049496418178, 3315.255441100054, -24256.64952476615, -0.106, 0.878, 0.468, 192.0, 0.0, 0.0, 0.0, 0.0, 0.0, 0.0, 0.0, 0.0, 0.0, 1.695771049083618E9, 0.0, 2023-09-26 18:30:49.083
80.0, 43414.53086310993, 61562.96271836314, -30007.082820782998, -19428.918591608835, -21886.962281103406, -3431.0374773785447, -187500.02235174447, -2678.074261912616, 15331.530908528675, -23332.561353750392, -187500.02235174447, 3315.948345178169, -2387.143956082339, -6961.361403627563, 3321.4468743141742, -24272.809836007338, -0.106, 0.878, 0.468, 192.0, 0.0, 0.0, 0.0, 0.0, 0.0, 0.0, 0.0, 0.0, 0.0, 1.695771049083622E9, 0.0, 2023-09-26 18:30:49.083
82.0, 43413.25681367598, 61579.25714007106, -30007.239282994185, -19431.623152687927, -21888.258682281816, -3430.5233872560725, -187500.02235174447, -2647.2065028198367, 15331.106225384025, -23332.226077583564, -187500.02235174447, 3308.907545674747, -2384.7970229145317, -6962.076659450133, 3306.158281106744, -24266.484292326488, -0.10200000000000001, 0.88, 0.47000000000000003, 192.0, 126.0, 104.0, 13.5, 64.0, 7.0, 88.0, 0.0, 0.0, 0.0, 1.695771049083625E9, 0.0, 2023-09-26 18:30:49.083
84.0, 43422.89041553622, 61558.42531423871, -29993.40355317635, -19418.256809503655, -21872.031315807264, -3431.6633262232936, -187500.02235174447, -2670.809944964641, 15339.286963854667, -23332.784871194945, -187500.02235174447, 3319.6587347577497, -2369.4190227292806, -6967.217560674854, 3328.0182871840343, -24265.836091737285, -0.10200000000000001, 0.88, 0.47000000000000003, 192.0, 0.0, 0.0, 0.0, 0.0, 0.0, 0.0, 0.0, 0.0, 0.0, 1.695771049083629E9, 0.0, 2023-09-26 18:30:49.083
86.0, 43431.31702319587, 61548.45643621164, -29981.46772163722, -19411.439527444785, -21864.6105366481, -3415.0112766040897, -187500.02235174447, -2622.1501972854376, 15343.734961001273, -23318.23388555454, -187500.02235174447, 3321.648040014272, -2361.3947464698253, -6953.650051790482, 3316.7306562341046, -24248.334675828777, -0.10200000000000001, 0.88, 0.47000000000000003, 192.0, 0.0, 0.0, 0.0, 0.0, 0.0, 0.0, 0.0, 0.0, 0.0, 1.695771049083632E9, 0.0, 2023-09-26 18:30:49.083
88.0, 43413.90501426518, 61559.855825883846, -29995.996355533167, -19419.821431615524, -21874.311193741705, -3429.2046343332095, -187500.02235174447, -2659.611720992532, 15339.778702232685, -23332.606057239303, -187500.02235174447, 3328.04063892849, -2383.0312351025623, -6968.6704240644485, 3357.679052076227, -24253.922611942606, -0.10200000000000001, 0.88, 0.47000000000000003, 192.0, 0.0, 0.0, 0.0, 0.0, 0.0, 0.0, 0.0, 0.0, 0.0, 1.695771049083635E9, 0.0, 2023-09-26 18:30:49.083
90.0, 43410.284031663425, 61554.402000236754, -29998.723268356716, -19420.35787348245, -21874.780580375264, -3417.514671983084, -187500.02235174447, -2628.229871777281, 15337.923507442894, -23325.09587110232, -187500.02235174447, 3314.2496125995654, -2369.463726218191, -6957.203979158876, 3317.5353190344954, -24249.85459445174, -0.10200000000000001, 0.88, 0.47000000000000003, 192.0, 0.0, 0.0, 0.0, 0.0, 0.0, 0.0, 0.0, 0.0, 0.0, 1.6957710491434E9, 0.0, 2023-09-26 18:30:49.143
92.0, 43412.58626134232, 61560.14639856177, -30003.66300388134, -19413.451184445763, -21868.969126816886, -3420.934488884746, -187500.02235174447, -2648.1452760869597, 15327.84287069355, -23335.891763674234, -187500.02235174447, 3321.89390920328, -2374.4481652317245, -6967.105801952577, 3353.745145052093, -24252.872079953206, -0.1, 0.874, 0.47000000000000003, 192.0, 126.0, 112.0, 13.5, 40.0, 7.0, 88.0, 0.0, 0.0, 0.0, 1.695771049143416E9, 0.0, 2023-09-26 18:30:49.143
94.0, 43423.49391263651, 61536.855880839335, -29992.464779909227, -19415.574600169017, -21869.28205123926, -3409.6468579348157, -187500.02235174447, -2625.7711798871974, 15343.109112156524, -23314.65760644169, -187500.02235174447, 3317.580022523406, -2351.850551587409, -6943.412952829952, 3317.8035399679593, -24241.517393769907, -0.1, 0.874, 0.47000000000000003, 192.0, 0.0, 0.0, 0.0, 0.0, 0.0, 0.0, 0.0, 0.0, 0.0, 1.695771049143422E9, 0.0, 2023-09-26 18:30:49.143
96.0, 43415.112008465774, 61573.04335511248, -30007.149876016367, -19431.533745710105, -21884.123609557584, -3433.25030007962, -187500.02235174447, -2655.4766482683003, 15328.17814686038, -23332.963685150586, -187500.02235174447, 3327.9512319506684, -2397.8504416764313, -6969.028051975733, 3361.277682933531, -24257.007152677437, -0.1, 0.874, 0.47000000000000003, 192.0, 0.0, 0.0, 0.0, 0.0, 0.0, 0.0, 0.0, 0.0, 0.0, 1.695771049143428E9, 0.0, 2023-09-26 18:30:49.143
98.0, 43432.88164530774, 61536.25238373905, -29989.93903278578, -19413.40648095685, -21867.51626342729, -3408.216346289676, -187500.02235174447, -2633.5942904465546, 15342.885594711972, -23315.126993075253, -187500.02235174447, 3315.9259934337133, -2361.886484847842, -6945.938699953402, 3309.578098008406, -24249.295800840355, -0.1, 0.874, 0.47000000000000003, 192.0, 0.0, 0.0, 0.0, 0.0, 0.0, 0.0, 0.0, 0.0, 0.0, 1.695771049143434E9, 0.0, 2023-09-26 18:30:49.143
100.0, 43430.44530516211, 61556.95009910466, -29996.331631699995, -19412.9817978122, -21871.85250185162, -3422.0073726186006, -187500.02235174447, -2645.485418496778, 15342.192690633858, -23318.47975474355, -187500.02235174447, 3333.89679597578, -2369.8437058739314, -6952.107781423067, 3354.5051043635735, -24245.56305951632, -0.1, 0.874, 0.47000000000000003, 192.0, 0.0, 0.0, 0.0, 0.0, 0.0, 0.0, 0.0, 0.0, 0.0, 1.69577104914344E9, 0.0, 2023-09-26 18:30:49.143
102.0, 43438.82720933285, 61524.56242138892, -29999.393820690373, -19410.07607103301, -21873.28301349676, -3417.58172721645, -187500.02235174447, -2649.039345865172, 15354.46379833982, -23307.572103449358, -187500.02235174447, 3323.4361795706964, -2350.2635777310825, -6937.959127182857, 3305.9571154066466, -24249.586373518276, -0.108, 0.874, 0.47200000000000003, 192.0, 126.0, 80.0, 13.5, 40.0, 7.0, 96.0, 0.0, 0.0, 0.0, 1.695771049143446E9, 0.0, 2023-09-26 18:30:49.143
104.0, 43430.490008651024, 61568.43889575468, -30001.249015480164, -19414.501716435163, -21876.43460946496, -3426.768294187581, -187500.02235174447, -2640.8362556500742, 15341.209213877824, -23318.52445823246, -187500.02235174447, 3344.4021158697747, -2374.4034617428138, -6954.342955868597, 3347.866636260347, -24254.302591598345, -0.108, 0.874, 0.47200000000000003, 192.0, 0.0, 0.0, 0.0, 0.0, 0.0, 0.0, 0.0, 0.0, 0.0, 1.695771049143452E9, 0.0, 2023-09-26 18:30:49.143
106.0, 43445.376270458255, 61525.814119078415, -29978.58434660248, -19395.659195859338, -21860.877795324064, -3408.7527881566034, -187500.02235174447, -2646.848874908552, 15348.853510481538, -23310.544885461914, -187500.02235174447, 3328.5323773065065, -2357.214970256683, -6942.228310373821, 3311.545051520473, -24252.380341575186, -0.108, 0.874, 0.47200000000000003, 192.0, 0.0, 0.0, 0.0, 0.0, 0.0, 0.0, 0.0, 0.0, 0.0, 1.695771049204701E9, 0.0, 2023-09-26 18:30:49.204
108.0, 43447.633796648246, 61562.04629684047, -29984.149930971857, -19398.0284807716, -21867.784484360753, -3414.4301312482517, -187500.02235174447, -2631.359116001024, 15355.290812884667, -23301.358318490784, -187500.02235174447, 3357.254368931576, -2359.248979002116, -6938.070885905134, 3360.674185833238, -24238.008169890425, -0.108, 0.874, 0.47200000000000003, 192.0, 0.0, 0.0, 0.0, 0.0, 0.0, 0.0, 0.0, 0.0, 0.0, 1.69577104920471E9, 0.0, 2023-09-26 18:30:49.204
110.0, 43433.68630810813, 61542.26500299752, -29996.64455612237, -19407.46091693174, -21884.503589213324, -3428.5117302550952, -187500.02235174447, -2660.3493285595573, 15347.422998836399, -23309.583760450336, -187500.02235174447, 3340.2446914010875, -2359.56190342449, -6940.954260939868, 3321.6703917587274, -24247.59706826175, -0.108, 0.874, 0.47200000000000003, 192.0, 0.0, 0.0, 0.0, 0.0, 0.0, 0.0, 0.0, 0.0, 0.0, 1.695771049204714E9, 0.0, 2023-09-26 18:30:49.204
112.0, 43423.292746936415, 61608.2920561185, -30005.49584692667, -19411.573637911515, -21896.52882773028, -3439.285271082553, -187500.02235174447, -2654.627281978999, 15325.18301310337, -23327.219286825573, -187500.02235174447, 3346.4361246152075, -2385.400520014825, -6964.088316451111, 3341.8316652574144, -24258.594126533764, -0.106, 0.878, 0.47000000000000003, 192.0, 126.0, 88.0, 13.5, 56.0, 7.0, 88.0, 0.0, 0.0, 0.0, 1.695771049204718E9, 0.0, 2023-09-26 18:30:49.204
114.0, 43430.53471213993, 61566.60605270935, -29998.54445440107, -19400.88950406188, -21886.649356681035, -3433.0491343795225, -187500.02235174447, -2670.541724031177, 15337.230603364778, -23317.22805705405, -187500.02235174447, 3339.6411943007943, -2369.888409362842, -6947.771542998737, 3310.6733334867163, -24255.710751499028, -0.106, 0.878, 0.47000000000000003, 192.0, 0.0, 0.0, 0.0, 0.0, 0.0, 0.0, 0.0, 0.0, 0.0, 1.695771049204721E9, 0.0, 2023-09-26 18:30:49.204
116.0, 43422.71160158057, 61614.528192821526, -30005.56290216004, -19414.926399579814, -21892.930196872974, -3447.801285720025, -187500.02235174447, -2652.995604633761, 15325.250068336734, -23326.884010658745, -187500.02235174447, 3343.5974530693834, -2383.791194414043, -6965.250607162787, 3335.170845409733, -24262.729199257996, -0.106, 0.878, 0.47000000000000003, 192.0, 0.0, 0.0, 0.0, 0.0, 0.0, 0.0, 0.0, 0.0, 0.0, 1.695771049204725E9, 0.0, 2023-09-26 18:30:49.204
118.0, 43446.359747214294, 61551.89860485776, -29977.98084950219, -19391.300605690554, -21864.051743036718, -3427.416494776785, -187500.02235174447, -2668.619474008021, 15350.75340876024, -23305.94042610412, -187500.02235174447, 3343.70921179166, -2355.382127211348, -6939.702563250371, 3318.965830679635, -24255.196661376558, -0.106, 0.878, 0.47000000000000003, 192.0, 0.0, 0.0, 0.0, 0.0, 0.0, 0.0, 0.0, 0.0, 0.0, 1.695771049204728E9, 0.0, 2023-09-26 18:30:49.204
120.0, 43446.31504372538, 61586.16382910775, -29978.718457069215, -19398.60962612744, -21868.030353549762, -3430.389276789341, -187500.02235174447, -2633.169607301904, 15349.188786648368, -23308.332062760837, -187500.02235174447, 3357.5449416094953, -2359.584255168945, -6947.369211598541, 3346.1008484483777, -24254.079074153793, -0.106, 0.878, 0.47000000000000003, 192.0, 0.0, 0.0, 0.0, 0.0, 0.0, 0.0, 0.0, 0.0, 0.0, 1.695771049204732E9, 0.0, 2023-09-26 18:30:49.204
122.0, 43456.015700818985, 61532.69845637065, -29972.01293373262, -19385.623262598903, -21858.95554530091, -3422.3650005298855, -187500.02235174447, -2656.1248488575043, 15372.32284215961, -23286.02502179444, -187500.02235174447, 3361.7247178226376, -2335.17615022375, -6923.966935153835, 3343.5527495804727, -24241.115062369714, -0.11, 0.876, 0.47400000000000003, 192.0, 126.0, 72.0, 13.5, 48.0, 7.0, 104.0, 0.0, 0.0, 0.0, 1.695771049264949E9, 0.0, 2023-09-26 18:30:49.264
124.0, 43440.81651458937, 61577.200779581166, -29992.576538631507, -19405.35985295294, -21882.469580467892, -3438.9052914268127, -187500.02235174447, -2632.7002206683424, 15350.261670382222, -23296.217417266063, -187500.02235174447, 3360.1153922218555, -2356.365603967381, -6940.976612684323, 3342.1445896797886, -24250.45809155203, -0.11, 0.876, 0.47400000000000003, 192.0, 0.0, 0.0, 0.0, 0.0, 0.0, 0.0, 0.0, 0.0, 0.0, 1.695771049264958E9, 0.0, 2023-09-26 18:30:49.264
126.0, 43446.69502338112, 61547.696476900164, -29986.765085073126, -19392.060565002033, -21872.768923374286, -3436.0219163920783, -187500.02235174447, -2667.345424574068, 15349.814635493118, -23299.57017893436, -187500.02235174447, 3355.1086014638668, -2358.623130157367, -6941.110723151055, 3337.3836681108082, -24262.66214402463, -0.11, 0.876, 0.47400000000000003, 192.0, 0.0, 0.0, 0.0, 0.0, 0.0, 0.0, 0.0, 0.0, 0.0, 1.695771049264962E9, 0.0, 2023-09-26 18:30:49.264
128.0, 43432.45696216309, 61590.120087876334, -30005.98758530469, -19413.60764665695, -21888.90688287102, -3441.453390294718, -187500.02235174447, -2629.258052022225, 15344.852548224038, -23302.431202224638, -187500.02235174447, 3349.3865548833082, -2365.105136049406, -6946.095162164589, 3328.3088598619534, -24261.61161203523, -0.11, 0.876, 0.47400000000000003, 192.0, 0.0, 0.0, 0.0, 0.0, 0.0, 0.0, 0.0, 0.0, 0.0, 1.695771049264965E9, 0.0, 2023-09-26 18:30:49.264
130.0, 43437.128476754246, 61567.12014283182, -29998.14212300088, -19406.36568145343, -21879.385039733057, -3443.5097507846062, -187500.02235174447, -2671.189924620381, 15334.682504496874, -23311.774231406955, -187500.02235174447, 3338.098923933378, -2372.8164878864873, -6952.308947123164, 3331.7286767636156, -24271.558138317843, -0.11, 0.876, 0.47400000000000003, 192.0, 0.0, 0.0, 0.0, 0.0, 0.0, 0.0, 0.0, 0.0, 0.0, 1.695771049264968E9, 0.0, 2023-09-26 18:30:49.264
132.0, 43424.03035450344, 61593.67401524473, -30016.537608687595, -19431.2878765211, -21899.09927834264, -3457.3007771135303, -187500.02235174447, -2642.602043462043, 15343.667905767907, -23305.828667381844, -187500.02235174447, 3334.187368653699, -2362.758202881599, -6945.759885997759, 3317.3788568233085, -24260.51637655692, -0.10400000000000001, 0.874, 0.47400000000000003, 192.0, 126.0, 96.0, 13.5, 40.0, 7.0, 104.0, 0.0, 0.0, 0.0, 1.695771049264971E9, 0.0, 2023-09-26 18:30:49.264
134.0, 43439.38600294424, 61571.29991904496, -30000.533759657596, -19410.187829755287, -21877.529844943267, -3452.6963177557373, -187500.02235174447, -2677.426061323412, 15327.597001504542, -23325.05116761341, -187500.02235174447, 3324.196138882177, -2378.4491274892243, -6964.691813551404, 3332.7345052641044, -24276.453170353554, -0.10400000000000001, 0.874, 0.47400000000000003, 192.0, 0.0, 0.0, 0.0, 0.0, 0.0, 0.0, 0.0, 0.0, 0.0, 1.695771049264975E9, 0.0, 2023-09-26 18:30:49.264
136.0, 43422.801008558396, 61592.75759372206, -30020.717384900738, -19434.08184457801, -21901.937949888463, -3459.5359515590612, -187500.02235174447, -2647.4747237533, 15343.243222623256, -23310.120202317263, -187500.02235174447, 3324.0843801599003, -2364.814563371487, -6950.051420933178, 3319.0105341685457, -24257.565946288818, -0.10400000000000001, 0.874, 0.47400000000000003, 192.0, 0.0, 0.0, 0.0, 0.0, 0.0, 0.0, 0.0, 0.0, 0.0, 1.695771049325146E9, 0.0, 2023-09-26 18:30:49.325
138.0, 43433.48514240803, 61594.99276816759, -30004.75823935965, -19413.22766700121, -21885.062382824708, -3451.712840999704, -187500.02235174447, -2671.167572875926, 15319.170393844892, -23333.924810162167, -187500.02235174447, 3318.8540719573584, -2390.541421239546, -6971.866723521558, 3339.3729733673304, -24273.145112174167, -0.10400000000000001, 0.874, 0.47400000000000003, 192.0, 0.0, 0.0, 0.0, 0.0, 0.0, 0.0, 0.0, 0.0, 0.0, 1.695771049325158E9, 0.0, 2023-09-26 18:30:49.325
140.0, 43427.02548826045, 61590.209494854156, -30002.187788747287, -19415.03815830209, -21886.112914814104, -3442.7944949620364, -187500.02235174447, -2636.745886414753, 15339.242260365756, -23310.768402906466, -187500.02235174447, 3324.844339471381, -2367.116793050384, -6947.168045898444, 3313.690818988183, -24249.116986884714, -0.10400000000000001, 0.874, 0.47400000000000003, 192.0, 0.0, 0.0, 0.0, 0.0, 0.0, 0.0, 0.0, 0.0, 0.0, 1.695771049325162E9, 0.0, 2023-09-26 18:30:49.325
142.0, 43430.04297376191, 61599.59722752539, -29997.94095730078, -19407.03623378709, -21874.154731530518, -3444.359117073908, -187500.02235174447, -2653.912026156429, 15329.563955016609, -23322.391310023228, -187500.02235174447, 3335.617880298839, -2379.6114182009005, -6961.048479205189, 3354.6615665747604, -24257.70005675555, -0.10400000000000001, 0.88, 0.47400000000000003, 192.0, 126.0, 96.0, 13.5, 64.0, 7.0, 104.0, 0.0, 0.0, 0.0, 1.695771049325165E9, 0.0, 2023-09-26 18:30:49.325
144.0, 43439.05072677741, 61575.83732316939, -29993.202387476253, -19403.482306418697, -21871.494873940333, -3432.1774163457653, -187500.02235174447, -2635.4941887252558, 15341.70095225584, -23308.980263350044, -187500.02235174447, 3328.1971011396768, -2361.4170982142805, -6941.915385951446, 3318.1835196236993, -24248.446434551053, -0.10400000000000001, 0.88, 0.47400000000000003, 192.0, 0.0, 0.0, 0.0, 0.0, 0.0, 0.0, 0.0, 0.0, 0.0, 1.695771049325168E9, 0.0, 2023-09-26 18:30:49.325
146.0, 43450.98655831654, 61573.71390744614, -29979.433712891783, -19384.41626839832, -21853.36760918708, -3421.0685993514776, -187500.02235174447, -2634.421304991401, 15344.025533679192, -23308.756745905488, -187500.02235174447, 3348.3807263828194, -2365.149839538317, -6943.010621429757, 3366.3962324137965, -24240.37745480269, -0.10400000000000001, 0.88, 0.47400000000000003, 192.0, 0.0, 0.0, 0.0, 0.0, 0.0, 0.0, 0.0, 0.0, 0.0, 1.695771049325171E9, 0.0, 2023-09-26 18:30:49.325
148.0, 43432.591072629824, 61547.91999434472, -30000.265538724132, -19406.16451575333, -21869.058533794705, -3430.1657593447876, -187500.02235174447, -2629.973307844795, 15356.363696618522, -23293.959891076076, -187500.02235174447, 3339.350621622875, -2347.626071885356, -6924.972763654324, 3334.924976220724, -24230.07330060879, -0.10400000000000001, 0.88, 0.47400000000000003, 192.0, 0.0, 0.0, 0.0, 0.0, 0.0, 0.0, 0.0, 0.0, 0.0, 1.695771049325174E9, 0.0, 2023-09-26 18:30:49.325
150.0, 43430.86998830676, 61576.73139294761, -30003.819466092526, -19413.40648095685, -21869.03618205025, -3443.308585084508, -187500.02235174447, -2648.7934766761637, 15322.299638068635, -23331.108490360795, -187500.02235174447, 3330.5440343074843, -2385.7357961816547, -6968.0445752197, 3357.90256952078, -24263.287992869376, -0.10400000000000001, 0.88, 0.47400000000000003, 192.0, 0.0, 0.0, 0.0, 0.0, 0.0, 0.0, 0.0, 0.0, 0.0, 1.695771049325178E9, 0.0, 2023-09-26 18:30:49.325
152.0, 43438.536636654935, 61528.09399701286, -29994.811713077037, -19411.03719604459, -21859.33552495665, -3429.986945389145, -187500.02235174447, -2642.356174273035, 15351.46866458281, -23308.600283694304, -187500.02235174447, 3318.652906257261, -2353.9069120772974, -6941.714220251349, 3319.837548713392, -24250.346332829755, -0.11, 0.886, 0.47000000000000003, 192.0, 126.0, 72.0, 13.5, 88.0, 7.0, 88.0, 0.0, 0.0, 0.0, 1.695771049384002E9, 0.0, 2023-09-26 18:30:49.384
154.0, 43421.52695912444, 61573.51274174604, -30018.32574824402, -19426.661065418848, -21873.260661752305, -3446.7731054750807, -187500.02235174447, -2647.9217586424065, 15335.375408574988, -23328.13570834824, -187500.02235174447, 3328.5994325398724, -2369.5307814515572, -6965.272958907242, 3360.517723622051, -24258.795292233863, -0.11, 0.886, 0.47000000000000003, 192.0, 0.0, 0.0, 0.0, 0.0, 0.0, 0.0, 0.0, 0.0, 0.0, 1.695771049384012E9, 0.0, 2023-09-26 18:30:49.384
156.0, 43433.3510319413, 61514.54883987294, -29997.628032878405, -19412.043024545077, -21857.301516211217, -3430.836311678447, -187500.02235174447, -2652.660328466932, 15336.98473417577, -23321.56429547838, -187500.02235174447, 3304.995990395068, -2363.205237770705, -6950.610214544561, 3313.5120050325404, -24259.979934689993, -0.11, 0.886, 0.47000000000000003, 192.0, 0.0, 0.0, 0.0, 0.0, 0.0, 0.0, 0.0, 0.0, 0.0, 1.695771049384015E9, 0.0, 2023-09-26 18:30:49.384
158.0, 43421.41520040217, 61550.87042461282, -30009.31799522853, -19424.247077017677, -21870.399638462026, -3443.9120821848014, -187500.02235174447, -2645.3066045411356, 15334.458987052321, -23323.732414690545, -187500.02235174447, 3324.486711560096, -2370.626016929867, -6957.963938470357, 3356.673223575738, -24255.55428928784, -0.11, 0.886, 0.47000000000000003, 192.0, 0.0, 0.0, 0.0, 0.0, 0.0, 0.0, 0.0, 0.0, 0.0, 1.695771049384018E9, 0.0, 2023-09-26 18:30:49.384
160.0, 43426.712563838075, 61505.92106651319, -30001.494884669173, -19417.87682984791, -21860.788388346242, -3440.2463960941313, -187500.02235174447, -2669.3347298305907, 15329.921582927893, -23332.181374094653, -187500.02235174447, 3303.967810150124, -2374.0234820870737, -6960.735554782815, 3313.3108393324424, -24270.261737139434, -0.11, 0.886, 0.47000000000000003, 192.0, 0.0, 0.0, 0.0, 0.0, 0.0, 0.0, 0.0, 0.0, 0.0, 1.695771049384022E9, 0.0, 2023-09-26 18:30:49.384
162.0, 43416.14018871071, 61548.21056702264, -30020.449163967274, -19427.37632124142, -21868.767961116788, -3447.6224717643827, -187500.02235174447, -2644.0549068516384, 15329.563955016609, -23327.733376948046, -187500.02235174447, 3328.264156373043, -2361.3947464698253, -6958.433325103918, 3348.4701333606404, -24258.66118176713, -0.114, 0.88, 0.468, 192.0, 126.0, 56.0, 13.5, 64.0, 7.0, 80.0, 0.0, 0.0, 0.0, 1.695771049384025E9, 0.0, 2023-09-26 18:30:49.384
164.0, 43431.0040987735, 61488.352595371325, -29989.804922319046, -19402.342367451474, -21851.7582835863, -3428.1093988548996, -187500.02235174447, -2662.070412882616, 15347.646516280953, -23322.43601351214, -187500.02235174447, 3316.1048073893558, -2360.9924150696297, -6945.916348208946, 3320.3739905803195, -24260.784597490383, -0.114, 0.88, 0.468, 192.0, 0.0, 0.0, 0.0, 0.0, 0.0, 0.0, 0.0, 0.0, 0.0, 1.695771049384028E9, 0.0, 2023-09-26 18:30:49.384
166.0, 43414.82143578785, 61542.309706486434, -30022.706690157258, -19422.74951013917, -21879.72031589989, -3444.6273380073712, -187500.02235174447, -2639.7857236606746, 15338.929335943383, -23322.212496067586, -187500.02235174447, 3333.3827058533084, -2368.2120285286937, -6951.370173856041, 3347.1513804377773, -24251.26275435242, -0.114, 0.88, 0.468, 192.0, 0.0, 0.0, 0.0, 0.0, 0.0, 0.0, 0.0, 0.0, 0.0, 1.695771049444404E9, 0.0, 2023-09-26 18:30:49.444
168.0, 43412.6980200646, 61517.074586996394, -30015.196504020278, -19415.97693156921, -21878.66978391049, -3445.543759530039, -187500.02235174447, -2674.185058377392, 15316.421129276889, -23330.549696749415, -187500.02235174447, 3311.5897550093837, -2385.2217060591825, -6958.634490804016, 3318.652906257261, -24267.691286527075, -0.114, 0.88, 0.468, 192.0, 0.0, 0.0, 0.0, 0.0, 0.0, 0.0, 0.0, 0.0, 0.0, 1.695771049444415E9, 0.0, 2023-09-26 18:30:49.444
170.0, 43409.3452583963, 61562.76155266304, -30029.099289071477, -19432.22664978822, -21895.32183352969, -3456.4290590797737, -187500.02235174447, -2653.912026156429, 15310.140289084948, -23332.606057239303, -187500.02235174447, 3313.8249294549146, -2394.788252686054, -6967.128153697033, 3320.910432447247, -24272.921594729614, -0.114, 0.88, 0.468, 192.0, 0.0, 0.0, 0.0, 0.0, 0.0, 0.0, 0.0, 0.0, 0.0, 1.69577104944442E9, 0.0, 2023-09-26 18:30:49.444
172.0, 43426.511398137976, 61520.80732832043, -30011.88844584089, -19416.08869029149, -21879.5638536887, -3448.4047828203184, -187500.02235174447, -2676.19671537837, 15330.122748627991, -23325.14057459123, -187500.02235174447, 3313.6014120103614, -2375.0293105875626, -6956.555778569673, 3310.516871275529, -24272.116931929224, -0.106, 0.882, 0.464, 192.0, 126.0, 88.0, 13.5, 72.0, 7.0, 64.0, 0.0, 0.0, 0.0, 1.695771049444423E9, 0.0, 2023-09-26 18:30:49.444
174.0, 43419.515302123466, 61565.26494804203, -30018.482210455208, -19432.47251897723, -21896.081792841174, -3458.373660847385, -187500.02235174447, -2641.707973683831, 15327.597001504542, -23324.42531876866, -187500.02235174447, 3321.0221911695235, -2385.3781682703698, -6964.311833895664, 3314.6966474886713, -24271.133455173192, -0.106, 0.882, 0.464, 192.0, 0.0, 0.0, 0.0, 0.0, 0.0, 0.0, 0.0, 0.0, 0.0, 1.695771049444427E9, 0.0, 2023-09-26 18:30:49.444
176.0, 43431.27231970696, 61532.40788369273, -30000.153780001856, -19413.160611767842, -21873.864158852597, -3451.802247977525, -187500.02235174447, -2673.425099065912, 15332.715550984807, -23324.492374002028, -187500.02235174447, 3322.4303510702075, -2386.7639764265987, -6962.970729228346, 3316.060103900445, -24276.4308186091, -0.106, 0.882, 0.464, 192.0, 0.0, 0.0, 0.0, 0.0, 0.0, 0.0, 0.0, 0.0, 0.0, 1.695771049444431E9, 0.0, 2023-09-26 18:30:49.444
178.0, 43423.136284725224, 61554.51375895903, -30009.921492328824, -19419.352044981963, -21876.322850742683, -3445.1414281298435, -187500.02235174447, -2630.509749711722, 15337.744693487251, -23321.541943733926, -187500.02235174447, 3321.871557458825, -2371.0954035634286, -6961.0931826941, 3314.428426555208, -24267.95950746054, -0.106, 0.882, 0.464, 192.0, 0.0, 0.0, 0.0, 0.0, 0.0, 0.0, 0.0, 0.0, 0.0, 1.695771049444444E9, 0.0, 2023-09-26 18:30:49.444
180.0, 43442.850523334804, 61513.65477009473, -29976.438579134774, -19390.36183242343, -21849.791330074233, -3423.0802563524553, -187500.02235174447, -2645.507770241233, 15357.391876863467, -23301.8500568688, -187500.02235174447, 3341.51874083504, -2358.667833646278, -6938.18264462741, 3340.647022801283, -24250.48044329649, -0.106, 0.882, 0.464, 192.0, 0.0, 0.0, 0.0, 0.0, 0.0, 0.0, 0.0, 0.0, 0.0, 1.695771049444447E9, 0.0, 2023-09-26 18:30:49.444
182.0, 43430.24413946201, 61529.05512202444, -29995.549320644062, -19407.97500705421, -21868.8126646057, -3426.8800529098576, -187500.02235174447, -2611.2425459912474, 15364.343269389066, -23298.072612055854, -187500.02235174447, 3336.847226243881, -2351.9623103096856, -6936.215691115343, 3331.8627872303473, -24245.048969393847, -0.108, 0.88, 0.464, 192.0, 126.0, 80.0, 13.5, 64.0, 7.0, 64.0, 0.0, 0.0, 0.0, 1.695771049504555E9, 0.0, 2023-09-26 18:30:49.504
184.0, 43427.94190978312, 61533.25724998203, -29997.918605556322, -19406.61155064244, -21868.99147856134, -3433.607927990905, -187500.02235174447, -2651.9003691554512, 15344.763141246218, -23313.04828084091, -187500.02235174447, 3336.4448948436852, -2379.879639134364, -6949.380868599519, 3349.9453484946907, -24255.956620688037, -0.108, 0.88, 0.464, 192.0, 0.0, 0.0, 0.0, 0.0, 0.0, 0.0, 0.0, 0.0, 0.0, 1.695771049504565E9, 0.0, 2023-09-26 18:30:49.504
186.0, 43415.26847067696, 61545.08132279889, -30005.76406786014, -19422.324826994518, -21879.809722877708, -3434.3678873023855, -187500.02235174447, -2629.258052022225, 15352.94387971686, -23305.8510191263, -187500.02235174447, 3329.091170917889, -2363.2499412596158, -6943.301194107676, 3317.557670778951, -24254.16848113161, -0.108, 0.88, 0.464, 192.0, 0.0, 0.0, 0.0, 0.0, 0.0, 0.0, 0.0, 0.0, 0.0, 1.695771049504569E9, 0.0, 2023-09-26 18:30:49.504
188.0, 43410.30638340788, 61564.70615443065, -29999.527931157107, -19420.17905952681, -21880.27910951127, -3441.2075211057095, -187500.02235174447, -2658.7847064476855, 15337.498824298244, -23323.106565845796, -187500.02235174447, 3330.8793104743136, -2394.9223631527857, -6960.534389082717, 3347.218435671143, -24266.70780977104, -0.108, 0.88, 0.464, 192.0, 0.0, 0.0, 0.0, 0.0, 0.0, 0.0, 0.0, 0.0, 0.0, 1.695771049504572E9, 0.0, 2023-09-26 18:30:49.504
190.0, 43414.44145613211, 61557.73241016059, -29997.69508811177, -19421.028425816112, -21877.216920520892, -3432.6915064682375, -187500.02235174447, -2646.6924126973645, 15338.504652798732, -23316.66926344267, -187500.02235174447, 3315.255441100054, -2382.8971246358306, -6951.861912234058, 3309.9133741752357, -24263.62326903621, -0.108, 0.88, 0.464, 192.0, 0.0, 0.0, 0.0, 0.0, 0.0, 0.0, 0.0, 0.0, 0.0, 1.695771049504576E9, 0.0, 2023-09-26 18:30:49.504
192.0, 43419.87293003475, 61573.82566616841, -29988.64263160737, -19413.1829635123, -21869.19264426144, -3436.4018960478184, -187500.02235174447, -2659.2764448257026, 15345.970135446803, -23320.156135577698, -187500.02235174447, 3329.8511302293696, -2383.94765662523, -6957.159275669966, 3345.989089726101, -24265.70198127055, -0.11, 0.876, 0.462, 192.0, 126.0, 72.0, 13.5, 48.0, 7.0, 56.0, 0.0, 0.0, 0.0, 1.695771049504579E9, 0.0, 2023-09-26 18:30:49.504
194.0, 43430.490008651024, 61543.33788673138, -29975.87978552339, -19407.37150995392, -21857.636792378045, -3423.504939497106, -187500.02235174447, -2644.2113690628257, 15365.03617346718, -23301.89476035771, -187500.02235174447, 3318.295278345976, -2358.2878539905378, -6934.9192899369355, 3312.3720660653194, -24255.889565454672, -0.11, 0.876, 0.462, 192.0, 0.0, 0.0, 0.0, 0.0, 0.0, 0.0, 0.0, 0.0, 0.0, 1.695771049504583E9, 0.0, 2023-09-26 18:30:49.504
196.0, 43440.011851788986, 61549.171692034215, -29961.284096394076, -19396.910893548837, -21845.119815483074, -3417.514671983084, -187500.02235174447, -2632.9237381128955, 15365.818484523117, -23293.89283584271, -187500.02235174447, 3343.999784469579, -2361.7523743811103, -6930.828920701614, 3364.496334135096, -24243.41729204861, -0.11, 0.876, 0.462, 192.0, 0.0, 0.0, 0.0, 0.0, 0.0, 0.0, 0.0, 0.0, 0.0, 1.695771049564899E9, 0.0, 2023-09-26 18:30:49.564
198.0, 43437.08377326534, 61527.13287200128, -29971.0741604655, -19407.505620420652, -21852.94292604243, -3420.889785395835, -187500.02235174447, -2634.9577468583284, 15375.94382476137, -23289.13191427373, -187500.02235174447, 3334.321479120431, -2351.3141097204816, -6923.542252009184, 3330.9240139632243, -24245.160728116123, -0.11, 0.876, 0.462, 192.0, 0.0, 0.0, 0.0, 0.0, 0.0, 0.0, 0.0, 0.0, 0.0, 1.695771049564909E9, 0.0, 2023-09-26 18:30:49.564
200.0, 43422.01869750246, 61573.691555701684, -29986.586271117485, -19424.872925862423, -21870.936080328953, -3445.901387441324, -187500.02235174447, -2653.8673226675182, 15353.033286694681, -23312.400080251704, -187500.02235174447, 3338.545958822484, -2373.464688475691, -6953.895920979491, 3365.390403913308, -24267.624231293707, -0.11, 0.876, 0.462, 192.0, 0.0, 0.0, 0.0, 0.0, 0.0, 0.0, 0.0, 0.0, 0.0, 1.695771049564913E9, 0.0, 2023-09-26 18:30:49.564
202.0, 43436.41322093168, 61529.14452900226, -29968.391951130863, -19406.052757031055, -21850.75245508581, -3427.1482738433215, -187500.02235174447, -2657.197732591359, 15367.830141524095, -23304.152286547698, -187500.02235174447, 3318.027057412512, -2360.7018423917107, -6941.46835106234, 3319.0105341685457, -24267.75834176044, -0.10400000000000001, 0.872, 0.466, 192.0, 126.0, 96.0, 13.5, 32.0, 7.0, 72.0, 0.0, 0.0, 0.0, 1.695771049564916E9, 0.0, 2023-09-26 18:30:49.564
204.0, 43427.02548826045, 61572.03752661199, -29975.857433778936, -19417.563905425537, -21864.56583315919, -3436.6030617479164, -187500.02235174447, -2651.967424388817, 15368.299528157655, -23304.688728414625, -187500.02235174447, 3342.099886190878, -2357.4161359567806, -6944.619947030538, 3363.9151887792577, -24253.76614973142, -0.10400000000000001, 0.872, 0.466, 192.0, 0.0, 0.0, 0.0, 0.0, 0.0, 0.0, 0.0, 0.0, 0.0, 1.69577104956492E9, 0.0, 2023-09-26 18:30:49.564
206.0, 43420.34231666831, 61546.288316999475, -29979.187843702777, -19420.648446160372, -21865.616365148588, -3439.374678060374, -187500.02235174447, -2667.680700740898, 15357.70480128584, -23312.221266296063, -187500.02235174447, 3315.367199822331, -2370.8048308855095, -6948.978537199323, 3325.805464482959, -24265.880795226192, -0.10400000000000001, 0.872, 0.466, 192.0, 0.0, 0.0, 0.0, 0.0, 0.0, 0.0, 0.0, 0.0, 0.0, 1.695771049564923E9, 0.0, 2023-09-26 18:30:49.564
208.0, 43423.27039519196, 61593.338739077895, -29976.706800068237, -19416.93805658079, -21861.99538254683, -3436.0219163920783, -187500.02235174447, -2644.747810929753, 15352.094513427559, -23319.57499022186, -187500.02235174447, 3324.844339471381, -2374.85049663192, -6961.51786583875, 3354.125124707833, -24268.160673160633, -0.10400000000000001, 0.872, 0.466, 192.0, 0.0, 0.0, 0.0, 0.0, 0.0, 0.0, 0.0, 0.0, 0.0, 1.695771049564927E9, 0.0, 2023-09-26 18:30:49.564
210.0, 43436.79320058742, 61536.297087227955, -29963.45221560624, -19397.670852860316, -21848.964315529385, -3416.330029526953, -187500.02235174447, -2653.710860456331, 15368.031307224192, -23300.687766157123, -187500.02235174447, 3322.7656272370373, -2349.503618419602, -6935.99217367079, 3328.130045906311, -24255.688399754574, -0.10400000000000001, 0.872, 0.466, 192.0, 0.0, 0.0, 0.0, 0.0, 0.0, 0.0, 0.0, 0.0, 0.0, 1.695771049564932E9, 0.0, 2023-09-26 18:30:49.564
212.0, 43419.15767421218, 61584.9344831627, -29983.99346876067, -19416.02163505812, -21871.181949517962, -3427.6623639657932, -187500.02235174447, -2631.202653789837, 15364.544435089165, -23301.403021979695, -187500.02235174447, 3344.8044472699703, -2358.041984801529, -6940.70839175086, 3352.42639212923, -24248.245268850955, -0.108, 0.882, 0.47000000000000003, 192.0, 126.0, 80.0, 13.5, 72.0, 7.0, 88.0, 0.0, 0.0, 0.0, 1.695771049624357E9, 0.0, 2023-09-26 18:30:49.624
214.0, 43433.99923253051, 61536.18532850568, -29961.12763418289, -19394.251035958652, -21850.99832427482, -3410.2950585240196, -187500.02235174447, -2653.196770333859, 15360.252900153746, -23302.766478391466, -187500.02235174447, 3329.873481973825, -2355.695051633722, -6936.238042859798, 3325.8501679718697, -24254.347295087256, -0.108, 0.882, 0.47000000000000003, 192.0, 0.0, 0.0, 0.0, 0.0, 0.0, 0.0, 0.0, 0.0, 0.0, 1.695771049624369E9, 0.0, 2023-09-26 18:30:49.624
216.0, 43424.03035450344, 61577.31253830344, -29973.354038399943, -19407.684434376293, -21864.6105366481, -3415.7488841711147, -187500.02235174447, -2626.285270009669, 15364.298565900155, -23293.579911420336, -187500.02235174447, 3347.7995810269813, -2358.9360545797413, -6932.460598046851, 3349.0289269720233, -24240.89154492516, -0.108, 0.882, 0.47000000000000003, 192.0, 0.0, 0.0, 0.0, 0.0, 0.0, 0.0, 0.0, 0.0, 0.0, 1.695771049624374E9, 0.0, 2023-09-26 18:30:49.624
218.0, 43433.708659852586, 61536.18532850568, -29960.725302782692, -19390.54064637907, -21852.451187664414, -3410.429168990752, -187500.02235174447, -2661.422212293412, 15360.454065853843, -23297.536170188927, -187500.02235174447, 3332.7792087530147, -2357.9972813126187, -6933.5111300362505, 3329.2699848735315, -24252.425045064098, -0.108, 0.882, 0.47000000000000003, 192.0, 0.0, 0.0, 0.0, 0.0, 0.0, 0.0, 0.0, 0.0, 0.0, 1.695771049624378E9, 0.0, 2023-09-26 18:30:49.624
220.0, 43422.868063791764, 61583.14634360628, -29976.460930879228, -19409.561980910537, -21869.550272172724, -3425.3377825424413, -187500.02235174447, -2627.9840025882727, 15362.04103971017, -23297.402059722193, -187500.02235174447, 3342.8821972468136, -2360.0759935469623, -6938.607327772061, 3339.70824953416, -24245.406597305133, -0.108, 0.882, 0.47000000000000003, 192.0, 0.0, 0.0, 0.0, 0.0, 0.0, 0.0, 0.0, 0.0, 0.0, 1.695771049624381E9, 0.0, 2023-09-26 18:30:49.624
222.0, 43436.34616569831, 61538.62166865131, -29953.75155851264, -19386.45027714375, -21843.5551933712, -3407.6352009338384, -187500.02235174447, -2643.898444640451, 15364.812656022628, -23299.145495789708, -187500.02235174447, 3335.550825065473, -2353.728098121655, -6935.947470181879, 3332.220415141632, -24247.708826984028, -0.116, 0.88, 0.47200000000000003, 192.0, 126.0, 48.0, 13.5, 64.0, 7.0, 96.0, 0.0, 0.0, 0.0, 1.695771049624385E9, 0.0, 2023-09-26 18:30:49.624
224.0, 43420.52113062396, 61572.21634056763, -29969.822462776003, -19405.69512911977, -21862.24125173584, -3415.346552770919, -187500.02235174447, -2605.9451825553397, 15366.198464178857, -23299.950158590098, -187500.02235174447, 3336.3778396103194, -2354.4210021997696, -6937.51209229375, 3339.3729733673304, -24236.84587917875, -0.116, 0.88, 0.47200000000000003, 192.0, 0.0, 0.0, 0.0, 0.0, 0.0, 0.0, 0.0, 0.0, 0.0, 1.695771049624388E9, 0.0, 2023-09-26 18:30:49.624
226.0, 43427.83015106084, 61552.61386068033, -29962.64755280585, -19391.859399301935, -21849.88073705205, -3411.0773695799553, -187500.02235174447, -2637.707011426331, 15359.627051308997, -23306.163943548676, -187500.02235174447, 3331.0804761744116, -2359.204275513205, -6941.401295828974, 3348.872464760836, -24241.495042025454, -0.116, 0.88, 0.47200000000000003, 192.0, 0.0, 0.0, 0.0, 0.0, 0.0, 0.0, 0.0, 0.0, 0.0, 1.695771049684056E9, 0.0, 2023-09-26 18:30:49.684
228.0, 43423.06922949186, 61571.90341614526, -29975.03041923409, -19407.058585531544, -21861.61540289109, -3412.060846335989, -187500.02235174447, -2600.5360603971553, 15366.958423490338, -23295.591568421314, -187500.02235174447, 3332.42158084173, -2354.1304295218506, -6932.32648758012, 3335.640232043294, -24228.50867849692, -0.116, 0.88, 0.47200000000000003, 192.0, 0.0, 0.0, 0.0, 0.0, 0.0, 0.0, 0.0, 0.0, 0.0, 1.695771049684067E9, 0.0, 2023-09-26 18:30:49.684
230.0, 43414.93319451013, 61574.742087691084, -29976.237413434676, -19410.388995455385, -21863.403542447515, -3428.5564337440055, -187500.02235174447, -2647.6982411978533, 15346.32776335809, -23321.56429547838, -187500.02235174447, 3328.5323773065065, -2376.8398018884423, -6959.170932670943, 3346.324365892931, -24246.36772231671, -0.116, 0.88, 0.47200000000000003, 192.0, 0.0, 0.0, 0.0, 0.0, 0.0, 0.0, 0.0, 0.0, 0.0, 1.695771049684071E9, 0.0, 2023-09-26 18:30:49.684
232.0, 43419.11297072327, 61589.293073331486, -29978.494939624663, -19415.66400714684, -21865.37049595958, -3426.0753901094668, -187500.02235174447, -2611.354304713524, 15352.966231461316, -23310.56723720637, -187500.02235174447, 3322.0727231589226, -2364.881618604853, -6948.665612776949, 3320.172824880222, -24241.316228069812, -0.114, 0.872, 0.47000000000000003, 192.0, 126.0, 56.0, 13.5, 32.0, 7.0, 88.0, 0.0, 0.0, 0.0, 1.695771049684074E9, 0.0, 2023-09-26 18:30:49.684
234.0, 43432.61342437428, 61575.68086095821, -29971.252974421142, -19403.9293413078, -21851.020676019274, -3427.8858814103464, -187500.02235174447, -2647.8547034090407, 15347.154777902935, -23316.401042509206, -187500.02235174447, 3330.8569587298584, -2369.9331128517524, -6956.846351247591, 3349.4089066277634, -24247.105329883736, -0.114, 0.872, 0.47000000000000003, 192.0, 0.0, 0.0, 0.0, 0.0, 0.0, 0.0, 0.0, 0.0, 0.0, 1.695771049684077E9, 0.0, 2023-09-26 18:30:49.684
236.0, 43422.44338064711, 61577.983090637106, -29980.551300114552, -19422.481289205705, -21866.063400037696, -3435.2396053361426, -187500.02235174447, -2627.939299099362, 15361.839874010073, -23308.555580205393, -187500.02235174447, 3325.5372435494955, -2353.348118465915, -6949.202054643876, 3321.1339498918, -24245.89833568315, -0.114, 0.872, 0.47000000000000003, 192.0, 0.0, 0.0, 0.0, 0.0, 0.0, 0.0, 0.0, 0.0, 0.0, 1.69577104968408E9, 0.0, 2023-09-26 18:30:49.684
238.0, 43435.74266859802, 61574.42916326871, -29968.771930786603, -19411.059547789046, -21853.23349872035, -3433.809093691003, -187500.02235174447, -2642.0879533395714, 15348.115902914513, -23315.41756575317, -187500.02235174447, 3332.488636075096, -2371.296569263526, -6957.874531492535, 3357.9249212652353, -24250.3239810853, -0.114, 0.872, 0.47000000000000003, 192.0, 0.0, 0.0, 0.0, 0.0, 0.0, 0.0, 0.0, 0.0, 0.0, 1.695771049684084E9, 0.0, 2023-09-26 18:30:49.684
240.0, 43431.58524412933, 61561.01811659552, -29985.625146105904, -19422.21306827224, -21859.670801123477, -3433.1161896128883, -187500.02235174447, -2625.0782758090827, 15354.888481484471, -23306.99095809352, -187500.02235174447, 3316.551842278462, -2351.2917579760265, -6946.3633830980525, 3323.6373452707944, -24247.306495583834, -0.114, 0.872, 0.47000000000000003, 192.0, 0.0, 0.0, 0.0, 0.0, 0.0, 0.0, 0.0, 0.0, 0.0, 1.695771049684087E9, 0.0, 2023-09-26 18:30:49.684
