%OpenBCI Raw EXG Data
%Number of channels = 16
%Sample Rate = 125 Hz
%Board = OpenBCI_GUI$BoardCytonSerialDaisy
Sample Index, EXG Channel 0, EXG Channel 1, EXG Channel 2, EXG Channel 3, EXG Channel 4, EXG Channel 5, EXG Channel 6, EXG Channel 7, EXG Channel 8, EXG Channel 9, EXG Channel 10, EXG Channel 11, EXG Channel 12, EXG Channel 13, EXG Channel 14, EXG Channel 15, Accel Channel 0, Accel Channel 1, Accel Channel 2, Other, Other, Other, Other, Other, Other, Other, Analog Channel 0, Analog Channel 1, Analog Channel 2, Timestamp, Other, Timestamp (Formatted)
208.0, 43775.556239552054, 57759.14284695898, -30061.218745853752, -19756.39399962354, -21841.69999858141, -3410.6303346908494, -187500.02235174447, -3689.848326426545, 15660.235662488421, -24061.98818230488, -187500.02235174447, 1893.1704036200529, -2010.1370823546747, -7530.414465715226, 3870.204552436418, -25353.136700765695, 0.0, 0.0, 0.0, 192.0, 0.0, 0.0, 0.0, 0.0, 0.0, 0.0, 0.0, 0.0, 0.0, 1.695770983520738E9, 0.0, 2023-09-26 18:29:43.520
210.0, 43751.014024140124, 57853.44485681592, -30092.019449713167, -19786.501799404836, -21875.5628914312, -3437.385372803852, -187500.02235174447, -3678.091308843054, 15639.940278523003, -24074.72867664441, -187500.02235174447, 1901.775825235346, -2034.321669855317, -7551.536864225491, 3895.7972998377445, -25363.843186359787, 0.0, 0.0, 0.0, 192.0, 0.0, 0.0, 0.0, 0.0, 0.0, 0.0, 0.0, 0.0, 0.0, 1.695770983520746E9, 0.0, 2023-09-26 18:29:43.520
212.0, 43758.45715504374, 57780.30994895816, -30076.797911739104, -19766.29582241724, -21862.21889999138, -3421.6273929628605, -187500.02235174447, -3709.8084342251345, 15624.42816787102, -24086.955080861462, -187500.02235174447, 1882.2180488369524, -2041.6306902922024, -7556.253082305561, 3860.883874998555, -25383.624480202732, 0.0, 0.0, 0.0, 192.0, 0.0, 0.0, 0.0, 0.0, 0.0, 0.0, 0.0, 0.0, 0.0, 1.69577098352075E9, 0.0, 2023-09-26 18:29:43.520
214.0, 43762.39106206788, 57830.57902223814, -30083.950469964802, -19771.593185853148, -21866.532786671258, -3413.9160411257794, -187500.02235174447, -3666.043718581643, 15641.974287268435, -24068.872519597116, -187500.02235174447, 1901.1946798795082, -2017.1778818580965, -7539.712791408634, 3876.105412972619, -25355.953020567064, -0.042, 0.9540000000000001, 0.306, 192.0, 127.0, 88.0, 14.5, 104.0, 4.5, 72.0, 0.0, 0.0, 0.0, 1.695770983520753E9, 0.0, 2023-09-26 18:29:43.520
216.0, 43762.972207423714, 57775.884303556006, -30078.72016176226, -19764.53003460527, -21865.012868048296, -3414.2736690370643, -187500.02235174447, -3699.8172044536122, 15635.134653465111, -24074.2816417553, -187500.02235174447, 1889.4823657849272, -2036.6686030231242, -7539.601032686357, 3873.3785001490714, -25361.809177614356, -0.042, 0.9540000000000001, 0.306, 192.0, 0.0, 0.0, 0.0, 0.0, 0.0, 0.0, 0.0, 0.0, 0.0, 1.695770983520757E9, 0.0, 2023-09-26 18:29:43.520
218.0, 43733.04322159806, 57845.509987534286, -30110.81726680008, -19796.470677431906, -21894.830095151676, -3433.6526314798157, -187500.02235174447, -3669.5752942055815, 15620.963647480447, -24083.848188382173, -187500.02235174447, 1881.100461614187, -2047.7550682729566, -7554.554349726957, 3869.8245727806775, -25366.6371544167, -0.042, 0.9540000000000001, 0.306, 192.0, 0.0, 0.0, 0.0, 0.0, 0.0, 0.0, 0.0, 0.0, 0.0, 1.69577098352076E9, 0.0, 2023-09-26 18:29:43.520
220.0, 43751.37165205141, 57786.30021647218, -30084.10693217599, -19768.70981081841, -21864.85640583711, -3412.0161428470783, -187500.02235174447, -3697.760843963724, 15615.42041485553, -24088.206778550957, -187500.02235174447, 1873.9479033884888, -2043.0835536817974, -7554.196721815672, 3864.974244233876, -25374.236747531504, -0.042, 0.9540000000000001, 0.306, 192.0, 0.0, 0.0, 0.0, 0.0, 0.0, 0.0, 0.0, 0.0, 0.0, 1.695770983520763E9, 0.0, 2023-09-26 18:29:43.520
222.0, 43756.065518387026, 57804.58394343662, -30079.100141418, -19770.944985263945, -21864.744647114832, -3400.415587474774, -187500.02235174447, -3655.404288220917, 15640.364961667654, -24066.2797172403, -187500.02235174447, 1887.9847989064217, -2024.2857365948842, -7537.008230329541, 3864.5495610892253, -25352.913183321143, -0.042, 0.9540000000000001, 0.306, 192.0, 0.0, 0.0, 0.0, 0.0, 0.0, 0.0, 0.0, 0.0, 0.0, 1.695770983520766E9, 0.0, 2023-09-26 18:29:43.520
224.0, 43758.010120154635, 57773.24679771028, -30071.34408609201, -19761.981935737364, -21861.8612720801, -3401.5108229530842, -187500.02235174447, -3692.150556105442, 15639.560298867262, -24067.464359696434, -187500.02235174447, 1899.8982787011003, -2021.5588237713366, -7539.131646052796, 3887.6389131115575, -25355.707151378054, -0.04, 0.962, 0.308, 192.0, 127.0, 96.0, 15.0, 8.0, 4.5, 80.0, 0.0, 0.0, 0.0, 1.69577098352077E9, 0.0, 2023-09-26 18:29:43.520
0.0, 21961.39359013958, 29100.496065675747, -15031.592849682911, -9853.14069427737, -10825.642743783324, -1690.0601017546776, -93750.01117587223, -1774.5496957957382, 7821.702399456787, -12030.33471469101, -93750.01117587223, 945.501142203944, -1009.4271313461222, -3764.5478563961815, 1926.6309650696476, -12673.21558871455, -0.043, 0.956, 0.318, 192.0, 127.0, 72.0, 14.5, 88.0, 5.0, 32.0, 0.0, 0.0, 0.0, 1.695770983660673E9, 0.0, 2023-09-26 18:29:43.660
2.0, 43909.4655405838, 58257.72085877906, -30057.62011499645, -19729.393092321527, -21672.72081049929, -3394.3582647273856, -187500.02235174447, -3516.7564173646474, 15702.323997297764, -23906.621206596043, -187500.02235174447, 2051.6219200637247, -1801.0812164641877, -7455.938453190143, 3797.6731416789466, -25313.663520057624, -0.043, 0.956, 0.318, 192.0, 0.0, 0.0, 0.0, 0.0, 0.0, 0.0, 0.0, 0.0, 0.0, 1.695770983660682E9, 0.0, 2023-09-26 18:29:43.660
4.0, 43907.25271788272, 58260.24660590251, -30085.47038858776, -19722.687568984937, -21679.33692685806, -3397.152232784299, -187500.02235174447, -3554.8437899164906, 15689.851723891703, -23918.48998290181, -187500.02235174447, 2056.963986988543, -1850.523275199327, -7471.942302220143, 3832.452456051404, -25327.58865685328, -0.043, 0.956, 0.318, 192.0, 0.0, 0.0, 0.0, 0.0, 0.0, 0.0, 0.0, 0.0, 0.0, 1.695770983660686E9, 0.0, 2023-09-26 18:29:43.660
6.0, 43901.84359572454, 58257.542044823414, -30085.559795565583, -19741.463034327393, -21652.71599921179, -3398.8509653629026, -187500.02235174447, -3529.2286907707085, 15697.004282117401, -23911.695052587398, -187500.02235174447, 2047.419792106127, -1777.4330708304728, -7464.633281783257, 3758.177609226419, -25326.783994052887, -0.043, 0.956, 0.318, 192.0, 0.0, 0.0, 0.0, 0.0, 0.0, 0.0, 0.0, 0.0, 0.0, 1.695770983660689E9, 0.0, 2023-09-26 18:29:43.660
8.0, 43899.47431081228, 58288.56626612738, -30095.506321848196, -19748.704999530913, -21670.06095290911, -3410.3397620129304, -187500.02235174447, -3563.158638853865, 15699.708843196493, -23933.778576109242, -187500.02235174447, 2048.313861884339, -1825.1763969870087, -7487.700282061134, 3804.0657405931643, -25342.49727040497, -0.06, 0.9460000000000001, 0.33, 192.0, 127.0, 16.0, 14.5, 72.0, 5.0, 40.0, 0.0, 0.0, 0.0, 1.695770983660693E9, 0.0, 2023-09-26 18:29:43.660
10.0, 43916.34987787603, 58261.23008265854, -30060.57054526455, -19739.116101159587, -21684.164903660407, -3393.6653606492714, -187500.02235174447, -3534.7048681622587, 15701.832258919749, -23921.73098584783, -187500.02235174447, 2032.2653093654287, -1834.1841500024975, -7471.629377797768, 3765.4419261743938, -25339.479784903502, -0.06, 0.9460000000000001, 0.33, 192.0, 0.0, 0.0, 0.0, 0.0, 0.0, 0.0, 0.0, 0.0, 0.0, 1.695770983660696E9, 0.0, 2023-09-26 18:29:43.660
12.0, 43906.38099984897, 58294.958865041604, -30083.726952520246, -19744.122891917574, -21666.95406042982, -3403.7907008875254, -187500.02235174447, -3548.831170658013, 15706.794346188826, -23921.239247469814, -187500.02235174447, 2053.097135197775, -1819.1637777285312, -7473.037537698453, 3806.591487716614, -25331.05317724385, -0.06, 0.9460000000000001, 0.33, 192.0, 0.0, 0.0, 0.0, 0.0, 0.0, 0.0, 0.0, 0.0, 0.0, 1.6957709836607E9, 0.0, 2023-09-26 18:29:43.660
14.0, 43895.60745902151, 58258.27965239044, -30080.418894340863, -19750.135511176053, -21656.493444024738, -3400.0803113079446, -187500.02235174447, -3539.644603686882, 15695.014976860879, -23928.79413709571, -187500.02235174447, 2026.610318018236, -1857.2735020248297, -7476.457354600115, 3761.843295317089, -25340.68677910409, -0.06, 0.9460000000000001, 0.33, 192.0, 0.0, 0.0, 0.0, 0.0, 0.0, 0.0, 0.0, 0.0, 0.0, 1.695770983660703E9, 0.0, 2023-09-26 18:29:43.660
16.0, 43892.90289794241, 58311.14152802724, -30084.777484509646, -19747.162729163498, -21678.331098357572, -3401.4661194641735, -187500.02235174447, -3533.4531704727615, 15687.52714246835, -23933.73387262033, -187500.02235174447, 2045.9222252276213, -1849.1821705320085, -7482.760546536511, 3818.3485053001054, -25335.434119157093, -0.06, 0.9460000000000001, 0.33, 192.0, 0.0, 0.0, 0.0, 0.0, 0.0, 0.0, 0.0, 0.0, 0.0, 1.695770983720955E9, 0.0, 2023-09-26 18:29:43.720
18.0, 43883.40340654891, 58265.99100422752, -30107.24098768723, -19749.330848375663, -21645.76460668619, -3400.0803113079446, -187500.02235174447, -3537.454132730262, 15685.604892445195, -23938.517145933765, -187500.02235174447, 2019.8824429371887, -1793.7945477717576, -7480.570075579892, 3761.0386325166983, -25341.24557271547, -0.064, 0.9440000000000001, 0.336, 192.0, 127.0, 0.0, 14.5, 64.0, 5.0, 64.0, 0.0, 0.0, 0.0, 1.695770983720968E9, 0.0, 2023-09-26 18:29:43.720
20.0, 43893.72991248726, 58327.72652241308, -30073.243984370707, -19734.310476101695, -21645.921068897376, -3396.705197895193, -187500.02235174447, -3528.736952392692, 15689.963482613979, -23935.298494732204, -187500.02235174447, 2044.4470100935712, -1829.7585046003467, -7482.581732580868, 3816.917993654966, -25331.857840044242, -0.064, 0.9440000000000001, 0.336, 192.0, 0.0, 0.0, 0.0, 0.0, 0.0, 0.0, 0.0, 0.0, 0.0, 1.695770983720972E9, 0.0, 2023-09-26 18:29:43.720
22.0, 43913.69002028585, 58243.572204538854, -30048.992341636702, -19705.499077498804, -21617.824926117057, -3367.9161510367576, -187500.02235174447, -3520.3997517108623, 15713.879849181158, -23912.36560492106, -187500.02235174447, 2039.6637367801354, -1818.3814666725955, -7455.580825278858, 3789.3582927415723, -25316.81511602582, -0.064, 0.9440000000000001, 0.336, 192.0, 0.0, 0.0, 0.0, 0.0, 0.0, 0.0, 0.0, 0.0, 0.0, 1.695770983720976E9, 0.0, 2023-09-26 18:29:43.720
24.0, 43891.539441530644, 58318.15997578621, -30081.17885365234, -19735.47276681337, -21653.319496312084, -3393.486546693629, -187500.02235174447, -3511.637867884382, 15697.138392584133, -23912.007977009773, -187500.02235174447, 2059.959120745554, -1808.7925683012688, -7463.5603980494025, 3859.43101160896, -25310.48957234497, -0.064, 0.9440000000000001, 0.336, 192.0, 0.0, 0.0, 0.0, 0.0, 0.0, 0.0, 0.0, 0.0, 0.0, 1.69577098372098E9, 0.0, 2023-09-26 18:29:43.720
26.0, 43898.73670324525, 58249.160140652675, -30065.487929044717, -19721.19000210643, -21653.364199800995, -3383.2494477330983, -187500.02235174447, -3527.8428826144795, 15694.120907082666, -23916.724195089842, -187500.02235174447, 2034.6345942776913, -1819.5661091287268, -7461.928720704165, 3794.9238771109435, -25323.34182540677, -0.064, 0.9440000000000001, 0.336, 192.0, 0.0, 0.0, 0.0, 0.0, 0.0, 0.0, 0.0, 0.0, 0.0, 1.695770983720983E9, 0.0, 2023-09-26 18:29:43.720
28.0, 43899.34020034554, 58318.383493230765, -30063.2974580881, -19722.844031196124, -21617.400242972406, -3386.5128024235732, -187500.02235174447, -3502.250135213153, 15683.481476721941, -23921.17219223645, -187500.02235174447, 2054.460591609549, -1813.329972425696, -7472.6575580427125, 3832.7653804737784, -25316.725709048, -0.06, 0.9460000000000001, 0.336, 192.0, 127.0, 16.0, 14.5, 72.0, 5.0, 64.0, 0.0, 0.0, 0.0, 1.695770983720987E9, 0.0, 2023-09-26 18:29:43.720
30.0, 43900.68130501286, 58255.731553522535, -30051.00399863768, -19720.47474628386, -21625.782147143145, -3384.009407044579, -187500.02235174447, -3526.9488128362673, 15714.0586631368, -23911.31507293166, -187500.02235174447, 2050.7502020299676, -1831.5019406678607, -7458.553607291414, 3828.362086816083, -25308.58967406627, -0.06, 0.9460000000000001, 0.336, 192.0, 0.0, 0.0, 0.0, 0.0, 0.0, 0.0, 0.0, 0.0, 0.0, 1.695770983780329E9, 0.0, 2023-09-26 18:29:43.780
32.0, 43878.79894719111, 58341.226976064085, -30100.267243417176, -19751.946002476932, -21655.532319013157, -3405.6905991662265, -187500.02235174447, -3514.5212429191165, 15684.599063944706, -23927.4977359173, -187500.02235174447, 2050.571388074325, -1837.0004698038663, -7479.6983575461345, 3837.61570902058, -25321.307816661338, -0.06, 0.9460000000000001, 0.336, 192.0, 0.0, 0.0, 0.0, 0.0, 0.0, 0.0, 0.0, 0.0, 0.0, 1.69577098378035E9, 0.0, 2023-09-26 18:29:43.780
34.0, 43897.619116022484, 58269.38846938473, -30042.644446211394, -19721.167650361975, -21629.17961230035, -3378.6002848863945, -187500.02235174447, -3534.3248885065186, 15693.048023348812, -23917.104174745582, -187500.02235174447, 2044.8269897493112, -1829.4455801779725, -7464.633281783257, 3801.6294004475358, -25325.331130663293, -0.06, 0.9460000000000001, 0.336, 192.0, 0.0, 0.0, 0.0, 0.0, 0.0, 0.0, 0.0, 0.0, 0.0, 1.695770983780354E9, 0.0, 2023-09-26 18:29:43.780
36.0, 43881.68232222585, 58331.369856759295, -30081.983516452732, -19745.687514029447, -21662.461359794303, -3395.7217211391594, -187500.02235174447, -3513.2024899962535, 15690.38816575863, -23919.384052680023, -187500.02235174447, 2055.3993648766714, -1829.8255598337128, -7472.635206298257, 3815.9568686433877, -25326.87340103071, -0.06, 0.9460000000000001, 0.336, 192.0, 0.0, 0.0, 0.0, 0.0, 0.0, 0.0, 0.0, 0.0, 0.0, 1.695770983780358E9, 0.0, 2023-09-26 18:29:43.780
38.0, 43891.8076624641, 58267.95795773959, -30073.892184959914, -19722.553458518203, -21669.09982789753, -3385.484622178629, -187500.02235174447, -3551.3569177814625, 15666.628261402639, -23918.78055557973, -187500.02235174447, 2045.4304868496047, -1809.9995625018553, -7467.941339962643, 3798.209583545874, -25334.987084267985, -0.056, 0.9480000000000001, 0.336, 192.0, 127.0, 32.0, 14.5, 80.0, 5.0, 64.0, 0.0, 0.0, 0.0, 1.695770983780362E9, 0.0, 2023-09-26 18:29:43.780
40.0, 43888.29843858462, 58328.866461380305, -30063.23040285473, -19733.058778412196, -21642.009513617697, -3385.7975466010034, -187500.02235174447, -3496.349274676952, 15709.074224123267, -23908.811677552665, -187500.02235174447, 2060.1379347011966, -1853.5631124452489, -7459.827656725366, 3806.2338598053293, -25318.178572437595, -0.056, 0.9480000000000001, 0.336, 192.0, 0.0, 0.0, 0.0, 0.0, 0.0, 0.0, 0.0, 0.0, 0.0, 1.695770983780365E9, 0.0, 2023-09-26 18:29:43.780
42.0, 43882.71050247079, 58279.44675438962, -30076.730856505736, -19722.441699795927, -21631.124214067964, -3384.1658692557658, -187500.02235174447, -3543.578510711016, 15684.084973822233, -23920.099308502595, -187500.02235174447, 2046.1233909277191, -1820.683696351492, -7466.711994017601, 3815.867461665566, -25328.48272663149, -0.056, 0.9480000000000001, 0.336, 192.0, 0.0, 0.0, 0.0, 0.0, 0.0, 0.0, 0.0, 0.0, 0.0, 1.695770983780369E9, 0.0, 2023-09-26 18:29:43.780
44.0, 43862.72804292775, 58325.75956890101, -30083.86106298698, -19746.402769852015, -21662.148435371928, -3398.9850758296343, -187500.02235174447, -3516.287030731086, 15698.568904229272, -23925.776651594242, -187500.02235174447, 2037.8085419903448, -1812.7935305587687, -7474.043366198942, 3797.56138295667, -25328.81800279832, -0.056, 0.9480000000000001, 0.336, 192.0, 0.0, 0.0, 0.0, 0.0, 0.0, 0.0, 0.0, 0.0, 0.0, 1.695770983780372E9, 0.0, 2023-09-26 18:29:43.780
46.0, 43880.11770011398, 58289.14741148322, -30062.112815631965, -19726.085034142143, -21656.024057391176, -3383.7858896000257, -187500.02235174447, -3544.1373043223984, 15683.079145321744, -23926.246038227804, -187500.02235174447, 2038.6579082796466, -1835.5029029253608, -7466.9578632066095, 3812.5146999972703, -25328.035691742385, -0.056, 0.9480000000000001, 0.336, 192.0, 0.0, 0.0, 0.0, 0.0, 0.0, 0.0, 0.0, 0.0, 0.0, 1.695770983840119E9, 0.0, 2023-09-26 18:29:43.840
48.0, 43883.20224084881, 58297.35050169832, -30062.09046388751, -19732.656447012003, -21675.984165189766, -3383.361206455375, -187500.02235174447, -3517.6951906317704, 15690.72344192546, -23927.07305277265, -187500.02235174447, 2036.422733834116, -1796.4097018730286, -7465.102668416819, 3786.296103751195, -25324.839392285277, -0.058, 0.9420000000000001, 0.334, 192.0, 127.0, 24.0, 14.5, 56.0, 5.0, 56.0, 0.0, 0.0, 0.0, 1.695770983840137E9, 0.0, 2023-09-26 18:29:43.840
50.0, 43870.3052842981, 58305.508888424505, -30068.90774594638, -19732.120005145076, -21661.030848149163, -3392.81599435997, -187500.02235174447, -3545.7242781787254, 15686.767183156871, -23930.69403537441, -187500.02235174447, 2046.9057019836548, -1865.3201300287403, -7475.563284821902, 3835.9616799308874, -25327.49924987546, -0.058, 0.9420000000000001, 0.334, 192.0, 0.0, 0.0, 0.0, 0.0, 0.0, 0.0, 0.0, 0.0, 0.0, 1.69577098384014E9, 0.0, 2023-09-26 18:29:43.840
52.0, 43876.787290190136, 58306.44766169163, -30080.75417050769, -19749.219089653387, -21675.112447156007, -3400.8402706194247, -187500.02235174447, -3522.0090773116444, 15680.508694709384, -23932.59393365311, -187500.02235174447, 2029.2701756084175, -1839.883844838601, -7475.362119121804, 3788.46422296336, -25333.601276111756, -0.058, 0.9420000000000001, 0.334, 192.0, 0.0, 0.0, 0.0, 0.0, 0.0, 0.0, 0.0, 0.0, 0.0, 1.695770983840144E9, 0.0, 2023-09-26 18:29:43.840
54.0, 43886.46559553929, 58305.01715004649, -30069.533594791126, -19739.33961860414, -21665.70236274032, -3396.839308361925, -187500.02235174447, -3548.831170658013, 15680.754563898394, -23934.35972146508, -187500.02235174447, 2037.1379896566857, -1840.1297140276092, -7480.48066860207, 3817.588545988625, -25338.138680236185, -0.058, 0.9420000000000001, 0.334, 192.0, 0.0, 0.0, 0.0, 0.0, 0.0, 0.0, 0.0, 0.0, 0.0, 1.695770983840147E9, 0.0, 2023-09-26 18:29:43.840
56.0, 43874.552115744606, 58292.14254524023, -30102.278900418154, -19763.591261338148, -21694.62552006549, -3402.874279364858, -187500.02235174447, -3524.087789545988, 15679.34640399771, -23926.961294050372, -187500.02235174447, 2023.0563906498423, -1796.4544053619393, -7471.562322564402, 3773.600312900581, -25336.261133701937, -0.058, 0.9420000000000001, 0.334, 192.0, 0.0, 0.0, 0.0, 0.0, 0.0, 0.0, 0.0, 0.0, 0.0, 1.695770983840151E9, 0.0, 2023-09-26 18:29:43.840
58.0, 43877.770766946174, 58324.75374040053, -30078.831920484536, -19751.90129898802, -21680.566272803102, -3402.7848723870366, -187500.02235174447, -3542.5279787216164, 15672.082087049734, -23938.763015122775, -187500.02235174447, 2033.740524499479, -1881.2569238253743, -7485.487459360059, 3820.8742524235554, -25343.458395416546, -0.062, 0.9500000000000001, 0.332, 192.0, 127.0, 8.0, 14.5, 88.0, 5.0, 48.0, 0.0, 0.0, 0.0, 1.695770983840154E9, 0.0, 2023-09-26 18:29:43.840
60.0, 43876.83199367905, 58285.0570422479, -30095.439266614827, -19758.584470580157, -21705.24259868176, -3403.7907008875254, -187500.02235174447, -3540.8739496319236, 15673.043212061313, -23926.55896265018, -187500.02235174447, 2020.2400708484736, -1818.4038184170508, -7468.924816718676, 3773.7791268562232, -25338.719825592023, -0.062, 0.9500000000000001, 0.332, 192.0, 0.0, 0.0, 0.0, 0.0, 0.0, 0.0, 0.0, 0.0, 0.0, 1.695770983900418E9, 0.0, 2023-09-26 18:29:43.900
62.0, 43888.6560664959, 58328.53118521347, -30072.416969825863, -19745.754569262812, -21693.15030493144, -3403.276610765053, -187500.02235174447, -3534.861330373446, 15669.891616093115, -23937.84659360011, -187500.02235174447, 2031.2594808649399, -1857.9887578473995, -7487.38735763876, 3806.144452827508, -25348.532241407902, -0.062, 0.9500000000000001, 0.332, 192.0, 0.0, 0.0, 0.0, 0.0, 0.0, 0.0, 0.0, 0.0, 0.0, 1.695770983900428E9, 0.0, 2023-09-26 18:29:43.900
64.0, 43892.34410433103, 58282.39718465772, -30081.938812963825, -19745.732217518358, -21686.10950542802, -3393.2630292490758, -187500.02235174447, -3530.636850671393, 15686.744831412416, -23916.88065730103, -187500.02235174447, 2032.064143665331, -1829.8926150670786, -7462.219293382084, 3771.9015803219772, -25333.623627856214, -0.062, 0.9500000000000001, 0.332, 192.0, 0.0, 0.0, 0.0, 0.0, 0.0, 0.0, 0.0, 0.0, 0.0, 1.695770983900432E9, 0.0, 2023-09-26 18:29:43.900
66.0, 43894.48987179874, 58339.751760930034, -30082.47525483075, -19747.676819285967, -21684.81310424961, -3400.8179188749696, -187500.02235174447, -3537.409429241351, 15675.077220806745, -23919.674625357944, -187500.02235174447, 2053.253597408962, -1845.8741123526231, -7473.842200498843, 3824.5175867697703, -25335.25530520145, -0.062, 0.9500000000000001, 0.332, 192.0, 0.0, 0.0, 0.0, 0.0, 0.0, 0.0, 0.0, 0.0, 0.0, 1.695770983900436E9, 0.0, 2023-09-26 18:29:43.900
68.0, 43905.77750274867, 58273.85881827579, -30067.81251046807, -19737.52912730326, -21682.644985037445, -3389.843212347414, -187500.02235174447, -3535.17425479582, 15685.493133722919, -23906.263578684757, -187500.02235174447, 2036.1992163895627, -1821.9577457854446, -7455.402011323215, 3772.3486152110836, -25335.054139501353, -0.066, 0.9460000000000001, 0.33, 192.0, 126.5, 120.0, 14.5, 72.0, 5.0, 40.0, 0.0, 0.0, 0.0, 1.695770983900439E9, 0.0, 2023-09-26 18:29:43.900
70.0, 43880.60943849199, 58338.34360102935, -30100.557816095094, -19750.49313908734, -21702.180409691384, -3405.355322999397, -187500.02235174447, -3540.248100787175, 15687.325976768254, -23915.316035189157, -187500.02235174447, 2053.477114853515, -1853.4737054674276, -7468.254264385017, 3821.388342546027, -25335.97056102402, -0.066, 0.9460000000000001, 0.33, 192.0, 0.0, 0.0, 0.0, 0.0, 0.0, 0.0, 0.0, 0.0, 0.0, 1.695770983900443E9, 0.0, 2023-09-26 18:29:43.900
72.0, 43878.463671024285, 58274.48466712054, -30088.554929322592, -19745.799272751723, -21706.404889393438, -3394.805299616492, -187500.02235174447, -3545.478408989717, 15670.137485282123, -23923.608532382077, -187500.02235174447, 2022.519948782915, -1814.4699113929166, -7466.264959128494, 3769.822868087634, -25346.02884602891, -0.066, 0.9460000000000001, 0.33, 192.0, 0.0, 0.0, 0.0, 0.0, 0.0, 0.0, 0.0, 0.0, 0.0, 1.695770983900446E9, 0.0, 2023-09-26 18:29:43.900
74.0, 43879.648313480415, 58341.78576967547, -30091.795932268615, -19751.163691420996, -21728.667226870923, -3399.5662211854724, -187500.02235174447, -3523.7525133791582, 15660.056848532779, -23928.056529528683, -187500.02235174447, 2032.8911582101773, -1870.5727899757374, -7474.62451155478, 3807.9549441283875, -25341.67025586012, -0.066, 0.9460000000000001, 0.33, 192.0, 0.0, 0.0, 0.0, 0.0, 0.0, 0.0, 0.0, 0.0, 0.0, 1.695770983900449E9, 0.0, 2023-09-26 18:29:43.900
76.0, 43888.29843858462, 58273.4564868756, -30078.27312687315, -19744.122891917574, -21682.108543170518, -3395.095872294411, -187500.02235174447, -3546.2607200456528, 15683.973215099957, -23918.221761968347, -187500.02235174447, 2017.0214196469094, -1855.4406589794946, -7457.994813680031, 3779.8811530925223, -25336.708168591045, -0.066, 0.9460000000000001, 0.33, 192.0, 0.0, 0.0, 0.0, 0.0, 0.0, 0.0, 0.0, 0.0, 0.0, 1.695770983960728E9, 0.0, 2023-09-26 18:29:43.960
78.0, 43882.59874374852, 58351.6205372358, -30091.68417354634, -19762.33956364865, -21715.323235431104, -3408.9763056011566, -187500.02235174447, -3528.2675657591303, 15678.586444686229, -23921.127488747537, -187500.02235174447, 2034.455780322049, -1854.6359961791036, -7470.623549297279, 3810.4136360184716, -25336.998741268962, -0.064, 0.9500000000000001, 0.336, 192.0, 127.0, 0.0, 14.5, 88.0, 5.0, 64.0, 0.0, 0.0, 0.0, 1.695770983960743E9, 0.0, 2023-09-26 18:29:43.960
80.0, 43876.76493844568, 58291.71786209558, -30100.602519584005, -19760.372610136583, -21707.00838649373, -3409.870375379369, -187500.02235174447, -3562.733955709214, 15663.186092756521, -23939.657084900988, -187500.02235174447, 2005.420864274605, -1857.5193712138382, -7481.620607569291, 3766.1348302525084, -25357.7858636124, -0.064, 0.9500000000000001, 0.336, 192.0, 0.0, 0.0, 0.0, 0.0, 0.0, 0.0, 0.0, 0.0, 0.0, 1.695770983960747E9, 0.0, 2023-09-26 18:29:43.960
82.0, 43884.63275249395, 58344.04329586546, -30099.14965619441, -19753.465921099894, -21709.467078383816, -3399.7226833966597, -187500.02235174447, -3521.9867255671893, 15660.705049121983, -23927.609494639575, -187500.02235174447, 2020.3071260818394, -1855.5971211906817, -7472.389337109249, 3793.113385810064, -25345.000665783962, -0.064, 0.9500000000000001, 0.336, 192.0, 0.0, 0.0, 0.0, 0.0, 0.0, 0.0, 0.0, 0.0, 0.0, 1.69577098396075E9, 0.0, 2023-09-26 18:29:43.960
84.0, 43891.606496764005, 58283.64888234722, -30075.769731494158, -19741.038351182742, -21723.48162215729, -3399.7897386300256, -187500.02235174447, -3554.6873277053032, 15681.402764487597, -23922.06626201466, -187500.02235174447, 2021.8270447048003, -1827.7691993438245, -7465.884979472755, 3788.0395398187093, -25344.44187217258, -0.064, 0.9500000000000001, 0.336, 192.0, 0.0, 0.0, 0.0, 0.0, 0.0, 0.0, 0.0, 0.0, 0.0, 1.695770983960754E9, 0.0, 2023-09-26 18:29:43.960
86.0, 43887.22555485077, 58325.35723750082, -30084.375153109453, -19744.972258206875, -21698.045336967152, -3392.7265873821484, -187500.02235174447, -3512.8448620849686, 15681.089840065222, -23917.238285212316, -187500.02235174447, 2032.511178554437, -1852.400821733573, -7462.956900949109, 3794.9238771109435, -25335.6799883461, -0.064, 0.9500000000000001, 0.336, 192.0, 0.0, 0.0, 0.0, 0.0, 0.0, 0.0, 0.0, 0.0, 0.0, 1.695770983960757E9, 0.0, 2023-09-26 18:29:43.960
88.0, 43895.89803169943, 58270.57311184086, -30066.85138545649, -19736.925630202964, -21697.553598589137, -3392.8830495933357, -187500.02235174447, -3543.51145547765, 15685.314319767276, -23912.96910202135, -187500.02235174447, 2031.773570987412, -1844.264786751841, -7457.391316579738, 3811.7994441747005, -25334.49534588997, -0.064, 0.9460000000000001, 0.334, 192.0, 127.0, 0.0, 14.5, 72.0, 5.0, 56.0, 0.0, 0.0, 0.0, 1.695770983960761E9, 0.0, 2023-09-26 18:29:43.960
90.0, 43864.96321737328, 58338.38830451827, -30117.679252347858, -19785.67478485999, -21736.82561359711, -3430.7245529561706, -187500.02235174447, -3531.88854836089, 15668.1481800256, -23926.961294050372, -187500.02235174447, 2028.5102162969372, -1855.6641764240476, -7475.742098777545, 3808.6701999509573, -25347.369950696226, -0.064, 0.9460000000000001, 0.334, 192.0, 0.0, 0.0, 0.0, 0.0, 0.0, 0.0, 0.0, 0.0, 0.0, 1.695770984020989E9, 0.0, 2023-09-26 18:29:44.020
92.0, 43887.11379612849, 58296.03174877546, -30093.89699624741, -19752.48244434386, -21712.86454354102, -3414.5865934594385, -187500.02235174447, -3561.504609764172, 15651.876110062136, -23948.530727449743, -187500.02235174447, 2008.550108498348, -1856.6029496911706, -7494.1375844642625, 3785.0891095506086, -25377.321288266336, -0.064, 0.9460000000000001, 0.334, 192.0, 0.0, 0.0, 0.0, 0.0, 0.0, 0.0, 0.0, 0.0, 0.0, 1.695770984021003E9, 0.0, 2023-09-26 18:29:44.021
94.0, 43879.804775691606, 58324.373760744784, -30098.836731772037, -19765.938194505954, -21739.083139787097, -3418.7440179281257, -187500.02235174447, -3519.12570227691, 15684.464953477975, -23921.954503292385, -187500.02235174447, 2034.5004838109594, -1873.9255516440335, -7467.539008562448, 3793.8062898881785, -25342.050235515864, -0.064, 0.9460000000000001, 0.334, 192.0, 0.0, 0.0, 0.0, 0.0, 0.0, 0.0, 0.0, 0.0, 0.0, 1.695770984021006E9, 0.0, 2023-09-26 18:29:44.021
96.0, 43873.6580459664, 58323.1667665442, -30124.697700106826, -19770.900281775033, -21732.28820947268, -3430.925718656268, -187500.02235174447, -3567.6513394893814, 15651.272612961844, -23956.823224642663, -187500.02235174447, 2012.8416434337669, -1883.2685808263518, -7501.446604901148, 3798.0307695902316, -25374.281451020415, -0.064, 0.9460000000000001, 0.334, 192.0, 0.0, 0.0, 0.0, 0.0, 0.0, 0.0, 0.0, 0.0, 0.0, 1.695770984021009E9, 0.0, 2023-09-26 18:29:44.021
98.0, 43887.87375543997, 58311.63326640526, -30093.271147402666, -19760.216147925395, -21736.043302541173, -3412.7537504141037, -187500.02235174447, -3527.328792492008, 15667.81290385877, -23931.185773752426, -187500.02235174447, 2016.552033013348, -1858.7710689033354, -7474.937435977154, 3764.5478563961815, -25356.154186267162, -0.062, 0.9440000000000001, 0.34, 192.0, 127.0, 8.0, 14.5, 64.0, 5.0, 80.0, 0.0, 0.0, 0.0, 1.695770984021013E9, 0.0, 2023-09-26 18:29:44.021
100.0, 43896.434473566354, 58306.73823436955, -30094.120513691967, -19756.215185667897, -21724.934485546888, -3421.180358073754, -187500.02235174447, -3555.760211439158, 15671.120962038156, -23933.68916913142, -187500.02235174447, 2032.6005855322583, -1856.2900252687962, -7479.273674401484, 3808.4466825064046, -25355.997724055975, -0.062, 0.9440000000000001, 0.34, 192.0, 0.0, 0.0, 0.0, 0.0, 0.0, 0.0, 0.0, 0.0, 0.0, 1.695770984021016E9, 0.0, 2023-09-26 18:29:44.021
102.0, 43894.60163052102, 58292.27665570696, -30096.24392941522, -19764.284165416262, -21728.533116404193, -3416.3747330158635, -187500.02235174447, -3526.434722713795, 15683.973215099957, -23918.69114860191, -187500.02235174447, 2028.063181407831, -1839.7720861163243, -7466.086145172852, 3780.395243214994, -25349.15809025265, -0.062, 0.9440000000000001, 0.34, 192.0, 0.0, 0.0, 0.0, 0.0, 0.0, 0.0, 0.0, 0.0, 0.0, 1.695770984021019E9, 0.0, 2023-09-26 18:29:44.021
104.0, 43896.34506658853, 58308.70518788161, -30087.549100822107, -19753.018886210786, -21731.9305815614, -3419.6604394507935, -187500.02235174447, -3547.3559555239626, 15669.399877715097, -23939.54532617871, -187500.02235174447, 2032.1535506431521, -1875.6019324781817, -7485.353348893327, 3818.773188444756, -25359.64105840219, -0.062, 0.9440000000000001, 0.34, 192.0, 0.0, 0.0, 0.0, 0.0, 0.0, 0.0, 0.0, 0.0, 0.0, 1.695770984021022E9, 0.0, 2023-09-26 18:29:44.021
106.0, 43874.46270876678, 58299.11628951029, -30113.164199967887, -19773.29191843175, -21766.240509300293, -3434.2337768356538, -187500.02235174447, -3541.1868740542977, 15676.731249896438, -23928.280046973236, -187500.02235174447, 2023.6375360056802, -1861.7438509158912, -7474.244531899039, 3776.8413158466, -25357.629401401213, -0.062, 0.9440000000000001, 0.34, 192.0, 0.0, 0.0, 0.0, 0.0, 0.0, 0.0, 0.0, 0.0, 0.0, 1.69577098408044E9, 0.0, 2023-09-26 18:29:44.080
108.0, 43875.312075056085, 58337.963621373616, -30108.89501677692, -19771.347316664138, -21767.983945367807, -3439.2182158491873, -187500.02235174447, -3564.119763865443, 15634.799377298283, -23952.777558896254, -187500.02235174447, 2023.2799080943953, -1910.0906741727204, -7500.530183378481, 3808.0890545951197, -25375.622555687733, -0.066, 0.9440000000000001, 0.338, 192.0, 126.5, 120.0, 14.5, 64.0, 5.0, 72.0, 0.0, 0.0, 0.0, 1.69577098408045E9, 0.0, 2023-09-26 18:29:44.080
110.0, 43882.28581932614, 58288.49921089402, -30099.820208528068, -19770.296784674738, -21765.145273821985, -3432.0656576234887, -187500.02235174447, -3546.3948305123845, 15673.266729505865, -23942.78632912473, -187500.02235174447, 2003.029227617887, -1842.521350684327, -7485.19688668214, 3762.6703098619355, -25369.27466026243, -0.066, 0.9440000000000001, 0.338, 192.0, 0.0, 0.0, 0.0, 0.0, 0.0, 0.0, 0.0, 0.0, 0.0, 1.695770984080454E9, 0.0, 2023-09-26 18:29:44.080
112.0, 43884.52099377167, 58333.09094108236, -30089.940737478824, -19766.47463637288, -21770.755561680267, -3443.1074193844106, -187500.02235174447, -3553.5473887380826, 15661.040325288812, -23951.63761992903, -187500.02235174447, 2016.6861434800796, -1884.5426302603043, -7498.987913011064, 3805.049217349198, -25370.749875396476, -0.066, 0.9440000000000001, 0.338, 192.0, 0.0, 0.0, 0.0, 0.0, 0.0, 0.0, 0.0, 0.0, 0.0, 1.695770984080458E9, 0.0, 2023-09-26 18:29:44.080
114.0, 43893.2605258537, 58276.16104795469, -30088.018487455665, -19755.723447289878, -21756.249279528773, -3431.216291334187, -187500.02235174447, -3549.3899642693955, 15677.088877807722, -23933.756224364784, -187500.02235174447, 2010.8746899216999, -1875.713691200458, -7476.837334255855, 3767.207713986363, -25358.948154324076, -0.066, 0.9440000000000001, 0.338, 192.0, 0.0, 0.0, 0.0, 0.0, 0.0, 0.0, 0.0, 0.0, 0.0, 1.695770984080462E9, 0.0, 2023-09-26 18:29:44.080
116.0, 43871.10994709849, 58348.714810456615, -30124.787107084645, -19768.262775929306, -21787.273500832736, -3455.289120112553, -187500.02235174447, -3563.5609702540605, 15659.989793299414, -23946.161442537483, -187500.02235174447, 2028.644326763669, -1880.2510953248855, -7497.803270554933, 3809.4748627513486, -25368.246480017482, -0.066, 0.9440000000000001, 0.338, 192.0, 0.0, 0.0, 0.0, 0.0, 0.0, 0.0, 0.0, 0.0, 0.0, 1.695770984080465E9, 0.0, 2023-09-26 18:29:44.080
118.0, 43891.29357234163, 58262.504132092494, -30072.484025059228, -19739.876060471066, -21754.192919038884, -3424.15314008631, -187500.02235174447, -3556.8107434285575, 15669.198712014999, -23933.175079008946, -187500.02235174447, 2019.770684214912, -1889.683531485025, -7475.071546443885, 3756.948263281377, -25363.619668915235, -0.064, 0.9420000000000001, 0.338, 192.0, 127.0, 0.0, 14.5, 56.0, 5.0, 72.0, 0.0, 0.0, 0.0, 1.695770984080469E9, 0.0, 2023-09-26 18:29:44.080
120.0, 43879.022464635666, 58318.74112114205, -30093.651127058405, -19754.516453089294, -21762.619526698534, -3427.9529366437123, -187500.02235174447, -3526.479426202706, 15669.690450393016, -23933.085672031128, -187500.02235174447, 2045.2293211495069, -1872.6962056989917, -7477.731404034067, 3816.47095876586, -25349.850994330765, -0.064, 0.9420000000000001, 0.338, 192.0, 0.0, 0.0, 0.0, 0.0, 0.0, 0.0, 0.0, 0.0, 0.0, 1.695770984140245E9, 0.0, 2023-09-26 18:29:44.140
122.0, 43870.46174650929, 58242.164044638164, -30106.838656287036, -19752.817720510688, -21765.324087777626, -3417.6934859387266, -187500.02235174447, -3545.2995950340746, 15663.119037523156, -23942.40634946899, -187500.02235174447, 2010.2041375880408, -1864.716632928447, -7475.965616222098, 3781.401071715483, -25354.723674622022, -0.064, 0.9420000000000001, 0.338, 192.0, 0.0, 0.0, 0.0, 0.0, 0.0, 0.0, 0.0, 0.0, 0.0, 1.695770984140254E9, 0.0, 2023-09-26 18:29:44.140
124.0, 43861.99043536073, 58305.665350635696, -30095.238100914732, -19756.304592645716, -21759.44557898588, -3415.994753360123, -187500.02235174447, -3525.2724320021193, 15665.376563713142, -23943.300419247204, -187500.02235174447, 2025.8950621956662, -1887.582467506226, -7480.10068894633, 3815.621592476558, -25344.866555317232, -0.064, 0.9420000000000001, 0.338, 192.0, 0.0, 0.0, 0.0, 0.0, 0.0, 0.0, 0.0, 0.0, 0.0, 1.695770984140257E9, 0.0, 2023-09-26 18:29:44.140
126.0, 43857.29656902511, 58231.90459393318, -30101.04955447311, -19752.750665277323, -21786.535893265715, -3413.9160411257794, -187500.02235174447, -3556.1401910948985, 15661.375601455642, -23944.485061703333, -187500.02235174447, 2011.0758556217977, -1877.32301680124, -7470.355328363816, 3780.9316850819214, -25348.219316985527, -0.064, 0.9420000000000001, 0.338, 192.0, 0.0, 0.0, 0.0, 0.0, 0.0, 0.0, 0.0, 0.0, 0.0, 1.695770984140261E9, 0.0, 2023-09-26 18:29:44.140
128.0, 43845.91953109736, 58298.244571476534, -30108.939720265833, -19770.43089514147, -21772.767218681245, -3422.901442396813, -187500.02235174447, -3530.3239262490188, 15642.063694246257, -23956.711465920387, -187500.02235174447, 2016.484977779982, -1888.588296006715, -7485.15218319323, 3800.8023859026894, -25350.92387806462, -0.062, 0.9420000000000001, 0.334, 192.0, 127.0, 8.0, 14.5, 56.0, 5.0, 56.0, 0.0, 0.0, 0.0, 1.695770984140265E9, 0.0, 2023-09-26 18:29:44.140
130.0, 43827.61345238846, 58253.51873082146, -30113.81240055709, -19781.58441562467, -21786.491189776803, -3441.1628176167987, -187500.02235174447, -3577.173182627342, 15638.465063388952, -23977.923271408472, -187500.02235174447, 1992.1886315570632, -1894.1091768871759, -7498.29500893295, 3783.010397316265, -25364.98312532701, -0.062, 0.9420000000000001, 0.334, 192.0, 0.0, 0.0, 0.0, 0.0, 0.0, 0.0, 0.0, 0.0, 0.0, 1.695770984140275E9, 0.0, 2023-09-26 18:29:44.140
132.0, 43816.97402202774, 58319.05404556442, -30117.433383158852, -19785.25010171534, -21790.089820634108, -3441.453390294718, -187500.02235174447, -3538.862292630946, 15626.395121383086, -23985.902844179018, -187500.02235174447, 1991.3839687566722, -1918.8972614881113, -7506.5875061258685, 3799.0813015796307, -25361.63036365871, -0.062, 0.9420000000000001, 0.334, 192.0, 0.0, 0.0, 0.0, 0.0, 0.0, 0.0, 0.0, 0.0, 0.0, 1.695770984140279E9, 0.0, 2023-09-26 18:29:44.140
134.0, 43827.76991459965, 58255.306870377884, -30098.18853118283, -19758.740932791345, -21775.002393126775, -3426.9247563987683, -187500.02235174447, -3568.9477406677893, 15627.445653372486, -23979.197320842424, -187500.02235174447, 1987.874744877189, -1889.0129791513657, -7494.9645990091085, 3792.9569235988765, -25359.797520613378, -0.062, 0.9420000000000001, 0.334, 192.0, 0.0, 0.0, 0.0, 0.0, 0.0, 0.0, 0.0, 0.0, 0.0, 1.695770984140282E9, 0.0, 2023-09-26 18:29:44.140
136.0, 43811.207271958265, 58313.488461195055, -30124.854162318014, -19780.556235379725, -21817.78363201423, -3441.028707150067, -187500.02235174447, -3538.9516996087673, 15624.159946937556, -23985.88049243456, -187500.02235174447, 1991.808651901323, -1914.6280782971476, -7498.250305444039, 3805.809176660678, -25353.114349021238, -0.062, 0.9420000000000001, 0.334, 192.0, 0.0, 0.0, 0.0, 0.0, 0.0, 0.0, 0.0, 0.0, 0.0, 1.695770984200489E9, 0.0, 2023-09-26 18:29:44.200
138.0, 43822.18197848582, 58255.888015733726, -30115.086449991042, -19758.383304880062, -21785.954747909876, -3427.416494776785, -187500.02235174447, -3565.2373510882085, 15632.027760985824, -23983.533559266754, -187500.02235174447, 1984.9913698424543, -1905.262697370374, -7491.187154196162, 3799.7295021688346, -25352.22027924303, -0.066, 0.9420000000000001, 0.336, 192.0, 126.5, 120.0, 14.5, 56.0, 5.0, 64.0, 0.0, 0.0, 0.0, 1.695770984200498E9, 0.0, 2023-09-26 18:29:44.200
140.0, 43820.81852207405, 58283.76064106949, -30122.30606345011, -19773.7166015764, -21810.765184255266, -3435.2619570805978, -187500.02235174447, -3543.667917688837, 15621.611848069651, -23985.209940100904, -187500.02235174447, 1983.2479337749403, -1899.9876856789215, -7498.987913011064, 3789.201830530385, -25355.30481997786, -0.066, 0.9420000000000001, 0.336, 192.0, 0.0, 0.0, 0.0, 0.0, 0.0, 0.0, 0.0, 0.0, 0.0, 1.695770984200501E9, 0.0, 2023-09-26 18:29:44.200
142.0, 43840.800981617096, 58231.412855555165, -30089.13607467843, -19752.616554810593, -21788.41343979996, -3420.129826084355, -187500.02235174447, -3555.760211439158, 15646.064656503757, -23963.12641657906, -187500.02235174447, 2001.1740328280966, -1883.4026912930838, -7479.38543312376, 3808.6701999509573, -25342.631380871702, -0.066, 0.9420000000000001, 0.336, 192.0, 0.0, 0.0, 0.0, 0.0, 0.0, 0.0, 0.0, 0.0, 0.0, 1.695770984200505E9, 0.0, 2023-09-26 18:29:44.200
144.0, 43826.33940295451, 58262.727649537046, -30121.032014016157, -19782.076154002687, -21833.005169988297, -3442.5262740285725, -187500.02235174447, -3540.739839165192, 15641.236679701411, -23970.2566230603, -187500.02235174447, 1990.4675472340045, -1894.6679704985584, -7490.471898373592, 3797.360217256572, -25353.382569954705, -0.066, 0.9420000000000001, 0.336, 192.0, 0.0, 0.0, 0.0, 0.0, 0.0, 0.0, 0.0, 0.0, 0.0, 1.695770984200509E9, 0.0, 2023-09-26 18:29:44.200
146.0, 43833.76018211367, 58248.266070874466, -30112.851275545512, -19768.128665462573, -21807.79240224271, -3440.8275414499694, -187500.02235174447, -3574.245104103697, 15635.00054299838, -23979.778466198262, -187500.02235174447, 1995.4519862475381, -1896.880793199634, -7499.122023477796, 3802.948153370399, -25367.26300326145, -0.066, 0.9420000000000001, 0.336, 192.0, 0.0, 0.0, 0.0, 0.0, 0.0, 0.0, 0.0, 0.0, 0.0, 1.695770984200512E9, 0.0, 2023-09-26 18:29:44.200
148.0, 43835.39185945891, 58254.92689072215, -30116.24874070272, -19778.67868884548, -21824.511507095278, -3444.090896140444, -187500.02235174447, -3549.0323363581106, 15641.147272723589, -23965.518053235777, -187500.02235174447, 1993.9991228579431, -1910.0459706838096, -7490.471898373592, 3782.4069002159717, -25361.16097702515, -0.068, 0.9440000000000001, 0.332, 192.0, 126.5, 112.0, 14.5, 64.0, 5.0, 48.0, 0.0, 0.0, 0.0, 1.695770984200516E9, 0.0, 2023-09-26 18:29:44.200
150.0, 43842.54441768461, 58255.28451863343, -30115.511133135693, -19765.87113927259, -21826.74668154081, -3442.7944949620364, -187500.02235174447, -3572.211095358264, 15645.90819429257, -23968.82611141516, -187500.02235174447, 2006.1808235860854, -1901.5970112797036, -7494.33875016436, 3805.809176660678, -25368.44764571758, -0.068, 0.9440000000000001, 0.332, 192.0, 0.0, 0.0, 0.0, 0.0, 0.0, 0.0, 0.0, 0.0, 0.0, 1.695770984260707E9, 0.0, 2023-09-26 18:29:44.260
152.0, 43854.547304457104, 58240.73353299303, -30102.77063879617, -19765.513511361303, -21829.540649597722, -3438.145332115332, -187500.02235174447, -3556.184894583809, 15649.417418172054, -23961.31592527818, -187500.02235174447, 1999.5647072273146, -1881.3016273142848, -7484.280465159472, 3771.521600666237, -25365.273698004927, -0.068, 0.9440000000000001, 0.332, 192.0, 0.0, 0.0, 0.0, 0.0, 0.0, 0.0, 0.0, 0.0, 0.0, 1.695770984260716E9, 0.0, 2023-09-26 18:29:44.260
154.0, 43861.409290004885, 58260.64893730271, -30084.84453974301, -19747.609764052602, -21819.996454715307, -3437.832407692958, -187500.02235174447, -3570.668824990848, 15651.76435133986, -23960.064227588682, -187500.02235174447, 2022.2740795939064, -1902.2228601244522, -7486.716805305101, 3815.0851506096305, -25366.145416038682, -0.068, 0.9440000000000001, 0.332, 192.0, 0.0, 0.0, 0.0, 0.0, 0.0, 0.0, 0.0, 0.0, 0.0, 1.69577098426072E9, 0.0, 2023-09-26 18:29:44.260
156.0, 43850.97102534426, 58233.37980906723, -30091.706525290792, -19758.159787435507, -21828.870097264065, -3442.638032750849, -187500.02235174447, -3555.7825631836135, 15651.160854239566, -23948.530727449743, -187500.02235174447, 2014.6297829901914, -1891.2034501079859, -7475.987967966554, 3788.754795641279, -25354.25428798846, -0.068, 0.9440000000000001, 0.332, 192.0, 0.0, 0.0, 0.0, 0.0, 0.0, 0.0, 0.0, 0.0, 0.0, 1.695770984260724E9, 0.0, 2023-09-26 18:29:44.260
158.0, 43860.358758015485, 58264.71695479357, -30090.946565979313, -19748.05679894171, -21835.352103156103, -3441.1628176167987, -187500.02235174447, -3572.8145924585574, 15642.398970413087, -23959.88541363304, -187500.02235174447, 2027.102056396253, -1907.3861130936282, -7490.270732673494, 3827.557424015692, -25357.517642678937, -0.066, 0.9440000000000001, 0.332, 192.0, 126.5, 120.0, 14.5, 64.0, 5.0, 48.0, 0.0, 0.0, 0.0, 1.695770984260727E9, 0.0, 2023-09-26 18:29:44.260
160.0, 43852.02155733366, 58225.37788455223, -30103.77646729666, -19762.093694459643, -21818.856515748088, -3436.9383379147457, -187500.02235174447, -3555.2237695722306, 15665.935357324524, -23947.435491971435, -187500.02235174447, 2020.9776784154988, -1873.7690894328464, -7475.38447086626, 3788.553629941181, -25341.849069815766, -0.066, 0.9440000000000001, 0.332, 192.0, 0.0, 0.0, 0.0, 0.0, 0.0, 0.0, 0.0, 0.0, 0.0, 1.695770984260731E9, 0.0, 2023-09-26 18:29:44.260
162.0, 43835.63772864792, 58279.714975323084, -30119.042708759633, -19773.023697498287, -21836.469690378868, -3446.5942915194382, -187500.02235174447, -3563.6727289763367, 15643.225984957933, -23968.26731780378, -187500.02235174447, 2021.871748193711, -1920.4395318555275, -7495.813965298411, 3828.8538251941, -25356.02007580043, -0.066, 0.9440000000000001, 0.332, 192.0, 0.0, 0.0, 0.0, 0.0, 0.0, 0.0, 0.0, 0.0, 0.0, 1.695770984260735E9, 0.0, 2023-09-26 18:29:44.260
164.0, 43840.800981617096, 58220.97459089453, -30105.229330686252, -19774.25304344333, -21842.169385214973, -3440.8945966833353, -187500.02235174447, -3564.343281309996, 15640.834348301214, -23967.619117214577, -187500.02235174447, 1993.8426606467558, -1897.037255410821, -7487.543819849947, 3772.952112311377, -25361.138625280695, -0.066, 0.9440000000000001, 0.332, 192.0, 0.0, 0.0, 0.0, 0.0, 0.0, 0.0, 0.0, 0.0, 0.0, 1.695770984260738E9, 0.0, 2023-09-26 18:29:44.260
166.0, 43835.07893503654, 58290.130888239255, -30125.904694307414, -19785.853598815633, -21844.873946294065, -3458.284253869564, -187500.02235174447, -3574.155697125876, 15631.357208652165, -23985.053477889716, -187500.02235174447, 2008.6171637317138, -1940.1090669761977, -7510.610820127824, 3811.173595329952, -25377.790674899898, -0.066, 0.9440000000000001, 0.332, 192.0, 0.0, 0.0, 0.0, 0.0, 0.0, 0.0, 0.0, 0.0, 0.0, 1.695770984321039E9, 0.0, 2023-09-26 18:29:44.321
168.0, 43873.52393549967, 58180.51793343043, -30088.018487455665, -19746.469825085383, -21821.382262871535, -3420.2415848066316, -187500.02235174447, -3560.208208585764, 15652.077275762234, -23962.12058807857, -187500.02235174447, 2000.7940531723564, -1890.5328977743266, -7476.323244133383, 3761.798591828179, -25366.8383201168, -0.066, 0.9460000000000001, 0.338, 192.0, 126.5, 120.0, 14.5, 72.0, 5.0, 72.0, 0.0, 0.0, 0.0, 1.695770984321048E9, 0.0, 2023-09-26 18:29:44.321
170.0, 43864.270313295165, 58240.26414635946, -30095.014583470176, -19758.91974674699, -21820.287027393228, -3436.424247792274, -187500.02235174447, -3538.1693885528316, 15665.33186022423, -23955.88445137554, -187500.02235174447, 2034.8134082333338, -1893.4162728090612, -7474.311587132405, 3827.7809414602452, -25343.234877971994, -0.066, 0.9460000000000001, 0.338, 192.0, 0.0, 0.0, 0.0, 0.0, 0.0, 0.0, 0.0, 0.0, 0.0, 1.695770984321052E9, 0.0, 2023-09-26 18:29:44.321
172.0, 43856.223685291254, 58175.689956628084, -30102.547121351618, -19762.607784582113, -21834.815661289176, -3445.3649455743966, -187500.02235174447, -3569.931217423823, 15660.973270055447, -23957.31496302068, -187500.02235174447, 2012.6851812225798, -1888.0518541397876, -7474.423345854681, 3792.8898683655107, -25357.204718256562, -0.066, 0.9460000000000001, 0.338, 192.0, 0.0, 0.0, 0.0, 0.0, 0.0, 0.0, 0.0, 0.0, 0.0, 1.695770984321055E9, 0.0, 2023-09-26 18:29:44.321
174.0, 43821.66788836335, 58262.48178034804, -30133.39252869994, -19787.06059301622, -21867.00217330482, -3466.2414748956535, -187500.02235174447, -3565.2373510882085, 15629.99375224039, -23983.779428455764, -187500.02235174447, 2012.4616637780266, -1924.708715046491, -7505.134642736273, 3814.3698947870607, -25370.995744585485, -0.066, 0.9460000000000001, 0.338, 192.0, 0.0, 0.0, 0.0, 0.0, 0.0, 0.0, 0.0, 0.0, 0.0, 1.695770984321058E9, 0.0, 2023-09-26 18:29:44.321
176.0, 43836.55415017059, 58189.0339480679, -30093.561720080583, -19756.19283392344, -21838.61545784658, -3446.7507537306255, -187500.02235174447, -3577.530810538627, 15624.09289170419, -23983.533559266754, -187500.02235174447, 1992.3003902793398, -1907.3637613491728, -7492.640017585757, 3775.0531762901755, -25370.034619573908, -0.066, 0.9460000000000001, 0.338, 192.0, 0.0, 0.0, 0.0, 0.0, 0.0, 0.0, 0.0, 0.0, 0.0, 1.695770984321062E9, 0.0, 2023-09-26 18:29:44.321
178.0, 43841.15860952838, 58249.8977482197, -30096.62390907096, -19753.845900755634, -21842.258792192795, -3445.029669407567, -187500.02235174447, -3554.4861620052056, 15642.376618668632, -23979.286727820247, -187500.02235174447, 2016.2614603354289, -1918.80785451029, -7492.751776308033, 3812.8499761641, -25357.249421745473, -0.062, 0.9480000000000001, 0.338, 192.0, 127.0, 8.0, 14.5, 80.0, 5.0, 72.0, 0.0, 0.0, 0.0, 1.695770984321065E9, 0.0, 2023-09-26 18:29:44.321
180.0, 43841.80681011758, 58174.304148471856, -30087.973783966758, -19738.065569170187, -21823.013940216773, -3428.6905442107377, -187500.02235174447, -3571.56289476906, 15654.088932763212, -23967.41795151448, -187500.02235174447, 2016.9767161579987, -1895.6737989990472, -7470.154162663718, 3797.494327723304, -25343.368988438724, -0.062, 0.9480000000000001, 0.338, 192.0, 0.0, 0.0, 0.0, 0.0, 0.0, 0.0, 0.0, 0.0, 0.0, 1.6957709843804E9, 0.0, 2023-09-26 18:29:44.380
182.0, 43826.607623887976, 58224.52851826293, -30101.183664939843, -19751.00722920981, -21841.23061194785, -3434.278480324564, -187500.02235174447, -3542.639737443893, 15632.452444130475, -23973.587032984142, -187500.02235174447, 2018.3848760586832, -1912.102331173698, -7480.368909879793, 3815.263964565273, -25343.34663669427, -0.062, 0.9480000000000001, 0.338, 192.0, 0.0, 0.0, 0.0, 0.0, 0.0, 0.0, 0.0, 0.0, 0.0, 1.69577098438041E9, 0.0, 2023-09-26 18:29:44.380
184.0, 43821.53377789662, 58163.48590415549, -30095.14869393691, -19746.447473340926, -21837.475518879357, -3439.5981955049274, -187500.02235174447, -3578.3578250834735, 15643.203633213478, -23973.16234983949, -187500.02235174447, 2010.8970416661552, -1891.6281332526366, -7474.423345854681, 3798.589563201614, -25347.280543718403, -0.062, 0.9480000000000001, 0.338, 192.0, 0.0, 0.0, 0.0, 0.0, 0.0, 0.0, 0.0, 0.0, 0.0, 1.695770984380414E9, 0.0, 2023-09-26 18:29:44.380
186.0, 43802.04305673159, 58216.68305595912, -30112.046612745122, -19774.00717425432, -21869.304402983715, -3455.423230579285, -187500.02235174447, -3544.6513944448707, 15638.196842455489, -23982.371268555078, -187500.02235174447, 2010.807634688334, -1920.7301045334466, -7466.868456228788, 3807.8431854061114, -25349.850994330765, -0.062, 0.9480000000000001, 0.338, 192.0, 0.0, 0.0, 0.0, 0.0, 0.0, 0.0, 0.0, 0.0, 0.0, 1.695770984380418E9, 0.0, 2023-09-26 18:29:44.380
188.0, 43799.38319914141, 58187.51402944494, -30114.460601146297, -19767.48046487337, -21849.99249577433, -3456.5184660575947, -187500.02235174447, -3587.6561507768815, 15610.99476945338, -24010.087431679658, -187500.02235174447, 1993.77560541339, -1919.7242760329577, -7502.497136890547, 3799.3495225130946, -25364.334924737803, -0.06, 0.936, 0.34400000000000003, 192.0, 127.0, 16.0, 14.5, 32.0, 5.0, 96.0, 0.0, 0.0, 0.0, 1.695770984380421E9, 0.0, 2023-09-26 18:29:44.380
190.0, 43798.17620494082, 58219.879355416226, -30118.841543059534, -19777.20347371143, -21866.443379693435, -3462.285216127064, -187500.02235174447, -3559.537656252105, 15618.482603845909, -24003.35955659861, -187500.02235174447, 1990.48989897846, -1932.4647703724827, -7499.9490380226425, 3790.520583453248, -25356.176538011616, -0.06, 0.936, 0.34400000000000003, 192.0, 0.0, 0.0, 0.0, 0.0, 0.0, 0.0, 0.0, 0.0, 0.0, 1.695770984380425E9, 0.0, 2023-09-26 18:29:44.380
192.0, 43804.14412071039, 58198.689901672595, -30114.929987779855, -19774.320098676693, -21856.586260388645, -3470.801230764536, -187500.02235174447, -3604.7552352851912, 15607.530249062807, -24007.449925833935, -187500.02235174447, 1990.355788511728, -1934.0293924843543, -7517.003419042042, 3803.7081126818794, -25373.186215542104, -0.06, 0.936, 0.34400000000000003, 192.0, 0.0, 0.0, 0.0, 0.0, 0.0, 0.0, 0.0, 0.0, 0.0, 1.695770984380429E9, 0.0, 2023-09-26 18:29:44.380
194.0, 43817.53281563912, 58209.08346284431, -30103.664708574383, -19783.707831347925, -21857.122702255572, -3465.503867328628, -187500.02235174447, -3564.8126679435577, 15631.0889877187, -23989.45677154741, -187500.02235174447, 1992.1662798126079, -1921.288898144829, -7497.065662987908, 3781.624589160036, -25365.29604974938, -0.06, 0.936, 0.34400000000000003, 192.0, 0.0, 0.0, 0.0, 0.0, 0.0, 0.0, 0.0, 0.0, 0.0, 1.695770984380432E9, 0.0, 2023-09-26 18:29:44.380
196.0, 43830.11684776746, 58194.487773714995, -30095.99806022621, -19770.67676433048, -21847.37734167306, -3464.609797550416, -187500.02235174447, -3592.6852932793254, 15633.011237741857, -24000.878512964075, -187500.02235174447, 1996.189593814563, -1915.9244794755555, -7512.756587595533, 3811.9335546414322, -25376.918956866142, -0.06, 0.936, 0.34400000000000003, 192.0, 0.0, 0.0, 0.0, 0.0, 0.0, 0.0, 0.0, 0.0, 0.0, 1.695770984440175E9, 0.0, 2023-09-26 18:29:44.440
198.0, 43824.73007735373, 58194.152497548166, -30104.692888819325, -19785.63008137108, -21865.437551192947, -3463.2686928830976, -187500.02235174447, -3559.7388219522027, 15650.020915272346, -23983.108876122104, -187500.02235174447, 1997.8436229042559, -1912.839938740723, -7492.952942008132, 3784.1950397723963, -25361.742122380987, -0.062, 0.9480000000000001, 0.338, 192.0, 127.0, 8.0, 14.5, 80.0, 5.0, 72.0, 0.0, 0.0, 0.0, 1.695770984440183E9, 0.0, 2023-09-26 18:29:44.440
200.0, 43833.26844373566, 58204.09902383078, -30096.176874181852, -19760.439665369948, -21860.22959473486, -3455.579692790472, -187500.02235174447, -3590.8748019784457, 15626.506880105362, -24009.774507257287, -187500.02235174447, 1992.099224579242, -1934.0517442288094, -7518.366875453816, 3805.786824916223, -25384.27268079194, -0.062, 0.9480000000000001, 0.338, 192.0, 0.0, 0.0, 0.0, 0.0, 0.0, 0.0, 0.0, 0.0, 0.0, 1.695770984440187E9, 0.0, 2023-09-26 18:29:44.440
202.0, 43848.422926476356, 58173.79005834938, -30085.693906032313, -19754.315287389196, -21841.69999858141, -3434.278480324564, -187500.02235174447, -3552.675670704326, 15669.422229459553, -23961.74060842283, -187500.02235174447, 2009.9582683990322, -1897.193717622008, -7459.291214858439, 3780.3505397260833, -25352.421444943124, -0.062, 0.9480000000000001, 0.338, 192.0, 0.0, 0.0, 0.0, 0.0, 0.0, 0.0, 0.0, 0.0, 0.0, 1.69577098444019E9, 0.0, 2023-09-26 18:29:44.440
204.0, 43866.77370867416, 58183.51306718744, -30067.43253081233, -19736.076263913663, -21831.328789154148, -3422.0073726186006, -187500.02235174447, -3568.925388923334, 15663.878996834637, -23966.16625382498, -187500.02235174447, 2029.739562241979, -1906.782615993335, -7490.181325695673, 3823.9364414139322, -25354.902488577663, -0.062, 0.9480000000000001, 0.338, 192.0, 0.0, 0.0, 0.0, 0.0, 0.0, 0.0, 0.0, 0.0, 0.0, 1.695770984440194E9, 0.0, 2023-09-26 18:29:44.440
206.0, 43864.069147595066, 58147.07972372529, -30078.51899606216, -19755.879909501065, -21852.205318475404, -3429.24933782212, -187500.02235174447, -3562.577493498027, 15684.442601733519, -23947.010808826784, -187500.02235174447, 2032.9582134435432, -1874.7972696777904, -7468.321319618383, 3795.303856766684, -25342.027883771407, -0.062, 0.9480000000000001, 0.338, 192.0, 0.0, 0.0, 0.0, 0.0, 0.0, 0.0, 0.0, 0.0, 0.0, 1.695770984440199E9, 0.0, 2023-09-26 18:29:44.440
208.0, 43851.79803988911, 58216.168965836645, -30088.309060133586, -19767.27929917327, -21866.197510504426, -3448.6283002648715, -187500.02235174447, -3581.420014073851, 15666.091819535712, -23969.541367237733, -187500.02235174447, 2033.4946553104705, -1910.2918398728182, -7501.446604901148, 3830.9995926618094, -25363.239689259495, -0.062, 0.9520000000000001, 0.34400000000000003, 192.0, 127.0, 8.0, 14.5, 96.0, 5.0, 96.0, 0.0, 0.0, 0.0, 1.695770984440202E9, 0.0, 2023-09-26 18:29:44.440
210.0, 43864.762051673184, 58158.85909305324, -30073.914536704367, -19750.828415254167, -21861.66010638, -3426.4330180207517, -187500.02235174447, -3565.818496444046, 15674.317261495265, -23954.297477519212, -187500.02235174447, 2011.321724810806, -1885.4143482940613, -7478.7148807901, 3768.9958535427877, -25358.814043857343, -0.062, 0.9520000000000001, 0.34400000000000003, 192.0, 0.0, 0.0, 0.0, 0.0, 0.0, 0.0, 0.0, 0.0, 0.0, 1.695770984500414E9, 0.0, 2023-09-26 18:29:44.500
212.0, 43854.23438003474, 58228.417721798156, -30087.77261826666, -19769.805046296722, -21869.773789617277, -3448.6283002648715, -187500.02235174447, -3577.128479138432, 15669.422229459553, -23963.37228576807, -187500.02235174447, 2029.873672708711, -1919.0984271882091, -7498.183250210674, 3820.8966041680105, -25358.903450835165, -0.062, 0.9520000000000001, 0.34400000000000003, 192.0, 0.0, 0.0, 0.0, 0.0, 0.0, 0.0, 0.0, 0.0, 0.0, 1.695770984500433E9, 0.0, 2023-09-26 18:29:44.500
214.0, 43877.18962159033, 58152.98058426149, -30053.28387657212, -19749.755531520314, -21854.21697547638, -3425.427189520263, -187500.02235174447, -3566.7796214556247, 15686.163686056578, -23942.629866913543, -187500.02235174447, 2019.3907045591718, -1881.3016273142848, -7473.708090032112, 3774.0026443007764, -25357.227070001016, -0.062, 0.9520000000000001, 0.34400000000000003, 192.0, 0.0, 0.0, 0.0, 0.0, 0.0, 0.0, 0.0, 0.0, 0.0, 1.695770984500437E9, 0.0, 2023-09-26 18:29:44.500
216.0, 43872.62986572145, 58223.366227551254, -30068.393655823907, -19757.9139182465, -21869.103237283616, -3438.771180960081, -187500.02235174447, -3568.2101331007643, 15682.565055199273, -23945.848518115108, -187500.02235174447, 2043.2176641485291, -1899.13831938962, -7486.6273983272795, 3823.8246826916557, -25362.032695058908, -0.062, 0.9520000000000001, 0.34400000000000003, 192.0, 0.0, 0.0, 0.0, 0.0, 0.0, 0.0, 0.0, 0.0, 0.0, 1.695770984500441E9, 0.0, 2023-09-26 18:29:44.500
218.0, 43880.52003151418, 58161.65306111015, -30057.28483882962, -19754.71761878939, -21860.073132523674, -3432.5350442570502, -187500.02235174447, -3583.476374563739, 15695.506715238897, -23936.63959939952, -187500.02235174447, 2028.0184779189203, -1877.3900720346062, -7471.987005709053, 3791.3252462536393, -25359.059913046352, -0.068, 0.9500000000000001, 0.342, 192.0, 126.5, 112.0, 14.5, 88.0, 5.0, 88.0, 0.0, 0.0, 0.0, 1.695770984500452E9, 0.0, 2023-09-26 18:29:44.500
220.0, 43874.06037736659, 58241.73936149351, -30072.036990170123, -19762.25015667083, -21875.85346410912, -3442.4592187952067, -187500.02235174447, -3570.668824990848, 15676.44067721852, -23950.341218750626, -187500.02235174447, 2036.0204024339203, -1894.913839687567, -7490.047215228941, 3828.9879356608317, -25362.166805525638, -0.068, 0.9500000000000001, 0.342, 192.0, 0.0, 0.0, 0.0, 0.0, 0.0, 0.0, 0.0, 0.0, 0.0, 1.695770984500456E9, 0.0, 2023-09-26 18:29:44.500
222.0, 43894.53457528765, 58156.62391860771, -30052.166289349356, -19736.210374380396, -21840.64946659201, -3418.833424905947, -187500.02235174447, -3574.8486012039903, 15695.35025302771, -23939.858250601086, -187500.02235174447, 2019.7483324704567, -1888.4541855399832, -7470.958825464109, 3797.1366998120193, -25356.802386856365, -0.068, 0.9500000000000001, 0.342, 192.0, 0.0, 0.0, 0.0, 0.0, 0.0, 0.0, 0.0, 0.0, 0.0, 1.695770984500459E9, 0.0, 2023-09-26 18:29:44.500
224.0, 43873.38982503293, 58242.40991382718, -30085.179815909843, -19769.089790474154, -21885.263548524803, -3452.2045793777206, -187500.02235174447, -3565.8408481885017, 15689.181171558044, -23943.389826225022, -187500.02235174447, 2031.3041843538506, -1893.32686583124, -7483.296988403438, 3828.9655839163765, -25359.998686313473, -0.068, 0.9500000000000001, 0.342, 192.0, 0.0, 0.0, 0.0, 0.0, 0.0, 0.0, 0.0, 0.0, 0.0, 1.695770984500463E9, 0.0, 2023-09-26 18:29:44.500
226.0, 43877.703711712806, 58187.022291066925, -30072.506376803685, -19758.87504325808, -21864.431722692458, -3443.5097507846062, -187500.02235174447, -3585.689197264814, 15678.653499919594, -23942.898087847007, -187500.02235174447, 2009.421826532105, -1898.1101391446757, -7482.805250025422, 3789.112423552564, -25376.87425337723, -0.068, 0.9500000000000001, 0.342, 192.0, 0.0, 0.0, 0.0, 0.0, 0.0, 0.0, 0.0, 0.0, 0.0, 1.695770984560786E9, 0.0, 2023-09-26 18:29:44.560
228.0, 43861.43164174934, 58266.5497978389, -30105.028164986154, -19786.81472382721, -21891.23146429437, -3456.0714311684887, -187500.02235174447, -3570.691176735303, 15679.212293530976, -23947.368436738067, -187500.02235174447, 2021.3129545823283, -1905.2179938814634, -7492.461203630114, 3809.050179606698, -25378.88591037821, -0.066, 0.9460000000000001, 0.34400000000000003, 192.0, 126.5, 120.0, 14.5, 72.0, 5.0, 96.0, 0.0, 0.0, 0.0, 1.695770984560794E9, 0.0, 2023-09-26 18:29:44.560
230.0, 43888.186679862345, 58196.097099315775, -30063.073940643542, -19751.90129898802, -21869.147940772527, -3427.640012221338, -187500.02235174447, -3591.500650823194, 15680.620453431662, -23949.06716931667, -187500.02235174447, 2003.453910762538, -1899.4512438119941, -7485.554514593425, 3784.4185572169495, -25384.540901725402, -0.066, 0.9460000000000001, 0.34400000000000003, 192.0, 0.0, 0.0, 0.0, 0.0, 0.0, 0.0, 0.0, 0.0, 0.0, 1.695770984560797E9, 0.0, 2023-09-26 18:29:44.560
232.0, 43883.49281352673, 58251.752943009495, -30075.099179160497, -19763.233633426862, -21862.7106383694, -3439.1958641047318, -187500.02235174447, -3559.4258975298285, 15684.688470922527, -23935.298494732204, -187500.02235174447, 2027.7502569854566, -1898.2666013558628, -7476.8149825114, 3812.8723279085552, -25361.943288081085, -0.066, 0.9460000000000001, 0.34400000000000003, 192.0, 0.0, 0.0, 0.0, 0.0, 0.0, 0.0, 0.0, 0.0, 0.0, 1.695770984560801E9, 0.0, 2023-09-26 18:29:44.560
234.0, 43896.34506658853, 58192.14084054719, -30055.608457995473, -19736.925630202964, -21849.679571351957, -3425.6954104537263, -187500.02235174447, -3588.572572299549, 15697.898351895614, -23931.006959796785, -187500.02235174447, 2029.1584168861411, -1890.6893599855139, -7469.550665563424, 3814.8392814206222, -25367.888852106196, -0.066, 0.9460000000000001, 0.34400000000000003, 192.0, 0.0, 0.0, 0.0, 0.0, 0.0, 0.0, 0.0, 0.0, 0.0, 1.695770984560805E9, 0.0, 2023-09-26 18:29:44.560
236.0, 43880.4082727919, 58237.6489922582, -30081.044743185612, -19767.234595684364, -21887.386964248057, -3442.2133496061983, -187500.02235174447, -3560.9905196417, 15702.636921720139, -23920.054605013684, -187500.02235174447, 2040.7589722584455, -1874.4396417665055, -7463.202770138118, 3817.879118666544, -25354.8354333443, -0.066, 0.9460000000000001, 0.34400000000000003, 192.0, 0.0, 0.0, 0.0, 0.0, 0.0, 0.0, 0.0, 0.0, 0.0, 1.695770984560808E9, 0.0, 2023-09-26 18:29:44.560
238.0, 43889.371322318475, 58199.76278540645, -30058.022446396644, -19750.090807687142, -21855.28985921024, -3433.831445435458, -187500.02235174447, -3602.0953776950096, 15687.482438979441, -23938.606552911588, -187500.02235174447, 2019.8153877038228, -1893.9303629315334, -7480.726537791078, 3807.731426683835, -25375.957831854565, -0.06, 0.9460000000000001, 0.34400000000000003, 192.0, 127.0, 16.0, 14.5, 72.0, 5.0, 96.0, 0.0, 0.0, 0.0, 1.695770984560812E9, 0.0, 2023-09-26 18:29:44.560
240.0, 43873.993322133225, 58238.63246901423, -30075.05447567159, -19772.219034697897, -21865.90693782651, -3445.5214077855835, -187500.02235174447, -3555.8049149280687, 15693.718575682471, -23933.48800343132, -187500.02235174447, 2023.6598877501356, -1897.908973444578, -7473.372813865282, 3805.853880149589, -25361.093921791784, -0.06, 0.9460000000000001, 0.34400000000000003, 192.0, 0.0, 0.0, 0.0, 0.0, 0.0, 0.0, 0.0, 0.0, 0.0, 1.695770984620983E9, 0.0, 2023-09-26 18:29:44.620
242.0, 43876.87669716796, 58229.06592238736, -30069.310077346574, -19758.070380457688, -21866.733952371356, -3450.841122965947, -187500.02235174447, -3598.8767264934454, 15682.497999965908, -23944.865041359073, -187500.02235174447, 2019.5918702592696, -1904.2568688698852, -7491.701244318634, 3813.8111011756782, -25374.97435509853, -0.06, 0.9460000000000001, 0.34400000000000003, 192.0, 0.0, 0.0, 0.0, 0.0, 0.0, 0.0, 0.0, 0.0, 0.0, 1.695770984620991E9, 0.0, 2023-09-26 18:29:44.620
244.0, 43877.52489775716, 58236.75492247998, -30075.076827416044, -19757.176310679475, -21869.572623917178, -3440.715782727693, -187500.02235174447, -3561.549313253083, 15680.843970876214, -23944.149785536505, -187500.02235174447, 2013.7804167008899, -1884.2520575823853, -7484.883962259765, 3789.3582927415723, -25366.950078839076, -0.06, 0.9460000000000001, 0.34400000000000003, 192.0, 0.0, 0.0, 0.0, 0.0, 0.0, 0.0, 0.0, 0.0, 0.0, 1.695770984620995E9, 0.0, 2023-09-26 18:29:44.620
246.0, 43891.606496764005, 58222.65097172868, -30055.13907136191, -19740.904240716012, -21847.757321328798, -3431.059829123, -187500.02235174447, -3578.179011127831, 15697.853648406703, -23932.795099353207, -187500.02235174447, 2036.6686030231242, -1883.4026912930838, -7473.104592931819, 3826.261022837284, -25355.50598567796, -0.06, 0.9460000000000001, 0.34400000000000003, 192.0, 0.0, 0.0, 0.0, 0.0, 0.0, 0.0, 0.0, 0.0, 0.0, 1.695770984620998E9, 0.0, 2023-09-26 18:29:44.620
248.0, 43888.58901126254, 58222.76273045096, -30071.835824470025, -19762.317211904196, -21881.106124056118, -3432.7362099571483, -187500.02235174447, -3556.542522495094, 15705.497945010418, -23930.02348304075, -187500.02235174447, 2033.2711378659176, -1890.3987873075948, -7468.7236510185785, 3799.818909146656, -25352.77907285441, -0.06, 0.9440000000000001, 0.34800000000000003, 192.0, 127.0, 16.0, 14.5, 64.0, 5.0, 112.0, 0.0, 0.0, 0.0, 1.695770984621002E9, 0.0, 2023-09-26 18:29:44.621
250.0, 43892.18764211985, 58242.07463766034, -30063.69978948829, -19753.220051910885, -21850.238364963338, -3435.194901847232, -187500.02235174447, -3587.4549850767835, 15682.788572643825, -23940.774672123753, -187500.02235174447, 2037.093286167775, -1902.9157642025668, -7486.605046582824, 3828.4738455383595, -25369.11819805124, -0.06, 0.9440000000000001, 0.34800000000000003, 192.0, 0.0, 0.0, 0.0, 0.0, 0.0, 0.0, 0.0, 0.0, 0.0, 1.695770984621005E9, 0.0, 2023-09-26 18:29:44.621
252.0, 43901.463616068795, 58208.971704122036, -30053.574449250038, -19757.645697313037, -21866.57749016017, -3429.0705238664777, -187500.02235174447, -3548.093563090988, 15710.325921812764, -23921.529820147734, -187500.02235174447, 2037.3615071012387, -1875.4678220114497, -7461.548741048425, 3794.633304433025, -25344.01718902793, -0.06, 0.9440000000000001, 0.34800000000000003, 192.0, 0.0, 0.0, 0.0, 0.0, 0.0, 0.0, 0.0, 0.0, 0.0, 1.695770984621009E9, 0.0, 2023-09-26 18:29:44.621
254.0, 43895.96508693279, 58254.01046919948, -30063.72214123275, -19755.410522867503, -21858.57556564517, -3443.8003234625253, -187500.02235174447, -3573.6192552589487, 15690.63403494764, -23944.64152391452, -187500.02235174447, 2041.1836554030963, -1902.133453146631, -7493.221162941595, 3831.6477932510134, -25366.234823016504, -0.06, 0.9440000000000001, 0.34800000000000003, 192.0, 0.0, 0.0, 0.0, 0.0, 0.0, 0.0, 0.0, 0.0, 0.0, 1.695770984621012E9, 0.0, 2023-09-26 18:29:44.621
0.0, 43889.48308104075, 58214.76080593596, -30075.277993116142, -19763.18892993795, -21871.539577429245, -3442.034535650556, -187500.02235174447, -3558.4200690293396, 15700.222933318966, -23932.325712719645, -187500.02235174447, 2028.3314023412947, -1874.976083633433, -7474.177476665674, 3784.6420746615026, -25357.048256045375, -0.06, 0.9440000000000001, 0.34800000000000003, 192.0, 0.0, 0.0, 0.0, 0.0, 0.0, 0.0, 0.0, 0.0, 0.0, 1.695770984680521E9, 0.0, 2023-09-26 18:29:44.680
2.0, 43895.47334855478, 58256.782085511935, -30066.314943589565, -19751.90129898802, -21862.911804069496, -3435.2619570805978, -187500.02235174447, -3560.27526381913, 15683.459124977486, -23942.696922146908, -187500.02235174447, 2038.7026117685573, -1898.2666013558628, -7487.5661715944025, 3823.712923969379, -25363.8878898487, -0.064, 0.9400000000000001, 0.342, 192.0, 127.0, 0.0, 14.5, 48.0, 5.0, 88.0, 0.0, 0.0, 0.0, 1.69577098468053E9, 0.0, 2023-09-26 18:29:44.680
4.0, 43892.29940084212, 58198.66754992814, -30069.91357444687, -19759.14326419154, -21858.106179011607, -3434.479646024662, -187500.02235174447, -3566.5784557555266, 15696.691357695026, -23929.5987998961, -187500.02235174447, 2029.6725070086131, -1877.3900720346062, -7469.125982418774, 3788.620685174547, -25356.5341659229, -0.064, 0.9400000000000001, 0.342, 192.0, 0.0, 0.0, 0.0, 0.0, 0.0, 0.0, 0.0, 0.0, 0.0, 1.695770984680533E9, 0.0, 2023-09-26 18:29:44.680
6.0, 43878.24015357973, 58259.66546054667, -30087.079714188545, -19773.135456220563, -21875.898167598032, -3453.1657043892988, -187500.02235174447, -3566.42199354434, 15673.199674272499, -23942.853384358095, -187500.02235174447, 2040.3119373693394, -1881.2122203364636, -7486.29212216045, 3826.4845402818373, -25366.748913138978, -0.064, 0.9400000000000001, 0.342, 192.0, 0.0, 0.0, 0.0, 0.0, 0.0, 0.0, 0.0, 0.0, 0.0, 1.695770984680537E9, 0.0, 2023-09-26 18:29:44.680
8.0, 43879.71536871378, 58200.790965651395, -30057.173080107343, -19759.34442989164, -21869.952603572918, -3440.805189705514, -187500.02235174447, -3569.8641621904567, 15685.426078489552, -23938.047759300203, -187500.02235174447, 2016.9320126690882, -1858.592254947693, -7476.256188900017, 3782.853935105078, -25369.67699166262, -0.064, 0.9400000000000001, 0.342, 192.0, 0.0, 0.0, 0.0, 0.0, 0.0, 0.0, 0.0, 0.0, 0.0, 1.69577098468054E9, 0.0, 2023-09-26 18:29:44.680
10.0, 43870.37233953147, 58273.836466531335, -30076.082655916533, -19756.505758345815, -21870.824321606677, -3441.475742039173, -187500.02235174447, -3551.155752081365, 15674.920758595557, -23943.41217796948, -187500.02235174447, 2033.159379143641, -1918.584337065737, -7483.900485503732, 3832.0277729067534, -25361.384494469705, -0.064, 0.9400000000000001, 0.342, 192.0, 0.0, 0.0, 0.0, 0.0, 0.0, 0.0, 0.0, 0.0, 0.0, 1.695770984680544E9, 0.0, 2023-09-26 18:29:44.680
12.0, 43873.00984537719, 58210.40221576717, -30084.03987694262, -19754.33763913365, -21864.632888392556, -3437.4300762927624, -187500.02235174447, -3576.882609949423, 15674.652537662094, -23940.662913401477, -187500.02235174447, 2013.2439748339625, -1895.1150053876647, -7471.338805119849, 3791.2581910202734, -25360.758645624956, -0.062, 0.9420000000000001, 0.34600000000000003, 192.0, 127.0, 8.0, 14.5, 56.0, 5.0, 104.0, 0.0, 0.0, 0.0, 1.695770984680547E9, 0.0, 2023-09-26 18:29:44.680
14.0, 43859.39763300391, 58287.94041728263, -30106.704545820303, -19779.48335164587, -21888.10222007063, -3452.9421869447456, -187500.02235174447, -3562.1975138422868, 15669.62339515965, -23941.087596546127, -187500.02235174447, 2026.900890696155, -1901.3287903462399, -7483.72167154809, 3814.6381157205246, -25362.233860759006, -0.062, 0.9420000000000001, 0.34600000000000003, 192.0, 0.0, 0.0, 0.0, 0.0, 0.0, 0.0, 0.0, 0.0, 0.0, 1.69577098474018E9, 0.0, 2023-09-26 18:29:44.740
16.0, 43870.39469127592, 58224.79673919639, -30090.09719969001, -19773.515435876303, -21884.6153479356, -3451.489323555151, -187500.02235174447, -3594.026397946644, 15668.170531770056, -23942.652218657997, -187500.02235174447, 2008.9971433874541, -1891.1140431301646, -7484.191058181651, 3771.3427867105947, -25382.59629995779, -0.062, 0.9420000000000001, 0.34600000000000003, 192.0, 0.0, 0.0, 0.0, 0.0, 0.0, 0.0, 0.0, 0.0, 0.0, 1.695770984740202E9, 0.0, 2023-09-26 18:29:44.740
18.0, 43864.069147595066, 58304.27954247947, -30103.9552812523, -19790.54746515125, -21892.4161067505, -3464.2298178946758, -187500.02235174447, -3575.7873744711133, 15671.0986102937, -23953.381055996546, -187500.02235174447, 2024.196329617063, -1904.5697932922594, -7499.367892666804, 3802.590525459114, -25385.479674992523, -0.062, 0.9420000000000001, 0.34600000000000003, 192.0, 0.0, 0.0, 0.0, 0.0, 0.0, 0.0, 0.0, 0.0, 0.0, 1.695770984740206E9, 0.0, 2023-09-26 18:29:44.740
20.0, 43891.762958975196, 58220.10287286078, -30067.14195813441, -19752.974182721875, -21851.93709754194, -3435.9772129031676, -187500.02235174447, -3584.0351681751217, 15684.800229644803, -23942.31694249117, -187500.02235174447, 2017.06612313582, -1874.3725865331396, -7482.380566880771, 3781.1328507820194, -25377.70126792208, -0.062, 0.9420000000000001, 0.34600000000000003, 192.0, 0.0, 0.0, 0.0, 0.0, 0.0, 0.0, 0.0, 0.0, 0.0, 1.695770984740209E9, 0.0, 2023-09-26 18:29:44.740
22.0, 43874.66387446688, 58282.933626524646, -30087.414990355373, -19778.991613267855, -21889.80095264923, -3452.0481171665333, -187500.02235174447, -3551.379269525918, 15687.840066890725, -23938.181869766937, -187500.02235174447, 2037.897948968166, -1885.7943279498015, -7482.0452907139415, 3815.107502354086, -25368.000610828472, -0.056, 0.9440000000000001, 0.34400000000000003, 192.0, 127.0, 32.0, 14.5, 64.0, 5.0, 96.0, 0.0, 0.0, 0.0, 1.695770984740213E9, 0.0, 2023-09-26 18:29:44.740
24.0, 43879.73772045824, 58219.07469261583, -30080.038914685123, -19768.8662730296, -21856.318039455182, -3449.857646209913, -187500.02235174447, -3596.6192003034594, 15684.710822666982, -23944.01567506977, -187500.02235174447, 2018.2284138474959, -1878.8205836797458, -7485.0404244709525, 3792.8675166210555, -25384.563253469856, -0.056, 0.9440000000000001, 0.34400000000000003, 192.0, 0.0, 0.0, 0.0, 0.0, 0.0, 0.0, 0.0, 0.0, 0.0, 1.695770984740216E9, 0.0, 2023-09-26 18:29:44.740
26.0, 43869.0535866086, 58286.44285040413, -30091.930042735345, -19790.703927362436, -21893.511342228812, -3462.4640300827064, -187500.02235174447, -3563.3151010650517, 15674.00433707289, -23948.038989071727, -187500.02235174447, 2018.0495998918534, -1897.0596071552764, -7496.417462398704, 3800.0200748467537, -25384.27268079194, -0.056, 0.9440000000000001, 0.34400000000000003, 192.0, 0.0, 0.0, 0.0, 0.0, 0.0, 0.0, 0.0, 0.0, 0.0, 1.695770984740219E9, 0.0, 2023-09-26 18:29:44.740
28.0, 43874.06037736659, 58241.694658004606, -30074.361571593476, -19774.29774693224, -21867.583318660658, -3458.6865852697597, -187500.02235174447, -3591.4559473342833, 15681.626281932151, -23950.005942583794, -187500.02235174447, 2016.5967365022584, -1881.4133860365614, -7493.444680386148, 3800.534164969226, -25382.46218949106, -0.056, 0.9440000000000001, 0.34400000000000003, 192.0, 0.0, 0.0, 0.0, 0.0, 0.0, 0.0, 0.0, 0.0, 0.0, 1.695770984740222E9, 0.0, 2023-09-26 18:29:44.740
30.0, 43878.01663613518, 58275.3563851543, -30075.90384196089, -19772.68842133146, -21857.636792378045, -3452.1375241443548, -187500.02235174447, -3557.9730341402337, 15681.58157844324, -23950.721198406365, -187500.02235174447, 2015.5685562573144, -1878.485307512916, -7498.451471144137, 3797.8072521456784, -25384.429143003126, -0.056, 0.9440000000000001, 0.34400000000000003, 192.0, 0.0, 0.0, 0.0, 0.0, 0.0, 0.0, 0.0, 0.0, 0.0, 1.695770984800483E9, 0.0, 2023-09-26 18:29:44.800
32.0, 43890.7571304747, 58225.869622930244, -30060.749359220194, -19742.37945585006, -21849.858385307598, -3431.0821808674555, -187500.02235174447, -3578.5589907835715, 15691.192828559022, -23931.297532474702, -187500.02235174447, 2038.0991146682638, -1874.7749179333352, -7473.350462120827, 3818.0579326221864, -25367.195948028082, -0.06, 0.9400000000000001, 0.342, 192.0, 127.0, 16.0, 14.5, 48.0, 5.0, 88.0, 0.0, 0.0, 0.0, 1.695770984800491E9, 0.0, 2023-09-26 18:29:44.800
34.0, 43885.54917401662, 58236.28553584642, -30078.027257684145, -19751.744836776834, -21853.43466442045, -3431.3951052898296, -187500.02235174447, -3537.9235193638233, 15705.25207582141, -23917.908837545972, -187500.02235174447, 2043.7988095043672, -1856.5582462022599, -7459.782953236456, 3810.8606709075775, -25348.06285477434, -0.06, 0.9400000000000001, 0.342, 192.0, 0.0, 0.0, 0.0, 0.0, 0.0, 0.0, 0.0, 0.0, 0.0, 1.695770984800494E9, 0.0, 2023-09-26 18:29:44.800
36.0, 43871.266409309676, 58235.43616955712, -30089.471350845262, -19758.137435691053, -21870.28787973975, -3446.326070585975, -187500.02235174447, -3584.5492582975935, 15675.613662673673, -23944.3509512366, -187500.02235174447, 2031.4606465650377, -1874.4843452554162, -7484.168706437195, 3825.590470503625, -25370.325192251825, -0.06, 0.9400000000000001, 0.342, 192.0, 0.0, 0.0, 0.0, 0.0, 0.0, 0.0, 0.0, 0.0, 0.0, 1.695770984800498E9, 0.0, 2023-09-26 18:29:44.800
38.0, 43868.0030546192, 58241.538195793415, -30099.999022483713, -19775.616499855103, -21895.27713004078, -3442.8168467064916, -187500.02235174447, -3554.2179410717417, 15675.501903951395, -23944.730930892343, -187500.02235174447, 2014.0039341454428, -1896.2772960993407, -7476.636168555757, 3790.0959003085973, -25367.128892794717, -0.06, 0.9400000000000001, 0.342, 192.0, 0.0, 0.0, 0.0, 0.0, 0.0, 0.0, 0.0, 0.0, 0.0, 1.695770984800501E9, 0.0, 2023-09-26 18:29:44.800
40.0, 43871.5569819876, 58260.2019024136, -30085.11276067648, -19768.933328262967, -21865.214033748394, -3447.868340953391, -187500.02235174447, -3585.532735053627, 15670.137485282123, -23953.246945529812, -187500.02235174447, 2017.9378411695768, -1899.786519978824, -7492.371796652294, 3820.740141956823, -25378.6400411892, -0.06, 0.9400000000000001, 0.342, 192.0, 0.0, 0.0, 0.0, 0.0, 0.0, 0.0, 0.0, 0.0, 0.0, 1.695770984800505E9, 0.0, 2023-09-26 18:29:44.800
42.0, 43867.53366798564, 58252.95993721008, -30096.24392941522, -19782.634947614068, -21873.32771698567, -3453.5233323005837, -187500.02235174447, -3560.6775952193257, 15669.891616093115, -23943.12160529156, -187500.02235174447, 2014.1380446121748, -1885.3472930606954, -7483.118174447796, 3783.882115350022, -25379.176483056126, -0.06, 0.9400000000000001, 0.34400000000000003, 192.0, 127.0, 16.0, 14.5, 48.0, 5.0, 96.0, 0.0, 0.0, 0.0, 1.695770984800508E9, 0.0, 2023-09-26 18:29:44.800
44.0, 43878.038987879634, 58268.22617867305, -30083.324621120053, -19766.54169160625, -21861.32483021317, -3446.7731054750807, -187500.02235174447, -3572.188743613809, 15674.183151028534, -23944.239192514324, -187500.02235174447, 2032.35471634325, -1895.8973164436004, -7484.43692737066, 3824.5399385142255, -25375.466093476545, -0.06, 0.9400000000000001, 0.34400000000000003, 192.0, 0.0, 0.0, 0.0, 0.0, 0.0, 0.0, 0.0, 0.0, 0.0, 1.695770984860784E9, 0.0, 2023-09-26 18:29:44.860
46.0, 43863.04096735013, 58239.52653879244, -30097.42857187135, -19782.702002847436, -21873.75240013032, -3450.058811910011, -187500.02235174447, -3561.526961508627, 15679.77108714236, -23938.561849422676, -187500.02235174447, 2016.1720533576076, -1877.680644712525, -7474.244531899039, 3791.9510950983877, -25368.425293973127, -0.06, 0.9400000000000001, 0.34400000000000003, 192.0, 0.0, 0.0, 0.0, 0.0, 0.0, 0.0, 0.0, 0.0, 0.0, 1.695770984860796E9, 0.0, 2023-09-26 18:29:44.860
48.0, 43859.5540952151, 58294.757699341506, -30103.217673685274, -19782.813761569712, -21890.069173582695, -3463.2910446275528, -187500.02235174447, -3583.4316710748285, 15650.378543183631, -23969.206091070904, -187500.02235174447, 2013.7580649564345, -1890.2199733519524, -7506.989837526065, 3820.8966041680105, -25392.006384373475, -0.06, 0.9400000000000001, 0.34400000000000003, 192.0, 0.0, 0.0, 0.0, 0.0, 0.0, 0.0, 0.0, 0.0, 0.0, 1.695770984860799E9, 0.0, 2023-09-26 18:29:44.860
50.0, 43880.81060419209, 58230.25056484349, -30080.843577485513, -19767.10048521763, -21854.75341734331, -3445.700221741226, -187500.02235174447, -3569.081851134521, 15675.81482837377, -23943.702750647397, -187500.02235174447, 2009.1536055986412, -1877.971217390444, -7473.976310965576, 3778.3165309806504, -25377.365991755247, -0.06, 0.9400000000000001, 0.34400000000000003, 192.0, 0.0, 0.0, 0.0, 0.0, 0.0, 0.0, 0.0, 0.0, 0.0, 1.695770984860803E9, 0.0, 2023-09-26 18:29:44.860
52.0, 43873.099252355016, 58284.69941433662, -30085.403333354396, -19774.811837054713, -21868.00800180531, -3455.8479137239356, -187500.02235174447, -3563.1362871094093, 15685.67194767856, -23944.59682042561, -187500.02235174447, 2034.098152410764, -1878.3735487906397, -7481.397090124738, 3830.910185683988, -25372.672125419635, -0.064, 0.9380000000000001, 0.34, 192.0, 127.0, 0.0, 14.5, 40.0, 5.0, 80.0, 0.0, 0.0, 0.0, 1.695770984860806E9, 0.0, 2023-09-26 18:29:44.860
54.0, 43879.380092546955, 58228.752997964984, -30086.72208627726, -19773.560139365214, -21865.772827359775, -3454.5291608010725, -187500.02235174447, -3575.9438366823006, 15675.233683017932, -23954.342181008124, -187500.02235174447, 2004.482091007482, -1882.1733453480417, -7483.878133759276, 3780.104670537075, -25383.64683194719, -0.064, 0.9380000000000001, 0.34, 192.0, 0.0, 0.0, 0.0, 0.0, 0.0, 0.0, 0.0, 0.0, 0.0, 1.69577098486081E9, 0.0, 2023-09-26 18:29:44.860
56.0, 43870.282932553644, 58287.91806553818, -30100.848388773014, -19779.282185945773, -21877.79806587673, -3462.642844038349, -187500.02235174447, -3570.9146941798563, 15676.664194663072, -23948.73189314984, -187500.02235174447, 2026.7667802294231, -1885.0343686383212, -7485.420404126693, 3823.9587931583874, -25379.13177956722, -0.064, 0.9380000000000001, 0.34, 192.0, 0.0, 0.0, 0.0, 0.0, 0.0, 0.0, 0.0, 0.0, 0.0, 1.695770984860813E9, 0.0, 2023-09-26 18:29:44.860
58.0, 43877.10021461251, 58220.16992809415, -30095.595728826014, -19766.072304972688, -21870.533748928756, -3447.890692697846, -187500.02235174447, -3573.663958747859, 15668.684621892528, -23948.463672216378, -187500.02235174447, 2009.2653643209178, -1874.7078626999692, -7478.357252878815, 3774.3155687231506, -25383.155093569174, -0.064, 0.9380000000000001, 0.34, 192.0, 0.0, 0.0, 0.0, 0.0, 0.0, 0.0, 0.0, 0.0, 0.0, 1.695770984860817E9, 0.0, 2023-09-26 18:29:44.860
60.0, 43866.661949951886, 58298.937475554645, -30105.363441152986, -19783.14903773654, -21893.84661839564, -3464.4309835947734, -187500.02235174447, -3563.382156298418, 15674.33961323972, -23943.903916347495, -187500.02235174447, 2035.6851262670907, -1887.4036535505836, -7480.301854646427, 3817.0297523772424, -25373.052105075374, -0.064, 0.9380000000000001, 0.34, 192.0, 0.0, 0.0, 0.0, 0.0, 0.0, 0.0, 0.0, 0.0, 0.0, 1.695770984920995E9, 0.0, 2023-09-26 18:29:44.920
62.0, 43874.19448783332, 58222.71802696205, -30086.319754877062, -19760.77494153678, -21855.826301077166, -3448.449486309229, -187500.02235174447, -3585.331569353529, 15670.450409704497, -23955.12449206406, -187500.02235174447, 2008.1701288426077, -1886.5989907501926, -7483.72167154809, 3770.3146064656507, -25380.36112551226, -0.068, 0.9420000000000001, 0.34, 192.0, 126.5, 112.0, 14.5, 56.0, 5.0, 80.0, 0.0, 0.0, 0.0, 1.695770984921004E9, 0.0, 2023-09-26 18:29:44.921
64.0, 43869.2547523087, 58288.23098996055, -30093.11468519148, -19771.57083410869, -21879.72031589989, -3457.5242945580835, -187500.02235174447, -3557.257778317664, 15670.964499826969, -23950.810605384184, -187500.02235174447, 2033.6287657772025, -1885.8390314387123, -7484.079299459375, 3808.5137377397705, -25366.056009060863, -0.068, 0.9420000000000001, 0.34, 192.0, 0.0, 0.0, 0.0, 0.0, 0.0, 0.0, 0.0, 0.0, 0.0, 1.695770984921007E9, 0.0, 2023-09-26 18:29:44.921
66.0, 43876.42966227885, 58212.257410556966, -30077.356705350485, -19757.690400801945, -21855.535728399245, -3451.086992154955, -187500.02235174447, -3575.56385702656, 15676.1501045406, -23947.92723034945, -187500.02235174447, 2024.9562889285432, -1860.201580548475, -7475.7644505220005, 3787.570153185148, -25371.73335215251, -0.068, 0.9420000000000001, 0.34, 192.0, 0.0, 0.0, 0.0, 0.0, 0.0, 0.0, 0.0, 0.0, 0.0, 1.695770984921011E9, 0.0, 2023-09-26 18:29:44.921
68.0, 43881.27999082566, 58275.40108864321, -30088.264356644675, -19766.9663747509, -21874.110028041607, -3459.2006753922315, -187500.02235174447, -3558.08479286251, 15684.822581389259, -23940.662913401477, -187500.02235174447, 2044.3352513712946, -1881.7710139478463, -7475.406822610716, 3810.8159674186672, -25366.100712549774, -0.068, 0.9420000000000001, 0.34, 192.0, 0.0, 0.0, 0.0, 0.0, 0.0, 0.0, 0.0, 0.0, 0.0, 1.695770984921014E9, 0.0, 2023-09-26 18:29:44.921
70.0, 43876.87669716796, 58217.46536701505, -30082.743475764215, -19758.405656624516, -21858.642620878534, -3449.6788322542707, -187500.02235174447, -3589.1313659109314, 15670.38335447113, -23950.341218750626, -187500.02235174447, 2025.0233441619093, -1877.2112580789637, -7478.044328456442, 3795.75089165579, -25378.30476502237, -0.068, 0.9420000000000001, 0.34, 192.0, 0.0, 0.0, 0.0, 0.0, 0.0, 0.0, 0.0, 0.0, 0.0, 1.695770984921028E9, 0.0, 2023-09-26 18:29:44.921
72.0, 43873.59099073303, 58272.29419616392, -30085.939775221323, -19769.76034280781, -21864.990516303842, -3450.438791565751, -187500.02235174447, -3542.371516510429, 15677.446505719008, -23947.904878604997, -187500.02235174447, 2034.031097177398, -1885.9507901609886, -7475.362119121804, 3807.2843917947284, -25362.97146832603, -0.07, 0.9440000000000001, 0.332, 192.0, 126.5, 104.0, 14.5, 64.0, 5.0, 48.0, 0.0, 0.0, 0.0, 1.695770984921032E9, 0.0, 2023-09-26 18:29:44.921
74.0, 43891.606496764005, 58202.62380869673, -30058.536536519117, -19735.04808366872, -21840.67181833647, -3437.5641867594945, -187500.02235174447, -3585.7786042426355, 15679.704031908994, -23939.165346522972, -187500.02235174447, 2031.8853297096884, -1871.9809498764218, -7469.260092885505, 3801.1600138139743, -25371.01809632994, -0.07, 0.9440000000000001, 0.332, 192.0, 0.0, 0.0, 0.0, 0.0, 0.0, 0.0, 0.0, 0.0, 0.0, 1.695770984980435E9, 0.0, 2023-09-26 18:29:44.980
76.0, 43880.497679769716, 58252.91523372117, -30087.794970011113, -19757.86921475759, -21874.445304208435, -3448.605948520416, -187500.02235174447, -3543.287938033097, 15691.997491359412, -23926.02252078325, -187500.02235174447, 2052.180713675107, -1855.686528168503, -7457.346613090827, 3815.174557587452, -25348.733407108, -0.07, 0.9440000000000001, 0.332, 192.0, 0.0, 0.0, 0.0, 0.0, 0.0, 0.0, 0.0, 0.0, 0.0, 1.695770984980446E9, 0.0, 2023-09-26 18:29:44.980
78.0, 43881.481156525755, 58223.299172317886, -30085.179815909843, -19752.035409454755, -21862.80004534722, -3450.774067732581, -187500.02235174447, -3582.2917321076075, 15670.182188771034, -23953.559869952187, -187500.02235174447, 2028.4655128080265, -1886.8001564502904, -7479.161915679207, 3808.6031447175915, -25370.12402655173, -0.07, 0.9440000000000001, 0.332, 192.0, 0.0, 0.0, 0.0, 0.0, 0.0, 0.0, 0.0, 0.0, 0.0, 1.695770984980449E9, 0.0, 2023-09-26 18:29:44.980
80.0, 43882.956371659806, 58250.52359706445, -30098.0544207161, -19764.06064797171, -21866.778655860264, -3447.287195597553, -187500.02235174447, -3547.378307268418, 15676.083049307234, -23943.568640180667, -187500.02235174447, 2028.8454924637667, -1856.4688392244386, -7469.349499863327, 3792.0628538206643, -25358.12113977923, -0.07, 0.9440000000000001, 0.332, 192.0, 0.0, 0.0, 0.0, 0.0, 0.0, 0.0, 0.0, 0.0, 0.0, 1.695770984980453E9, 0.0, 2023-09-26 18:29:44.980
82.0, 43901.73183700226, 58220.348742049784, -30060.9952284092, -19738.110272659098, -21848.47257715137, -3439.8217129494806, -187500.02235174447, -3572.3675575694515, 15689.270578535865, -23938.964180822873, -187500.02235174447, 2042.770629259423, -1877.971217390444, -7466.577883550869, 3817.3873802885273, -25358.523471179426, -0.066, 0.9420000000000001, 0.336, 192.0, 126.5, 120.0, 14.5, 56.0, 5.0, 64.0, 0.0, 0.0, 0.0, 1.695770984980457E9, 0.0, 2023-09-26 18:29:44.980
84.0, 43892.63467700895, 58229.55766076537, -30077.803740239593, -19756.259889156805, -21868.678554138965, -3449.8799979543687, -187500.02235174447, -3547.6241764574265, 15692.735098926438, -23924.368491693556, -187500.02235174447, 2049.967890974032, -1852.2890630112963, -7454.709107245101, 3806.8597086500777, -25350.432139686603, -0.066, 0.9420000000000001, 0.336, 192.0, 0.0, 0.0, 0.0, 0.0, 0.0, 0.0, 0.0, 0.0, 0.0, 1.69577098498046E9, 0.0, 2023-09-26 18:29:44.980
86.0, 43879.98358964725, 58236.48670154652, -30082.028219941643, -19758.539767091246, -21868.589147161147, -3461.346442859941, -187500.02235174447, -3582.2693803631523, 15678.966424341968, -23950.005942583794, -187500.02235174447, 2043.7317542710014, -1865.3201300287403, -7477.306720889416, 3822.237708835329, -25371.375724241225, -0.066, 0.9420000000000001, 0.336, 192.0, 0.0, 0.0, 0.0, 0.0, 0.0, 0.0, 0.0, 0.0, 0.0, 1.695770984980464E9, 0.0, 2023-09-26 18:29:44.980
88.0, 43879.82712743606, 58228.59653575379, -30087.437342099827, -19763.121874704586, -21867.113932027096, -3452.405745077818, -187500.02235174447, -3560.185856841309, 15672.842046361215, -23947.45784371589, -187500.02235174447, 2027.8173122188227, -1874.327883044229, -7472.881075487266, 3786.497269451293, -25372.135683552708, -0.066, 0.9420000000000001, 0.336, 192.0, 0.0, 0.0, 0.0, 0.0, 0.0, 0.0, 0.0, 0.0, 0.0, 1.695770984980468E9, 0.0, 2023-09-26 18:29:44.980
90.0, 43883.49281352673, 58238.185434125124, -30084.03987694262, -19754.471749600383, -21860.050780779216, -3455.065602668, -187500.02235174447, -3578.402528572384, 15675.211331273476, -23947.12256754906, -187500.02235174447, 2042.2341873924956, -1875.7583946893687, -7477.105555189319, 3822.9976681468092, -25371.398075985682, -0.066, 0.9420000000000001, 0.336, 192.0, 0.0, 0.0, 0.0, 0.0, 0.0, 0.0, 0.0, 0.0, 0.0, 1.695770985040102E9, 0.0, 2023-09-26 18:29:45.040
92.0, 43864.18090631734, 58225.95902990807, -30105.67636557536, -19773.7166015764, -21891.253816038825, -3458.932454458768, -187500.02235174447, -3561.839885931002, 15678.564092941773, -23939.724140134353, -187500.02235174447, 2034.7240012555126, -1863.5990457056816, -7465.840275983844, 3787.905429351977, -25365.027828815917, -0.068, 0.9420000000000001, 0.336, 192.0, 126.5, 112.0, 14.5, 56.0, 5.0, 64.0, 0.0, 0.0, 0.0, 1.69577098504011E9, 0.0, 2023-09-26 18:29:45.040
94.0, 43873.367473288476, 58245.62856502874, -30098.47910386075, -19760.48436885886, -21872.008964062807, -3452.6292625223714, -187500.02235174447, -3579.0060256726774, 15649.61858387215, -23960.82418690016, -187500.02235174447, 2026.7667802294231, -1881.5027930143826, -7487.968502994598, 3811.173595329952, -25380.294070278895, -0.068, 0.9420000000000001, 0.336, 192.0, 0.0, 0.0, 0.0, 0.0, 0.0, 0.0, 0.0, 0.0, 0.0, 1.695770985040114E9, 0.0, 2023-09-26 18:29:45.040
96.0, 43867.48896449673, 58206.021273853934, -30096.892130004424, -19766.00524973932, -21867.315097727194, -3446.2366636081533, -187500.02235174447, -3557.70481320677, 15678.787610386325, -23946.20614602639, -187500.02235174447, 2017.647268491658, -1861.0509468377766, -7465.259130628006, 3778.629455403025, -25361.049218302873, -0.068, 0.9420000000000001, 0.336, 192.0, 0.0, 0.0, 0.0, 0.0, 0.0, 0.0, 0.0, 0.0, 0.0, 1.695770985040117E9, 0.0, 2023-09-26 18:29:45.040
98.0, 43861.78926966063, 58257.38558261223, -30105.654013830903, -19766.988726495354, -21886.85052238113, -3456.451410824229, -187500.02235174447, -3574.0886418925097, 15659.185130499021, -23960.623021200066, -187500.02235174447, 2026.610318018236, -1887.6942262285027, -7484.302816903927, 3819.980182645343, -25369.788750384898, -0.068, 0.9420000000000001, 0.336, 192.0, 0.0, 0.0, 0.0, 0.0, 0.0, 0.0, 0.0, 0.0, 0.0, 1.695770985040121E9, 0.0, 2023-09-26 18:29:45.040
100.0, 43864.15855457289, 58211.38569252321, -30105.60931034199, -19765.737028805856, -21878.490969954848, -3449.768239232092, -187500.02235174447, -3564.119763865443, 15662.515540422863, -23950.207108283892, -187500.02235174447, 2012.8639951782222, -1879.1782115910307, -7470.735308019556, 3775.500211179282, -25365.631325916213, -0.068, 0.9420000000000001, 0.336, 192.0, 0.0, 0.0, 0.0, 0.0, 0.0, 0.0, 0.0, 0.0, 0.0, 1.695770985040124E9, 0.0, 2023-09-26 18:29:45.040
102.0, 43873.63569422194, 58258.21259715708, -30105.855179531, -19764.082999716164, -21876.14403678704, -3450.707012499215, -187500.02235174447, -3568.925388923334, 15659.989793299414, -23956.867928131574, -187500.02235174447, 2032.2653093654287, -1876.8536301676788, -7482.581732580868, 3813.878156409044, -25364.849014860276, -0.064, 0.9400000000000001, 0.34, 192.0, 127.0, 0.0, 14.5, 48.0, 5.0, 80.0, 0.0, 0.0, 0.0, 1.695770985040128E9, 0.0, 2023-09-26 18:29:45.040
104.0, 43881.056473381104, 58194.37601499272, -30088.309060133586, -19762.943060748945, -21868.00800180531, -3444.7167449851927, -187500.02235174447, -3575.3626913264625, 15672.640880661116, -23953.045779829718, -187500.02235174447, 2015.9261841685993, -1871.1539353315754, -7468.589540551847, 3776.08135653512, -25361.16097702515, -0.064, 0.9400000000000001, 0.34, 192.0, 0.0, 0.0, 0.0, 0.0, 0.0, 0.0, 0.0, 0.0, 0.0, 1.695770985100492E9, 0.0, 2023-09-26 18:29:45.100
106.0, 43871.02054012067, 58256.022126200456, -30107.1068772205, -19778.969261523398, -21880.27910951127, -3462.0616986825107, -187500.02235174447, -3564.2762260766303, 15668.416400959064, -23953.805739141197, -187500.02235174447, 2028.5996232747584, -1873.3667580326508, -7484.414575626204, 3816.0462756212087, -25361.429197958612, -0.064, 0.9400000000000001, 0.34, 192.0, 0.0, 0.0, 0.0, 0.0, 0.0, 0.0, 0.0, 0.0, 0.0, 1.695770985100502E9, 0.0, 2023-09-26 18:29:45.100
108.0, 43886.46559553929, 58180.56263691934, -30083.123455419955, -19760.685534558957, -21861.302478468715, -3447.935396186757, -187500.02235174447, -3579.542467539605, 15670.271595748854, -23956.957335109393, -187500.02235174447, 2008.0583701203311, -1866.5718277182375, -7479.8771715017765, 3774.427327445427, -25372.5380149529, -0.064, 0.9400000000000001, 0.34, 192.0, 0.0, 0.0, 0.0, 0.0, 0.0, 0.0, 0.0, 0.0, 0.0, 1.695770985100506E9, 0.0, 2023-09-26 18:29:45.100
110.0, 43889.41602580739, 58239.88416670373, -30088.934908978335, -19761.132569448062, -21869.818493106188, -3447.600120019927, -187500.02235174447, -3546.193664812287, 15677.111229552178, -23951.347047251114, -187500.02235174447, 2038.7920187463785, -1858.8828276256118, -7480.972406980087, 3818.169691344463, -25361.20568051406, -0.064, 0.9400000000000001, 0.34, 192.0, 0.0, 0.0, 0.0, 0.0, 0.0, 0.0, 0.0, 0.0, 0.0, 1.695770985100509E9, 0.0, 2023-09-26 18:29:45.100
112.0, 43893.081711898056, 58161.89893029916, -30078.787216995624, -19749.28614488675, -21866.868062838086, -3437.6535937373155, -187500.02235174447, -3559.18002834082, 15683.235607532932, -23938.49479418931, -187500.02235174447, 2026.4985592959595, -1857.2735020248297, -7460.609967781302, 3796.7790719007344, -25348.956924552553, -0.064, 0.9420000000000001, 0.338, 192.0, 127.0, 0.0, 14.5, 56.0, 5.0, 72.0, 0.0, 0.0, 0.0, 1.695770985100522E9, 0.0, 2023-09-26 18:29:45.100
114.0, 43873.16630758838, 58242.20874812708, -30099.797856783614, -19768.441589884947, -21879.787371133254, -3455.9149689573014, -187500.02235174447, -3547.311252035052, 15663.38725845662, -23956.10796882009, -187500.02235174447, 2030.901852953655, -1870.2822172978185, -7482.604084325324, 3816.3815517880385, -25354.746026366476, -0.064, 0.9420000000000001, 0.338, 192.0, 0.0, 0.0, 0.0, 0.0, 0.0, 0.0, 0.0, 0.0, 0.0, 1.695770985100525E9, 0.0, 2023-09-26 18:29:45.100
116.0, 43876.228496578755, 58180.85320959726, -30096.176874181852, -19758.33860139115, -21860.766036601788, -3449.2988525985306, -187500.02235174447, -3577.0614239050656, 15671.769162627359, -23954.051608330206, -187500.02235174447, 2019.770684214912, -1858.9722346034332, -7470.824714997378, 3800.4224062469493, -25352.510851920946, -0.064, 0.9420000000000001, 0.338, 192.0, 0.0, 0.0, 0.0, 0.0, 0.0, 0.0, 0.0, 0.0, 0.0, 1.695770985100529E9, 0.0, 2023-09-26 18:29:45.100
118.0, 43870.640560464926, 58246.030896428936, -30098.43440037184, -19761.087865959154, -21876.121685042584, -3453.2998148560305, -187500.02235174447, -3550.2616823031526, 15657.62050838715, -23962.36645726758, -187500.02235174447, 2027.6832017520908, -1888.1636128620642, -7484.302816903927, 3810.011304618276, -25360.803349113867, -0.064, 0.9420000000000001, 0.338, 192.0, 0.0, 0.0, 0.0, 0.0, 0.0, 0.0, 0.0, 0.0, 0.0, 1.695770985100532E9, 0.0, 2023-09-26 18:29:45.100
120.0, 43892.366456075484, 58171.37606994821, -30072.484025059228, -19729.504851043803, -21854.03816152074, -3433.9432041577347, -187500.02235174447, -3566.6902144778032, 15674.29490975081, -23946.2508495153, -187500.02235174447, 2033.002916932454, -1856.6029496911706, -7461.57109279288, 3790.9229148534437, -25349.53806990839, -0.064, 0.9420000000000001, 0.338, 192.0, 0.0, 0.0, 0.0, 0.0, 0.0, 0.0, 0.0, 0.0, 0.0, 1.695770985160742E9, 0.0, 2023-09-26 18:29:45.160
122.0, 43881.81643269258, 58231.07757938834, -30093.204092169297, -19755.410522867503, -21876.456961209413, -3452.897483455835, -187500.02235174447, -3539.51049322015, 15675.457200462486, -23942.138128535527, -187500.02235174447, 2044.5364170713924, -1864.9848538619108, -7465.504999817014, 3809.0278278622422, -25341.647904115667, -0.064, 0.9420000000000001, 0.338, 192.0, 127.0, 0.0, 14.5, 56.0, 5.0, 72.0, 0.0, 0.0, 0.0, 1.69577098516075E9, 0.0, 2023-09-26 18:29:45.160
124.0, 43880.2071070918, 58186.99993932247, -30093.069981702567, -19748.079150686164, -21871.7630948738, -3453.6127392784047, -187500.02235174447, -3575.6532640043815, 15672.171494027556, -23951.659971673485, -187500.02235174447, 2031.1477221426635, -1866.9518073739778, -7470.28827313045, 3803.5069469817818, -25354.8354333443, -0.064, 0.9420000000000001, 0.338, 192.0, 0.0, 0.0, 0.0, 0.0, 0.0, 0.0, 0.0, 0.0, 0.0, 1.695770985160754E9, 0.0, 2023-09-26 18:29:45.160
126.0, 43875.91557215638, 58231.50226253299, -30099.216711427776, -19760.417313625494, -21882.58133919017, -3454.417402078796, -187500.02235174447, -3549.0993915914764, 15669.265767248366, -23954.722160663863, -187500.02235174447, 2027.9514226855545, -1865.8565718956677, -7474.7139185326005, 3794.4544904773825, -25353.963715310543, -0.064, 0.9420000000000001, 0.338, 192.0, 0.0, 0.0, 0.0, 0.0, 0.0, 0.0, 0.0, 0.0, 0.0, 1.695770985160757E9, 0.0, 2023-09-26 18:29:45.160
128.0, 43884.52099377167, 58192.610227180754, -30086.029182199145, -19748.660296042002, -21873.417123963492, -3444.023840907078, -187500.02235174447, -3576.927313438334, 15672.395011472108, -23950.92236410646, -187500.02235174447, 2037.093286167775, -1871.9809498764218, -7466.711994017601, 3806.3456185276054, -25351.14739550917, -0.064, 0.9420000000000001, 0.338, 192.0, 0.0, 0.0, 0.0, 0.0, 0.0, 0.0, 0.0, 0.0, 0.0, 1.695770985160767E9, 0.0, 2023-09-26 18:29:45.160
130.0, 43875.87086866747, 58229.13297762072, -30102.48006611825, -19770.43089514147, -21878.736839143854, -3453.0092421781114, -187500.02235174447, -3544.830208400513, 15664.86247359067, -23960.734779922343, -187500.02235174447, 2031.0583151648423, -1872.6291504656258, -7480.078337201874, 3790.431176475427, -25358.36700896824, -0.064, 0.9420000000000001, 0.338, 192.0, 0.0, 0.0, 0.0, 0.0, 0.0, 0.0, 0.0, 0.0, 0.0, 1.695770985160771E9, 0.0, 2023-09-26 18:29:45.160
132.0, 43884.92332517187, 58196.320616760335, -30090.723048534757, -19755.56698507869, -21861.257774979804, -3449.857646209913, -187500.02235174447, -3574.4909732927053, 15674.071392306256, -23950.4529774729, -187500.02235174447, 2041.6306902922024, -1867.6223597076369, -7472.456392342615, 3816.560365743681, -25352.287334476394, -0.066, 0.9420000000000001, 0.34, 192.0, 126.5, 120.0, 14.5, 56.0, 5.0, 80.0, 0.0, 0.0, 0.0, 1.695770985160775E9, 0.0, 2023-09-26 18:29:45.160
134.0, 43870.148822086914, 58216.32542804783, -30112.851275545512, -19778.857502801122, -21887.364612503603, -3462.799306249536, -187500.02235174447, -3550.6193102144375, 15666.784723613826, -23956.73381766484, -187500.02235174447, 2030.097190153264, -1865.7224614289357, -7474.356290621316, 3794.65565617748, -25353.382569954705, -0.066, 0.9420000000000001, 0.34, 192.0, 0.0, 0.0, 0.0, 0.0, 0.0, 0.0, 0.0, 0.0, 0.0, 1.695770985220209E9, 0.0, 2023-09-26 18:29:45.220
136.0, 43882.308171070596, 58224.416759540654, -30111.107839477998, -19762.42897062647, -21878.110990299105, -3461.4582015822175, -187500.02235174447, -3593.445252590806, 15647.294002448798, -23974.324640551167, -187500.02235174447, 2022.899928438655, -1883.201525592986, -7496.618628098801, 3818.0579326221864, -25372.98504984201, -0.066, 0.9420000000000001, 0.34, 192.0, 0.0, 0.0, 0.0, 0.0, 0.0, 0.0, 0.0, 0.0, 0.0, 1.695770985220219E9, 0.0, 2023-09-26 18:29:45.220
138.0, 43884.87862168296, 58205.820108153835, -30099.90961550589, -19766.273470672782, -21881.016717078295, -3453.5009805561285, -187500.02235174447, -3556.3860602839068, 15676.395973729608, -23945.289724503724, -187500.02235174447, 2024.0175156614205, -1869.8351824087124, -7464.365060849794, 3781.5351821822146, -25349.202793741562, -0.066, 0.9420000000000001, 0.34, 192.0, 0.0, 0.0, 0.0, 0.0, 0.0, 0.0, 0.0, 0.0, 0.0, 1.695770985220222E9, 0.0, 2023-09-26 18:29:45.220
140.0, 43897.417950322386, 58209.57520122233, -30092.935871235833, -19747.94504021943, -21864.342315714635, -3450.1705706322878, -187500.02235174447, -3574.513325037161, 15662.694354378506, -23956.532651964742, -187500.02235174447, 2031.2594808649399, -1877.0324441233213, -7478.781936023466, 3814.302839553695, -25360.177500269117, -0.066, 0.9420000000000001, 0.34, 192.0, 0.0, 0.0, 0.0, 0.0, 0.0, 0.0, 0.0, 0.0, 0.0, 1.695770985220226E9, 0.0, 2023-09-26 18:29:45.220
142.0, 43889.81835720758, 58180.54028517489, -30096.981536982246, -19758.47271185788, -21883.877740368574, -3454.35034684543, -187500.02235174447, -3565.3267580660295, 15679.927549353546, -23938.226573255848, -187500.02235174447, 2035.3051466113504, -1849.4503914654722, -7459.827656725366, 3779.948208325888, -25349.29220071938, -0.062, 0.9460000000000001, 0.332, 192.0, 127.0, 8.0, 14.5, 72.0, 5.0, 48.0, 0.0, 0.0, 0.0, 1.695770985220229E9, 0.0, 2023-09-26 18:29:45.220
144.0, 43884.85626993851, 58223.90266941818, -30096.57920558205, -19753.53297633326, -21885.42001073599, -3460.899407970835, -187500.02235174447, -3575.921484937845, 15653.261918218366, -23962.41116075649, -187500.02235174447, 2040.3566408582499, -1894.7350257319245, -7489.24255242855, 3818.5049675112928, -25364.849014860276, -0.062, 0.9460000000000001, 0.332, 192.0, 0.0, 0.0, 0.0, 0.0, 0.0, 0.0, 0.0, 0.0, 0.0, 1.695770985220233E9, 0.0, 2023-09-26 18:29:45.220
146.0, 43886.53265077265, 58175.91347407264, -30094.455789858795, -19755.321115889685, -21883.14013280155, -3451.2434543661425, -187500.02235174447, -3564.5220952656387, 15676.977119085446, -23944.59682042561, -187500.02235174447, 2031.6394605206801, -1856.334728757707, -7464.4991713165255, 3771.722766366335, -25348.375779196715, -0.062, 0.9460000000000001, 0.332, 192.0, 0.0, 0.0, 0.0, 0.0, 0.0, 0.0, 0.0, 0.0, 0.0, 1.695770985220236E9, 0.0, 2023-09-26 18:29:45.220
148.0, 43883.31399957109, 58234.966782923555, -30100.781333539646, -19759.43383686946, -21869.729086128365, -3458.619530036394, -187500.02235174447, -3570.8252872020353, 15655.362982197164, -23959.25956478829, -187500.02235174447, 2044.1117339267414, -1879.781708691324, -7486.761508794011, 3817.7673599442674, -25357.182366512105, -0.062, 0.9460000000000001, 0.332, 192.0, 0.0, 0.0, 0.0, 0.0, 0.0, 0.0, 0.0, 0.0, 0.0, 1.69577098522024E9, 0.0, 2023-09-26 18:29:45.220
150.0, 43878.5083745132, 58190.39740447968, -30105.855179531, -19767.30165091773, -21890.00211834933, -3455.155009645821, -187500.02235174447, -3570.288845335108, 15668.841084103715, -23956.197375797914, -187500.02235174447, 2027.7055534965461, -1871.84683940969, -7477.977273223076, 3775.9919495572985, -25356.712979878543, -0.062, 0.9460000000000001, 0.332, 192.0, 0.0, 0.0, 0.0, 0.0, 0.0, 0.0, 0.0, 0.0, 0.0, 1.695770985280719E9, 0.0, 2023-09-26 18:29:45.280
152.0, 43881.77172920367, 58257.51969307896, -30100.647223072916, -19765.0664764722, -21871.494873940333, -3456.8537422244244, -187500.02235174447, -3570.9146941798563, 15661.889691578113, -23960.04187584423, -187500.02235174447, 2042.4353530925935, -1880.7875371918128, -7491.142450707252, 3813.1181970975636, -25360.132796780206, -0.056, 0.9440000000000001, 0.334, 192.0, 127.0, 32.0, 14.5, 64.0, 5.0, 56.0, 0.0, 0.0, 0.0, 1.695770985280727E9, 0.0, 2023-09-26 18:29:45.280
154.0, 43896.88150845546, 58181.6802241421, -30076.328525105542, -19749.44260709794, -21856.496853410823, -3436.4018960478184, -187500.02235174447, -3572.8816476919233, 15689.739965169427, -23940.662913401477, -187500.02235174447, 2031.6841640095909, -1851.7079176554582, -7465.259130628006, 3783.4127287164606, -25347.995799540975, -0.056, 0.9440000000000001, 0.334, 192.0, 0.0, 0.0, 0.0, 0.0, 0.0, 0.0, 0.0, 0.0, 0.0, 1.69577098528073E9, 0.0, 2023-09-26 18:29:45.280
156.0, 43873.34512154402, 58262.32531813686, -30091.371249123964, -19767.927499762478, -21870.153769273016, -3449.902349698824, -187500.02235174447, -3558.2636068181523, 15677.379450485641, -23953.939849607927, -187500.02235174447, 2041.4071728476492, -1872.2044673209748, -7487.320302405394, 3828.1609211159853, -25351.527375164915, -0.056, 0.9440000000000001, 0.334, 192.0, 0.0, 0.0, 0.0, 0.0, 0.0, 0.0, 0.0, 0.0, 0.0, 1.695770985280733E9, 0.0, 2023-09-26 18:29:45.280
158.0, 43870.59585697602, 58201.99795985198, -30080.687115274326, -19762.42897062647, -21864.498777925823, -3443.1074193844106, -187500.02235174447, -3579.5201157951496, 15676.44067721852, -23955.97385835336, -187500.02235174447, 2020.5753470153031, -1865.297778284285, -7479.720709290589, 3794.745063155301, -25353.15905251015, -0.056, 0.9440000000000001, 0.334, 192.0, 0.0, 0.0, 0.0, 0.0, 0.0, 0.0, 0.0, 0.0, 0.0, 1.695770985280736E9, 0.0, 2023-09-26 18:29:45.280
160.0, 43882.15170885941, 58261.76652452547, -30070.584126780526, -19755.455226356415, -21861.011905790798, -3430.8586634229023, -187500.02235174447, -3542.639737443893, 15688.935302369036, -23946.720236148863, -187500.02235174447, 2041.094248425275, -1867.84587715219, -7474.311587132405, 3822.4388745354267, -25345.917087306632, -0.056, 0.9440000000000001, 0.334, 192.0, 0.0, 0.0, 0.0, 0.0, 0.0, 0.0, 0.0, 0.0, 0.0, 1.69577098528074E9, 0.0, 2023-09-26 18:29:45.280
162.0, 43865.27614179566, 58201.908552874156, -30086.118589176967, -19770.117970719097, -21891.99142360585, -3446.6613467528045, -187500.02235174447, -3594.182860157831, 15672.707935894483, -23956.13032056455, -187500.02235174447, 2021.7599894714344, -1878.5523627462821, -7483.833430270366, 3791.437004975916, -25360.15514852466, -0.06, 0.9420000000000001, 0.334, 192.0, 127.0, 16.0, 14.5, 56.0, 5.0, 56.0, 0.0, 0.0, 0.0, 1.695770985280743E9, 0.0, 2023-09-26 18:29:45.280
164.0, 43871.8028511766, 58259.039611701926, -30082.363496108475, -19769.849749785633, -21855.871004566074, -3445.4990560411284, -187500.02235174447, -3555.5366939946052, 15686.364851756676, -23950.430625728444, -187500.02235174447, 2030.2089488755405, -1864.1801910615197, -7480.86064825781, 3797.8743073790442, -25358.21054675705, -0.06, 0.9420000000000001, 0.334, 192.0, 0.0, 0.0, 0.0, 0.0, 0.0, 0.0, 0.0, 0.0, 0.0, 1.695770985340926E9, 0.0, 2023-09-26 18:29:45.340
166.0, 43883.44811003782, 58180.49558168597, -30056.614286495962, -19748.325019875174, -21844.583373616144, -3431.6633262232936, -187500.02235174447, -3584.012816430666, 15689.695261680516, -23949.78242513924, -187500.02235174447, 2020.8435679487668, -1868.2482085523854, -7477.552590078425, 3790.878211364533, -25359.6857618911, -0.06, 0.9420000000000001, 0.334, 192.0, 0.0, 0.0, 0.0, 0.0, 0.0, 0.0, 0.0, 0.0, 0.0, 1.695770985340938E9, 0.0, 2023-09-26 18:29:45.340
168.0, 43880.05064488061, 58229.177681109635, -30069.80181572459, -19761.691363059446, -21863.381190703058, -3435.3737158028744, -187500.02235174447, -3543.8467316444794, 15701.29581705282, -23940.327637234644, -187500.02235174447, 2039.7531437579567, -1857.5417229582933, -7471.38350860876, 3816.716827954868, -25343.816023327832, -0.06, 0.9420000000000001, 0.334, 192.0, 0.0, 0.0, 0.0, 0.0, 0.0, 0.0, 0.0, 0.0, 0.0, 1.695770985340941E9, 0.0, 2023-09-26 18:29:45.340
170.0, 43884.38688330494, 58174.147686260665, -30055.809623695568, -19747.8109297527, -21834.435681633437, -3425.2260238201648, -187500.02235174447, -3562.733955709214, 15696.020805361368, -23940.282933745737, -187500.02235174447, 2028.0184779189203, -1856.0218043353325, -7469.237741141051, 3810.1230633405526, -25347.30289546286, -0.06, 0.9420000000000001, 0.334, 192.0, 0.0, 0.0, 0.0, 0.0, 0.0, 0.0, 0.0, 0.0, 0.0, 1.695770985340945E9, 0.0, 2023-09-26 18:29:45.340
172.0, 43863.3538917725, 58236.799625968895, -30085.693906032313, -19773.895415532043, -21867.672725638477, -3443.1968263622316, -187500.02235174447, -3537.5211879636277, 15693.048023348812, -23944.21684076987, -187500.02235174447, 2030.1418936421746, -1860.358042759662, -7475.406822610716, 3820.3825140455383, -25343.816023327832, -0.062, 0.9420000000000001, 0.334, 192.0, 127.0, 8.0, 14.5, 56.0, 5.0, 56.0, 0.0, 0.0, 0.0, 1.695770985340948E9, 0.0, 2023-09-26 18:29:45.340
174.0, 43874.01567387768, 58192.85609636976, -30070.025333169146, -19754.829377511665, -21855.021638276772, -3435.4631227806954, -187500.02235174447, -3576.8155547160572, 15672.551473683296, -23960.578317711155, -187500.02235174447, 2014.9874109014763, -1868.2482085523854, -7486.694453560645, 3807.41850226146, -25358.92580257962, -0.062, 0.9420000000000001, 0.334, 192.0, 0.0, 0.0, 0.0, 0.0, 0.0, 0.0, 0.0, 0.0, 0.0, 1.695770985340952E9, 0.0, 2023-09-26 18:29:45.340
176.0, 43870.61820872047, 58221.33221880582, -30070.67353375835, -19771.794351553246, -21853.702885353912, -3435.284308825053, -187500.02235174447, -3540.248100787175, 15684.57671220025, -23954.476291474857, -187500.02235174447, 2022.0282104048981, -1865.6554061955699, -7478.983101723565, 3805.786824916223, -25343.77131983892, -0.062, 0.9420000000000001, 0.334, 192.0, 0.0, 0.0, 0.0, 0.0, 0.0, 0.0, 0.0, 0.0, 0.0, 1.695770985340955E9, 0.0, 2023-09-26 18:29:45.340
178.0, 43878.39661579092, 58183.55777067635, -30046.84657416899, -19752.10246468812, -21845.030408505252, -3423.8849191528466, -187500.02235174447, -3559.269435318641, 15699.708843196493, -23952.84461412962, -187500.02235174447, 2026.029172662398, -1852.9372636005003, -7473.238703398551, 3829.1220461275634, -25340.798537826366, -0.062, 0.9420000000000001, 0.334, 192.0, 0.0, 0.0, 0.0, 0.0, 0.0, 0.0, 0.0, 0.0, 0.0, 1.695770985340958E9, 0.0, 2023-09-26 18:29:45.340
180.0, 43862.21395280528, 58213.73262569102, -30081.648240285904, -19779.63981385706, -21877.23927226535, -3443.308585084508, -187500.02235174447, -3541.1421705653875, 15688.443563991019, -23954.386884497035, -187500.02235174447, 2021.871748193711, -1859.6427869370923, -7482.291159902949, 3809.5195662402593, -25344.82185182832, -0.062, 0.9420000000000001, 0.334, 192.0, 0.0, 0.0, 0.0, 0.0, 0.0, 0.0, 0.0, 0.0, 0.0, 1.695770985401206E9, 0.0, 2023-09-26 18:29:45.401
182.0, 43860.984606860235, 58218.04651237089, -30086.27505138815, -19769.939156763456, -21859.13435925655, -3452.6963177557373, -187500.02235174447, -3585.0633484200657, 15664.52719742384, -23973.6093847286, -187500.02235174447, 2017.222585347007, -1886.0849006277206, -7503.167689224207, 3816.6721244659575, -25364.91607009364, -0.062, 0.9460000000000001, 0.336, 192.0, 127.0, 8.0, 14.5, 72.0, 5.0, 64.0, 0.0, 0.0, 0.0, 1.695770985401213E9, 0.0, 2023-09-26 18:29:45.401
184.0, 43878.68718846884, 58199.42750923962, -30064.9961906667, -19752.460092599405, -21850.260716707795, -3422.5885179744387, -187500.02235174447, -3540.359859509452, 15691.326939025754, -23944.663875658975, -187500.02235174447, 2021.2011958600517, -1859.3075107702628, -7467.6060637958135, 3786.7207868958462, -25342.832546571797, -0.062, 0.9460000000000001, 0.336, 192.0, 0.0, 0.0, 0.0, 0.0, 0.0, 0.0, 0.0, 0.0, 0.0, 1.695770985401217E9, 0.0, 2023-09-26 18:29:45.401
186.0, 43859.308226026085, 58234.18447186762, -30077.401408839396, -19761.065514214697, -21870.824321606677, -3442.325108328475, -187500.02235174447, -3565.2373510882085, 15677.088877807722, -23957.426721742955, -187500.02235174447, 2035.2827948668953, -1862.2132375494525, -7480.726537791078, 3833.458284551893, -25344.844203572775, -0.062, 0.9460000000000001, 0.336, 192.0, 0.0, 0.0, 0.0, 0.0, 0.0, 0.0, 0.0, 0.0, 0.0, 1.69577098540122E9, 0.0, 2023-09-26 18:29:45.401
188.0, 43855.128449812946, 58226.294306074895, -30085.0010019542, -19776.041182999754, -21865.169330259483, -3446.7284019861704, -187500.02235174447, -3554.8437899164906, 15677.312395252276, -23952.01759958477, -187500.02235174447, 2017.870785936211, -1880.1840400915196, -7475.183305166162, 3787.503097951782, -25345.11242450624, -0.062, 0.9460000000000001, 0.336, 192.0, 0.0, 0.0, 0.0, 0.0, 0.0, 0.0, 0.0, 0.0, 0.0, 1.695770985401224E9, 0.0, 2023-09-26 18:29:45.401
190.0, 43857.833010892035, 58253.854006988295, -30086.72208627726, -19765.62527008358, -21861.548347657725, -3449.812942721003, -187500.02235174447, -3579.117784394954, 15661.375601455642, -23972.380038783558, -187500.02235174447, 2019.5248150259038, -1883.8050226932792, -7499.122023477796, 3810.3465807851057, -25364.98312532701, -0.062, 0.9460000000000001, 0.336, 192.0, 0.0, 0.0, 0.0, 0.0, 0.0, 0.0, 0.0, 0.0, 0.0, 1.695770985401227E9, 0.0, 2023-09-26 18:29:45.401
192.0, 43871.758147687695, 58207.58589596581, -30065.666743000358, -19756.8633862571, -21851.735931841842, -3431.7303814566594, -187500.02235174447, -3554.4861620052056, 15683.593235444217, -23945.26737275927, -187500.02235174447, 2016.8202539468116, -1859.5757317037264, -7469.885941730255, 3777.489516435804, -25346.475880918013, -0.062, 0.9480000000000001, 0.336, 192.0, 127.0, 8.0, 14.5, 80.0, 5.0, 64.0, 0.0, 0.0, 0.0, 1.695770985401231E9, 0.0, 2023-09-26 18:29:45.401
194.0, 43863.17507781686, 58253.630489543735, -30069.980629680234, -19760.81964502569, -21856.72037085538, -3445.3649455743966, -187500.02235174447, -3556.1625428393536, 15685.24726453391, -23945.177965781448, -187500.02235174447, 2042.5694635593254, -1874.5737522332374, -7478.044328456442, 3827.691534482424, -25346.92291580712, -0.062, 0.9480000000000001, 0.336, 192.0, 0.0, 0.0, 0.0, 0.0, 0.0, 0.0, 0.0, 0.0, 0.0, 1.695770985460735E9, 0.0, 2023-09-26 18:29:45.460
196.0, 43852.178019544845, 58214.202012324575, -30076.552042550094, -19771.101447475132, -21868.56679541669, -3446.482532797162, -187500.02235174447, -3554.9108451498564, 15694.076203593757, -23948.97776233885, -187500.02235174447, 2022.1846726160852, -1853.3172432562403, -7474.423345854681, 3784.7761851282344, -25349.582773397302, -0.062, 0.9480000000000001, 0.336, 192.0, 0.0, 0.0, 0.0, 0.0, 0.0, 0.0, 0.0, 0.0, 0.0, 1.695770985460745E9, 0.0, 2023-09-26 18:29:45.460
198.0, 43846.74654564221, 58271.601292085805, -30071.05351341409, -19777.82932255618, -21860.631926135055, -3456.8537422244244, -187500.02235174447, -3574.021586659144, 15673.534950439329, -23970.88247190505, -187500.02235174447, 2021.871748193711, -1874.1714208330418, -7502.273619445994, 3815.398075032005, -25365.430160216114, -0.062, 0.9480000000000001, 0.336, 192.0, 0.0, 0.0, 0.0, 0.0, 0.0, 0.0, 0.0, 0.0, 0.0, 1.695770985460749E9, 0.0, 2023-09-26 18:29:45.460
200.0, 43861.63280744944, 58214.44788151359, -30064.303286588587, -19768.843921285144, -21847.17617597296, -3441.1628176167987, -187500.02235174447, -3558.531827751616, 15684.397898244608, -23960.04187584423, -187500.02235174447, 2004.4597392630267, -1863.5990457056816, -7484.191058181651, 3786.631379918025, -25356.847090345276, -0.062, 0.9480000000000001, 0.336, 192.0, 0.0, 0.0, 0.0, 0.0, 0.0, 0.0, 0.0, 0.0, 0.0, 1.695770985460753E9, 0.0, 2023-09-26 18:29:45.460
202.0, 43869.74649068672, 58260.44777160261, -30070.181795380333, -19762.63013632657, -21849.120777740573, -3438.435904793251, -187500.02235174447, -3541.70096417677, 15695.953750128003, -23950.430625728444, -187500.02235174447, 2032.1982541320629, -1850.4785717104164, -7476.569113322391, 3834.1958921189184, -25341.759662837943, -0.06, 0.9460000000000001, 0.334, 192.0, 127.0, 16.0, 14.5, 72.0, 5.0, 56.0, 0.0, 0.0, 0.0, 1.695770985460756E9, 0.0, 2023-09-26 18:29:45.460
204.0, 43856.35779575799, 58202.64616044118, -30080.798873996602, -19766.7652090508, -21866.622193649077, -3446.326070585975, -187500.02235174447, -3570.892342435401, 15686.096630823211, -23950.96706759537, -187500.02235174447, 2018.6307452476915, -1858.6816619255142, -7474.468049343593, 3796.7343684118237, -25345.62651462871, -0.06, 0.9460000000000001, 0.334, 192.0, 0.0, 0.0, 0.0, 0.0, 0.0, 0.0, 0.0, 0.0, 0.0, 1.69577098546076E9, 0.0, 2023-09-26 18:29:45.460
206.0, 43858.81648764807, 58269.20965542909, -30087.102065933, -19760.394961881037, -21858.75437960081, -3445.834332207958, -187500.02235174447, -3546.663051445848, 15680.843970876214, -23965.875681147063, -187500.02235174447, 2029.2925273528729, -1862.012071849355, -7490.315436162405, 3824.070551880664, -25346.4311774291, -0.06, 0.9460000000000001, 0.334, 192.0, 0.0, 0.0, 0.0, 0.0, 0.0, 0.0, 0.0, 0.0, 0.0, 1.695770985460763E9, 0.0, 2023-09-26 18:29:45.460
208.0, 43887.71729322879, 58175.86877058372, -30043.33735028951, -19728.543726032225, -21829.451242619903, -3418.3416865279305, -187500.02235174447, -3555.1567143388647, 15695.752584427904, -23944.708579147886, -187500.02235174447, 2021.3353063267837, -1852.1773042890197, -7462.599273037824, 3794.5215457107483, -25330.740252821477, -0.06, 0.9460000000000001, 0.334, 192.0, 0.0, 0.0, 0.0, 0.0, 0.0, 0.0, 0.0, 0.0, 0.0, 1.695770985460767E9, 0.0, 2023-09-26 18:29:45.460
210.0, 43857.74360391422, 58272.71887930857, -30082.788179253126, -19772.509607375814, -21882.55898744571, -3455.1103061569106, -187500.02235174447, -3547.0653828460436, 15689.784668658338, -23947.88252686054, -187500.02235174447, 2046.324556627817, -1864.716632928447, -7476.569113322391, 3840.1861596329404, -25323.163011451128, -0.06, 0.9460000000000001, 0.334, 192.0, 0.0, 0.0, 0.0, 0.0, 0.0, 0.0, 0.0, 0.0, 0.0, 1.695770985520477E9, 0.0, 2023-09-26 18:29:45.520
212.0, 43884.78921470514, 58184.54124743238, -30057.418949296352, -19736.47859531386, -21835.732082811843, -3429.6293174778602, -187500.02235174447, -3561.7504789531804, 15683.235607532932, -23957.02439034276, -187500.02235174447, 2022.3187830828172, -1852.8925601115895, -7476.636168555757, 3790.65469391998, -25338.093976747274, -0.064, 0.9460000000000001, 0.328, 192.0, 127.0, 0.0, 14.5, 72.0, 5.0, 32.0, 0.0, 0.0, 0.0, 1.695770985520485E9, 0.0, 2023-09-26 18:29:45.520
214.0, 43871.10994709849, 58246.00854468448, -30066.873737200945, -19761.557252592713, -21855.401617932515, -3439.8887681828464, -187500.02235174447, -3527.8205308700244, 15697.496020495419, -23939.54532617871, -187500.02235174447, 2052.203065419563, -1836.5757866592155, -7463.7615637495, 3821.164825101474, -25316.81511602582, -0.064, 0.9460000000000001, 0.328, 192.0, 0.0, 0.0, 0.0, 0.0, 0.0, 0.0, 0.0, 0.0, 0.0, 1.695770985520489E9, 0.0, 2023-09-26 18:29:45.520
216.0, 43862.526877227654, 58198.622846439226, -30066.98549592322, -19755.544633334237, -21848.964315529385, -3439.1735123602766, -187500.02235174447, -3573.529848281127, 15672.998508572402, -23959.326620021657, -187500.02235174447, 2023.0563906498423, -1870.617493464648, -7479.072508701385, 3806.949115627899, -25339.05510175885, -0.064, 0.9460000000000001, 0.328, 192.0, 0.0, 0.0, 0.0, 0.0, 0.0, 0.0, 0.0, 0.0, 0.0, 1.695770985520493E9, 0.0, 2023-09-26 18:29:45.520
218.0, 43854.770821901664, 58254.01046919948, -30077.535519306126, -19768.173368951484, -21862.732990113855, -3440.0452303940333, -187500.02235174447, -3535.1071995624543, 15687.840066890725, -23948.798948383206, -187500.02235174447, 2037.4732658235152, -1855.2171415349414, -7472.724613276078, 3818.750836700301, -25324.973502752007, -0.064, 0.9460000000000001, 0.328, 192.0, 0.0, 0.0, 0.0, 0.0, 0.0, 0.0, 0.0, 0.0, 0.0, 1.695770985520496E9, 0.0, 2023-09-26 18:29:45.520
220.0, 43868.56184823059, 58194.37601499272, -30052.210992838263, -19748.23561289735, -21836.827318290154, -3430.6574977228047, -187500.02235174447, -3576.6143890159597, 15682.520351710362, -23962.54527122322, -187500.02235174447, 2025.1798063730964, -1846.7011268974695, -7479.541895334947, 3813.4758250088485, -25335.657636601645, -0.064, 0.9460000000000001, 0.328, 192.0, 0.0, 0.0, 0.0, 0.0, 0.0, 0.0, 0.0, 0.0, 0.0, 1.6957709855205E9, 0.0, 2023-09-26 18:29:45.520
222.0, 43864.29266503962, 58232.82101545585, -30062.22457435424, -19764.99942123883, -21854.61930687658, -3433.831445435458, -187500.02235174447, -3525.6300599134042, 15692.511581481886, -23945.557945437187, -187500.02235174447, 2039.2167018910293, -1840.8896733390898, -7467.516656817992, 3822.6400402355243, -25315.58577008078, -0.062, 0.9480000000000001, 0.33, 192.0, 127.0, 8.0, 14.5, 80.0, 5.0, 40.0, 0.0, 0.0, 0.0, 1.695770985520503E9, 0.0, 2023-09-26 18:29:45.520
224.0, 43868.897124397416, 58199.00282609497, -30059.341199319508, -19753.421217610983, -21856.56390864419, -3438.9499949157234, -187500.02235174447, -3573.7757174701355, 15683.570883699762, -23957.650239187507, -187500.02235174447, 2027.482036051993, -1850.1432955435869, -7479.720709290589, 3820.3825140455383, -25332.617799355725, -0.062, 0.9480000000000001, 0.33, 192.0, 0.0, 0.0, 0.0, 0.0, 0.0, 0.0, 0.0, 0.0, 0.0, 1.695770985580662E9, 0.0, 2023-09-26 18:29:45.580
226.0, 43855.70959516878, 58242.0969894048, -30075.00977218268, -19774.610671354614, -21865.102275026118, -3451.0646404105, -187500.02235174447, -3536.738876907692, 15692.48922973743, -23948.463672216378, -187500.02235174447, 2029.896024453166, -1849.9868333323996, -7472.970482465087, 3803.5963539596028, -25329.10857547624, -0.062, 0.9480000000000001, 0.33, 192.0, 0.0, 0.0, 0.0, 0.0, 0.0, 0.0, 0.0, 0.0, 0.0, 1.695770985580676E9, 0.0, 2023-09-26 18:29:45.580
228.0, 43850.88161836644, 58226.786044452914, -30071.76876923666, -19758.204490924418, -21859.871966823575, -3451.489323555151, -187500.02235174447, -3582.5599530410714, 15670.651575404594, -23966.903861392006, -187500.02235174447, 2021.8940999381662, -1866.1918480624972, -7491.589485596358, 3815.0627988651754, -25346.744101851476, -0.062, 0.9480000000000001, 0.33, 192.0, 0.0, 0.0, 0.0, 0.0, 0.0, 0.0, 0.0, 0.0, 0.0, 1.695770985580679E9, 0.0, 2023-09-26 18:29:45.580
230.0, 43842.16443802887, 58241.22527137104, -30091.728877035246, -19776.421162655493, -21880.010888577806, -3453.053945667022, -187500.02235174447, -3551.7816009261137, 15686.834238390236, -23957.583183954142, -187500.02235174447, 2017.8931376806663, -1853.585464189704, -7478.424308112181, 3789.805327630678, -25336.842279057775, -0.062, 0.9480000000000001, 0.33, 192.0, 0.0, 0.0, 0.0, 0.0, 0.0, 0.0, 0.0, 0.0, 0.0, 1.695770985580683E9, 0.0, 2023-09-26 18:29:45.580
232.0, 43841.11390603947, 58242.49932080499, -30090.56658632357, -19767.078133473176, -21879.161522288505, -3455.8926172128463, -187500.02235174447, -3577.530810538627, 15667.81290385877, -23973.005887628304, -187500.02235174447, 2015.6356114906803, -1856.9829293469109, -7496.9539042656315, 3802.523470225748, -25356.78003511191, -0.066, 0.9480000000000001, 0.326, 192.0, 126.5, 120.0, 14.5, 80.0, 5.0, 24.0, 0.0, 0.0, 0.0, 1.695770985580686E9, 0.0, 2023-09-26 18:29:45.580
