%OpenBCI Raw EXG Data
%Number of channels = 16
%Sample Rate = 125 Hz
%Board = OpenBCI_GUI$BoardCytonSerialDaisy
Sample Index, EXG Channel 0, EXG Channel 1, EXG Channel 2, EXG Channel 3, EXG Channel 4, EXG Channel 5, EXG Channel 6, EXG Channel 7, EXG Channel 8, EXG Channel 9, EXG Channel 10, EXG Channel 11, EXG Channel 12, EXG Channel 13, EXG Channel 14, EXG Channel 15, Accel Channel 0, Accel Channel 1, Accel Channel 2, Other, Other, Other, Other, Other, Other, Other, Analog Channel 0, Analog Channel 1, Analog Channel 2, Timestamp, Other, Timestamp (Formatted)
0.0, 14884.51837116699, 18881.79259083183, 29622.945740574094, 14073.015936972612, 31485.114274634634, 5955.778772327754, -187500.02235174447, 35412.025202754165, 0.0, 0.0, 0.0, 0.0, 0.0, 0.0, 0.0, 0.0, 0.0, 0.0, 0.0, 192.0, 0.0, 0.0, 0.0, 0.0, 0.0, 0.0, 0.0, 0.0, 0.0, 1.695929659740693E9, 0.0, 2023-09-28 14:34:19.740
224.0, 14735.208718205538, 18902.3114922418, 29538.254980832935, 14112.958504314245, 31526.889685021604, 6000.526964727279, -187500.02235174447, 35448.190325282856, 16286.218617703751, -25420.46015506508, -187500.02235174447, 52901.527631464916, 25656.047541624015, -2791.2187923453803, 60737.69160958429, 30833.516220273523, 0.151, 0.47400000000000003, 0.136, 192.0, 4.5, 56.0, 14.5, 80.0, 4.0, 64.0, 0.0, 0.0, 0.0, 1.695929659740712E9, 0.0, 2023-09-28 14:34:19.740
226.0, 14881.657347876711, 18875.601157617708, 29627.95253133208, 14073.753544539637, 31473.13373960659, 5956.069345005673, -187500.02235174447, 35418.596615624025, 16285.525713625637, -25428.46207958008, -187500.02235174447, 52915.81039617186, 25650.236088065638, -2793.319856324179, 60720.659580309344, 30873.905822504265, 0.151, 0.47400000000000003, 0.136, 192.0, 0.0, 0.0, 0.0, 0.0, 0.0, 0.0, 0.0, 0.0, 0.0, 1.6959296597407253E9, 0.0, 2023-09-28 14:34:19.740
228.0, 14783.153210062172, 18895.74007937194, 29532.957617397027, 14106.632960633393, 31512.361051125656, 5991.966246600896, -187500.02235174447, 35430.59950239653, 16266.258509905161, -25440.263800652483, -187500.02235174447, 52894.19625928358, 25636.489765225622, -2800.5618215276986, 60755.908281315365, 30829.71642371612, 0.151, 0.47400000000000003, 0.136, 192.0, 0.0, 0.0, 0.0, 0.0, 0.0, 0.0, 0.0, 0.0, 0.0, 1.6959296597407367E9, 0.0, 2023-09-28 14:34:19.740
230.0, 14862.680716834155, 18895.02482354937, 29641.631798938728, 14103.995454787668, 31492.602109027164, 5981.036243562251, -187500.02235174447, 35447.69858690484, 16289.124344482942, -25425.578704545343, -187500.02235174447, 52911.49650949198, 25658.774454447564, -2770.0963938351147, 60697.30200735355, 30874.82224402693, 0.151, 0.47400000000000003, 0.136, 192.0, 0.0, 0.0, 0.0, 0.0, 0.0, 0.0, 0.0, 0.0, 0.0, 1.6959296597407486E9, 0.0, 2023-09-28 14:34:19.740
232.0, 14820.234754113526, 18892.767297359384, 29553.52122229591, 14111.706806624748, 31505.454362088964, 5992.5697437011895, -187500.02235174447, 35431.71708961929, 16275.959166998766, -25434.295884882915, -187500.02235174447, 52913.50816649296, 25641.809480405987, -2796.4043970590114, 60761.719734873746, 30851.44231932668, 0.151, 0.47400000000000003, 0.136, 192.0, 0.0, 0.0, 0.0, 0.0, 0.0, 0.0, 0.0, 0.0, 0.0, 1.6959296597407613E9, 0.0, 2023-09-28 14:34:19.740
234.0, 14846.162777681682, 18885.860608322695, 29639.91071461567, 14103.637826876382, 31491.70803924895, 5971.804973102209, -187500.02235174447, 35436.4109559549, 16295.204018974784, -25413.307596839382, -187500.02235174447, 52916.548003738884, 25660.294373070526, -2777.763042183285, 60684.27094033611, 30875.738665549597, 0.22849999999999998, 0.717, 0.202, 192.0, 4.5, 72.0, 15.0, 0.0, 4.0, 48.0, 0.0, 0.0, 0.0, 1.6959296597407725E9, 0.0, 2023-09-28 14:34:19.740
236.0, 14837.557356066389, 18901.640939908142, 29563.199527645058, 14118.837013105991, 31512.271644147833, 5998.895287382042, -187500.02235174447, 35436.835639099554, 16272.7405157972, -25437.000445962007, -187500.02235174447, 52920.23604157401, 25640.93776237223, -2790.727053967363, 60763.77609536363, 30856.5832205514, 0.22849999999999998, 0.717, 0.202, 192.0, 0.0, 0.0, 0.0, 0.0, 0.0, 0.0, 0.0, 0.0, 0.0, 1.6959296597407851E9, 0.0, 2023-09-28 14:34:19.740
238.0, 14839.323143878359, 18886.64291937863, 29635.552124446887, 14096.351158183952, 31479.012248398336, 5963.870103820575, -187500.02235174447, 35431.27005473019, 16286.8444665485, -25417.822649219353, -187500.02235174447, 52910.31186703585, 25649.721997943165, -2780.1993823289135, 60670.546969240546, 30864.808662510954, 0.22849999999999998, 0.717, 0.202, 192.0, 0.0, 0.0, 0.0, 0.0, 0.0, 0.0, 0.0, 0.0, 0.0, 1.6959296597407973E9, 0.0, 2023-09-28 14:34:19.740
240.0, 14879.444525175635, 18912.88386736916, 29576.007077217946, 14116.780652616102, 31501.14047540909, 5997.531830970268, -187500.02235174447, 35432.72291811978, 16281.591806601502, -25430.160812158683, -187500.02235174447, 52929.981402156525, 25638.970808860162, -2794.7280162248635, 60765.78775236461, 30853.789252494487, 0.22849999999999998, 0.717, 0.202, 192.0, 0.0, 0.0, 0.0, 0.0, 0.0, 0.0, 0.0, 0.0, 0.0, 1.6959296597408085E9, 0.0, 2023-09-28 14:34:19.740
242.0, 14837.914983977675, 18917.823602893783, 29643.621104195252, 14120.446338706774, 31484.153149623056, 5991.832136134164, -187500.02235174447, 35429.303101218116, 16307.542181914114, -25391.335832039815, -187500.02235174447, 52924.32641080933, 25661.12138761537, -2747.074097046149, 60664.735515682165, 30875.5374998495, 0.22849999999999998, 0.717, 0.202, 192.0, 0.0, 0.0, 0.0, 0.0, 0.0, 0.0, 0.0, 0.0, 0.0, 1.6959296597408197E9, 0.0, 2023-09-28 14:34:19.740
244.0, 14932.284049067981, 18934.296838557344, 29600.772810074428, 14119.328751484009, 31481.716809477428, 6003.030360106273, -187500.02235174447, 35415.28855744464, 16303.004777789687, -25390.01707911695, -187500.02235174447, 52956.87055073626, 25640.98246586114, -2755.9477395949057, 60773.47675245724, 30872.49766260358, 0.26325, 0.8394999999999999, 0.23900000000000002, 192.0, 4.5, 40.0, 15.0, 8.0, 4.0, 80.0, 0.0, 0.0, 0.0, 1.6959296597408311E9, 0.0, 2023-09-28 14:34:19.740
246.0, 14845.983963726041, 18920.192887806046, 29642.615275694763, 14117.764129372137, 31483.57200426722, 5998.5600112152115, -187500.02235174447, 35442.0659473021, 16307.966865058765, -25371.30866900786, -187500.02235174447, 52933.736495225014, 25654.08058811195, -2742.804913855185, 60670.47991400718, 30873.235270170604, 0.26325, 0.8394999999999999, 0.23900000000000002, 192.0, 0.0, 0.0, 0.0, 0.0, 0.0, 0.0, 0.0, 0.0, 0.0, 1.6959296597408462E9, 0.0, 2023-09-28 14:34:19.740
248.0, 14955.172235390215, 18911.118079557193, 29610.361708445755, 14094.69712909426, 31485.158978123545, 5982.600865674122, -187500.02235174447, 35407.264281185184, 16290.845428806, -25399.427163532637, -187500.02235174447, 52955.685908280124, 25636.355654758892, -2770.0963938351147, 60788.18420030883, 30874.95635449366, 0.26325, 0.8394999999999999, 0.23900000000000002, 192.0, 0.0, 0.0, 0.0, 0.0, 0.0, 0.0, 0.0, 0.0, 0.0, 1.6959296597408571E9, 0.0, 2023-09-28 14:34:19.740
250.0, 14809.617675497257, 18902.60206491972, 29626.566723175853, 14103.682530365293, 31502.14630390958, 5986.333606998159, -187500.02235174447, 35437.50619143322, 16299.495553910203, -25388.45245700508, -187500.02235174447, 52922.42651253063, 25657.27688756906, -2770.6551874464976, 60675.26318732062, 30858.14784266327, 0.26325, 0.8394999999999999, 0.23900000000000002, 192.0, 0.0, 0.0, 0.0, 0.0, 0.0, 0.0, 0.0, 0.0, 0.0, 1.695929659740868E9, 0.0, 2023-09-28 14:34:19.740
252.0, 14960.402543592758, 18893.281387481857, 29625.47148769754, 14083.096573721956, 31487.930594436002, 5981.5950371736335, -187500.02235174447, 35416.026165011666, 16285.816286303556, -25412.815858461367, -187500.02235174447, 52949.51682681046, 25642.189460061727, -2784.245048075324, 60784.630272940434, 30881.505415619067, 0.26325, 0.8394999999999999, 0.23900000000000002, 192.0, 0.0, 0.0, 0.0, 0.0, 0.0, 0.0, 0.0, 0.0, 0.0, 1.6959296597408793E9, 0.0, 2023-09-28 14:34:19.740
254.0, 14789.970492121041, 18899.137544529145, 29613.2897869694, 14093.579541871493, 31506.169617911535, 5989.440499477447, -187500.02235174447, 35436.29919723263, 16302.55774290058, -25391.492294251002, -187500.02235174447, 52922.918250908646, 25663.155396360806, -2752.036184315227, 60672.58097798598, 30862.349970620868, 0.272625, 0.8947499999999999, 0.2565, 192.0, 4.0, 104.0, 14.5, 88.0, 4.0, 72.0, 0.0, 0.0, 0.0, 1.6959296597408948E9, 0.0, 2023-09-28 14:34:19.740
0.0, 14949.472540554112, 18905.44073646554, 29635.172144791144, 14080.995509743156, 31500.581681797707, 5987.495897709835, -187500.02235174447, 35423.424592426374, 16292.812382318067, -25405.998576402497, -187500.02235174447, 52955.48474258003, 25649.051445609504, -2773.762079925785, 60768.87229309944, 30884.031162742518, 0.272625, 0.8947499999999999, 0.2565, 192.0, 0.0, 0.0, 0.0, 0.0, 0.0, 0.0, 0.0, 0.0, 0.0, 1.6959296597409065E9, 0.0, 2023-09-28 14:34:19.740
2.0, 14758.25336673896, 18902.289140497345, 29602.560949630853, 14093.758355827136, 31520.720603551938, 5990.155755300017, -187500.02235174447, 35443.38470022496, 16307.855106336488, -25383.110390080263, -187500.02235174447, 52924.460521276065, 25673.303088343513, -2752.4832192043327, 60676.11255360992, 30862.037046198497, 0.272625, 0.8947499999999999, 0.2565, 192.0, 0.0, 0.0, 0.0, 0.0, 0.0, 0.0, 0.0, 0.0, 0.0, 1.695929659740919E9, 0.0, 2023-09-28 14:34:19.740
4.0, 14931.76995894551, 18900.433945707555, 29642.235296039024, 14065.908082235825, 31495.016097428335, 5966.127630010561, -187500.02235174447, 35409.29828993062, 16295.673405608346, -25415.31925384036, -187500.02235174447, 52947.21459713156, 25655.891079412828, -2789.6318184890533, 60764.848979097485, 30875.224575427124, 0.272625, 0.8947499999999999, 0.2565, 192.0, 0.0, 0.0, 0.0, 0.0, 0.0, 0.0, 0.0, 0.0, 0.0, 1.6959296597409308E9, 0.0, 2023-09-28 14:34:19.740
6.0, 14751.167863746628, 18895.047175293825, 29585.19364418908, 14089.377413913897, 31510.550559824773, 5984.634874419556, -187500.02235174447, 35428.14081050644, 16302.691853367312, -25396.767305942456, -187500.02235174447, 52920.66072471866, 25664.384742305847, -2774.8573154040955, 60699.894809710364, 30843.753319234052, 0.272625, 0.8947499999999999, 0.2565, 192.0, 0.0, 0.0, 0.0, 0.0, 0.0, 0.0, 0.0, 0.0, 0.0, 1.6959296597409415E9, 0.0, 2023-09-28 14:34:19.740
8.0, 14914.603819203832, 18892.610835148196, 29641.11770881626, 14062.085933933966, 31489.76343748134, 5963.959510798396, -187500.02235174447, 35412.47223764327, 16301.194286488806, -25406.51266652497, -187500.02235174447, 52949.15919889918, 25658.28271606955, -2784.1332893530475, 60761.25034824018, 30876.364514394347, 0.2753125, 0.9183749999999999, 0.26525, 192.0, 4.0, 88.0, 14.5, 56.0, 4.0, 72.0, 0.0, 0.0, 0.0, 1.6959296597409527E9, 0.0, 2023-09-28 14:34:19.740
10.0, 14768.378706977215, 18872.851893049705, 29544.401710558144, 14055.44746583074, 31485.89658569057, 5963.311310209193, -187500.02235174447, 35402.950394505315, 16289.549027627592, -25428.730300513544, -187500.02235174447, 52907.09321583429, 25647.73269268664, -2798.058426148704, 60735.81406305004, 30832.353929561847, 0.2753125, 0.9183749999999999, 0.26525, 192.0, 0.0, 0.0, 0.0, 0.0, 0.0, 0.0, 0.0, 0.0, 0.0, 1.6959296597409637E9, 0.0, 2023-09-28 14:34:19.740
12.0, 14914.782633159475, 18886.35234670071, 29601.465714152542, 14049.1666256388, 31479.481635031898, 5958.326871195659, -187500.02235174447, 35404.693830572825, 16280.787143801112, -25425.109317911785, -187500.02235174447, 52922.87354741974, 25631.460622723178, -2796.4714522923773, 60774.3931739799, 30852.515203060535, 0.2753125, 0.9183749999999999, 0.26525, 192.0, 0.0, 0.0, 0.0, 0.0, 0.0, 0.0, 0.0, 0.0, 0.0, 1.6959296597409756E9, 0.0, 2023-09-28 14:34:19.740
14.0, 14763.975413319518, 18890.666233380583, 29515.74677416644, 14063.359983367918, 31499.41939108603, 5985.6407029200445, -187500.02235174447, 35415.98146152276, 16296.142792241908, -25418.426146319645, -187500.02235174447, 52917.84440491729, 25652.73948344463, -2772.152754325003, 60749.895662056886, 30842.4792698001, 0.2753125, 0.9183749999999999, 0.26525, 192.0, 0.0, 0.0, 0.0, 0.0, 0.0, 0.0, 0.0, 0.0, 0.0, 1.695929659740988E9, 0.0, 2023-09-28 14:34:19.740
16.0, 14897.907066095719, 18884.69831761102, 29599.476408896022, 14040.002410412124, 31471.837338428184, 5956.315214194681, -187500.02235174447, 35400.04466772612, 16293.41587941836, -25425.623408034255, -187500.02235174447, 52931.85894869077, 25642.055349594993, -2779.1935538284247, 60757.651717382876, 30865.68038054471, 0.2753125, 0.9183749999999999, 0.26525, 192.0, 0.0, 0.0, 0.0, 0.0, 0.0, 0.0, 0.0, 0.0, 0.0, 1.6959296597409985E9, 0.0, 2023-09-28 14:34:19.740
18.0, 14770.882102356209, 18899.048137551326, 29497.530102435365, 14068.836160759469, 31498.838245730192, 5988.009987832307, -187500.02235174447, 35410.281766686654, 16300.479030666236, -25421.93537019913, -187500.02235174447, 52919.72195145154, 25647.643285708822, -2789.02832138876, 60760.110409272966, 30836.75722321954, 0.28365625, 0.9261874999999999, 0.268625, 192.0, 4.5, 16.0, 14.5, 24.0, 4.0, 64.0, 0.0, 0.0, 0.0, 1.6959296597410097E9, 0.0, 2023-09-28 14:34:19.741
20.0, 14858.255071432004, 18895.60596890521, 29582.556138343352, 14062.376506611885, 31477.447626286463, 5965.211208487894, -187500.02235174447, 35412.09225798753, 16314.091243039518, -25418.917884697665, -187500.02235174447, 52928.21561434455, 25654.84054742343, -2789.02832138876, 60704.49926906816, 30866.641505556287, 0.28365625, 0.9261874999999999, 0.268625, 192.0, 0.0, 0.0, 0.0, 0.0, 0.0, 0.0, 0.0, 0.0, 0.0, 1.695929659741034E9, 0.0, 2023-09-28 14:34:19.741
22.0, 14791.6915764441, 18893.59431190423, 29483.716724361984, 14083.811829544526, 31501.22988238691, 5996.101319325128, -187500.02235174447, 35419.17776097987, 16292.231236962229, -25432.016006948474, -187500.02235174447, 52927.16508235515, 25642.63649495083, -2792.5822487571536, 60746.56525213305, 30850.414139081735, 0.28365625, 0.9261874999999999, 0.268625, 192.0, 0.0, 0.0, 0.0, 0.0, 0.0, 0.0, 0.0, 0.0, 0.0, 1.6959296597410452E9, 0.0, 2023-09-28 14:34:19.741
24.0, 14843.435864858135, 18887.671099623574, 29579.113969697235, 14077.530989352583, 31483.057914144745, 5974.777755114765, -187500.02235174447, 35421.457638914304, 16304.927027812842, -25419.007291675483, -187500.02235174447, 52934.71997198105, 25655.64521022382, -2782.2333910743464, 60677.54306525506, 30876.409217883258, 0.28365625, 0.9261874999999999, 0.268625, 192.0, 0.0, 0.0, 0.0, 0.0, 0.0, 0.0, 0.0, 0.0, 0.0, 1.6959296597410555E9, 0.0, 2023-09-28 14:34:19.741
26.0, 14827.253201872492, 18894.957768316006, 29488.6117563977, 14087.87984703539, 31503.80033299927, 5989.395795988536, -187500.02235174447, 35404.47031312827, 16285.592768859002, -25441.873126253264, -187500.02235174447, 52925.37694279873, 25639.283733282537, -2804.026341918271, 60763.91020583036, 30851.934057704697, 0.28365625, 0.9261874999999999, 0.268625, 192.0, 0.0, 0.0, 0.0, 0.0, 0.0, 0.0, 0.0, 0.0, 0.0, 1.6959296597410665E9, 0.0, 2023-09-28 14:34:19.741
28.0, 14834.383408353737, 18891.202675247514, 29570.732065526496, 14090.942036025768, 31495.597242784173, 5978.75636562781, -187500.02235174447, 35418.93189179085, 16298.42267017635, -25421.309521354382, -187500.02235174447, 52916.36918978324, 25656.204003835202, -2770.811649657685, 60684.53916126957, 30866.462691600645, 0.296828125, 0.94009375, 0.2743125, 192.0, 4.5, 88.0, 14.5, 104.0, 4.0, 96.0, 0.0, 0.0, 0.0, 1.695929659741079E9, 0.0, 2023-09-28 14:34:19.741
30.0, 14852.801245784909, 18900.411593963097, 29509.063602574304, 14106.632960633393, 31504.493237077386, 5995.587229202656, -187500.02235174447, 35415.7579440782, 16293.684100351824, -25425.55635280089, -187500.02235174447, 52936.418704559655, 25646.235125808136, -2795.59973425862, 60769.252272755184, 30859.466595586135, 0.296828125, 0.94009375, 0.2743125, 192.0, 0.0, 0.0, 0.0, 0.0, 0.0, 0.0, 0.0, 0.0, 0.0, 1.6959296597410915E9, 0.0, 2023-09-28 14:34:19.741
32.0, 14809.371806308247, 18902.691471897542, 29582.28791740989, 14112.623228147415, 31501.341641109186, 5991.049825078228, -187500.02235174447, 35428.56549365109, 16302.982426045231, -25400.187122844116, -187500.02235174447, 52925.019314887446, 25659.60146899241, -2769.0905653346263, 60670.681079707276, 30866.82031951193, 0.296828125, 0.94009375, 0.2743125, 192.0, 0.0, 0.0, 0.0, 0.0, 0.0, 0.0, 0.0, 0.0, 0.0, 1.6959296597411032E9, 0.0, 2023-09-28 14:34:19.741
34.0, 14871.04026926044, 18924.35031227473, 29536.2209720875, 14130.437568478295, 31511.534036580808, 6011.434616021468, -187500.02235174447, 35434.44400244284, 16299.674367865846, -25404.45630603508, -187500.02235174447, 52957.451696092096, 25652.44891076671, -2773.873838648062, 60779.28820601562, 30870.083674202404, 0.296828125, 0.94009375, 0.2743125, 192.0, 0.0, 0.0, 0.0, 0.0, 0.0, 0.0, 0.0, 0.0, 0.0, 1.6959296597411144E9, 0.0, 2023-09-28 14:34:19.741
36.0, 14781.275663527926, 18925.691416942052, 29579.024562719413, 14139.17710056032, 31509.075344690722, 6003.2538775508265, -187500.02235174447, 35435.047499543136, 16317.108728540985, -25375.64490743219, -187500.02235174447, 52944.375925585744, 25674.46537905519, -2751.9467773374054, 60662.70150693673, 30871.268316658538, 0.296828125, 0.94009375, 0.2743125, 192.0, 0.0, 0.0, 0.0, 0.0, 0.0, 0.0, 0.0, 0.0, 0.0, 1.6959296597411256E9, 0.0, 2023-09-28 14:34:19.741
38.0, 14876.51644665199, 18937.850765925738, 29549.43085306059, 14138.215975548743, 31514.99855697138, 6012.6416102220555, -187500.02235174447, 35431.9629588083, 16306.245780735706, -25397.191989087107, -187500.02235174447, 52965.543027584914, 25659.333248058945, -2778.031263116749, 60768.24644425469, 30869.323714890925, 0.30641406250000003, 0.946046875, 0.27715625, 192.0, 4.5, 112.0, 14.5, 96.0, 4.0, 96.0, 0.0, 0.0, 0.0, 1.6959296597411363E9, 0.0, 2023-09-28 14:34:19.741
40.0, 14768.937500588598, 18918.874134883183, 29578.778693530407, 14137.098388325978, 31507.108391178655, 5999.14115657105, -187500.02235174447, 35430.33128146306, 16315.231182006739, -25384.87617789223, -187500.02235174447, 52935.41287605916, 25673.571309276977, -2756.7300506508413, 60653.58199519897, 30863.780482266007, 0.30641406250000003, 0.946046875, 0.27715625, 192.0, 0.0, 0.0, 0.0, 0.0, 0.0, 0.0, 0.0, 0.0, 0.0, 1.6959296597411487E9, 0.0, 2023-09-28 14:34:19.741
42.0, 14915.140261070761, 18929.155937332624, 29567.625173047207, 14125.78840563159, 31503.845036488183, 6006.874860152586, -187500.02235174447, 35410.95231902031, 16296.70158585329, -25400.231826333027, -187500.02235174447, 52953.94247221261, 25649.967867132174, -2762.094469320115, 60775.57781643604, 30875.06811321594, 0.30641406250000003, 0.946046875, 0.27715625, 192.0, 0.0, 0.0, 0.0, 0.0, 0.0, 0.0, 0.0, 0.0, 0.0, 1.6959296597411592E9, 0.0, 2023-09-28 14:34:19.741
44.0, 14785.947178119086, 18905.910123099104, 29563.959486956537, 14119.351103228462, 31494.881986961605, 5983.159659285505, -187500.02235174447, 35415.7579440782, 16309.710301126279, -25380.092904578796, -187500.02235174447, 52915.81039617186, 25667.849262696418, -2759.814591385674, 60671.306928552025, 30857.745511263078, 0.30641406250000003, 0.946046875, 0.27715625, 192.0, 0.0, 0.0, 0.0, 0.0, 0.0, 0.0, 0.0, 0.0, 0.0, 1.69592965974117E9, 0.0, 2023-09-28 14:34:19.741
46.0, 14957.809741235942, 18920.103480828224, 29577.504644096454, 14111.907972324845, 31495.418428828532, 5981.349167984626, -187500.02235174447, 35400.782275293146, 16292.186533473317, -25404.746878713, -187500.02235174447, 52929.86964343425, 25645.855146152397, -2799.3324755826566, 60783.088002573015, 30863.28874388799, 0.30641406250000003, 0.946046875, 0.27715625, 192.0, 0.0, 0.0, 0.0, 0.0, 0.0, 0.0, 0.0, 0.0, 0.0, 1.6959296597411807E9, 0.0, 2023-09-28 14:34:19.741
48.0, 14791.78098342192, 18918.02476859388, 29556.494004308464, 14133.790330146592, 31514.99855697138, 5999.5658397157, -187500.02235174447, 35430.08541227406, 16303.474164423247, -25384.719715681043, -187500.02235174447, 52897.30315176286, 25661.613125993386, -2769.6493589460088, 60690.82000146151, 30847.173136135716, 0.30020703125000003, 0.9450234375, 0.279578125, 192.0, 4.5, 24.0, 14.5, 64.0, 4.0, 104.0, 0.0, 0.0, 0.0, 1.6959296597411914E9, 0.0, 2023-09-28 14:34:19.741
50.0, 14957.072133668917, 18925.713768686506, 29601.19749321908, 14115.528954926605, 31502.258062631856, 5987.205325031916, -187500.02235174447, 35407.77837130766, 16303.362405700971, -25380.696401679088, -187500.02235174447, 52932.01541090196, 25657.299239313514, -2774.700853192908, 60769.98988032221, 30878.10795046186, 0.30020703125000003, 0.9450234375, 0.279578125, 192.0, 0.0, 0.0, 0.0, 0.0, 0.0, 0.0, 0.0, 0.0, 0.0, 1.6959296597412024E9, 0.0, 2023-09-28 14:34:19.741
52.0, 14770.59152967829, 18925.98198961997, 29555.287010107877, 14129.208222533254, 31520.586493085208, 5996.168374558494, -187500.02235174447, 35430.554798907615, 16316.102900040496, -25357.87527059022, -187500.02235174447, 52901.81820414284, 25674.532434288554, -2748.102277291093, 60681.83460019048, 30850.14591814827, 0.30020703125000003, 0.9450234375, 0.279578125, 192.0, 0.0, 0.0, 0.0, 0.0, 0.0, 0.0, 0.0, 0.0, 0.0, 1.695929659741213E9, 0.0, 2023-09-28 14:34:19.741
54.0, 14933.803967690941, 18930.631152466674, 29614.787353847907, 14116.154803771355, 31510.483504591408, 5987.495897709835, -187500.02235174447, 35412.807513810105, 16307.385719702927, -25374.30380276487, -187500.02235174447, 52924.99696314299, 25660.204966092704, -2774.544390981721, 60749.31451670105, 30875.11281670485, 0.30020703125000003, 0.9450234375, 0.279578125, 192.0, 0.0, 0.0, 0.0, 0.0, 0.0, 0.0, 0.0, 0.0, 0.0, 1.6959296597412255E9, 0.0, 2023-09-28 14:34:19.741
56.0, 14753.514796914435, 18927.613666965208, 29552.89537345116, 14126.481309709707, 31524.319234409242, 5996.570705958689, -187500.02235174447, 35426.68794711685, 16322.763719888178, -25360.06574154684, -187500.02235174447, 52901.438224487094, 25679.42746632427, -2749.1081057915817, 60693.7257282407, 30851.10704315985, 0.30020703125000003, 0.9450234375, 0.279578125, 192.0, 0.0, 0.0, 0.0, 0.0, 0.0, 0.0, 0.0, 0.0, 0.0, 1.6959296597412364E9, 0.0, 2023-09-28 14:34:19.741
58.0, 14914.983798859574, 18923.143318074148, 29628.131345287722, 14104.196620487764, 31504.694402777484, 5968.183990500449, -187500.02235174447, 35410.2594149422, 16316.952266329798, -25387.513683737958, -187500.02235174447, 52922.89589916419, 25664.161224861295, -2777.8971526500172, 60744.06185675405, 30874.039932970994, 0.28810351562500003, 0.94151171875, 0.2797890625, 192.0, 4.0, 80.0, 14.5, 40.0, 4.0, 96.0, 0.0, 0.0, 0.0, 1.6959296597412472E9, 0.0, 2023-09-28 14:34:19.741
60.0, 14754.990012048485, 18912.88386736916, 29542.546515768354, 14116.713597382737, 31520.76530704085, 5983.360824985603, -187500.02235174447, 35415.08739174454, 16311.118461026963, -25373.20856728656, -187500.02235174447, 52899.65008493067, 25669.950326675218, -2776.8242689161625, 60722.15714718785, 30838.791231964977, 0.28810351562500003, 0.94151171875, 0.2797890625, 192.0, 0.0, 0.0, 0.0, 0.0, 0.0, 0.0, 0.0, 0.0, 0.0, 1.695929659741258E9, 0.0, 2023-09-28 14:34:19.741
62.0, 14898.309397495914, 18919.432928494567, 29630.791202877906, 14104.911876310334, 31507.46601908994, 5973.5484091697235, -187500.02235174447, 35411.84638879853, 16304.725862112746, -25380.763456912453, -187500.02235174447, 52925.57810849883, 25659.288544570038, -2786.256705076302, 60745.201795721274, 30868.072017201426, 0.28810351562500003, 0.94151171875, 0.2797890625, 192.0, 0.0, 0.0, 0.0, 0.0, 0.0, 0.0, 0.0, 0.0, 0.0, 1.6959296597412703E9, 0.0, 2023-09-28 14:34:19.741
64.0, 14755.615860893235, 18933.000437378938, 29547.687416993074, 14128.202394032765, 31531.225923445934, 6002.6056769616225, -187500.02235174447, 35424.8104005826, 16321.84729836551, -25368.313535250847, -187500.02235174447, 52925.42164628764, 25678.55574829051, -2766.341300766623, 60743.6371736094, 30852.40344433826, 0.28810351562500003, 0.94151171875, 0.2797890625, 192.0, 0.0, 0.0, 0.0, 0.0, 0.0, 0.0, 0.0, 0.0, 0.0, 1.6959296597412813E9, 0.0, 2023-09-28 14:34:19.741
66.0, 14869.967385526585, 18925.22203030849, 29639.776604148938, 14102.833164075992, 31499.84407423068, 5969.882723079053, -187500.02235174447, 35410.52763587566, 16319.008626819686, -25367.553575939368, -187500.02235174447, 52931.41191380166, 25670.486768542145, -2765.313120521679, 60733.71299907124, 30870.64246781379, 0.28810351562500003, 0.94151171875, 0.2797890625, 192.0, 0.0, 0.0, 0.0, 0.0, 0.0, 0.0, 0.0, 0.0, 0.0, 1.695929659741294E9, 0.0, 2023-09-28 14:34:19.741
68.0, 14777.051183825874, 18931.234649566966, 29537.629131988186, 14119.976952073212, 31516.987862227903, 5994.536697213256, -187500.02235174447, 35412.22636845426, 16306.066966780063, -25384.362087769758, -187500.02235174447, 52917.37501828373, 25657.83568118044, -2775.393757271023, 60773.230883268225, 30834.030310395996, 0.2830517578125, 0.9407558593750001, 0.27689453125, 192.0, 4.0, 88.0, 14.5, 48.0, 4.0, 72.0, 0.0, 0.0, 0.0, 1.6959296597413044E9, 0.0, 2023-09-28 14:34:19.741
70.0, 14848.040324215928, 18918.98589360546, 29631.349996489287, 14109.315169968031, 31494.814931728237, 5973.660167892, -187500.02235174447, 35411.51111263169, 16315.342940729017, -25380.897567379187, -187500.02235174447, 52925.39929454319, 25666.46345454019, -2766.8553908890954, 60722.134795443395, 30865.635677055798, 0.2830517578125, 0.9407558593750001, 0.27689453125, 192.0, 0.0, 0.0, 0.0, 0.0, 0.0, 0.0, 0.0, 0.0, 0.0, 1.6959296597413156E9, 0.0, 2023-09-28 14:34:19.741
72.0, 14804.163849850162, 18921.355178517722, 29541.674797734595, 14113.785518859091, 31511.33287088071, 5988.948761099429, -187500.02235174447, 35399.463522370286, 16303.027129534143, -25393.30278555188, -187500.02235174447, 52925.10872186527, 25656.092245112926, -2787.2625335767907, 60785.72550841874, 30836.980740664094, 0.2830517578125, 0.9407558593750001, 0.27689453125, 192.0, 0.0, 0.0, 0.0, 0.0, 0.0, 0.0, 0.0, 0.0, 0.0, 1.6959296597413263E9, 0.0, 2023-09-28 14:34:19.741
74.0, 14840.261917145483, 18907.519448699888, 29617.24604573799, 14106.163573999833, 31493.205606127456, 5965.211208487894, -187500.02235174447, 35407.66661258538, 16304.904676068387, -25392.83339891832, -187500.02235174447, 52910.0883495913, 25662.618954493875, -2784.893248664528, 60721.97833323221, 30854.86213622834, 0.2830517578125, 0.9407558593750001, 0.27689453125, 192.0, 0.0, 0.0, 0.0, 0.0, 0.0, 0.0, 0.0, 0.0, 0.0, 1.695929659741337E9, 0.0, 2023-09-28 14:34:19.741
76.0, 14833.22111764206, 18918.918838372094, 29527.772012683396, 14117.31709448303, 31511.75755402536, 5988.99346458834, -187500.02235174447, 35401.49753111572, 16290.308986939071, -25404.992747902008, -187500.02235174447, 52909.95423912457, 25642.278867039546, -2796.605562759109, 60810.4018342974, 30841.987531422084, 0.2830517578125, 0.9407558593750001, 0.27689453125, 192.0, 0.0, 0.0, 0.0, 0.0, 0.0, 0.0, 0.0, 0.0, 0.0, 1.6959296597413476E9, 0.0, 2023-09-28 14:34:19.741
78.0, 14815.607943011279, 18911.07337606828, 29608.14888574468, 14113.226725247709, 31497.497141062875, 5973.682519636455, -187500.02235174447, 35415.13209523346, 16316.482879696237, -25398.60014898779, -187500.02235174447, 52906.2885530339, 25665.23410859515, -2775.3714055265673, 60709.10372842595, 30863.422854354725, 0.29152587890625004, 0.9403779296875001, 0.276447265625, 192.0, 4.5, 48.0, 14.5, 48.0, 4.0, 80.0, 0.0, 0.0, 0.0, 1.69592965974136E9, 0.0, 2023-09-28 14:34:19.741
80.0, 14857.696277820622, 18919.567038961297, 29536.13156510968, 14118.166460772332, 31505.744934766884, 5984.545467441734, -187500.02235174447, 35395.01552522368, 16295.22637071924, -25426.875105723753, -187500.02235174447, 52913.70933219306, 25642.480032739644, -2790.749405711819, 60815.0062936552, 30846.502583802056, 0.29152587890625004, 0.9403779296875001, 0.276447265625, 192.0, 0.0, 0.0, 0.0, 0.0, 0.0, 0.0, 0.0, 0.0, 0.0, 1.695929659741372E9, 0.0, 2023-09-28 14:34:19.741
82.0, 14796.318387546347, 18902.98204457546, 29592.81558904834, 14124.760225386648, 31496.625423029116, 5981.818554618187, -187500.02235174447, 35414.70741208881, 16312.548972672103, -25420.013120175972, -187500.02235174447, 52896.99022734049, 25661.88134692685, -2785.3626352980896, 60701.101803910955, 30850.90587745975, 0.29152587890625004, 0.9403779296875001, 0.276447265625, 192.0, 0.0, 0.0, 0.0, 0.0, 0.0, 0.0, 0.0, 0.0, 0.0, 1.6959296597413836E9, 0.0, 2023-09-28 14:34:19.741
84.0, 14873.051926261418, 18914.381434247665, 29539.663140733617, 14127.174213787821, 31498.41356258554, 5992.145060556539, -187500.02235174447, 35400.8046270376, 16304.055309779085, -25423.45528882209, -187500.02235174447, 52924.41581778715, 25647.777396175552, -2797.0525976482154, 60798.37659578045, 30859.77952000851, 0.29152587890625004, 0.9403779296875001, 0.276447265625, 192.0, 0.0, 0.0, 0.0, 0.0, 0.0, 0.0, 0.0, 0.0, 0.0, 1.6959296597413952E9, 0.0, 2023-09-28 14:34:19.741
86.0, 14785.567198463345, 18906.290102754843, 29574.397751617165, 14125.453129464762, 31488.154111880558, 5982.220886018382, -187500.02235174447, 35405.90082477341, 16310.336149971028, -25407.607902003278, -187500.02235174447, 52904.65687568866, 25654.72878870115, -2787.3295888101566, 60682.88513217988, 30856.940848462684, 0.29152587890625004, 0.9403779296875001, 0.276447265625, 192.0, 0.0, 0.0, 0.0, 0.0, 0.0, 0.0, 0.0, 0.0, 0.0, 1.6959296597414067E9, 0.0, 2023-09-28 14:34:19.741
88.0, 14900.030481818972, 18923.143318074148, 29548.313265837824, 14130.884603367402, 31497.899472463072, 5984.768984886287, -187500.02235174447, 35385.09135068552, 16295.114611996964, -25420.370748087258, -187500.02235174447, 52935.32346908134, 25634.053425079994, -2792.6269522460643, 60797.50487774669, 30861.321790375925, 0.30076293945312504, 0.94418896484375, 0.2792236328125, 192.0, 4.5, 88.0, 14.5, 80.0, 4.0, 104.0, 0.0, 0.0, 0.0, 1.695929659741418E9, 0.0, 2023-09-28 14:34:19.741
0.0, 7368.252559691973, 9450.831645826298, 14818.826594212842, 7014.312686242186, 15808.159507293643, 2894.5285552178093, -93750.01117587223, 17445.044808989147, 8162.968833800416, -12696.550809925891, -93750.01117587223, 26454.496557056496, 12834.237555770584, -1384.51175505063, 30339.877943978066, 15422.726025906328, 0.28238146972656253, 0.9500944824218751, 0.26961181640625, 192.0, 4.0, 32.0, 14.5, 112.0, 4.0, 16.0, 0.0, 0.0, 0.0, 1.6959296603309426E9, 0.0, 2023-09-28 14:34:20.330
2.0, 14630.468443687969, 18892.409669448098, 29670.219680097067, 14036.20261385472, 31610.619319751182, 5787.224267390284, -187500.02235174447, 34916.75524911347, 16459.01995408773, -25373.49913996448, -187500.02235174447, 52941.00081217299, 25694.42548685378, -2760.9545303528944, 64738.34094266188, 30824.754336447044, 0.28238146972656253, 0.9500944824218751, 0.26961181640625, 192.0, 0.0, 0.0, 0.0, 0.0, 0.0, 0.0, 0.0, 0.0, 0.0, 1.6959296603309753E9, 0.0, 2023-09-28 14:34:20.330
4.0, 14795.714890446056, 18890.777992102863, 29681.21673836908, 14015.996636867123, 31583.797226404815, 5773.589703272546, -187500.02235174447, 34890.648411589675, 16450.34747723907, -25384.63030870322, -187500.02235174447, 52968.31464389738, 25678.46634131269, -2772.1080508360924, 64836.442749076225, 30845.519107046024, 0.28238146972656253, 0.9500944824218751, 0.26961181640625, 192.0, 0.0, 0.0, 0.0, 0.0, 0.0, 0.0, 0.0, 0.0, 0.0, 1.6959296603309953E9, 0.0, 2023-09-28 14:34:20.330
6.0, 14615.403367925093, 18898.64580615113, 29659.44613926961, 14046.283250604065, 31623.762145490906, 5798.981284973775, -187500.02235174447, 34917.76107761396, 16457.723552909323, -25365.07253230483, -187500.02235174447, 52927.52271026644, 25693.263196142103, -2755.254835516791, 64732.350675147856, 30821.736850945577, 0.28238146972656253, 0.9500944824218751, 0.26961181640625, 192.0, 0.0, 0.0, 0.0, 0.0, 0.0, 0.0, 0.0, 0.0, 0.0, 1.6959296603310127E9, 0.0, 2023-09-28 14:34:20.331
8.0, 14787.221227553038, 18902.870285853183, 29704.797828769428, 14031.240526585643, 31608.250034838922, 5782.642159776946, -187500.02235174447, 34896.70573433706, 16450.883919106, -25372.15803529716, -187500.02235174447, 52959.1504286707, 25679.718039002186, -2768.062385089682, 64807.988978384616, 30853.409272838748, 0.228, 0.962, 0.254, 192.0, 3.5, 16.0, 15.0, 8.0, 3.5, 120.0, 0.0, 0.0, 0.0, 1.6959296603310297E9, 0.0, 2023-09-28 14:34:20.331
10.0, 14604.40630965308, 18909.061719067304, 29661.122520103756, 14057.302660620531, 31630.847648483235, 5805.284476910171, -187500.02235174447, 34931.06036556487, 16467.155989069463, -25348.24166872998, -187500.02235174447, 52934.585861514315, 25701.399231123833, -2739.7203731203526, 64732.82006178142, 30840.5793715214, 0.228, 0.962, 0.254, 192.0, 0.0, 0.0, 0.0, 0.0, 0.0, 0.0, 0.0, 0.0, 0.0, 1.695929660331046E9, 0.0, 2023-09-28 14:34:20.331
12.0, 14776.917073359142, 18903.60789342021, 29720.511105121506, 14036.537890021551, 31602.103305113713, 5775.802525973621, -187500.02235174447, 34897.24217620399, 16453.409666229447, -25367.933555595107, -187500.02235174447, 52956.8481989918, 25680.45564656921, -2760.9768820973495, 64791.51574272106, 30861.098272931373, 0.228, 0.962, 0.254, 192.0, 0.0, 0.0, 0.0, 0.0, 0.0, 0.0, 0.0, 0.0, 0.0, 1.6959296603310628E9, 0.0, 2023-09-28 14:34:20.331
14.0, 14613.883449302131, 18900.612759663196, 29654.01466536697, 14047.691410504749, 31618.956520433014, 5788.1853924018615, -187500.02235174447, 34906.76401934195, 16447.30763999315, -25354.857785088752, -187500.02235174447, 52930.406085301176, 25683.07080067048, -2759.0769838186484, 64749.91914628973, 30826.631882981288, 0.228, 0.962, 0.254, 192.0, 0.0, 0.0, 0.0, 0.0, 0.0, 0.0, 0.0, 0.0, 0.0, 1.6959296603310804E9, 0.0, 2023-09-28 14:34:20.331
16.0, 14764.333041230804, 18911.40865223511, 29738.191334985655, 14050.440675072752, 31615.424944809074, 5788.81124124661, -187500.02235174447, 34919.63862414821, 16457.54473895368, -25349.11338676374, -187500.02235174447, 52957.92108272566, 25684.434257082255, -2761.2674547752686, 64780.27281526003, 30861.67941828721, 0.228, 0.962, 0.254, 192.0, 0.0, 0.0, 0.0, 0.0, 0.0, 0.0, 0.0, 0.0, 0.0, 1.6959296603310976E9, 0.0, 2023-09-28 14:34:20.331
18.0, 14606.7979463098, 18910.291065012345, 29657.255668312988, 14067.070372947499, 31634.558038062816, 5807.631410077979, -187500.02235174447, 34926.96999632955, 16465.8372361466, -25336.685816846588, -187500.02235174447, 52938.74328598301, 25693.486713586655, -2749.421030213956, 64766.97352730913, 30838.05362439795, 0.216, 0.974, 0.26, 192.0, 3.0, 96.0, 15.0, 56.0, 4.0, 16.0, 0.0, 0.0, 0.0, 1.6959296603311136E9, 0.0, 2023-09-28 14:34:20.331
20.0, 14741.467206653024, 18902.512657941897, 29752.854079348337, 14053.726381507682, 31616.766049476395, 5782.128069654474, -187500.02235174447, 34914.36361245676, 16465.859587891053, -25349.87334607522, -187500.02235174447, 52951.997870445004, 25695.163094420805, -2760.1722192969587, 64768.202873254166, 30863.959296221652, 0.216, 0.974, 0.26, 192.0, 0.0, 0.0, 0.0, 0.0, 0.0, 0.0, 0.0, 0.0, 0.0, 1.6959296603311293E9, 0.0, 2023-09-28 14:34:20.331
22.0, 14643.007772327397, 18910.514582456897, 29671.35961906429, 14068.053849703534, 31630.60177929423, 5802.579915831079, -187500.02235174447, 34908.552158898376, 16452.62735517351, -25350.052160030864, -187500.02235174447, 52941.649012762195, 25690.69274552974, -2765.1343065660367, 64810.51472550807, 30833.49386852907, 0.216, 0.974, 0.26, 192.0, 0.0, 0.0, 0.0, 0.0, 0.0, 0.0, 0.0, 0.0, 0.0, 1.6959296603311453E9, 0.0, 2023-09-28 14:34:20.331
24.0, 14744.708209599044, 18911.58746619075, 29770.199033045654, 14068.791457270558, 31627.137258903655, 5793.728625026778, -187500.02235174447, 34919.88449333722, 16470.39699201548, -25329.95794176554, -187500.02235174447, 52967.95701598609, 25701.958024735217, -2747.9905185688162, 64783.513818206055, 30861.232383398103, 0.216, 0.974, 0.26, 192.0, 0.0, 0.0, 0.0, 0.0, 0.0, 0.0, 0.0, 0.0, 0.0, 1.6959296603311603E9, 0.0, 2023-09-28 14:34:20.331
26.0, 14663.19139757054, 18931.54757398934, 29681.59671802482, 14087.611626101927, 31642.9175904891, 5824.462273652825, -187500.02235174447, 34929.495743453, 16474.040326361697, -25331.321398177315, -187500.02235174447, 52960.044498448915, 25705.176675936782, -2740.8156085986625, 64830.40777807329, 30852.023464682516, 0.216, 0.974, 0.26, 192.0, 0.0, 0.0, 0.0, 0.0, 0.0, 0.0, 0.0, 0.0, 0.0, 1.6959296603311772E9, 0.0, 2023-09-28 14:34:20.331
28.0, 14740.39432291917, 18916.102518570726, 29781.061980850936, 14058.77787575458, 31622.868075712693, 5789.772366258188, -187500.02235174447, 34916.643490391194, 16479.60591073107, -25320.01141548293, -187500.02235174447, 52968.24758866401, 25713.08919347396, -2732.0760765166374, 64775.86952160234, 30878.197357439683, 0.202, 0.972, 0.264, 192.0, 3.0, 40.0, 15.0, 48.0, 4.0, 32.0, 0.0, 0.0, 0.0, 1.6959296603311934E9, 0.0, 2023-09-28 14:34:20.331
30.0, 14709.571267315301, 18913.397957491634, 29678.087494145337, 14053.301698363031, 31634.289817129353, 5799.808299518621, -187500.02235174447, 34909.06624902085, 16449.34164873858, -25357.405883956657, -187500.02235174447, 52937.42453306014, 25685.03775418255, -2762.675614675953, 64869.07629598097, 30836.220781352615, 0.202, 0.972, 0.264, 192.0, 0.0, 0.0, 0.0, 0.0, 0.0, 0.0, 0.0, 0.0, 0.0, 1.6959296603312087E9, 0.0, 2023-09-28 14:34:20.331
32.0, 14716.947342985553, 18908.12294580018, 29760.431320718686, 14044.1151313919, 31614.48617154195, 5784.184430144362, -187500.02235174447, 34916.06234503536, 16471.559282727158, -25327.05221498635, -187500.02235174447, 52928.90851842267, 25709.758783550118, -2744.481294689333, 64778.93171059272, 30862.126453176315, 0.202, 0.972, 0.264, 192.0, 0.0, 0.0, 0.0, 0.0, 0.0, 0.0, 0.0, 0.0, 0.0, 1.695929660331224E9, 0.0, 2023-09-28 14:34:20.331
34.0, 14718.646075564156, 18913.50971621391, 29674.44415979912, 14040.82942495697, 31626.86903797019, 5789.995883702742, -187500.02235174447, 34897.778618070915, 16454.393142985482, -25344.35246519476, -187500.02235174447, 52919.92311715164, 25688.74814376213, -2772.800954914207, 64872.719630327185, 30839.23826685408, 0.202, 0.972, 0.264, 192.0, 0.0, 0.0, 0.0, 0.0, 0.0, 0.0, 0.0, 0.0, 0.0, 1.6959296603312387E9, 0.0, 2023-09-28 14:34:20.331
36.0, 14691.868685706699, 18905.21721902099, 29744.89685832225, 14040.471797045684, 31613.703860486017, 5778.328273097071, -187500.02235174447, 34907.993365286995, 16468.69825943688, -25339.323322692315, -187500.02235174447, 52900.79002389789, 25705.623710825887, -2752.930254093439, 64757.25051847107, 30846.793156479976, 0.202, 0.972, 0.264, 192.0, 0.0, 0.0, 0.0, 0.0, 0.0, 0.0, 0.0, 0.0, 0.0, 1.6959296603312533E9, 0.0, 2023-09-28 14:34:20.331
38.0, 14736.035732750384, 18916.683663926564, 29676.701685989105, 14044.003372669624, 31635.67562528558, 5794.734453527267, -187500.02235174447, 34902.91951929564, 16451.956802839853, -25366.324229994327, -187500.02235174447, 52902.17583205412, 25683.808408237506, -2780.4005480290116, 64860.627336576865, 30833.806792951444, 0.20400000000000001, 0.972, 0.272, 192.0, 3.0, 48.0, 15.0, 48.0, 4.0, 64.0, 0.0, 0.0, 0.0, 1.6959296603312683E9, 0.0, 2023-09-28 14:34:20.331
40.0, 14682.279787335372, 18895.695375883028, 29735.866753562303, 14034.68269523176, 31610.68637498455, 5771.421584060381, -187500.02235174447, 34908.86508332075, 16469.189997814894, -25349.381607697203, -187500.02235174447, 52882.148669022165, 25708.730603305175, -2759.747536152308, 64732.66359957023, 30839.327673831904, 0.20400000000000001, 0.972, 0.272, 192.0, 0.0, 0.0, 0.0, 0.0, 0.0, 0.0, 0.0, 0.0, 0.0, 1.6959296603312855E9, 0.0, 2023-09-28 14:34:20.331
42.0, 14778.124067559727, 18907.45239346652, 29688.570462294872, 14038.907174933813, 31621.482267556465, 5790.040587191652, -187500.02235174447, 34898.94090878259, 16452.046209817676, -25375.376686498726, -187500.02235174447, 52900.72296866453, 25680.545053547034, -2783.842716675129, 64860.24735692112, 30833.06918538442, 0.20400000000000001, 0.972, 0.272, 192.0, 0.0, 0.0, 0.0, 0.0, 0.0, 0.0, 0.0, 0.0, 0.0, 1.6959296603313012E9, 0.0, 2023-09-28 14:34:20.331
44.0, 14674.836656431755, 18895.807134605308, 29720.2652359325, 14043.198709869232, 31614.217950608487, 5786.441956334348, -187500.02235174447, 34911.21201648856, 16467.804189658666, -25357.16001476765, -187500.02235174447, 52877.94654106457, 25702.56152183551, -2762.7873733982296, 64733.93764900418, 30833.359758062335, 0.20400000000000001, 0.972, 0.272, 192.0, 0.0, 0.0, 0.0, 0.0, 0.0, 0.0, 0.0, 0.0, 0.0, 1.6959296603313203E9, 0.0, 2023-09-28 14:34:20.331
46.0, 14827.297905361404, 18887.514637412387, 29695.052468186914, 14025.49612826063, 31603.82438943677, 5777.545962041136, -187500.02235174447, 34891.140149967694, 16445.54185218118, -25383.31155578036, -187500.02235174447, 52902.0864250763, 25674.375972077367, -2784.513269008788, 64860.627336576865, 30838.835935453888, 0.20400000000000001, 0.972, 0.272, 192.0, 0.0, 0.0, 0.0, 0.0, 0.0, 0.0, 0.0, 0.0, 0.0, 1.6959296603313465E9, 0.0, 2023-09-28 14:34:20.331
48.0, 14702.418709089603, 18872.807189560794, 29693.77841875296, 14028.692427717737, 31605.389011548643, 5773.321482339083, -187500.02235174447, 34892.57066161283, 16444.580727169603, -25374.035581831406, -187500.02235174447, 52860.1769042226, 25685.59654779393, -2770.6775391909528, 64757.094056259884, 30817.177095076695, 0.196, 0.984, 0.274, 192.0, 3.0, 16.0, 15.0, 96.0, 4.0, 72.0, 0.0, 0.0, 0.0, 1.6959296603313618E9, 0.0, 2023-09-28 14:34:20.331
50.0, 14844.46404510308, 18886.888788567638, 29694.1583984087, 14031.575802752472, 31621.638729767652, 5791.314636625604, -187500.02235174447, 34894.67172559163, 16434.58949739808, -25388.98889887201, -187500.02235174447, 52882.439241700085, 25669.54799527502, -2793.096338879626, 64852.111321939396, 30823.033252123983, 0.196, 0.984, 0.274, 192.0, 0.0, 0.0, 0.0, 0.0, 0.0, 0.0, 0.0, 0.0, 0.0, 1.6959296603313956E9, 0.0, 2023-09-28 14:34:20.331
52.0, 14693.947397941041, 18867.755695313896, 29687.899909961216, 14030.234698085154, 31613.457991297008, 5777.7918312301435, -187500.02235174447, 34899.186777971605, 16452.895576106977, -25363.194985770584, -187500.02235174447, 52862.725003090505, 25696.95123397723, -2758.808762885185, 64740.64317234077, 30830.63284523879, 0.196, 0.984, 0.274, 192.0, 0.0, 0.0, 0.0, 0.0, 0.0, 0.0, 0.0, 0.0, 0.0, 1.6959296603314228E9, 0.0, 2023-09-28 14:34:20.331
54.0, 14862.188978456137, 18881.613776876187, 29702.674413046174, 14024.378541037864, 31604.606700492706, 5777.3224445965825, -187500.02235174447, 34874.5328038374, 16419.01033151273, -25399.673032721643, -187500.02235174447, 52877.45480268655, 25656.382817790847, -2799.488937793844, 64849.31735388248, 30828.420022537714, 0.196, 0.984, 0.274, 192.0, 0.0, 0.0, 0.0, 0.0, 0.0, 0.0, 0.0, 0.0, 0.0, 1.6959296603314452E9, 0.0, 2023-09-28 14:34:20.331
56.0, 14678.14471461114, 18891.001509547415, 29670.44319754162, 14051.759427995614, 31627.45018332603, 5801.842308264054, -187500.02235174447, 34905.98170828602, 16450.39218072798, -25354.746026366476, -187500.02235174447, 52870.50341016095, 25692.12325717488, -2756.26066401728, 64752.48959690209, 30829.314092315926, 0.196, 0.984, 0.274, 192.0, 0.0, 0.0, 0.0, 0.0, 0.0, 0.0, 0.0, 0.0, 0.0, 1.6959296603314629E9, 0.0, 2023-09-28 14:34:20.331
58.0, 14838.093797933318, 18895.78478286085, 29716.845419030837, 14035.68852373225, 31609.4123255506, 5782.463345821303, -187500.02235174447, 34877.70675155005, 16446.50297719276, -25378.6400411892, -187500.02235174447, 52897.526669207415, 25677.37110583438, -2774.9690741263717, 64818.29313257851, 30851.755243749052, 0.196, 0.98, 0.274, 192.0, 3.0, 16.0, 15.0, 80.0, 4.0, 72.0, 0.0, 0.0, 0.0, 1.6959296603314788E9, 0.0, 2023-09-28 14:34:20.331
60.0, 14659.61511845769, 18891.73911711444, 29651.62302871025, 14049.144273894344, 31626.042023425347, 5800.657665807923, -187500.02235174447, 34891.073094734325, 16456.53891045319, -25369.69934340708, -187500.02235174447, 52869.363471193734, 25692.391478108344, -2763.7932018987185, 64756.02117252603, 30827.48124927059, 0.196, 0.98, 0.274, 192.0, 0.0, 0.0, 0.0, 0.0, 0.0, 0.0, 0.0, 0.0, 0.0, 1.695929660331494E9, 0.0, 2023-09-28 14:34:20.331
62.0, 14823.74397799301, 18881.54672164282, 29711.503352106018, 14022.500994503618, 31598.996412634424, 5771.488639293747, -187500.02235174447, 34874.5328038374, 16451.86739586203, -25391.82757041783, -187500.02235174447, 52889.32357899232, 25677.12523664537, -2779.5064782507993, 64797.55071372399, 30847.173136135716, 0.196, 0.98, 0.274, 192.0, 0.0, 0.0, 0.0, 0.0, 0.0, 0.0, 0.0, 0.0, 0.0, 1.6959296603315096E9, 0.0, 2023-09-28 14:34:20.331
64.0, 14664.063115604296, 18896.924721828073, 29617.737784116005, 14043.82455871398, 31616.54253203184, 5798.780119273677, -187500.02235174447, 34891.989516256996, 16445.787721370187, -25389.905320394675, -187500.02235174447, 52856.1759419651, 25676.70055350072, -2776.5560479826986, 64777.63530941431, 30814.427830508692, 0.196, 0.98, 0.274, 192.0, 0.0, 0.0, 0.0, 0.0, 0.0, 0.0, 0.0, 0.0, 0.0, 1.695929660331526E9, 0.0, 2023-09-28 14:34:20.331
66.0, 14804.11914636125, 18893.616663648685, 29693.621956541774, 14027.77600619507, 31596.649479466618, 5770.527514282169, -187500.02235174447, 34880.25485041796, 16460.629279688514, -25386.530206981923, -187500.02235174447, 52884.830878356806, 25676.298222100526, -2781.1381555960365, 64780.80925712696, 30841.562848277434, 0.196, 0.98, 0.274, 192.0, 0.0, 0.0, 0.0, 0.0, 0.0, 0.0, 0.0, 0.0, 0.0, 1.6959296603315415E9, 0.0, 2023-09-28 14:34:20.331
68.0, 14674.367269798193, 18904.45725970951, 29614.474429425532, 14050.485378561661, 31616.96721517649, 5802.646971064445, -187500.02235174447, 34895.23051920301, 16470.911082137955, -25394.50977975247, -187500.02235174447, 52885.97081732402, 25695.431315354268, -2775.5278677377546, 64774.93074833522, 30819.05464161094, 0.21, 0.976, 0.272, 192.0, 3.0, 72.0, 15.0, 64.0, 4.0, 64.0, 0.0, 0.0, 0.0, 1.6959296603315573E9, 0.0, 2023-09-28 14:34:20.331
70.0, 14790.395175265692, 18913.867344125192, 29693.599604797317, 14045.769160481592, 31598.236453322945, 5783.893857466443, -187500.02235174447, 34883.69701906407, 16471.96161412735, -25381.255195290472, -187500.02235174447, 52911.7870821699, 25684.724829760176, -2767.905922878495, 64763.41959994073, 30844.870906456817, 0.21, 0.976, 0.272, 192.0, 0.0, 0.0, 0.0, 0.0, 0.0, 0.0, 0.0, 0.0, 0.0, 1.6959296603315723E9, 0.0, 2023-09-28 14:34:20.331
72.0, 14700.80938348882, 18921.019902350894, 29592.659126837152, 14052.809959985014, 31615.268482597887, 5801.887011752965, -187500.02235174447, 34885.887490020694, 16472.63216646101, -25378.528282466923, -187500.02235174447, 52906.75793966746, 25685.61889953839, -2765.1790100549474, 64791.60514969887, 30823.99437713556, 0.21, 0.976, 0.272, 192.0, 0.0, 0.0, 0.0, 0.0, 0.0, 0.0, 0.0, 0.0, 0.0, 1.6959296603315876E9, 0.0, 2023-09-28 14:34:20.331
74.0, 14787.601207208778, 18918.69532092754, 29667.850395184803, 14028.78183469556, 31586.881767139646, 5774.550828284125, -187500.02235174447, 34886.91567026564, 16478.801247930678, -25371.599241685777, -187500.02235174447, 52912.72585543703, 25688.524626317576, -2758.182914040436, 64744.532375876, 30849.09538615887, 0.21, 0.976, 0.272, 192.0, 0.0, 0.0, 0.0, 0.0, 0.0, 0.0, 0.0, 0.0, 0.0, 1.6959296603316023E9, 0.0, 2023-09-28 14:34:20.331
76.0, 14725.642171578667, 18927.926591387582, 29570.75441727095, 14040.53885227905, 31604.763162703894, 5790.867601736499, -187500.02235174447, 34877.46088236104, 16471.20165481587, -25376.158997554663, -187500.02235174447, 52904.56746871084, 25678.712210501697, -2768.7329374233414, 64799.40590851378, 30814.450182253146, 0.21, 0.976, 0.272, 192.0, 0.0, 0.0, 0.0, 0.0, 0.0, 0.0, 0.0, 0.0, 0.0, 1.695929660331619E9, 0.0, 2023-09-28 14:34:20.331
78.0, 14756.912262071643, 18918.27063778289, 29662.06129337088, 14031.911078919302, 31591.86620615318, 5772.270950349683, -187500.02235174447, 34877.84086201678, 16481.617567732046, -25362.859709603752, -187500.02235174447, 52909.95423912457, 25692.078553685973, -2753.2431785158133, 64714.04459643896, 30839.81941220992, 0.218, 0.966, 0.264, 192.0, 3.0, 104.0, 15.0, 24.0, 4.0, 32.0, 0.0, 0.0, 0.0, 1.6959296603316343E9, 0.0, 2023-09-28 14:34:20.331
80.0, 14727.832642535288, 18934.02861762388, 29579.493949352975, 14049.680715761271, 31619.895293700138, 5805.53034609918, -187500.02235174447, 34881.95358299656, 16466.574843713624, -25371.86746261924, -187500.02235174447, 52908.56843096834, 25682.75787624811, -2772.1751060694583, 64794.51087647807, 30818.451144510647, 0.218, 0.966, 0.264, 192.0, 0.0, 0.0, 0.0, 0.0, 0.0, 0.0, 0.0, 0.0, 0.0, 1.6959296603316495E9, 0.0, 2023-09-28 14:34:20.331
82.0, 14745.222299721516, 18903.339672486745, 29666.084607372835, 14024.400892782318, 31583.73017117145, 5763.978453156764, -187500.02235174447, 34876.00801897145, 16478.6894892084, -25350.72271236452, -187500.02235174447, 52912.03295135891, 25696.995937466138, -2746.3588412235786, 64700.70060499914, 30852.224630382614, 0.218, 0.966, 0.264, 192.0, 0.0, 0.0, 0.0, 0.0, 0.0, 0.0, 0.0, 0.0, 0.0, 1.6959296603316655E9, 0.0, 2023-09-28 14:34:20.331
84.0, 14784.315500773848, 18917.84595463824, 29587.026487234412, 14032.939259164246, 31596.805941677805, 5785.704348767323, -187500.02235174447, 34859.55713505234, 16453.789645885186, -25378.237709789006, -187500.02235174447, 52905.796814655885, 25665.323515572967, -2778.344187539123, 64826.228001860145, 30819.43462126668, 0.218, 0.966, 0.264, 192.0, 0.0, 0.0, 0.0, 0.0, 0.0, 0.0, 0.0, 0.0, 0.0, 1.6959296603316803E9, 0.0, 2023-09-28 14:34:20.331
86.0, 14719.741311042466, 18921.55634421782, 29657.501537501998, 14041.835253457459, 31603.667927225582, 5782.329235354571, -187500.02235174447, 34879.271373661926, 16486.6914137234, -25343.54780239437, -187500.02235174447, 52904.522765221926, 25701.22041716819, -2744.2354255003247, 64706.17678239069, 30835.86315344133, 0.218, 0.966, 0.264, 192.0, 0.0, 0.0, 0.0, 0.0, 0.0, 0.0, 0.0, 0.0, 0.0, 1.6959296603316953E9, 0.0, 2023-09-28 14:34:20.331
88.0, 14786.97535836403, 18941.739969460963, 29624.152734774678, 14051.334744850963, 31631.987587450458, 5808.838404278566, -187500.02235174447, 34889.62023134473, 16479.36004154206, -25360.64688690268, -187500.02235174447, 52925.086370120815, 25692.838512997452, -2759.3005012632016, 64815.92384766625, 30841.384034321793, 0.216, 0.96, 0.264, 192.0, 3.0, 96.0, 15.0, 0.0, 4.0, 32.0, 0.0, 0.0, 0.0, 1.6959296603317106E9, 0.0, 2023-09-28 14:34:20.331
90.0, 14700.451755577536, 18919.522335472386, 29667.604525995797, 14040.896480190335, 31615.380241320163, 5787.38072960147, -187500.02235174447, 34882.132396952205, 16494.894503938496, -25331.500212132956, -187500.02235174447, 52912.3905792702, 25714.452649885734, -2736.5017219187885, 64702.44404106666, 30844.043891911973, 0.216, 0.96, 0.264, 192.0, 0.0, 0.0, 0.0, 0.0, 0.0, 0.0, 0.0, 0.0, 0.0, 1.6959296603317275E9, 0.0, 2023-09-28 14:34:20.331
92.0, 14813.372768565747, 18925.914934386605, 29641.005950093982, 14034.63799174285, 31620.364680333696, 5795.092081438552, -187500.02235174447, 34878.690228306084, 16481.617567732046, -25354.164881010638, -187500.02235174447, 52929.2437945895, 25699.61109156741, -2752.7961436267074, 64820.95299016869, 30843.90978144524, 0.216, 0.96, 0.264, 192.0, 0.0, 0.0, 0.0, 0.0, 0.0, 0.0, 0.0, 0.0, 0.0, 1.6959296603317432E9, 0.0, 2023-09-28 14:34:20.331
94.0, 14693.343900840748, 18921.198716306535, 29658.1497380912, 14038.0131051556, 31618.64359601064, 5791.381691858971, -187500.02235174447, 34891.140149967694, 16488.971291657843, -25343.14547099417, -187500.02235174447, 52895.20208778407, 25716.576065608988, -2738.960413808872, 64710.311855114924, 30827.90593241524, 0.216, 0.96, 0.264, 192.0, 0.0, 0.0, 0.0, 0.0, 0.0, 0.0, 0.0, 0.0, 0.0, 1.69592966033176E9, 0.0, 2023-09-28 14:34:20.331
96.0, 14855.438751630636, 18919.723501172484, 29650.460737998575, 14023.998561382123, 31613.837970952747, 5786.710177267812, -187500.02235174447, 34863.42398684311, 16473.21331181685, -25374.21439578705, -187500.02235174447, 52915.20689907156, 25688.792847251043, -2766.676576933453, 64841.02485668956, 30834.29853132946, 0.216, 0.96, 0.264, 192.0, 0.0, 0.0, 0.0, 0.0, 0.0, 0.0, 0.0, 0.0, 0.0, 1.6959296603317764E9, 0.0, 2023-09-28 14:34:20.331
98.0, 14703.62570329019, 18920.394053506145, 29648.67259844215, 14042.550509280029, 31617.928340188068, 5793.572162815591, -187500.02235174447, 34884.345219653274, 16490.93824516991, -25354.187232755095, -187500.02235174447, 52888.67537840312, 25713.357414407423, -2744.190722011414, 64730.09314895787, 30821.848609667853, 0.20800000000000002, 0.9520000000000001, 0.27, 192.0, 3.0, 64.0, 14.5, 96.0, 4.0, 56.0, 0.0, 0.0, 0.0, 1.6959296603317938E9, 0.0, 2023-09-28 14:34:20.331
100.0, 14879.019842030984, 18922.07043434029, 29665.257592827988, 14026.501956761118, 31597.811770178294, 5782.3739388434815, -187500.02235174447, 34865.74856826646, 16479.807076431167, -25377.522453966434, -187500.02235174447, 52928.95322191158, 25687.809370495008, -2763.5026292207995, 64837.24741187661, 30845.362644834837, 0.20800000000000002, 0.9520000000000001, 0.27, 192.0, 0.0, 0.0, 0.0, 0.0, 0.0, 0.0, 0.0, 0.0, 0.0, 1.6959296603318124E9, 0.0, 2023-09-28 14:34:20.331
102.0, 14708.163107414617, 18933.78274843487, 29634.3451302463, 14059.11315192141, 31628.74658450444, 5814.046360736652, -187500.02235174447, 34903.1877402291, 16492.279349837227, -25354.723674622022, -187500.02235174447, 52900.79002389789, 25702.56152183551, -2741.799085354696, 64744.17474796472, 30824.15083934675, 0.20800000000000002, 0.9520000000000001, 0.27, 192.0, 0.0, 0.0, 0.0, 0.0, 0.0, 0.0, 0.0, 0.0, 0.0, 1.695929660331834E9, 0.0, 2023-09-28 14:34:20.331
104.0, 14877.924606552675, 18929.044178610347, 29681.663773258184, 14035.330895820964, 31615.313186086798, 5797.304904139627, -187500.02235174447, 34876.92444049411, 16499.454259807382, -25367.106541050263, -187500.02235174447, 52940.6431842617, 25702.494466602144, -2750.7844866257296, 64816.01325464407, 30860.561831064446, 0.20800000000000002, 0.9520000000000001, 0.27, 192.0, 0.0, 0.0, 0.0, 0.0, 0.0, 0.0, 0.0, 0.0, 0.0, 1.695929660331852E9, 0.0, 2023-09-28 14:34:20.331
106.0, 14716.34384588526, 18925.512602986408, 29634.926275602138, 14046.484416304162, 31619.44825881103, 5810.693599068356, -187500.02235174447, 34893.867062791236, 16503.566980787156, -25361.898584592174, -187500.02235174447, 52905.48389023351, 25712.46334462921, -2742.1343615215255, 64753.607184124856, 30830.14110686077, 0.20800000000000002, 0.9520000000000001, 0.27, 192.0, 0.0, 0.0, 0.0, 0.0, 0.0, 0.0, 0.0, 0.0, 0.0, 1.6959296603318677E9, 0.0, 2023-09-28 14:34:20.331
108.0, 14880.651519376222, 18919.20941105001, 29687.54228204993, 14026.323142805475, 31605.567825504284, 5791.918133725898, -187500.02235174447, 34870.800062513365, 16492.391108559503, -25382.6410034467, -187500.02235174447, 52928.506187022474, 25694.157265920316, -2759.702832663397, 64818.74016746762, 30848.983627436595, 0.216, 0.968, 0.272, 192.0, 3.0, 96.0, 15.0, 32.0, 4.0, 64.0, 0.0, 0.0, 0.0, 1.6959296603318837E9, 0.0, 2023-09-28 14:34:20.331
110.0, 14728.011456490929, 18910.447527223532, 29617.46956318254, 14042.125826135378, 31614.195598864033, 5811.677075824389, -187500.02235174447, 34888.90497552216, 16485.77499220073, -25381.7916371574, -187500.02235174447, 52898.19722154108, 25693.509065331113, -2758.160562295981, 64783.67028041724, 30815.903045642743, 0.216, 0.968, 0.272, 192.0, 0.0, 0.0, 0.0, 0.0, 0.0, 0.0, 0.0, 0.0, 0.0, 1.6959296603318994E9, 0.0, 2023-09-28 14:34:20.331
112.0, 14862.300737178415, 18933.156899590125, 29700.394535111733, 14049.904233205823, 31608.11592437219, 5814.024008992196, -187500.02235174447, 34884.52403360892, 16504.438698820915, -25359.97633456902, -187500.02235174447, 52942.16310288467, 25703.433239869268, -2736.9487568078944, 64805.597341727895, 30864.74160727759, 0.216, 0.968, 0.272, 192.0, 0.0, 0.0, 0.0, 0.0, 0.0, 0.0, 0.0, 0.0, 0.0, 1.6959296603319147E9, 0.0, 2023-09-28 14:34:20.331
114.0, 14732.660619337634, 18934.20743157952, 29621.112897528757, 14050.150102394833, 31601.030421379855, 5815.543927615157, -187500.02235174447, 34881.283030662904, 16508.730233756334, -25348.465186174537, -187500.02235174447, 52925.153425354176, 25701.6674520573, -2731.740800349808, 64799.2941497915, 30838.232438353592, 0.216, 0.968, 0.272, 192.0, 0.0, 0.0, 0.0, 0.0, 0.0, 0.0, 0.0, 0.0, 0.0, 1.695929660331931E9, 0.0, 2023-09-28 14:34:20.331
116.0, 14859.864397032787, 18935.369722291198, 29697.533511821453, 14031.911078919302, 31572.666057666072, 5803.585744331568, -187500.02235174447, 34860.317094363825, 16510.22780063484, -25344.888907061686, -187500.02235174447, 52937.62569876024, 25687.630556539367, -2728.231576470325, 64807.40783302878, 30854.884487972795, 0.216, 0.968, 0.272, 192.0, 0.0, 0.0, 0.0, 0.0, 0.0, 0.0, 0.0, 0.0, 0.0, 1.6959296603319476E9, 0.0, 2023-09-28 14:34:20.331
118.0, 14718.355502886237, 18949.741893975963, 29597.10712398376, 14055.358058852918, 31616.654290754115, 5837.53804415918, -187500.02235174447, 34883.652315575164, 16513.446451836404, -25332.39428191117, -187500.02235174447, 52915.296306049386, 25696.437143854757, -2711.6912855733976, 64818.62840874534, 30837.58423776439, 0.20400000000000001, 0.966, 0.268, 192.0, 3.0, 48.0, 15.0, 24.0, 4.0, 48.0, 0.0, 0.0, 0.0, 1.6959296603319626E9, 0.0, 2023-09-28 14:34:20.331
120.0, 14789.434050254113, 18925.534954730865, 29678.579232523352, 14029.251221329121, 31593.78845617634, 5795.784985516666, -187500.02235174447, 34873.21405091453, 16518.430890849937, -25332.23781969998, -187500.02235174447, 52922.71708520855, 25704.90845500332, -2714.9546402638725, 64776.96475708065, 30876.230403927613, 0.20400000000000001, 0.966, 0.268, 192.0, 0.0, 0.0, 0.0, 0.0, 0.0, 0.0, 0.0, 0.0, 0.0, 1.6959296608101933E9, 0.0, 2023-09-28 14:34:20.810
122.0, 14677.585920999756, 18937.917821159106, 29586.065362222835, 14051.602965784428, 31630.624131038683, 5832.218328978816, -187500.02235174447, 34880.70188530706, 16502.06941390865, -25346.766453595934, -187500.02235174447, 52907.383788512205, 25697.71119328871, -2729.3491636930903, 64826.80914721599, 30843.038063411484, 0.20400000000000001, 0.966, 0.268, 192.0, 0.0, 0.0, 0.0, 0.0, 0.0, 0.0, 0.0, 0.0, 0.0, 1.695929660810278E9, 0.0, 2023-09-28 14:34:20.810
124.0, 14728.39143614667, 18916.527201715377, 29671.516081275477, 14029.58649749595, 31605.321956315274, 5794.801508760633, -187500.02235174447, 34883.3840946417, 16512.440623335915, -25339.569191881325, -187500.02235174447, 52909.507204235466, 25707.99299573815, -2720.453169399878, 64758.077533015916, 30866.14976717827, 0.20400000000000001, 0.966, 0.268, 192.0, 0.0, 0.0, 0.0, 0.0, 0.0, 0.0, 0.0, 0.0, 0.0, 1.6959296608103032E9, 0.0, 2023-09-28 14:34:20.810
126.0, 14689.52175253889, 18929.2676960549, 29580.72329529802, 14051.245337873142, 31626.2655408699, 5825.91513704242, -187500.02235174447, 34885.10517896476, 16503.857553465077, -25352.801424598867, -187500.02235174447, 52906.623829200726, 25695.744239776643, -2734.6241753845425, 64844.53408056904, 30840.221743610116, 0.20400000000000001, 0.966, 0.268, 192.0, 0.0, 0.0, 0.0, 0.0, 0.0, 0.0, 0.0, 0.0, 0.0, 1.6959296608103282E9, 0.0, 2023-09-28 14:34:20.810
128.0, 14683.95616816952, 18924.238553552455, 29664.408226538686, 14051.82648322898, 31617.63776751015, 5808.033741478174, -187500.02235174447, 34885.23928943149, 16533.428911379448, -25323.118307962217, -187500.02235174447, 52921.97947764152, 25721.962836022718, -2712.4735966293333, 64751.01438176804, 30875.313982404947, 0.212, 0.972, 0.276, 192.0, 3.0, 80.0, 15.0, 48.0, 4.0, 80.0, 0.0, 0.0, 0.0, 1.69592966081035E9, 0.0, 2023-09-28 14:34:20.810
130.0, 14697.121345653695, 18915.78959414835, 29578.912803997137, 14045.612698270405, 31615.894331442636, 5813.86754678101, -187500.02235174447, 34874.219879415024, 16509.244323878804, -25352.913183321143, -187500.02235174447, 52916.10096884978, 25697.84530375544, -2743.5872249111208, 64850.54669982752, 30853.453976327655, 0.212, 0.972, 0.276, 192.0, 0.0, 0.0, 0.0, 0.0, 0.0, 0.0, 0.0, 0.0, 0.0, 1.695929660810372E9, 0.0, 2023-09-28 14:34:20.810
132.0, 14668.868740662187, 18909.911085356605, 29643.419938495153, 14047.82552097148, 31612.899197685627, 5800.925886741386, -187500.02235174447, 34887.295649921376, 16521.224858906848, -25340.82088957082, -187500.02235174447, 52901.885259376206, 25710.67520507279, -2728.0080590257717, 64748.64509685578, 30861.88058398731, 0.212, 0.972, 0.276, 192.0, 0.0, 0.0, 0.0, 0.0, 0.0, 0.0, 0.0, 0.0, 0.0, 1.6959296608103964E9, 0.0, 2023-09-28 14:34:20.810
134.0, 14720.881250009686, 18922.293951784846, 29579.963335986537, 14055.49216931965, 31622.331633845766, 5826.697448098355, -187500.02235174447, 34885.70867606505, 16506.830335477633, -25357.71880837903, -187500.02235174447, 52921.91242240816, 25690.69274552974, -2747.3646697240674, 64868.04811573603, 30852.135223404795, 0.212, 0.972, 0.276, 192.0, 0.0, 0.0, 0.0, 0.0, 0.0, 0.0, 0.0, 0.0, 0.0, 1.6959296608104184E9, 0.0, 2023-09-28 14:34:20.810
136.0, 14643.477158960959, 18921.779861662373, 29632.221714523046, 14056.408590842319, 31624.96913969149, 5819.857814295032, -187500.02235174447, 34891.81070230135, 16528.422120621457, -25325.576999852303, -187500.02235174447, 52920.70542820757, 25716.911341775816, -2716.25104144228, 64753.607184124856, 30872.96704923714, 0.212, 0.972, 0.276, 192.0, 0.0, 0.0, 0.0, 0.0, 0.0, 0.0, 0.0, 0.0, 0.0, 1.69592966081044E9, 0.0, 2023-09-28 14:34:20.810
138.0, 14732.012418748429, 18924.216201808, 29587.920557012625, 14043.623393013882, 31623.806848979813, 5818.382599160981, -187500.02235174447, 34882.02063822992, 16524.17528917495, -25341.7820145824, -187500.02235174447, 52944.934719197125, 25706.003690481626, -2724.8788148020285, 64869.03159249206, 30869.994267224585, 0.214, 0.968, 0.276, 192.0, 3.0, 88.0, 15.0, 32.0, 4.0, 80.0, 0.0, 0.0, 0.0, 1.6959296608104613E9, 0.0, 2023-09-28 14:34:20.810
140.0, 14639.47619670346, 18901.17155327458, 29600.549292629876, 14033.654514986816, 31600.53868300184, 5799.6294855629785, -187500.02235174447, 34877.70675155005, 16513.35704485858, -25338.38454942519, -187500.02235174447, 52903.56164021035, 25702.89679800234, -2730.846730571596, 64768.91812907674, 30850.503546059557, 0.214, 0.968, 0.276, 192.0, 0.0, 0.0, 0.0, 0.0, 0.0, 0.0, 0.0, 0.0, 0.0, 1.695929660810485E9, 0.0, 2023-09-28 14:34:20.810
142.0, 14750.363200946236, 18919.857611639218, 29582.04204822088, 14040.427093556775, 31613.74856397493, 5812.146462457951, -187500.02235174447, 34876.54446083838, 16507.41148083347, -25348.48753791899, -187500.02235174447, 52928.997925400494, 25688.770495506586, -2746.6270621570425, 64883.80609557702, 30856.96320020714, 0.214, 0.968, 0.276, 192.0, 0.0, 0.0, 0.0, 0.0, 0.0, 0.0, 0.0, 0.0, 0.0, 1.6959296608105063E9, 0.0, 2023-09-28 14:34:20.810
144.0, 14615.112795247174, 18914.426137736576, 29592.927347770616, 14056.095666419944, 31617.481305298963, 5811.00652349073, -187500.02235174447, 34885.820434787325, 16522.18598391843, -25332.729558078, -187500.02235174447, 52908.12139607923, 25706.830705026474, -2726.5328438917213, 64775.17661752422, 30858.572525807922, 0.214, 0.968, 0.276, 192.0, 0.0, 0.0, 0.0, 0.0, 0.0, 0.0, 0.0, 0.0, 0.0, 1.6959296608105285E9, 0.0, 2023-09-28 14:34:20.810
146.0, 14758.387477205692, 18933.514527501407, 29602.762115330952, 14061.840064744958, 31622.197523379033, 5825.333991686582, -187500.02235174447, 34879.89722250667, 16517.961504216375, -25345.715921606534, -187500.02235174447, 52948.37688784324, 25697.822952010985, -2739.0498207866935, 64880.207464719715, 30880.007848740563, 0.214, 0.968, 0.276, 192.0, 0.0, 0.0, 0.0, 0.0, 0.0, 0.0, 0.0, 0.0, 0.0, 1.6959296608105521E9, 0.0, 2023-09-28 14:34:20.810
148.0, 14592.381071136126, 18934.945039146547, 29586.84767327877, 14079.632053331383, 31633.39574735114, 5842.880111083998, -187500.02235174447, 34902.986574529, 16535.9546585029, -25312.434174112583, -187500.02235174447, 52929.08733237831, 25721.4710976447, -2706.8856605155065, 64777.41179196975, 30878.152653950772, 0.21, 0.964, 0.268, 192.0, 3.0, 72.0, 15.0, 16.0, 4.0, 48.0, 0.0, 0.0, 0.0, 1.695929660810574E9, 0.0, 2023-09-28 14:34:20.810
150.0, 14757.49340742748, 18924.104443085726, 29604.90788279866, 14046.395009326341, 31609.501732528417, 5811.766482802211, -187500.02235174447, 34861.54644030886, 16521.224858906848, -25342.78784308289, -187500.02235174447, 52952.44490533411, 25696.012460710106, -2732.2772422167354, 64871.602043104416, 30894.380020425324, 0.21, 0.964, 0.268, 192.0, 0.0, 0.0, 0.0, 0.0, 0.0, 0.0, 0.0, 0.0, 0.0, 1.6959296608105955E9, 0.0, 2023-09-28 14:34:20.810
152.0, 14601.768803807356, 18910.693396412542, 29562.640734033674, 14051.78177974007, 31619.69412800004, 5811.095930468551, -187500.02235174447, 34878.80198702836, 16517.112137927073, -25345.358293695248, -187500.02235174447, 52908.32256177933, 25705.422545125788, -2736.032335285227, 64794.265007289054, 30862.707598532153, 0.21, 0.964, 0.268, 192.0, 0.0, 0.0, 0.0, 0.0, 0.0, 0.0, 0.0, 0.0, 0.0, 1.6959296608106196E9, 0.0, 2023-09-28 14:34:20.810
154.0, 14765.271814497926, 18920.2152395505, 29616.262568981954, 14050.77595123958, 31617.81658146579, 5805.306828654627, -187500.02235174447, 34874.219879415024, 16514.251114636794, -25354.991895555486, -187500.02235174447, 52935.41287605916, 25697.487675844157, -2745.8894545900175, 64865.63412733485, 30880.76780805204, 0.21, 0.964, 0.268, 192.0, 0.0, 0.0, 0.0, 0.0, 0.0, 0.0, 0.0, 0.0, 0.0, 1.6959296608106413E9, 0.0, 2023-09-28 14:34:20.810
156.0, 14602.03702474082, 18916.661312182106, 29560.38320784369, 14073.127695694888, 31627.293721114842, 5824.238756208272, -187500.02235174447, 34885.261641175945, 16523.16946067446, -25334.830622056797, -187500.02235174447, 52912.72585543703, 25712.686862073766, -2729.4385706709113, 64807.51959175106, 30857.991380452084, 0.21, 0.964, 0.268, 192.0, 0.0, 0.0, 0.0, 0.0, 0.0, 0.0, 0.0, 0.0, 0.0, 1.6959296608106644E9, 0.0, 2023-09-28 14:34:20.810
158.0, 14784.69548042959, 18909.262884767402, 29626.946702831592, 14047.244375615643, 31595.911871899592, 5792.923962226387, -187500.02235174447, 34860.76412925293, 16506.383300588524, -25356.556517667355, -187500.02235174447, 52935.703448737084, 25688.770495506586, -2752.3714604820566, 64860.53792959904, 30885.416970898747, 0.222, 0.97, 0.274, 192.0, 3.0, 120.0, 15.0, 40.0, 4.0, 72.0, 0.0, 0.0, 0.0, 1.6959296608106887E9, 0.0, 2023-09-28 14:34:20.810
160.0, 14637.7551123804, 18917.488326726954, 29551.91189669513, 14071.875998005391, 31619.649424511128, 5824.417570163914, -187500.02235174447, 34893.19651045758, 16508.014977933763, -25347.101729762762, -187500.02235174447, 52911.27299204743, 25695.47601884318, -2742.223768499347, 64838.78968224403, 30852.090519915884, 0.222, 0.97, 0.274, 192.0, 0.0, 0.0, 0.0, 0.0, 0.0, 0.0, 0.0, 0.0, 0.0, 1.6959296608107133E9, 0.0, 2023-09-28 14:34:20.810
162.0, 14781.342718761292, 18919.187059305557, 29632.735804645516, 14058.30848912102, 31602.103305113713, 5803.0940059535515, -187500.02235174447, 34880.74658879597, 16513.960541958873, -25349.605125141756, -187500.02235174447, 52932.59655625779, 25695.94540547674, -2740.703849876386, 64853.87710975136, 30882.131264463816, 0.222, 0.97, 0.274, 192.0, 0.0, 0.0, 0.0, 0.0, 0.0, 0.0, 0.0, 0.0, 0.0, 1.695929660810737E9, 0.0, 2023-09-28 14:34:20.810
164.0, 14656.441170745036, 18924.395015763643, 29542.83708844627, 14075.005242229134, 31620.342328589242, 5825.892785297965, -187500.02235174447, 34892.28008893491, 16515.41340534847, -25343.123119249718, -187500.02235174447, 52912.32352403683, 25698.851132255928, -2737.999288797294, 64852.580708572954, 30851.15174664876, 0.222, 0.97, 0.274, 192.0, 0.0, 0.0, 0.0, 0.0, 0.0, 0.0, 0.0, 0.0, 0.0, 1.69592966081076E9, 0.0, 2023-09-28 14:34:20.810
166.0, 14763.662488897144, 18933.17925133458, 29632.333473245322, 14078.64857657535, 31609.904063928614, 5824.417570163914, -187500.02235174447, 34885.887490020694, 16512.418271591458, -25344.77714833941, -187500.02235174447, 52928.97557365603, 25696.258329899112, -2734.646527128998, 64839.28142062204, 30882.377133652826, 0.222, 0.97, 0.274, 192.0, 0.0, 0.0, 0.0, 0.0, 0.0, 0.0, 0.0, 0.0, 0.0, 1.6959296608107853E9, 0.0, 2023-09-28 14:34:20.810
168.0, 14662.319679536782, 18939.03540838187, 29557.253963619944, 14096.284102950587, 31641.911761988613, 5850.546759432168, -187500.02235174447, 34910.76498159945, 16533.160690445984, -25320.503153860947, -187500.02235174447, 52936.15048362619, 25715.5702371085, -2710.5066431172663, 64858.526272598065, 30871.938868992194, 0.224, 0.962, 0.276, 192.0, 3.5, 0.0, 15.0, 8.0, 4.0, 80.0, 0.0, 0.0, 0.0, 1.6959296608108091E9, 0.0, 2023-09-28 14:34:20.810
170.0, 14741.288392697383, 18931.1675943336, 29640.380101249233, 14067.159779925321, 31610.418154051087, 5811.833538035577, -187500.02235174447, 34877.32677189431, 16526.36576013157, -25329.53325862089, -187500.02235174447, 52928.3944283002, 25710.22817018368, -2721.8613293005624, 64813.442804031714, 30886.668668588245, 0.224, 0.962, 0.276, 192.0, 0.0, 0.0, 0.0, 0.0, 0.0, 0.0, 0.0, 0.0, 0.0, 1.6959296608108327E9, 0.0, 2023-09-28 14:34:20.810
172.0, 14697.568380542802, 18937.493138014455, 29552.046007161858, 14074.580559084483, 31625.97496819198, 5829.670230110912, -187500.02235174447, 34886.446283632074, 16518.162669916474, -25334.428290656604, -187500.02235174447, 52921.91242240816, 25705.601359081433, -2727.203396225381, 64870.30564192601, 30860.62888629781, 0.224, 0.962, 0.276, 192.0, 0.0, 0.0, 0.0, 0.0, 0.0, 0.0, 0.0, 0.0, 0.0, 1.6959296608108556E9, 0.0, 2023-09-28 14:34:20.810
174.0, 14746.697514855567, 18923.188021563055, 29633.2945982569, 14061.88476823387, 31609.144104617135, 5800.657665807923, -187500.02235174447, 34871.11298693574, 16517.98385596083, -25336.551706379858, -187500.02235174447, 52909.70836993556, 25703.165018935804, -2729.997364282294, 64810.06769061896, 30873.34702889288, 0.224, 0.962, 0.276, 192.0, 0.0, 0.0, 0.0, 0.0, 0.0, 0.0, 0.0, 0.0, 0.0, 1.6959296608108788E9, 0.0, 2023-09-28 14:34:20.810
176.0, 14744.7305613435, 18928.93241988807, 29550.637847261176, 14066.869207247402, 31621.750488489928, 5809.508956612224, -187500.02235174447, 34861.30057111986, 16511.41244309097, -25347.72757860751, -187500.02235174447, 52909.61896295774, 25694.47019034269, -2743.453114444389, 64888.388203190356, 30854.750377506065, 0.224, 0.962, 0.276, 192.0, 0.0, 0.0, 0.0, 0.0, 0.0, 0.0, 0.0, 0.0, 0.0, 1.6959296608109028E9, 0.0, 2023-09-28 14:34:20.810
178.0, 14729.330209413793, 18934.185079835068, 29624.845638852792, 14075.45227711824, 31614.374412819674, 5812.526442113691, -187500.02235174447, 34885.77573129842, 16524.577620575146, -25335.97056102402, -187500.02235174447, 52897.45961397405, 25710.339928905956, -2728.5892043816098, 64785.23490252911, 30871.24596491408, 0.224, 0.962, 0.268, 192.0, 3.5, 0.0, 15.0, 8.0, 4.0, 48.0, 0.0, 0.0, 0.0, 1.695929660810927E9, 0.0, 2023-09-28 14:34:20.810
180.0, 14751.726657358011, 18945.383303807175, 29560.606725288242, 14078.268596919608, 31625.550285047328, 5822.137692229473, -187500.02235174447, 34868.14020492318, 16525.561097331178, -25333.15424122265, -187500.02235174447, 52922.47121601954, 25705.37784163688, -2725.8846433025174, 64865.87999652386, 30875.313982404947, 0.224, 0.962, 0.268, 192.0, 0.0, 0.0, 0.0, 0.0, 0.0, 0.0, 0.0, 0.0, 0.0, 1.6959296608109493E9, 0.0, 2023-09-28 14:34:20.810
182.0, 14700.071775921795, 18948.4231410531, 29621.604635906773, 14085.354099911941, 31614.709688986506, 5820.43895965087, -187500.02235174447, 34891.833054045805, 16525.203469419896, -25330.87436328821, -187500.02235174447, 52898.51014596345, 25707.79183003805, -2723.2024339678806, 64751.79669282398, 30875.693962060686, 0.224, 0.962, 0.268, 192.0, 0.0, 0.0, 0.0, 0.0, 0.0, 0.0, 0.0, 0.0, 0.0, 1.6959296608109713E9, 0.0, 2023-09-28 14:34:20.810
184.0, 14766.724677887521, 18956.201548123547, 29572.073170193813, 14083.588312099972, 31617.63776751015, 5823.881128296987, -187500.02235174447, 34876.455053860554, 16527.483347354337, -25329.130927220696, -187500.02235174447, 52927.947393411094, 25703.589702080455, -2722.5095298897663, 64852.20072891721, 30890.535520379013, 0.224, 0.962, 0.268, 192.0, 0.0, 0.0, 0.0, 0.0, 0.0, 0.0, 0.0, 0.0, 0.0, 1.695929660810994E9, 0.0, 2023-09-28 14:34:20.810
186.0, 14664.532502237858, 18948.691361986563, 29607.835961322304, 14084.21416094472, 31613.793267463836, 5810.783006046177, -187500.02235174447, 34881.350085896265, 16532.04310322322, -25322.96184575103, -187500.02235174447, 52894.75505289496, 25712.32923416248, -2712.1830239514143, 64723.07470119891, 30877.236232428102, 0.224, 0.962, 0.268, 192.0, 0.0, 0.0, 0.0, 0.0, 0.0, 0.0, 0.0, 0.0, 0.0, 1.695929660811018E9, 0.0, 2023-09-28 14:34:20.811
188.0, 14779.73339316051, 18948.80312070884, 29579.113969697235, 14074.40174512884, 31607.02068889388, 5806.849099022043, -187500.02235174447, 34863.51339382093, 16513.13352741403, -25348.889869319188, -187500.02235174447, 52916.61505897225, 25688.211701895205, -2742.82726559964, 64844.914060224786, 30876.3868661388, 0.228, 0.97, 0.262, 192.0, 3.5, 16.0, 15.0, 40.0, 4.0, 24.0, 0.0, 0.0, 0.0, 1.695929660811041E9, 0.0, 2023-09-28 14:34:20.811
190.0, 14649.355667752705, 18951.12770213219, 29602.85152230877, 14094.942998283268, 31617.905988443614, 5819.500186383747, -187500.02235174447, 34894.492911635985, 16524.130585686038, -25325.10761321874, -187500.02235174447, 52895.20208778407, 25706.964815493207, -2716.675724586931, 64727.70151230115, 30871.581241080912, 0.228, 0.97, 0.262, 192.0, 0.0, 0.0, 0.0, 0.0, 0.0, 0.0, 0.0, 0.0, 0.0, 1.6959296608110647E9, 0.0, 2023-09-28 14:34:20.811
192.0, 14802.97920739403, 18939.32598105979, 29587.786446545895, 14060.45425658873, 31598.72819170096, 5785.816107489599, -187500.02235174447, 34843.463879044524, 16513.915838469966, -25345.738273350988, -187500.02235174447, 52922.2924020639, 25688.88225422886, -2740.5250359207434, 64844.66819103577, 30880.566642351943, 0.228, 0.97, 0.262, 192.0, 0.0, 0.0, 0.0, 0.0, 0.0, 0.0, 0.0, 0.0, 0.0, 1.6959296608110883E9, 0.0, 2023-09-28 14:34:20.811
194.0, 14632.457748944493, 18946.65735324113, 29573.503681838953, 14088.259826691132, 31618.73300298846, 5808.704293811834, -187500.02235174447, 34879.114911450735, 16525.806966520187, -25332.953075522553, -187500.02235174447, 52882.908628333644, 25709.289396916556, -2732.6348701280203, 64736.41869263872, 30853.073996671916, 0.228, 0.97, 0.262, 192.0, 0.0, 0.0, 0.0, 0.0, 0.0, 0.0, 0.0, 0.0, 0.0, 1.6959296608111138E9, 0.0, 2023-09-28 14:34:20.811
196.0, 14801.615750982255, 18948.04316139736, 29592.413257648142, 14070.132561937877, 31608.02651739437, 5795.4050058609255, -187500.02235174447, 34857.70194026255, 16518.676760038943, -25350.432139686603, -187500.02235174447, 52917.06209386136, 25690.290414129548, -2747.3423179796123, 64835.28045836455, 30877.236232428102, 0.228, 0.97, 0.262, 192.0, 0.0, 0.0, 0.0, 0.0, 0.0, 0.0, 0.0, 0.0, 0.0, 1.6959296608111393E9, 0.0, 2023-09-28 14:34:20.811
198.0, 14635.89991759061, 18944.69039972906, 29566.66404803563, 14086.806963301537, 31609.479380783963, 5806.24560192175, -187500.02235174447, 34877.46088236104, 16525.918725242464, -25333.28835168938, -187500.02235174447, 52890.75409063746, 25708.261216671614, -2726.599899125087, 64747.438102655186, 30862.77465376552, 0.226, 0.972, 0.262, 192.0, 3.5, 8.0, 15.0, 48.0, 4.0, 24.0, 0.0, 0.0, 0.0, 1.695929660811165E9, 0.0, 2023-09-28 14:34:20.811
200.0, 14811.517573775956, 18946.433835796575, 29607.679499111116, 14067.003317714134, 31607.91475867209, 5788.855944735521, -187500.02235174447, 34856.27142861741, 16510.27250412375, -25352.06381703184, -187500.02235174447, 52918.06792236184, 25686.60237629442, -2743.967204566861, 64835.459272320186, 30873.034104470506, 0.226, 0.972, 0.262, 192.0, 0.0, 0.0, 0.0, 0.0, 0.0, 0.0, 0.0, 0.0, 0.0, 1.6959296608111894E9, 0.0, 2023-09-28 14:34:20.811
202.0, 14642.024295571364, 18952.066475399315, 29559.310324109832, 14087.678681335294, 31613.860322697205, 5803.362226887015, -187500.02235174447, 34873.32580963681, 16522.342446129616, -25332.461337144538, -187500.02235174447, 52893.57041043883, 25704.260254414115, -2731.830207327629, 64767.6887831317, 30851.084691415395, 0.226, 0.972, 0.262, 192.0, 0.0, 0.0, 0.0, 0.0, 0.0, 0.0, 0.0, 0.0, 0.0, 1.6959296608112154E9, 0.0, 2023-09-28 14:34:20.811
204.0, 14803.113317860762, 18958.213205124524, 29620.867028339748, 14076.301643407542, 31595.710706199494, 5786.531363312169, -187500.02235174447, 34851.152879137146, 16519.190850161416, -25346.654694873658, -187500.02235174447, 52921.733608452516, 25692.480885086166, -2739.228634742336, 64819.96951341266, 30876.610383583356, 0.226, 0.972, 0.262, 192.0, 0.0, 0.0, 0.0, 0.0, 0.0, 0.0, 0.0, 0.0, 0.0, 1.6959296608112462E9, 0.0, 2023-09-28 14:34:20.811
206.0, 14650.652068931113, 18951.50768178793, 29549.721425738506, 14087.991605757667, 31605.612528993195, 5794.689750038356, -187500.02235174447, 34858.059568173834, 16515.07812918164, -25348.465186174537, -187500.02235174447, 52890.0835383038, 25696.90653048832, -2741.3073469766796, 64775.37778322432, 30846.413176824237, 0.226, 0.972, 0.262, 192.0, 0.0, 0.0, 0.0, 0.0, 0.0, 0.0, 0.0, 0.0, 0.0, 1.6959296608112688E9, 0.0, 2023-09-28 14:34:20.811
208.0, 14801.772213193442, 18962.929423204594, 29626.5443714314, 14084.191809200265, 31595.844816666227, 5786.844287734543, -187500.02235174447, 34850.83995471477, 16516.21806814886, -25351.125043764718, -187500.02235174447, 52919.61019272926, 25692.54794031953, -2746.872931346051, 64806.73728069512, 30878.510281862058, 0.232, 0.972, 0.256, 192.0, 3.5, 32.0, 15.0, 48.0, 4.0, 0.0, 0.0, 0.0, 0.0, 1.6959296608112912E9, 0.0, 2023-09-28 14:34:20.811
210.0, 14667.929967395065, 18960.157806892134, 29549.497908293954, 14094.160687227331, 31612.228645351966, 5793.125127926484, -187500.02235174447, 34853.85744021624, 16530.009094477784, -25333.91420053413, -187500.02235174447, 52907.71906467904, 25709.24469342765, -2731.4055241829783, 64787.291263019004, 30858.17019440773, 0.232, 0.972, 0.256, 192.0, 0.0, 0.0, 0.0, 0.0, 0.0, 0.0, 0.0, 0.0, 0.0, 1.695929660811313E9, 0.0, 2023-09-28 14:34:20.811
212.0, 14805.504954517479, 18955.03925741187, 29630.05359531088, 14072.658309061326, 31584.892461883126, 5772.941502683342, -187500.02235174447, 34846.43666105708, 16513.31234136967, -25348.889869319188, -187500.02235174447, 52918.939640395605, 25691.676222285776, -2746.381192968034, 64803.18335332673, 30882.131264463816, 0.232, 0.972, 0.256, 192.0, 0.0, 0.0, 0.0, 0.0, 0.0, 0.0, 0.0, 0.0, 0.0, 1.695929660811335E9, 0.0, 2023-09-28 14:34:20.811
214.0, 14679.910502423108, 18966.863330228727, 29545.0722628918, 14093.288969193574, 31620.230569866966, 5799.249505907239, -187500.02235174447, 34848.94005643607, 16520.017864706264, -25332.953075522553, -187500.02235174447, 52908.3896170127, 25702.89679800234, -2733.5959951395985, 64811.11822260836, 30855.91266821774, 0.232, 0.972, 0.256, 192.0, 0.0, 0.0, 0.0, 0.0, 0.0, 0.0, 0.0, 0.0, 0.0, 1.6959296608113687E9, 0.0, 2023-09-28 14:34:20.811
216.0, 14774.056050068863, 18961.923594704105, 29634.501592457487, 14073.373564883896, 31596.20244457751, 5771.3321770825605, -187500.02235174447, 34848.47066980251, 16529.092672955117, -25334.71886333452, -187500.02235174447, 52913.48581474851, 25708.19416143825, -2735.5629486516655, 64774.90839659076, 30883.360610408858, 0.232, 0.972, 0.256, 192.0, 0.0, 0.0, 0.0, 0.0, 0.0, 0.0, 0.0, 0.0, 0.0, 1.6959296608113923E9, 0.0, 2023-09-28 14:34:20.811
218.0, 14708.699549281544, 18973.680612287597, 29543.75350996894, 14086.717556323714, 31621.392860578642, 5791.515802325703, -187500.02235174447, 34849.00711166944, 16518.02855944974, -25331.947247022064, -187500.02235174447, 52908.88135539072, 25702.65092881333, -2735.317079462657, 64827.010312916085, 30855.264467628538, 0.228, 0.966, 0.246, 192.0, 3.5, 16.0, 15.0, 24.0, 3.5, 88.0, 0.0, 0.0, 0.0, 1.695929660811414E9, 0.0, 2023-09-28 14:34:20.811
220.0, 14759.974451062018, 18962.102408659746, 29621.090545784304, 14077.93332075278, 31601.231587079954, 5771.600398016024, -187500.02235174447, 34857.65723677364, 16519.235553650327, -25334.316531934328, -187500.02235174447, 52912.47998624802, 25701.287472401556, -2736.2782044742353, 64778.842303614896, 30877.772674295033, 0.228, 0.966, 0.246, 192.0, 0.0, 0.0, 0.0, 0.0, 0.0, 0.0, 0.0, 0.0, 0.0, 1.695929660811436E9, 0.0, 2023-09-28 14:34:20.811
222.0, 14723.831680277788, 18973.814722754327, 29541.205411101033, 14094.518315138617, 31621.54932278983, 5799.115395440507, -187500.02235174447, 34864.74273976597, 16514.78755650372, -25338.652770358654, -187500.02235174447, 52915.58687872731, 25695.83364675446, -2739.3403934646126, 64842.88005147935, 30865.032179955506, 0.228, 0.966, 0.246, 192.0, 0.0, 0.0, 0.0, 0.0, 0.0, 0.0, 0.0, 0.0, 0.0, 1.695929660811458E9, 0.0, 2023-09-28 14:34:20.811
224.0, 14732.414750148626, 18967.80210349585, 29627.751365631982, 14090.115021480922, 31607.82535169427, 5775.310787595605, -187500.02235174447, 34858.95363795205, 16528.958562488384, -25319.09499396026, -187500.02235174447, 52917.28561130591, 25715.86080978642, -2720.9002042889842, 64759.01630628304, 30888.479159889124, 0.228, 0.966, 0.246, 192.0, 0.0, 0.0, 0.0, 0.0, 0.0, 0.0, 0.0, 0.0, 0.0, 1.695929660811479E9, 0.0, 2023-09-28 14:34:20.811
226.0, 14728.369084402215, 18976.98867046698, 29546.256905347935, 14100.396823930363, 31624.343290846744, 5801.551735586136, -187500.02235174447, 34867.62611480071, 16512.194754146905, -25340.731482593, -187500.02235174447, 52924.460521276065, 25696.571254321487, -2741.799085354696, 64851.261955650094, 30864.093406688382, 0.228, 0.966, 0.246, 192.0, 0.0, 0.0, 0.0, 0.0, 0.0, 0.0, 0.0, 0.0, 0.0, 1.6959296608115015E9, 0.0, 2023-09-28 14:34:20.811
228.0, 14697.680139265078, 18965.678687772597, 29612.172199746634, 14094.115983738422, 31601.946842902526, 5778.328273097071, -187500.02235174447, 34865.99443745547, 16524.354103130594, -25329.10857547624, -187500.02235174447, 52910.62479145823, 25711.859847528918, -2726.644602613998, 64748.95802127815, 30880.901918518775, 0.234, 0.976, 0.248, 192.0, 3.5, 40.0, 15.0, 64.0, 3.5, 96.0, 0.0, 0.0, 0.0, 1.6959296608115237E9, 0.0, 2023-09-28 14:34:20.811
230.0, 14751.816064335831, 18972.160693664635, 29549.967294927515, 14096.59702737296, 31611.714555229493, 5785.614941789501, -187500.02235174447, 34846.57077152381, 16507.03150117773, -25346.8335088293, -187500.02235174447, 52927.321544566345, 25691.810332752506, -2743.520169677755, 64864.38242964535, 30864.853365999865, 0.234, 0.976, 0.248, 192.0, 0.0, 0.0, 0.0, 0.0, 0.0, 0.0, 0.0, 0.0, 0.0, 1.6959296608115473E9, 0.0, 2023-09-28 14:34:20.811
232.0, 14683.419726302593, 18956.536824290375, 29601.979804275015, 14092.327844181997, 31603.511465014395, 5773.701461994822, -187500.02235174447, 34862.79813799836, 16520.93428622893, -25331.05317724385, -187500.02235174447, 52910.2895152914, 25709.691728316753, -2730.734971849319, 64748.30982068895, 30866.4850433451, 0.234, 0.976, 0.248, 192.0, 0.0, 0.0, 0.0, 0.0, 0.0, 0.0, 0.0, 0.0, 0.0, 1.695929660811568E9, 0.0, 2023-09-28 14:34:20.811
234.0, 14780.582759449811, 18960.068399914315, 29558.975047943004, 14079.54264635356, 31608.898235428125, 5771.354528827015, -187500.02235174447, 34841.60868425473, 16511.814774491166, -25353.226107743518, -187500.02235174447, 52926.561585254865, 25694.85016999843, -2748.102277291093, 64867.53402561355, 30869.524880591023, 0.234, 0.976, 0.248, 192.0, 0.0, 0.0, 0.0, 0.0, 0.0, 0.0, 0.0, 0.0, 0.0, 1.6959296608115897E9, 0.0, 2023-09-28 14:34:20.811
236.0, 14676.445982032536, 18943.84103343976, 29584.165463944133, 14069.841989259958, 31600.806903935303, 5747.259348304195, -187500.02235174447, 34844.60381801174, 16513.468803580858, -25339.05510175885, -187500.02235174447, 52895.313846506346, 25709.89289401685, -2733.6630503729643, 64745.60525960985, 30859.623057797322, 0.234, 0.976, 0.248, 192.0, 0.0, 0.0, 0.0, 0.0, 0.0, 0.0, 0.0, 0.0, 0.0, 1.6959296608116105E9, 0.0, 2023-09-28 14:34:20.811
238.0, 14813.864506943764, 18944.69039972906, 29553.2753531069, 14055.358058852918, 31589.0051828629, 5745.1582843253955, -187500.02235174447, 34807.54462570484, 16487.339614312605, -25375.77901789892, -187500.02235174447, 52897.549020951876, 25674.13010288836, -2777.964207883383, 64869.16570295879, 30844.53563028999, 0.23, 0.97, 0.244, 192.0, 3.5, 24.0, 15.0, 40.0, 3.5, 80.0, 0.0, 0.0, 0.0, 1.6959296608116312E9, 0.0, 2023-09-28 14:34:20.811
240.0, 14675.730726209966, 18935.190908335557, 29555.018789174414, 14065.25988164662, 31594.68252595455, 5741.291432534627, -187500.02235174447, 34828.97994863748, 16502.672911008944, -25351.59443039828, -187500.02235174447, 52871.1292590057, 25693.41965835329, -2752.7514401377966, 64755.90941380375, 30834.09736562936, 0.23, 0.97, 0.244, 192.0, 0.0, 0.0, 0.0, 0.0, 0.0, 0.0, 0.0, 0.0, 0.0, 1.6959296612910957E9, 0.0, 2023-09-28 14:34:21.291
242.0, 14822.246411114504, 18953.474635299997, 29545.69811173655, 14042.908137191313, 31593.38612477614, 5740.3973627564155, -187500.02235174447, 34817.535855476366, 16502.82937322013, -25375.622555687733, -187500.02235174447, 52889.74826213697, 25679.293355857535, -2781.294617807224, 64854.50295859611, 30846.61434252433, 0.23, 0.97, 0.244, 192.0, 0.0, 0.0, 0.0, 0.0, 0.0, 0.0, 0.0, 0.0, 0.0, 1.6959296612911563E9, 0.0, 2023-09-28 14:34:21.291
244.0, 14663.660784204101, 18938.834242681773, 29539.149050611148, 14074.200579428743, 31622.041061167845, 5760.178656599362, -187500.02235174447, 34853.36570183822, 16509.02080643425, -25339.748005836966, -187500.02235174447, 52864.58019788029, 25702.56152183551, -2747.699945890897, 64746.78990206598, 30841.071109899418, 0.23, 0.97, 0.244, 192.0, 0.0, 0.0, 0.0, 0.0, 0.0, 0.0, 0.0, 0.0, 0.0, 1.695929661291189E9, 0.0, 2023-09-28 14:34:21.291
246.0, 14822.60403902579, 18938.007228136925, 29557.388074086677, 14063.672907790293, 31608.54060751684, 5753.361374540494, -187500.02235174447, 34841.027538898896, 16488.70307072438, -25372.292145763895, -187500.02235174447, 52886.44020395759, 25684.098980915427, -2766.83303914464, 64845.808130002995, 30869.25665965756, 0.23, 0.97, 0.244, 192.0, 0.0, 0.0, 0.0, 0.0, 0.0, 0.0, 0.0, 0.0, 0.0, 1.6959296612912104E9, 0.0, 2023-09-28 14:34:21.291
248.0, 14650.495606719925, 18915.431966237065, 29506.582558939765, 14080.861399276424, 31616.743697731938, 5763.442011289837, -187500.02235174447, 34861.88171647569, 16484.679756722424, -25364.670200904635, -187500.02235174447, 52849.47041862851, 25693.665527542296, -2751.767963381763, 64764.1348557633, 30851.241153626583, 0.228, 0.968, 0.246, 192.0, 3.5, 16.0, 15.0, 32.0, 3.5, 88.0, 0.0, 0.0, 0.0, 1.6959296612912283E9, 0.0, 2023-09-28 14:34:21.291
250.0, 14818.558373279378, 18910.492230712443, 29558.28214386489, 14066.645689802848, 31602.885616169646, 5753.003746629209, -187500.02235174447, 34841.854553443736, 16475.91787289594, -25374.147340553685, -187500.02235174447, 52875.934884063594, 25687.071762927982, -2754.092544805115, 64833.089987407926, 30887.048648243985, 0.228, 0.968, 0.246, 192.0, 0.0, 0.0, 0.0, 0.0, 0.0, 0.0, 0.0, 0.0, 0.0, 1.6959296612912476E9, 0.0, 2023-09-28 14:34:21.291
252.0, 14657.648164945624, 18884.854779822206, 29493.797361111327, 14079.07325972, 31608.33944181674, 5766.303034580116, -187500.02235174447, 34858.5289548074, 16463.132675067507, -25372.225090530526, -187500.02235174447, 52841.49084585797, 25688.725792017674, -2744.794219111707, 64784.81021938446, 30854.370397850325, 0.228, 0.968, 0.246, 192.0, 0.0, 0.0, 0.0, 0.0, 0.0, 0.0, 0.0, 0.0, 0.0, 1.6959296612912612E9, 0.0, 2023-09-28 14:34:21.291
254.0, 14810.6458557422, 18876.91991054057, 29552.09071065077, 14076.92749225229, 31607.91475867209, 5765.990110157742, -187500.02235174447, 34858.26073387393, 16444.938355080885, -25396.230864075525, -187500.02235174447, 52859.640462355674, 25670.442065053234, -2755.835980872629, 64838.76733049958, 30884.567604609445, 0.228, 0.968, 0.246, 192.0, 0.0, 0.0, 0.0, 0.0, 0.0, 0.0, 0.0, 0.0, 0.0, 1.6959296612912776E9, 0.0, 2023-09-28 14:34:21.291
0.0, 14635.497586190413, 18858.725590553953, 29482.442674928032, 14092.014919759622, 31629.573599049283, 5782.552752799124, -187500.02235174447, 34868.073149689815, 16452.53794819569, -25385.010288358964, -187500.02235174447, 52839.568595834804, 25691.60916705241, -2729.550329393188, 64794.95791136717, 30867.669685801233, 0.228, 0.968, 0.246, 192.0, 0.0, 0.0, 0.0, 0.0, 0.0, 0.0, 0.0, 0.0, 0.0, 1.695929661291289E9, 0.0, 2023-09-28 14:34:21.291
2.0, 14768.602224421767, 18832.48464256342, 29564.80885324584, 14071.473666605196, 31602.43858128054, 5756.825894931066, -187500.02235174447, 34856.04791117286, 16443.82076785812, -25400.857675177776, -187500.02235174447, 52852.8231802968, 25680.27683261357, -2737.373439952545, 64797.282492790524, 30898.425686171733, 0.234, 0.974, 0.25, 192.0, 3.5, 40.0, 15.0, 56.0, 3.5, 104.0, 0.0, 0.0, 0.0, 1.6959296612913013E9, 0.0, 2023-09-28 14:34:21.291
4.0, 14642.963068838486, 18826.941409938503, 29481.83917782774, 14103.459012920739, 31620.856418711715, 5795.807337261122, -187500.02235174447, 34874.71161779304, 16425.179412982394, -25405.998576402497, -187500.02235174447, 52833.55597657633, 25668.408056307802, -2729.639736371009, 64813.97924589864, 30865.993304967084, 0.234, 0.974, 0.25, 192.0, 0.0, 0.0, 0.0, 0.0, 0.0, 0.0, 0.0, 0.0, 0.0, 1.6959296612913146E9, 0.0, 2023-09-28 14:34:21.291
6.0, 14748.01626777843, 18814.916171421548, 29572.18492891609, 14099.614512874427, 31596.06833411078, 5779.4905638087475, -187500.02235174447, 34859.534783307885, 16430.990866540775, -25382.21632030205, -187500.02235174447, 52867.73179384849, 25669.92797493076, -2693.1393376754927, 64807.83251617343, 30911.747325867098, 0.234, 0.974, 0.25, 192.0, 0.0, 0.0, 0.0, 0.0, 0.0, 0.0, 0.0, 0.0, 0.0, 1.6959296612913263E9, 0.0, 2023-09-28 14:34:21.291
8.0, 14644.974725839464, 18822.15813662507, 29498.5135791914, 14129.074112066523, 31627.293721114842, 5819.120206728006, -187500.02235174447, 34891.274260434424, 16432.53313690819, -25374.460264976056, -187500.02235174447, 52875.42079394112, 25680.70151575822, -2674.095651399571, 64843.48354857964, 30902.471351918146, 0.234, 0.974, 0.25, 192.0, 0.0, 0.0, 0.0, 0.0, 0.0, 0.0, 0.0, 0.0, 0.0, 1.6959296612913384E9, 0.0, 2023-09-28 14:34:21.291
10.0, 14717.10380519674, 18798.867618902637, 29582.019696476425, 14105.291855966076, 31607.043040638335, 5782.686863265856, -187500.02235174447, 34880.25485041796, 16418.317427434617, -25376.27075627694, -187500.02235174447, 52881.947503322066, 25673.012515665596, -2675.4367560668893, 64816.97437965565, 30928.578189441945, 0.234, 0.974, 0.25, 192.0, 0.0, 0.0, 0.0, 0.0, 0.0, 0.0, 0.0, 0.0, 0.0, 1.69592966129135E9, 0.0, 2023-09-28 14:34:21.291
12.0, 14634.871737345666, 18804.746127694383, 29486.5106924189, 14118.680550894804, 31637.195543908543, 5803.0940059535515, -187500.02235174447, 34887.94385051058, 16409.600247097045, -25381.36695401275, -187500.02235174447, 52872.716232862025, 25671.447893553723, -2680.8011747361634, 64873.39018266084, 30904.192436241203, 0.23800000000000002, 0.97, 0.25, 192.0, 3.5, 56.0, 15.0, 40.0, 3.5, 104.0, 0.0, 0.0, 0.0, 1.6959296612913637E9, 0.0, 2023-09-28 14:34:21.291
14.0, 14675.23898783195, 18785.121296062625, 29558.863289220728, 14082.694242321759, 31596.91770040008, 5755.775362941667, -187500.02235174447, 34869.391902612675, 16404.928732505887, -25390.41941051715, -187500.02235174447, 52864.200218224556, 25669.860919697396, -2696.4920993437886, 64803.518629493556, 30913.736631123622, 0.23800000000000002, 0.97, 0.25, 192.0, 0.0, 0.0, 0.0, 0.0, 0.0, 0.0, 0.0, 0.0, 0.0, 1.6959296612913759E9, 0.0, 2023-09-28 14:34:21.291
16.0, 14675.887188421153, 18806.40015678408, 29459.44272988352, 14092.1266784819, 31615.804924464814, 5778.574142286079, -187500.02235174447, 34871.560021824844, 16382.889912472954, -25395.225035575037, -187500.02235174447, 52859.305186188845, 25643.485861240133, -2712.7418175627968, 64904.14618303135, 30890.20024421218, 0.23800000000000002, 0.97, 0.25, 192.0, 0.0, 0.0, 0.0, 0.0, 0.0, 0.0, 0.0, 0.0, 0.0, 1.695929661291388E9, 0.0, 2023-09-28 14:34:21.291
18.0, 14672.981461641964, 18817.084290633713, 29536.779765698884, 14095.591198872471, 31602.68445046955, 5756.535322253147, -187500.02235174447, 34874.82337651532, 16398.133802191474, -25359.506947935457, -187500.02235174447, 52856.578273365296, 25661.210794593193, -2691.127680674515, 64808.16779234026, 30902.06902051795, 0.23800000000000002, 0.97, 0.25, 192.0, 0.0, 0.0, 0.0, 0.0, 0.0, 0.0, 0.0, 0.0, 0.0, 1.695929661291401E9, 0.0, 2023-09-28 14:34:21.291
20.0, 14692.695700251545, 18850.25427940539, 29472.697314345518, 14113.69611188127, 31613.92737793057, 5771.958025927309, -187500.02235174447, 34871.42591135811, 16388.34373812005, -25369.5875846848, -187500.02235174447, 52874.90670381865, 25643.21764030667, -2719.15676822147, 64902.223933008194, 30880.700752818677, 0.23800000000000002, 0.97, 0.25, 192.0, 0.0, 0.0, 0.0, 0.0, 0.0, 0.0, 0.0, 0.0, 0.0, 1.6959296612914133E9, 0.0, 2023-09-28 14:34:21.291
22.0, 14636.123435035162, 18861.49720686641, 29555.55523104134, 14127.576545188016, 31611.423982551576, 5762.011499644697, -187500.02235174447, 34878.46671086153, 16412.05893898713, -25312.456525857036, -187500.02235174447, 52887.46838420253, 25671.380838320358, -2677.29195085668, 64773.36612622334, 30905.19826474169, 0.232, 0.978, 0.242, 192.0, 3.5, 32.0, 15.0, 72.0, 3.5, 72.0, 0.0, 0.0, 0.0, 1.695929661291426E9, 0.0, 2023-09-28 14:34:21.291
24.0, 14701.7705085004, 18893.75077411542, 29523.480477747977, 14138.886527882401, 31630.467668827496, 5778.775307986178, -187500.02235174447, 34882.35591439676, 16406.850982529042, -25302.711165274523, -187500.02235174447, 52925.30988756537, 25665.27881208406, -2677.5378200456885, 64886.04127002255, 30906.427610686736, 0.232, 0.978, 0.242, 192.0, 0.0, 0.0, 0.0, 0.0, 0.0, 0.0, 0.0, 0.0, 0.0, 1.6959296612914405E9, 0.0, 2023-09-28 14:34:21.291
26.0, 14630.200222754505, 18889.45923918, 29560.33850435478, 14127.733007399203, 31604.45023828152, 5755.909473408398, -187500.02235174447, 34875.29276314888, 16408.92969476339, -25274.14563586064, -187500.02235174447, 52909.507204235466, 25668.65392549681, -2666.8983896849622, 64791.02400434304, 30907.58990139841, 0.232, 0.978, 0.242, 192.0, 0.0, 0.0, 0.0, 0.0, 0.0, 0.0, 0.0, 0.0, 0.0, 1.6959296612914555E9, 0.0, 2023-09-28 14:34:21.291
28.0, 14746.33988694428, 18898.288178239844, 29524.32984403728, 14118.211164261242, 31609.613491250693, 5754.791886185633, -187500.02235174447, 34861.38997809768, 16397.709119046824, -25278.43717079606, -187500.02235174447, 52936.128131881735, 25649.677294454254, -2687.4396428393893, 64921.6252471954, 30907.25462523158, 0.232, 0.978, 0.242, 192.0, 0.0, 0.0, 0.0, 0.0, 0.0, 0.0, 0.0, 0.0, 0.0, 1.6959296612914672E9, 0.0, 2023-09-28 14:34:21.291
30.0, 14626.243963985917, 18901.55153293032, 29552.31422809532, 14123.03914106359, 31622.622206523683, 5754.680127463356, -187500.02235174447, 34893.442379646585, 16403.252351671737, -25264.84731016723, -187500.02235174447, 52907.383788512205, 25665.256460339602, -2679.772994491219, 64813.3981005428, 30896.704601848676, 0.232, 0.978, 0.242, 192.0, 0.0, 0.0, 0.0, 0.0, 0.0, 0.0, 0.0, 0.0, 0.0, 1.6959296612914796E9, 0.0, 2023-09-28 14:34:21.291
32.0, 14767.037602309896, 18929.2676960549, 29553.476518806998, 14130.32580975602, 31630.11004091621, 5769.812258459599, -187500.02235174447, 34891.87775753472, 16399.318444647604, -25267.306002057318, -187500.02235174447, 52948.80157098789, 25656.98631489114, -2690.837107996596, 64939.08195961499, 30914.965977068663, 0.218, 0.974, 0.244, 192.0, 3.0, 104.0, 15.0, 56.0, 3.5, 80.0, 0.0, 0.0, 0.0, 1.695929661291492E9, 0.0, 2023-09-28 14:34:21.291
34.0, 14615.090443502719, 18920.908143628614, 29547.12862338169, 14135.37730400292, 31632.97106420649, 5768.202932858817, -187500.02235174447, 34913.24602523399, 16419.792642568667, -25233.063129551785, -187500.02235174447, 52929.08733237831, 25682.400248336824, -2657.577712247099, 64828.57493502795, 30916.88822709182, 0.218, 0.974, 0.244, 192.0, 0.0, 0.0, 0.0, 0.0, 0.0, 0.0, 0.0, 0.0, 0.0, 1.6959296612915041E9, 0.0, 2023-09-28 14:34:21.291
36.0, 14774.413677980147, 18940.823547938293, 29561.90312646665, 14128.761187644148, 31626.578465292274, 5764.2913775791385, -187500.02235174447, 34899.119722738236, 16411.321331420106, -25259.348781031225, -187500.02235174447, 52949.29330936591, 25662.238974838136, -2687.260828883747, 64929.40365426584, 30921.06800330496, 0.218, 0.974, 0.244, 192.0, 0.0, 0.0, 0.0, 0.0, 0.0, 0.0, 0.0, 0.0, 0.0, 1.695929661291516E9, 0.0, 2023-09-28 14:34:21.291
38.0, 14601.008844495875, 18941.002361893938, 29543.79821345785, 14151.13528384391, 31641.129450932676, 5768.359395070004, -187500.02235174447, 34909.468580421046, 16433.650724130955, -25219.115641011675, -187500.02235174447, 52934.22823360303, 25693.106733930916, -2654.269654067714, 64828.820804216964, 30919.59278817091, 0.218, 0.974, 0.244, 192.0, 0.0, 0.0, 0.0, 0.0, 0.0, 0.0, 0.0, 0.0, 0.0, 1.6959296612915332E9, 0.0, 2023-09-28 14:34:21.291
40.0, 14776.313576258848, 18943.70692297303, 29588.4346471351, 14132.22570803472, 31627.67370077058, 5744.800656414111, -187500.02235174447, 34885.57456559832, 16427.81691882812, -25244.194298290528, -187500.02235174447, 52959.396297859705, 25674.621841266377, -2679.1471456464706, 64915.27735177009, 30935.64134068982, 0.218, 0.974, 0.244, 192.0, 0.0, 0.0, 0.0, 0.0, 0.0, 0.0, 0.0, 0.0, 0.0, 1.6959296612915463E9, 0.0, 2023-09-28 14:34:21.291
42.0, 14604.003978252886, 18948.691361986563, 29539.886658178173, 14148.497777998184, 31640.41419511011, 5766.325386324571, -187500.02235174447, 34902.91951929564, 16436.69056137688, -25219.585027645237, -187500.02235174447, 52932.26128009096, 25688.099943172925, -2657.6224157360098, 64843.081217179446, 30904.483008919124, 0.218, 0.984, 0.23800000000000002, 192.0, 3.0, 104.0, 15.0, 96.0, 3.5, 56.0, 0.0, 0.0, 0.0, 1.695929661291561E9, 0.0, 2023-09-28 14:34:21.291
44.0, 14776.000651836473, 18947.283202085877, 29604.751420587472, 14127.755359143659, 31632.188753150556, 5738.452760988804, -187500.02235174447, 34881.081864962805, 16435.86354683203, -25231.99024581793, -187500.02235174447, 52961.229140905045, 25679.338059346446, -2682.8798869705065, 64898.245322495146, 30935.864858134373, 0.218, 0.984, 0.23800000000000002, 192.0, 0.0, 0.0, 0.0, 0.0, 0.0, 0.0, 0.0, 0.0, 0.0, 1.6959296612915745E9, 0.0, 2023-09-28 14:34:21.291
46.0, 14620.56662089427, 18945.383303807175, 29537.13739361017, 14142.619269206438, 31647.611456824718, 5756.334156553049, -187500.02235174447, 34909.66974612114, 16430.990866540775, -25214.600588631703, -187500.02235174447, 52932.01541090196, 25684.478960571167, -2671.86047695404, 64865.947051757226, 30909.199226999193, 0.218, 0.984, 0.23800000000000002, 192.0, 0.0, 0.0, 0.0, 0.0, 0.0, 0.0, 0.0, 0.0, 0.0, 1.6959296612915876E9, 0.0, 2023-09-28 14:34:21.291
48.0, 14774.659547169156, 18946.031504396382, 29605.421972921133, 14125.833109120502, 31633.88748572916, 5731.99310684122, -187500.02235174447, 34886.938022010094, 16423.10070074805, -25244.574277946267, -187500.02235174447, 52933.62473650274, 25669.41388480829, -2694.5251458317216, 64897.28419748357, 30926.99121558562, 0.218, 0.984, 0.23800000000000002, 192.0, 0.0, 0.0, 0.0, 0.0, 0.0, 0.0, 0.0, 0.0, 0.0, 1.6959296612916028E9, 0.0, 2023-09-28 14:34:21.291
50.0, 14645.265298517383, 18949.540728275864, 29531.907085407627, 14145.279126796619, 31646.02448296839, 5750.545054739125, -187500.02235174447, 34896.035182003405, 16428.129843250495, -25222.28958872433, -187500.02235174447, 52924.304059064874, 25679.80744598001, -2675.257942111247, 64881.101534497924, 30904.21478798566, 0.218, 0.984, 0.23800000000000002, 192.0, 0.0, 0.0, 0.0, 0.0, 0.0, 0.0, 0.0, 0.0, 0.0, 1.6959296612916193E9, 0.0, 2023-09-28 14:34:21.291
52.0, 14777.677032670623, 18949.920707931604, 29617.178990504624, 14133.455053979762, 31626.511410058905, 5725.354638737994, -187500.02235174447, 34880.008981228944, 16426.25229671625, -25219.629731134148, -187500.02235174447, 52945.426457575144, 25674.599489521923, -2679.10244215756, 64889.46108692421, 30929.22639003115, 0.21, 0.992, 0.23800000000000002, 192.0, 3.0, 72.0, 15.5, 0.0, 3.5, 56.0, 0.0, 0.0, 0.0, 1.695929661291633E9, 0.0, 2023-09-28 14:34:21.291
54.0, 14669.673403462579, 18945.159786362623, 29526.900294649637, 14140.719370927736, 31644.079881200778, 5734.429446986848, -187500.02235174447, 34891.967164512535, 16425.626447871502, -25229.688016139033, -187500.02235174447, 52922.560622997364, 25673.616012765888, -2690.479480085311, 64898.714709128704, 30888.12153197784, 0.21, 0.992, 0.23800000000000002, 192.0, 0.0, 0.0, 0.0, 0.0, 0.0, 0.0, 0.0, 0.0, 0.0, 1.6959296612916453E9, 0.0, 2023-09-28 14:34:21.291
56.0, 14776.15711404766, 18943.997495650947, 29617.603673649275, 14129.051760322067, 31623.650386768626, 5709.306086219083, -187500.02235174447, 34866.57558281131, 16428.01808452822, -25225.687053881535, -187500.02235174447, 52938.69858249409, 25670.062085397494, -2694.703959787364, 64882.9120257988, 30915.07773579094, 0.21, 0.992, 0.23800000000000002, 192.0, 0.0, 0.0, 0.0, 0.0, 0.0, 0.0, 0.0, 0.0, 0.0, 1.6959296612916608E9, 0.0, 2023-09-28 14:34:21.291
58.0, 14703.71511026801, 18958.816702224816, 29533.717576708506, 14155.85150192398, 31654.428738883587, 5746.164112825884, -187500.02235174447, 34913.44719093409, 16425.15706123794, -25231.74437662892, -187500.02235174447, 52928.28266957792, 25664.675314983764, -2701.0518552126714, 64939.37253229291, 30888.389752911302, 0.21, 0.992, 0.23800000000000002, 192.0, 0.0, 0.0, 0.0, 0.0, 0.0, 0.0, 0.0, 0.0, 0.0, 1.695929661291674E9, 0.0, 2023-09-28 14:34:21.291
60.0, 14749.44677942357, 18953.496987044455, 29636.53560120292, 14147.983687875712, 31643.1187561892, 5726.271060260661, -187500.02235174447, 34904.61825187424, 16459.131712810005, -25197.7473733124, -187500.02235174447, 52952.73547801203, 25694.447838598233, -2669.312378086135, 64870.95384251521, 30936.088375578925, 0.21, 0.992, 0.23800000000000002, 192.0, 0.0, 0.0, 0.0, 0.0, 0.0, 0.0, 0.0, 0.0, 0.0, 1.6959296612916868E9, 0.0, 2023-09-28 14:34:21.291
62.0, 14719.137813942172, 18956.000382423448, 29540.244286089455, 14154.130417600922, 31655.993360995457, 5746.23116805925, -187500.02235174447, 34895.85636804776, 16432.711950863835, -25232.61609466268, -187500.02235174447, 52932.68596323561, 25669.950326675218, -2699.353122634068, 64952.40359931035, 30902.53840715151, 0.214, 0.98, 0.24, 192.0, 3.0, 88.0, 15.0, 80.0, 3.5, 64.0, 0.0, 0.0, 0.0, 1.6959296612917027E9, 0.0, 2023-09-28 14:34:21.291
64.0, 14729.173747202605, 18946.635001496674, 29616.843714337792, 14146.08378959701, 31647.097366702244, 5727.053371316597, -187500.02235174447, 34889.35201041127, 16448.849910360565, -25216.634597377135, -187500.02235174447, 52920.750131696484, 25685.50714081611, -2682.5222590592216, 64865.92470001277, 30925.292483007015, 0.214, 0.98, 0.24, 192.0, 0.0, 0.0, 0.0, 0.0, 0.0, 0.0, 0.0, 0.0, 0.0, 1.6959296612917175E9, 0.0, 2023-09-28 14:34:21.291
66.0, 14727.117386712718, 18959.12962664719, 29537.807945943827, 14153.236347822709, 31669.44911115755, 5740.956156367798, -187500.02235174447, 34888.74851331097, 16445.474796947812, -25226.245847492915, -187500.02235174447, 52927.90268992218, 25682.020268681084, -2686.612628294543, 64956.35985807895, 30910.272110733047, 0.214, 0.98, 0.24, 192.0, 0.0, 0.0, 0.0, 0.0, 0.0, 0.0, 0.0, 0.0, 0.0, 1.6959296612917323E9, 0.0, 2023-09-28 14:34:21.291
68.0, 14693.276845607383, 18945.651524740642, 29600.772810074428, 14139.51237672715, 31650.78540453737, 5722.739484636722, -187500.02235174447, 34897.912728537645, 16452.806169129155, -25210.5996263742, -187500.02235174447, 52910.87066064723, 25693.933748475763, -2673.2462851102696, 64848.333877126446, 30920.82213411595, 0.214, 0.98, 0.24, 192.0, 0.0, 0.0, 0.0, 0.0, 0.0, 0.0, 0.0, 0.0, 0.0, 1.695929661291747E9, 0.0, 2023-09-28 14:34:21.291
70.0, 14749.603241634757, 18951.08299864328, 29534.164611597615, 14137.61247844845, 31662.855346543238, 5729.333249251038, -187500.02235174447, 34884.16640569764, 16427.660456616934, -25237.309960998293, -187500.02235174447, 52907.1379193232, 25664.22828009466, -2704.225802925325, 64961.74662849267, 30900.72791585063, 0.214, 0.98, 0.24, 192.0, 0.0, 0.0, 0.0, 0.0, 0.0, 0.0, 0.0, 0.0, 0.0, 1.695929661291762E9, 0.0, 2023-09-28 14:34:21.291
72.0, 14683.419726302593, 18946.210318352023, 29588.881682024206, 14140.115873827443, 31645.64450331265, 5714.357580465982, -187500.02235174447, 34889.66493483364, 16445.519500436723, -25215.964045043474, -187500.02235174447, 52890.37411098172, 25685.238919882646, -2686.0538346831604, 64852.1560254283, 30916.016509058063, 0.21, 0.976, 0.252, 192.0, 3.0, 72.0, 15.0, 64.0, 3.5, 112.0, 0.0, 0.0, 0.0, 1.6959296612917757E9, 0.0, 2023-09-28 14:34:21.291
74.0, 14763.550730174868, 18977.2792431449, 29550.28021934989, 14158.980746147723, 31656.865079029216, 5740.464417989781, -187500.02235174447, 34889.307306922354, 16436.467043932324, -25224.725928869957, -187500.02235174447, 52917.12914909472, 25667.536338274043, -2693.8769452425176, 64970.15088440787, 30914.362479968368, 0.21, 0.976, 0.252, 192.0, 0.0, 0.0, 0.0, 0.0, 0.0, 0.0, 0.0, 0.0, 0.0, 1.6959296612917907E9, 0.0, 2023-09-28 14:34:21.291
76.0, 14651.456731731503, 18956.201548123547, 29581.595013331775, 14153.593975733993, 31646.35975913522, 5715.832795600033, -187500.02235174447, 34888.50264412197, 16453.186148784895, -25199.379050657637, -187500.02235174447, 52902.10877682076, 25686.781190250065, -2667.256017596247, 64848.110359681894, 30911.300290977993, 0.21, 0.976, 0.252, 192.0, 0.0, 0.0, 0.0, 0.0, 0.0, 0.0, 0.0, 0.0, 0.0, 1.6959296612918098E9, 0.0, 2023-09-28 14:34:21.291
78.0, 14774.704250658066, 18966.818626739816, 29566.03819919088, 14151.60467047747, 31655.993360995457, 5713.08353103203, -187500.02235174447, 34873.169347425624, 16435.483567176292, -25235.05243480831, -187500.02235174447, 52912.68115194811, 25661.255498082104, -2705.455148870367, 64971.06730593053, 30904.5947676414, 0.21, 0.976, 0.252, 192.0, 0.0, 0.0, 0.0, 0.0, 0.0, 0.0, 0.0, 0.0, 0.0, 1.6959296612918248E9, 0.0, 2023-09-28 14:34:21.291
80.0, 14628.903821576097, 18950.390094565166, 29570.262678892934, 14151.291746055096, 31653.60172433874, 5712.1671095093625, -187500.02235174447, 34893.308269179855, 16451.30860225065, -25217.729832855446, -187500.02235174447, 52888.161288280644, 25688.211701895205, -2678.610703779543, 64858.21334817569, 30898.716258849654, 0.21, 0.976, 0.252, 192.0, 0.0, 0.0, 0.0, 0.0, 0.0, 0.0, 0.0, 0.0, 0.0, 1.695929661291839E9, 0.0, 2023-09-28 14:34:21.291
82.0, 14781.11920131674, 18953.720504489007, 29568.38513235869, 14137.925402870824, 31643.029349211378, 5708.099092018497, -187500.02235174447, 34862.127585664704, 16439.48452943379, -25243.23317327895, -187500.02235174447, 52910.691846691596, 25667.31282082949, -2715.3122681751574, 64963.110084904445, 30905.26531997506, 0.214, 0.974, 0.254, 192.0, 3.0, 88.0, 15.0, 56.0, 3.5, 120.0, 0.0, 0.0, 0.0, 1.6959296612918518E9, 0.0, 2023-09-28 14:34:21.291
84.0, 14633.888260589632, 18938.007228136925, 29542.45710879053, 14134.639696435894, 31635.139183418654, 5701.035940770619, -187500.02235174447, 34865.81562349983, 16439.640991644977, -25225.396481203614, -187500.02235174447, 52882.774517866914, 25673.4595505547, -2695.039235954194, 64871.400877404325, 30887.898014533286, 0.214, 0.974, 0.254, 192.0, 0.0, 0.0, 0.0, 0.0, 0.0, 0.0, 0.0, 0.0, 0.0, 1.6959296612918644E9, 0.0, 2023-09-28 14:34:21.291
86.0, 14803.06861437185, 18924.529126230376, 29543.172364613103, 14111.058606035544, 31621.795191978836, 5685.523830118636, -187500.02235174447, 34842.25688484393, 16411.56720060911, -25278.05719114032, -187500.02235174447, 52885.83670685729, 25639.663712938276, -2743.7213353778525, 64968.206282640254, 30878.77850279552, 0.214, 0.974, 0.254, 192.0, 0.0, 0.0, 0.0, 0.0, 0.0, 0.0, 0.0, 0.0, 0.0, 1.6959296612918785E9, 0.0, 2023-09-28 14:34:21.291
88.0, 14640.61613567068, 18931.815794922804, 29514.428021243577, 14137.32190577053, 31642.11292768871, 5707.830871085032, -187500.02235174447, 34872.81171951434, 16426.989904283273, -25246.51887971388, -187500.02235174447, 52868.84938107126, 25666.955192918205, -2706.639791326498, 64878.95576703022, 30872.631773070312, 0.214, 0.974, 0.254, 192.0, 0.0, 0.0, 0.0, 0.0, 0.0, 0.0, 0.0, 0.0, 0.0, 1.695929661291896E9, 0.0, 2023-09-28 14:34:21.291
90.0, 14798.35239629178, 18942.187004350068, 29567.871042236216, 14128.60472543296, 31645.845669012746, 5706.668580373357, -187500.02235174447, 34864.80979499934, 16427.83927057258, -25260.46636825399, -187500.02235174447, 52903.60634369926, 25661.635477737844, -2720.96725952235, 64949.2296515977, 30900.370287939346, 0.214, 0.974, 0.254, 192.0, 0.0, 0.0, 0.0, 0.0, 0.0, 0.0, 0.0, 0.0, 0.0, 1.6959296612919116E9, 0.0, 2023-09-28 14:34:21.291
92.0, 14633.620039656167, 18936.733178702973, 29506.291986261844, 14132.851556879468, 31644.92924749008, 5709.484900174725, -187500.02235174447, 34867.313190378336, 16435.550622409657, -25252.442091994537, -187500.02235174447, 52879.08648003179, 25675.001820922116, -2718.352105421079, 64881.99560427614, 30872.050627714474, 0.22, 0.974, 0.254, 192.0, 3.0, 112.0, 15.0, 56.0, 3.5, 120.0, 0.0, 0.0, 0.0, 1.6959296612919269E9, 0.0, 2023-09-28 14:34:21.291
94.0, 14799.6935009591, 18949.965411420515, 29569.905050981648, 14131.041065578589, 31627.226665881477, 5698.241972713706, -187500.02235174447, 34851.44345181507, 16426.29700020516, -25261.15927233211, -187500.02235174447, 52903.65104718817, 25658.774454447564, -2718.754436821275, 64931.61647696692, 30900.92908155073, 0.22, 0.974, 0.254, 192.0, 0.0, 0.0, 0.0, 0.0, 0.0, 0.0, 0.0, 0.0, 0.0, 1.6959296612919424E9, 0.0, 2023-09-28 14:34:21.291
96.0, 14642.337219993738, 18941.941135161058, 29489.729343620464, 14134.349123757975, 31630.378261849673, 5706.221545484251, -187500.02235174447, 34855.10913790573, 16428.286305461683, -25259.32642928677, -187500.02235174447, 52885.83670685729, 25663.42361729427, -2713.837053041107, 64897.261845739115, 30868.139072434795, 0.22, 0.974, 0.254, 192.0, 0.0, 0.0, 0.0, 0.0, 0.0, 0.0, 0.0, 0.0, 0.0, 1.695929661291956E9, 0.0, 2023-09-28 14:34:21.291
98.0, 14786.573026963833, 18934.743873446452, 29568.94392597007, 14111.237419991186, 31600.449276024017, 5681.4111091388595, -187500.02235174447, 34840.46874528751, 16429.895631062464, -25277.230176595473, -187500.02235174447, 52902.220535543034, 25656.539280002035, -2731.070248016149, 64901.26280799661, 30894.961165781162, 0.22, 0.974, 0.254, 192.0, 0.0, 0.0, 0.0, 0.0, 0.0, 0.0, 0.0, 0.0, 0.0, 1.6959296612919698E9, 0.0, 2023-09-28 14:34:21.291
100.0, 14645.824092128765, 18952.17823412159, 29482.375619694667, 14148.341315786996, 31639.251904398432, 5707.406187940382, -187500.02235174447, 34856.31613210632, 16426.364055438527, -25274.43620853856, -187500.02235174447, 52885.792003368384, 25656.539280002035, -2727.4939689032994, 64897.8653428394, 30856.67262752922, 0.22, 0.974, 0.254, 192.0, 0.0, 0.0, 0.0, 0.0, 0.0, 0.0, 0.0, 0.0, 0.0, 1.695929661291984E9, 0.0, 2023-09-28 14:34:21.291
102.0, 14774.279567513415, 18935.21326008001, 29572.162577171635, 14120.848670106969, 31597.096514355722, 5680.673501571835, -187500.02235174447, 34829.85166667124, 16434.745959609267, -25267.95420264652, -187500.02235174447, 52915.05043686038, 25657.74627420262, -2720.9449077778945, 64885.48247641117, 30896.92811929323, 0.23, 0.976, 0.258, 192.0, 3.5, 24.0, 15.0, 64.0, 4.0, 8.0, 0.0, 0.0, 0.0, 1.6959296612920015E9, 0.0, 2023-09-28 14:34:21.292
104.0, 14678.770563455888, 18945.964449163013, 29479.849872571216, 14132.248059779175, 31618.285968099353, 5694.2633622006615, -187500.02235174447, 34841.765146465914, 16427.101663005553, -25283.063981898307, -187500.02235174447, 52897.392558740685, 25652.247745066616, -2739.4968556757995, 64919.837107638974, 30857.142014162782, 0.23, 0.976, 0.258, 192.0, 0.0, 0.0, 0.0, 0.0, 0.0, 0.0, 0.0, 0.0, 0.0, 1.6959296617705116E9, 0.0, 2023-09-28 14:34:21.770
106.0, 14768.982204077507, 18946.143263118658, 29575.157710928645, 14120.759263129148, 31600.650441724116, 5685.859106285466, -187500.02235174447, 34836.60189349674, 16433.047227030664, -25267.551871246324, -187500.02235174447, 52911.63061995872, 25653.812367178485, -2725.035277013216, 64882.37558393188, 30878.44322662869, 0.23, 0.976, 0.258, 192.0, 0.0, 0.0, 0.0, 0.0, 0.0, 0.0, 0.0, 0.0, 0.0, 1.6959296617705667E9, 0.0, 2023-09-28 14:34:21.770
108.0, 14677.518865766391, 18956.40271382364, 29484.25316622891, 14133.142129557387, 31630.333558360766, 5711.205984497784, -187500.02235174447, 34821.782686922874, 16444.848948103067, -25259.505243242413, -187500.02235174447, 52921.308925307865, 25669.07860864146, -2721.771922322741, 64921.938171617774, 30858.617229296833, 0.23, 0.976, 0.258, 192.0, 0.0, 0.0, 0.0, 0.0, 0.0, 0.0, 0.0, 0.0, 0.0, 1.6959296617705803E9, 0.0, 2023-09-28 14:34:21.770
110.0, 14732.906488526642, 18933.536879245865, 29560.003228187947, 14102.36377744243, 31585.71947642797, 5676.516077103148, -187500.02235174447, 34834.724346962495, 16446.279459748206, -25276.492569028447, -187500.02235174447, 52903.405177999164, 25658.975620147663, -2742.0896580326153, 64842.20949914569, 30867.87085150133, 0.23, 0.976, 0.258, 192.0, 0.0, 0.0, 0.0, 0.0, 0.0, 0.0, 0.0, 0.0, 0.0, 1.6959296617705932E9, 0.0, 2023-09-28 14:34:21.770
112.0, 14727.139738457172, 18952.737027732972, 29487.762390108397, 14132.695094668281, 31624.03036642437, 5725.4887492047255, -187500.02235174447, 34839.14999236465, 16430.812052585134, -25281.879339442177, -187500.02235174447, 52920.99600088549, 25648.336189786936, -2747.454076701889, 64942.09944511646, 30861.120624675827, 0.23600000000000002, 0.978, 0.25, 192.0, 3.5, 48.0, 15.0, 72.0, 3.5, 104.0, 0.0, 0.0, 0.0, 1.6959296617706056E9, 0.0, 2023-09-28 14:34:21.770
114.0, 14721.954133743542, 18941.717617716506, 29565.077074179302, 14121.228649762708, 31599.465799267986, 5702.757025093678, -187500.02235174447, 34834.456126029036, 16453.186148784895, -25265.85313866772, -187500.02235174447, 52923.16412009765, 25672.811349965497, -2728.522149148244, 64850.569051571976, 30883.807645297966, 0.23600000000000002, 0.978, 0.25, 192.0, 0.0, 0.0, 0.0, 0.0, 0.0, 0.0, 0.0, 0.0, 0.0, 1.69592966177062E9, 0.0, 2023-09-28 14:34:21.770
116.0, 14761.807294107353, 18948.579603264287, 29487.717686619486, 14117.65237064986, 31609.099401128224, 5718.537356679125, -187500.02235174447, 34826.14127709166, 16430.29796246266, -25289.90361570163, -187500.02235174447, 52920.30309680737, 25644.02230310706, -2751.1421145370145, 64956.04693365657, 30862.43937759869, 0.23600000000000002, 0.978, 0.25, 192.0, 0.0, 0.0, 0.0, 0.0, 0.0, 0.0, 0.0, 0.0, 0.0, 1.6959296617706325E9, 0.0, 2023-09-28 14:34:21.770
118.0, 14707.179630658584, 18941.807024694328, 29546.36866407021, 14112.46676593623, 31598.68348821205, 5710.691894375312, -187500.02235174447, 34835.618416740705, 16443.954878324854, -25262.43332176606, -187500.02235174447, 52905.39448325569, 25662.5071957716, -2713.5017768742773, 64846.299868381015, 30875.02340972703, 0.23600000000000002, 0.978, 0.25, 192.0, 0.0, 0.0, 0.0, 0.0, 0.0, 0.0, 0.0, 0.0, 0.0, 1.6959296617706451E9, 0.0, 2023-09-28 14:34:21.770
120.0, 14781.700346672576, 18951.194757365556, 29494.378506467165, 14103.615475131926, 31603.802037692316, 5728.506234706192, -187500.02235174447, 34817.17822756508, 16434.120110764517, -25293.524598303393, -187500.02235174447, 52913.17289032613, 25643.575268217955, -2763.055594331693, 64952.31419233253, 30857.09731067387, 0.23600000000000002, 0.978, 0.25, 192.0, 0.0, 0.0, 0.0, 0.0, 0.0, 0.0, 0.0, 0.0, 0.0, 1.6959296617706575E9, 0.0, 2023-09-28 14:34:21.770
122.0, 14694.595598530246, 18946.36678056321, 29538.053815132836, 14111.483289180194, 31602.796209191827, 5734.094170820019, -187500.02235174447, 34830.879846916185, 16446.145349281473, -25259.259374053407, -187500.02235174447, 52898.599552941276, 25664.496501028123, -2725.6834776024198, 64841.628353789856, 30868.608459068357, 0.226, 0.97, 0.248, 192.0, 3.5, 8.0, 15.0, 40.0, 3.5, 96.0, 0.0, 0.0, 0.0, 1.6959296617706697E9, 0.0, 2023-09-28 14:34:21.770
124.0, 14791.892742144197, 18961.74478074846, 29508.683622918565, 14112.042082791577, 31620.364680333696, 5752.333194295549, -187500.02235174447, 34835.8195824408, 16440.35624746755, -25278.660688240612, -187500.02235174447, 52916.413893272154, 25652.113634599882, -2735.697059118397, 64954.50466328915, 30866.373284622823, 0.226, 0.97, 0.248, 192.0, 0.0, 0.0, 0.0, 0.0, 0.0, 0.0, 0.0, 0.0, 0.0, 1.6959296617706819E9, 0.0, 2023-09-28 14:34:21.770
126.0, 14670.992156385442, 18947.1714433636, 29530.476573762488, 14112.824393847513, 31615.91668318709, 5746.432333759348, -187500.02235174447, 34846.03432965688, 16457.611794187047, -25250.85511813821, -187500.02235174447, 52897.14668955168, 25673.21368136569, -2707.0197709822382, 64837.47092932116, 30874.039932970994, 0.226, 0.97, 0.248, 192.0, 0.0, 0.0, 0.0, 0.0, 0.0, 0.0, 0.0, 0.0, 0.0, 1.6959296617706957E9, 0.0, 2023-09-28 14:34:21.770
128.0, 14820.704140747088, 18945.74093171846, 29525.402727771132, 14100.687396608282, 31602.43858128054, 5742.4537232463035, -187500.02235174447, 34817.64761419864, 16440.73622712329, -25274.27974632737, -187500.02235174447, 52923.92407940914, 25651.197213077216, -2729.483274159822, 64955.219919111725, 30875.06811321594, 0.226, 0.97, 0.248, 192.0, 0.0, 0.0, 0.0, 0.0, 0.0, 0.0, 0.0, 0.0, 0.0, 1.6959296617707076E9, 0.0, 2023-09-28 14:34:21.770
130.0, 14664.688964449046, 18931.79344317835, 29513.399840998634, 14100.709748352738, 31613.54739827483, 5742.140798823929, -187500.02235174447, 34842.23453309948, 16443.418436457927, -25258.85704265321, -187500.02235174447, 52887.42368071362, 25663.065989382983, -2715.3122681751574, 64850.904327738805, 30856.829089740408, 0.226, 0.97, 0.248, 192.0, 0.0, 0.0, 0.0, 0.0, 0.0, 0.0, 0.0, 0.0, 0.0, 1.6959296617707195E9, 0.0, 2023-09-28 14:34:21.770
132.0, 14828.683713517632, 18931.50287050043, 29531.057719118326, 14090.271483692108, 31604.427886537065, 5743.817179658077, -187500.02235174447, 34822.67675670108, 16433.20368924185, -25289.30011860134, -187500.02235174447, 52909.01546585745, 25641.876535639352, -2740.1003527760927, 64957.85742495745, 30873.68230505971, 0.216, 0.968, 0.242, 192.0, 3.0, 96.0, 15.0, 32.0, 3.5, 72.0, 0.0, 0.0, 0.0, 1.695929661770734E9, 0.0, 2023-09-28 14:34:21.770
134.0, 14654.451865488514, 18927.680722198573, 29501.30754724831, 14106.744719355669, 31614.575578519773, 5754.590720485535, -187500.02235174447, 34834.03144288438, 16443.127863780006, -25266.05430436782, -187500.02235174447, 52880.494639932476, 25659.780282948053, -2714.284087930213, 64861.320240654975, 30850.6823600152, 0.216, 0.968, 0.242, 192.0, 0.0, 0.0, 0.0, 0.0, 0.0, 0.0, 0.0, 0.0, 0.0, 1.6959296617707465E9, 0.0, 2023-09-28 14:34:21.770
136.0, 14822.626390770245, 18923.903277385627, 29542.85944019073, 14091.254960448143, 31603.667927225582, 5745.314746536583, -187500.02235174447, 34824.97898637998, 16440.624468401013, -25277.900728929133, -187500.02235174447, 52909.57425946883, 25650.101977598904, -2719.2461751992914, 64928.308418787536, 30869.72604629112, 0.216, 0.968, 0.242, 192.0, 0.0, 0.0, 0.0, 0.0, 0.0, 0.0, 0.0, 0.0, 0.0, 1.6959296617707589E9, 0.0, 2023-09-28 14:34:21.770
138.0, 14651.344973009227, 18933.22395482349, 29487.762390108397, 14114.187850259286, 31631.004110694423, 5789.437090091359, -187500.02235174447, 34855.28795186138, 16431.951991552352, -25277.52074927339, -187500.02235174447, 52870.57046539432, 25650.66077121029, -2722.9565647788722, 64870.17153145928, 30843.172173878214, 0.216, 0.968, 0.242, 192.0, 0.0, 0.0, 0.0, 0.0, 0.0, 0.0, 0.0, 0.0, 0.0, 1.695929661770771E9, 0.0, 2023-09-28 14:34:21.770
140.0, 14806.555486506879, 18931.32405654479, 29553.32005659581, 14092.238437204176, 31607.1100958717, 5755.440086774836, -187500.02235174447, 34824.97898637998, 16449.140483038485, -25255.437225751546, -187500.02235174447, 52922.27005031944, 25662.12721611586, -2702.191794179892, 64915.54557270355, 30898.045706515994, 0.216, 0.968, 0.242, 192.0, 0.0, 0.0, 0.0, 0.0, 0.0, 0.0, 0.0, 0.0, 0.0, 1.6959296617707856E9, 0.0, 2023-09-28 14:34:21.770
