%OpenBCI Raw EXG Data
%Number of channels = 16
%Sample Rate = 125 Hz
%Board = OpenBCI_GUI$BoardCytonSerialDaisy
Sample Index, EXG Channel 0, EXG Channel 1, EXG Channel 2, EXG Channel 3, EXG Channel 4, EXG Channel 5, EXG Channel 6, EXG Channel 7, EXG Channel 8, EXG Channel 9, EXG Channel 10, EXG Channel 11, EXG Channel 12, EXG Channel 13, EXG Channel 14, EXG Channel 15, Accel Channel 0, Accel Channel 1, Accel Channel 2, Other, Other, Other, Other, Other, Other, Other, Analog Channel 0, Analog Channel 1, Analog Channel 2, Timestamp, Other, Timestamp (Formatted)
0.0, 13472.111639036137, 18925.311437286313, 31488.981126425402, 14827.11909140576, 31329.412022758966, 6073.661872585043, -187500.02235174447, 40639.27121630564, 0.0, 0.0, 0.0, 0.0, 0.0, 0.0, 0.0, 0.0, 0.0, 0.0, 0.0, 192.0, 0.0, 0.0, 0.0, 0.0, 0.0, 0.0, 0.0, 0.0, 0.0, 1.6959296100436897E9, 0.0, 2023-09-28 14:33:30.043
224.0, 13388.583170006654, 18896.63414915015, 31455.788785909273, 14793.814992167354, 31309.608377171564, 6052.226549652404, -187500.02235174447, 40618.81937012904, 15390.919493546427, -25265.80843517881, -187500.02235174447, 52874.2808549739, 25741.207687998736, -2451.6734423248104, 61883.35262338551, 32479.90101336253, 0.133, 0.48, 0.116, 192.0, 4.0, 40.0, 15.0, 0.0, 3.5, 32.0, 0.0, 0.0, 0.0, 1.6959296100437093E9, 0.0, 2023-09-28 14:33:30.043
226.0, 13468.736525623384, 18906.44656496603, 31476.330039063698, 14812.21047785407, 31302.992260812793, 6037.876729712097, -187500.02235174447, 40618.90877710686, 15374.46860962732, -25304.946339720052, -187500.02235174447, 52859.5287036334, 25733.876315817397, -2470.9629977897403, 61922.71404537131, 32464.18773701045, 0.133, 0.48, 0.116, 192.0, 0.0, 0.0, 0.0, 0.0, 0.0, 0.0, 0.0, 0.0, 0.0, 1.69592961004374E9, 0.0, 2023-09-28 14:33:30.043
228.0, 13388.247893839824, 18918.762376160907, 31458.873326644105, 14827.767291994965, 31330.954293126382, 6060.563750334233, -187500.02235174447, 40644.52387625264, 15390.159534234946, -25283.175740620583, -187500.02235174447, 52883.04273880038, 25742.459385688235, -2482.2282769952153, 61923.69752212734, 32480.32569650718, 0.133, 0.48, 0.116, 192.0, 0.0, 0.0, 0.0, 0.0, 0.0, 0.0, 0.0, 0.0, 0.0, 1.6959296100437524E9, 0.0, 2023-09-28 14:33:30.043
230.0, 13427.475205358889, 18916.281332526367, 31474.832472185193, 14801.056957370873, 31311.083592305615, 6051.153665918549, -187500.02235174447, 40623.222663786735, 15397.490906416288, -25303.560531563824, -187500.02235174447, 52881.27695098841, 25749.366074724923, -2454.757983059643, 61938.38261823447, 32482.024429085785, 0.133, 0.48, 0.116, 192.0, 0.0, 0.0, 0.0, 0.0, 0.0, 0.0, 0.0, 0.0, 0.0, 1.6959296100437646E9, 0.0, 2023-09-28 14:33:30.043
232.0, 13371.88641689854, 18919.522335472386, 31462.56136447923, 14843.927603236152, 31327.422717502443, 6062.240131168382, -187500.02235174447, 40636.54430348209, 15392.551170891664, -25286.19322612205, -187500.02235174447, 52891.1340702932, 25744.672208389307, -2474.226352480215, 61933.12995828748, 32483.85727213112, 0.133, 0.48, 0.116, 192.0, 0.0, 0.0, 0.0, 0.0, 0.0, 0.0, 0.0, 0.0, 0.0, 1.6959296100437794E9, 0.0, 2023-09-28 14:33:30.043
234.0, 13402.307141102212, 18892.87905608166, 31479.124007120612, 14783.712003673554, 31283.747408836774, 6027.773741218298, -187500.02235174447, 40600.17801525331, 15378.201350951356, -25306.510961831926, -187500.02235174447, 52880.964026566035, 25742.5264409216, -2490.453718954768, 61949.13380731748, 32483.14201630855, 0.1985, 0.725, 0.171, 192.0, 4.0, 32.0, 15.0, 40.0, 3.5, 8.0, 0.0, 0.0, 0.0, 1.6959296100437913E9, 0.0, 2023-09-28 14:33:30.043
236.0, 13384.179876348959, 18903.540838186844, 31454.827660897692, 14809.617675497257, 31319.666662176453, 6035.462741310924, -187500.02235174447, 40605.27421298912, 15378.581330607098, -25316.658653814633, -187500.02235174447, 52869.13995374918, 25726.366129680413, -2462.871666296919, 61963.17070283541, 32446.462803657392, 0.1985, 0.725, 0.171, 192.0, 0.0, 0.0, 0.0, 0.0, 0.0, 0.0, 0.0, 0.0, 0.0, 1.6959296100438025E9, 0.0, 2023-09-28 14:33:30.043
238.0, 13386.862085683595, 18886.419401934076, 31488.623498514116, 14783.153210062172, 31296.063220031647, 6014.5862119896665, -187500.02235174447, 40596.37821869591, 15379.117772474025, -25319.519677104912, -187500.02235174447, 52875.42079394112, 25719.88412378837, -2518.6839722018212, 61967.842217426565, 32465.10415853312, 0.1985, 0.725, 0.171, 192.0, 0.0, 0.0, 0.0, 0.0, 0.0, 0.0, 0.0, 0.0, 0.0, 1.695929610043814E9, 0.0, 2023-09-28 14:33:30.043
240.0, 13401.837754468652, 18878.953919286003, 31441.103689802134, 14776.44768672558, 31299.61714740004, 6013.33451430017, -187500.02235174447, 40591.37142793792, 15391.254769713256, -25332.997779011464, -187500.02235174447, 52861.741526334474, 25724.75680407963, -2509.3185912750473, 61990.50688630425, 32443.646483856024, 0.1985, 0.725, 0.171, 192.0, 0.0, 0.0, 0.0, 0.0, 0.0, 0.0, 0.0, 0.0, 0.0, 1.6959296100438256E9, 0.0, 2023-09-28 14:33:30.043
242.0, 13377.429649523456, 18872.248395949413, 31471.2785448168, 14764.981241820007, 31284.172091981425, 6003.90207814003, -187500.02235174447, 40586.588154624485, 15385.823295810616, -25323.76650855142, -187500.02235174447, 52858.0758402438, 25712.66451032931, -2513.364257021458, 61993.77024099472, 32452.162498493493, 0.1985, 0.725, 0.171, 192.0, 0.0, 0.0, 0.0, 0.0, 0.0, 0.0, 0.0, 0.0, 0.0, 1.6959296100438387E9, 0.0, 2023-09-28 14:33:30.043
244.0, 13419.719150032897, 18870.326145926258, 31436.588637422163, 14753.648907381166, 31282.94274603638, 5999.230563548871, -187500.02235174447, 40564.86225901393, 15390.740679590785, -25351.437968187092, -187500.02235174447, 52846.34117440476, 25715.480830130677, -2525.5459577496003, 62016.792537783695, 32424.93807374693, 0.22725, 0.8425, 0.1925, 192.0, 4.0, 0.0, 15.0, 0.0, 3.0, 88.0, 0.0, 0.0, 0.0, 1.6959296100438526E9, 0.0, 2023-09-28 14:33:30.043
246.0, 13362.297518527213, 18881.703183854006, 31473.31255356223, 14768.915148844142, 31294.185673497403, 6002.113938583606, -187500.02235174447, 40575.50168937465, 15391.768859835729, -25338.116328491727, -187500.02235174447, 52843.25663366993, 25691.452704841224, -2525.076571116039, 61980.426249554905, 32429.69899531591, 0.22725, 0.8425, 0.1925, 192.0, 0.0, 0.0, 0.0, 0.0, 0.0, 0.0, 0.0, 0.0, 0.0, 1.695929610043866E9, 0.0, 2023-09-28 14:33:30.043
248.0, 13417.37221686509, 18877.88103555215, 31447.205716038436, 14775.128933802716, 31294.230376986314, 6000.4375577494575, -187500.02235174447, 40574.38410215189, 15414.232363013312, -25335.009436012442, -187500.02235174447, 52862.233264712486, 25702.67328055779, -2537.973527666751, 62007.22599115682, 32447.5580391357, 0.22725, 0.8425, 0.1925, 192.0, 0.0, 0.0, 0.0, 0.0, 0.0, 0.0, 0.0, 0.0, 0.0, 1.6959296100438771E9, 0.0, 2023-09-28 14:33:30.043
250.0, 13350.853425366096, 18850.678962550042, 31481.359181566142, 14740.751950830454, 31287.793074583184, 5982.8243831186755, -187500.02235174447, 40564.05759621353, 15407.90681933246, -25352.935535065597, -187500.02235174447, 52836.1711306776, 25696.28068164357, -2539.784018967631, 61974.346575063064, 32432.42590813946, 0.22725, 0.8425, 0.1925, 192.0, 0.0, 0.0, 0.0, 0.0, 0.0, 0.0, 0.0, 0.0, 0.0, 1.6959296100438893E9, 0.0, 2023-09-28 14:33:30.043
252.0, 13441.065065987716, 18856.44571261951, 31460.19207956697, 14734.649924594156, 31280.95344077986, 5976.18591501545, -187500.02235174447, 40550.020700695604, 15398.80965933915, -25373.74500915349, -187500.02235174447, 52831.09728468624, 25676.454684311713, -2543.8967399474072, 62019.25122967378, 32406.87786422704, 0.22725, 0.8425, 0.1925, 192.0, 0.0, 0.0, 0.0, 0.0, 0.0, 0.0, 0.0, 0.0, 0.0, 1.6959296100439005E9, 0.0, 2023-09-28 14:33:30.043
254.0, 13351.009887577284, 18849.36020962718, 31473.267850073324, 14744.574099132313, 31279.85820530155, 5961.5231706527675, -187500.02235174447, 40539.515380801604, 15420.759072394261, -25336.663465102134, -187500.02235174447, 52837.53458708937, 25708.551789349534, -2555.4749435752565, 61982.527313533705, 32416.75733527629, 0.23062500000000002, 0.90425, 0.20325, 192.0, 3.5, 40.0, 15.0, 24.0, 3.0, 88.0, 0.0, 0.0, 0.0, 1.6959296100439165E9, 0.0, 2023-09-28 14:33:30.043
0.0, 13452.464455659921, 18875.668212851073, 31489.785789225793, 14748.843282323276, 31304.892159091494, 5985.931275597964, -187500.02235174447, 40540.096526157446, 15416.33342699211, -25364.78195962691, -187500.02235174447, 52844.1730551926, 25673.906585443805, -2562.9851297122395, 62028.258982689265, 32403.21217813637, 0.23062500000000002, 0.90425, 0.20325, 192.0, 0.0, 0.0, 0.0, 0.0, 0.0, 0.0, 0.0, 0.0, 0.0, 1.695929610043928E9, 0.0, 2023-09-28 14:33:30.043
2.0, 13339.07405603815, 18871.264919193378, 31506.81781850074, 14753.470093425525, 31304.57923466912, 5996.905982125519, -187500.02235174447, 40553.79814550855, 15434.170119067447, -25340.083282003794, -187500.02235174447, 52848.26342442792, 25683.473132070678, -2526.8647106724634, 61988.31641534763, 32423.440506868425, 0.23062500000000002, 0.90425, 0.20325, 192.0, 0.0, 0.0, 0.0, 0.0, 0.0, 0.0, 0.0, 0.0, 0.0, 1.6959296100439415E9, 0.0, 2023-09-28 14:33:30.043
4.0, 13451.883310304083, 18867.085142980235, 31518.32896689522, 14743.05418050935, 31290.587042640098, 5982.153830785016, -187500.02235174447, 40535.42501156629, 15433.521918478242, -25341.44673841557, -187500.02235174447, 52865.876599058705, 25687.362335605903, -2525.5459577496003, 62031.49998563528, 32418.165495176974, 0.23062500000000002, 0.90425, 0.20325, 192.0, 0.0, 0.0, 0.0, 0.0, 0.0, 0.0, 0.0, 0.0, 0.0, 1.6959296100439527E9, 0.0, 2023-09-28 14:33:30.043
6.0, 13367.393716263023, 18847.25914564838, 31514.260949404354, 14740.416674663626, 31289.067124017136, 5969.189819000938, -187500.02235174447, 40532.809857465014, 15423.128357306525, -25369.27466026243, -187500.02235174447, 52834.9194329881, 25676.834663967453, -2559.0959261770163, 62012.27748540372, 32403.748620003298, 0.23062500000000002, 0.90425, 0.20325, 192.0, 0.0, 0.0, 0.0, 0.0, 0.0, 0.0, 0.0, 0.0, 0.0, 1.695929610043964E9, 0.0, 2023-09-28 14:33:30.043
8.0, 13481.879351363106, 18864.4029336456, 31525.213304187455, 14744.954078788052, 31294.47624617532, 5978.398737716525, -187500.02235174447, 40541.32587210248, 15421.720197405839, -25378.841206889298, -187500.02235174447, 52846.296470915855, 25659.93674515924, -2551.2728156176586, 62066.52516919675, 32399.03240192323, 0.23431250000000003, 0.939125, 0.206625, 192.0, 3.5, 56.0, 15.0, 56.0, 3.0, 72.0, 0.0, 0.0, 0.0, 1.6959296100439756E9, 0.0, 2023-09-28 14:33:30.043
10.0, 13383.151696104014, 18857.20567193099, 31515.356184882665, 14751.212567235538, 31292.755161852263, 5971.179124257461, -187500.02235174447, 40546.82440123849, 15440.629773215029, -25361.853881103263, -187500.02235174447, 52839.03215396788, 25683.719001259688, -2559.498257577212, 62032.21524145785, 32407.637823538524, 0.23431250000000003, 0.939125, 0.206625, 192.0, 0.0, 0.0, 0.0, 0.0, 0.0, 0.0, 0.0, 0.0, 0.0, 1.6959296100439868E9, 0.0, 2023-09-28 14:33:30.043
12.0, 13483.57808394171, 18870.706125581997, 31539.38431017212, 14745.937555544086, 31298.499560177275, 5970.709737623899, -187500.02235174447, 40533.41335456531, 15444.407218027976, -25360.02103805793, -187500.02235174447, 52856.19829370955, 25667.379876062856, -2553.396231340913, 62067.21807327487, 32406.14025666002, 0.23431250000000003, 0.939125, 0.206625, 192.0, 0.0, 0.0, 0.0, 0.0, 0.0, 0.0, 0.0, 0.0, 0.0, 1.6959296100439987E9, 0.0, 2023-09-28 14:33:30.043
14.0, 13387.5102862728, 18869.83440754824, 31535.696272336994, 14760.265023739938, 31312.134124295015, 5983.807859874709, -187500.02235174447, 40553.79814550855, 15464.121456637557, -25344.084244261296, -187500.02235174447, 52855.08070648679, 25686.110637916405, -2525.456550771779, 62030.42710190143, 32404.84385548161, 0.23431250000000003, 0.939125, 0.206625, 192.0, 0.0, 0.0, 0.0, 0.0, 0.0, 0.0, 0.0, 0.0, 0.0, 1.6959296100440116E9, 0.0, 2023-09-28 14:33:30.044
16.0, 13485.254464775857, 18873.34363142772, 31561.847813349705, 14749.804407334854, 31293.85039733057, 5985.841868620142, -187500.02235174447, 40543.449287825744, 15461.662764747474, -25349.985104797495, -187500.02235174447, 52869.296415960365, 25668.631573752355, -2541.2815858461363, 62068.89445410901, 32418.567826577168, 0.23431250000000003, 0.939125, 0.206625, 192.0, 0.0, 0.0, 0.0, 0.0, 0.0, 0.0, 0.0, 0.0, 0.0, 1.6959296100440233E9, 0.0, 2023-09-28 14:33:30.044
18.0, 13415.293504630747, 18873.92477678356, 31538.132612482623, 14740.05904675234, 31288.441275172387, 5978.80106911672, -187500.02235174447, 40531.915787686805, 15475.163218398478, -25340.619723870725, -187500.02235174447, 52858.85815129973, 25664.876480683863, -2534.0619723870723, 62034.58452637011, 32389.376448318537, 0.23015625, 0.9615625, 0.21331250000000002, 192.0, 3.5, 8.0, 15.0, 96.0, 3.0, 112.0, 0.0, 0.0, 0.0, 1.6959296100440345E9, 0.0, 2023-09-28 14:33:30.044
20.0, 13493.390499757588, 18851.505977094886, 31580.802092647806, 14749.938517801585, 31289.245937972777, 5962.931330553452, -187500.02235174447, 40526.953700417725, 15472.883340464037, -25363.194985770584, -187500.02235174447, 52864.826067069305, 25658.148605602815, -2559.006519199195, 62059.12674178204, 32411.03528869573, 0.23015625, 0.9615625, 0.21331250000000002, 192.0, 0.0, 0.0, 0.0, 0.0, 0.0, 0.0, 0.0, 0.0, 0.0, 1.6959296100440462E9, 0.0, 2023-09-28 14:33:30.044
22.0, 13451.145702737058, 18831.791738485306, 31542.737071840416, 14726.871517523708, 31279.72409483482, 5960.159714240995, -187500.02235174447, 40524.02562189408, 15475.185570142934, -25378.394172000193, -187500.02235174447, 52837.758104533925, 25648.693817698222, -2544.4108300698795, 62043.65933461897, 32392.215119864362, 0.23015625, 0.9615625, 0.21331250000000002, 192.0, 0.0, 0.0, 0.0, 0.0, 0.0, 0.0, 0.0, 0.0, 0.0, 1.6959296100440578E9, 0.0, 2023-09-28 14:33:30.044
24.0, 13510.847212177183, 18817.598380756186, 31573.180147788546, 14734.471110638513, 31268.727036562806, 5949.766153069277, -187500.02235174447, 40521.3657643039, 15475.498494565309, -25394.420372774646, -187500.02235174447, 52833.26540389841, 25635.46158498068, -2562.739260523231, 62048.80023584369, 32403.16747464746, 0.23015625, 0.9615625, 0.21331250000000002, 192.0, 0.0, 0.0, 0.0, 0.0, 0.0, 0.0, 0.0, 0.0, 0.0, 1.6959296100440695E9, 0.0, 2023-09-28 14:33:30.044
26.0, 13472.961005325438, 18832.93167745253, 31537.216190959956, 14745.423465421614, 31288.463626916844, 5979.762194128299, -187500.02235174447, 40527.423087051284, 15500.934779755447, -25381.322250523837, -187500.02235174447, 52833.89125274316, 25638.590829204422, -2561.755783767198, 62034.830395559125, 32392.572747775645, 0.23015625, 0.9615625, 0.21331250000000002, 192.0, 0.0, 0.0, 0.0, 0.0, 0.0, 0.0, 0.0, 0.0, 0.0, 1.6959296100440817E9, 0.0, 2023-09-28 14:33:30.044
28.0, 13488.964854355438, 18829.15423263958, 31573.940107100025, 14733.15235771565, 31276.639554099987, 5953.4765426488575, -187500.02235174447, 40515.59901423443, 15523.733559099861, -25391.78286692892, -187500.02235174447, 52829.84558699675, 25641.40714900579, -2568.4389553593346, 62014.98204648281, 32400.93230020193, 0.22807812500000002, 0.9747812499999999, 0.21665625, 192.0, 3.5, 8.0, 15.0, 112.0, 3.0, 112.0, 0.0, 0.0, 0.0, 1.6959296100440948E9, 0.0, 2023-09-28 14:33:30.044
30.0, 13479.28654900629, 18836.306790865277, 31539.33960668321, 14744.864671810232, 31290.43058042891, 5970.977958557362, -187500.02235174447, 40524.02562189408, 15543.157225031522, -25392.27460530694, -187500.02235174447, 52832.97483122049, 25638.479070482146, -2557.039565687128, 62010.24347665829, 32398.115980400562, 0.22807812500000002, 0.9747812499999999, 0.21665625, 192.0, 0.0, 0.0, 0.0, 0.0, 0.0, 0.0, 0.0, 0.0, 0.0, 1.695929610044108E9, 0.0, 2023-09-28 14:33:30.044
32.0, 13476.514932693832, 18827.924886694538, 31582.746694415415, 14721.037712220874, 31277.84654830057, 5948.670917590966, -187500.02235174447, 40508.558214731005, 15569.018193366313, -25394.73329719702, -187500.02235174447, 52828.90681372963, 25639.97663736065, -2561.107583177994, 61989.54576129267, 32406.252015382295, 0.22807812500000002, 0.9747812499999999, 0.21665625, 192.0, 0.0, 0.0, 0.0, 0.0, 0.0, 0.0, 0.0, 0.0, 0.0, 1.6959296100441191E9, 0.0, 2023-09-28 14:33:30.044
34.0, 13507.583857486708, 18833.334008852722, 31554.650551635095, 14726.670351823612, 31279.52292913472, 5960.092659007628, -187500.02235174447, 40514.280261311564, 15588.08423138669, -25401.639986233713, -187500.02235174447, 52831.43256085308, 25628.912523855273, -2559.7441267662202, 62006.10840393406, 32381.46393078136, 0.22807812500000002, 0.9747812499999999, 0.21665625, 192.0, 0.0, 0.0, 0.0, 0.0, 0.0, 0.0, 0.0, 0.0, 0.0, 1.6959296100441306E9, 0.0, 2023-09-28 14:33:30.044
36.0, 13471.95517682495, 18823.87922094813, 31591.843854408726, 14723.33994189977, 31276.214870955333, 5949.654394347, -187500.02235174447, 40506.70301994122, 15614.638103799594, -25394.17450358564, -187500.02235174447, 52823.63180203817, 25625.78327963153, -2560.817010500075, 61973.854836685045, 32398.965346689864, 0.22807812500000002, 0.9747812499999999, 0.21665625, 192.0, 0.0, 0.0, 0.0, 0.0, 0.0, 0.0, 0.0, 0.0, 0.0, 1.695929610044142E9, 0.0, 2023-09-28 14:33:30.044
38.0, 13541.714971269963, 18812.435127787012, 31555.34345571321, 14704.43036609058, 31259.4287108694, 5941.339545409625, -187500.02235174447, 40477.71280738268, 15624.696388804483, -25402.712869967567, -187500.02235174447, 52828.21390965151, 25606.471372422144, -2578.229019430759, 61996.430098584904, 32380.97219240334, 0.2290390625, 0.984390625, 0.221328125, 192.0, 3.5, 24.0, 15.5, 8.0, 3.5, 8.0, 0.0, 0.0, 0.0, 1.6959296100441535E9, 0.0, 2023-09-28 14:33:30.044
40.0, 13463.483865676388, 18825.041511659805, 31586.39002876163, 14698.082470665273, 31280.260536701746, 5952.113086237084, -187500.02235174447, 40495.415388991285, 15652.747828095893, -25403.808105445874, -187500.02235174447, 52814.84756646724, 25611.098183524395, -2547.562426038078, 61943.47881597029, 32383.02855289323, 0.2290390625, 0.984390625, 0.221328125, 192.0, 0.0, 0.0, 0.0, 0.0, 0.0, 0.0, 0.0, 0.0, 0.0, 1.6959296100441663E9, 0.0, 2023-09-28 14:33:30.044
42.0, 13549.895709740606, 18830.45063381799, 31577.516386212876, 14720.210697676028, 31275.14198722148, 5942.099504721106, -187500.02235174447, 40492.889641867834, 15686.566017456773, -25388.743029683, -187500.02235174447, 52846.09530521576, 25611.746384113598, -2558.8277052435524, 61967.30577555964, 32388.84000645161, 0.2290390625, 0.984390625, 0.221328125, 192.0, 0.0, 0.0, 0.0, 0.0, 0.0, 0.0, 0.0, 0.0, 0.0, 1.6959296100441775E9, 0.0, 2023-09-28 14:33:30.044
44.0, 13466.791923855773, 18824.48271804842, 31593.989621876437, 14710.19711616005, 31271.677466830908, 5937.562100596679, -187500.02235174447, 40487.055836565, 15703.754508942904, -25400.902378666688, -187500.02235174447, 52835.56763357731, 25605.59965438839, -2572.909304250396, 61925.50801342822, 32394.18207337643, 0.2290390625, 0.984390625, 0.221328125, 192.0, 0.0, 0.0, 0.0, 0.0, 0.0, 0.0, 0.0, 0.0, 0.0, 1.695929610044189E9, 0.0, 2023-09-28 14:33:30.044
46.0, 13567.307718671289, 18823.476889547932, 31577.896365868615, 14672.690888964045, 31264.413149882934, 5936.332754651637, -187500.02235174447, 40468.81681308947, 15731.045988922835, -25408.569027014855, -187500.02235174447, 52839.63565106817, 25597.77654382903, -2575.546810096122, 61948.26208928372, 32380.12282611404, 0.2290390625, 0.984390625, 0.221328125, 192.0, 0.0, 0.0, 0.0, 0.0, 0.0, 0.0, 0.0, 0.0, 0.0, 1.6959296100442E9, 0.0, 2023-09-28 14:33:30.044
48.0, 13470.994051813372, 18814.670302232542, 31585.026572349856, 14689.164124627607, 31270.828100541607, 5919.300725376693, -187500.02235174447, 40466.38047294384, 15744.568794318295, -25414.827515462344, -187500.02235174447, 52818.177976391074, 25587.427686146224, -2568.260141403692, 61905.72671958527, 32369.371637031036, 0.22651953125000002, 0.9871953124999999, 0.22266406249999998, 192.0, 3.5, 0.0, 15.0, 120.0, 3.5, 0.0, 0.0, 0.0, 0.0, 1.6959296100442111E9, 0.0, 2023-09-28 14:33:30.044
50.0, 13593.660425384096, 18802.309787548755, 31576.890537368126, 14647.142845051629, 31257.193536423867, 5907.990742682307, -187500.02235174447, 40439.62543483084, 15747.966259475501, -25430.294922625417, -187500.02235174447, 52822.044828181846, 25571.379133627313, -2595.1492899834266, 61934.89574609944, 32346.170526286427, 0.22651953125000002, 0.9871953124999999, 0.22266406249999998, 192.0, 0.0, 0.0, 0.0, 0.0, 0.0, 0.0, 0.0, 0.0, 0.0, 1.6959296100442228E9, 0.0, 2023-09-28 14:33:30.044
52.0, 13482.661662419041, 18800.231075314412, 31582.523176970863, 14671.305080807815, 31268.123539462515, 5942.434780887936, -187500.02235174447, 40458.020920517556, 15778.163466234622, -25427.053919679394, -187500.02235174447, 52810.48897629845, 25576.475331363123, -2573.3116356505916, 61883.66554780788, 32352.63018043401, 0.22651953125000002, 0.9871953124999999, 0.22266406249999998, 192.0, 0.0, 0.0, 0.0, 0.0, 0.0, 0.0, 0.0, 0.0, 0.0, 1.695929610044234E9, 0.0, 2023-09-28 14:33:30.044
54.0, 13609.865440114194, 18811.026967886326, 31590.167473574576, 14666.678269705568, 31265.66484757243, 5937.964431996874, -187500.02235174447, 40440.743022053604, 15778.386983679175, -25439.257972151994, -187500.02235174447, 52823.1177119157, 25556.805796242454, -2593.3387986825464, 61929.24075475225, 32361.25795379376, 0.22651953125000002, 0.9871953124999999, 0.22266406249999998, 192.0, 0.0, 0.0, 0.0, 0.0, 0.0, 0.0, 0.0, 0.0, 0.0, 1.6959296100442677E9, 0.0, 2023-09-28 14:33:30.044
56.0, 13488.115488066136, 18835.97151469845, 31603.600871992217, 14698.931836954574, 31284.216795470336, 5976.118859782084, -187500.02235174447, 40465.37464444336, 15826.286772046897, -25389.681802950123, -187500.02235174447, 52833.39951436514, 25579.58222384241, -2534.3748968094465, 61875.082477937045, 32369.818671920144, 0.22651953125000002, 0.9871953124999999, 0.22266406249999998, 192.0, 0.0, 0.0, 0.0, 0.0, 0.0, 0.0, 0.0, 0.0, 0.0, 1.695929610044279E9, 0.0, 2023-09-28 14:33:30.044
58.0, 13623.634114698663, 18836.195032143, 31623.225703623975, 14684.29144433635, 31241.390853093966, 5959.17623748496, -187500.02235174447, 40423.2416061451, 15850.896042692191, -25397.84018967631, -187500.02235174447, 52865.27310195841, 25562.706656778653, -2554.670280774865, 61914.17567898938, 32388.303564584683, 0.228259765625, 0.98359765625, 0.22333203125, 192.0, 3.5, 24.0, 15.0, 80.0, 3.5, 0.0, 0.0, 0.0, 0.0, 1.6959296100442903E9, 0.0, 2023-09-28 14:33:30.044
60.0, 13543.950145715493, 18815.45261328848, 31592.78262767585, 14662.56554872579, 31239.446251326353, 5952.0683827481735, -187500.02235174447, 40414.36796359634, 15845.33045832282, -25410.93831192712, -187500.02235174447, 52835.45587485503, 25535.526935521, -2545.528417292645, 61899.200010204324, 32354.328913012614, 0.228259765625, 0.98359765625, 0.22333203125, 192.0, 0.0, 0.0, 0.0, 0.0, 0.0, 0.0, 0.0, 0.0, 0.0, 1.6959296100443015E9, 0.0, 2023-09-28 14:33:30.044
62.0, 13630.27258280189, 18812.47983127592, 31608.674717983573, 14664.152522582117, 31251.76206252123, 5959.444458418425, -187500.02235174447, 40410.121132149834, 15863.792999242904, -25416.36978582976, -187500.02235174447, 52835.61233706622, 25535.169307609714, -2540.1192951344606, 61916.880240068465, 32338.92856108291, 0.228259765625, 0.98359765625, 0.22333203125, 192.0, 0.0, 0.0, 0.0, 0.0, 0.0, 0.0, 0.0, 0.0, 0.0, 1.6959296100443149E9, 0.0, 2023-09-28 14:33:30.044
64.0, 13545.112436427169, 18807.227171328923, 31582.769046159872, 14637.7551123804, 31259.406359124943, 5973.190781258439, -187500.02235174447, 40408.33299259341, 15874.231263903532, -25432.239524393026, -187500.02235174447, 52828.41507535161, 25531.548325007956, -2573.8033740286082, 61891.645120578425, 32345.611732675046, 0.228259765625, 0.98359765625, 0.22333203125, 192.0, 0.0, 0.0, 0.0, 0.0, 0.0, 0.0, 0.0, 0.0, 0.0, 1.6959296100443268E9, 0.0, 2023-09-28 14:33:30.044
66.0, 13630.004361868425, 18813.57506675423, 31625.88556121416, 14646.315830506783, 31253.125518933004, 5973.883685336553, -187500.02235174447, 40405.22610011412, 15898.460554893085, -25421.309521354382, -187500.02235174447, 52849.17984595059, 25540.24315360107, -2568.2824931481473, 61907.60426611952, 32361.88380263851, 0.228259765625, 0.98359765625, 0.22333203125, 192.0, 0.0, 0.0, 0.0, 0.0, 0.0, 0.0, 0.0, 0.0, 0.0, 1.69592961004434E9, 0.0, 2023-09-28 14:33:30.044
68.0, 13573.789724563328, 18810.691691719498, 31593.654345709605, 14647.299307262816, 31260.94862949236, 5984.791336630743, -187500.02235174447, 40391.323315062924, 15898.52761012645, -25435.145251172216, -187500.02235174447, 52832.95247947604, 25526.027444127496, -2582.609961343999, 61900.608170105006, 32331.977168557307, 0.23112988281250002, 0.980798828125, 0.219666015625, 192.0, 3.5, 40.0, 15.0, 72.0, 3.0, 96.0, 0.0, 0.0, 0.0, 1.695929610044351E9, 0.0, 2023-09-28 14:33:30.044
70.0, 13636.84399567175, 18818.067767389748, 31634.93801771856, 14626.89216457512, 31256.70179804585, 5998.42590074848, -187500.02235174447, 40378.806338167946, 15926.735511629047, -25421.801259732398, -187500.02235174447, 52842.474322614, 25532.44239478617, -2561.7334320227424, 61907.85013530852, 32338.92856108291, 0.23112988281250002, 0.980798828125, 0.219666015625, 192.0, 0.0, 0.0, 0.0, 0.0, 0.0, 0.0, 0.0, 0.0, 0.0, 1.6959296100443623E9, 0.0, 2023-09-28 14:33:30.044
72.0, 13595.470916684977, 18822.851040703183, 31611.62514825167, 14642.650144416111, 31271.14102496398, 6025.605622006134, -187500.02235174447, 40386.920021405225, 15941.666476925193, -25433.826498249353, -187500.02235174447, 52828.660944540614, 25525.49100226057, -2572.551676339111, 61901.81516430559, 32336.894552337475, 0.23112988281250002, 0.980798828125, 0.219666015625, 192.0, 0.0, 0.0, 0.0, 0.0, 0.0, 0.0, 0.0, 0.0, 0.0, 1.6959296100443745E9, 0.0, 2023-09-28 14:33:30.044
74.0, 13624.997571110436, 18827.075520405237, 31668.487986145974, 14624.388769196126, 31276.080760488603, 6058.6638520555325, -187500.02235174447, 40410.478760061116, 15964.30879405842, -25410.98301541603, -187500.02235174447, 52849.716287817515, 25536.62217099931, -2551.2728156176586, 61893.99205374623, 32368.186994574906, 0.23112988281250002, 0.980798828125, 0.219666015625, 192.0, 0.0, 0.0, 0.0, 0.0, 0.0, 0.0, 0.0, 0.0, 0.0, 1.6959296100443869E9, 0.0, 2023-09-28 14:33:30.044
76.0, 13618.828489640771, 18816.167869111046, 31641.554134077327, 14628.948525065009, 31276.41603665543, 6047.085648427684, -187500.02235174447, 40401.448655301174, 15977.183398864676, -25415.542771284912, -187500.02235174447, 52851.37031690721, 25537.00215065505, -2555.8996267199072, 61892.31567291209, 32364.767177673242, 0.23112988281250002, 0.980798828125, 0.219666015625, 192.0, 0.0, 0.0, 0.0, 0.0, 0.0, 0.0, 0.0, 0.0, 0.0, 1.6959296100443995E9, 0.0, 2023-09-28 14:33:30.044
78.0, 13632.530108991876, 18826.472023304945, 31689.65508814515, 14634.625868156656, 31275.61137385504, 6058.954424733452, -187500.02235174447, 40394.31844881993, 15990.616797282315, -25422.74003299952, -187500.02235174447, 52840.79794177985, 25533.00118839755, -2540.879254445941, 61881.43037336235, 32353.032511834208, 0.23056494140625, 0.9823994140625, 0.21483300781249998, 192.0, 3.5, 24.0, 15.0, 96.0, 3.0, 72.0, 0.0, 0.0, 0.0, 1.6959296100444129E9, 0.0, 2023-09-28 14:33:30.044
80.0, 13651.596147012253, 18828.64014251711, 31672.46659665902, 14650.070923575275, 31289.111827506047, 6101.936829321007, -187500.02235174447, 40412.73628625111, 16012.096823703865, -25411.497105538503, -187500.02235174447, 52853.98547100848, 25532.82237444191, -2570.0259292156616, 61892.51683861218, 32375.563070245156, 0.23056494140625, 0.9823994140625, 0.21483300781249998, 192.0, 0.0, 0.0, 0.0, 0.0, 0.0, 0.0, 0.0, 0.0, 0.0, 1.6959296100444248E9, 0.0, 2023-09-28 14:33:30.044
82.0, 13637.022809627391, 18816.838421444707, 31716.99127161399, 14608.876658544143, 31268.36940865152, 6109.02233231334, -187500.02235174447, 40398.23000409961, 16018.422367384717, -25410.491277038014, -187500.02235174447, 52852.04086924087, 25531.973008152607, -2557.844228487519, 61867.594643544515, 32378.714666213356, 0.23056494140625, 0.9823994140625, 0.21483300781249998, 192.0, 0.0, 0.0, 0.0, 0.0, 0.0, 0.0, 0.0, 0.0, 0.0, 1.695929610044437E9, 0.0, 2023-09-28 14:33:30.044
84.0, 13647.08109463228, 18840.508918822878, 31698.12639929371, 14655.725914922466, 31300.42181020043, 6133.430437258535, -187500.02235174447, 40415.99964094158, 16029.955867523655, -25408.36786131476, -187500.02235174447, 52857.204122210045, 25533.91760992022, -2525.613012982966, 61880.1563239284, 32361.6379334495, 0.23056494140625, 0.9823994140625, 0.21483300781249998, 192.0, 0.0, 0.0, 0.0, 0.0, 0.0, 0.0, 0.0, 0.0, 0.0, 1.695929610044449E9, 0.0, 2023-09-28 14:33:30.044
86.0, 13580.227026966457, 18818.604209256675, 31740.550010269882, 14619.806661582788, 31278.85237680106, 6124.266222031859, -187500.02235174447, 40403.14738787978, 16047.077303776421, -25412.815858461367, -187500.02235174447, 52871.84451482827, 25543.998246669562, -2537.660603244377, 61833.75410243918, 32394.249128609794, 0.23056494140625, 0.9823994140625, 0.21483300781249998, 192.0, 0.0, 0.0, 0.0, 0.0, 0.0, 0.0, 0.0, 0.0, 0.0, 1.6959296100444603E9, 0.0, 2023-09-28 14:33:30.044
88.0, 13649.830359200283, 18807.473040517933, 31703.915501107636, 14617.303266203793, 31262.602658582055, 6103.21087875496, -187500.02235174447, 40372.25727704255, 16033.353332680863, -25445.829385021854, -187500.02235174447, 52862.76970657941, 25516.304435289436, -2547.6965365048095, 61868.75693425619, 32338.794450616177, 0.23328247070312502, 0.9891997070312499, 0.21041650390625, 192.0, 3.5, 48.0, 15.5, 16.0, 3.0, 56.0, 0.0, 0.0, 0.0, 1.6959296100444717E9, 0.0, 2023-09-28 14:33:30.044
0.0, 7149.361926241151, 9434.000782251453, 15634.598211598184, 7309.489823518971, 15663.0966857787, 3058.813876964316, -93750.01117587223, 19774.565967865703, 8018.531861130222, -12722.23296430504, -93750.01117587223, 26429.596713733285, 12758.129865900262, -1293.1154719728795, 30912.84256134541, 16178.036174540064, 0.2306412353515625, 0.981599853515625, 0.234208251953125, 192.0, 3.5, 16.0, 15.0, 56.0, 4.0, 8.0, 0.0, 0.0, 0.0, 1.6959296106315591E9, 0.0, 2023-09-28 14:33:30.631
2.0, 14154.532749001117, 18879.31154719729, 31162.288029466636, 14661.984403369952, 31352.5013747813, 6141.07473386225, -187500.02235174447, 39557.46913641324, 16521.13545192903, -25325.353482407747, -187500.02235174447, 53188.836954693434, 25610.047651534995, -2544.0979056475053, 61249.323040166266, 32194.737457601725, 0.2306412353515625, 0.981599853515625, 0.234208251953125, 192.0, 0.0, 0.0, 0.0, 0.0, 0.0, 0.0, 0.0, 0.0, 0.0, 1.6959296106316137E9, 0.0, 2023-09-28 14:33:30.631
4.0, 14186.406336594384, 18858.435017876032, 31254.824251511607, 14638.269202502872, 31324.181714556424, 6107.994152068395, -187500.02235174447, 39547.54496187508, 16537.876908526054, -25309.975482222497, -187500.02235174447, 53182.04202437902, 25625.15743078678, -2544.813161470075, 61145.87916682711, 32213.89290259992, 0.2306412353515625, 0.981599853515625, 0.234208251953125, 192.0, 0.0, 0.0, 0.0, 0.0, 0.0, 0.0, 0.0, 0.0, 0.0, 1.695929610631634E9, 0.0, 2023-09-28 14:33:30.631
6.0, 14187.9486069618, 18878.73040184145, 31161.840994577527, 14639.587955425735, 31343.717139210363, 6134.0339343588275, -187500.02235174447, 39539.744203060174, 16510.250152379293, -25340.619723870725, -187500.02235174447, 53182.31024531249, 25596.100162994884, -2580.2853799206473, 61269.30549970931, 32185.193262719305, 0.2306412353515625, 0.981599853515625, 0.234208251953125, 192.0, 0.0, 0.0, 0.0, 0.0, 0.0, 0.0, 0.0, 0.0, 0.0, 1.695929610631648E9, 0.0, 2023-09-28 14:33:30.631
8.0, 14159.472484525739, 18872.002526760403, 31247.80580375264, 14639.766769381378, 31332.854191405084, 6106.943620078996, -187500.02235174447, 39546.7850025636, 16538.346295159616, -25304.454601342037, -187500.02235174447, 53180.16447784477, 25626.699701154197, -2551.6080917844884, 61141.162948747035, 32205.555701918092, 0.226, 0.966, 0.28200000000000003, 192.0, 3.5, 8.0, 15.0, 24.0, 4.0, 104.0, 0.0, 0.0, 0.0, 1.6959296106316617E9, 0.0, 2023-09-28 14:33:30.631
10.0, 14215.754177064202, 18878.663346608086, 31180.728218642264, 14639.811472870288, 31344.00771188828, 6124.266222031859, -187500.02235174447, 39543.29813042857, 16516.240419893315, -25323.38652889568, -187500.02235174447, 53204.48317581215, 25606.314910210956, -2579.8383450315414, 61271.71948811049, 32194.536291901626, 0.226, 0.966, 0.28200000000000003, 192.0, 0.0, 0.0, 0.0, 0.0, 0.0, 0.0, 0.0, 0.0, 0.0, 1.6959296106316743E9, 0.0, 2023-09-28 14:33:30.631
12.0, 14148.967164631746, 18860.849006277207, 31233.679501256884, 14632.010714055386, 31329.344967525598, 6115.705503905476, -187500.02235174447, 39558.564371891545, 16524.152937430496, -25322.76068005093, -187500.02235174447, 53173.32484404145, 25619.79301211751, -2568.640121059432, 61143.19695749247, 32203.342879217016, 0.226, 0.966, 0.28200000000000003, 192.0, 0.0, 0.0, 0.0, 0.0, 0.0, 0.0, 0.0, 0.0, 0.0, 1.6959296106316867E9, 0.0, 2023-09-28 14:33:30.631
14.0, 14254.288584505151, 18879.199788475013, 31185.109160555505, 14627.31684771977, 31332.943598382903, 6123.148634809093, -187500.02235174447, 39543.70046182877, 16508.439661078413, -25338.853936058753, -187500.02235174447, 53202.6056292779, 25600.168180485747, -2575.837382774041, 61279.27437773638, 32183.539233629614, 0.226, 0.966, 0.28200000000000003, 192.0, 0.0, 0.0, 0.0, 0.0, 0.0, 0.0, 0.0, 0.0, 0.0, 1.6959296106317053E9, 0.0, 2023-09-28 14:33:30.631
16.0, 14140.786426161103, 18888.54281765733, 31229.99146342176, 14661.827941158766, 31328.115621580557, 6135.68796344852, -187500.02235174447, 39564.845212083485, 16534.12181545756, -25301.727688518487, -187500.02235174447, 53187.026463392554, 25622.899904596798, -2538.9570044227844, 61143.845158081676, 32196.927928558343, 0.226, 0.966, 0.28200000000000003, 192.0, 0.0, 0.0, 0.0, 0.0, 0.0, 0.0, 0.0, 0.0, 0.0, 1.695929610631722E9, 0.0, 2023-09-28 14:33:30.631
18.0, 14281.088326107065, 18919.41057675011, 31208.734954444764, 14660.151560324617, 31323.086479078112, 6142.438190274023, -187500.02235174447, 39530.53528434459, 16527.058664209686, -25297.48085707198, -187500.02235174447, 53241.765885563604, 25602.179837486725, -2552.5692167960665, 61281.57660741528, 32210.271919998162, 0.228, 0.968, 0.298, 192.0, 3.5, 16.0, 15.0, 32.0, 4.5, 40.0, 0.0, 0.0, 0.0, 1.6959296106317463E9, 0.0, 2023-09-28 14:33:30.631
20.0, 14126.593068431983, 18906.87124811068, 31221.341338317558, 14670.299252307326, 31327.422717502443, 6142.21467282947, -187500.02235174447, 39556.86563931294, 16557.36762969108, -25253.51497572839, -187500.02235174447, 53219.16827191928, 25631.482974467635, -2512.336076776514, 61140.87237606912, 32205.51099842918, 0.228, 0.968, 0.298, 192.0, 0.0, 0.0, 0.0, 0.0, 0.0, 0.0, 0.0, 0.0, 0.0, 1.6959296106317751E9, 0.0, 2023-09-28 14:33:30.631
22.0, 14296.846305948056, 18890.330957213755, 31215.46282952581, 14632.569507666769, 31324.025252345236, 6131.575242468744, -187500.02235174447, 39539.140705959886, 16523.236515907825, -25306.91329323212, -187500.02235174447, 53236.96026050571, 25599.25175896308, -2567.388423369935, 61275.92161606808, 32210.718954887267, 0.228, 0.968, 0.298, 192.0, 0.0, 0.0, 0.0, 0.0, 0.0, 0.0, 0.0, 0.0, 0.0, 1.6959296106317945E9, 0.0, 2023-09-28 14:33:30.631
24.0, 14107.616437389426, 18874.908253539594, 31198.408448506412, 14635.519937934869, 31329.210857058868, 6128.8706813896515, -187500.02235174447, 39541.979377505704, 16542.92840277295, -25292.541121547358, -187500.02235174447, 53194.38018731835, 25630.991236089616, -2528.07170487305, 61134.85975681064, 32181.505224884182, 0.228, 0.968, 0.298, 192.0, 0.0, 0.0, 0.0, 0.0, 0.0, 0.0, 0.0, 0.0, 0.0, 1.6959296106318176E9, 0.0, 2023-09-28 14:33:30.631
26.0, 14309.407986331938, 18874.908253539594, 31221.542504017652, 14623.405292440093, 31323.332348267122, 6098.293494974791, -187500.02235174447, 39515.76078125963, 16513.468803580858, -25335.903505790655, -187500.02235174447, 53213.178004405265, 25597.463619406655, -2575.74797579622, 61253.81574080179, 32190.803550577588, 0.228, 0.968, 0.298, 192.0, 0.0, 0.0, 0.0, 0.0, 0.0, 0.0, 0.0, 0.0, 0.0, 1.6959296106318417E9, 0.0, 2023-09-28 14:33:30.631
28.0, 14106.36473969993, 18869.387372659134, 31181.46582620929, 14640.683190904045, 31337.86098216307, 6119.63941092961, -187500.02235174447, 39533.28454891259, 16534.054760224197, -25310.400165367148, -187500.02235174447, 53184.34425405792, 25625.224486020146, -2565.488525091234, 61155.512768687346, 32187.94252728731, 0.228, 0.962, 0.294, 192.0, 3.5, 16.0, 15.0, 8.0, 4.5, 24.0, 0.0, 0.0, 0.0, 1.6959296106318672E9, 0.0, 2023-09-28 14:33:30.631
30.0, 14306.68107350839, 18873.477741894454, 31239.714472259817, 14624.969914551964, 31322.974720355836, 6103.948486321984, -187500.02235174447, 39528.568330832524, 16526.142242687016, -25325.44288938557, -187500.02235174447, 53216.57546956247, 25607.052517777982, -2583.1911066998373, 61236.26962140437, 32204.147542017407, 0.228, 0.962, 0.294, 192.0, 0.0, 0.0, 0.0, 0.0, 0.0, 0.0, 0.0, 0.0, 0.0, 1.6959296106318803E9, 0.0, 2023-09-28 14:33:30.631
32.0, 14122.592106174483, 18855.797512030305, 31164.254982978702, 14622.287705217328, 31331.647197204496, 6113.291515504303, -187500.02235174447, 39532.144609945375, 16525.89637349801, -25323.163011451128, -187500.02235174447, 53177.661082465784, 25613.19924750319, -2582.9899409997392, 61177.88686488711, 32172.139843957408, 0.228, 0.962, 0.294, 192.0, 0.0, 0.0, 0.0, 0.0, 0.0, 0.0, 0.0, 0.0, 0.0, 1.6959296106318927E9, 0.0, 2023-09-28 14:33:30.631
34.0, 14319.622733548014, 18864.380581901143, 31228.717413987808, 14604.31690267526, 31315.62099643004, 6113.470329459945, -187500.02235174447, 39512.005688191144, 16506.830335477633, -25344.687741361588, -187500.02235174447, 53200.593972276925, 25593.529712382522, -2583.74990031122, 61234.97322022596, 32186.623774364445, 0.228, 0.962, 0.294, 192.0, 0.0, 0.0, 0.0, 0.0, 0.0, 0.0, 0.0, 0.0, 0.0, 1.6959296106319056E9, 0.0, 2023-09-28 14:33:30.631
36.0, 14121.094539295977, 18871.48843663793, 31143.043177490614, 14635.810510612788, 31347.11460436757, 6121.382846997124, -187500.02235174447, 39537.01729023663, 16525.40463511999, -25308.947301977554, -187500.02235174447, 53192.03325415054, 25618.071927794448, -2567.813106514586, 61186.24641731339, 32166.015465976652, 0.228, 0.962, 0.294, 192.0, 0.0, 0.0, 0.0, 0.0, 0.0, 0.0, 0.0, 0.0, 0.0, 1.695929610631918E9, 0.0, 2023-09-28 14:33:30.631
38.0, 14313.565410800626, 18854.143482940613, 31227.443364553856, 14595.443260126503, 31307.127333537024, 6089.241038470393, -187500.02235174447, 39516.118409170915, 16512.70884426938, -25330.58379061029, -187500.02235174447, 53207.2100886357, 25599.475276407633, -2575.9714932407733, 61210.810984469776, 32211.143638031917, 0.224, 0.966, 0.298, 192.0, 3.5, 0.0, 15.0, 24.0, 4.5, 40.0, 0.0, 0.0, 0.0, 1.69592961063193E9, 0.0, 2023-09-28 14:33:30.631
40.0, 14154.197472834287, 18859.910233010083, 31113.941206209805, 14620.477213916447, 31339.447956019398, 6123.774483653842, -187500.02235174447, 39522.06397319603, 16493.620454504544, -25335.702340090556, -187500.02235174447, 53177.12464059886, 25587.71825882414, -2591.103624237016, 61221.226897385946, 32163.780291531122, 0.224, 0.966, 0.298, 192.0, 0.0, 0.0, 0.0, 0.0, 0.0, 0.0, 0.0, 0.0, 0.0, 1.6959296106319437E9, 0.0, 2023-09-28 14:33:30.631
42.0, 14289.649044233447, 18873.187169216537, 31228.4715447988, 14616.99034178142, 31332.11658383806, 6115.996076583395, -187500.02235174447, 39529.685918055286, 16520.50960308428, -25308.455563599535, -187500.02235174447, 53202.00213217761, 25606.24785497759, -2562.64985354541, 61192.1919813385, 32204.147542017407, 0.224, 0.966, 0.298, 192.0, 0.0, 0.0, 0.0, 0.0, 0.0, 0.0, 0.0, 0.0, 0.0, 1.6959296106319556E9, 0.0, 2023-09-28 14:33:30.631
44.0, 14178.315005101564, 18860.513730110375, 31117.048098689094, 14619.381978438138, 31333.278874549735, 6117.292477761803, -187500.02235174447, 39512.94446145826, 16504.08107090963, -25319.58673233828, -187500.02235174447, 53199.16346063179, 25602.202189231182, -2572.909304250396, 61234.05679870329, 32187.80841682058, 0.224, 0.966, 0.298, 192.0, 0.0, 0.0, 0.0, 0.0, 0.0, 0.0, 0.0, 0.0, 0.0, 1.6959296106319675E9, 0.0, 2023-09-28 14:33:30.631
46.0, 14284.128163352987, 18853.62939281814, 31209.85254166753, 14598.058414227775, 31312.75997313976, 6095.007788539861, -187500.02235174447, 39506.50715905514, 16495.83327720562, -25325.82286904131, -187500.02235174447, 53189.46280353818, 25601.4422299197, -2570.9870542272397, 61178.42330675403, 32193.530463401137, 0.224, 0.966, 0.298, 192.0, 0.0, 0.0, 0.0, 0.0, 0.0, 0.0, 0.0, 0.0, 0.0, 1.6959296106319797E9, 0.0, 2023-09-28 14:33:30.631
48.0, 14196.442269854817, 18872.874244794162, 31107.190979384304, 14628.523841920358, 31348.2992468237, 6135.68796344852, -187500.02235174447, 39513.95028995875, 16480.947015398386, -25329.935590021087, -187500.02235174447, 53188.61343724888, 25595.96605252815, -2591.103624237016, 61244.96444999748, 32178.398332404893, 0.224, 0.9560000000000001, 0.296, 192.0, 3.5, 0.0, 14.5, 112.0, 4.5, 32.0, 0.0, 0.0, 0.0, 1.6959296106319916E9, 0.0, 2023-09-28 14:33:30.631
50.0, 14252.589851926548, 18860.4019713881, 31210.165466089904, 14599.623036339646, 31326.90862737997, 6113.403274226579, -187500.02235174447, 39517.14658941586, 16497.152030128484, -25312.210656668027, -187500.02235174447, 53188.09934712641, 25615.613235904366, -2561.3087488780916, 61158.239681510895, 32197.08439076953, 0.224, 0.9560000000000001, 0.296, 192.0, 0.0, 0.0, 0.0, 0.0, 0.0, 0.0, 0.0, 0.0, 0.0, 1.6959296106320047E9, 0.0, 2023-09-28 14:33:30.632
52.0, 14225.81246206909, 18869.11915172567, 31113.047136431593, 14607.066167243263, 31338.35272054109, 6115.191413783004, -187500.02235174447, 39507.736505000175, 16475.627300218024, -25322.58186609529, -187500.02235174447, 53192.837916950935, 25598.804724073976, -2576.5302868521558, 61261.57179612778, 32182.66751559586, 0.224, 0.9560000000000001, 0.296, 192.0, 0.0, 0.0, 0.0, 0.0, 0.0, 0.0, 0.0, 0.0, 0.0, 1.6959296106320188E9, 0.0, 2023-09-28 14:33:30.632
54.0, 14226.393607424929, 18862.59244234472, 31208.444381766843, 14619.381978438138, 31332.25069430479, 6112.889184104108, -187500.02235174447, 39527.67426105431, 16494.60393126058, -25301.884150729675, -187500.02235174447, 53188.27816108205, 25616.037919049017, -2559.6994232773095, 61142.705219114454, 32201.063001282575, 0.224, 0.9560000000000001, 0.296, 192.0, 0.0, 0.0, 0.0, 0.0, 0.0, 0.0, 0.0, 0.0, 0.0, 1.6959296106320307E9, 0.0, 2023-09-28 14:33:30.632
56.0, 14267.9678521118, 18854.92579399655, 31134.25894191968, 14613.101138246197, 31335.2458280618, 6107.524765434834, -187500.02235174447, 39501.925051441794, 16461.098666322072, -25344.687741361588, -187500.02235174447, 53207.97004794718, 25587.852369290875, -2587.840269546541, 61275.09460152324, 32185.75205633069, 0.224, 0.9560000000000001, 0.296, 192.0, 0.0, 0.0, 0.0, 0.0, 0.0, 0.0, 0.0, 0.0, 0.0, 1.6959296106320503E9, 0.0, 2023-09-28 14:33:30.632
58.0, 14214.636589841437, 18866.124017968657, 31208.51143700021, 14626.6015918972, 31339.805583930683, 6107.480061945923, -187500.02235174447, 39531.60816807845, 16474.01797461724, -25314.177610180093, -187500.02235174447, 53184.321902313466, 25604.437363676712, -2564.2815308906474, 61149.18722500649, 32180.18647196132, 0.222, 0.962, 0.304, 192.0, 3.0, 120.0, 15.0, 8.0, 4.5, 64.0, 0.0, 0.0, 0.0, 1.6959296106320653E9, 0.0, 2023-09-28 14:33:30.632
60.0, 14270.024212601687, 18889.526294413365, 31161.75158759971, 14638.76094088089, 31358.87162195106, 6141.968803640461, -187500.02235174447, 39528.38951687688, 16470.21817805984, -25306.935644976576, -187500.02235174447, 53225.33735338895, 25603.78916308751, -2557.7548215096976, 61274.46875267849, 32196.123265757953, 0.222, 0.962, 0.304, 192.0, 0.0, 0.0, 0.0, 0.0, 0.0, 0.0, 0.0, 0.0, 0.0, 1.6959296106320777E9, 0.0, 2023-09-28 14:33:30.632
62.0, 14179.90197895789, 18866.705163324496, 31220.201399350335, 14638.582126925246, 31345.751147955794, 6118.052437073283, -187500.02235174447, 39532.59164483448, 16488.45720153537, -25283.890996443155, -187500.02235174447, 53201.46569031068, 25627.124384298848, -2542.332117835536, 61136.267916711324, 32197.64318438091, 0.222, 0.962, 0.304, 192.0, 0.0, 0.0, 0.0, 0.0, 0.0, 0.0, 0.0, 0.0, 0.0, 1.69592961063209E9, 0.0, 2023-09-28 14:33:30.632
64.0, 14310.078538665599, 18880.563244886787, 31182.382247731955, 14633.888260589632, 31347.829860190137, 6126.993134855406, -187500.02235174447, 39511.20102539075, 16454.12492205202, -25315.362252636227, -187500.02235174447, 53208.059454925, 25588.701735580176, -2572.037586216639, 61290.04791856384, 32189.66361161037, 0.222, 0.962, 0.304, 192.0, 0.0, 0.0, 0.0, 0.0, 0.0, 0.0, 0.0, 0.0, 0.0, 1.6959296106321027E9, 0.0, 2023-09-28 14:33:30.632
66.0, 14164.635737494915, 18882.64195712113, 31216.580416748577, 14654.8094933998, 31360.72681674085, 6129.8094546567745, -187500.02235174447, 39534.35743264645, 16491.966425414852, -25278.6159847517, -187500.02235174447, 53184.99245464712, 25629.113689555372, -2535.134856120927, 61143.04049528128, 32194.670402368356, 0.222, 0.962, 0.304, 192.0, 0.0, 0.0, 0.0, 0.0, 0.0, 0.0, 0.0, 0.0, 0.0, 1.6959296106321175E9, 0.0, 2023-09-28 14:33:30.632
68.0, 14317.320503869118, 18895.896541583126, 31203.594053220044, 14652.149635809617, 31358.357531828588, 6127.887204633618, -187500.02235174447, 39519.135894672385, 16472.363945527548, -25306.510961831926, -187500.02235174447, 53216.97780096267, 25598.44709616269, -2563.655682045899, 61282.60478766022, 32196.391486691417, 0.226, 0.96, 0.302, 192.0, 3.5, 8.0, 15.0, 0.0, 4.5, 56.0, 0.0, 0.0, 0.0, 1.69592961063213E9, 0.0, 2023-09-28 14:33:30.632
70.0, 14136.249022036674, 18895.807134605308, 31199.637794451453, 14659.61511845769, 31370.874508723562, 6150.395411300113, -187500.02235174447, 39546.896761285876, 16498.51548654026, -25274.972650405485, -187500.02235174447, 53196.615361763885, 25625.045672064505, -2539.292280589614, 61149.79072210679, 32187.60725112048, 0.226, 0.96, 0.302, 192.0, 0.0, 0.0, 0.0, 0.0, 0.0, 0.0, 0.0, 0.0, 0.0, 1.695929610632143E9, 0.0, 2023-09-28 14:33:30.632
72.0, 14326.082387695598, 18892.83435259275, 31210.70190795683, 14650.003868341908, 31348.321598568156, 6115.079655060727, -187500.02235174447, 39516.72190627121, 16487.607835246068, -25296.743249504954, -187500.02235174447, 53227.95250749022, 25607.410145689268, -2544.142609136416, 61270.5124939099, 32192.32346920055, 0.226, 0.96, 0.302, 192.0, 0.0, 0.0, 0.0, 0.0, 0.0, 0.0, 0.0, 0.0, 0.0, 1.6959296106321552E9, 0.0, 2023-09-28 14:33:30.632
74.0, 14130.571678945027, 18891.716765369983, 31190.607689691507, 14675.082525620763, 31375.836595992638, 6136.939661138018, -187500.02235174447, 39541.375880405416, 16510.160745401474, -25273.408028293616, -187500.02235174447, 53192.01090240609, 25632.287637268026, -2535.5371875211226, 61157.4350187105, 32189.149521487896, 0.226, 0.96, 0.302, 192.0, 0.0, 0.0, 0.0, 0.0, 0.0, 0.0, 0.0, 0.0, 0.0, 1.6959296106321673E9, 0.0, 2023-09-28 14:33:30.632
76.0, 14334.866623266535, 18900.29983524082, 31230.79612622215, 14650.272089275371, 31347.092252623115, 6120.377018496635, -187500.02235174447, 39508.8764439674, 16497.599065017588, -25290.52946454638, -187500.02235174447, 53223.50451034361, 25599.58703512991, -2568.4613071037897, 61261.10240949421, 32204.929853073343, 0.226, 0.96, 0.302, 192.0, 0.0, 0.0, 0.0, 0.0, 0.0, 0.0, 0.0, 0.0, 0.0, 1.69592961063218E9, 0.0, 2023-09-28 14:33:30.632
78.0, 14133.857385379957, 18896.678852639063, 31168.70298012531, 14661.112685336197, 31362.11262489708, 6128.848329645197, -187500.02235174447, 39523.896816241366, 16507.903219211486, -25280.739400474955, -187500.02235174447, 53196.99534141962, 25617.02139580505, -2540.722792234754, 61178.53506547631, 32180.901727783887, 0.232, 0.964, 0.31, 192.0, 3.5, 32.0, 15.0, 16.0, 4.5, 88.0, 0.0, 0.0, 0.0, 1.6959296106321948E9, 0.0, 2023-09-28 14:33:30.632
80.0, 14336.140672700487, 18896.03065204986, 31230.863181455516, 14645.33235375075, 31337.3468920406, 6107.815338112752, -187500.02235174447, 39500.29337409656, 16501.465916808356, -25297.48085707198, -187500.02235174447, 53219.54825157503, 25601.822209575443, -2561.9345977228404, 61249.92653726656, 32204.996908306708, 0.232, 0.964, 0.31, 192.0, 0.0, 0.0, 0.0, 0.0, 0.0, 0.0, 0.0, 0.0, 0.0, 1.6959296106322067E9, 0.0, 2023-09-28 14:33:30.632
82.0, 14140.540556972093, 18900.903332341117, 31150.30749443859, 14670.8133424298, 31361.93381094144, 6140.73945769542, -187500.02235174447, 39527.74131628768, 16500.773012730242, -25284.360383076717, -187500.02235174447, 53196.92828618626, 25607.745421856096, -2556.7713447536644, 61196.79644069629, 32173.145672457897, 0.232, 0.964, 0.31, 192.0, 0.0, 0.0, 0.0, 0.0, 0.0, 0.0, 0.0, 0.0, 0.0, 1.6959296106322186E9, 0.0, 2023-09-28 14:33:30.632
84.0, 14331.469158109327, 18879.11038149719, 31233.344225090055, 14641.018467070875, 31330.797830915195, 6111.212803269959, -187500.02235174447, 39501.030981663585, 16500.773012730242, -25286.774371477888, -187500.02235174447, 53225.06913245549, 25605.912578810763, -2560.7946587556194, 61228.424159100556, 32209.6013676645, 0.232, 0.964, 0.31, 192.0, 0.0, 0.0, 0.0, 0.0, 0.0, 0.0, 0.0, 0.0, 0.0, 1.695929610632231E9, 0.0, 2023-09-28 14:33:30.632
86.0, 14147.55900473106, 18890.330957213755, 31137.83522103253, 14673.629662231167, 31367.655857521997, 6139.040725116816, -187500.02235174447, 39516.543092315565, 16501.287102852715, -25301.7723920074, -187500.02235174447, 53194.89427744082, 25606.65018637779, -2563.2980541346137, 61211.45918505898, 32170.686980567814, 0.232, 0.964, 0.31, 192.0, 0.0, 0.0, 0.0, 0.0, 0.0, 0.0, 0.0, 0.0, 0.0, 1.6959296106322436E9, 0.0, 2023-09-28 14:33:30.632
88.0, 14299.997901916255, 18895.1589340161, 31250.644475298464, 14657.357592267705, 31352.121395125556, 6121.0028673413835, -187500.02235174447, 39517.77243826061, 16520.956637973384, -25278.794798707342, -187500.02235174447, 53225.73968478915, 25638.903753626797, -2551.5633882955776, 61198.02578664134, 32214.071716555565, 0.228, 0.966, 0.304, 192.0, 3.5, 16.0, 15.0, 24.0, 4.5, 64.0, 0.0, 0.0, 0.0, 1.695929610632256E9, 0.0, 2023-09-28 14:33:30.632
90.0, 14159.584243248017, 18899.673986396076, 31147.4017676594, 14668.511112750903, 31378.2058809049, 6141.253547817892, -187500.02235174447, 39517.14658941586, 16507.769108744753, -25291.602348280234, -187500.02235174447, 53212.79802474952, 25610.78525910202, -2566.4943535917228, 61236.56019408229, 32180.43234115033, 0.228, 0.966, 0.304, 192.0, 0.0, 0.0, 0.0, 0.0, 0.0, 0.0, 0.0, 0.0, 0.0, 1.6959296106322682E9, 0.0, 2023-09-28 14:33:30.632
92.0, 14288.464401777317, 18883.759544343895, 31249.23631539778, 14643.99124908343, 31342.800717687696, 6108.888221846607, -187500.02235174447, 39515.24669113716, 16526.186946175927, -25279.755923718923, -187500.02235174447, 53226.23142316716, 25631.639436678823, -2554.8937982194184, 61192.66136797206, 32210.540140931626, 0.228, 0.966, 0.304, 192.0, 0.0, 0.0, 0.0, 0.0, 0.0, 0.0, 0.0, 0.0, 0.0, 1.6959296106322827E9, 0.0, 2023-09-28 14:33:30.632
94.0, 14188.28388312863, 18884.87713156666, 31127.26284590517, 14658.274013790371, 31366.650029021508, 6135.240928559414, -187500.02235174447, 39514.95611845924, 16498.627245262534, -25301.973557707497, -187500.02235174447, 53206.71835025768, 25604.526770654535, -2583.74990031122, 61258.73312458195, 32167.915364255354, 0.228, 0.966, 0.304, 192.0, 0.0, 0.0, 0.0, 0.0, 0.0, 0.0, 0.0, 0.0, 0.0, 1.695929610632295E9, 0.0, 2023-09-28 14:33:30.632
96.0, 14274.785134170668, 18870.773180815362, 31236.361710591522, 14642.672496160567, 31339.894990908506, 6102.182698510015, -187500.02235174447, 39506.551862544045, 16519.92845772844, -25282.14756037564, -187500.02235174447, 53215.30142012852, 25629.49366921111, -2559.6994232773095, 61178.82563815423, 32201.04064953812, 0.228, 0.966, 0.304, 192.0, 0.0, 0.0, 0.0, 0.0, 0.0, 0.0, 0.0, 0.0, 0.0, 1.6959296106323075E9, 0.0, 2023-09-28 14:33:30.632
98.0, 14232.942668550333, 18877.612814618686, 31131.844953518506, 14648.148673552118, 31355.563563771673, 6120.175852796538, -187500.02235174447, 39505.791903232566, 16494.22395160484, -25302.6217582967, -187500.02235174447, 53209.91464971479, 25607.410145689268, -2587.4379381463455, 61271.071287521285, 32167.02129447714, 0.226, 0.966, 0.3, 192.0, 3.5, 8.0, 15.0, 24.0, 4.5, 48.0, 0.0, 0.0, 0.0, 1.6959296106323204E9, 0.0, 2023-09-28 14:33:30.632
100.0, 14264.704497421324, 18873.142465727626, 31233.85831521253, 14647.6569351741, 31346.131127611534, 6102.182698510015, -187500.02235174447, 39516.23016789319, 16514.18405940343, -25295.938586704564, -187500.02235174447, 53201.66685601078, 25630.164221544772, -2561.264045389181, 61168.74500140489, 32193.686925612325, 0.226, 0.966, 0.3, 192.0, 0.0, 0.0, 0.0, 0.0, 0.0, 0.0, 0.0, 0.0, 0.0, 1.6959296106323326E9, 0.0, 2023-09-28 14:33:30.632
102.0, 14253.8639013605, 18888.252244979412, 31150.39690141641, 14659.19043531304, 31365.152462143, 6128.513053478367, -187500.02235174447, 39502.997935175656, 16505.93626569942, -25291.870569213697, -187500.02235174447, 53221.20228066472, 25620.731785384633, -2573.4680978617785, 61281.59895915973, 32184.50035864119, 0.226, 0.966, 0.3, 192.0, 0.0, 0.0, 0.0, 0.0, 0.0, 0.0, 0.0, 0.0, 0.0, 1.6959296106323452E9, 0.0, 2023-09-28 14:33:30.632
104.0, 14240.832834343057, 18874.908253539594, 31229.902056443938, 14652.015525342886, 31346.86873517856, 6105.378997967124, -187500.02235174447, 39516.63249929339, 16512.999416947296, -25288.24958661194, -187500.02235174447, 53197.598838519916, 25629.717186655664, -2567.299016392114, 61167.15802754856, 32190.490626155213, 0.226, 0.966, 0.3, 192.0, 0.0, 0.0, 0.0, 0.0, 0.0, 0.0, 0.0, 0.0, 0.0, 1.69592961063236E9, 0.0, 2023-09-28 14:33:30.632
106.0, 14296.198105358853, 18881.010279775892, 31156.36481718598, 14641.487853704437, 31350.422662546953, 6108.30707649077, -187500.02235174447, 39496.78415021708, 16501.085937152617, -25304.946339720052, -187500.02235174447, 53221.62696380937, 25611.813439346963, -2585.5380398676443, 61296.596979689246, 32182.376942917937, 0.226, 0.966, 0.3, 192.0, 0.0, 0.0, 0.0, 0.0, 0.0, 0.0, 0.0, 0.0, 0.0, 1.6959296106323721E9, 0.0, 2023-09-28 14:33:30.632
108.0, 14216.022397997665, 18882.664308865584, 31220.357861561522, 14650.026220086364, 31346.24288633381, 6101.467442687445, -187500.02235174447, 39518.778266761095, 16520.241382150816, -25273.25156608243, -187500.02235174447, 53190.06630063848, 25636.46741348117, -2563.230998901248, 61157.4350187105, 32184.545062130102, 0.226, 0.962, 0.296, 192.0, 3.5, 8.0, 15.0, 8.0, 4.5, 32.0, 0.0, 0.0, 0.0, 1.6959296106323843E9, 0.0, 2023-09-28 14:33:30.632
110.0, 14318.236925391786, 18890.845047336228, 31164.769073101175, 14632.591859411225, 31342.57720024314, 6098.4052536970685, -187500.02235174447, 39478.790995930554, 16493.642806249, -25300.05130768434, -187500.02235174447, 53213.312114871995, 25603.677404365233, -2595.059883005605, 61293.579494187776, 32172.877451524433, 0.226, 0.962, 0.296, 192.0, 0.0, 0.0, 0.0, 0.0, 0.0, 0.0, 0.0, 0.0, 0.0, 1.695929610632397E9, 0.0, 2023-09-28 14:33:30.632
112.0, 14206.299389159607, 18884.564207144285, 31202.521169486186, 14643.745379894423, 31341.146688598, 6095.767747851342, -187500.02235174447, 39503.95906018723, 16514.60874254808, -25287.28846160036, -187500.02235174447, 53185.081861624945, 25623.056366807985, -2579.324254909069, 61153.50111168637, 32169.412931133862, 0.226, 0.962, 0.296, 192.0, 0.0, 0.0, 0.0, 0.0, 0.0, 0.0, 0.0, 0.0, 0.0, 1.695929610632409E9, 0.0, 2023-09-28 14:33:30.632
114.0, 14338.822882035123, 18901.573884674774, 31190.630041435965, 14654.429513744059, 31361.129148141048, 6109.871698602641, -187500.02235174447, 39506.261289866125, 16507.83616397812, -25305.81805775381, -187500.02235174447, 53217.782463763055, 25606.6948898667, -2596.7586155842087, 61290.20438077502, 32184.053323752087, 0.226, 0.962, 0.296, 192.0, 0.0, 0.0, 0.0, 0.0, 0.0, 0.0, 0.0, 0.0, 0.0, 1.6959296106324215E9, 0.0, 2023-09-28 14:33:30.632
116.0, 14165.75332471768, 18898.131716028656, 31205.806875921116, 14672.04268837484, 31369.287534867235, 6119.147672551593, -187500.02235174447, 39525.5284935866, 16526.566925831667, -25273.206862593517, -187500.02235174447, 53194.96133267419, 25634.321646013457, -2559.1853331548373, 61153.277594241816, 32189.574204632547, 0.226, 0.962, 0.296, 192.0, 0.0, 0.0, 0.0, 0.0, 0.0, 0.0, 0.0, 0.0, 0.0, 1.6959296106324363E9, 0.0, 2023-09-28 14:33:30.632
118.0, 14347.495358883782, 18890.800343847317, 31209.89724515644, 14637.978629824953, 31351.49554628081, 6098.338198463703, -187500.02235174447, 39497.7229234842, 16501.756489486277, -25302.398240852148, -187500.02235174447, 53226.49964410063, 25601.956320042173, -2591.193031214837, 61277.776810857875, 32196.145617502407, 0.234, 0.9580000000000001, 0.302, 192.0, 3.5, 40.0, 14.5, 120.0, 4.5, 56.0, 0.0, 0.0, 0.0, 1.6959296106324484E9, 0.0, 2023-09-28 14:33:30.632
120.0, 14147.246080308687, 18901.573884674774, 31193.066381581593, 14677.988252399953, 31380.19518616142, 6123.863890631663, -187500.02235174447, 39537.46432512574, 16522.096576940607, -25275.71025797251, -187500.02235174447, 53193.262600095586, 25626.20796277618, -2570.0482809601167, 61158.0385158108, 32184.90269004139, 0.234, 0.9580000000000001, 0.302, 192.0, 0.0, 0.0, 0.0, 0.0, 0.0, 0.0, 0.0, 0.0, 0.0, 1.6959296111109762E9, 0.0, 2023-09-28 14:33:31.110
122.0, 14334.26312616624, 18900.232780007456, 31227.75628897623, 14647.478121218459, 31370.181604645444, 6101.735663620909, -187500.02235174447, 39505.367220087915, 16511.21127739087, -25291.222368624494, -187500.02235174447, 53230.45590286922, 25613.981558559128, -2596.065711506094, 61266.869159563685, 32205.645108895915, 0.234, 0.9580000000000001, 0.302, 192.0, 0.0, 0.0, 0.0, 0.0, 0.0, 0.0, 0.0, 0.0, 0.0, 1.695929611111012E9, 0.0, 2023-09-28 14:33:31.111
124.0, 14140.585260461005, 18882.798419332317, 31178.470692452276, 14655.636507944646, 31370.136901156537, 6095.119547262138, -187500.02235174447, 39515.067877181515, 16515.100480926096, -25293.591653536758, -187500.02235174447, 53189.19458260472, 25619.21186676167, -2586.3650544124907, 61178.82563815423, 32175.26908818115, 0.234, 0.9580000000000001, 0.302, 192.0, 0.0, 0.0, 0.0, 0.0, 0.0, 0.0, 0.0, 0.0, 0.0, 1.6959296111110263E9, 0.0, 2023-09-28 14:33:31.111
126.0, 14349.663478095947, 18886.039422278336, 31234.50651580173, 14633.843557100721, 31347.807508445683, 6070.219703938926, -187500.02235174447, 39494.25840309363, 16494.40276556048, -25328.90740977614, -187500.02235174447, 53206.897164213326, 25591.383944914814, -2620.227947262281, 61270.870121821186, 32192.211710478274, 0.234, 0.9580000000000001, 0.302, 192.0, 0.0, 0.0, 0.0, 0.0, 0.0, 0.0, 0.0, 0.0, 0.0, 1.69592961111104E9, 0.0, 2023-09-28 14:33:31.111
128.0, 14145.32383028553, 18888.58752114624, 31165.573735901566, 14662.252624303417, 31371.83563373514, 6094.15842225056, -187500.02235174447, 39504.13787414287, 16511.233629135328, -25303.00173795244, -187500.02235174447, 53182.354948801396, 25613.154544014284, -2602.0783307645715, 61195.03065288433, 32169.12235845594, 0.23800000000000002, 0.9580000000000001, 0.302, 192.0, 3.5, 56.0, 14.5, 120.0, 4.5, 56.0, 0.0, 0.0, 0.0, 1.6959296111110532E9, 0.0, 2023-09-28 14:33:31.111
130.0, 14345.349591416072, 18889.16866650208, 31241.48026007179, 14648.193377041029, 31347.986322401324, 6066.621073081622, -187500.02235174447, 39493.65490599333, 16505.332768599124, -25309.461392100024, -187500.02235174447, 53211.45692008221, 25602.73863109811, -2613.388313458957, 61247.33373490974, 32194.089257012518, 0.23800000000000002, 0.9580000000000001, 0.302, 192.0, 0.0, 0.0, 0.0, 0.0, 0.0, 0.0, 0.0, 0.0, 0.0, 1.695929611111068E9, 0.0, 2023-09-28 14:33:31.111
132.0, 14152.744609444691, 18890.755640358406, 31150.665122349874, 14659.101028335219, 31371.455654079396, 6077.595779609177, -187500.02235174447, 39496.2253566057, 16508.77493724524, -25289.657746512625, -187500.02235174447, 53191.51916402807, 25613.86979983685, -2590.768348070186, 61209.08990014672, 32170.910498012367, 0.23800000000000002, 0.9580000000000001, 0.302, 192.0, 0.0, 0.0, 0.0, 0.0, 0.0, 0.0, 0.0, 0.0, 0.0, 1.6959296111110864E9, 0.0, 2023-09-28 14:33:31.111
134.0, 14334.55369884416, 18882.932529799047, 31238.3733675925, 14635.89991759061, 31337.659816462972, 6036.5356250447785, -187500.02235174447, 39471.07964409347, 16503.432870320426, -25320.994892238963, -187500.02235174447, 53205.5113560571, 25599.274110707538, -2616.6963716383425, 61223.663237531575, 32184.030972007633, 0.23800000000000002, 0.9580000000000001, 0.302, 192.0, 0.0, 0.0, 0.0, 0.0, 0.0, 0.0, 0.0, 0.0, 0.0, 1.6959296111111012E9, 0.0, 2023-09-28 14:33:31.111
136.0, 14179.790220235613, 18888.900445568615, 31139.93628501133, 14652.350801509716, 31366.11358715458, 6058.619148566622, -187500.02235174447, 39491.75500771463, 16499.945998185398, -25317.977406737496, -187500.02235174447, 53192.88262043984, 25599.609386874366, -2616.584612916066, 61229.63115330114, 32151.196259402786, 0.23800000000000002, 0.9580000000000001, 0.302, 192.0, 0.0, 0.0, 0.0, 0.0, 0.0, 0.0, 0.0, 0.0, 0.0, 1.6959296111111133E9, 0.0, 2023-09-28 14:33:31.111
138.0, 14333.21259417684, 18878.64099486363, 31242.396681594455, 14627.540365164325, 31335.134069339525, 6025.76208421732, -187500.02235174447, 39470.72201618219, 16502.02471041974, -25320.659616072135, -187500.02235174447, 53196.14597513032, 25598.089468251404, -2607.8003773451305, 61212.621475770655, 32177.303096926582, 0.232, 0.962, 0.3, 192.0, 3.5, 32.0, 15.0, 8.0, 4.5, 48.0, 0.0, 0.0, 0.0, 1.6959296111111262E9, 0.0, 2023-09-28 14:33:31.111
140.0, 14200.465583856772, 18889.59334964673, 31139.98098850024, 14656.687039934044, 31374.003752947305, 6068.364509149135, -187500.02235174447, 39493.43138854878, 16494.26865509375, -25316.792764281367, -187500.02235174447, 53184.590123246926, 25594.334375182912, -2617.098703038538, 61248.80895004379, 32155.487794338205, 0.232, 0.962, 0.3, 192.0, 0.0, 0.0, 0.0, 0.0, 0.0, 0.0, 0.0, 0.0, 0.0, 1.6959296111111393E9, 0.0, 2023-09-28 14:33:31.111
142.0, 14301.763689728225, 18888.989852546438, 31251.76206252123, 14641.890185104632, 31352.791947459216, 6035.619203522111, -187500.02235174447, 39484.96007740022, 16515.145184415007, -25289.68009825708, -187500.02235174447, 53202.62798102236, 25615.993215560105, -2604.4029121879234, 61187.16283883606, 32201.599443149502, 0.232, 0.962, 0.3, 192.0, 0.0, 0.0, 0.0, 0.0, 0.0, 0.0, 0.0, 0.0, 0.0, 1.6959296111111536E9, 0.0, 2023-09-28 14:33:31.111
144.0, 14216.357674164496, 18899.31635848479, 31149.301665938103, 14651.926118365065, 31378.809378005193, 6056.629843310099, -187500.02235174447, 39480.84735642044, 16503.365815087058, -25303.448772841548, -187500.02235174447, 53202.762091489094, 25601.822209575443, -2619.8926710954515, 61270.35603169871, 32171.22342243474, 0.232, 0.962, 0.3, 192.0, 0.0, 0.0, 0.0, 0.0, 0.0, 0.0, 0.0, 0.0, 0.0, 1.6959296111111689E9, 0.0, 2023-09-28 14:33:31.111
146.0, 14278.316709794606, 18889.50394266891, 31247.24701014126, 14638.023333313864, 31344.72296771085, 6023.884537683075, -187500.02235174447, 39472.48780399416, 16516.03925419322, -25297.592615794256, -187500.02235174447, 53202.91855370028, 25610.53938991301, -2604.715836610298, 61187.028728369325, 32193.061076767575, 0.232, 0.962, 0.3, 192.0, 0.0, 0.0, 0.0, 0.0, 0.0, 0.0, 0.0, 0.0, 0.0, 1.6959296111111836E9, 0.0, 2023-09-28 14:33:31.111
148.0, 14232.741502850236, 18912.749756902427, 31154.353160185, 14660.308022535804, 31381.223366406368, 6056.473381098912, -187500.02235174447, 39479.57330698649, 16505.6456930215, -25297.167932649605, -187500.02235174447, 53216.79898700702, 25601.576340386433, -2609.6332203904653, 61280.928406826075, 32171.51399511266, 0.226, 0.962, 0.302, 192.0, 3.5, 8.0, 15.0, 8.0, 4.5, 56.0, 0.0, 0.0, 0.0, 1.6959296111111965E9, 0.0, 2023-09-28 14:33:31.111
150.0, 14224.806633568602, 18899.584579418253, 31248.386949108477, 14648.61806018568, 31365.085406909635, 6030.411247064024, -187500.02235174447, 39496.58298451698, 16539.441530637923, -25274.570319005292, -187500.02235174447, 53211.16634740429, 25630.67831166724, -2574.585685084544, 61161.88301585711, 32199.878358826445, 0.226, 0.962, 0.302, 192.0, 0.0, 0.0, 0.0, 0.0, 0.0, 0.0, 0.0, 0.0, 0.0, 1.6959296111112092E9, 0.0, 2023-09-28 14:33:31.111
152.0, 14247.426598957372, 18898.01995730638, 31168.32300046957, 14652.842539887732, 31376.68596228194, 6038.7037442569435, -187500.02235174447, 39481.56261224301, 16510.294855868204, -25294.53042680388, -187500.02235174447, 53224.085655699455, 25606.605482888877, -2597.6973888513317, 61281.978938815475, 32180.588803361516, 0.226, 0.962, 0.302, 192.0, 0.0, 0.0, 0.0, 0.0, 0.0, 0.0, 0.0, 0.0, 0.0, 1.6959296111112216E9, 0.0, 2023-09-28 14:33:31.111
154.0, 14220.895078288922, 18878.283366952346, 31232.2713413562, 14639.297382747816, 31355.943543427416, 6024.063351638717, -187500.02235174447, 39496.65003975035, 16516.64275129351, -25293.47989481448, -187500.02235174447, 53197.26356235309, 25611.947549813696, -2609.8567378350185, 61164.36405949164, 32184.679172596836, 0.226, 0.962, 0.302, 192.0, 0.0, 0.0, 0.0, 0.0, 0.0, 0.0, 0.0, 0.0, 0.0, 1.6959296111112385E9, 0.0, 2023-09-28 14:33:31.111
156.0, 14279.769573184201, 18902.691471897542, 31171.96633481578, 14649.780350897356, 31379.926965227958, 6043.263500125826, -187500.02235174447, 39480.690894209256, 16509.289027367715, -25313.663520057624, -187500.02235174447, 53218.05068469652, 25598.469447907144, -2618.484511194767, 61299.74857565744, 32183.919213285353, 0.226, 0.962, 0.302, 192.0, 0.0, 0.0, 0.0, 0.0, 0.0, 0.0, 0.0, 0.0, 0.0, 1.6959296111112716E9, 0.0, 2023-09-28 14:33:31.111
158.0, 14191.301368630096, 18886.151181000612, 31224.314120330113, 14648.841577630232, 31362.559659786188, 6028.310183085226, -187500.02235174447, 39489.497481524646, 16526.566925831667, -25280.158255119117, -187500.02235174447, 53204.237306623145, 25619.301273739493, -2584.599266600522, 61163.02295482433, 32190.736495344223, 0.222, 0.96, 0.3, 192.0, 3.0, 120.0, 15.0, 0.0, 4.5, 48.0, 0.0, 0.0, 0.0, 1.6959296111112857E9, 0.0, 2023-09-28 14:33:31.111
160.0, 14304.334140340585, 18901.328015485768, 31185.422084977876, 14641.979592082453, 31375.21074714789, 6033.316973843214, -187500.02235174447, 39478.947458141745, 16504.349291843093, -25305.7733542649, -187500.02235174447, 53228.24308016814, 25594.289671694, -2611.935450069362, 61306.722319927496, 32188.814245321068, 0.222, 0.96, 0.3, 192.0, 0.0, 0.0, 0.0, 0.0, 0.0, 0.0, 0.0, 0.0, 0.0, 1.695929611111304E9, 0.0, 2023-09-28 14:33:31.111
162.0, 14176.19158937831, 18882.574901887765, 31201.090657841047, 14637.442187958026, 31363.11845339757, 6023.437502793969, -187500.02235174447, 39481.36144654291, 16530.61259157808, -25291.244720368948, -187500.02235174447, 53194.13431812934, 25616.775526616042, -2585.359225912002, 61162.57591993522, 32177.54896611559, 0.222, 0.96, 0.3, 192.0, 0.0, 0.0, 0.0, 0.0, 0.0, 0.0, 0.0, 0.0, 0.0, 1.695929611111323E9, 0.0, 2023-09-28 14:33:31.111
164.0, 14330.664495308936, 18898.3105299843, 31195.480369982764, 14633.463577444982, 31371.187433145933, 6021.694066726454, -187500.02235174447, 39466.78810915806, 16509.691358767912, -25312.255360156938, -187500.02235174447, 53225.35970513341, 25595.854293805874, -2607.5098046672115, 61295.524095955385, 32185.908518541877, 0.222, 0.96, 0.3, 192.0, 0.0, 0.0, 0.0, 0.0, 0.0, 0.0, 0.0, 0.0, 0.0, 1.6959296111113408E9, 0.0, 2023-09-28 14:33:31.111
166.0, 14158.958394403267, 18890.487419424942, 31192.12760831447, 14641.823129871265, 31370.78510174574, 6022.8563574381305, -187500.02235174447, 39473.18070807227, 16531.931344500943, -25288.80838022332, -187500.02235174447, 53200.39280657683, 25623.16812553026, -2580.106565965005, 61163.80526588026, 32179.60532660548, 0.222, 0.96, 0.3, 192.0, 0.0, 0.0, 0.0, 0.0, 0.0, 0.0, 0.0, 0.0, 0.0, 1.6959296111113527E9, 0.0, 2023-09-28 14:33:31.111
168.0, 14346.131902472009, 18903.138506786647, 31208.84671316704, 14628.903821576097, 31362.78317723074, 6015.100302112139, -187500.02235174447, 39451.72303339518, 16502.382338331026, -25316.368081136716, -187500.02235174447, 53219.4141411083, 25591.786276315008, -2620.9655548293063, 61289.95851158602, 32187.65195460939, 0.226, 0.9540000000000001, 0.304, 192.0, 3.5, 8.0, 14.5, 104.0, 4.5, 64.0, 0.0, 0.0, 0.0, 1.6959296111113665E9, 0.0, 2023-09-28 14:33:31.111
170.0, 14158.42195253634, 18891.917931070082, 31181.59993667602, 14646.539347951335, 31373.534366313743, 6020.531776014778, -187500.02235174447, 39465.55876321301, 16524.108233941584, -25289.747153490443, -187500.02235174447, 53193.888448940335, 25617.40137546079, -2591.3047899371136, 61175.89755963058, 32175.380846903427, 0.226, 0.9540000000000001, 0.304, 192.0, 0.0, 0.0, 0.0, 0.0, 0.0, 0.0, 0.0, 0.0, 0.0, 1.6959296111113787E9, 0.0, 2023-09-28 14:33:31.111
172.0, 14363.834484080611, 18889.88392232465, 31221.073117384094, 14625.327542463248, 31350.981456158337, 6000.057578093717, -187500.02235174447, 39448.54908568253, 16516.12866117104, -25313.97644448, -187500.02235174447, 53223.68332429926, 25599.274110707538, -2600.8266330750744, 61278.760287613906, 32198.827826837045, 0.226, 0.9540000000000001, 0.304, 192.0, 0.0, 0.0, 0.0, 0.0, 0.0, 0.0, 0.0, 0.0, 0.0, 1.69592961111139E9, 0.0, 2023-09-28 14:33:31.111
174.0, 14162.17704560483, 18892.74494561493, 31164.97023880127, 14650.383847997648, 31377.11064542659, 6022.789302204765, -187500.02235174447, 39459.76966139909, 16516.307475126683, -25304.25343564194, -187500.02235174447, 53182.51141101258, 25604.504418910077, -2598.0773685070717, 61200.81975469825, 32166.529556099125, 0.226, 0.9540000000000001, 0.304, 192.0, 0.0, 0.0, 0.0, 0.0, 0.0, 0.0, 0.0, 0.0, 0.0, 1.695929611111402E9, 0.0, 2023-09-28 14:33:31.111
176.0, 14377.223179009341, 18875.556454128797, 31239.915637959915, 14617.415024926071, 31343.58302874363, 5988.501726210324, -187500.02235174447, 39443.45288794671, 16516.061605937673, -25317.887999759674, -187500.02235174447, 53216.754283518116, 25598.380040929325, -2609.163833756904, 61268.053802019815, 32196.637355880423, 0.226, 0.9540000000000001, 0.304, 192.0, 0.0, 0.0, 0.0, 0.0, 0.0, 0.0, 0.0, 0.0, 0.0, 1.6959296111114132E9, 0.0, 2023-09-28 14:33:31.111
178.0, 14169.262548597164, 18894.80130610482, 31161.818642833074, 14648.729818907956, 31380.59751756162, 6026.834967951175, -187500.02235174447, 39470.476146993184, 16516.17336465995, -25315.988101480976, -187500.02235174447, 53189.70867272719, 25605.174971243738, -2596.624505117477, 61217.87413571765, 32156.247753649684, 0.224, 0.9560000000000001, 0.296, 192.0, 3.5, 0.0, 14.5, 112.0, 4.5, 32.0, 0.0, 0.0, 0.0, 1.6959296111114247E9, 0.0, 2023-09-28 14:33:31.111
180.0, 14348.054152495164, 18895.02482354937, 31258.75815853574, 14639.006810069897, 31362.49260455282, 6010.562897987712, -187500.02235174447, 39468.84446964794, 16529.98674273333, -25306.846237998754, -187500.02235174447, 53228.80187377952, 25612.84161959191, -2588.84609804703, 61244.137435452634, 32193.597518634502, 0.224, 0.9560000000000001, 0.296, 192.0, 0.0, 0.0, 0.0, 0.0, 0.0, 0.0, 0.0, 0.0, 0.0, 1.695929611111438E9, 0.0, 2023-09-28 14:33:31.111
182.0, 14171.117743386954, 18896.947073572526, 31163.293857967124, 14650.339144508738, 31377.82590124916, 6030.366543575114, -187500.02235174447, 39468.017455103094, 16527.013960720775, -25298.620796039202, -187500.02235174447, 53209.06528342549, 25612.908674825274, -2584.1298799669603, 61228.31240037828, 32174.442073636303, 0.224, 0.9560000000000001, 0.296, 192.0, 0.0, 0.0, 0.0, 0.0, 0.0, 0.0, 0.0, 0.0, 0.0, 1.69592961111145E9, 0.0, 2023-09-28 14:33:31.111
184.0, 14356.637222366004, 18888.431058935053, 31252.410263110432, 14617.99617028191, 31334.910551894973, 5986.08773780915, -187500.02235174447, 39438.37904195536, 16518.386187361026, -25304.365194364214, -187500.02235174447, 53229.49477785764, 25596.234273461614, -2592.2435632042366, 61230.3017056348, 32181.61698360646, 0.224, 0.9560000000000001, 0.296, 192.0, 0.0, 0.0, 0.0, 0.0, 0.0, 0.0, 0.0, 0.0, 0.0, 1.695929611111465E9, 0.0, 2023-09-28 14:33:31.111
186.0, 14211.9543805068, 18899.40576546261, 31138.461069877278, 14637.106911791196, 31364.72777899835, 6015.457930023424, -187500.02235174447, 39446.69389089273, 16514.11700417006, -25306.39920310965, -187500.02235174447, 53212.93213521626, 25590.244005947592, -2594.8363655610524, 61249.07717097726, 32146.12241341143, 0.224, 0.9560000000000001, 0.296, 192.0, 0.0, 0.0, 0.0, 0.0, 0.0, 0.0, 0.0, 0.0, 0.0, 1.6959296111114788E9, 0.0, 2023-09-28 14:33:31.111
188.0, 14336.341838400584, 18900.232780007456, 31248.990446208772, 14633.37417046716, 31344.43239503293, 5996.771871658787, -187500.02235174447, 39455.07579506347, 16528.8021002772, -25290.060077912818, -187500.02235174447, 53234.501568615626, 25605.107916010373, -2583.101699722016, 61203.85959194417, 32179.068884738554, 0.226, 0.9560000000000001, 0.292, 192.0, 3.5, 8.0, 14.5, 112.0, 4.5, 16.0, 0.0, 0.0, 0.0, 1.6959296111114917E9, 0.0, 2023-09-28 14:33:31.111
190.0, 14222.839680056535, 18916.4154429931, 31145.770090314163, 14651.546138709324, 31377.803549504704, 6022.118749871105, -187500.02235174447, 39462.27305677808, 16523.16946067446, -25293.7704674924, -187500.02235174447, 53232.266394170096, 25597.508322895566, -2590.813051559097, 61260.14128448263, 32158.617038561948, 0.226, 0.9560000000000001, 0.292, 192.0, 0.0, 0.0, 0.0, 0.0, 0.0, 0.0, 0.0, 0.0, 0.0, 1.6959296111115055E9, 0.0, 2023-09-28 14:33:31.111
192.0, 14308.312750853629, 18900.478649196466, 31257.70762654634, 14629.239097742928, 31343.650083976998, 5985.059557564206, -187500.02235174447, 39443.13996352434, 16543.733065573342, -25289.47893255698, -187500.02235174447, 53241.005926252124, 25616.574360915944, -2577.2231909302704, 61183.3406905342, 32191.608213377982, 0.226, 0.9560000000000001, 0.292, 192.0, 0.0, 0.0, 0.0, 0.0, 0.0, 0.0, 0.0, 0.0, 0.0, 1.6959296111115177E9, 0.0, 2023-09-28 14:33:31.111
194.0, 14247.270136746185, 18912.548591202332, 31143.601971101998, 14646.695810162522, 31376.48479658184, 6017.71545621341, -187500.02235174447, 39446.559780426, 16517.60387630509, -25318.580903837792, -187500.02235174447, 53236.669687827794, 25590.4898751366, -2602.525365653678, 61279.29672948083, 32153.632599548415, 0.226, 0.9560000000000001, 0.292, 192.0, 0.0, 0.0, 0.0, 0.0, 0.0, 0.0, 0.0, 0.0, 0.0, 1.695929611111534E9, 0.0, 2023-09-28 14:33:31.111
196.0, 14280.931863895878, 18891.02386129187, 31241.122632160503, 14627.495661675413, 31349.372130557556, 5991.765080900798, -187500.02235174447, 39462.9659608562, 16545.74472257432, -25287.601386022736, -187500.02235174447, 53242.30232743053, 25621.379985973836, -2568.662472803888, 61171.29310027279, 32193.70927735678, 0.226, 0.9560000000000001, 0.292, 192.0, 0.0, 0.0, 0.0, 0.0, 0.0, 0.0, 0.0, 0.0, 0.0, 1.695929611111547E9, 0.0, 2023-09-28 14:33:31.111
198.0, 14269.308956779118, 18913.800288891827, 31146.10536648099, 14648.32748750776, 31383.59265131863, 6042.10120941415, -187500.02235174447, 39461.42369048878, 16515.36870185956, -25316.278674158893, -187500.02235174447, 53237.496702372635, 25589.484046636113, -2594.165813227393, 61290.98669183096, 32159.98049497372, 0.232, 0.962, 0.292, 192.0, 3.5, 32.0, 15.0, 8.0, 4.5, 16.0, 0.0, 0.0, 0.0, 1.6959296111115603E9, 0.0, 2023-09-28 14:33:31.111
200.0, 14255.093247305544, 18907.586503933253, 31246.107071174036, 14646.293478762327, 31356.189412616422, 6010.741711943354, -187500.02235174447, 39463.52475446758, 16555.04304826773, -25273.72095271599, -187500.02235174447, 53241.94469951924, 25631.550029701, -2537.973527666751, 61163.268824013336, 32186.444960408804, 0.232, 0.962, 0.292, 192.0, 0.0, 0.0, 0.0, 0.0, 0.0, 0.0, 0.0, 0.0, 0.0, 1.6959296111115775E9, 0.0, 2023-09-28 14:33:31.111
202.0, 14308.871544465012, 18932.776919934382, 31167.227764991258, 14651.076752075764, 31356.01059866078, 6025.136235372572, -187500.02235174447, 39446.31391123699, 16529.539707844222, -25296.586787293767, -187500.02235174447, 53262.93298756278, 25591.45100014818, -2574.809202529097, 61307.8175554058, 32177.392503904404, 0.232, 0.962, 0.292, 192.0, 0.0, 0.0, 0.0, 0.0, 0.0, 0.0, 0.0, 0.0, 0.0, 1.695929611111591E9, 0.0, 2023-09-28 14:33:31.111
204.0, 14238.128273263965, 18922.1151378292, 31229.36561457701, 14645.488815961937, 31337.950389140893, 6018.229546335882, -187500.02235174447, 39452.90767585131, 16558.619327380577, -25251.078635582762, -187500.02235174447, 53250.90774904582, 25623.72691914164, -2528.8316641845304, 61161.90536760156, 32186.534367386626, 0.232, 0.962, 0.292, 192.0, 0.0, 0.0, 0.0, 0.0, 0.0, 0.0, 0.0, 0.0, 0.0, 1.695929611111604E9, 0.0, 2023-09-28 14:33:31.111
206.0, 14335.090140711087, 18917.22010579349, 31173.553308672108, 14625.685170374534, 31345.43822353342, 6012.775720688787, -187500.02235174447, 39424.69977434871, 16530.523184600257, -25290.685926757567, -187500.02235174447, 53263.20120849624, 25588.433514646713, -2564.9297314798514, 61302.92252337009, 32168.205936933275, 0.232, 0.962, 0.292, 192.0, 0.0, 0.0, 0.0, 0.0, 0.0, 0.0, 0.0, 0.0, 0.0, 1.6959296111116216E9, 0.0, 2023-09-28 14:33:31.111
208.0, 14206.075871715055, 18905.328977743266, 31211.953605646326, 14635.050551301307, 31357.59757251711, 6009.132386342572, -187500.02235174447, 39456.32749275297, 16546.772902819266, -25280.404124308126, -187500.02235174447, 53228.31013540151, 25613.82509634794, -2539.1805218673376, 61154.39518146458, 32167.803605533078, 0.228, 0.9560000000000001, 0.28800000000000003, 192.0, 3.5, 16.0, 14.5, 112.0, 4.5, 0.0, 0.0, 0.0, 0.0, 1.695929611111635E9, 0.0, 2023-09-28 14:33:31.111
210.0, 14362.918062557945, 18891.06856478078, 31186.293803011635, 14613.79404232431, 31339.269142063757, 5988.211153532405, -187500.02235174447, 39415.04382074402, 16523.862364752575, -25312.657691557135, -187500.02235174447, 53253.724068847194, 25587.897072779786, -2586.163888712393, 61290.360842986214, 32167.401274132884, 0.228, 0.9560000000000001, 0.28800000000000003, 192.0, 0.0, 0.0, 0.0, 0.0, 0.0, 0.0, 0.0, 0.0, 0.0, 1.6959296111116486E9, 0.0, 2023-09-28 14:33:31.111
212.0, 14213.407243896396, 18877.389297174133, 31189.44539897983, 14615.783347580833, 31345.661740977976, 5983.9419703414405, -187500.02235174447, 39426.37615518286, 16529.78557703323, -25315.496363102957, -187500.02235174447, 53208.88646946984, 25598.044764762493, -2576.798507785619, 61159.51373094485, 32141.56265754255, 0.228, 0.9560000000000001, 0.28800000000000003, 192.0, 0.0, 0.0, 0.0, 0.0, 0.0, 0.0, 0.0, 0.0, 0.0, 1.6959296111116617E9, 0.0, 2023-09-28 14:33:31.111
214.0, 14381.358251733573, 18886.374698445165, 31194.36278276, 14602.37230090765, 31343.515973510264, 5987.317083754192, -187500.02235174447, 39422.598710369915, 16517.447414093902, -25340.776186081912, -187500.02235174447, 53239.038972740054, 25582.510302366056, -2598.300885951625, 61280.97311031498, 32159.913439740354, 0.228, 0.9560000000000001, 0.28800000000000003, 192.0, 0.0, 0.0, 0.0, 0.0, 0.0, 0.0, 0.0, 0.0, 0.0, 1.6959296111116743E9, 0.0, 2023-09-28 14:33:31.111
216.0, 14200.487935601228, 18886.151181000612, 31177.420160462876, 14615.403367925093, 31353.171927114956, 6004.23735430686, -187500.02235174447, 39441.955321068206, 16538.256888181793, -25301.928854218586, -187500.02235174447, 53206.98657119114, 25605.957282299674, -2559.2747401326587, 61161.167760034536, 32142.99316918769, 0.228, 0.9560000000000001, 0.28800000000000003, 192.0, 0.0, 0.0, 0.0, 0.0, 0.0, 0.0, 0.0, 0.0, 0.0, 1.6959296111116881E9, 0.0, 2023-09-28 14:33:31.111
218.0, 14395.641016440513, 18899.02578580687, 31206.298614299136, 14618.286742959828, 31351.49554628081, 5994.670807679989, -187500.02235174447, 39427.65020461681, 16519.302608883692, -25318.826773026798, -187500.02235174447, 53241.81058905251, 25587.472389635135, -2587.3038276796137, 61274.89343582314, 32166.060169465563, 0.226, 0.9580000000000001, 0.29, 192.0, 3.5, 8.0, 14.5, 120.0, 4.5, 8.0, 0.0, 0.0, 0.0, 1.695929611111702E9, 0.0, 2023-09-28 14:33:31.111
220.0, 14192.530714575138, 18903.429079464564, 31164.232631234245, 14636.101083290707, 31372.282668624244, 6012.8204241776975, -187500.02235174447, 39456.0145683306, 16545.029466751752, -25289.791856979355, -187500.02235174447, 53220.375266119874, 25615.859105093376, -2542.8238562135525, 61173.0365363403, 32162.46153860826, 0.226, 0.9580000000000001, 0.29, 192.0, 0.0, 0.0, 0.0, 0.0, 0.0, 0.0, 0.0, 0.0, 0.0, 1.695929611111717E9, 0.0, 2023-09-28 14:33:31.111
222.0, 14403.464126999872, 18891.984986303447, 31215.775753948186, 14608.831955055233, 31340.54319149771, 5992.882668123564, -187500.02235174447, 39426.219692971674, 16527.818623521165, -25311.09306944526, -187500.02235174447, 53258.50734216063, 25594.468485649646, -2570.4729641047675, 61261.30357519431, 32185.349724930493, 0.226, 0.9580000000000001, 0.29, 192.0, 0.0, 0.0, 0.0, 0.0, 0.0, 0.0, 0.0, 0.0, 0.0, 1.6959296111117296E9, 0.0, 2023-09-28 14:33:31.111
224.0, 14184.19351389331, 18917.60008544923, 31152.63207586194, 14645.175891539562, 31382.184491417946, 6035.775665733298, -187500.02235174447, 39457.57919044247, 16540.02267599376, -25285.455618555025, -187500.02235174447, 53238.52488261758, 25614.24977949259, -2535.5595392655778, 61189.688585959506, 32160.204012418275, 0.226, 0.9580000000000001, 0.29, 192.0, 0.0, 0.0, 0.0, 0.0, 0.0, 0.0, 0.0, 0.0, 0.0, 1.6959296111117432E9, 0.0, 2023-09-28 14:33:31.111
226.0, 14394.121097817553, 18899.02578580687, 31238.082794914582, 14620.65602787209, 31344.410043288477, 5990.938066355952, -187500.02235174447, 39431.09237326293, 16544.73889407383, -25290.752981990932, -187500.02235174447, 53277.86395285893, 25610.561741657468, -2541.7956759686085, 61236.44843536001, 32198.380791947937, 0.226, 0.9580000000000001, 0.29, 192.0, 0.0, 0.0, 0.0, 0.0, 0.0, 0.0, 0.0, 0.0, 0.0, 1.6959296111117573E9, 0.0, 2023-09-28 14:33:31.111
228.0, 14205.941761248323, 18907.45239346652, 31142.953770512795, 14640.817301370776, 31371.276840123755, 6030.7241714863985, -187500.02235174447, 39459.27792302107, 16530.23261192234, -25289.881263957177, -187500.02235174447, 53246.68326934377, 25605.77846834403, -2540.655737001388, 61214.700188004994, 32158.03589320611, 0.23, 0.96, 0.298, 192.0, 3.5, 24.0, 15.0, 0.0, 4.5, 40.0, 0.0, 0.0, 0.0, 1.6959296111117709E9, 0.0, 2023-09-28 14:33:31.111
230.0, 14396.937417618921, 18898.981082317958, 31235.51234430222, 14611.111832989674, 31337.838630418617, 5983.584342430156, -187500.02235174447, 39430.86885581838, 16529.003265977295, -25296.944415205053, -187500.02235174447, 53263.06709802951, 25600.97284328614, -2533.480827031234, 61233.83328125874, 32180.454692894782, 0.23, 0.96, 0.298, 192.0, 0.0, 0.0, 0.0, 0.0, 0.0, 0.0, 0.0, 0.0, 0.0, 1.6959296111117852E9, 0.0, 2023-09-28 14:33:31.111
232.0, 14231.936840049844, 18911.855687124218, 31137.54464835461, 14637.71040889149, 31371.813281990682, 6011.993409632852, -187500.02235174447, 39448.48203044916, 16523.437681607924, -25292.80934248082, -187500.02235174447, 53239.37424890688, 25601.4422299197, -2556.1231441644604, 61236.671952804565, 32159.064073451053, 0.23, 0.96, 0.298, 192.0, 0.0, 0.0, 0.0, 0.0, 0.0, 0.0, 0.0, 0.0, 0.0, 1.695929611111801E9, 0.0, 2023-09-28 14:33:31.111
234.0, 14376.664385397959, 18903.60789342021, 31249.683350286887, 14624.187603496028, 31348.075729379147, 5991.362749500603, -187500.02235174447, 39441.530637923555, 16537.519280614768, -25280.113551630206, -187500.02235174447, 53265.682252130784, 25614.585055659423, -2553.8879697189295, 61215.30368510529, 32197.866701825467, 0.23, 0.96, 0.298, 192.0, 0.0, 0.0, 0.0, 0.0, 0.0, 0.0, 0.0, 0.0, 0.0, 1.6959296111118143E9, 0.0, 2023-09-28 14:33:31.111
236.0, 14252.053410059621, 18903.540838186844, 31143.87019203546, 14636.034028057342, 31372.729703513352, 6020.3976655480465, -187500.02235174447, 39458.182687542765, 16530.500832855803, -25292.854045969732, -187500.02235174447, 53252.7182403467, 25606.314910210956, -2548.5011993052008, 61256.92263328107, 32168.608268333468, 0.23, 0.96, 0.298, 192.0, 0.0, 0.0, 0.0, 0.0, 0.0, 0.0, 0.0, 0.0, 0.0, 1.6959296111118257E9, 0.0, 2023-09-28 14:33:31.111
238.0, 14366.717859115346, 18888.16283800159, 31240.407376337935, 14613.391710924116, 31346.95814215638, 5987.4064907320135, -187500.02235174447, 39439.69779487822, 16536.044065480717, -25297.659671027624, -187500.02235174447, 53248.203187966734, 25606.896055566795, -2558.3136151210806, 61212.53206879283, 32191.339992444515, 0.226, 0.962, 0.294, 192.0, 3.5, 8.0, 15.0, 8.0, 4.5, 24.0, 0.0, 0.0, 0.0, 1.6959296111118376E9, 0.0, 2023-09-28 14:33:31.111
240.0, 14272.572311469594, 18907.407689977612, 31146.865325792474, 14648.305135763305, 31395.17085494648, 6033.33932558767, -187500.02235174447, 39465.067024835, 16528.288010154727, -25291.512941302415, -187500.02235174447, 53249.387830422864, 25607.857180578376, -2557.4418970873235, 61278.84969459173, 32172.22925093523, 0.226, 0.962, 0.294, 192.0, 0.0, 0.0, 0.0, 0.0, 0.0, 0.0, 0.0, 0.0, 0.0, 1.6959296115912232E9, 0.0, 2023-09-28 14:33:31.591
242.0, 14341.415684391939, 18892.275558981368, 31254.04194045567, 14624.36641745167, 31366.02418017676, 5994.223772790882, -187500.02235174447, 39446.47037344818, 16548.583394120145, -25268.96003114701, -187500.02235174447, 53260.31783346151, 25627.929047099242, -2536.9229956773515, 61201.46795528746, 32207.209731007784, 0.226, 0.962, 0.294, 192.0, 0.0, 0.0, 0.0, 0.0, 0.0, 0.0, 0.0, 0.0, 0.0, 1.6959296115913432E9, 0.0, 2023-09-28 14:33:31.591
244.0, 14317.722835269313, 18893.482553181955, 31153.906125295896, 14627.093330275218, 31380.619869306072, 6024.040999894261, -187500.02235174447, 39445.68806239225, 16526.522222342755, -25299.313700117316, -187500.02235174447, 53258.08265901598, 25599.542331641, -2554.133838907938, 61307.638741450166, 32168.183585188817, 0.226, 0.962, 0.294, 192.0, 0.0, 0.0, 0.0, 0.0, 0.0, 0.0, 0.0, 0.0, 0.0, 1.6959296115913706E9, 0.0, 2023-09-28 14:33:31.591
246.0, 14317.521669569216, 18890.845047336228, 31236.831097225084, 14624.701693618501, 31378.87643323856, 6024.219813849904, -187500.02235174447, 39465.04467309054, 16538.256888181793, -25286.215577866507, -187500.02235174447, 53237.74257156165, 25618.183686516728, -2543.226187613748, 61193.91306566156, 32186.467312153258, 0.226, 0.962, 0.294, 192.0, 0.0, 0.0, 0.0, 0.0, 0.0, 0.0, 0.0, 0.0, 0.0, 1.695929611591391E9, 0.0, 2023-09-28 14:33:31.591
248.0, 14324.763634772735, 18913.21914353599, 31166.288991724134, 14646.785217140345, 31397.204863691913, 6028.868976696608, -187500.02235174447, 39449.7113763942, 16537.474577125857, -25292.742287247456, -187500.02235174447, 53264.18468525227, 25617.11080278287, -2546.26602485967, 61304.53184897087, 32164.853175264976, 0.228, 0.962, 0.292, 192.0, 3.5, 16.0, 15.0, 8.0, 4.5, 16.0, 0.0, 0.0, 0.0, 1.6959296115914085E9, 0.0, 2023-09-28 14:33:31.591
250.0, 14268.01255560071, 18912.928570858072, 31243.71543451732, 14650.316792764283, 31382.720933284872, 6020.978810903885, -187500.02235174447, 39466.27401903558, 16560.541577403736, -25265.60726947871, -187500.02235174447, 53247.93496703327, 25640.021340849562, -2521.5896989810108, 61173.77414390733, 32195.43036167984, 0.228, 0.962, 0.292, 192.0, 0.0, 0.0, 0.0, 0.0, 0.0, 0.0, 0.0, 0.0, 0.0, 1.6959296115914285E9, 0.0, 2023-09-28 14:33:31.591
252.0, 14350.512844385248, 18916.08016682627, 31185.489140211244, 14654.831845144254, 31387.34774438712, 6029.852453452641, -187500.02235174447, 39443.27407399107, 16539.061550982184, -25275.062057383308, -187500.02235174447, 53264.34114746346, 25608.795953845496, -2544.164960880871, 61310.835040907274, 32175.537309114614, 0.228, 0.962, 0.292, 192.0, 0.0, 0.0, 0.0, 0.0, 0.0, 0.0, 0.0, 0.0, 0.0, 1.6959296115914476E9, 0.0, 2023-09-28 14:33:31.591
254.0, 14254.713267649802, 18911.431003979564, 31237.054614669636, 14657.402295756614, 31384.799645519215, 6019.503595769835, -187500.02235174447, 39457.06510032, 16554.61836512308, -25255.057246095806, -187500.02235174447, 53236.02148723859, 25636.08743382543, -2534.486655531723, 61179.47383874343, 32182.28753594012, 0.228, 0.962, 0.292, 192.0, 0.0, 0.0, 0.0, 0.0, 0.0, 0.0, 0.0, 0.0, 0.0, 1.6959296115914657E9, 0.0, 2023-09-28 14:33:31.591
0.0, 14373.26692024075, 18930.966428633503, 31201.492989241244, 14651.121455564673, 31390.409933377498, 6026.209119106426, -187500.02235174447, 39434.02045178657, 16545.632963852044, -25286.39439182215, -187500.02235174447, 53261.278958473085, 25614.339186470414, -2552.680975518343, 61311.058558351826, 32171.55869860157, 0.228, 0.962, 0.292, 192.0, 0.0, 0.0, 0.0, 0.0, 0.0, 0.0, 0.0, 0.0, 0.0, 1.6959296115914836E9, 0.0, 2023-09-28 14:33:31.591
2.0, 14241.81631109909, 18918.807079649818, 31234.171239634903, 14667.549987739325, 31393.58388109015, 6034.836892466175, -187500.02235174447, 39485.00478088913, 16568.8117228522, -25259.594650220235, -187500.02235174447, 53235.44034188275, 25640.043692594016, -2522.841396670508, 61174.13177181862, 32180.074713239042, 0.224, 0.966, 0.294, 192.0, 3.5, 0.0, 15.0, 24.0, 4.5, 24.0, 0.0, 0.0, 0.0, 1.6959296115915036E9, 0.0, 2023-09-28 14:33:31.591
4.0, 14392.71293791687, 18940.622382238198, 31225.096431386046, 14667.058249361307, 31399.17181720398, 6045.275157126804, -187500.02235174447, 39462.58598120046, 16544.13539697354, -25285.276804599383, -187500.02235174447, 53258.03795552706, 25612.88632308082, -2557.7771732541532, 61316.914715399114, 32192.167006989363, 0.224, 0.966, 0.294, 192.0, 0.0, 0.0, 0.0, 0.0, 0.0, 0.0, 0.0, 0.0, 0.0, 1.695929611591524E9, 0.0, 2023-09-28 14:33:31.591
6.0, 14239.089398275542, 18920.751681417427, 31228.538600032163, 14650.540310208835, 31383.391485618533, 6028.511348785323, -187500.02235174447, 39460.64137943285, 16566.80006585122, -25240.439205222036, -187500.02235174447, 53234.27805117107, 25644.08935834043, -2516.493501245201, 61180.85964689966, 32185.439131908315, 0.224, 0.966, 0.294, 192.0, 0.0, 0.0, 0.0, 0.0, 0.0, 0.0, 0.0, 0.0, 0.0, 1.6959296115915425E9, 0.0, 2023-09-28 14:33:31.591
8.0, 14429.235688356841, 18937.046103125347, 31237.54635304765, 14650.719124164478, 31382.966802473882, 6018.676581224988, -187500.02235174447, 39433.908693064295, 16535.440568380425, -25280.62764175268, -187500.02235174447, 53246.61621411041, 25603.140962498306, -2544.500237047701, 61314.79129967586, 32164.18262293132, 0.224, 0.966, 0.294, 192.0, 0.0, 0.0, 0.0, 0.0, 0.0, 0.0, 0.0, 0.0, 0.0, 1.6959296115915604E9, 0.0, 2023-09-28 14:33:31.591
10.0, 14223.309066690097, 18939.1695188486, 31208.757306189218, 14664.174874326573, 31404.08920098415, 6033.361677332125, -187500.02235174447, 39451.03012931706, 16563.402600694015, -25250.6092489492, -187500.02235174447, 53226.00790572261, 25640.490727483124, -2530.3962862964017, 61194.2930453173, 32166.529556099125, 0.224, 0.966, 0.294, 192.0, 0.0, 0.0, 0.0, 0.0, 0.0, 0.0, 0.0, 0.0, 0.0, 1.6959296115915787E9, 0.0, 2023-09-28 14:33:31.591
12.0, 14430.196813368419, 18923.1656698186, 31245.637684540474, 14633.7541501229, 31369.421645333965, 5989.999293088829, -187500.02235174447, 39404.829073527944, 16547.28699294174, -25286.6179092667, -187500.02235174447, 53260.47429567269, 25617.624892905344, -2548.769420238664, 61290.3161394973, 32172.072788724043, 0.222, 0.96, 0.294, 192.0, 3.0, 120.0, 15.0, 0.0, 4.5, 24.0, 0.0, 0.0, 0.0, 1.6959296115915961E9, 0.0, 2023-09-28 14:33:31.591
14.0, 14227.555898136605, 18918.74002441645, 31179.4094657194, 14656.61998470068, 31394.12032295708, 6015.14500560105, -187500.02235174447, 39432.165256996785, 16544.18010046245, -25283.354554576228, -187500.02235174447, 53221.090521942446, 25622.005834818585, -2560.4146790998793, 61207.100594890195, 32145.36245409995, 0.222, 0.96, 0.294, 192.0, 0.0, 0.0, 0.0, 0.0, 0.0, 0.0, 0.0, 0.0, 0.0, 1.6959296115916176E9, 0.0, 2023-09-28 14:33:31.591
16.0, 14430.643848257525, 18915.834297637262, 31243.536620561677, 14630.84842334371, 31362.850232464105, 5996.816575147698, -187500.02235174447, 39416.38492541134, 16540.872042283063, -25296.586787293767, -187500.02235174447, 53257.47916191568, 25608.371270700845, -2569.1765629263596, 61270.445438676536, 32175.403198647884, 0.222, 0.96, 0.294, 192.0, 0.0, 0.0, 0.0, 0.0, 0.0, 0.0, 0.0, 0.0, 0.0, 1.6959296115916362E9, 0.0, 2023-09-28 14:33:31.591
18.0, 14232.808558083601, 18918.762376160907, 31168.188890002835, 14658.47517949047, 31395.617889835587, 6026.209119106426, -187500.02235174447, 39434.892169820334, 16539.64269633802, -25293.077563414285, -187500.02235174447, 53226.946678989734, 25613.802744603487, -2562.582798312044, 61221.6515805306, 32143.55196279907, 0.222, 0.96, 0.294, 192.0, 0.0, 0.0, 0.0, 0.0, 0.0, 0.0, 0.0, 0.0, 0.0, 1.6959296115916543E9, 0.0, 2023-09-28 14:33:31.591
20.0, 14418.551554507203, 18919.589390705754, 31260.054559714146, 14633.932964078542, 31373.042627935723, 6005.645514207544, -187500.02235174447, 39424.69977434871, 16553.523129644767, -25287.981365678475, -187500.02235174447, 53259.669632872305, 25622.6987388967, -2545.9978039262064, 61247.49019712093, 32185.774408075144, 0.222, 0.96, 0.294, 192.0, 0.0, 0.0, 0.0, 0.0, 0.0, 0.0, 0.0, 0.0, 0.0, 1.6959296115916772E9, 0.0, 2023-09-28 14:33:31.591
22.0, 14246.934860579357, 18912.682701669062, 31162.39978818891, 14644.840615372732, 31385.246680408323, 6019.034209136273, -187500.02235174447, 39418.03895450103, 16540.715580071876, -25283.19809236504, -187500.02235174447, 53225.9632022337, 25619.88241909533, -2553.329176107547, 61228.35710386719, 32143.909590710355, 0.222, 0.964, 0.3, 192.0, 3.0, 120.0, 15.0, 16.0, 4.5, 48.0, 0.0, 0.0, 0.0, 1.6959296115916972E9, 0.0, 2023-09-28 14:33:31.591
24.0, 14418.417444040471, 18905.731309143463, 31257.841737013074, 14622.488870917425, 31359.855098707092, 5991.318046011692, -187500.02235174447, 39404.67261131675, 16529.897335755508, -25302.174723407596, -187500.02235174447, 53227.19254817874, 25604.77263984354, -2567.611940814488, 61234.25796440339, 32150.74922451368, 0.222, 0.964, 0.3, 192.0, 0.0, 0.0, 0.0, 0.0, 0.0, 0.0, 0.0, 0.0, 0.0, 1.6959296115917313E9, 0.0, 2023-09-28 14:33:31.591
26.0, 14266.403229999929, 18911.1627830461, 31153.59320087352, 14643.097179305218, 31395.81905553568, 6017.536642257767, -187500.02235174447, 39424.476256904156, 16537.251059681304, -25292.719935503, -187500.02235174447, 53220.84465275343, 25613.758041114575, -2563.4098128568903, 61252.78756055684, 32143.97664594372, 0.222, 0.964, 0.3, 192.0, 0.0, 0.0, 0.0, 0.0, 0.0, 0.0, 0.0, 0.0, 0.0, 1.6959296115917485E9, 0.0, 2023-09-28 14:33:31.591
28.0, 14397.585618208126, 18911.78863189085, 31261.79799578166, 14631.8542518442, 31371.679171523952, 5995.274304780281, -187500.02235174447, 39415.20028295521, 16535.641734080524, -25285.99206042195, -187500.02235174447, 53227.17019643429, 25615.769698115553, -2563.8344960015415, 61215.21427812747, 32162.55094558608, 0.222, 0.964, 0.3, 192.0, 0.0, 0.0, 0.0, 0.0, 0.0, 0.0, 0.0, 0.0, 0.0, 1.6959296115917816E9, 0.0, 2023-09-28 14:33:31.591
30.0, 14296.891009436968, 18915.633131937164, 31158.667046864874, 14642.717199649478, 31392.801570034215, 6019.838871936664, -187500.02235174447, 39412.249852687106, 16535.88760326953, -25289.233063367974, -187500.02235174447, 53232.601670336924, 25612.551046913988, -2569.7353565377425, 61268.45613342001, 32145.004826188666, 0.222, 0.964, 0.3, 192.0, 0.0, 0.0, 0.0, 0.0, 0.0, 0.0, 0.0, 0.0, 0.0, 1.6959296115917995E9, 0.0, 2023-09-28 14:33:31.591
32.0, 14387.773202392245, 18901.88680909715, 31257.841737013074, 14618.286742959828, 31367.67820926645, 5989.842830877642, -187500.02235174447, 39409.05355323, 16537.40752189249, -25297.123229160694, -187500.02235174447, 53221.73872253165, 25610.271168979547, -2562.3816326119463, 61203.5466675218, 32162.282724652618, 0.224, 0.9580000000000001, 0.296, 192.0, 3.5, 0.0, 14.5, 120.0, 4.5, 32.0, 0.0, 0.0, 0.0, 1.695929611591817E9, 0.0, 2023-09-28 14:33:31.591
34.0, 14310.97260844381, 18934.565059490807, 31163.629134133953, 14656.597632956224, 31412.426401665976, 6043.598776292655, -187500.02235174447, 39437.77554485507, 16529.092672955117, -25299.29134837286, -187500.02235174447, 53229.27126041309, 25608.572436400944, -2574.228057173259, 61281.01781380389, 32147.8882012234, 0.224, 0.9580000000000001, 0.296, 192.0, 0.0, 0.0, 0.0, 0.0, 0.0, 0.0, 0.0, 0.0, 0.0, 1.6959296115918372E9, 0.0, 2023-09-28 14:33:31.591
36.0, 14346.243661194285, 18907.385338233154, 31254.66778930042, 14632.27893498885, 31376.1048169261, 6001.443386249946, -187500.02235174447, 39423.26926270357, 16546.45997839689, -25283.24279585395, -187500.02235174447, 53229.67359181328, 25627.325549998946, -2566.382594869446, 61179.764411421354, 32180.03000975013, 0.224, 0.9580000000000001, 0.296, 192.0, 0.0, 0.0, 0.0, 0.0, 0.0, 0.0, 0.0, 0.0, 0.0, 1.6959296115918555E9, 0.0, 2023-09-28 14:33:31.591
38.0, 14342.779140803712, 18919.87996338367, 31161.3045527106, 14640.146749037118, 31396.847235780628, 6027.371409818103, -187500.02235174447, 39414.26150968808, 16521.26956239576, -25307.29327288786, -187500.02235174447, 53237.720219817194, 25601.97867178663, -2585.5603916121, 61293.288921509855, 32148.245829134685, 0.224, 0.9580000000000001, 0.296, 192.0, 0.0, 0.0, 0.0, 0.0, 0.0, 0.0, 0.0, 0.0, 0.0, 1.695929611591874E9, 0.0, 2023-09-28 14:33:31.591
40.0, 14329.368094130528, 18904.904294598615, 31247.381120607988, 14626.735702363934, 31374.942526214425, 6003.924429884485, -187500.02235174447, 39413.74741956561, 16540.737931816333, -25291.95997619152, -187500.02235174447, 53228.95833599071, 25622.855201107886, -2559.4759058327563, 61175.87520788613, 32161.388654874405, 0.224, 0.9580000000000001, 0.296, 192.0, 0.0, 0.0, 0.0, 0.0, 0.0, 0.0, 0.0, 0.0, 0.0, 1.695929611591895E9, 0.0, 2023-09-28 14:33:31.591
42.0, 14360.057039267665, 18931.480518755976, 31176.995477318225, 14655.837673644743, 31404.3127184287, 6028.600755763145, -187500.02235174447, 39413.300384676506, 16527.9527339879, -25309.796668266856, -187500.02235174447, 53247.93496703327, 25604.817343332452, -2584.912191022896, 61307.66109319462, 32142.255561620663, 0.23, 0.962, 0.298, 192.0, 3.5, 24.0, 15.0, 8.0, 4.5, 40.0, 0.0, 0.0, 0.0, 1.695929611591912E9, 0.0, 2023-09-28 14:33:31.591
44.0, 14285.469268020304, 18914.962579603503, 31249.817460753617, 14643.454807216503, 31388.152407187514, 6009.579421231678, -187500.02235174447, 39419.17889346825, 16560.094542514627, -25266.411932279105, -187500.02235174447, 53240.357725662914, 25641.205983305692, -2555.5419988086223, 61164.11819030264, 32172.22925093523, 0.23, 0.962, 0.298, 192.0, 0.0, 0.0, 0.0, 0.0, 0.0, 0.0, 0.0, 0.0, 0.0, 1.695929611591931E9, 0.0, 2023-09-28 14:33:31.591
46.0, 14382.542894189704, 18925.959637875516, 31197.715544428298, 14640.973763581964, 31396.511959613796, 6021.269383581804, -187500.02235174447, 39400.917518248265, 16534.9041265135, -25315.608121825233, -187500.02235174447, 53258.30617646053, 25606.62783463333, -2577.402004885913, 61311.259724051924, 32158.08059669502, 0.23, 0.962, 0.298, 192.0, 0.0, 0.0, 0.0, 0.0, 0.0, 0.0, 0.0, 0.0, 0.0, 1.6959296115919504E9, 0.0, 2023-09-28 14:33:31.591
48.0, 14265.598567199537, 18913.576771447275, 31239.110975159525, 14643.723028149967, 31387.39244787603, 6015.033246878773, -187500.02235174447, 39422.91163479229, 16559.200472736415, -25279.06301964081, -187500.02235174447, 53244.58220536497, 25637.428538492746, -2547.070687660061, 61164.74403914739, 32164.517899098148, 0.23, 0.962, 0.298, 192.0, 0.0, 0.0, 0.0, 0.0, 0.0, 0.0, 0.0, 0.0, 0.0, 1.6959296115919676E9, 0.0, 2023-09-28 14:33:31.591
50.0, 14408.493269502314, 18914.627303436675, 31212.244178324247, 14631.921307077564, 31388.197110676425, 6019.101264369639, -187500.02235174447, 39399.55406183649, 16525.94107698692, -25301.168894907107, -187500.02235174447, 53268.99031031017, 25604.16914274325, -2557.3971935984127, 61308.73397692847, 32150.905686724866, 0.23, 0.962, 0.298, 192.0, 0.0, 0.0, 0.0, 0.0, 0.0, 0.0, 0.0, 0.0, 0.0, 1.6959296115920331E9, 0.0, 2023-09-28 14:33:31.592
52.0, 14241.458683187806, 18907.45239346652, 31218.592073749554, 14653.602499199213, 31401.183474204958, 6025.04682839475, -187500.02235174447, 39424.92329179327, 16551.220899965872, -25272.111627115206, -187500.02235174447, 53238.413123895305, 25634.276942524546, -2547.070687660061, 61167.873283371126, 32161.098082196488, 0.228, 0.96, 0.302, 192.0, 3.5, 16.0, 15.0, 0.0, 4.5, 56.0, 0.0, 0.0, 0.0, 1.695929611592056E9, 0.0, 2023-09-28 14:33:31.592
54.0, 14420.56321150818, 18908.011187077904, 31220.357861561522, 14630.08846403223, 31388.979421732358, 6013.401569533536, -187500.02235174447, 39397.31888739096, 16529.249135166305, -25301.951205963043, -187500.02235174447, 53267.40333645384, 25607.946587556195, -2566.2261326582593, 61303.32485477029, 32167.55773634407, 0.228, 0.96, 0.302, 192.0, 0.0, 0.0, 0.0, 0.0, 0.0, 0.0, 0.0, 0.0, 0.0, 1.695929611592073E9, 0.0, 2023-09-28 14:33:31.592
56.0, 14231.15452899391, 18904.233742264958, 31200.487160740755, 14651.210862542495, 31399.998831748824, 6014.988543389863, -187500.02235174447, 39401.409256626284, 16544.023638251263, -25277.498397528936, -187500.02235174447, 53233.60749883742, 25629.583076188934, -2536.140684621416, 61178.89269338759, 32140.199201130774, 0.228, 0.96, 0.302, 192.0, 0.0, 0.0, 0.0, 0.0, 0.0, 0.0, 0.0, 0.0, 0.0, 1.6959296115920894E9, 0.0, 2023-09-28 14:33:31.592
58.0, 14431.76143548029, 18912.615646435697, 31234.350053590544, 14642.337219993738, 31383.74911352982, 6013.2898108112595, -187500.02235174447, 39401.85629151539, 16529.51735609977, -25301.23595014047, -187500.02235174447, 53265.23521724167, 25603.92327355424, -2578.4078333864013, 61289.28795925236, 32177.213689948763, 0.228, 0.96, 0.302, 192.0, 0.0, 0.0, 0.0, 0.0, 0.0, 0.0, 0.0, 0.0, 0.0, 1.6959296115921066E9, 0.0, 2023-09-28 14:33:31.592
60.0, 14229.925183048867, 18918.158879060615, 31195.07803858257, 14664.510150493403, 31394.679116568463, 6028.131369129583, -187500.02235174447, 39411.44518988671, 16550.32683018766, -25272.133978859663, -187500.02235174447, 53243.12934197538, 25629.73953840012, -2530.4409897853125, 61185.2405888129, 32161.45571010777, 0.228, 0.96, 0.302, 192.0, 0.0, 0.0, 0.0, 0.0, 0.0, 0.0, 0.0, 0.0, 0.0, 1.6959296115921233E9, 0.0, 2023-09-28 14:33:31.592
62.0, 14442.110293163098, 18909.79932663433, 31238.641588525963, 14621.617152883668, 31365.82301447666, 5993.016778590296, -187500.02235174447, 39373.98366617962, 16525.47169035336, -25297.05617392733, -187500.02235174447, 53265.14581026385, 25601.48693340861, -2560.3699756109686, 61273.48527592245, 32169.345875900493, 0.222, 0.9580000000000001, 0.308, 192.0, 3.0, 120.0, 14.5, 120.0, 4.5, 80.0, 0.0, 0.0, 0.0, 1.6959296115921395E9, 0.0, 2023-09-28 14:33:31.592
64.0, 14242.799787855123, 18909.866381867694, 31171.675762137864, 14642.247813015916, 31392.712163056396, 6011.076988110183, -187500.02235174447, 39377.358779592374, 16532.98187649034, -25282.14756037564, -187500.02235174447, 53228.80187377952, 25616.395546960302, -2550.691670261821, 61205.22304835595, 32138.567523785536, 0.222, 0.9580000000000001, 0.308, 192.0, 0.0, 0.0, 0.0, 0.0, 0.0, 0.0, 0.0, 0.0, 0.0, 1.6959296115921564E9, 0.0, 2023-09-28 14:33:31.592
66.0, 14434.555403537202, 18913.040329580348, 31254.779548022696, 14627.406254697593, 31377.222404148866, 5999.767005415798, -187500.02235174447, 39395.01665771206, 16533.585373590635, -25301.727688518487, -187500.02235174447, 53260.16137125032, 25610.092355023906, -2554.9608534527842, 61257.16850247008, 32168.138881699906, 0.222, 0.9580000000000001, 0.308, 192.0, 0.0, 0.0, 0.0, 0.0, 0.0, 0.0, 0.0, 0.0, 0.0, 1.695929611592176E9, 0.0, 2023-09-28 14:33:31.592
68.0, 14239.9611163093, 18927.74777743194, 31171.385189459943, 14649.243909030427, 31405.564416118195, 6029.070142396706, -187500.02235174447, 39403.443265371716, 16541.050856238708, -25280.113551630206, -187500.02235174447, 53242.481141386175, 25621.6482069073, -2538.0852863890277, 61220.511641563375, 32143.820183732532, 0.222, 0.9580000000000001, 0.308, 192.0, 0.0, 0.0, 0.0, 0.0, 0.0, 0.0, 0.0, 0.0, 0.0, 1.6959296115921931E9, 0.0, 2023-09-28 14:33:31.592
70.0, 14441.19387164043, 18900.724518385472, 31253.505498588744, 14599.354815406183, 31353.417796303966, 5973.593112658634, -187500.02235174447, 39356.07991887092, 16529.539707844222, -25301.39241235166, -187500.02235174447, 53248.203187966734, 25602.224540975636, -2566.1590774248934, 61241.49992960691, 32158.21470716175, 0.222, 0.9580000000000001, 0.308, 192.0, 0.0, 0.0, 0.0, 0.0, 0.0, 0.0, 0.0, 0.0, 0.0, 1.6959296115922227E9, 0.0, 2023-09-28 14:33:31.592
72.0, 14277.243826060752, 18908.92760860057, 31151.603895616998, 14625.729873863445, 31394.768523546285, 6006.360770030114, -187500.02235174447, 39371.36851207835, 16527.5504025877, -25304.09697343075, -187500.02235174447, 53222.65514405431, 25603.029203776026, -2565.980263469251, 61245.50089186441, 32123.100116622463, 0.224, 0.9580000000000001, 0.304, 192.0, 3.5, 0.0, 14.5, 120.0, 4.5, 64.0, 0.0, 0.0, 0.0, 1.69592961159224E9, 0.0, 2023-09-28 14:33:31.592
74.0, 14438.623421028069, 18887.1570095011, 31254.42192011141, 14598.974835750441, 31362.73847374183, 5975.113031281595, -187500.02235174447, 39366.674645742736, 16523.303571141194, -25310.467220600513, -187500.02235174447, 53233.74160930415, 25602.40335493128, -2557.7101180207874, 61223.08209217574, 32146.144765155885, 0.224, 0.9580000000000001, 0.304, 192.0, 0.0, 0.0, 0.0, 0.0, 0.0, 0.0, 0.0, 0.0, 0.0, 1.6959296115922573E9, 0.0, 2023-09-28 14:33:31.592
76.0, 14299.103832138042, 18910.626341179173, 31145.12188972496, 14645.175891539562, 31403.21748295039, 6035.350982588647, -187500.02235174447, 39383.05847442847, 16513.55821055868, -25320.570209094312, -187500.02235174447, 53224.82326326648, 25597.4412676622, -2582.1182229659826, 61265.72922059646, 32135.997073173177, 0.224, 0.9580000000000001, 0.304, 192.0, 0.0, 0.0, 0.0, 0.0, 0.0, 0.0, 0.0, 0.0, 0.0, 1.6959296115922732E9, 0.0, 2023-09-28 14:33:31.592
78.0, 14393.94228386191, 18904.278445753866, 31260.211021925334, 14636.034028057342, 31381.73745652884, 6008.640647964555, -187500.02235174447, 39389.60753555388, 16542.995458006317, -25298.15140940564, -187500.02235174447, 53249.41018216732, 25622.40816621878, -2539.7616672231757, 61195.52239126234, 32181.929908028833, 0.224, 0.9580000000000001, 0.304, 192.0, 0.0, 0.0, 0.0, 0.0, 0.0, 0.0, 0.0, 0.0, 0.0, 1.6959296115922916E9, 0.0, 2023-09-28 14:33:31.592
80.0, 14295.639311747469, 18926.3172657868, 31166.087826024035, 14662.029106858863, 31419.958939547414, 6044.29168037077, -187500.02235174447, 39402.01275372657, 16539.061550982184, -25297.190284394062, -187500.02235174447, 53257.05447877103, 25620.105936539883, -2546.914225448874, 61264.38811592914, 32167.334218899516, 0.224, 0.9580000000000001, 0.304, 192.0, 0.0, 0.0, 0.0, 0.0, 0.0, 0.0, 0.0, 0.0, 0.0, 1.69592961159231E9, 0.0, 2023-09-28 14:33:31.592
82.0, 14355.7878560767, 18912.03450107986, 31271.252783686257, 14634.447054201015, 31389.225290921368, 6010.674656709988, -187500.02235174447, 39386.38888435232, 16552.6067081221, -25278.23600509596, -187500.02235174447, 53256.808609582025, 25629.82894537794, -2535.783056710131, 61183.474801000935, 32184.50035864119, 0.218, 0.9520000000000001, 0.31, 192.0, 3.0, 104.0, 14.5, 96.0, 4.5, 88.0, 0.0, 0.0, 0.0, 1.695929611592328E9, 0.0, 2023-09-28 14:33:31.592
84.0, 14329.390445874984, 18913.30855051381, 31174.425026705867, 14639.99028682593, 31405.095029484637, 6029.6065842636335, -187500.02235174447, 39387.014733197066, 16535.17234744696, -25297.011470438418, -187500.02235174447, 53256.652147370834, 25607.29838696699, -2548.7023650052984, 61292.4172034761, 32163.422663619836, 0.218, 0.9520000000000001, 0.31, 192.0, 0.0, 0.0, 0.0, 0.0, 0.0, 0.0, 0.0, 0.0, 0.0, 1.6959296115923448E9, 0.0, 2023-09-28 14:33:31.592
86.0, 14338.509957612749, 18903.02674806437, 31256.72414979031, 14618.353798193193, 31379.83755825014, 6004.706740940421, -187500.02235174447, 39384.71250351817, 16548.002248764307, -25290.52946454638, -187500.02235174447, 53240.67065008529, 25622.184648774226, -2539.046411400606, 61186.961673135964, 32186.13203598643, 0.218, 0.9520000000000001, 0.31, 192.0, 0.0, 0.0, 0.0, 0.0, 0.0, 0.0, 0.0, 0.0, 0.0, 1.6959296115923626E9, 0.0, 2023-09-28 14:33:31.592
88.0, 14358.60417587807, 18915.007283092415, 31167.764206858184, 14631.8542518442, 31395.2602619243, 6023.884537683075, -187500.02235174447, 39371.68143650072, 16527.37158863206, -25295.335089604272, -187500.02235174447, 53258.01560378261, 25600.25758746357, -2555.631405786444, 61307.79520366135, 32165.7919485321, 0.218, 0.9520000000000001, 0.31, 192.0, 0.0, 0.0, 0.0, 0.0, 0.0, 0.0, 0.0, 0.0, 0.0, 1.6959296115923793E9, 0.0, 2023-09-28 14:33:31.592
90.0, 14310.21264913233, 18906.044233565837, 31228.31508258761, 14623.919382562564, 31383.324430385168, 6008.1265578420835, -187500.02235174447, 39390.993343710106, 16547.28699294174, -25283.801589465333, -187500.02235174447, 53241.564719863505, 25618.92129408375, -2541.7286207352427, 61180.390260266104, 32169.859966022967, 0.218, 0.9520000000000001, 0.31, 192.0, 0.0, 0.0, 0.0, 0.0, 0.0, 0.0, 0.0, 0.0, 0.0, 1.6959296115923977E9, 0.0, 2023-09-28 14:33:31.592
92.0, 14367.857798082567, 18927.814832665306, 31164.925535312363, 14634.692923390023, 31406.190264962945, 6054.48407584239, -187500.02235174447, 39382.253811628085, 16537.027542236752, -25301.99590945195, -187500.02235174447, 53266.4198596978, 25605.242026477103, -2548.814123727575, 61306.81172690532, 32164.115567697954, 0.23, 0.9440000000000001, 0.312, 192.0, 3.5, 24.0, 14.5, 64.0, 4.5, 96.0, 0.0, 0.0, 0.0, 1.6959296115924172E9, 0.0, 2023-09-28 14:33:31.592
94.0, 14278.562578983616, 18912.2133150355, 31218.21209409381, 14647.209900284995, 31389.851139766117, 6028.824273207698, -187500.02235174447, 39387.84174774191, 16566.733010617856, -25268.110664857708, -187500.02235174447, 53251.19832172374, 25638.7025879267, -2516.3817425229245, 61165.86162637015, 32185.260317952674, 0.23, 0.9440000000000001, 0.312, 192.0, 0.0, 0.0, 0.0, 0.0, 0.0, 0.0, 0.0, 0.0, 0.0, 1.6959296115924344E9, 0.0, 2023-09-28 14:33:31.592
96.0, 14409.387339280527, 18910.536934201355, 31174.156805772403, 14627.741530864423, 31381.960973973393, 6029.338363330169, -187500.02235174447, 39350.89431415729, 16530.858460767085, -25306.19803740955, -187500.02235174447, 53267.64920564285, 25597.485971151113, -2552.390402840424, 61317.02647412139, 32178.93477427182, 0.23, 0.9440000000000001, 0.312, 192.0, 0.0, 0.0, 0.0, 0.0, 0.0, 0.0, 0.0, 0.0, 0.0, 1.6959296115924516E9, 0.0, 2023-09-28 14:33:31.592
98.0, 14277.154419082932, 18903.339672486745, 31197.424971750377, 14642.091350804729, 31383.2573751518, 6015.994371890351, -187500.02235174447, 39383.25964012857, 16553.679591855955, -25283.421609809593, -187500.02235174447, 53238.904862273324, 25625.380948231334, -2522.819044926053, 61179.272673043335, 32172.36336140196, 0.23, 0.9440000000000001, 0.312, 192.0, 0.0, 0.0, 0.0, 0.0, 0.0, 0.0, 0.0, 0.0, 0.0, 1.6959296115924692E9, 0.0, 2023-09-28 14:33:31.592
100.0, 14439.875118717566, 18908.279408011367, 31187.679611167863, 14635.519937934869, 31374.048456436212, 6018.967153902907, -187500.02235174447, 39351.631921724314, 16526.097539198105, -25313.10472644624, -187500.02235174447, 53272.16425802282, 25597.508322895566, -2562.202818656304, 61320.28982881187, 32188.590727876515, 0.23, 0.9440000000000001, 0.312, 192.0, 0.0, 0.0, 0.0, 0.0, 0.0, 0.0, 0.0, 0.0, 0.0, 1.6959296115924857E9, 0.0, 2023-09-28 14:33:31.592
102.0, 14260.032982830166, 18908.45822196701, 31188.528977457165, 14657.581109712257, 31396.802532291716, 6033.33932558767, -187500.02235174447, 39376.241192369605, 16548.18106271995, -25280.784103963866, -187500.02235174447, 53247.30911818852, 25625.82798312044, -2529.9939548962066, 61193.06369937226, 32175.805530048077, 0.244, 0.9560000000000001, 0.3, 192.0, 3.5, 80.0, 14.5, 112.0, 4.5, 48.0, 0.0, 0.0, 0.0, 1.6959296115925024E9, 0.0, 2023-09-28 14:33:31.592
104.0, 14450.134569422553, 18902.60206491972, 31209.47256201179, 14634.268240245372, 31369.30988661169, 6006.897211897041, -187500.02235174447, 39333.43760173769, 16538.36864690407, -25294.19515063705, -187500.02235174447, 53290.09035707598, 25611.053480035484, -2558.0230424431616, 61312.53377348588, 32196.592652391515, 0.244, 0.9560000000000001, 0.3, 192.0, 0.0, 0.0, 0.0, 0.0, 0.0, 0.0, 0.0, 0.0, 0.0, 1.6959296120720596E9, 0.0, 2023-09-28 14:33:32.072
106.0, 14245.593755912038, 18908.257056266913, 31174.156805772403, 14657.446999245525, 31393.807398534704, 6024.935069672474, -187500.02235174447, 39365.668817242244, 16544.98476326284, -25280.649993497133, -187500.02235174447, 53249.454885656225, 25621.6482069073, -2534.486655531723, 61209.35812108018, 32160.628695562926, 0.244, 0.9560000000000001, 0.3, 192.0, 0.0, 0.0, 0.0, 0.0, 0.0, 0.0, 0.0, 0.0, 0.0, 1.6959296120721624E9, 0.0, 2023-09-28 14:33:32.072
108.0, 14435.628287271058, 18914.426137736576, 31223.285940085167, 14631.116644277174, 31378.295287882724, 6011.14404334355, -187500.02235174447, 39351.296645557486, 16549.70098134291, -25286.506150544425, -187500.02235174447, 53297.7793571686, 25618.40720396128, -2545.2154928702707, 61297.40164248963, 32189.551852888093, 0.244, 0.9560000000000001, 0.3, 192.0, 0.0, 0.0, 0.0, 0.0, 0.0, 0.0, 0.0, 0.0, 0.0, 1.6959296120721784E9, 0.0, 2023-09-28 14:33:32.072
110.0, 14232.316819705586, 18904.725480642974, 31161.17044224387, 14638.827996114254, 31394.12032295708, 6026.142063873061, -187500.02235174447, 39363.50069803008, 16555.534786645745, -25272.156330604117, -187500.02235174447, 53262.530656162584, 25627.280846510035, -2519.421579768846, 61211.503888547886, 32148.201125645774, 0.244, 0.9560000000000001, 0.3, 192.0, 0.0, 0.0, 0.0, 0.0, 0.0, 0.0, 0.0, 0.0, 0.0, 1.6959296120721917E9, 0.0, 2023-09-28 14:33:32.072
112.0, 14435.807101226701, 18900.612759663196, 31232.874838456493, 14622.690036617523, 31368.907555211492, 6005.220831062893, -187500.02235174447, 39346.40161352177, 16544.18010046245, -25285.679135999577, -187500.02235174447, 53290.51504022063, 25613.176895758737, -2555.8102197420862, 61277.2627207354, 32175.64906783689, 0.23800000000000002, 0.964, 0.296, 192.0, 3.5, 56.0, 15.0, 16.0, 4.5, 32.0, 0.0, 0.0, 0.0, 1.6959296120722048E9, 0.0, 2023-09-28 14:33:32.072
114.0, 14242.308049477107, 18901.819753863783, 31161.528070155153, 14641.33139149325, 31392.510997356298, 6029.852453452641, -187500.02235174447, 39370.161517877765, 16548.04695225322, -25268.66945846909, -187500.02235174447, 53269.169124265805, 25622.966959830163, -2543.136780635927, 61235.755531281895, 32167.17775668833, 0.23800000000000002, 0.964, 0.296, 192.0, 0.0, 0.0, 0.0, 0.0, 0.0, 0.0, 0.0, 0.0, 0.0, 1.6959296120722184E9, 0.0, 2023-09-28 14:33:32.072
116.0, 14430.129758135052, 18895.11423052719, 31247.04584444116, 14616.386844681127, 31370.82980523465, 5996.146022814039, -187500.02235174447, 39351.207238579664, 16539.59799284911, -25288.540159289856, -187500.02235174447, 53285.35178725145, 25610.695852124198, -2564.102716935005, 61273.79820034483, 32188.99305927671, 0.23800000000000002, 0.964, 0.296, 192.0, 0.0, 0.0, 0.0, 0.0, 0.0, 0.0, 0.0, 0.0, 0.0, 1.6959296120722337E9, 0.0, 2023-09-28 14:33:32.072
118.0, 14244.364409966996, 18909.084070811758, 31168.479462680756, 14641.823129871265, 31399.440038137443, 6027.997258662851, -187500.02235174447, 39359.85736368386, 16555.84771106812, -25272.29044107085, -187500.02235174447, 53270.55493242204, 25632.712320412676, -2544.9919754257176, 61252.38522915664, 32155.912477482856, 0.23800000000000002, 0.964, 0.296, 192.0, 0.0, 0.0, 0.0, 0.0, 0.0, 0.0, 0.0, 0.0, 0.0, 1.6959296120722463E9, 0.0, 2023-09-28 14:33:32.072
120.0, 14431.582621524647, 18896.432983450053, 31265.463681872334, 14613.436414413025, 31364.548965042708, 5983.830211619164, -187500.02235174447, 39340.03136635201, 16548.22576620886, -25280.761752219412, -187500.02235174447, 53284.0777378175, 25620.061233050972, -2539.5605015230776, 61266.243310718935, 32182.42164640685, 0.23800000000000002, 0.964, 0.296, 192.0, 0.0, 0.0, 0.0, 0.0, 0.0, 0.0, 0.0, 0.0, 0.0, 1.695929612072259E9, 0.0, 2023-09-28 14:33:32.072
122.0, 14271.387669013462, 18943.170481106103, 31173.08392203855, 14661.358554525204, 31414.79568657824, 6051.712459529932, -187500.02235174447, 39363.590105007905, 16555.825359323666, -25267.95420264652, -187500.02235174447, 53279.49563020416, 25626.20796277618, -2532.3185363195585, 61291.411374975614, 32149.497526824183, 0.228, 0.972, 0.294, 192.0, 3.5, 16.0, 15.0, 48.0, 4.5, 24.0, 0.0, 0.0, 0.0, 1.695929612072272E9, 0.0, 2023-09-28 14:33:32.072
124.0, 14403.262961299773, 18937.291972314357, 31290.34117345109, 14652.440208487536, 31374.942526214425, 6018.43071203598, -187500.02235174447, 39350.17905833472, 16591.923426618985, -25224.94944631451, -187500.02235174447, 53319.8852324349, 25650.66077121029, -2479.434308938302, 61244.27154591937, 32206.874454840956, 0.228, 0.972, 0.294, 192.0, 0.0, 0.0, 0.0, 0.0, 0.0, 0.0, 0.0, 0.0, 0.0, 1.6959296120722847E9, 0.0, 2023-09-28 14:33:32.072
126.0, 14299.729680982791, 18945.830338696283, 31172.011038304692, 14657.581109712257, 31406.88316904106, 6059.4908666003785, -187500.02235174447, 39363.299532329984, 16556.182987234948, -25247.23413553645, -187500.02235174447, 53294.1807263113, 25621.40233771829, -2514.4371407553126, 61313.20432581953, 32175.179681203328, 0.228, 0.972, 0.294, 192.0, 0.0, 0.0, 0.0, 0.0, 0.0, 0.0, 0.0, 0.0, 0.0, 1.6959296120722978E9, 0.0, 2023-09-28 14:33:32.072
128.0, 14370.875283584033, 18918.561210460808, 31263.027341726705, 14622.041836028318, 31384.620831563574, 6018.609525991622, -187500.02235174447, 39355.49877351508, 16576.768943878287, -25237.53347844285, -187500.02235174447, 53292.14671756586, 25648.246782809114, -2489.917277087841, 61224.93728696553, 32197.240852980718, 0.228, 0.972, 0.294, 192.0, 0.0, 0.0, 0.0, 0.0, 0.0, 0.0, 0.0, 0.0, 0.0, 1.6959296120723102E9, 0.0, 2023-09-28 14:33:32.072
130.0, 14306.904590952945, 18925.80317566433, 31148.273485693157, 14626.646295386112, 31409.11834348659, 6040.6259942801, -187500.02235174447, 39376.3976545808, 16546.817606308177, -25270.167025347597, -187500.02235174447, 53271.0243190556, 25620.97765457364, -2545.5731207815556, 61312.84669790825, 32170.686980567814, 0.228, 0.972, 0.294, 192.0, 0.0, 0.0, 0.0, 0.0, 0.0, 0.0, 0.0, 0.0, 0.0, 1.6959296120723245E9, 0.0, 2023-09-28 14:33:32.072
132.0, 14323.869564994522, 18906.245399265936, 31238.66394027042, 14610.977722522943, 31399.618852093085, 6021.314087070714, -187500.02235174447, 39371.50262254508, 16561.79327509323, -25263.95324038902, -187500.02235174447, 53256.24981597064, 25637.562648959476, -2516.9628878787626, 61206.72061523445, 32183.8968615409, 0.228, 0.96, 0.296, 192.0, 3.5, 16.0, 15.0, 0.0, 4.5, 32.0, 0.0, 0.0, 0.0, 1.6959296120723393E9, 0.0, 2023-09-28 14:33:32.072
134.0, 14309.631503776493, 18913.979102847472, 31149.502831638198, 14611.625923112146, 31412.426401665976, 6039.91073845753, -187500.02235174447, 39367.52401203204, 16553.523129644767, -25286.752019733434, -187500.02235174447, 53270.510228933126, 25628.174916288248, -2542.7791527246422, 61313.293732797356, 32171.51399511266, 0.228, 0.96, 0.296, 192.0, 0.0, 0.0, 0.0, 0.0, 0.0, 0.0, 0.0, 0.0, 0.0, 1.6959296120723517E9, 0.0, 2023-09-28 14:33:32.072
136.0, 14296.712195481325, 18899.3610619737, 31219.2179225943, 14604.853344542187, 31384.93375598595, 6003.365636273103, -187500.02235174447, 39340.74662217458, 16555.51243490129, -25281.789932464355, -187500.02235174447, 53240.42478089628, 25629.940704100216, -2539.1581701228824, 61202.45143204349, 32168.31769565555, 0.228, 0.96, 0.296, 192.0, 0.0, 0.0, 0.0, 0.0, 0.0, 0.0, 0.0, 0.0, 0.0, 1.6959296120723643E9, 0.0, 2023-09-28 14:33:32.072
138.0, 14331.245640664774, 18925.154975075126, 31149.011093260182, 14624.612286640679, 31411.93466328796, 6030.344191830658, -187500.02235174447, 39354.11296535885, 16545.029466751752, -25296.00564193793, -187500.02235174447, 53265.190513752765, 25614.562703914966, -2554.5138185636783, 61325.76600620342, 32156.337160627507, 0.228, 0.96, 0.296, 192.0, 0.0, 0.0, 0.0, 0.0, 0.0, 0.0, 0.0, 0.0, 0.0, 1.6959296120723767E9, 0.0, 2023-09-28 14:33:32.072
