%OpenBCI Raw EXG Data
%Number of channels = 16
%Sample Rate = 125 Hz
%Board = OpenBCI_GUI$BoardCytonSerialDaisy
Sample Index, EXG Channel 0, EXG Channel 1, EXG Channel 2, EXG Channel 3, EXG Channel 4, EXG Channel 5, EXG Channel 6, EXG Channel 7, EXG Channel 8, EXG Channel 9, EXG Channel 10, EXG Channel 11, EXG Channel 12, EXG Channel 13, EXG Channel 14, EXG Channel 15, Accel Channel 0, Accel Channel 1, Accel Channel 2, Other, Other, Other, Other, Other, Other, Other, Analog Channel 0, Analog Channel 1, Analog Channel 2, Timestamp, Other, Timestamp (Formatted)
36.0, 14567.883559213109, 19027.838889102804, 30129.81624958709, 14015.124918833366, 31941.045158033987, 6465.130324975291, -187500.02235174447, 33439.79667899569, 16757.907480944097, -25339.166860481128, -187500.02235174447, 53060.33677581987, 26068.12430240206, -2775.6172747155756, 63802.18282964025, 29274.571451493677, 0.0, 0.0, 0.0, 192.0, 0.0, 0.0, 0.0, 0.0, 0.0, 0.0, 0.0, 0.0, 0.0, 1.6959297408233185E9, 0.0, 2023-09-28 14:35:40.823
38.0, 14734.784035060888, 19040.512328208963, 30184.712133969326, 14009.648741441815, 31923.633149103305, 6463.722165074607, -187500.02235174447, 33437.24858012779, 16753.280669841846, -25346.02884602891, -187500.02235174447, 53090.66809304573, 26054.176813861945, -2791.732882467852, 63884.45960098024, 29306.243873386848, 0.099, 0.487, 0.128, 192.0, 3.0, 24.0, 15.0, 56.0, 4.0, 0.0, 0.0, 0.0, 0.0, 1.6959297408233376E9, 0.0, 2023-09-28 14:35:40.823
40.0, 14597.700786316489, 19029.895249592693, 30125.502362907217, 14014.499069988618, 31931.94799804068, 6462.693984829662, -187500.02235174447, 33440.91426621846, 16752.654820997097, -25341.87142156022, -187500.02235174447, 53067.08700264538, 26057.909555185983, -2781.4063765295004, 63845.88049005038, 29278.84063468464, 0.099, 0.487, 0.128, 192.0, 0.0, 0.0, 0.0, 0.0, 0.0, 0.0, 0.0, 0.0, 0.0, 1.6959297408233504E9, 0.0, 2023-09-28 14:35:40.823
42.0, 14739.29908744086, 19044.043903832902, 30201.677108010903, 14019.01412236859, 31925.89067529329, 6457.575435349398, -187500.02235174447, 33433.605245781575, 16756.678134999052, -25341.06675875983, -187500.02235174447, 53092.50093609106, 26055.54027027372, -2782.859239919095, 63886.80653414805, 29301.57235879569, 0.099, 0.487, 0.128, 192.0, 0.0, 0.0, 0.0, 0.0, 0.0, 0.0, 0.0, 0.0, 0.0, 1.6959297408233624E9, 0.0, 2023-09-28 14:35:40.823
44.0, 14589.40828912357, 19045.966153856058, 30134.376005455975, 14032.82750044197, 31940.441660933695, 6473.266359957023, -187500.02235174447, 33439.50610631777, 16760.567338534278, -25327.521601619912, -187500.02235174447, 53076.27356961651, 26061.68699999893, -2769.3587862680897, 63863.6724786368, 29278.08067537316, 0.099, 0.487, 0.128, 192.0, 0.0, 0.0, 0.0, 0.0, 0.0, 0.0, 0.0, 0.0, 0.0, 1.695929740823374E9, 0.0, 2023-09-28 14:35:40.823
46.0, 14721.82002327681, 19041.316991009357, 30219.826724508614, 14015.39313976683, 31935.390166686797, 6450.579339334887, -187500.02235174447, 33427.36910907854, 16759.092123400227, -25337.19990696906, -187500.02235174447, 53085.43778484318, 26054.57914526214, -2779.2382573173354, 63883.94551085777, 29299.672460516987, 0.099, 0.487, 0.128, 192.0, 0.0, 0.0, 0.0, 0.0, 0.0, 0.0, 0.0, 0.0, 0.0, 1.6959297408233874E9, 0.0, 2023-09-28 14:35:40.823
48.0, 14601.567638107257, 19043.14983405469, 30147.7647003847, 14034.705046976214, 31951.394015716796, 6464.9738627641045, -187500.02235174447, 33429.336062590606, 16762.713106001986, -25326.180496952595, -187500.02235174447, 53075.55831379394, 26067.274936112757, -2776.4889927493327, 63892.30506328405, 29277.812454439696, 0.14750000000000002, 0.7284999999999999, 0.191, 192.0, 3.0, 16.0, 15.0, 40.0, 3.5, 120.0, 0.0, 0.0, 0.0, 1.6959297408233988E9, 0.0, 2023-09-28 14:35:40.823
50.0, 14709.459508593025, 19045.832043389328, 30224.36412863304, 14026.054921872012, 31934.31728295294, 6456.949586504649, -187500.02235174447, 33426.94442593389, 16760.477931556456, -25335.657636601645, -187500.02235174447, 53073.636063770784, 26056.81431970767, -2780.981693384849, 63885.73365041419, 29293.03399241376, 0.14750000000000002, 0.7284999999999999, 0.191, 192.0, 0.0, 0.0, 0.0, 0.0, 0.0, 0.0, 0.0, 0.0, 0.0, 1.6959297408234098E9, 0.0, 2023-09-28 14:35:40.823
52.0, 14640.347914737215, 19042.255764276477, 30137.92993282437, 14038.326029577975, 31934.920780053235, 6461.2187696956125, -187500.02235174447, 33426.92207418944, 16768.74807700492, -25330.047348743363, -187500.02235174447, 53075.49125856057, 26062.066979654668, -2779.864106162084, 63916.19907810677, 29282.260451586302, 0.14750000000000002, 0.7284999999999999, 0.191, 192.0, 0.0, 0.0, 0.0, 0.0, 0.0, 0.0, 0.0, 0.0, 0.0, 1.6959297408234215E9, 0.0, 2023-09-28 14:35:40.823
54.0, 14708.856011492731, 19042.3451712543, 30222.888913498988, 14029.452387029218, 31926.36006192685, 6446.824246266395, -187500.02235174447, 33435.840420227105, 16750.106722129192, -25349.605125141756, -187500.02235174447, 53064.471848544104, 26050.220555093358, -2792.5822487571536, 63886.35949925894, 29291.782294724264, 0.14750000000000002, 0.7284999999999999, 0.191, 192.0, 0.0, 0.0, 0.0, 0.0, 0.0, 0.0, 0.0, 0.0, 0.0, 1.6959297408234327E9, 0.0, 2023-09-28 14:35:40.823
56.0, 14650.160330553095, 19061.05358136339, 30150.11163355251, 14059.180207154777, 31952.489251195104, 6486.118613018824, -187500.02235174447, 33449.609094811574, 16757.54985303281, -25352.175575754118, -187500.02235174447, 53070.23859861358, 26055.11558712907, -2785.183821342447, 63949.10084594499, 29277.007791639306, 0.14750000000000002, 0.7284999999999999, 0.191, 192.0, 0.0, 0.0, 0.0, 0.0, 0.0, 0.0, 0.0, 0.0, 0.0, 1.6959297408234448E9, 0.0, 2023-09-28 14:35:40.823
58.0, 14669.181665084561, 19045.72028466705, 30239.27274218473, 14056.475646075683, 31932.350329440873, 6458.000118494048, -187500.02235174447, 33438.12029816154, 16779.298100387823, -25339.25626745895, -187500.02235174447, 53076.96647369462, 26072.01350593728, -2769.939931623928, 63880.12336255591, 29302.958166951918, 0.17175, 0.85625, 0.2225, 192.0, 3.0, 16.0, 15.0, 96.0, 3.5, 120.0, 0.0, 0.0, 0.0, 1.6959297408234556E9, 0.0, 2023-09-28 14:35:40.823
60.0, 14663.504321992914, 19044.781511399928, 30166.0707790936, 14060.409553099818, 31936.865381820844, 6465.309138930934, -187500.02235174447, 33418.204893851864, 16755.22527160946, -25350.655657131156, -187500.02235174447, 53086.018930199025, 26052.85806093908, -2787.418995787978, 63972.19019796732, 29276.89603291703, 0.17175, 0.85625, 0.2225, 192.0, 0.0, 0.0, 0.0, 0.0, 0.0, 0.0, 0.0, 0.0, 0.0, 1.69592974082347E9, 0.0, 2023-09-28 14:35:40.823
62.0, 14637.352780980204, 19040.981714842525, 30243.854849798066, 14074.245282917653, 31930.629245117816, 6464.236255197079, -187500.02235174447, 33451.62075181255, 16764.613004280687, -25344.553630894858, -187500.02235174447, 53073.68076725969, 26061.48583429883, -2787.93308591045, 63896.17191507482, 29288.630698756064, 0.17175, 0.85625, 0.2225, 192.0, 0.0, 0.0, 0.0, 0.0, 0.0, 0.0, 0.0, 0.0, 0.0, 1.6959297408234828E9, 0.0, 2023-09-28 14:35:40.823
64.0, 14644.684153161545, 19061.187691830124, 30183.818064191113, 14092.50665813764, 31952.22103026164, 6485.47041242962, -187500.02235174447, 33449.676150044936, 16766.155274648103, -25340.776186081912, -187500.02235174447, 53097.820651271424, 26060.569412776164, -2782.3675015410786, 63995.145439522916, 29291.312908090702, 0.17175, 0.85625, 0.2225, 192.0, 0.0, 0.0, 0.0, 0.0, 0.0, 0.0, 0.0, 0.0, 0.0, 1.6959297408234951E9, 0.0, 2023-09-28 14:35:40.823
66.0, 14584.714422787956, 19036.064331062356, 30244.078367242622, 14080.615530087416, 31944.64378889129, 6457.03899348247, -187500.02235174447, 33443.66353078646, 16784.23783591245, -25327.700415575557, -187500.02235174447, 53089.63991280078, 26085.201035165912, -2762.83207688714, 63892.48387723969, 29303.60636754112, 0.17175, 0.85625, 0.2225, 192.0, 0.0, 0.0, 0.0, 0.0, 0.0, 0.0, 0.0, 0.0, 0.0, 1.695929740823508E9, 0.0, 2023-09-28 14:35:40.823
68.0, 14666.119476094185, 19040.892307864706, 30181.649944978948, 14084.750602811648, 31944.08499527991, 6466.426726153699, -187500.02235174447, 33431.3924230805, 16764.74711474742, -25366.54774743888, -187500.02235174447, 53102.55922109595, 26061.91051744348, -2796.1808796144583, 64025.543811982134, 29293.682193002966, 0.19287500000000002, 0.916125, 0.23925000000000002, 192.0, 3.0, 88.0, 15.0, 64.0, 4.0, 0.0, 0.0, 0.0, 0.0, 1.6959297408235283E9, 0.0, 2023-09-28 14:35:40.823
70.0, 14567.54828304628, 19040.378217742233, 30210.43899183738, 14100.30741695254, 31947.79538485949, 6469.935950033182, -187500.02235174447, 33450.86079250107, 16769.977422949964, -25351.21445074254, -187500.02235174447, 53074.619540526815, 26073.175796648957, -2782.7474811968186, 63928.33607534601, 29286.261413843804, 0.19287500000000002, 0.916125, 0.23925000000000002, 192.0, 0.0, 0.0, 0.0, 0.0, 0.0, 0.0, 0.0, 0.0, 0.0, 1.6959297408235412E9, 0.0, 2023-09-28 14:35:40.823
72.0, 14676.557740754813, 19052.38110451473, 30169.892927395456, 14098.832201818492, 31947.415405203752, 6475.56858963592, -187500.02235174447, 33434.56637079315, 16772.637280540144, -25354.6342676442, -187500.02235174447, 53112.32693342292, 26068.92896520245, -2785.250876575813, 64050.82363496109, 29300.52182680629, 0.19287500000000002, 0.916125, 0.23925000000000002, 192.0, 0.0, 0.0, 0.0, 0.0, 0.0, 0.0, 0.0, 0.0, 0.0, 1.6959297408235548E9, 0.0, 2023-09-28 14:35:40.823
74.0, 14572.420963337538, 19033.33741823881, 30153.06206382061, 14091.746698826159, 31933.17734398572, 6458.044821982959, -187500.02235174447, 33432.4429550699, 16778.22521665397, -25352.756721109956, -187500.02235174447, 53083.716700520126, 26076.52855831725, -2783.0157021302825, 63954.30880240307, 29281.388733552547, 0.19287500000000002, 0.916125, 0.23925000000000002, 192.0, 0.0, 0.0, 0.0, 0.0, 0.0, 0.0, 0.0, 0.0, 0.0, 1.695929740823567E9, 0.0, 2023-09-28 14:35:40.823
76.0, 14729.889003025175, 19037.24897351849, 30104.894054519424, 14078.492114364162, 31918.246378689575, 6448.545330589453, -187500.02235174447, 33400.4352570099, 16752.74422797492, -25392.006384373475, -187500.02235174447, 53096.144270437275, 26041.302209055688, -2819.739618270352, 64093.33665291508, 29277.007791639306, 0.19287500000000002, 0.916125, 0.23925000000000002, 192.0, 0.0, 0.0, 0.0, 0.0, 0.0, 0.0, 0.0, 0.0, 0.0, 1.69592974082358E9, 0.0, 2023-09-28 14:35:40.823
78.0, 14574.276158127328, 19041.205232287077, 30073.28868785962, 14098.385166929385, 31938.07237602143, 6464.236255197079, -187500.02235174447, 33438.075594672635, 16774.827751496763, -25364.469035204536, -187500.02235174447, 53066.863485200825, 26069.376000091554, -2780.601713729109, 63994.47488718926, 29262.389750765535, 0.2114375, 0.9420625, 0.247625, 192.0, 3.5, 24.0, 15.0, 32.0, 4.0, 0.0, 0.0, 0.0, 0.0, 1.6959297408235936E9, 0.0, 2023-09-28 14:35:40.823
80.0, 14742.070703753318, 19045.20619454458, 30077.49081581722, 14086.002300501144, 31922.82848630291, 6452.054554468937, -187500.02235174447, 33417.66845198494, 16766.669364770576, -25376.427218488127, -187500.02235174447, 53102.581572840405, 26053.193337105913, -2807.5355657977543, 64103.573751875614, 29294.397448825534, 0.2114375, 0.9420625, 0.247625, 192.0, 0.0, 0.0, 0.0, 0.0, 0.0, 0.0, 0.0, 0.0, 0.0, 1.6959297408236067E9, 0.0, 2023-09-28 14:35:40.823
82.0, 14582.948634975986, 19051.643496947705, 30045.773690435137, 14102.967274542723, 31937.64769287678, 6463.297481929956, -187500.02235174447, 33432.51001030326, 16777.554664320312, -25348.554593152356, -187500.02235174447, 53078.821668484416, 26066.67143901246, -2791.9563999124052, 64035.9150214094, 29270.50343400281, 0.2114375, 0.9420625, 0.247625, 192.0, 0.0, 0.0, 0.0, 0.0, 0.0, 0.0, 0.0, 0.0, 0.0, 1.695929740823619E9, 0.0, 2023-09-28 14:35:40.823
84.0, 14769.116314544239, 19043.99920034399, 30082.452903086294, 14073.418268372807, 31912.569035597928, 6434.508435071521, -187500.02235174447, 33401.95517563286, 16761.12613214566, -25363.150282281673, -187500.02235174447, 53103.073311218424, 26045.593743991107, -2809.0107809318047, 64141.10233081607, 29295.582091281667, 0.2114375, 0.9420625, 0.247625, 192.0, 0.0, 0.0, 0.0, 0.0, 0.0, 0.0, 0.0, 0.0, 0.0, 1.6959297408236356E9, 0.0, 2023-09-28 14:35:40.823
86.0, 14620.99130403892, 19040.892307864706, 30030.328635016518, 14086.270521434608, 31926.248303204575, 6453.03803122497, -187500.02235174447, 33415.32151881713, 16758.443922811024, -25341.603200626756, -187500.02235174447, 53066.46115380063, 26049.907630670983, -2801.411187817, 64094.633054093494, 29262.523861232265, 0.2114375, 0.9420625, 0.247625, 192.0, 0.0, 0.0, 0.0, 0.0, 0.0, 0.0, 0.0, 0.0, 0.0, 1.6959297408236487E9, 0.0, 2023-09-28 14:35:40.823
88.0, 14777.341756503793, 19052.939898126115, 30099.842560272526, 14079.430887631284, 31923.722556081124, 6438.487045584566, -187500.02235174447, 33420.82004795314, 16768.524559560366, -25348.733407108, -187500.02235174447, 53095.384311125796, 26054.512090028777, -2795.6891412364416, 64153.19462456639, 29295.783256981762, 0.21671875000000002, 0.95303125, 0.2518125, 192.0, 3.0, 120.0, 15.0, 16.0, 4.0, 0.0, 0.0, 0.0, 0.0, 1.6959297408236628E9, 0.0, 2023-09-28 14:35:40.823
90.0, 14632.882432089144, 19044.513290466464, 30032.47440248423, 14080.101439964945, 31935.61368413135, 6445.438438110165, -187500.02235174447, 33421.647062497985, 16765.596481036722, -25342.36315993824, -187500.02235174447, 53071.15502013624, 26057.64133425252, -2803.3110860957013, 64126.864269598045, 29262.546212976722, 0.21671875000000002, 0.95303125, 0.2518125, 192.0, 0.0, 0.0, 0.0, 0.0, 0.0, 0.0, 0.0, 0.0, 0.0, 1.695929740823675E9, 0.0, 2023-09-28 14:35:40.823
92.0, 14770.703288400566, 19049.050694590893, 30114.52765637966, 14065.528102580083, 31925.197771215175, 6427.534690801464, -187500.02235174447, 33410.1359141035, 16769.731553760954, -25344.64303787268, -187500.02235174447, 53087.78471801099, 26056.72491272985, -2806.1721093859805, 64157.10617984607, 29292.341088335645, 0.21671875000000002, 0.95303125, 0.2518125, 192.0, 0.0, 0.0, 0.0, 0.0, 0.0, 0.0, 0.0, 0.0, 0.0, 1.6959297408236878E9, 0.0, 2023-09-28 14:35:40.823
94.0, 14649.08744681924, 19037.651304918683, 30041.482155499718, 14061.773009511591, 31922.627320602816, 6429.166368146703, -187500.02235174447, 33405.59850997907, 16758.421571066567, -25347.548764651867, -187500.02235174447, 53059.666223486216, 26057.663685996973, -2804.115748896092, 64160.391886281, 29259.662837941985, 0.21671875000000002, 0.95303125, 0.2518125, 192.0, 0.0, 0.0, 0.0, 0.0, 0.0, 0.0, 0.0, 0.0, 0.0, 1.6959297408237119E9, 0.0, 2023-09-28 14:35:40.823
96.0, 14762.477846441014, 19048.000162601493, 30126.15056349642, 14053.659326274315, 31912.032593731, 6420.739760487051, -187500.02235174447, 33404.65973671195, 16748.296230828313, -25350.610953642245, -187500.02235174447, 53054.63708098377, 26046.688979469418, -2804.182804129458, 64171.21013059737, 29273.31975380418, 0.21671875000000002, 0.95303125, 0.2518125, 192.0, 0.0, 0.0, 0.0, 0.0, 0.0, 0.0, 0.0, 0.0, 0.0, 1.6959297408237426E9, 0.0, 2023-09-28 14:35:40.823
98.0, 14643.18658628304, 19058.72899994004, 30052.926248660835, 14071.45131486074, 31937.759451599057, 6434.0390484379595, -187500.02235174447, 33413.4886757718, 16751.157254118592, -25341.69260760458, -187500.02235174447, 53048.602109980835, 26059.92121218696, -2796.0691208921817, 64188.39862208351, 29258.634657697043, 0.205359375, 0.958515625, 0.25290625, 192.0, 3.0, 8.0, 15.0, 16.0, 3.5, 120.0, 0.0, 0.0, 0.0, 1.6959297408237672E9, 0.0, 2023-09-28 14:35:40.823
100.0, 14740.550785130357, 19035.974924084538, 30148.68112190737, 14045.143311636844, 31901.370811625817, 6401.427853277666, -187500.02235174447, 33399.071800598125, 16751.872509941164, -25337.803404069353, -187500.02235174447, 53049.36206929232, 26055.16029061798, -2803.065216906693, 64161.59888048159, 29281.500492274823, 0.205359375, 0.958515625, 0.25290625, 192.0, 0.0, 0.0, 0.0, 0.0, 0.0, 0.0, 0.0, 0.0, 0.0, 1.6959297408237844E9, 0.0, 2023-09-28 14:35:40.823
102.0, 14664.890130149142, 19051.107055080778, 30063.319809832552, 14062.242396145153, 31925.0860124929, 6421.633830265264, -187500.02235174447, 33401.66460295494, 16736.31569580027, -25356.10948277825, -187500.02235174447, 53038.52147323149, 26041.950409644895, -2817.5938508026425, 64213.8572590181, 29247.481137213843, 0.205359375, 0.958515625, 0.25290625, 192.0, 0.0, 0.0, 0.0, 0.0, 0.0, 0.0, 0.0, 0.0, 0.0, 1.6959297408237977E9, 0.0, 2023-09-28 14:35:40.823
104.0, 14708.76660451491, 19052.96224987057, 30163.25445929223, 14060.856587988925, 31919.498076379074, 6413.833071450362, -187500.02235174447, 33410.314728059144, 16750.240832595926, -25344.061892516842, -187500.02235174447, 53035.481635985576, 26057.104892385592, -2804.0039901738155, 64142.2869732722, 29272.850367170617, 0.205359375, 0.958515625, 0.25290625, 192.0, 0.0, 0.0, 0.0, 0.0, 0.0, 0.0, 0.0, 0.0, 0.0, 1.6959297408238108E9, 0.0, 2023-09-28 14:35:40.823
106.0, 14676.021298887885, 19063.71343895357, 30094.9028247479, 14079.475591120196, 31940.396957444784, 6433.592013548853, -187500.02235174447, 33420.440068297394, 16747.245698838913, -25338.45160465856, -187500.02235174447, 53040.62253721029, 26055.741435973818, -2810.1954233879355, 64209.40926187149, 29266.41306476749, 0.205359375, 0.958515625, 0.25290625, 192.0, 0.0, 0.0, 0.0, 0.0, 0.0, 0.0, 0.0, 0.0, 0.0, 1.695929740823824E9, 0.0, 2023-09-28 14:35:40.823
108.0, 14682.212732102005, 19054.23629930452, 30181.560538001126, 14068.746753781648, 31915.675928077213, 6414.682437739663, -187500.02235174447, 33415.65679498396, 16758.242757110926, -25335.143546479172, -187500.02235174447, 53030.7654179055, 26070.270069869766, -2791.442309789933, 64117.65535088246, 29282.439265541943, 0.1946796875, 0.9692578125, 0.247453125, 192.0, 2.5, 96.0, 15.0, 80.0, 3.5, 72.0, 0.0, 0.0, 0.0, 1.6959297408238385E9, 0.0, 2023-09-28 14:35:40.823
110.0, 14701.032900933375, 19063.10994185328, 30106.413973142386, 14082.761297555126, 31924.70603283716, 6429.032257679971, -187500.02235174447, 33405.0844198566, 16739.422588279558, -25354.20958449955, -187500.02235174447, 53039.393191265255, 26045.325523057643, -2817.9738304583825, 64208.00110197081, 29267.061265356693, 0.1946796875, 0.9692578125, 0.247453125, 192.0, 0.0, 0.0, 0.0, 0.0, 0.0, 0.0, 0.0, 0.0, 0.0, 1.6959297408238537E9, 0.0, 2023-09-28 14:35:40.823
112.0, 14657.402295756614, 19060.360677285276, 30175.436160020374, 14091.009091259133, 31926.69533809368, 6423.936059944161, -187500.02235174447, 33419.14366711899, 16752.36424831918, -25343.59250588328, -187500.02235174447, 53032.173577806185, 26059.809453464684, -2808.2284698758685, 64100.153934973954, 29276.44899802792, 0.1946796875, 0.9692578125, 0.247453125, 192.0, 0.0, 0.0, 0.0, 0.0, 0.0, 0.0, 0.0, 0.0, 0.0, 1.6959297408238685E9, 0.0, 2023-09-28 14:35:40.823
114.0, 14690.751098483934, 19068.407305289187, 30130.24093273174, 14097.334634939985, 31931.992701529587, 6436.140112416758, -187500.02235174447, 33412.773419949226, 16759.69562050052, -25342.67608436061, -187500.02235174447, 53059.84503744186, 26067.54315704622, -2798.5948680156316, 64188.376270339046, 29280.5617190077, 0.1946796875, 0.9692578125, 0.247453125, 192.0, 0.0, 0.0, 0.0, 0.0, 0.0, 0.0, 0.0, 0.0, 0.0, 1.6959297408238828E9, 0.0, 2023-09-28 14:35:40.823
116.0, 14626.17690875255, 19045.25089803349, 30174.944421642354, 14087.253998190643, 31903.583634326893, 6416.425873807178, -187500.02235174447, 33406.827855924115, 16756.32050708777, -25344.82185182832, -187500.02235174447, 53032.68766792866, 26064.68213375594, -2804.898059952028, 64089.670966824415, 29269.87758515806, 0.1946796875, 0.9692578125, 0.247453125, 192.0, 0.0, 0.0, 0.0, 0.0, 0.0, 0.0, 0.0, 0.0, 0.0, 1.6959297408238976E9, 0.0, 2023-09-28 14:35:40.823
118.0, 14719.987180231474, 19057.81257841737, 30123.133077994953, 14093.803059316047, 31916.07825947741, 6425.612440778308, -187500.02235174447, 33401.35167853256, 16735.287515555327, -25373.722657409035, -187500.02235174447, 53039.59435696535, 26034.239057807812, -2825.595775317642, 64225.994256257334, 29266.860099656595, 0.19533984375000002, 0.98262890625, 0.2507265625, 192.0, 3.0, 16.0, 15.5, 16.0, 3.5, 120.0, 0.0, 0.0, 0.0, 1.6959297408239095E9, 0.0, 2023-09-28 14:35:40.823
120.0, 14590.369414135148, 19058.59488947331, 30165.467281993304, 14107.817603089525, 31929.064623005943, 6435.111932171814, -187500.02235174447, 33424.75395497727, 16769.262167127392, -25335.858802301744, -187500.02235174447, 53035.816912152404, 26078.897843229515, -2787.776623699263, 64114.07907176961, 29280.22644284087, 0.19533984375000002, 0.98262890625, 0.2507265625, 192.0, 0.0, 0.0, 0.0, 0.0, 0.0, 0.0, 0.0, 0.0, 0.0, 1.695929740823924E9, 0.0, 2023-09-28 14:35:40.823
122.0, 14730.783072803388, 19054.549223726895, 30137.080566535067, 14086.918722023813, 31908.389259384785, 6418.616344763797, -187500.02235174447, 33393.61797495103, 16743.155329603593, -25375.60020394328, -187500.02235174447, 53047.32806054688, 26045.10200561309, -2828.210929418913, 64267.34498349965, 29280.069980629683, 0.19533984375000002, 0.98262890625, 0.2507265625, 192.0, 0.0, 0.0, 0.0, 0.0, 0.0, 0.0, 0.0, 0.0, 0.0, 1.6959297408239365E9, 0.0, 2023-09-28 14:35:40.823
124.0, 14590.190600179507, 19056.404418516686, 30132.67727287737, 14089.109192980433, 31910.75854429705, 6423.869004710795, -187500.02235174447, 33409.7335827033, 16750.73257097394, -25355.617744400235, -187500.02235174447, 53010.3135717289, 26054.892069684516, -2802.774644228774, 64179.1002963901, 29254.49958497281, 0.19533984375000002, 0.98262890625, 0.2507265625, 192.0, 0.0, 0.0, 0.0, 0.0, 0.0, 0.0, 0.0, 0.0, 0.0, 1.6959297408239515E9, 0.0, 2023-09-28 14:35:40.823
126.0, 14728.34673265776, 19049.564784713362, 30140.63449390346, 14092.260788948632, 31922.113230480343, 6428.205243135124, -187500.02235174447, 33399.78705642069, 16751.894861685618, -25381.45636099057, -187500.02235174447, 53044.26587155651, 26047.78421494773, -2826.5569003292208, 64300.71613797142, 29275.84550092763, 0.19533984375000002, 0.98262890625, 0.2507265625, 192.0, 0.0, 0.0, 0.0, 0.0, 0.0, 0.0, 0.0, 0.0, 0.0, 1.6959297408239644E9, 0.0, 2023-09-28 14:35:40.823
128.0, 14589.40828912357, 19029.023531558934, 30104.44701963032, 14083.677719077794, 31904.433000616194, 6417.141129629747, -187500.02235174447, 33405.71026870135, 16750.30788782929, -25386.709020937567, -187500.02235174447, 53008.748949617024, 26051.62871499404, -2828.255632907824, 64221.792128299734, 29251.146823304516, 0.202669921875, 0.983314453125, 0.25436328125, 192.0, 3.0, 72.0, 15.0, 96.0, 4.0, 8.0, 0.0, 0.0, 0.0, 1.69592974082398E9, 0.0, 2023-09-28 14:35:40.823
130.0, 14762.433142952103, 19028.598848414284, 30118.752136081715, 14073.038288717067, 31904.656518060747, 6414.637734250753, -187500.02235174447, 33404.61503322304, 16748.31858257277, -25406.579721758335, -187500.02235174447, 53034.98989760756, 26042.10687185608, -2843.544226115254, 64325.14659466107, 29271.68807645894, 0.202669921875, 0.983314453125, 0.25436328125, 192.0, 0.0, 0.0, 0.0, 0.0, 0.0, 0.0, 0.0, 0.0, 0.0, 1.6959297408239925E9, 0.0, 2023-09-28 14:35:40.823
132.0, 14619.404330182593, 19018.160583753655, 30062.693960987803, 14081.531951610084, 31909.596253585372, 6423.265507610501, -187500.02235174447, 33406.067896612636, 16743.06592262577, -25408.658433992678, -187500.02235174447, 52996.79076633343, 26044.274991068243, -2837.7551243013295, 64262.204082274926, 29242.250829011304, 0.202669921875, 0.983314453125, 0.25436328125, 192.0, 0.0, 0.0, 0.0, 0.0, 0.0, 0.0, 0.0, 0.0, 0.0, 1.6959297408240082E9, 0.0, 2023-09-28 14:35:40.824
134.0, 14780.649814683178, 19041.205232287077, 30103.105914963, 14087.49986737965, 31911.272634419518, 6428.786388490962, -187500.02235174447, 33406.671393712924, 16751.581937263243, -25403.629291490233, -187500.02235174447, 53030.49719697204, 26039.804642177183, -2841.309051669723, 64335.897783744076, 29272.80566368171, 0.202669921875, 0.983314453125, 0.25436328125, 192.0, 0.0, 0.0, 0.0, 0.0, 0.0, 0.0, 0.0, 0.0, 0.0, 1.6959297408240204E9, 0.0, 2023-09-28 14:35:40.824
136.0, 14620.834841827733, 19055.91268013867, 30048.27708581413, 14111.684454880293, 31930.003396273067, 6452.166313191213, -187500.02235174447, 33420.61888225304, 16766.959937448497, -25375.309631265358, -187500.02235174447, 53025.9150893587, 26061.262316854278, -2817.2809263802683, 64280.2195883059, 29262.300343787712, 0.202669921875, 0.983314453125, 0.25436328125, 192.0, 0.0, 0.0, 0.0, 0.0, 0.0, 0.0, 0.0, 0.0, 0.0, 1.6959297408240368E9, 0.0, 2023-09-28 14:35:40.824
138.0, 14789.277588042927, 19052.738732426016, 30120.137944237944, 14084.92941676729, 31916.234721688597, 6426.9982489345375, -187500.02235174447, 33406.24671056827, 16768.882187471652, -25373.54384345339, -187500.02235174447, 53055.73231646208, 26057.954258674894, -2821.2148334044023, 64331.02510345282, 29295.73855349285, 0.20733496093749998, 0.9766572265625, 0.25818164062500004, 192.0, 3.0, 80.0, 15.0, 40.0, 4.0, 24.0, 0.0, 0.0, 0.0, 1.69592974082405E9, 0.0, 2023-09-28 14:35:40.824
140.0, 14654.965955610985, 19051.218813803054, 30043.694978200794, 14104.487193165683, 31933.13264049681, 6449.417048623211, -187500.02235174447, 33413.13104786051, 16755.560547776287, -25376.941308610596, -187500.02235174447, 53028.03850508195, 26050.68994172692, -2825.1487404285363, 64324.09606267168, 29259.014637352782, 0.20733496093749998, 0.9766572265625, 0.25818164062500004, 192.0, 0.0, 0.0, 0.0, 0.0, 0.0, 0.0, 0.0, 0.0, 0.0, 1.6959297408240669E9, 0.0, 2023-09-28 14:35:40.824
142.0, 14800.364053292758, 19046.524947467442, 30127.357557697007, 14076.458105618729, 31903.404820371252, 6414.9059551842165, -187500.02235174447, 33391.159283060944, 16764.165969391583, -25374.16969229814, -187500.02235174447, 53049.384421036775, 26052.232212094335, -2824.0758566946815, 64337.66357155605, 29290.128265634572, 0.20733496093749998, 0.9766572265625, 0.25818164062500004, 192.0, 0.0, 0.0, 0.0, 0.0, 0.0, 0.0, 0.0, 0.0, 0.0, 1.6959297408240805E9, 0.0, 2023-09-28 14:35:40.824
144.0, 14701.032900933375, 19044.513290466464, 30051.56279224906, 14082.64953883285, 31923.27552119202, 6426.193586134146, -187500.02235174447, 33397.55188197516, 16749.860852940186, -25385.949061626085, -187500.02235174447, 53025.82568238088, 26042.173927089447, -2831.2284149203797, 64354.42737989753, 29249.023407581262, 0.20733496093749998, 0.9766572265625, 0.25818164062500004, 192.0, 0.0, 0.0, 0.0, 0.0, 0.0, 0.0, 0.0, 0.0, 0.0, 1.695929740824094E9, 0.0, 2023-09-28 14:35:40.824
146.0, 14813.104547632283, 19046.144967811702, 30141.237991003753, 14074.938186995769, 31908.25514891805, 6416.358818573812, -187500.02235174447, 33398.66946919793, 16761.439056568033, -25380.517587723447, -187500.02235174447, 53034.34169701835, 26043.179755589936, -2836.0787434671815, 64348.99590599489, 29278.483006773356, 0.20733496093749998, 0.9766572265625, 0.25818164062500004, 192.0, 0.0, 0.0, 0.0, 0.0, 0.0, 0.0, 0.0, 0.0, 0.0, 1.6959297408241067E9, 0.0, 2023-09-28 14:35:40.824
148.0, 14729.173747202605, 19044.066255577356, 30064.19152786631, 14076.569864341005, 31921.867361291334, 6422.7737692324845, -187500.02235174447, 33397.35071627506, 16756.544024532323, -25370.369895740736, -187500.02235174447, 53033.849958640334, 26047.426587036443, -2832.6142230766086, 64380.17658951004, 29263.105006588103, 0.19966748046875, 0.97132861328125, 0.26209082031250003, 192.0, 3.0, 0.0, 15.0, 24.0, 4.0, 40.0, 0.0, 0.0, 0.0, 1.6959297408241212E9, 0.0, 2023-09-28 14:35:40.824
150.0, 14799.626445725733, 19034.253839761477, 30153.55380219863, 14061.437733344763, 31901.236701159087, 6398.946809643127, -187500.02235174447, 33390.131102816, 16756.476969298958, -25366.34658173878, -187500.02235174447, 53026.85386262582, 26045.705502713383, -2834.5141213553097, 64343.20680418096, 29274.347934049125, 0.19966748046875, 0.97132861328125, 0.26209082031250003, 192.0, 0.0, 0.0, 0.0, 0.0, 0.0, 0.0, 0.0, 0.0, 0.0, 1.6959297408241327E9, 0.0, 2023-09-28 14:35:40.824
152.0, 14735.789863561376, 19054.124540582245, 30075.747379749704, 14087.969254013213, 31937.245361476587, 6435.93894671666, -187500.02235174447, 33414.47215252783, 16754.442960553522, -25379.534110967412, -187500.02235174447, 53031.63713593926, 26042.86683116756, -2836.0787434671815, 64401.097822320204, 29259.774596664265, 0.19966748046875, 0.97132861328125, 0.26209082031250003, 192.0, 0.0, 0.0, 0.0, 0.0, 0.0, 0.0, 0.0, 0.0, 0.0, 1.695929740824144E9, 0.0, 2023-09-28 14:35:40.824
154.0, 14755.39234344868, 19056.76204642797, 30170.49642449575, 14082.046041732556, 31924.236646203597, 6424.606612277819, -187500.02235174447, 33413.19810309388, 16778.44873409852, -25351.236802486994, -187500.02235174447, 53042.79065642246, 26068.079598913147, -2805.5462605412317, 64325.683036528, 29294.12922789207, 0.19966748046875, 0.97132861328125, 0.26209082031250003, 192.0, 0.0, 0.0, 0.0, 0.0, 0.0, 0.0, 0.0, 0.0, 0.0, 1.6959297408241572E9, 0.0, 2023-09-28 14:35:40.824
156.0, 14755.459398682047, 19051.732903925527, 30087.14676942191, 14082.157800454832, 31924.95190202617, 6428.719333257596, -187500.02235174447, 33402.11163784404, 16756.208748365494, -25365.519567193936, -187500.02235174447, 53042.813008166915, 26047.15836610298, -2824.8805194950723, 64413.95007538201, 29271.442207269934, 0.19966748046875, 0.97132861328125, 0.26209082031250003, 192.0, 0.0, 0.0, 0.0, 0.0, 0.0, 0.0, 0.0, 0.0, 0.0, 1.6959297408241704E9, 0.0, 2023-09-28 14:35:40.824
158.0, 14739.29908744086, 19049.430674246632, 30156.660694677914, 14082.582483599483, 31919.54277986798, 6416.917612185194, -187500.02235174447, 33405.73262044581, 16772.480818328957, -25357.025904300917, -187500.02235174447, 53021.51179570101, 26056.546098774208, -2815.962173457405, 64328.58876330719, 29276.381942794556, 0.192833740234375, 0.968664306640625, 0.26204541015625005, 192.0, 2.5, 104.0, 15.0, 24.0, 4.0, 24.0, 0.0, 0.0, 0.0, 1.6959297408241847E9, 0.0, 2023-09-28 14:35:40.824
0.0, 7456.877226457265, 9595.916819085696, 15062.997050642616, 7016.681971154449, 16026.379588410806, 3205.977762458058, -93750.01117587223, 16432.466081674826, 8386.083946953291, -12682.871542319244, -93750.01117587223, 26524.569275923885, 13025.277915630093, -1413.770188542627, 32221.89482711492, 14641.219632770972, 0.1804168701171875, 0.9753321533203125, 0.258022705078125, 192.0, 2.5, 32.0, 15.0, 88.0, 3.5, 120.0, 0.0, 0.0, 0.0, 1.6959297413956492E9, 0.0, 2023-09-28 14:35:41.395
2.0, 15009.621084883343, 19184.882245645793, 30220.720794286826, 14017.449500256718, 32028.194609665232, 6384.127603069259, -187500.02235174447, 32858.27134350197, 16985.381184265756, -25275.643202739146, -187500.02235174447, 53039.77317092099, 26185.381553814597, -2856.3517756881447, 65086.02232766418, 29102.37361220999, 0.1804168701171875, 0.9753321533203125, 0.258022705078125, 192.0, 0.0, 0.0, 0.0, 0.0, 0.0, 0.0, 0.0, 0.0, 0.0, 1.6959297413957722E9, 0.0, 2023-09-28 14:35:41.395
4.0, 15006.804765081975, 19192.951225394158, 30144.166069527397, 14024.177375337766, 32042.29856041653, 6399.438548021144, -187500.02235174447, 32852.996331810515, 16971.724268403563, -25307.516790332415, -187500.02235174447, 53042.50008374454, 26170.31647805172, -2882.7491858898625, 65170.71308740534, 29083.776960823176, 0.1804168701171875, 0.9753321533203125, 0.258022705078125, 192.0, 0.0, 0.0, 0.0, 0.0, 0.0, 0.0, 0.0, 0.0, 0.0, 1.6959297413957944E9, 0.0, 2023-09-28 14:35:41.395
6.0, 14974.797067021975, 19203.389490054786, 30217.435087851896, 14035.174433609776, 32030.250970155117, 6395.7728619304735, -187500.02235174447, 32868.19551804013, 16990.857361657305, -25281.7675807199, -187500.02235174447, 53037.67210694219, 26188.019059660324, -2865.7842118482845, 65065.525777998664, 29100.56312090911, 0.1804168701171875, 0.9753321533203125, 0.258022705078125, 192.0, 0.0, 0.0, 0.0, 0.0, 0.0, 0.0, 0.0, 0.0, 0.0, 1.6959297413958075E9, 0.0, 2023-09-28 14:35:41.395
8.0, 15019.031169299027, 19209.156240124255, 30170.049389606644, 14053.033477429568, 32046.455984885215, 6420.449187809132, -187500.02235174447, 32878.92435537867, 16982.631919697753, -25272.178682348575, -187500.02235174447, 53066.93054043419, 26178.45251303345, -2864.286644969779, 65167.56149143714, 29115.51643794971, 0.16, 0.988, 0.25, 192.0, 2.5, 0.0, 15.0, 112.0, 3.5, 104.0, 0.0, 0.0, 0.0, 1.6959297413958204E9, 0.0, 2023-09-28 14:35:41.395
10.0, 14951.327735343903, 19200.66257723124, 30214.037622694686, 14045.009201170113, 32031.547371333527, 6404.691207968141, -187500.02235174447, 32875.01280009899, 16985.627053454766, -25268.065961368797, -187500.02235174447, 53042.72360118909, 26189.494274794375, -2849.378031418089, 65072.11954261298, 29111.783696625676, 0.16, 0.988, 0.25, 192.0, 0.0, 0.0, 0.0, 0.0, 0.0, 0.0, 0.0, 0.0, 0.0, 1.6959297413958328E9, 0.0, 2023-09-28 14:35:41.395
12.0, 15023.702683890187, 19217.448737317176, 30173.893889652958, 14044.718628492194, 32042.566781349993, 6417.498757541032, -187500.02235174447, 32863.56870693788, 16986.543474977432, -25272.7151242155, -187500.02235174447, 53063.93540667718, 26180.285356078788, -2855.792982076762, 65176.07750607461, 29107.53686517917, 0.16, 0.988, 0.25, 192.0, 0.0, 0.0, 0.0, 0.0, 0.0, 0.0, 0.0, 0.0, 0.0, 1.6959297413958452E9, 0.0, 2023-09-28 14:35:41.395
14.0, 14939.123682871304, 19192.37008003832, 30203.956985945344, 14026.904288161313, 32022.51726657358, 6384.239361791535, -187500.02235174447, 32844.323854961855, 16992.533742491454, -25270.01056313641, -187500.02235174447, 53040.35431627683, 26190.477751550407, -2848.1710372175025, 65069.526740256166, 29100.026679042185, 0.16, 0.988, 0.25, 192.0, 0.0, 0.0, 0.0, 0.0, 0.0, 0.0, 0.0, 0.0, 0.0, 1.6959297413958597E9, 0.0, 2023-09-28 14:35:41.395
16.0, 15067.31093732249, 19199.2320655861, 30172.172805329898, 14025.339666049442, 32027.43465035375, 6388.285027537946, -187500.02235174447, 32840.479354915544, 16965.26461425598, -25301.61592979621, -187500.02235174447, 53051.03845012646, 26162.47101574791, -2884.2691045128236, 65186.538122479695, 29094.32698420608, 0.16, 0.988, 0.25, 192.0, 0.0, 0.0, 0.0, 0.0, 0.0, 0.0, 0.0, 0.0, 0.0, 1.6959297413958728E9, 0.0, 2023-09-28 14:35:41.395
18.0, 14940.5765462609, 19192.079507360402, 30189.897738682957, 14031.06171263, 32026.42882185326, 6397.9409811426385, -187500.02235174447, 32863.009913326496, 16979.793248151927, -25276.470217283993, -187500.02235174447, 53027.1667870482, 26182.18525435749, -2868.600531649653, 65074.01944089168, 29085.296879446138, 0.156, 0.984, 0.248, 192.0, 2.0, 112.0, 15.0, 96.0, 3.5, 96.0, 0.0, 0.0, 0.0, 1.695929741395886E9, 0.0, 2023-09-28 14:35:41.395
20.0, 15084.879408464361, 19205.3340918224, 30178.63245947748, 14027.68659921725, 32026.87585674237, 6398.388016031745, -187500.02235174447, 32842.580418894344, 16971.4560474701, -25295.84917972674, -187500.02235174447, 53049.518531503505, 26161.80046341425, -2885.565505691231, 65178.75971540925, 29095.17635049538, 0.156, 0.984, 0.248, 192.0, 0.0, 0.0, 0.0, 0.0, 0.0, 0.0, 0.0, 0.0, 0.0, 1.6959297413958993E9, 0.0, 2023-09-28 14:35:41.395
22.0, 14924.416235019713, 19206.250513345065, 30177.760741443726, 14046.998506426635, 32044.980769751164, 6418.102254641325, -187500.02235174447, 32871.59298319733, 16989.516256989988, -25264.66849621159, -187500.02235174447, 53038.07443834239, 26189.293109094277, -2857.759935588829, 65068.90089141142, 29096.919786562896, 0.156, 0.984, 0.248, 192.0, 0.0, 0.0, 0.0, 0.0, 0.0, 0.0, 0.0, 0.0, 0.0, 1.6959297413959124E9, 0.0, 2023-09-28 14:35:41.395
24.0, 15079.805562473008, 19209.938551180192, 30196.51385504173, 14031.329933563464, 32032.933179489755, 6402.83601317835, -187500.02235174447, 32847.36369220778, 16987.482248244556, -25279.42064755209, -187500.02235174447, 53068.78573522398, 26178.2289955889, -2858.6093018781307, 65161.14654077847, 29120.65733917443, 0.156, 0.984, 0.248, 192.0, 0.0, 0.0, 0.0, 0.0, 0.0, 0.0, 0.0, 0.0, 0.0, 1.695929741395925E9, 0.0, 2023-09-28 14:35:41.395
26.0, 14918.582429716878, 19202.56247550994, 30174.855014664536, 14040.225927856676, 32041.20332493822, 6409.765053959496, -187500.02235174447, 32868.26257327349, 16991.03617561295, -25271.41872303709, -187500.02235174447, 53040.66724069921, 26188.3319840827, -2853.8483803091503, 65078.13216187146, 29090.66129811541, 0.156, 0.984, 0.248, 192.0, 0.0, 0.0, 0.0, 0.0, 0.0, 0.0, 0.0, 0.0, 0.0, 1.695929741395938E9, 0.0, 2023-09-28 14:35:41.395
28.0, 15078.17388512777, 19210.385586069297, 30204.64989002346, 14027.261916072597, 32028.66399629879, 6393.962370629593, -187500.02235174447, 32843.11686076127, 16978.005108595506, -25288.38369707867, -187500.02235174447, 53065.812953211425, 26169.243594317868, -2877.2283050094015, 65163.337011735086, 29107.358051223524, 0.158, 0.984, 0.246, 192.0, 2.0, 120.0, 15.0, 96.0, 3.5, 88.0, 0.0, 0.0, 0.0, 1.6959297413959525E9, 0.0, 2023-09-28 14:35:41.395
30.0, 14925.332656542381, 19194.627606228307, 30164.752026170736, 14032.425169041773, 32030.496839344127, 6394.699978196619, -187500.02235174447, 32848.88361083074, 16990.96912037958, -25273.273917826882, -187500.02235174447, 53044.0200023675, 26185.381553814597, -2857.7822873332843, 65088.30220559862, 29080.580661366068, 0.158, 0.984, 0.246, 192.0, 0.0, 0.0, 0.0, 0.0, 0.0, 0.0, 0.0, 0.0, 0.0, 1.695929741395965E9, 0.0, 2023-09-28 14:35:41.395
32.0, 15093.79775450203, 19199.56734175293, 30211.93655871589, 14015.750767678115, 32021.064403183987, 6387.301550781912, -187500.02235174447, 32843.139212505725, 16974.78645739394, -25298.8219617393, -187500.02235174447, 53055.91113041772, 26166.427274516496, -2881.3633777336336, 65152.20584299634, 29106.307519234124, 0.158, 0.984, 0.246, 192.0, 0.0, 0.0, 0.0, 0.0, 0.0, 0.0, 0.0, 0.0, 0.0, 1.6959297413959794E9, 0.0, 2023-09-28 14:35:41.395
34.0, 14945.382171318792, 19202.89775167677, 30152.34680799804, 14031.419340541284, 32041.404490638317, 6403.350103300822, -187500.02235174447, 32846.82725034085, 16976.686355672642, -25292.742287247456, -187500.02235174447, 53032.15122606173, 26176.59731824366, -2870.701595628452, 65112.75501403273, 29077.94315552034, 0.158, 0.984, 0.246, 192.0, 0.0, 0.0, 0.0, 0.0, 0.0, 0.0, 0.0, 0.0, 0.0, 1.6959297413959925E9, 0.0, 2023-09-28 14:35:41.395
36.0, 15075.111696137394, 19218.72278675113, 30226.487544356292, 14040.449445301228, 32039.079909214965, 6400.422024777177, -187500.02235174447, 32857.53373593494, 16995.193600081635, -25272.67042072659, -187500.02235174447, 53063.711889232625, 26185.94034742598, -2863.4819821693877, 65133.050397998144, 29113.61653967101, 0.158, 0.984, 0.246, 192.0, 0.0, 0.0, 0.0, 0.0, 0.0, 0.0, 0.0, 0.0, 0.0, 1.6959297413960054E9, 0.0, 2023-09-28 14:35:41.396
38.0, 14947.684400997687, 19210.22912385811, 30162.96388661431, 14047.333782593463, 32051.39572040984, 6408.870984181283, -187500.02235174447, 32855.67854114516, 17002.167344351692, -25257.158310074607, -187500.02235174447, 53059.97914790859, 26197.406792331552, -2855.792982076762, 65117.203011179336, 29096.09277201805, 0.158, 0.988, 0.25, 192.0, 2.0, 120.0, 15.0, 112.0, 3.5, 104.0, 0.0, 0.0, 0.0, 1.6959297413960197E9, 0.0, 2023-09-28 14:35:41.396
40.0, 15084.231207875158, 19201.154315609256, 30233.617750837537, 14025.741997449637, 32021.444382839727, 6380.394861745222, -187500.02235174447, 32838.244180470014, 16984.39770750972, -25280.33706907476, -187500.02235174447, 53059.39800255275, 26179.771265956315, -2870.0980985281585, 65126.99307525076, 29115.29292050516, 0.158, 0.988, 0.25, 192.0, 0.0, 0.0, 0.0, 0.0, 0.0, 0.0, 0.0, 0.0, 0.0, 1.6959297413960352E9, 0.0, 2023-09-28 14:35:41.396
42.0, 14977.434572867702, 19220.95796119666, 30160.72871216878, 14048.227852371676, 32051.30631343202, 6408.60276324782, -187500.02235174447, 32852.75046262151, 16989.762126178997, -25278.973612662987, -187500.02235174447, 53054.1229908613, 26187.259100348845, -2865.292473470268, 65144.382732436985, 29088.09084750305, 0.158, 0.988, 0.25, 192.0, 0.0, 0.0, 0.0, 0.0, 0.0, 0.0, 0.0, 0.0, 0.0, 1.695929741396048E9, 0.0, 2023-09-28 14:35:41.396
44.0, 15072.720059480675, 19199.969673153126, 30240.367977663038, 14022.143366592332, 32019.835057238946, 6374.225780275558, -187500.02235174447, 32836.25487521349, 16991.59496922433, -25280.784103963866, -187500.02235174447, 53063.1754473657, 26187.773190471315, -2863.3031682137453, 65114.65491231143, 29115.359975738524, 0.158, 0.988, 0.25, 192.0, 0.0, 0.0, 0.0, 0.0, 0.0, 0.0, 0.0, 0.0, 0.0, 1.695929741396061E9, 0.0, 2023-09-28 14:35:41.396
46.0, 15003.764927836053, 19216.509964050052, 30151.989180086755, 14044.092779647444, 32044.846659284434, 6410.055626637415, -187500.02235174447, 32848.190706752626, 16974.384125993744, -25293.43519132557, -187500.02235174447, 53045.83049366838, 26169.757684440337, -2886.414871980533, 65168.05322981516, 29082.927594533874, 0.158, 0.988, 0.25, 192.0, 0.0, 0.0, 0.0, 0.0, 0.0, 0.0, 0.0, 0.0, 0.0, 1.6959297413960876E9, 0.0, 2023-09-28 14:35:41.396
48.0, 15056.22447207266, 19195.588731239885, 30235.964684005343, 14025.49612826063, 32019.0080426941, 6387.525068226465, -187500.02235174447, 32848.525982919455, 16997.674643716175, -25265.741379945444, -187500.02235174447, 53056.69344147366, 26191.908263195546, -2856.3741274326003, 65097.44406908084, 29121.596112441555, 0.162, 0.98, 0.252, 192.0, 2.5, 8.0, 15.0, 80.0, 3.5, 112.0, 0.0, 0.0, 0.0, 1.6959297413961022E9, 0.0, 2023-09-28 14:35:41.396
50.0, 15044.087474833426, 19196.281635318, 30136.05238629012, 14022.456291014707, 32022.070231684476, 6390.7213676835745, -187500.02235174447, 32829.61640711027, 16964.325840988855, -25299.403107095135, -187500.02235174447, 53046.858673913324, 26160.951097124947, -2889.3653022486333, 65182.961843366844, 29089.521359148188, 0.162, 0.98, 0.252, 192.0, 0.0, 0.0, 0.0, 0.0, 0.0, 0.0, 0.0, 0.0, 0.0, 1.6959297413961165E9, 0.0, 2023-09-28 14:35:41.396
52.0, 15044.802730655996, 19188.45852475864, 30203.68876501188, 14021.897497403324, 32015.789391492533, 6382.652387935208, -187500.02235174447, 32842.2004392386, 16976.105210316804, -25295.022165181897, -187500.02235174447, 53031.614784194804, 26172.46224551943, -2873.9873020633822, 65095.097135913034, 29096.405696440423, 0.162, 0.98, 0.252, 192.0, 0.0, 0.0, 0.0, 0.0, 0.0, 0.0, 0.0, 0.0, 0.0, 1.6959297413961325E9, 0.0, 2023-09-28 14:35:41.396
54.0, 15048.356658024391, 19212.017263414535, 30140.656845647914, 14043.601041269427, 32046.8136127965, 6418.258716852512, -187500.02235174447, 32865.80388138341, 16977.02163183947, -25301.19124665156, -187500.02235174447, 53052.35720304933, 26175.703248465452, -2875.3284067307004, 65180.324337521124, 29104.273510488692, 0.162, 0.98, 0.252, 192.0, 0.0, 0.0, 0.0, 0.0, 0.0, 0.0, 0.0, 0.0, 0.0, 1.6959297413961475E9, 0.0, 2023-09-28 14:35:41.396
56.0, 15002.602637124377, 19203.14362086578, 30215.26696863973, 14036.269669088088, 32032.262627156095, 6401.137280599747, -187500.02235174447, 32857.01964581247, 17001.161515851203, -25272.402199793127, -187500.02235174447, 53048.825627425394, 26200.312519110743, -2844.6171098491086, 65073.63946123594, 29119.316234507114, 0.162, 0.98, 0.252, 192.0, 0.0, 0.0, 0.0, 0.0, 0.0, 0.0, 0.0, 0.0, 0.0, 1.695929741396163E9, 0.0, 2023-09-28 14:35:41.396
58.0, 15071.535417024545, 19201.780164454005, 30152.63738067596, 14029.877070173869, 32036.621217324882, 6404.579449245864, -187500.02235174447, 32844.480317173045, 16980.195579552124, -25290.976499435485, -187500.02235174447, 53053.11716236081, 26173.915108909026, -2878.8376306101836, 65191.27669230422, 29105.23463550027, 0.152, 0.986, 0.254, 192.0, 2.0, 96.0, 15.0, 104.0, 3.5, 120.0, 0.0, 0.0, 0.0, 1.6959297413961785E9, 0.0, 2023-09-28 14:35:41.396
60.0, 15005.486012159112, 19185.105763090345, 30199.844264965566, 14019.081177601956, 32018.85158048291, 6382.764146657485, -187500.02235174447, 32840.97109329356, 16995.37241403728, -25274.995002149943, -187500.02235174447, 53031.43597023916, 26188.37668757161, -2849.355679673634, 65081.21670260629, 29107.000423312238, 0.152, 0.986, 0.254, 192.0, 0.0, 0.0, 0.0, 0.0, 0.0, 0.0, 0.0, 0.0, 0.0, 1.6959297413961947E9, 0.0, 2023-09-28 14:35:41.396
62.0, 15112.841440777951, 19197.667443474227, 30153.084415565067, 14025.741997449637, 32027.90403698731, 6393.381225273755, -187500.02235174447, 32829.303482687894, 16967.656250912696, -25305.996871709453, -187500.02235174447, 53046.3222320464, 26157.196004056455, -2895.6461424405747, 65205.60416050007, 29095.533978406667, 0.152, 0.986, 0.254, 192.0, 0.0, 0.0, 0.0, 0.0, 0.0, 0.0, 0.0, 0.0, 0.0, 1.69592974139621E9, 0.0, 2023-09-28 14:35:41.396
64.0, 15003.094375502395, 19186.379812524297, 30189.54011077167, 14025.250259071621, 32021.779659006555, 6386.005149603504, -187500.02235174447, 32837.73009034754, 16986.968158122083, -25284.62860401018, -187500.02235174447, 53029.69253417165, 26184.24161484738, -2865.404232192544, 65087.51989454269, 29091.577719638077, 0.152, 0.986, 0.254, 192.0, 0.0, 0.0, 0.0, 0.0, 0.0, 0.0, 0.0, 0.0, 0.0, 1.695929741396224E9, 0.0, 2023-09-28 14:35:41.396
66.0, 15131.66160960932, 19196.862780673837, 30170.004686117732, 14025.987866638645, 32029.446307354727, 6398.83505092085, -187500.02235174447, 32830.488125144024, 16973.199483537614, -25303.00173795244, -187500.02235174447, 53053.81006643893, 26166.13670183858, -2887.085424314192, 65195.74704119528, 29102.910054076918, 0.152, 0.986, 0.254, 192.0, 0.0, 0.0, 0.0, 0.0, 0.0, 0.0, 0.0, 0.0, 0.0, 1.6959297413962426E9, 0.0, 2023-09-28 14:35:41.396
68.0, 14980.273244413525, 19198.3826992968, 30182.856939179535, 14045.299773848032, 32042.47737437217, 6410.055626637415, -187500.02235174447, 32850.4035294537, 16988.3092627894, -25277.856025440222, -187500.02235174447, 53039.92963313218, 26187.616728260127, -2854.18365647598, 65081.86490319549, 29097.65739412992, 0.152, 0.99, 0.258, 192.0, 2.0, 96.0, 15.0, 120.0, 4.0, 8.0, 0.0, 0.0, 0.0, 1.695929741396259E9, 0.0, 2023-09-28 14:35:41.396
70.0, 15139.618830635409, 19194.493495761573, 30184.55567175814, 14017.874183401369, 32024.730089274657, 6391.0119403614935, -187500.02235174447, 32819.669880827656, 16985.40353601021, -25294.262205870415, -187500.02235174447, 53065.54473227796, 26177.26787057732, -2870.0086915503375, 65178.89382587598, 29113.95181583784, 0.152, 0.99, 0.258, 192.0, 0.0, 0.0, 0.0, 0.0, 0.0, 0.0, 0.0, 0.0, 0.0, 1.695929741396273E9, 0.0, 2023-09-28 14:35:41.396
72.0, 14998.646378355788, 19178.444943242663, 30162.20392730283, 14021.539869492039, 32021.9584729622, 6394.811736918895, -187500.02235174447, 32836.724261847055, 16970.003184080506, -25285.276804599383, -187500.02235174447, 53021.82472012338, 26172.417542030522, -2864.6219211366083, 65092.48198181176, 29076.691457830842, 0.152, 0.99, 0.258, 192.0, 0.0, 0.0, 0.0, 0.0, 0.0, 0.0, 0.0, 0.0, 0.0, 1.6959297413962865E9, 0.0, 2023-09-28 14:35:41.396
74.0, 15155.555624432043, 19192.83946667188, 30182.25344207924, 14016.935410134247, 32024.01483345209, 6389.73789092754, -187500.02235174447, 32826.375404164246, 16970.74079164753, -25307.919121732608, -187500.02235174447, 53048.020964625, 26159.18530931298, -2887.063072569737, 65179.542026465184, 29097.746801107744, 0.152, 0.99, 0.258, 192.0, 0.0, 0.0, 0.0, 0.0, 0.0, 0.0, 0.0, 0.0, 0.0, 1.6959297413963015E9, 0.0, 2023-09-28 14:35:41.396
76.0, 14977.076944956416, 19197.533333007497, 30159.92404936839, 14043.176358124776, 32045.427804640272, 6418.392827319244, -187500.02235174447, 32855.946762078616, 16993.047832613927, -25272.133978859663, -187500.02235174447, 53041.98599362207, 26194.18814112999, -2855.345947187656, 65086.06703115309, 29089.633117870468, 0.152, 0.99, 0.258, 192.0, 0.0, 0.0, 0.0, 0.0, 0.0, 0.0, 0.0, 0.0, 0.0, 1.6959297413963137E9, 0.0, 2023-09-28 14:35:41.396
78.0, 15145.385580704879, 19183.854065400847, 30198.458456809338, 14018.097700845921, 32020.013871194587, 6393.2471148070235, -187500.02235174447, 32835.651378113194, 16981.961367364092, -25286.550854033336, -187500.02235174447, 53068.8751422018, 26174.56330949823, -2869.315787472223, 65162.17472102341, 29119.562103696124, 0.16, 0.99, 0.254, 192.0, 2.5, 0.0, 15.0, 120.0, 3.5, 120.0, 0.0, 0.0, 0.0, 1.6959297413963292E9, 0.0, 2023-09-28 14:35:41.396
80.0, 14981.815514780941, 19179.741344421072, 30146.98238932877, 14035.465006287695, 32042.589133094447, 6411.776710960474, -187500.02235174447, 32852.5045934325, 16982.073126086372, -25289.009545923418, -187500.02235174447, 53031.68183942817, 26181.13472236809, -2862.5432089022647, 65107.83763025256, 29086.258004457715, 0.16, 0.99, 0.254, 192.0, 0.0, 0.0, 0.0, 0.0, 0.0, 0.0, 0.0, 0.0, 0.0, 1.695929741396342E9, 0.0, 2023-09-28 14:35:41.396
82.0, 15126.99009501816, 19185.821018912917, 30209.120238914522, 14026.613715483394, 32032.799069023025, 6403.17128934518, -187500.02235174447, 32850.135308520235, 16979.92735861866, -25298.687851272567, -187500.02235174447, 53048.959737892124, 26179.726562467404, -2865.9406740594713, 65151.20001449586, 29125.23944678777, 0.16, 0.99, 0.254, 192.0, 0.0, 0.0, 0.0, 0.0, 0.0, 0.0, 0.0, 0.0, 0.0, 1.6959297413963547E9, 0.0, 2023-09-28 14:35:41.396
84.0, 14982.173142692227, 19177.1261903198, 30142.936723582356, 14035.085026631956, 32039.43753712625, 6416.001190662527, -187500.02235174447, 32856.95259057911, 16980.374393507765, -25281.85698769772, -187500.02235174447, 53034.38640050726, 26187.482617793397, -2854.89891229855, 65119.706406558325, 29095.869254573496, 0.16, 0.99, 0.254, 192.0, 0.0, 0.0, 0.0, 0.0, 0.0, 0.0, 0.0, 0.0, 0.0, 1.6959297413963673E9, 0.0, 2023-09-28 14:35:41.396
86.0, 15128.353551429935, 19160.205919767133, 30206.59449179107, 14008.732319919149, 32015.454115325705, 6383.50175422451, -187500.02235174447, 32832.365671678264, 16967.432733468144, -25306.130982176186, -187500.02235174447, 53041.53895873296, 26169.310649551233, -2878.9046858435495, 65138.7724445787, 29107.4698099458, 0.16, 0.99, 0.254, 192.0, 0.0, 0.0, 0.0, 0.0, 0.0, 0.0, 0.0, 0.0, 0.0, 1.6959297413963792E9, 0.0, 2023-09-28 14:35:41.396
88.0, 15013.06325352946, 19161.435265712174, 30130.598560643026, 14019.505860746607, 32034.318987645984, 6405.428815535166, -187500.02235174447, 32840.479354915544, 16965.845759611817, -25298.799609994843, -187500.02235174447, 53021.57885093437, 26174.18332984249, -2866.7676886043178, 65139.89003180147, 29082.70407708932, 0.162, 0.99, 0.25, 192.0, 2.5, 8.0, 15.0, 120.0, 3.5, 104.0, 0.0, 0.0, 0.0, 1.6959297413963916E9, 0.0, 2023-09-28 14:35:41.396
90.0, 15117.915286769306, 19153.74626561955, 30200.067782410122, 14006.206572795698, 32011.67667051276, 6383.0323675909485, -187500.02235174447, 32824.475505885544, 16963.297660743912, -25319.96671199402, -187500.02235174447, 53018.829586366366, 26164.214451815424, -2884.850249868661, 65126.076653728094, 29099.557292408623, 0.162, 0.99, 0.25, 192.0, 0.0, 0.0, 0.0, 0.0, 0.0, 0.0, 0.0, 0.0, 0.0, 1.6959297413964036E9, 0.0, 2023-09-28 14:35:41.396
92.0, 15013.487936674112, 19168.78898963797, 30116.76283082519, 14028.06657887299, 32038.230542925663, 6412.402559805222, -187500.02235174447, 32830.8010495664, 16968.77383813546, -25319.430270127094, -187500.02235174447, 53017.80140612143, 26170.875271663102, -2870.768650861818, 65144.47213941481, 29079.93246077686, 0.162, 0.99, 0.25, 192.0, 0.0, 0.0, 0.0, 0.0, 0.0, 0.0, 0.0, 0.0, 0.0, 1.695929741396418E9, 0.0, 2023-09-28 14:35:41.396
94.0, 15080.610225273398, 19152.762788863514, 30202.63823302248, 14006.854773384903, 32004.43470530924, 6380.372510000767, -187500.02235174447, 32835.13728799073, 16988.465725000588, -25302.264130385418, -187500.02235174447, 53030.18427254967, 26183.83928344718, -2868.3770142051, 65092.45963006731, 29112.275435003692, 0.162, 0.99, 0.25, 192.0, 0.0, 0.0, 0.0, 0.0, 0.0, 0.0, 0.0, 0.0, 0.0, 1.69592974139643E9, 0.0, 2023-09-28 14:35:41.396
96.0, 15023.456814701178, 19164.050419813448, 30121.143772738433, 14023.931506148758, 32036.554162091514, 6412.871946438783, -187500.02235174447, 32845.19557299562, 16963.096495043814, -25319.16204919363, -187500.02235174447, 53017.73435088806, 26159.520585479808, -2883.2632760123347, 65157.43615119889, 29074.925670018874, 0.162, 0.99, 0.25, 192.0, 0.0, 0.0, 0.0, 0.0, 0.0, 0.0, 0.0, 0.0, 0.0, 1.6959297413964424E9, 0.0, 2023-09-28 14:35:41.396
98.0, 15053.586966226932, 19123.79492804944, 30202.325308600106, 14008.933485619245, 32009.910882700788, 6382.45122223511, -187500.02235174447, 32838.668863614665, 16964.05762005539, -25321.01724398342, -187500.02235174447, 53019.25426951102, 26173.713943208928, -2874.121412530114, 65090.38091783297, 29109.727336135787, 0.164, 0.986, 0.258, 192.0, 2.5, 16.0, 15.0, 104.0, 4.0, 8.0, 0.0, 0.0, 0.0, 1.6959297413964553E9, 0.0, 2023-09-28 14:35:41.396
100.0, 15022.696855389699, 19135.84251831085, 30120.964958782788, 14027.574840494972, 32038.72228130368, 6420.002152920027, -187500.02235174447, 32845.08381427334, 16955.40749495119, -25338.764529080934, -187500.02235174447, 53021.288278256456, 26162.26985004781, -2877.8318021096948, 65166.957994336844, 29091.24244347125, 0.164, 0.986, 0.258, 192.0, 0.0, 0.0, 0.0, 0.0, 0.0, 0.0, 0.0, 0.0, 0.0, 1.6959297413964677E9, 0.0, 2023-09-28 14:35:41.396
102.0, 14996.746480077087, 19101.644349294227, 30201.65475626645, 14019.707026446704, 32018.806876994, 6404.400635290222, -187500.02235174447, 32857.91371559069, 16974.853512627305, -25326.73929056398, -187500.02235174447, 53017.37672297678, 26185.09098113668, -2848.036926750771, 65067.135103599445, 29117.14811529495, 0.164, 0.986, 0.258, 192.0, 0.0, 0.0, 0.0, 0.0, 0.0, 0.0, 0.0, 0.0, 0.0, 1.69592974139648E9, 0.0, 2023-09-28 14:35:41.396
104.0, 15026.384893224824, 19083.382974074244, 30127.24579897473, 14007.748843163115, 32024.104240429908, 6407.485176025054, -187500.02235174447, 32832.07509900035, 16938.710741843075, -25367.195948028082, -187500.02235174447, 53012.90637408572, 26152.1221580651, -2879.441127710477, 65172.41181998394, 29098.551463908134, 0.164, 0.986, 0.258, 192.0, 0.0, 0.0, 0.0, 0.0, 0.0, 0.0, 0.0, 0.0, 0.0, 1.6959297413964944E9, 0.0, 2023-09-28 14:35:41.396
106.0, 14964.582319805899, 19047.620182945753, 30183.34867755755, 14001.646816926816, 32014.425935080762, 6389.469669994077, -187500.02235174447, 32846.17904975165, 16944.030457023437, -25365.519567193936, -187500.02235174447, 52989.48174589655, 26166.628440216595, -2859.3916129340664, 65066.62101347697, 29099.266719730702, 0.164, 0.986, 0.258, 192.0, 0.0, 0.0, 0.0, 0.0, 0.0, 0.0, 0.0, 0.0, 0.0, 1.695929741396506E9, 0.0, 2023-09-28 14:35:41.396
108.0, 15028.329494992435, 19036.936049096115, 30118.327452937065, 13999.970436092668, 32028.552237576514, 6407.351065558322, -187500.02235174447, 32834.44438391261, 16909.742881028997, -25411.564160771868, -187500.02235174447, 52987.17951621766, 26133.592561911653, -2886.7501481473623, 65183.20771255586, 29087.37559168048, 0.158, 0.988, 0.258, 192.0, 2.0, 120.0, 15.0, 112.0, 4.0, 8.0, 0.0, 0.0, 0.0, 1.695929741396518E9, 0.0, 2023-09-28 14:35:41.396
110.0, 14898.868191107296, 19021.736862866506, 30166.339000027063, 14016.980113623156, 32037.62704582537, 6416.425873807178, -187500.02235174447, 32856.05852080089, 16936.564974375364, -25372.15803529716, -187500.02235174447, 52975.556609100895, 26176.37380079911, -2836.861054523117, 65053.9028708819, 29105.882836089473, 0.158, 0.988, 0.258, 192.0, 0.0, 0.0, 0.0, 0.0, 0.0, 0.0, 0.0, 0.0, 0.0, 1.69592974139653E9, 0.0, 2023-09-28 14:35:41.396
112.0, 15006.4918406596, 19018.562915153852, 30122.618987872484, 14005.334854761943, 32029.066327698987, 6409.943867915138, -187500.02235174447, 32836.76896533596, 16911.68748279661, -25388.251291304983, -187500.02235174447, 52995.29319945493, 26151.451605731443, -2869.762822361329, 65169.23787227129, 29109.056783802127, 0.158, 0.988, 0.258, 192.0, 0.0, 0.0, 0.0, 0.0, 0.0, 0.0, 0.0, 0.0, 0.0, 1.6959297413965416E9, 0.0, 2023-09-28 14:35:41.396
114.0, 14871.621414616278, 18995.697080576072, 30138.0640432911, 14014.0073316106, 32021.7573072621, 6414.570679017387, -187500.02235174447, 32867.815538384384, 16909.318197884346, -25377.969488855542, -187500.02235174447, 52966.63826306323, 26159.900565135547, -2840.951423758438, 65064.765818687185, 29099.825513342086, 0.158, 0.988, 0.258, 192.0, 0.0, 0.0, 0.0, 0.0, 0.0, 0.0, 0.0, 0.0, 0.0, 1.6959297413965545E9, 0.0, 2023-09-28 14:35:41.396
116.0, 15006.4918406596, 18989.2821299174, 30119.62385411547, 13997.57879943595, 32014.358879847394, 6407.619286491787, -187500.02235174447, 32844.189744495125, 16886.653529006664, -25418.761422486477, -187500.02235174447, 52989.79467031892, 26132.22910549988, -2866.3877089485777, 65183.386526511495, 29117.125763550495, 0.158, 0.988, 0.258, 192.0, 0.0, 0.0, 0.0, 0.0, 0.0, 0.0, 0.0, 0.0, 0.0, 1.6959297413965685E9, 0.0, 2023-09-28 14:35:41.396
118.0, 14836.529175821446, 18987.248121171968, 30126.57524664107, 14009.134651319344, 32029.446307354727, 6417.677571496674, -187500.02235174447, 32863.613410426784, 16894.81191573285, -25393.950986141084, -187500.02235174447, 52956.825847247346, 26153.46326273242, -2839.5209121132984, 65069.21381583379, 29101.457190687324, 0.158, 0.984, 0.254, 192.0, 2.0, 120.0, 15.0, 96.0, 3.5, 120.0, 0.0, 0.0, 0.0, 1.6959297413965807E9, 0.0, 2023-09-28 14:35:41.396
120.0, 14994.06427074245, 19008.728147593516, 30147.317665495597, 14007.078290829455, 32022.405507851305, 6424.8301297223725, -187500.02235174447, 32848.235410241534, 16883.72545048302, -25388.45245700508, -187500.02235174447, 52990.666388352685, 26140.052216059237, -2844.9970895048486, 65167.248567014765, 29127.832249144587, 0.158, 0.984, 0.254, 192.0, 0.0, 0.0, 0.0, 0.0, 0.0, 0.0, 0.0, 0.0, 0.0, 1.695929741876089E9, 0.0, 2023-09-28 14:35:41.876
122.0, 14833.534042064435, 19025.559011168363, 30135.20302000082, 14037.54371852204, 32031.033281211054, 6450.445228868155, -187500.02235174447, 32877.49384373353, 16895.25895062196, -25339.21156397004, -187500.02235174447, 52979.64697833622, 26155.631381944586, -2798.7066267379078, 65085.4635340528, 29122.981920597784, 0.158, 0.984, 0.254, 192.0, 0.0, 0.0, 0.0, 0.0, 0.0, 0.0, 0.0, 0.0, 0.0, 1.695929741876137E9, 0.0, 2023-09-28 14:35:41.876
124.0, 15007.117689504348, 19041.942839854102, 30163.612087203514, 14027.954820150713, 32000.545501774017, 6445.527845087987, -187500.02235174447, 32859.88066910275, 16892.129706398217, -25333.623627856214, -187500.02235174447, 53023.63521142426, 26139.69458814795, -2808.7872634872515, 65167.78500888169, 29153.7826244572, 0.158, 0.984, 0.254, 192.0, 0.0, 0.0, 0.0, 0.0, 0.0, 0.0, 0.0, 0.0, 0.0, 1.6959297418761506E9, 0.0, 2023-09-28 14:35:41.876
126.0, 14839.79253051192, 19052.939898126115, 30120.00383377121, 14047.043209915544, 32026.182952664254, 6466.426726153699, -187500.02235174447, 32881.71832343558, 16898.54465705689, -25315.786935780878, -187500.02235174447, 53006.29025772694, 26149.104672563633, -2786.212001587391, 65096.59470279154, 29129.62038870101, 0.158, 0.984, 0.254, 192.0, 0.0, 0.0, 0.0, 0.0, 0.0, 0.0, 0.0, 0.0, 0.0, 1.6959297418761628E9, 0.0, 2023-09-28 14:35:41.876
128.0, 15005.843640070396, 19044.66975267765, 30167.434235505374, 14017.002465367612, 32006.51341754358, 6429.836920480361, -187500.02235174447, 32862.94285809313, 16890.073345908328, -25320.54785734986, -187500.02235174447, 53030.58660394986, 26141.907410849028, -2805.702722752419, 65153.77046510822, 29161.739845483287, 0.154, 0.976, 0.26, 192.0, 2.0, 104.0, 15.0, 64.0, 4.0, 16.0, 0.0, 0.0, 0.0, 1.6959297418761747E9, 0.0, 2023-09-28 14:35:41.876
130.0, 14827.02968442794, 19071.11186636828, 30109.29734817712, 14045.97032618169, 32047.037130241053, 6460.391755150767, -187500.02235174447, 32885.69693394863, 16891.10152615327, -25313.194133424062, -187500.02235174447, 52997.930705300656, 26149.350541752643, -2803.869879707084, 65107.79292676365, 29121.819629886108, 0.154, 0.976, 0.26, 192.0, 0.0, 0.0, 0.0, 0.0, 0.0, 0.0, 0.0, 0.0, 0.0, 1.6959297418761888E9, 0.0, 2023-09-28 14:35:41.876
132.0, 14975.333508888902, 19069.033154133936, 30173.78213093068, 14017.941238634736, 32014.247121125118, 6429.211071635613, -187500.02235174447, 32861.91467784818, 16897.11414541175, -25291.848217469244, -187500.02235174447, 53031.480673728074, 26150.31166676422, -2800.181841871958, 65131.865755542014, 29160.845775705075, 0.154, 0.976, 0.26, 192.0, 0.0, 0.0, 0.0, 0.0, 0.0, 0.0, 0.0, 0.0, 0.0, 1.6959297418762028E9, 0.0, 2023-09-28 14:35:41.876
134.0, 14846.36394338178, 19076.0516018929, 30099.976670739255, 14030.078235873967, 32034.92248474628, 6448.99236547856, -187500.02235174447, 32873.17995705366, 16881.646738248677, -25291.647051769145, -187500.02235174447, 53005.95498156011, 26142.30974224922, -2808.7425599983408, 65122.5227263597, 29119.80797288513, 0.154, 0.976, 0.26, 192.0, 0.0, 0.0, 0.0, 0.0, 0.0, 0.0, 0.0, 0.0, 0.0, 1.6959297418762145E9, 0.0, 2023-09-28 14:35:41.876
136.0, 14980.072078713427, 19090.669642766672, 30176.48669200977, 14024.535003249051, 32014.71650775868, 6430.283955369468, -187500.02235174447, 32873.42582624267, 16884.843037705785, -25283.10868538722, -187500.02235174447, 53027.05502832592, 26141.75094863784, -2803.467548306888, 65128.04360724016, 29143.791394685675, 0.154, 0.976, 0.26, 192.0, 0.0, 0.0, 0.0, 0.0, 0.0, 0.0, 0.0, 0.0, 0.0, 1.695929741876226E9, 0.0, 2023-09-28 14:35:41.876
138.0, 14853.158873696195, 19134.45671015462, 30113.611234856995, 14067.562111325517, 32055.57549662298, 6476.507362903043, -187500.02235174447, 32904.85237894683, 16904.177296659625, -25246.496527969426, -187500.02235174447, 53047.99861288055, 26160.571117469208, -2769.7834694127405, 65136.85019455555, 29134.157792825437, 0.152, 0.976, 0.258, 192.0, 2.0, 96.0, 15.0, 64.0, 4.0, 8.0, 0.0, 0.0, 0.0, 1.6959297418762376E9, 0.0, 2023-09-28 14:35:41.876
140.0, 14962.324793615913, 19113.64723606673, 30198.771381231712, 14036.783759210559, 32008.256853611096, 6428.071132668392, -187500.02235174447, 32869.04488432943, 16907.373596116733, -25238.27108600987, -187500.02235174447, 53068.182238123685, 26158.201832556944, -2779.327664295157, 65112.68795879936, 29162.946839683875, 0.152, 0.976, 0.258, 192.0, 0.0, 0.0, 0.0, 0.0, 0.0, 0.0, 0.0, 0.0, 0.0, 1.6959297418762493E9, 0.0, 2023-09-28 14:35:41.876
142.0, 14892.743813126543, 19137.92123054519, 30112.717165078782, 14062.68943103426, 32041.091566215942, 6462.269301685012, -187500.02235174447, 32894.883500919765, 16890.92271219763, -25247.658818681102, -187500.02235174447, 53062.28137758749, 26140.70041664844, -2795.957362169905, 65164.47695070231, 29126.28997877717, 0.152, 0.976, 0.258, 192.0, 0.0, 0.0, 0.0, 0.0, 0.0, 0.0, 0.0, 0.0, 0.0, 1.6959297418762631E9, 0.0, 2023-09-28 14:35:41.876
144.0, 14957.228595880104, 19130.12047173029, 30187.036715392678, 14038.862471444902, 32011.09552515692, 6431.647411781241, -187500.02235174447, 32875.571593710374, 16899.684596024108, -25219.249751478405, -187500.02235174447, 53073.59136028187, 26153.686780176973, -2775.6843299489415, 65112.66560705491, 29158.4317873039, 0.152, 0.976, 0.258, 192.0, 0.0, 0.0, 0.0, 0.0, 0.0, 0.0, 0.0, 0.0, 0.0, 1.6959297418762748E9, 0.0, 2023-09-28 14:35:41.876
146.0, 14915.699054682143, 19163.64808841325, 30113.745345323725, 14077.776858541592, 32053.742653577647, 6473.288711701479, -187500.02235174447, 32905.07589639138, 16895.348357599778, -25219.13799275613, -187500.02235174447, 53080.52040106302, 26149.104672563633, -2780.3334927956457, 65183.878264889514, 29133.353130025047, 0.152, 0.976, 0.258, 192.0, 0.0, 0.0, 0.0, 0.0, 0.0, 0.0, 0.0, 0.0, 0.0, 1.6959297418762865E9, 0.0, 2023-09-28 14:35:41.876
148.0, 14924.840918164364, 19153.880376086283, 30193.60812826254, 14065.125771179888, 32036.643569069336, 6445.281975898979, -187500.02235174447, 32892.447160774136, 16921.365788145755, -25197.61326284567, -187500.02235174447, 53088.187049411186, 26172.395190286064, -2755.277187261246, 65103.94842671734, 29161.225755360814, 0.15, 0.978, 0.25, 192.0, 2.0, 88.0, 15.0, 72.0, 3.5, 104.0, 0.0, 0.0, 0.0, 1.695929741876298E9, 0.0, 2023-09-28 14:35:41.876
150.0, 14938.944868915662, 19165.369172736308, 30119.981482026757, 14068.925567737291, 32042.209153438707, 6466.158505220235, -187500.02235174447, 32877.71736117809, 16913.766195030952, -25200.764858813865, -187500.02235174447, 53098.178279182706, 26159.252364546344, -2763.480277476344, 65189.2873870477, 29143.52317375221, 0.15, 0.978, 0.25, 192.0, 0.0, 0.0, 0.0, 0.0, 0.0, 0.0, 0.0, 0.0, 0.0, 1.6959297418763096E9, 0.0, 2023-09-28 14:35:41.876
152.0, 14932.798139190452, 19152.427512696686, 30177.872500166002, 14057.727343765182, 32016.549350804016, 6437.8611967398165, -187500.02235174447, 32885.62987871526, 16906.658340294165, -25195.42279188905, -187500.02235174447, 53076.60884578334, 26155.69843717795, -2766.4530594888997, 65111.14568843195, 29148.842888932573, 0.15, 0.978, 0.25, 192.0, 0.0, 0.0, 0.0, 0.0, 0.0, 0.0, 0.0, 0.0, 0.0, 1.6959297418763216E9, 0.0, 2023-09-28 14:35:41.876
154.0, 14988.163410206249, 19169.817169882914, 30123.267188461687, 14067.428000858785, 32029.20043816572, 6453.015679480515, -187500.02235174447, 32877.42678850017, 16902.63502629221, -25205.45872514948, -187500.02235174447, 53102.31335190694, 26143.092053305158, -2775.5502194822097, 65215.64009376051, 29140.14806033946, 0.15, 0.978, 0.25, 192.0, 0.0, 0.0, 0.0, 0.0, 0.0, 0.0, 0.0, 0.0, 0.0, 1.6959297418763337E9, 0.0, 2023-09-28 14:35:41.876
156.0, 14932.440511279168, 19156.36141972082, 30166.651924449438, 14053.659326274315, 32015.38706009234, 6425.992420434049, -187500.02235174447, 32860.774738880966, 16903.283226881413, -25200.764858813865, -187500.02235174447, 53075.29009286047, 26148.90350686354, -2773.4938589923217, 65112.19622042134, 29131.542638724168, 0.15, 0.978, 0.25, 192.0, 0.0, 0.0, 0.0, 0.0, 0.0, 0.0, 0.0, 0.0, 0.0, 1.695929741876347E9, 0.0, 2023-09-28 14:35:41.876
158.0, 15026.988390325118, 19178.333184520387, 30132.1631827549, 14059.9178147218, 32029.692176543736, 6445.997231721549, -187500.02235174447, 32865.98269533905, 16905.518401326943, -25205.61518736067, -187500.02235174447, 53105.59905834187, 26140.432195714977, -2779.8864579065394, 65221.02686417424, 29134.29190329217, 0.152, 0.984, 0.246, 192.0, 2.0, 96.0, 15.0, 96.0, 3.5, 88.0, 0.0, 0.0, 0.0, 1.6959297418763592E9, 0.0, 2023-09-28 14:35:41.876
160.0, 14923.298647796948, 19165.905614603238, 30162.718017425304, 14062.68943103426, 32023.14311541833, 6440.074019440892, -187500.02235174447, 32873.02349484247, 16918.102433455282, -25189.70074530849, -187500.02235174447, 53085.12486042081, 26156.637210445075, -2761.3345100086344, 65104.88719998446, 29131.34147302407, 0.152, 0.984, 0.246, 192.0, 0.0, 0.0, 0.0, 0.0, 0.0, 0.0, 0.0, 0.0, 0.0, 1.695929741876371E9, 0.0, 2023-09-28 14:35:41.876
162.0, 15048.4013615133, 19187.69856544716, 30140.232162503264, 14069.573768326494, 32037.247066169628, 6452.65805156923, -187500.02235174447, 32875.70570417711, 16906.05484319387, -25202.46359139247, -187500.02235174447, 53119.010105015055, 26143.829660872183, -2780.601713729109, 65214.32134083764, 29143.09849060756, 0.152, 0.984, 0.246, 192.0, 0.0, 0.0, 0.0, 0.0, 0.0, 0.0, 0.0, 0.0, 0.0, 1.6959297418763833E9, 0.0, 2023-09-28 14:35:41.876
164.0, 14905.350196999336, 19191.096030604367, 30172.552784985637, 14082.135448710376, 32047.0147784966, 6456.882531271283, -187500.02235174447, 32891.50838750701, 16932.4969568845, -25158.54241353779, -187500.02235174447, 53102.46981411813, 26177.67020197752, -2744.414239455967, 65099.76865050419, 29140.930371395396, 0.152, 0.984, 0.246, 192.0, 0.0, 0.0, 0.0, 0.0, 0.0, 0.0, 0.0, 0.0, 0.0, 1.6959297418763947E9, 0.0, 2023-09-28 14:35:41.876
166.0, 15054.145759838315, 19202.003681898557, 30182.901642668447, 14078.156838197332, 32038.185839436752, 6450.13230444578, -187500.02235174447, 32877.180919311155, 16926.417282392656, -25169.31595436525, -187500.02235174447, 53131.70589586567, 26163.52154773731, -2759.702832663397, 65198.74217495229, 29155.280191335703, 0.152, 0.984, 0.246, 192.0, 0.0, 0.0, 0.0, 0.0, 0.0, 0.0, 0.0, 0.0, 0.0, 1.6959297418764064E9, 0.0, 2023-09-28 14:35:41.876
168.0, 14928.95363914414, 19176.008603097034, 30168.77534017269, 14069.886692748869, 32028.619292809883, 6439.336411873867, -187500.02235174447, 32874.14108206524, 16918.30359915538, -25172.713419522457, -187500.02235174447, 53094.84786925887, 26159.31941977971, -2759.9263501079504, 65115.303112900634, 29129.70979567883, 0.148, 0.99, 0.25, 192.0, 2.0, 80.0, 15.0, 120.0, 3.5, 104.0, 0.0, 0.0, 0.0, 1.6959297418764198E9, 0.0, 2023-09-28 14:35:41.876
170.0, 15094.043623691037, 19192.973577138615, 30184.890947924967, 14069.417306115307, 32039.281074915063, 6438.442342095655, -187500.02235174447, 32864.7086459051, 16906.54658157189, -25198.015594245862, -187500.02235174447, 53108.95182001017, 26142.779128882783, -2782.2333910743464, 65216.48946004981, 29138.96341788333, 0.148, 0.99, 0.25, 192.0, 0.0, 0.0, 0.0, 0.0, 0.0, 0.0, 0.0, 0.0, 0.0, 1.695929741876431E9, 0.0, 2023-09-28 14:35:41.876
172.0, 14911.921609869196, 19212.37489132582, 30177.53722399917, 14105.761242599636, 32077.34609572245, 6471.56762737842, -187500.02235174447, 32912.787248228466, 16939.962439532574, -25156.06136990325, -187500.02235174447, 53099.76525303903, 26180.88885317908, -2748.683422646931, 65126.3225229171, 29131.00619685724, 0.148, 0.99, 0.25, 192.0, 0.0, 0.0, 0.0, 0.0, 0.0, 0.0, 0.0, 0.0, 0.0, 1.6959297418764424E9, 0.0, 2023-09-28 14:35:41.876
174.0, 15078.620920016876, 19218.70043500667, 30230.22028568033, 14092.149030226354, 32059.665865858304, 6461.174066206702, -187500.02235174447, 32892.08953286285, 16948.03141928094, -25147.858279688156, -187500.02235174447, 53141.47360819264, 26188.08611489369, -2738.580434153132, 65193.2883493052, 29176.3355346126, 0.148, 0.99, 0.25, 192.0, 0.0, 0.0, 0.0, 0.0, 0.0, 0.0, 0.0, 0.0, 0.0, 1.6959297418764536E9, 0.0, 2023-09-28 14:35:41.876
176.0, 14929.065397866416, 19210.31853083593, 30176.77726468769, 14093.110155237933, 32064.091511260453, 6465.823229053406, -187500.02235174447, 32902.99718415704, 16936.16264297517, -25144.863145931144, -187500.02235174447, 53105.66611357524, 26183.19108285798, -2745.73299237883, 65143.93569754788, 29144.081967363592, 0.148, 0.99, 0.25, 192.0, 0.0, 0.0, 0.0, 0.0, 0.0, 0.0, 0.0, 0.0, 0.0, 1.6959297418764644E9, 0.0, 2023-09-28 14:35:41.876
178.0, 15090.802620745018, 19218.208696628655, 30233.662454326448, 14079.430887631284, 32054.323798933485, 6453.127438202791, -187500.02235174447, 32890.86018691781, 16934.888593541218, -25155.591983269693, -187500.02235174447, 53124.57568938443, 26175.345620554166, -2760.418088485967, 65191.12023009303, 29165.450235062868, 0.14, 0.986, 0.246, 192.0, 2.0, 48.0, 15.0, 104.0, 3.5, 88.0, 0.0, 0.0, 0.0, 1.695929741876475E9, 0.0, 2023-09-28 14:35:41.876
180.0, 14930.965296145117, 19231.2397636461, 30177.246651321253, 14102.140259997877, 32080.028305057087, 6480.575380393909, -187500.02235174447, 32904.22653010208, 16946.556204146887, -25139.185802839496, -187500.02235174447, 53108.258915932056, 26189.024888160813, -2737.5075504192773, 65151.736456362785, 29137.823478916107, 0.14, 0.986, 0.246, 192.0, 0.0, 0.0, 0.0, 0.0, 0.0, 0.0, 0.0, 0.0, 0.0, 1.6959297418764884E9, 0.0, 2023-09-28 14:35:41.876
182.0, 15078.106829894405, 19223.774280998026, 30247.90051554448, 14080.682585320781, 32053.80970881101, 6448.433571867177, -187500.02235174447, 32879.4607972456, 16946.533852402434, -25149.221736099928, -187500.02235174447, 53127.32495395243, 26183.70517298045, -2752.2373500153244, 65164.99104082478, 29172.401627588468, 0.14, 0.986, 0.246, 192.0, 0.0, 0.0, 0.0, 0.0, 0.0, 0.0, 0.0, 0.0, 0.0, 1.6959297418764997E9, 0.0, 2023-09-28 14:35:41.876
184.0, 14960.603709292855, 19235.37483637033, 30172.68689545237, 14095.658254105838, 32070.931145063776, 6470.315929688923, -187500.02235174447, 32891.374277040275, 16947.87495706975, -25144.34905580867, -187500.02235174447, 53111.56697411144, 26185.068629392223, -2750.292748247713, 65160.2301192558, 29138.874010905507, 0.14, 0.986, 0.246, 192.0, 0.0, 0.0, 0.0, 0.0, 0.0, 0.0, 0.0, 0.0, 0.0, 1.6959297418765109E9, 0.0, 2023-09-28 14:35:41.876
186.0, 15074.59760601492, 19238.772301527537, 30247.967570777844, 14088.93037902479, 32055.68725534526, 6455.161446948225, -187500.02235174447, 32886.81452117139, 16946.15387274669, -25148.21590759944, -187500.02235174447, 53122.04994226098, 26180.397114801064, -2750.024527314249, 65152.45171218535, 29159.4823192933, 0.14, 0.986, 0.246, 192.0, 0.0, 0.0, 0.0, 0.0, 0.0, 0.0, 0.0, 0.0, 0.0, 1.6959297418765223E9, 0.0, 2023-09-28 14:35:41.876
188.0, 14988.141058461793, 19226.501193821572, 30167.74715992775, 14086.203466201243, 32055.888421045354, 6455.027336481493, -187500.02235174447, 32874.27519253197, 16943.248145967504, -25138.179974339007, -187500.02235174447, 53124.262764962055, 26184.08515263619, -2745.822399356651, 65169.61785192703, 29140.975074884307, 0.14400000000000002, 0.98, 0.244, 192.0, 2.0, 64.0, 15.0, 80.0, 3.5, 80.0, 0.0, 0.0, 0.0, 1.6959297418765337E9, 0.0, 2023-09-28 14:35:41.876
190.0, 15077.88331244985, 19212.620760514827, 30234.489468871292, 14070.490189849163, 32033.402566123317, 6428.071132668392, -187500.02235174447, 32860.64062841423, 16927.154889959682, -25156.75427398137, -187500.02235174447, 53108.48243337661, 26166.80725417224, -2766.4977629778105, 65137.118415489014, 29136.772946926707, 0.14400000000000002, 0.98, 0.244, 192.0, 0.0, 0.0, 0.0, 0.0, 0.0, 0.0, 0.0, 0.0, 0.0, 1.6959297418765447E9, 0.0, 2023-09-28 14:35:41.876
192.0, 15004.480183658623, 19233.3408276249, 30161.39926450244, 14100.977969286201, 32068.427749684783, 6472.305234945445, -187500.02235174447, 32884.3111257924, 16939.78362557693, -25148.26061108835, -187500.02235174447, 53117.15491022527, 26179.592452000674, -2758.1158588070703, 65172.6800409174, 29120.5232287077, 0.14400000000000002, 0.98, 0.244, 192.0, 0.0, 0.0, 0.0, 0.0, 0.0, 0.0, 0.0, 0.0, 0.0, 1.6959297418765554E9, 0.0, 2023-09-28 14:35:41.876
194.0, 15044.914489378274, 19220.689740263195, 30235.51764911624, 14082.291910921564, 32049.47347038668, 6442.51035958652, -187500.02235174447, 32873.09055007584, 16943.4493116676, -25157.7377507374, -187500.02235174447, 53110.22586944412, 26181.98408865739, -2750.06923080316, 65104.484868584266, 29138.896362649964, 0.14400000000000002, 0.98, 0.244, 192.0, 0.0, 0.0, 0.0, 0.0, 0.0, 0.0, 0.0, 0.0, 0.0, 1.6959297418765686E9, 0.0, 2023-09-28 14:35:41.876
196.0, 15029.78235838203, 19227.775243255528, 30162.58390695857, 14087.902198779846, 32063.48801416016, 6453.328603902889, -187500.02235174447, 32867.480262217556, 16941.571765133354, -25147.21007909895, -187500.02235174447, 53125.91679405174, 26181.246481090366, -2759.5687221966655, 65175.362250252045, 29124.5241909652, 0.14400000000000002, 0.98, 0.244, 192.0, 0.0, 0.0, 0.0, 0.0, 0.0, 0.0, 0.0, 0.0, 0.0, 1.69592974187658E9, 0.0, 2023-09-28 14:35:41.876
198.0, 15039.393608497812, 19201.444888287173, 30232.88014327051, 14062.667079289804, 32039.303426659517, 6424.114873899803, -187500.02235174447, 32859.47833770255, 16942.26466921147, -25155.569631525235, -187500.02235174447, 53100.56991583943, 26182.85580669115, -2764.374347254556, 65095.18654289086, 29124.501839220746, 0.14, 0.988, 0.246, 192.0, 2.0, 48.0, 15.0, 112.0, 3.5, 88.0, 0.0, 0.0, 0.0, 1.695929741876591E9, 0.0, 2023-09-28 14:35:41.876
200.0, 15059.93486165224, 19225.964751954645, 30165.511985482215, 14081.241378932165, 32069.858261329922, 6458.245987683057, -187500.02235174447, 32877.51619547799, 16924.87501202524, -25179.73186728142, -187500.02235174447, 53100.01112222805, 26166.56138498323, -2782.278094563257, 65197.84810517408, 29108.408583212924, 0.14, 0.988, 0.246, 192.0, 0.0, 0.0, 0.0, 0.0, 0.0, 0.0, 0.0, 0.0, 0.0, 1.6959297418766017E9, 0.0, 2023-09-28 14:35:41.876
202.0, 15019.92523907724, 19204.14944936627, 30229.41562287994, 14061.460085089218, 32044.600790095425, 6429.009905935515, -187500.02235174447, 32864.35101799381, 16946.869128569262, -25142.56091625225, -187500.02235174447, 53091.31629363493, 26192.46705680693, -2745.3977162120004, 65081.79784796213, 29125.552371210146, 0.14, 0.988, 0.246, 192.0, 0.0, 0.0, 0.0, 0.0, 0.0, 0.0, 0.0, 0.0, 0.0, 1.6959297418766124E9, 0.0, 2023-09-28 14:35:41.876
204.0, 15091.026138189573, 19218.94630419568, 30174.787959431167, 14070.669003804804, 32059.35294143593, 6446.51132184402, -187500.02235174447, 32863.2557825155, 16922.97511374654, -25168.354829353673, -187500.02235174447, 53108.46008163215, 26167.388399528078, -2782.0992806076147, 65196.95403539587, 29111.560179181124, 0.14, 0.988, 0.246, 192.0, 0.0, 0.0, 0.0, 0.0, 0.0, 0.0, 0.0, 0.0, 0.0, 1.695929741876624E9, 0.0, 2023-09-28 14:35:41.876
206.0, 14998.914599289252, 19218.678083262217, 30228.32038740163, 14075.340518395964, 32056.737787334656, 6441.03514445247, -187500.02235174447, 32877.963230367095, 16940.83415756633, -25148.618238999636, -187500.02235174447, 53094.93727623669, 26193.338774840686, -2755.835980872629, 65076.4110775484, 29112.275435003692, 0.14, 0.988, 0.246, 192.0, 0.0, 0.0, 0.0, 0.0, 0.0, 0.0, 0.0, 0.0, 0.0, 1.695929741876637E9, 0.0, 2023-09-28 14:35:41.876
208.0, 15115.747167557141, 19223.2378391311, 30191.9764509173, 14062.264747889609, 32047.908848274812, 6437.771789761996, -187500.02235174447, 32859.16541328018, 16926.86431728176, -25163.45979731796, -187500.02235174447, 53119.34538118188, 26170.60705072964, -2771.92923688045, 65189.063869603146, 29116.499914705746, 0.138, 0.99, 0.246, 192.0, 2.0, 40.0, 15.0, 120.0, 3.5, 88.0, 0.0, 0.0, 0.0, 1.6959297418766487E9, 0.0, 2023-09-28 14:35:41.876
210.0, 15009.576381394432, 19204.775298211014, 30204.962814445833, 14062.488265334161, 32045.33839766245, 6426.5288623009765, -187500.02235174447, 32860.73003539205, 16929.390064405212, -25156.150776881073, -187500.02235174447, 53087.29297963298, 26178.13958861108, -2766.698928677908, 65082.42369680687, 29099.132609263972, 0.138, 0.99, 0.246, 192.0, 0.0, 0.0, 0.0, 0.0, 0.0, 0.0, 0.0, 0.0, 0.0, 1.6959297418766608E9, 0.0, 2023-09-28 14:35:41.876
212.0, 15164.496322214167, 19208.23981860159, 30183.59454674656, 14041.25410810162, 32027.166429420286, 6412.156690616213, -187500.02235174447, 32835.56197113538, 16909.742881028997, -25177.51904458035, -187500.02235174447, 53107.85658453186, 26151.585716198173, -2790.9505714119164, 65198.429250529916, 29104.027641299683, 0.138, 0.99, 0.246, 192.0, 0.0, 0.0, 0.0, 0.0, 0.0, 0.0, 0.0, 0.0, 0.0, 1.6959297418766725E9, 0.0, 2023-09-28 14:35:41.876
214.0, 15015.83486984192, 19212.352539581363, 30189.987145660776, 14065.796323513547, 32044.734900562158, 6431.93798445916, -187500.02235174447, 32865.580363938854, 16920.695235812098, -25163.32568685123, -187500.02235174447, 53080.028662685, 26165.577908227195, -2776.64545496052, 65091.5655602891, 29082.212338711302, 0.138, 0.99, 0.246, 192.0, 0.0, 0.0, 0.0, 0.0, 0.0, 0.0, 0.0, 0.0, 0.0, 1.6959297418766837E9, 0.0, 2023-09-28 14:35:41.876
216.0, 15174.644014196876, 19222.81315598645, 30208.36027960304, 14054.262823374609, 32037.67174931428, 6426.171234389692, -187500.02235174447, 32851.85639284329, 16927.53486961542, -25167.79603574229, -187500.02235174447, 53118.27249744803, 26166.650791961052, -2778.3665392835783, 65184.302948034165, 29114.063574560118, 0.138, 0.99, 0.246, 192.0, 0.0, 0.0, 0.0, 0.0, 0.0, 0.0, 0.0, 0.0, 0.0, 1.695929741876695E9, 0.0, 2023-09-28 14:35:41.876
218.0, 15009.35286394988, 19218.14164139529, 30187.550805515148, 14067.606814814428, 32046.701854074225, 6431.289783869956, -187500.02235174447, 32861.89232610373, 16936.050884252894, -25156.55310828127, -187500.02235174447, 53091.78568026849, 26181.55940551274, -2764.441402487922, 65094.56069404611, 29086.235652713258, 0.138, 0.984, 0.234, 192.0, 2.0, 40.0, 15.0, 96.0, 3.5, 40.0, 0.0, 0.0, 0.0, 1.6959297418767064E9, 0.0, 2023-09-28 14:35:41.876
220.0, 15184.523485246122, 19215.817059971938, 30206.12510515751, 14043.981020925168, 32032.217923667187, 6416.64939125173, -187500.02235174447, 32841.3510729493, 16924.517384113955, -25188.337288896717, -187500.02235174447, 53109.75648281056, 26158.13477732358, -2789.9670946558826, 65180.79372415468, 29107.4698099458, 0.138, 0.984, 0.234, 192.0, 0.0, 0.0, 0.0, 0.0, 0.0, 0.0, 0.0, 0.0, 0.0, 1.6959297418767197E9, 0.0, 2023-09-28 14:35:41.876
222.0, 14997.528791133022, 19224.84716473188, 30174.74325594226, 14071.83129451648, 32057.05071175703, 6439.805798507428, -187500.02235174447, 32876.286849532946, 16942.175262233646, -25159.749407738378, -187500.02235174447, 53090.60103781236, 26188.823722460715, -2767.1459635670144, 65086.424659064374, 29085.94508003534, 0.138, 0.984, 0.234, 192.0, 0.0, 0.0, 0.0, 0.0, 0.0, 0.0, 0.0, 0.0, 0.0, 1.6959297418767312E9, 0.0, 2023-09-28 14:35:41.876
224.0, 15181.707165444752, 19212.866629703836, 30219.916131486432, 14037.878994688868, 32027.747574776124, 6407.93221091416, -187500.02235174447, 32835.42786066864, 16929.367712660758, -25180.536530081812, -187500.02235174447, 53111.8351950449, 26164.236803559877, -2789.5647632556875, 65158.06200004363, 29115.29292050516, 0.138, 0.984, 0.234, 192.0, 0.0, 0.0, 0.0, 0.0, 0.0, 0.0, 0.0, 0.0, 0.0, 1.6959297418767426E9, 0.0, 2023-09-28 14:35:41.876
226.0, 15001.172125479237, 19232.379702613318, 30171.21168031832, 14080.190846942765, 32065.745540350144, 6452.836865524872, -187500.02235174447, 32875.12455882127, 16938.82250056535, -25157.022494914832, -187500.02235174447, 53089.014063956034, 26179.435989789486, -2762.697966420408, 65104.88719998446, 29080.021867754684, 0.138, 0.984, 0.234, 192.0, 0.0, 0.0, 0.0, 0.0, 0.0, 0.0, 0.0, 0.0, 0.0, 1.695929741876754E9, 0.0, 2023-09-28 14:35:41.876
228.0, 15159.981269834194, 19217.67225476173, 30233.528343859714, 14059.001393199134, 32035.72714754667, 6424.047818666437, -187500.02235174447, 32859.70185514711, 16943.985753534525, -25155.569631525235, -187500.02235174447, 53122.9887155281, 26176.37380079911, -2765.7601554107855, 65135.3749794215, 29132.302598035647, 0.138, 0.992, 0.234, 192.0, 2.0, 40.0, 15.5, 0.0, 3.5, 40.0, 0.0, 0.0, 0.0, 1.6959297418767655E9, 0.0, 2023-09-28 14:35:41.876
230.0, 15000.434517912212, 19232.75968226906, 30171.25638380723, 14090.964387770224, 32067.10899676192, 6457.530731860487, -187500.02235174447, 32878.83494840085, 16942.421131422656, -25146.45011978747, -187500.02235174447, 53102.96155249615, 26186.47678929291, -2749.7563063807856, 65115.95131348984, 29097.880911574473, 0.138, 0.992, 0.234, 192.0, 0.0, 0.0, 0.0, 0.0, 0.0, 0.0, 0.0, 0.0, 0.0, 1.6959297418767767E9, 0.0, 2023-09-28 14:35:41.876
232.0, 15141.675191125298, 19221.740272252595, 30250.26980045674, 14065.550454324539, 32032.284978900552, 6425.344219844845, -187500.02235174447, 32857.24316325702, 16948.277288469948, -25148.037093643798, -187500.02235174447, 53126.16266324076, 26184.822760203217, -2751.410335470478, 65120.2204966808, 29135.85652540404, 0.138, 0.992, 0.234, 192.0, 0.0, 0.0, 0.0, 0.0, 0.0, 0.0, 0.0, 0.0, 0.0, 1.69592974187679E9, 0.0, 2023-09-28 14:35:41.876
234.0, 15033.246878772603, 19222.00849318606, 30161.466319735806, 14075.273463162597, 32042.119746460885, 6441.593938063853, -187500.02235174447, 32861.84762261482, 16930.038264994415, -25148.953515166464, -187500.02235174447, 53106.33666590889, 26170.0259053738, -2763.9496641099054, 65141.29819170215, 29099.803161597632, 0.138, 0.992, 0.234, 192.0, 0.0, 0.0, 0.0, 0.0, 0.0, 0.0, 0.0, 0.0, 0.0, 1.6959297418768015E9, 0.0, 2023-09-28 14:35:41.876
236.0, 15148.067790039515, 19202.69658597667, 30234.243599682286, 14049.010163427612, 32006.66987975477, 6409.943867915138, -187500.02235174447, 32843.80976483939, 16918.974151489037, -25168.757160753867, -187500.02235174447, 53104.03443623, 26158.201832556944, -2770.4316700019444, 65122.098043215046, 29118.444516473355, 0.138, 0.992, 0.234, 192.0, 0.0, 0.0, 0.0, 0.0, 0.0, 0.0, 0.0, 0.0, 0.0, 1.695929741876813E9, 0.0, 2023-09-28 14:35:41.876
238.0, 15052.670544704264, 19216.0852809054, 30158.11355806751, 14072.904178250335, 32043.8631825284, 6443.0244497089925, -187500.02235174447, 32859.38893072474, 16919.48824161151, -25163.70566650697, -187500.02235174447, 53099.27351466102, 26162.98510587038, -2768.7329374233414, 65152.071732529614, 29096.651565629432, 0.14, 0.996, 0.224, 192.0, 2.0, 48.0, 15.5, 16.0, 3.5, 0.0, 0.0, 0.0, 0.0, 1.6959297418768244E9, 0.0, 2023-09-28 14:35:41.876
240.0, 15124.84432755045, 19207.211638356643, 30242.200820708375, 14060.521311822095, 32021.91376947329, 6420.091559897847, -187500.02235174447, 32854.046863799915, 16932.608715606777, -25154.608506513658, -187500.02235174447, 53107.43190138721, 26170.04825711826, -2764.5308094657435, 65105.13306917347, 29121.417298485914, 0.14, 0.996, 0.224, 192.0, 0.0, 0.0, 0.0, 0.0, 0.0, 0.0, 0.0, 0.0, 0.0, 1.6959297418768358E9, 0.0, 2023-09-28 14:35:41.876
242.0, 15089.573274799977, 19209.022129657526, 30154.090244065555, 14060.074276932988, 32038.8116882815, 6427.355876845822, -187500.02235174447, 32842.64747412771, 16914.72732004253, -25174.859186990165, -187500.02235174447, 53102.9839042406, 26153.3738557546, -2783.6639027194865, 65175.87634037452, 29091.84594057154, 0.14, 0.996, 0.224, 192.0, 0.0, 0.0, 0.0, 0.0, 0.0, 0.0, 0.0, 0.0, 0.0, 1.695929742357185E9, 0.0, 2023-09-28 14:35:42.357
244.0, 15112.506164611123, 19205.624664500316, 30236.858753783556, 14065.438695602263, 32027.68051954276, 6424.27133611099, -187500.02235174447, 32864.79805288292, 16929.25595393848, -25154.384989069105, -187500.02235174447, 53102.447462373675, 26173.33396355319, -2760.0157570857714, 65099.67924352637, 29114.600016427044, 0.14, 0.996, 0.224, 192.0, 0.0, 0.0, 0.0, 0.0, 0.0, 0.0, 0.0, 0.0, 0.0, 1.6959297423572693E9, 0.0, 2023-09-28 14:35:42.357
246.0, 15106.47119360819, 19221.270885619033, 30159.63347669047, 14072.926529994791, 32047.48416513016, 6441.660993297219, -187500.02235174447, 32849.26359048648, 16918.616523577755, -25163.906832207067, -187500.02235174447, 53112.75161656757, 26161.04050410277, -2774.1420595815252, 65186.62752945752, 29102.440667443356, 0.14, 0.996, 0.224, 192.0, 0.0, 0.0, 0.0, 0.0, 0.0, 0.0, 0.0, 0.0, 0.0, 1.6959297423572931E9, 0.0, 2023-09-28 14:35:42.357
248.0, 15083.73946949714, 19212.33018783691, 30231.561390347648, 14065.125771179888, 32035.8612580134, 6425.903013456227, -187500.02235174447, 32865.5580121944, 16941.30354419989, -25143.432634286004, -187500.02235174447, 53105.50965136405, 26184.80040845876, -2754.6289866720426, 65085.2623683527, 29114.220036771305, 0.136, 0.998, 0.214, 192.0, 2.0, 32.0, 15.5, 24.0, 3.0, 88.0, 0.0, 0.0, 0.0, 1.695929742357312E9, 0.0, 2023-09-28 14:35:42.357
250.0, 15136.266068967114, 19227.57407755543, 30171.21168031832, 14066.846855502947, 32042.92440926128, 6435.581318805375, -187500.02235174447, 32848.97301780856, 16926.998427748495, -25164.59973628518, -187500.02235174447, 53119.8371195599, 26163.45449250394, -2772.6891961919305, 65191.88018940452, 29106.91101633442, 0.136, 0.998, 0.214, 192.0, 0.0, 0.0, 0.0, 0.0, 0.0, 0.0, 0.0, 0.0, 0.0, 1.6959297423573315E9, 0.0, 2023-09-28 14:35:42.357
252.0, 15076.922187438273, 19219.885077462804, 30225.74993678927, 14068.746753781648, 32027.0099672091, 6421.8349959653615, -187500.02235174447, 32858.04782605742, 16943.628125623243, -25138.5823057392, -187500.02235174447, 53111.20934620015, 26178.184292099988, -2750.650376158998, 65089.19627537683, 29113.95181583784, 0.136, 0.998, 0.214, 192.0, 0.0, 0.0, 0.0, 0.0, 0.0, 0.0, 0.0, 0.0, 0.0, 1.69592974235735E9, 0.0, 2023-09-28 14:35:42.357
254.0, 15154.885072098385, 19230.05512118997, 30181.582889745583, 14070.199617171244, 32047.506516874615, 6430.485121069565, -187500.02235174447, 32856.93023883465, 16927.82544229334, -25159.190614126997, -187500.02235174447, 53126.47558766313, 26162.448664003452, -2774.3208735371677, 65198.45160227438, 29111.783696625676, 0.136, 0.998, 0.214, 192.0, 0.0, 0.0, 0.0, 0.0, 0.0, 0.0, 0.0, 0.0, 0.0, 1.6959297423573685E9, 0.0, 2023-09-28 14:35:42.357
0.0, 15055.17394008326, 19216.129984394312, 30218.0832884411, 14070.132561937877, 32034.67661555727, 6414.883603439761, -187500.02235174447, 32855.74559637852, 16946.332686702335, -25142.806785441255, -187500.02235174447, 53108.54948860997, 26182.632289246594, -2756.417126228467, 65084.30124334112, 29107.04512680115, 0.136, 0.998, 0.214, 192.0, 0.0, 0.0, 0.0, 0.0, 0.0, 0.0, 0.0, 0.0, 0.0, 1.6959297423573897E9, 0.0, 2023-09-28 14:35:42.357
2.0, 15170.464237983733, 19238.48172884962, 30189.853035194046, 14080.526123109596, 32044.801955795523, 6437.727086273085, -187500.02235174447, 32859.07600630236, 16936.095587741806, -25160.062332160753, -187500.02235174447, 53140.44542794769, 26165.667315205017, -2772.3092165361904, 65202.698433720885, 29112.968339081806, 0.136, 0.996, 0.21, 192.0, 2.0, 32.0, 15.5, 16.0, 3.0, 72.0, 0.0, 0.0, 0.0, 1.695929742357411E9, 0.0, 2023-09-28 14:35:42.357
4.0, 15035.16912879576, 19229.496327578585, 30204.51577955673, 14084.728251067192, 32043.192630194742, 6430.306307113923, -187500.02235174447, 32866.96617209508, 16953.373486205757, -25131.519154491325, -187500.02235174447, 53124.35217193987, 26187.974356171413, -2739.005117297783, 65090.917359699895, 29111.895455347953, 0.136, 0.996, 0.21, 192.0, 0.0, 0.0, 0.0, 0.0, 0.0, 0.0, 0.0, 0.0, 0.0, 1.6959297423574312E9, 0.0, 2023-09-28 14:35:42.357
6.0, 15172.677060684808, 19237.162975926756, 30194.144570129465, 14071.384259627373, 32033.603731823416, 6429.859272224817, -187500.02235174447, 32848.61538989728, 16944.11986400126, -25150.07110238923, -187500.02235174447, 53148.2461867626, 26169.42240827351, -2765.8942658775172, 65189.130924836514, 29120.500876963244, 0.136, 0.996, 0.21, 192.0, 0.0, 0.0, 0.0, 0.0, 0.0, 0.0, 0.0, 0.0, 0.0, 1.6959297423574483E9, 0.0, 2023-09-28 14:35:42.357
8.0, 15032.844547372408, 19222.61199028635, 30192.468189295316, 14077.039250974567, 32035.034243468555, 6424.785426233462, -187500.02235174447, 32862.4064162262, 16945.59507913531, -25132.368520780627, -187500.02235174447, 53120.41826491574, 26180.352411312153, -2753.4666959603665, 65091.87848471147, 29101.256024987226, 0.136, 0.996, 0.21, 192.0, 0.0, 0.0, 0.0, 0.0, 0.0, 0.0, 0.0, 0.0, 0.0, 1.6959297423574667E9, 0.0, 2023-09-28 14:35:42.357
10.0, 15203.29895058858, 19215.41472857174, 30199.531340543195, 14055.156893152822, 32017.756345004604, 6410.748530715529, -187500.02235174447, 32836.63485486923, 16928.74186381601, -25161.02345717233, -187500.02235174447, 53140.42307620324, 26158.2241843014, -2781.696949207419, 65195.7917446842, 29114.018871071206, 0.136, 0.996, 0.21, 192.0, 0.0, 0.0, 0.0, 0.0, 0.0, 0.0, 0.0, 0.0, 0.0, 1.6959297423574853E9, 0.0, 2023-09-28 14:35:42.357
12.0, 15018.852355343386, 19225.115385665344, 30176.821968176602, 14084.102402222445, 32045.494859873637, 6436.65420253923, -187500.02235174447, 32870.38598899674, 16944.253974467993, -25149.7358262224, -187500.02235174447, 53113.5339276235, 26182.118199124125, -2751.633852915031, 65107.21178140781, 29093.388210938956, 0.134, 0.996, 0.214, 192.0, 2.0, 24.0, 15.5, 16.0, 3.0, 88.0, 0.0, 0.0, 0.0, 1.6959297423575056E9, 0.0, 2023-09-28 14:35:42.357
14.0, 15187.138639347391, 19231.440929346198, 30206.102753413055, 14063.807018257025, 32018.136324660343, 6415.509452284509, -187500.02235174447, 32844.949703806604, 16943.225794223046, -25164.398570585083, -187500.02235174447, 53140.825407603435, 26165.734370438382, -2767.056556589193, 65179.87730263201, 29122.847810131054, 0.134, 0.996, 0.214, 192.0, 0.0, 0.0, 0.0, 0.0, 0.0, 0.0, 0.0, 0.0, 0.0, 1.6959297423575273E9, 0.0, 2023-09-28 14:35:42.357
16.0, 15010.381044194824, 19217.918123950734, 30168.35065702804, 14077.106306207932, 32045.53956336255, 6434.620193793798, -187500.02235174447, 32869.290753518435, 16950.423055937656, -25159.8388147162, -187500.02235174447, 53107.342494409386, 26177.84901593316, -2758.518190207266, 65108.17290641939, 29095.064591773105, 0.134, 0.996, 0.214, 192.0, 0.0, 0.0, 0.0, 0.0, 0.0, 0.0, 0.0, 0.0, 0.0, 1.6959297423575456E9, 0.0, 2023-09-28 14:35:42.357
18.0, 15159.266014011624, 19213.648940759773, 30228.722718801826, 14077.486285863673, 32030.899170744324, 6427.020600678993, -187500.02235174447, 32864.507480205, 16948.07612276985, -25181.207082415473, -187500.02235174447, 53137.47264593514, 26179.45834153394, -2772.152754325003, 65160.61009891154, 29140.550391739656, 0.134, 0.996, 0.214, 192.0, 0.0, 0.0, 0.0, 0.0, 0.0, 0.0, 0.0, 0.0, 0.0, 1.6959297423575647E9, 0.0, 2023-09-28 14:35:42.357
20.0, 15012.683273873721, 19185.84337065737, 30155.16312779941, 14064.1199426794, 32027.72522303167, 6420.002152920027, -187500.02235174447, 32847.609561396785, 16938.263706953967, -25182.21291091596, -187500.02235174447, 53106.24725893108, 26170.987030385382, -2771.5939607136206, 65133.18450846488, 29100.652527886934, 0.134, 0.996, 0.214, 192.0, 0.0, 0.0, 0.0, 0.0, 0.0, 0.0, 0.0, 0.0, 0.0, 1.6959297423575835E9, 0.0, 2023-09-28 14:35:42.357
22.0, 15155.756790132142, 19170.375963494298, 30210.416640092928, 14046.35030583743, 32007.854522210902, 6399.4608997656, -187500.02235174447, 32828.76704082097, 16921.96928524605, -25211.046661263306, -187500.02235174447, 53110.94112526669, 26156.972486611903, -2785.0050073868047, 65160.49834018926, 29117.595150184054, 0.14400000000000002, 0.998, 0.216, 192.0, 2.0, 64.0, 15.5, 24.0, 3.0, 96.0, 0.0, 0.0, 0.0, 1.695929742357607E9, 0.0, 2023-09-28 14:35:42.357
24.0, 15013.286770974013, 19157.50135868804, 30121.81432507209, 14057.101494920433, 32027.05467069801, 6423.17610063268, -187500.02235174447, 32849.48710793103, 16911.128689185225, -25222.244885235417, -187500.02235174447, 53083.33672086438, 26151.69747492045, -2794.348036569123, 65152.09408427407, 29081.318268933093, 0.14400000000000002, 0.998, 0.216, 192.0, 0.0, 0.0, 0.0, 0.0, 0.0, 0.0, 0.0, 0.0, 0.0, 1.6959297423576262E9, 0.0, 2023-09-28 14:35:42.357
26.0, 15112.997902989138, 19137.585954378363, 30202.9288057004, 14041.92466043528, 32015.76703974808, 6412.64842899423, -187500.02235174447, 32849.64357014222, 16922.081043968326, -25229.799774861312, -187500.02235174447, 53092.38917736879, 26164.08034134869, -2779.1935538284247, 65131.55283111964, 29123.183086297882, 0.14400000000000002, 0.998, 0.216, 192.0, 0.0, 0.0, 0.0, 0.0, 0.0, 0.0, 0.0, 0.0, 0.0, 1.6959297423576488E9, 0.0, 2023-09-28 14:35:42.357
28.0, 14989.325700917925, 19129.53932637445, 30118.640377359436, 14061.527140322583, 32034.184877179254, 6434.08375192687, -187500.02235174447, 32860.52886969195, 16914.190878175603, -25243.83667037924, -187500.02235174447, 53073.25608411504, 26159.78880641327, -2784.826193431162, 65148.38369469449, 29097.098600518537, 0.14400000000000002, 0.998, 0.216, 192.0, 0.0, 0.0, 0.0, 0.0, 0.0, 0.0, 0.0, 0.0, 0.0, 1.695929742357672E9, 0.0, 2023-09-28 14:35:42.357
30.0, 15067.22153034467, 19088.903854954704, 30191.59647126156, 14031.77696845257, 32003.518283786572, 6400.019693376982, -187500.02235174447, 32846.33551196283, 16916.470756110044, -25263.774426433378, -187500.02235174447, 53066.59526426736, 26159.475881990897, -2791.93404816795, 65111.63742680996, 29120.836153130076, 0.14400000000000002, 0.998, 0.216, 192.0, 0.0, 0.0, 0.0, 0.0, 0.0, 0.0, 0.0, 0.0, 0.0, 1.6959297423576913E9, 0.0, 2023-09-28 14:35:42.357
32.0, 14981.435535125202, 19099.476230082062, 30100.53546435064, 14047.73611399366, 32039.303426659517, 6425.500682056032, -187500.02235174447, 32854.806823111394, 16899.170505901635, -25290.73063024648, -187500.02235174447, 53050.39024953726, 26147.98708534087, -2812.7211705113855, 65161.6829826454, 29092.13651324946, 0.156, 1.004, 0.212, 192.0, 2.0, 112.0, 15.5, 48.0, 3.0, 80.0, 0.0, 0.0, 0.0, 1.695929742357712E9, 0.0, 2023-09-28 14:35:42.357
34.0, 15015.968980308651, 19075.2022356036, 30190.702401483348, 14040.047113901033, 32019.075097927464, 6414.682437739663, -187500.02235174447, 32863.52400344897, 16915.800203776384, -25280.560586519314, -187500.02235174447, 53058.01219439652, 26170.160015840534, -2797.7231499818745, 65093.86778996799, 29116.924597850397, 0.156, 1.004, 0.212, 192.0, 0.0, 0.0, 0.0, 0.0, 0.0, 0.0, 0.0, 0.0, 0.0, 1.695929742357732E9, 0.0, 2023-09-28 14:35:42.357
36.0, 14979.490933357589, 19080.521950783965, 30109.0067754992, 14048.674887260782, 32024.86419974139, 6438.375286862289, -187500.02235174447, 32851.6552271432, 16903.4396890926, -25297.793781494354, -187500.02235174447, 53063.19779911015, 26154.804367399738, -2796.292638336735, 65174.26701477373, 29102.552426165632, 0.156, 1.004, 0.212, 192.0, 0.0, 0.0, 0.0, 0.0, 0.0, 0.0, 0.0, 0.0, 0.0, 1.6959297423577504E9, 0.0, 2023-09-28 14:35:42.357
38.0, 14969.790276263986, 19074.419924547663, 30185.047410136154, 14045.232718614665, 31998.51149302858, 6416.6717429961855, -187500.02235174447, 32838.28888395892, 16916.068424709847, -25279.48770278546, -187500.02235174447, 53056.11229611782, 26163.119216337112, -2775.5725712266653, 65081.954310173314, 29113.795353626654, 0.156, 1.004, 0.212, 192.0, 0.0, 0.0, 0.0, 0.0, 0.0, 0.0, 0.0, 0.0, 0.0, 1.6959297423577888E9, 0.0, 2023-09-28 14:35:42.357
40.0, 14974.01475596604, 19070.28485182343, 30110.794915055623, 14042.192881368743, 32015.252949625607, 6433.055571681925, -187500.02235174447, 32836.88072405824, 16904.423165848635, -25297.7714297499, -187500.02235174447, 53061.20849385363, 26147.182422540478, -2793.9457051689274, 65173.752924651264, 29106.151057022937, 0.156, 1.004, 0.212, 192.0, 0.0, 0.0, 0.0, 0.0, 0.0, 0.0, 0.0, 0.0, 0.0, 1.6959297423578112E9, 0.0, 2023-09-28 14:35:42.357
42.0, 14936.217956092116, 19032.644514160696, 30172.932764641377, 14022.545697992527, 31997.1033331279, 6397.382187531256, -187500.02235174447, 32837.50657290299, 16908.245314150492, -25313.39529912416, -187500.02235174447, 53033.9170138737, 26159.475881990897, -2789.542411511232, 65077.95334791581, 29113.594187926556, 0.152, 0.998, 0.214, 192.0, 2.0, 96.0, 15.5, 24.0, 3.0, 88.0, 0.0, 0.0, 0.0, 1.6959297423578312E9, 0.0, 2023-09-28 14:35:42.357
44.0, 14996.522962632533, 19016.215981986046, 30108.58209235455, 14002.697348916216, 32011.788429235035, 6393.515335740488, -187500.02235174447, 32819.35695640528, 16877.5340172689, -25355.371875211225, -187500.02235174447, 53030.7654179055, 26135.291294490256, -2834.156493444025, 65186.73928817979, 29095.086943517563, 0.152, 0.998, 0.214, 192.0, 0.0, 0.0, 0.0, 0.0, 0.0, 0.0, 0.0, 0.0, 0.0, 1.695929742357849E9, 0.0, 2023-09-28 14:35:42.357
46.0, 14906.423080733191, 19005.442441158586, 30145.820098617092, 14001.736223904638, 32007.988632677632, 6393.872963651773, -187500.02235174447, 32831.51630538896, 16875.589415501287, -25361.943288081085, -187500.02235174447, 52986.12898422826, 26141.058044559726, -2834.7152870554078, 65077.483961282254, 29082.167635222395, 0.152, 0.998, 0.214, 192.0, 0.0, 0.0, 0.0, 0.0, 0.0, 0.0, 0.0, 0.0, 0.0, 1.695929742357868E9, 0.0, 2023-09-28 14:35:42.357
48.0, 14998.668730100242, 18994.04305148638, 30110.32552842206, 13993.823706367459, 32012.928368202254, 6401.226687577569, -187500.02235174447, 32836.925427547154, 16876.885816679696, -25375.175520798628, -187500.02235174447, 53013.35340897482, 26136.475936946386, -2843.9465575154495, 65179.36321250954, 29100.987804053762, 0.152, 0.998, 0.214, 192.0, 0.0, 0.0, 0.0, 0.0, 0.0, 0.0, 0.0, 0.0, 0.0, 1.695929742357886E9, 0.0, 2023-09-28 14:35:42.357
50.0, 14871.777876827466, 18978.575644323308, 30130.53150540966, 13999.366938992374, 32004.255891353598, 6401.427853277666, -187500.02235174447, 32847.98954105253, 16877.042278890884, -25370.906337607663, -187500.02235174447, 52972.06973696587, 26147.517698707306, -2828.903833497028, 65066.66571696589, 29084.827492812576, 0.152, 0.998, 0.214, 192.0, 0.0, 0.0, 0.0, 0.0, 0.0, 0.0, 0.0, 0.0, 0.0, 1.6959297423579044E9, 0.0, 2023-09-28 14:35:42.357
52.0, 14986.643491583287, 18975.31228963283, 30115.332319180052, 13992.683767400238, 32019.946815961222, 6402.456033522611, -187500.02235174447, 32834.15381123469, 16862.446589761566, -25390.88879715071, -187500.02235174447, 52992.70039709812, 26129.74806186534, -2849.2439209513573, 65175.630471185505, 29093.589376639055, 0.146, 0.994, 0.216, 192.0, 2.0, 72.0, 15.5, 8.0, 3.0, 96.0, 0.0, 0.0, 0.0, 1.6959297423579264E9, 0.0, 2023-09-28 14:35:42.357
54.0, 14836.260954887983, 18963.264699371422, 30125.56941814058, 13996.595322679917, 32020.438554339238, 6393.358873529301, -187500.02235174447, 32844.25679972849, 16880.953834170563, -25377.969488855542, -187500.02235174447, 52964.47014385106, 26156.592506956164, -2829.574385830687, 65066.3080890546, 29081.094751488537, 0.146, 0.994, 0.216, 192.0, 0.0, 0.0, 0.0, 0.0, 0.0, 0.0, 0.0, 0.0, 0.0, 1.695929742357947E9, 0.0, 2023-09-28 14:35:42.357
56.0, 14987.470506128135, 18960.068399914315, 30120.339109938042, 13978.848037582404, 32013.1071821579, 6379.791364644929, -187500.02235174447, 32819.46871512756, 16867.38632528619, -25414.045204406408, -187500.02235174447, 52978.03765273543, 26130.820945599193, -2863.1914094914687, 65176.01045084125, 29083.687553845353, 0.146, 0.994, 0.216, 192.0, 0.0, 0.0, 0.0, 0.0, 0.0, 0.0, 0.0, 0.0, 0.0, 1.6959297423579705E9, 0.0, 2023-09-28 14:35:42.357
58.0, 14814.535059277423, 18953.251117855445, 30104.20115044131, 13989.107488287389, 32023.34428111843, 6384.59698970282, -187500.02235174447, 32820.273377927944, 16870.493217765477, -25405.998576402497, -187500.02235174447, 52948.712164010074, 26149.03761733027, -2850.3615081741227, 65074.7123449698, 29057.200736665814, 0.146, 0.994, 0.216, 192.0, 0.0, 0.0, 0.0, 0.0, 0.0, 0.0, 0.0, 0.0, 0.0, 1.6959297423579912E9, 0.0, 2023-09-28 14:35:42.357
60.0, 14975.333508888902, 18948.534899775375, 30121.993139027734, 13971.226092723144, 32001.216054107674, 6372.191771530124, -187500.02235174447, 32816.47358137054, 16859.965546127027, -25431.837192992833, -187500.02235174447, 52972.2038474326, 26130.753890365828, -2868.0864415271813, 65165.66159315844, 29071.95288800632, 0.146, 0.994, 0.216, 192.0, 0.0, 0.0, 0.0, 0.0, 0.0, 0.0, 0.0, 0.0, 0.0, 1.6959297423580124E9, 0.0, 2023-09-28 14:35:42.358
62.0, 14816.211440111572, 18919.008245349916, 30077.446112328307, 13967.493351399107, 32001.283109341042, 6370.314224995879, -187500.02235174447, 32816.56298834836, 16855.741066424976, -25442.141347186727, -187500.02235174447, 52934.0941231363, 26131.35738746612, -2870.120450272614, 65091.342042844546, 29045.957809204796, 0.14400000000000002, 0.994, 0.212, 192.0, 2.0, 64.0, 15.5, 8.0, 3.0, 80.0, 0.0, 0.0, 0.0, 1.695929742358031E9, 0.0, 2023-09-28 14:35:42.358
64.0, 14973.925348988218, 18930.36293153321, 30116.204037213807, 13969.035621766523, 32001.037240152033, 6369.286044750935, -187500.02235174447, 32815.40069763669, 16848.09676982126, -25450.523251357467, -187500.02235174447, 52961.162085671676, 26120.226218727377, -2875.9095520865385, 65150.685924373385, 29071.841129284043, 0.14400000000000002, 0.994, 0.212, 192.0, 0.0, 0.0, 0.0, 0.0, 0.0, 0.0, 0.0, 0.0, 0.0, 1.69592974235805E9, 0.0, 2023-09-28 14:35:42.358
66.0, 14783.510837973457, 18934.162728090614, 30077.42376058385, 13995.365976734874, 32047.126537218875, 6401.31609455539, -187500.02235174447, 32844.43561368413, 16872.728392211007, -25440.710835541588, -187500.02235174447, 52947.90750120968, 26153.239745287865, -2855.860037310128, 65085.4635340528, 29056.574887821065, 0.14400000000000002, 0.994, 0.212, 192.0, 0.0, 0.0, 0.0, 0.0, 0.0, 0.0, 0.0, 0.0, 0.0, 1.6959297423580737E9, 0.0, 2023-09-28 14:35:42.358
68.0, 14951.57360453291, 18902.825582364272, 30124.250665217718, 13950.640136079805, 31989.123760357354, 6357.1490475117025, -187500.02235174447, 32805.85650275427, 16862.3795345282, -25472.159739990206, -187500.02235174447, 52960.89386473822, 26135.537163679262, -2874.5684474192203, 65129.04943574065, 29084.827492812576, 0.14400000000000002, 0.994, 0.212, 192.0, 0.0, 0.0, 0.0, 0.0, 0.0, 0.0, 0.0, 0.0, 0.0, 1.6959297423580973E9, 0.0, 2023-09-28 14:35:42.358
70.0, 14783.041451339896, 18911.74392840194, 30047.941809647302, 13982.200799250699, 32020.259740383597, 6396.622228219775, -187500.02235174447, 32831.963340278075, 16857.059819347836, -25471.824463823377, -187500.02235174447, 52931.12134112375, 26132.676140388983, -2870.0980985281585, 65098.13697315896, 29043.78968999263, 0.14400000000000002, 0.994, 0.212, 192.0, 0.0, 0.0, 0.0, 0.0, 0.0, 0.0, 0.0, 0.0, 0.0, 1.695929742358122E9, 0.0, 2023-09-28 14:35:42.358
72.0, 14926.785519931975, 18886.955843801003, 30107.1068772205, 13951.198929691189, 31991.94008015872, 6364.726288882052, -187500.02235174447, 32814.886607514214, 16848.409694243634, -25495.070278056894, -187500.02235174447, 52938.81034121637, 26120.02505302728, -2887.5548109477536, 65114.476098355786, 29077.741989820242, 0.156, 0.994, 0.21, 192.0, 2.0, 112.0, 15.5, 8.0, 3.0, 72.0, 0.0, 0.0, 0.0, 1.6959297423581512E9, 0.0, 2023-09-28 14:35:42.358
74.0, 14795.379614279225, 18898.22112300648, 30030.507448972163, 13973.014232279567, 32015.208246136695, 6394.118832840781, -187500.02235174447, 32827.694157087106, 16854.735237924488, -25484.94493781864, -187500.02235174447, 52927.00862014397, 26125.45652692992, -2881.1175085446253, 65115.21370592281, 29051.56809706308, 0.156, 0.994, 0.21, 192.0, 0.0, 0.0, 0.0, 0.0, 0.0, 0.0, 0.0, 0.0, 0.0, 1.695929742358179E9, 0.0, 2023-09-28 14:35:42.358
76.0, 14892.252074748527, 18892.36496595919, 30114.795877313125, 13960.363144917865, 31998.10916162839, 6372.012957574482, -187500.02235174447, 32825.034299496925, 16860.010249615938, -25472.5620713904, -187500.02235174447, 52942.967765685054, 26129.949227565437, -2869.7181188724185, 65093.353699845524, 29085.430989912868, 0.156, 0.994, 0.21, 192.0, 0.0, 0.0, 0.0, 0.0, 0.0, 0.0, 0.0, 0.0, 0.0, 1.6959297423582072E9, 0.0, 2023-09-28 14:35:42.358
78.0, 14798.285341058416, 18897.304701483812, 30035.044853096588, 13971.2484444676, 32019.142153160832, 6394.118832840781, -187500.02235174447, 32835.60667462429, 16845.19104304207, -25493.975042578586, -187500.02235174447, 52928.75205621148, 26119.399204182533, -2876.5577526757424, 65132.715121831316, 29059.458262855802, 0.156, 0.994, 0.21, 192.0, 0.0, 0.0, 0.0, 0.0, 0.0, 0.0, 0.0, 0.0, 0.0, 1.695929742358237E9, 0.0, 2023-09-28 14:35:42.358
80.0, 14861.317260422382, 18899.852800351717, 30125.077679762566, 13972.835418323926, 32007.96628093318, 6374.605759931298, -187500.02235174447, 32831.0022152665, 16860.77020892742, -25493.4162489672, -187500.02235174447, 52932.842425446805, 26132.720843877894, -2880.5587149332423, 65078.86976943848, 29083.88871954545, 0.156, 0.994, 0.21, 192.0, 0.0, 0.0, 0.0, 0.0, 0.0, 0.0, 0.0, 0.0, 0.0, 1.69592974235826E9, 0.0, 2023-09-28 14:35:42.358
82.0, 14801.951027149085, 18913.375605747176, 30050.646370726394, 13985.374746963353, 32037.895266758835, 6400.891411410739, -187500.02235174447, 32843.988578795026, 16856.94806062556, -25477.99354529304, -187500.02235174447, 52937.603347015785, 26126.46235543041, -2879.955217832949, 65136.760787577725, 29068.64482982693, 0.16, 0.998, 0.216, 192.0, 2.5, 0.0, 15.5, 24.0, 3.0, 96.0, 0.0, 0.0, 0.0, 1.6959297423582883E9, 0.0, 2023-09-28 14:35:42.358
84.0, 14820.234754113526, 18895.65067239412, 30134.86774383399, 13967.940386288214, 32015.051783925508, 6370.4036319737, -187500.02235174447, 32828.54352337641, 16874.516531767433, -25487.135408775262, -187500.02235174447, 52933.35651556928, 26146.444814973453, -2872.467383440421, 65065.190501831836, 29083.061705000608, 0.16, 0.998, 0.216, 192.0, 0.0, 0.0, 0.0, 0.0, 0.0, 0.0, 0.0, 0.0, 0.0, 1.6959297423583145E9, 0.0, 2023-09-28 14:35:42.358
86.0, 14815.563239522367, 18901.37271897468, 30055.250830084187, 13957.85974953887, 32016.638757781835, 6370.962425585083, -187500.02235174447, 32797.564005561355, 16850.488406477976, -25497.819542624897, -187500.02235174447, 52932.1942248576, 26122.908428062015, -2895.8026046517616, 65148.04841852766, 29046.09191967153, 0.16, 0.998, 0.216, 192.0, 0.0, 0.0, 0.0, 0.0, 0.0, 0.0, 0.0, 0.0, 0.0, 1.695929742358336E9, 0.0, 2023-09-28 14:35:42.358
88.0, 14791.78098342192, 18888.96750080198, 30127.536371652648, 13962.643022852306, 32011.631967023848, 6369.598969173309, -187500.02235174447, 32814.77484879194, 16856.925708881106, -25495.29379550145, -187500.02235174447, 52906.735587923, 26129.099861276136, -2889.3653022486333, 65058.97671687326, 29043.834393481542, 0.16, 0.998, 0.216, 192.0, 0.0, 0.0, 0.0, 0.0, 0.0, 0.0, 0.0, 0.0, 0.0, 1.695929742358355E9, 0.0, 2023-09-28 14:35:42.358
90.0, 14822.916963448164, 18896.96942531698, 30069.690057002314, 13971.42725842324, 32028.440478854238, 6392.464803751088, -187500.02235174447, 32822.06151748437, 16852.164787312126, -25494.064449556405, -187500.02235174447, 52929.221442845046, 26126.283541474768, -2890.661703427041, 65148.92013656141, 29051.23282089625, 0.16, 0.998, 0.216, 192.0, 0.0, 0.0, 0.0, 0.0, 0.0, 0.0, 0.0, 0.0, 0.0, 1.6959297423583777E9, 0.0, 2023-09-28 14:35:42.358
92.0, 14754.118294014728, 18889.16866650208, 30126.307025707607, 13974.310633457975, 32023.791316007533, 6391.146050828225, -187500.02235174447, 32831.51630538896, 16854.53407222439, -25483.357963962313, -187500.02235174447, 52906.9367536231, 26139.806346870228, -2869.0475665387594, 65043.866937621475, 29060.08411170055, 0.162, 0.992, 0.216, 192.0, 2.5, 8.0, 15.5, 0.0, 3.0, 96.0, 0.0, 0.0, 0.0, 1.6959297423584003E9, 0.0, 2023-09-28 14:35:42.358
94.0, 14831.544736807911, 18888.051079279314, 30087.862025244478, 13966.666336854261, 32018.538656060537, 6393.73885318504, -187500.02235174447, 32830.130497232734, 16856.545729225367, -25497.864246113808, -187500.02235174447, 52929.17673935613, 26131.469146188396, -2880.692825399974, 65146.79672083816, 29069.60595483851, 0.162, 0.992, 0.216, 192.0, 0.0, 0.0, 0.0, 0.0, 0.0, 0.0, 0.0, 0.0, 0.0, 1.6959297423584175E9, 0.0, 2023-09-28 14:35:42.358
96.0, 14755.258232981949, 18869.655593592597, 30121.81432507209, 13961.301918184987, 32003.71944948667, 6377.131507054747, -187500.02235174447, 32831.98569202253, 16848.454397732545, -25492.768048378, -187500.02235174447, 52897.97370409653, 26128.13873626456, -2878.256485254346, 65049.521928968665, 29056.776053521164, 0.162, 0.992, 0.216, 192.0, 0.0, 0.0, 0.0, 0.0, 0.0, 0.0, 0.0, 0.0, 0.0, 1.695929742358436E9, 0.0, 2023-09-28 14:35:42.358
98.0, 14866.167588969183, 18883.82659957726, 30090.030144456643, 13972.343679945909, 32022.673728784768, 6397.024559619971, -187500.02235174447, 32840.07702351535, 16827.890792833663, -25512.70580443213, -187500.02235174447, 52921.68890496361, 26105.87639878707, -2899.468290742432, 65176.390430496984, 29068.17544319337, 0.162, 0.992, 0.216, 192.0, 0.0, 0.0, 0.0, 0.0, 0.0, 0.0, 0.0, 0.0, 0.0, 1.695929742358458E9, 0.0, 2023-09-28 14:35:42.358
100.0, 14725.86568902322, 18877.12107624067, 30110.236121444243, 13972.522493901552, 32012.14605714632, 6387.435661248644, -187500.02235174447, 32840.38994793772, 16849.348467510757, -25478.61939413779, -187500.02235174447, 52898.376035496716, 26137.437061957964, -2865.8512670816503, 65052.807635403595, 29072.55638510661, 0.162, 0.992, 0.216, 192.0, 0.0, 0.0, 0.0, 0.0, 0.0, 0.0, 0.0, 0.0, 0.0, 1.6959297423584757E9, 0.0, 2023-09-28 14:35:42.358
102.0, 14867.933376781151, 18873.45539015, 30101.47423761776, 13953.702325070182, 32008.033336166543, 6380.618379189776, -187500.02235174447, 32813.500799357986, 16835.892717348663, -25513.51046723252, -187500.02235174447, 52916.16802408314, 26113.274826201778, -2899.758863420351, 65156.0279912982, 29072.399922895424, 0.16, 0.986, 0.226, 192.0, 2.5, 0.0, 15.0, 104.0, 3.5, 8.0, 0.0, 0.0, 0.0, 1.6959297423584979E9, 0.0, 2023-09-28 14:35:42.358
104.0, 14703.312778867816, 18869.476779636952, 30106.503380120204, 13963.201816463688, 32028.932217232257, 6387.703882182108, -187500.02235174447, 32834.958474035084, 16846.10746456474, -25493.684469900665, -187500.02235174447, 52886.44020395759, 26136.3194747352, -2873.026177051804, 65053.34407727052, 29055.300838387113, 0.16, 0.986, 0.226, 192.0, 0.0, 0.0, 0.0, 0.0, 0.0, 0.0, 0.0, 0.0, 0.0, 1.6959297423585196E9, 0.0, 2023-09-28 14:35:42.358
106.0, 14873.208388472605, 18866.77221855786, 30105.586958597538, 13933.161071915756, 32005.217016365175, 6358.043117289915, -187500.02235174447, 32790.00911593546, 16829.47776668999, -25519.29956904645, -187500.02235174447, 52908.14374782369, 26112.224294212378, -2905.659723956552, 65153.39048545247, 29056.217259909783, 0.16, 0.986, 0.226, 192.0, 0.0, 0.0, 0.0, 0.0, 0.0, 0.0, 0.0, 0.0, 0.0, 1.6959297428364859E9, 0.0, 2023-09-28 14:35:42.836
108.0, 14706.754947513933, 18853.271764906858, 30079.100141418, 13946.415656377752, 32022.874894484867, 6371.252998263001, -187500.02235174447, 32805.454171354075, 16836.563269682323, -25506.00028109554, -187500.02235174447, 52882.171020766626, 26130.686835132463, -2890.9746278494154, 65057.8591296505, 29027.003529906695, 0.16, 0.986, 0.226, 192.0, 0.0, 0.0, 0.0, 0.0, 0.0, 0.0, 0.0, 0.0, 0.0, 1.6959297428365119E9, 0.0, 2023-09-28 14:35:42.836
110.0, 14870.459123904602, 18858.77029404286, 30110.884322033446, 13937.877289995826, 32004.14413263132, 6362.267596991968, -187500.02235174447, 32806.75057253249, 16826.594391655253, -25530.743662207566, -187500.02235174447, 52897.750186651974, 26114.615930869095, -2910.800625181273, 65137.74426433376, 29045.443719082323, 0.16, 0.986, 0.226, 192.0, 0.0, 0.0, 0.0, 0.0, 0.0, 0.0, 0.0, 0.0, 0.0, 1.6959297428365257E9, 0.0, 2023-09-28 14:35:42.836
112.0, 14708.900714981643, 18854.63522131863, 30062.157519120876, 13945.923917999735, 32012.86131296889, 6375.343367498323, -187500.02235174447, 32809.1422091892, 16827.264943988914, -25512.392880009756, -187500.02235174447, 52877.92418932011, 26123.109593762114, -2905.279744300812, 65070.152589100915, 29025.058928139086, 0.162, 0.988, 0.23, 192.0, 2.5, 8.0, 15.0, 112.0, 3.5, 24.0, 0.0, 0.0, 0.0, 1.6959297428365388E9, 0.0, 2023-09-28 14:35:42.836
114.0, 14865.497036635523, 18864.760561556883, 30112.471295889773, 13939.576022574429, 31995.292841827017, 6373.242303519524, -187500.02235174447, 32812.874950513244, 16832.450548702545, -25515.76799342251, -187500.02235174447, 52896.78906164039, 26117.02991927027, -2909.727741447418, 65114.43139486688, 29056.485480843246, 0.162, 0.988, 0.23, 192.0, 0.0, 0.0, 0.0, 0.0, 0.0, 0.0, 0.0, 0.0, 0.0, 1.6959297428365505E9, 0.0, 2023-09-28 14:35:42.836
116.0, 14700.675273022089, 18861.944241755515, 30058.156556863378, 13966.599281620895, 32018.583359549448, 6398.83505092085, -187500.02235174447, 32835.22669496854, 16840.00543832844, -25513.555170721433, -187500.02235174447, 52885.18850626809, 26129.41278569851, -2886.481927213899, 65067.73860069974, 29045.868402226974, 0.162, 0.988, 0.23, 192.0, 0.0, 0.0, 0.0, 0.0, 0.0, 0.0, 0.0, 0.0, 0.0, 1.695929742836565E9, 0.0, 2023-09-28 14:35:42.836
118.0, 14863.507731379, 18852.802378273296, 30114.594711613026, 13934.770397516537, 31982.172367831754, 6368.369623228267, -187500.02235174447, 32804.31423238686, 16825.677970132587, -25528.91081916223, -187500.02235174447, 52898.64425643018, 26109.117401733092, -2898.864793642139, 65102.89789472794, 29065.42617862537, 0.162, 0.988, 0.23, 192.0, 0.0, 0.0, 0.0, 0.0, 0.0, 0.0, 0.0, 0.0, 0.0, 1.6959297428365777E9, 0.0, 2023-09-28 14:35:42.836
120.0, 14718.6237238197, 18868.426247647556, 30044.74551019019, 13963.76061007507, 32021.064403183987, 6401.494908511032, -187500.02235174447, 32833.59501762331, 16822.369911953203, -25519.500734746547, -187500.02235174447, 52875.89018057468, 26115.755869836317, -2892.7180639169296, 65084.83768520805, 29041.442756824825, 0.162, 0.988, 0.23, 192.0, 0.0, 0.0, 0.0, 0.0, 0.0, 0.0, 0.0, 0.0, 0.0, 1.6959297428365898E9, 0.0, 2023-09-28 14:35:42.836
122.0, 14818.558373279378, 18869.342669170223, 30123.647168117426, 13946.1921389332, 32011.90018795731, 6374.158725042192, -187500.02235174447, 32816.27241567045, 16839.826624372796, -25513.53281897698, -187500.02235174447, 52899.24775353048, 26133.32434097819, -2875.350758475156, 65069.57144374507, 29079.41837065439, 0.16, 0.982, 0.23600000000000002, 192.0, 2.5, 0.0, 15.0, 88.0, 3.5, 48.0, 0.0, 0.0, 0.0, 1.695929742836602E9, 0.0, 2023-09-28 14:35:42.836
124.0, 14715.315665640315, 18861.430151633045, 30040.18575432131, 13945.275717410532, 32027.34524337593, 6377.377376243756, -187500.02235174447, 32802.99547946399, 16827.086130033273, -25529.223743584604, -187500.02235174447, 52882.70746263355, 26126.417651941498, -2905.8161861677395, 65085.55294103062, 29036.19009687783, 0.16, 0.982, 0.23600000000000002, 192.0, 0.0, 0.0, 0.0, 0.0, 0.0, 0.0, 0.0, 0.0, 0.0, 1.695929742836614E9, 0.0, 2023-09-28 14:35:42.836
126.0, 14820.83825121382, 18846.946221226004, 30114.795877313125, 13910.27288559352, 31985.9498126447, 6333.411494900167, -187500.02235174447, 32774.16172911665, 16820.98410379697, -25539.43849080068, -187500.02235174447, 52880.204067254555, 26120.405032683022, -2913.9969246383816, 65060.54133898513, 29045.66723652688, 0.16, 0.982, 0.23600000000000002, 192.0, 0.0, 0.0, 0.0, 0.0, 0.0, 0.0, 0.0, 0.0, 0.0, 1.695929742836626E9, 0.0, 2023-09-28 14:35:42.836
128.0, 14747.25630846695, 18867.331012169245, 30039.13522233191, 13947.37678138933, 32026.205304408708, 6372.102364552304, -187500.02235174447, 32790.88083396922, 16818.637170629165, -25527.033272627985, -187500.02235174447, 52880.60639865475, 26114.92885529147, -2918.2884595738005, 65103.143763916945, 29016.811134435076, 0.16, 0.982, 0.23600000000000002, 192.0, 0.0, 0.0, 0.0, 0.0, 0.0, 0.0, 0.0, 0.0, 0.0, 1.6959297428366375E9, 0.0, 2023-09-28 14:35:42.836
130.0, 14802.778041693931, 18855.26107016338, 30126.64230187444, 13935.955039972669, 32000.18787386273, 6353.058678276382, -187500.02235174447, 32792.2889938699, 16824.33686546527, -25527.189734839172, -187500.02235174447, 52885.032044056905, 26125.188305996457, -2900.831747154206, 65048.82902489055, 29053.22212615277, 0.16, 0.982, 0.23600000000000002, 192.0, 0.0, 0.0, 0.0, 0.0, 0.0, 0.0, 0.0, 0.0, 0.0, 1.6959297428366513E9, 0.0, 2023-09-28 14:35:42.836
132.0, 14759.750933617466, 18885.659442622597, 30050.825184682035, 13958.418543150252, 32034.587208579447, 6393.135356084747, -187500.02235174447, 32812.76319179096, 16824.38156895418, -25518.450202757147, -187500.02235174447, 52895.447956973076, 26123.154297251025, -2897.4119302525437, 65119.50524085823, 29044.706111515297, 0.158, 0.974, 0.24, 192.0, 2.0, 120.0, 15.0, 56.0, 3.5, 64.0, 0.0, 0.0, 0.0, 1.6959297428366654E9, 0.0, 2023-09-28 14:35:42.836
134.0, 14767.104657543261, 18863.195939445013, 30122.931912294855, 13935.083321938911, 32006.424010565763, 6369.5319139399435, -187500.02235174447, 32806.14707543219, 16838.597278427755, -25501.19465603765, -187500.02235174447, 52888.094233047275, 26138.97933232538, -2883.7550143903513, 65032.1993270158, 29068.89069901594, 0.158, 0.974, 0.24, 192.0, 0.0, 0.0, 0.0, 0.0, 0.0, 0.0, 0.0, 0.0, 0.0, 1.6959297428366773E9, 0.0, 2023-09-28 14:35:42.836
136.0, 14778.682861171112, 18861.787779544327, 30046.71246370226, 13949.656659323771, 32018.136324660343, 6394.319998540878, -187500.02235174447, 32819.28990117191, 16815.262057216412, -25535.996322154562, -187500.02235174447, 52893.79392788338, 26116.471125658885, -2898.9765523644155, 65131.374017164, 29059.860594256, 0.158, 0.974, 0.24, 192.0, 0.0, 0.0, 0.0, 0.0, 0.0, 0.0, 0.0, 0.0, 0.0, 1.6959297428366888E9, 0.0, 2023-09-28 14:35:42.836
138.0, 14751.34667770227, 18848.577898571242, 30102.636528329436, 13925.941458456691, 31987.268565567563, 6361.597044658309, -187500.02235174447, 32797.02756369443, 16821.27467647489, -25523.166420837217, -187500.02235174447, 52872.31390146183, 26121.142640250047, -2885.118470802125, 65034.412149716874, 29065.582640836557, 0.158, 0.974, 0.24, 192.0, 0.0, 0.0, 0.0, 0.0, 0.0, 0.0, 0.0, 0.0, 0.0, 1.6959297428367007E9, 0.0, 2023-09-28 14:35:42.836
140.0, 14808.008349896474, 18854.612869574175, 30048.992341636702, 13930.881193981313, 31997.46096103918, 6381.579504201353, -187500.02235174447, 32802.459037597066, 16807.885981546162, -25539.349083822857, -187500.02235174447, 52881.522820177415, 26100.869608029083, -2920.4789305304207, 65136.71608408882, 29045.331960360047, 0.158, 0.974, 0.24, 192.0, 0.0, 0.0, 0.0, 0.0, 0.0, 0.0, 0.0, 0.0, 0.0, 1.6959297428367126E9, 0.0, 2023-09-28 14:35:42.836
142.0, 14724.613991333723, 18844.666343291563, 30111.77839181166, 13944.068723209944, 32005.66405125428, 6382.272408279468, -187500.02235174447, 32813.88077901373, 16821.162917752616, -25522.026481869994, -187500.02235174447, 52867.64238687067, 26127.110556019612, -2882.1680405340244, 65019.883515820926, 29059.61472506699, 0.152, 0.986, 0.242, 192.0, 2.0, 96.0, 15.0, 104.0, 3.5, 72.0, 0.0, 0.0, 0.0, 1.695929742836726E9, 0.0, 2023-09-28 14:35:42.836
