%OpenBCI Raw EXG Data
%Number of channels = 16
%Sample Rate = 125 Hz
%Board = OpenBCI_GUI$BoardCytonSerialDaisy
Sample Index, EXG Channel 0, EXG Channel 1, EXG Channel 2, EXG Channel 3, EXG Channel 4, EXG Channel 5, EXG Channel 6, EXG Channel 7, EXG Channel 8, EXG Channel 9, EXG Channel 10, EXG Channel 11, EXG Channel 12, EXG Channel 13, EXG Channel 14, EXG Channel 15, Accel Channel 0, Accel Channel 1, Accel Channel 2, Other, Other, Other, Other, Other, Other, Other, Analog Channel 0, Analog Channel 1, Analog Channel 2, Timestamp, Other, Timestamp (Formatted)
0.0, 14337.92881225691, 18893.013166548393, 30382.949755543443, 14200.66674955687, 31452.03369284078, 6146.1262281091485, -187500.02235174447, 36708.7616573288, 0.0, 0.0, 0.0, 0.0, 0.0, 0.0, 0.0, 0.0, 0.0, 0.0, 0.0, 192.0, 0.0, 0.0, 0.0, 0.0, 0.0, 0.0, 0.0, 0.0, 0.0, 1.6959296429537327E9, 0.0, 2023-09-28 14:34:02.953
224.0, 14481.158790726518, 18900.635111407653, 30372.980877516376, 14178.963205690767, 31459.454471999943, 6150.417763044568, -187500.02235174447, 36687.61690707409, 15324.870088680995, -25435.547582572413, -187500.02235174447, 53033.62644119578, 25658.863861425387, -2855.7259268433963, 60908.302475011646, 31338.73270019683, 0.092, 0.485, 0.132, 192.0, 2.5, 96.0, 15.0, 40.0, 4.0, 32.0, 0.0, 0.0, 0.0, 1.6959296429537532E9, 0.0, 2023-09-28 14:34:02.953
226.0, 14322.886088238489, 18897.63997765064, 30377.78650257427, 14202.924275746856, 31461.89081214557, 6154.642242746621, -187500.02235174447, 36704.850102049124, 15407.616246654541, -25408.83724794832, -187500.02235174447, 53009.41950195069, 25684.07662917097, -2824.4558363504216, 60780.13757230492, 31328.339139025113, 0.092, 0.485, 0.132, 192.0, 0.0, 0.0, 0.0, 0.0, 0.0, 0.0, 0.0, 0.0, 0.0, 1.6959296429537692E9, 0.0, 2023-09-28 14:34:02.953
228.0, 14498.123764768097, 18900.590407918742, 30392.806874848233, 14186.920426716857, 31446.35634974913, 6155.938643925028, -187500.02235174447, 36679.95025872591, 15440.629773215029, -25433.468870338067, -187500.02235174447, 53034.85578714083, 25659.355599803403, -2872.087403784681, 60901.7757656307, 31338.68799670792, 0.092, 0.485, 0.132, 192.0, 0.0, 0.0, 0.0, 0.0, 0.0, 0.0, 0.0, 0.0, 0.0, 1.6959296429537845E9, 0.0, 2023-09-28 14:34:02.953
230.0, 14332.944373243377, 18890.01803279138, 30372.600897860637, 14199.99619722321, 31451.810175396226, 6170.333167354246, -187500.02235174447, 36707.84523580614, 15506.522715869274, -25403.98691940152, -187500.02235174447, 53006.42436819367, 25671.514948787088, -2877.4965259428654, 60792.58749396652, 31331.468383248855, 0.092, 0.485, 0.132, 192.0, 0.0, 0.0, 0.0, 0.0, 0.0, 0.0, 0.0, 0.0, 0.0, 1.6959296429537992E9, 0.0, 2023-09-28 14:34:02.953
232.0, 14523.49299472487, 18898.712861384494, 30393.030392292785, 14178.694984757303, 31431.626550153083, 6161.7948009723195, -187500.02235174447, 36673.22238364487, 15527.287486468254, -25443.66126580969, -187500.02235174447, 53024.149301546735, 25660.406131792803, -2894.5285552178093, 60894.109117282525, 31334.217647816855, 0.092, 0.485, 0.132, 192.0, 0.0, 0.0, 0.0, 0.0, 0.0, 0.0, 0.0, 0.0, 0.0, 1.6959296429538157E9, 0.0, 2023-09-28 14:34:02.953
234.0, 14327.445844107371, 18900.568056174285, 30368.91286002551, 14210.09918571701, 31469.46805351592, 6187.722824540476, -187500.02235174447, 36702.637279348055, 15593.560408778241, -25404.769230457456, -187500.02235174447, 53012.258173496506, 25667.335172573945, -2856.217665221413, 60792.31927303306, 31320.046641832192, 0.138, 0.7295, 0.199, 192.0, 2.5, 96.0, 15.0, 56.0, 4.0, 40.0, 0.0, 0.0, 0.0, 1.6959296429538305E9, 0.0, 2023-09-28 14:34:02.953
236.0, 14532.478395995904, 18879.53506464184, 30416.432668737492, 14172.66001375437, 31432.677082142483, 6155.737478224931, -187500.02235174447, 36665.77925274125, 15610.078347930712, -25439.79441401892, -187500.02235174447, 53019.29897299993, 25642.345922272914, -2904.340971033689, 60882.68737586587, 31334.86584840606, 0.138, 0.7295, 0.199, 192.0, 0.0, 0.0, 0.0, 0.0, 0.0, 0.0, 0.0, 0.0, 0.0, 1.695929642953855E9, 0.0, 2023-09-28 14:34:02.953
238.0, 14338.442902379384, 18885.92766355606, 30352.10434819512, 14183.679423770836, 31458.850974899648, 6184.839449505741, -187500.02235174447, 36688.73449429685, 15646.109359992668, -25416.235675363027, -187500.02235174447, 52994.5555918879, 25663.535376016545, -2881.1622120335355, 60809.84304068602, 31300.19829275588, 0.138, 0.7295, 0.199, 192.0, 0.0, 0.0, 0.0, 0.0, 0.0, 0.0, 0.0, 0.0, 0.0, 1.6959296429538713E9, 0.0, 2023-09-28 14:34:02.953
240.0, 14518.597962689159, 18882.038460020838, 30425.68629094199, 14164.412220050363, 31434.599332165642, 6168.008585930895, -187500.02235174447, 36671.56835455517, 15661.643822389105, -25434.765271516477, -187500.02235174447, 53021.82472012338, 25654.59467823442, -2882.995055078871, 60858.256919176216, 31326.550999468687, 0.138, 0.7295, 0.199, 192.0, 0.0, 0.0, 0.0, 0.0, 0.0, 0.0, 0.0, 0.0, 0.0, 1.6959296429538867E9, 0.0, 2023-09-28 14:34:02.953
242.0, 14354.35734443156, 18879.244491963924, 30340.95082771192, 14184.640548782416, 31446.40105323804, 6179.787955258841, -187500.02235174447, 36676.37397961307, 15675.948938840502, -25428.28326562444, -187500.02235174447, 52989.951132530114, 25661.54607076002, -2875.6860346419853, 60819.14136637943, 31285.46849315983, 0.138, 0.7295, 0.199, 192.0, 0.0, 0.0, 0.0, 0.0, 0.0, 0.0, 0.0, 0.0, 0.0, 1.6959296429539015E9, 0.0, 2023-09-28 14:34:02.953
244.0, 14523.53769821378, 18871.68960233803, 30440.997235893876, 14167.027374151634, 31417.58965463515, 6160.207827115993, -187500.02235174447, 36672.68594177794, 15701.385224030642, -25433.491222082524, -187500.02235174447, 53016.19208052065, 25650.63841946583, -2898.440110497488, 60839.928488722864, 31329.546133225696, 0.163, 0.85275, 0.2285, 192.0, 2.5, 112.0, 15.0, 64.0, 4.0, 8.0, 0.0, 0.0, 0.0, 1.6959296429539177E9, 0.0, 2023-09-28 14:34:02.953
246.0, 14375.882074342022, 18877.54575938532, 30345.041196947244, 14179.90197895789, 31443.31651250321, 6193.266057165391, -187500.02235174447, 36674.92111622347, 15700.379395530153, -25437.670998295667, -187500.02235174447, 52994.9579232881, 25647.911506642286, -2914.466311271943, 60840.33082012306, 31299.52774042222, 0.163, 0.85275, 0.2285, 192.0, 0.0, 0.0, 0.0, 0.0, 0.0, 0.0, 0.0, 0.0, 0.0, 1.6959296429539323E9, 0.0, 2023-09-28 14:34:02.953
248.0, 14519.91671561202, 18862.905366767092, 30446.339302818695, 14160.880644426423, 31413.141657488544, 6157.5703212702665, -187500.02235174447, 36667.90266846451, 15731.73889300095, -25425.399890589702, -187500.02235174447, 53009.21833625059, 25648.917335142774, -2893.410967995044, 60821.04126465813, 31317.47619121983, 0.163, 0.85275, 0.2285, 192.0, 0.0, 0.0, 0.0, 0.0, 0.0, 0.0, 0.0, 0.0, 0.0, 1.6959296429539468E9, 0.0, 2023-09-28 14:34:02.953
250.0, 14392.645882683502, 18874.952957028505, 30328.143278139032, 14184.014699937667, 31447.339826505166, 6195.277714166369, -187500.02235174447, 36675.301095879215, 15725.16748013109, -25453.048998480917, -187500.02235174447, 52994.80146107692, 25669.07860864146, -2905.2126890674463, 60849.49503534973, 31290.20706298436, 0.163, 0.85275, 0.2285, 192.0, 0.0, 0.0, 0.0, 0.0, 0.0, 0.0, 0.0, 0.0, 0.0, 1.6959296429539616E9, 0.0, 2023-09-28 14:34:02.953
252.0, 14489.853619319632, 18868.716820325473, 30440.103166115663, 14168.860217196969, 31416.963805790405, 6172.456583077501, -187500.02235174447, 36669.69080802093, 15799.352919978253, -25429.02087319146, -187500.02235174447, 53009.464205439595, 25665.256460339602, -2885.5208022023207, 60789.949988120796, 31326.90862737997, 0.163, 0.85275, 0.2285, 192.0, 0.0, 0.0, 0.0, 0.0, 0.0, 0.0, 0.0, 0.0, 0.0, 1.6959296429539762E9, 0.0, 2023-09-28 14:34:02.953
254.0, 14432.431987813949, 18873.187169216537, 30338.24626663283, 14177.644452767903, 31442.31068400272, 6192.573153087277, -187500.02235174447, 36671.657761532995, 15762.561948604816, -25437.045149450918, -187500.02235174447, 53006.87140308278, 25634.88043962484, -2901.1670233210357, 60870.57273037109, 31298.700725877374, 0.17149999999999999, 0.917375, 0.24025000000000002, 192.0, 2.5, 80.0, 15.0, 88.0, 3.5, 112.0, 0.0, 0.0, 0.0, 1.6959296429539945E9, 0.0, 2023-09-28 14:34:02.953
0.0, 14473.179217955974, 18861.094875466213, 30418.93606411649, 14160.61242349296, 31422.79761109324, 6171.964844699484, -187500.02235174447, 36678.74326452533, 15755.722314801493, -25422.427108577147, -187500.02235174447, 53000.32234195738, 25654.99700963462, -2889.09708131517, 60784.65262468489, 31321.164229054957, 0.17149999999999999, 0.917375, 0.24025000000000002, 192.0, 0.0, 0.0, 0.0, 0.0, 0.0, 0.0, 0.0, 0.0, 0.0, 1.6959296429540164E9, 0.0, 2023-09-28 14:34:02.954
2.0, 14453.800255513223, 18867.64393659162, 30335.76522299829, 14179.499647557694, 31437.50505894483, 6189.220391418981, -187500.02235174447, 36670.16019465449, 15773.916634788113, -25424.595227789312, -187500.02235174447, 53003.83156583686, 25624.97861683114, -2889.6111714376416, 60867.264672191704, 31297.538435165698, 0.17149999999999999, 0.917375, 0.24025000000000002, 192.0, 0.0, 0.0, 0.0, 0.0, 0.0, 0.0, 0.0, 0.0, 0.0, 1.6959296429540365E9, 0.0, 2023-09-28 14:34:02.954
4.0, 14443.697267019425, 18873.008355260892, 30430.693081699977, 14176.258644611675, 31433.101765287134, 6181.9337227265505, -187500.02235174447, 36682.83363376065, 15809.053577071856, -25406.89264618071, -187500.02235174447, 52995.02497852147, 25657.142777102326, -2870.5227816728097, 60771.06276405606, 31330.216685559357, 0.17149999999999999, 0.917375, 0.24025000000000002, 192.0, 0.0, 0.0, 0.0, 0.0, 0.0, 0.0, 0.0, 0.0, 0.0, 1.6959296429540515E9, 0.0, 2023-09-28 14:34:02.954
6.0, 14466.160770197008, 18878.3057186968, 30331.09370840713, 14186.115763916465, 31435.51575368831, 6186.761699528897, -187500.02235174447, 36666.896839964014, 15782.656166870138, -25419.342567842315, -187500.02235174447, 53009.7100746286, 25662.775416705063, -2885.274933013312, 60879.33461419757, 31305.897987591983, 0.17149999999999999, 0.917375, 0.24025000000000002, 192.0, 0.0, 0.0, 0.0, 0.0, 0.0, 0.0, 0.0, 0.0, 0.0, 1.6959296429540665E9, 0.0, 2023-09-28 14:34:02.954
8.0, 14402.57005722166, 18880.339727442235, 30426.043918853276, 14197.179877421842, 31438.197963022943, 6182.313702382291, -187500.02235174447, 36688.3098111522, 15762.78546604937, -25394.956814641573, -187500.02235174447, 52999.96471404609, 25681.12619890287, -2871.215685750924, 60758.434028438816, 31347.695749723407, 0.17375, 0.9506875, 0.245125, 192.0, 2.5, 64.0, 15.0, 96.0, 3.5, 104.0, 0.0, 0.0, 0.0, 1.695929642954081E9, 0.0, 2023-09-28 14:34:02.954
10.0, 14479.393002914549, 18868.001564502905, 30344.370644613584, 14162.042935138099, 31424.563398905208, 6176.904580224107, -187500.02235174447, 36663.32056085116, 15736.87979422567, -25430.49608832551, -187500.02235174447, 53003.67510362567, 25684.925995460275, -2893.612133695142, 60883.71555611081, 31330.127278581534, 0.17375, 0.9506875, 0.245125, 192.0, 0.0, 0.0, 0.0, 0.0, 0.0, 0.0, 0.0, 0.0, 0.0, 1.6959296429540956E9, 0.0, 2023-09-28 14:34:02.954
12.0, 14395.618664696058, 18852.44475036201, 30393.052744037243, 14173.196455621297, 31419.64601512504, 6164.432306818046, -187500.02235174447, 36674.89876447902, 15728.788462732848, -25417.55442828589, -187500.02235174447, 52971.26507416547, 25652.113634599882, -2876.5577526757424, 60767.77705762113, 31326.260426790766, 0.17375, 0.9506875, 0.245125, 192.0, 0.0, 0.0, 0.0, 0.0, 0.0, 0.0, 0.0, 0.0, 0.0, 1.69592964295411E9, 0.0, 2023-09-28 14:34:02.954
14.0, 14508.15969802853, 18871.197863960013, 30333.15006889702, 14169.329603830529, 31422.574093648687, 6177.329263368758, -187500.02235174447, 36665.39927308551, 15699.910008896592, -25438.252143651505, -187500.02235174447, 52982.59740860431, 25660.406131792803, -2891.891049372083, 60896.88073359499, 31305.518007936244, 0.17375, 0.9506875, 0.245125, 192.0, 0.0, 0.0, 0.0, 0.0, 0.0, 0.0, 0.0, 0.0, 0.0, 1.6959296429541261E9, 0.0, 2023-09-28 14:34:02.954
16.0, 14361.375792190527, 18874.282404694844, 30354.853612763123, 14200.018548967666, 31440.74606189085, 6177.955112213506, -187500.02235174447, 36700.536215369255, 15695.037328605335, -25395.35914604177, -187500.02235174447, 52980.67515858116, 25683.94251870424, -2870.254560739346, 60764.6925168863, 31343.940656654915, 0.17375, 0.9506875, 0.245125, 192.0, 0.0, 0.0, 0.0, 0.0, 0.0, 0.0, 0.0, 0.0, 0.0, 1.695929642954141E9, 0.0, 2023-09-28 14:34:02.954
18.0, 14511.132480041086, 18868.202730203, 30351.143223183542, 14170.581301520027, 31428.1173262736, 6162.375946328158, -187500.02235174447, 36664.14757539601, 15605.60799903965, -25427.322140612858, -187500.02235174447, 53009.173632761675, 25664.764721961586, -2888.9182673595274, 60891.29279748116, 31352.836650948127, 0.176875, 0.9663437500000001, 0.24656250000000002, 192.0, 2.5, 80.0, 15.0, 88.0, 3.5, 96.0, 0.0, 0.0, 0.0, 1.6959296429541552E9, 0.0, 2023-09-28 14:34:02.954
20.0, 14340.096931469076, 18860.714895810474, 30309.9042546635, 14178.873798712946, 31427.625587895585, 6176.099917423716, -187500.02235174447, 36698.2116339459, 15616.80622301176, -25424.99755918951, -187500.02235174447, 52965.00658571799, 25692.19031240825, -2857.9387495444716, 60768.84994135499, 31323.62292094504, 0.176875, 0.9663437500000001, 0.24656250000000002, 192.0, 0.0, 0.0, 0.0, 0.0, 0.0, 0.0, 0.0, 0.0, 0.0, 1.6959296429541695E9, 0.0, 2023-09-28 14:34:02.954
22.0, 14531.003180861853, 18870.48260813744, 30349.556249327215, 14179.834923724524, 31417.276730212776, 6150.350707811202, -187500.02235174447, 36665.376921341056, 15562.580890963185, -25432.239524393026, -187500.02235174447, 53009.799481606424, 25673.057219154503, -2899.5576977202536, 60881.99447178775, 31350.86969743606, 0.176875, 0.9663437500000001, 0.24656250000000002, 192.0, 0.0, 0.0, 0.0, 0.0, 0.0, 0.0, 0.0, 0.0, 0.0, 1.695929642954184E9, 0.0, 2023-09-28 14:34:02.954
24.0, 14350.199919962875, 18876.227006462457, 30320.029594901753, 14191.99427270821, 31443.249457269845, 6171.897789466118, -187500.02235174447, 36693.942450754934, 15557.50704497183, -25413.687576495122, -187500.02235174447, 52978.01530099098, 25678.17576863477, -2869.896932828061, 60785.16671480736, 31334.95525538388, 0.176875, 0.9663437500000001, 0.24656250000000002, 192.0, 0.0, 0.0, 0.0, 0.0, 0.0, 0.0, 0.0, 0.0, 0.0, 1.6959296429541984E9, 0.0, 2023-09-28 14:34:02.954
26.0, 14530.64555295057, 18889.41453569109, 30374.120816483595, 14186.696909272303, 31428.385547207065, 6163.202960873004, -187500.02235174447, 36676.21751740188, 15510.188401959946, -25404.61276824627, -187500.02235174447, 53030.564252205404, 25671.626707509364, -2860.2409792233684, 60866.214140202304, 31367.231174377346, 0.176875, 0.9663437500000001, 0.24656250000000002, 192.0, 0.0, 0.0, 0.0, 0.0, 0.0, 0.0, 0.0, 0.0, 0.0, 1.6959296429542143E9, 0.0, 2023-09-28 14:34:02.954
28.0, 14330.060998208643, 18892.856704337206, 30310.731269208347, 14210.434461883839, 31451.676064929496, 6191.366158886691, -187500.02235174447, 36713.813151575705, 15509.182573459457, -25394.085096607818, -187500.02235174447, 52997.14839424472, 25689.619861795887, -2862.051470524248, 60784.71967991826, 31330.507258237274, 0.1784375, 0.972171875, 0.24728125, 192.0, 2.5, 80.0, 15.0, 72.0, 3.5, 96.0, 0.0, 0.0, 0.0, 1.695929642954229E9, 0.0, 2023-09-28 14:34:02.954
30.0, 14512.16066028603, 18884.45244842201, 30382.167444487506, 14174.939891688811, 31422.97642504888, 6151.35653631169, -187500.02235174447, 36684.62177331707, 15480.393526601021, -25408.189047359116, -187500.02235174447, 53035.54869121894, 25685.61889953839, -2835.60935683362, 60848.37744812697, 31376.440093092933, 0.1784375, 0.972171875, 0.24728125, 192.0, 0.0, 0.0, 0.0, 0.0, 0.0, 0.0, 0.0, 0.0, 0.0, 1.695929642954245E9, 0.0, 2023-09-28 14:34:02.954
32.0, 14326.328256884606, 18881.054983264803, 30289.027725342243, 14177.666804512359, 31432.632378653572, 6167.203923130503, -187500.02235174447, 36692.847215276626, 15452.945584409903, -25405.573893257846, -187500.02235174447, 52999.07064426788, 25698.962890978208, -2861.067993768215, 60797.81780216906, 31336.139897840014, 0.1784375, 0.972171875, 0.24728125, 192.0, 0.0, 0.0, 0.0, 0.0, 0.0, 0.0, 0.0, 0.0, 0.0, 1.69592964295426E9, 0.0, 2023-09-28 14:34:02.954
34.0, 14504.292846237762, 18878.573939630263, 30374.880775795078, 14175.297519600097, 31419.333090702665, 6137.230233815937, -187500.02235174447, 36678.229174402855, 15443.848424416594, -25428.193858646617, -187500.02235174447, 53008.39132170574, 25705.04256547005, -2868.600531649653, 60839.77202651167, 31340.833764175626, 0.1784375, 0.972171875, 0.24728125, 192.0, 0.0, 0.0, 0.0, 0.0, 0.0, 0.0, 0.0, 0.0, 0.0, 1.6959296429542744E9, 0.0, 2023-09-28 14:34:02.954
36.0, 14318.952181214356, 18894.197809004523, 30305.299795305706, 14201.225543168253, 31461.868460401114, 6182.023129704372, -187500.02235174447, 36706.39237241654, 15449.861043675071, -25393.74982044099, -187500.02235174447, 53007.31843797189, 25685.50714081611, -2861.47032516841, 60822.51647979218, 31343.605380488087, 0.1784375, 0.972171875, 0.24728125, 192.0, 0.0, 0.0, 0.0, 0.0, 0.0, 0.0, 0.0, 0.0, 0.0, 1.6959296429542887E9, 0.0, 2023-09-28 14:34:02.954
38.0, 14460.885758505556, 18878.618643119175, 30389.565871902214, 14175.722202744748, 31427.402070451033, 6137.721972193954, -187500.02235174447, 36680.48670059284, 15405.604589653563, -25411.36299507177, -187500.02235174447, 53010.42533045117, 25691.74327751914, -2864.7113281144298, 60825.44455831582, 31360.525651040753, 0.18021874999999998, 0.9760859375, 0.250640625, 192.0, 2.5, 88.0, 15.0, 80.0, 3.5, 120.0, 0.0, 0.0, 0.0, 1.6959296429543047E9, 0.0, 2023-09-28 14:34:02.954
40.0, 14325.545945828671, 18881.725535598463, 30294.99564111181, 14178.560874290572, 31449.575000950696, 6172.680100522054, -187500.02235174447, 36684.375904128065, 15407.392729209987, -25415.296902095903, -187500.02235174447, 52997.0589872669, 25687.921129217284, -2858.3634326891224, 60854.45712261881, 31328.540304725208, 0.18021874999999998, 0.9760859375, 0.250640625, 192.0, 0.0, 0.0, 0.0, 0.0, 0.0, 0.0, 0.0, 0.0, 0.0, 1.6959296429543192E9, 0.0, 2023-09-28 14:34:02.954
42.0, 14429.973295923864, 18862.72655281145, 30385.095523011154, 14153.884548411912, 31415.689756356453, 6131.552890724289, -187500.02235174447, 36671.68011327745, 15394.696938359373, -25426.048091178905, -187500.02235174447, 52997.03663552245, 25688.681088528763, -2839.0515254797374, 60821.957686180795, 31338.30801705218, 0.18021874999999998, 0.9760859375, 0.250640625, 192.0, 0.0, 0.0, 0.0, 0.0, 0.0, 0.0, 0.0, 0.0, 0.0, 1.6959296429543335E9, 0.0, 2023-09-28 14:34:02.954
44.0, 14342.22034719233, 18865.76639005737, 30276.488396702814, 14183.031223181633, 31440.991931079858, 6149.724858966453, -187500.02235174447, 36677.111587180094, 15398.541438405686, -25424.88580046723, -187500.02235174447, 52987.224219706564, 25687.965832706195, -2887.130127803103, 60873.32199493909, 31326.260426790766, 0.18021874999999998, 0.9760859375, 0.250640625, 192.0, 0.0, 0.0, 0.0, 0.0, 0.0, 0.0, 0.0, 0.0, 0.0, 1.695929642954348E9, 0.0, 2023-09-28 14:34:02.954
46.0, 14395.864533885067, 18866.280480179845, 30375.238403706364, 14161.081810126521, 31416.69558485694, 6130.994097112906, -187500.02235174447, 36672.01538944428, 15397.580313394108, -25404.053974634884, -187500.02235174447, 52993.54976338742, 25698.292338644547, -2859.503371656343, 60802.86929641596, 31341.95135139839, 0.18021874999999998, 0.9760859375, 0.250640625, 192.0, 0.0, 0.0, 0.0, 0.0, 0.0, 0.0, 0.0, 0.0, 0.0, 1.6959296429543624E9, 0.0, 2023-09-28 14:34:02.954
48.0, 14342.287402425696, 18885.771201344873, 30295.62148995656, 14196.24110415472, 31456.45933824293, 6169.617911531676, -187500.02235174447, 36693.11543621009, 15393.780516836707, -25405.5962450023, -187500.02235174447, 53008.01134205, 25693.576120564478, -2866.18654324848, 60873.366698428006, 31337.86098216307, 0.184109375, 0.97704296875, 0.2553203125, 192.0, 2.5, 112.0, 15.0, 72.0, 4.0, 16.0, 0.0, 0.0, 0.0, 1.695929642954377E9, 0.0, 2023-09-28 14:34:02.954
50.0, 14364.259167225262, 18861.07252372176, 30381.474540409392, 14168.971975919245, 31415.622701123084, 6139.6665739615655, -187500.02235174447, 36677.5586220692, 15408.353854221567, -25402.73522171202, -187500.02235174447, 53006.44671993813, 25702.27094915759, -2854.3624704316226, 60784.920845618355, 31360.190374873924, 0.184109375, 0.97704296875, 0.2553203125, 192.0, 0.0, 0.0, 0.0, 0.0, 0.0, 0.0, 0.0, 0.0, 0.0, 1.6959296429543912E9, 0.0, 2023-09-28 14:34:02.954
52.0, 14380.575940677636, 18869.655593592597, 30297.99077486882, 14164.56868226155, 31433.07941354268, 6152.183550856537, -187500.02235174447, 36660.884220705535, 15380.928263774904, -25430.965474959074, -187500.02235174447, 53003.317475714386, 25666.530509773555, -2877.5188776873206, 60899.80881211863, 31318.079688320126, 0.184109375, 0.97704296875, 0.2553203125, 192.0, 0.0, 0.0, 0.0, 0.0, 0.0, 0.0, 0.0, 0.0, 0.0, 1.6959296429544072E9, 0.0, 2023-09-28 14:34:02.954
54.0, 14346.55658561666, 18868.985041258937, 30382.7709415878, 14180.036089424622, 31422.97642504888, 6144.829826930742, -187500.02235174447, 36684.241793661335, 15385.152743476958, -25408.32315782585, -187500.02235174447, 52990.7557953305, 25683.830759981964, -2840.0350022357707, 60786.97720610824, 31344.20887758838, 0.184109375, 0.97704296875, 0.2553203125, 192.0, 0.0, 0.0, 0.0, 0.0, 0.0, 0.0, 0.0, 0.0, 0.0, 1.6959296429544215E9, 0.0, 2023-09-28 14:34:02.954
56.0, 14400.603103709593, 18889.325128713266, 30314.195789598918, 14184.215865637765, 31420.964768047903, 6168.008585930895, -187500.02235174447, 36672.03774118874, 15387.723194089318, -25406.557370013878, -187500.02235174447, 53028.79846439344, 25690.33511761846, -2863.929017058494, 60904.614437176526, 31356.189412616422, 0.184109375, 0.97704296875, 0.2553203125, 192.0, 0.0, 0.0, 0.0, 0.0, 0.0, 0.0, 0.0, 0.0, 0.0, 1.695929642954436E9, 0.0, 2023-09-28 14:34:02.954
58.0, 14310.994960188265, 18899.964559073993, 30367.05766523572, 14195.1011651875, 31411.50998014331, 6171.65192027711, -187500.02235174447, 36682.18543317144, 15414.366473480044, -25380.897567379187, -187500.02235174447, 52999.92001055718, 25690.804504252017, -2826.825121262684, 60781.70219441679, 31350.601476502598, 0.18505468749999998, 0.978521484375, 0.25666015625, 192.0, 2.5, 104.0, 15.0, 80.0, 4.0, 8.0, 0.0, 0.0, 0.0, 1.6959296429544504E9, 0.0, 2023-09-28 14:34:02.954
60.0, 14423.781862709746, 18884.161875744092, 30308.69726046291, 14152.856368166968, 31398.903596270517, 6148.808437443786, -187500.02235174447, 36647.40611879899, 15392.729984847307, -25403.763401956967, -187500.02235174447, 53039.75081917654, 25687.85407398392, -2847.4557813949327, 60903.45214646485, 31353.149575370502, 0.18505468749999998, 0.978521484375, 0.25666015625, 192.0, 0.0, 0.0, 0.0, 0.0, 0.0, 0.0, 0.0, 0.0, 0.0, 1.695929642954465E9, 0.0, 2023-09-28 14:34:02.954
62.0, 14287.860904677023, 18879.02097451937, 30334.848801475622, 14167.60851950747, 31415.488590656354, 6154.508132279889, -187500.02235174447, 36666.44980507491, 15419.99911308278, -25404.501009523992, -187500.02235174447, 52984.072623738364, 25699.164056678303, -2832.725981798885, 60769.319327988545, 31299.125409022025, 0.18505468749999998, 0.978521484375, 0.25666015625, 192.0, 0.0, 0.0, 0.0, 0.0, 0.0, 0.0, 0.0, 0.0, 0.0, 1.695929642954481E9, 0.0, 2023-09-28 14:34:02.954
64.0, 14415.131737605541, 18882.68666061004, 30340.503792822816, 14163.451095038785, 31429.92781757448, 6145.925062409051, -187500.02235174447, 36669.46729057637, 15400.463688428843, -25415.609826518277, -187500.02235174447, 53035.92867087468, 25690.916262974297, -2859.637482123075, 60886.95655905683, 31328.227380302833, 0.18505468749999998, 0.978521484375, 0.25666015625, 192.0, 0.0, 0.0, 0.0, 0.0, 0.0, 0.0, 0.0, 0.0, 0.0, 1.695929642954497E9, 0.0, 2023-09-28 14:34:02.954
66.0, 14265.307994521618, 18861.16193069958, 30327.6068362721, 14143.46863549574, 31414.147485989033, 6132.424608758046, -187500.02235174447, 36670.07078767667, 15403.816450097138, -25406.780887458433, -187500.02235174447, 52989.86172555229, 25705.51195210361, -2834.5364730997653, 60763.46317094126, 31307.172037025935, 0.18505468749999998, 0.978521484375, 0.25666015625, 192.0, 0.0, 0.0, 0.0, 0.0, 0.0, 0.0, 0.0, 0.0, 0.0, 1.6959296429545116E9, 0.0, 2023-09-28 14:34:02.954
68.0, 14425.458243543893, 18874.77414307286, 30343.834202746657, 14158.511359514161, 31427.782050106773, 6148.719030465964, -187500.02235174447, 36665.86865971907, 15380.972967263815, -25447.237544922536, -187500.02235174447, 53015.320362486884, 25667.98337316315, -2871.193334006469, 60888.923512568894, 31319.420792987443, 0.18552734375, 0.9782607421875, 0.257330078125, 192.0, 2.5, 104.0, 15.0, 72.0, 4.0, 8.0, 0.0, 0.0, 0.0, 1.695929642954526E9, 0.0, 2023-09-28 14:34:02.954
70.0, 14237.658886630403, 18868.62741334765, 30317.548551267217, 14158.600766491982, 31437.862686856115, 6166.22044637447, -187500.02235174447, 36669.64610453202, 15403.57058090813, -25421.443631821112, -187500.02235174447, 52984.45260339411, 25703.90262650283, -2833.217720176902, 60771.912130345365, 31304.042792802193, 0.18552734375, 0.9782607421875, 0.257330078125, 192.0, 0.0, 0.0, 0.0, 0.0, 0.0, 0.0, 0.0, 0.0, 0.0, 1.6959296429545412E9, 0.0, 2023-09-28 14:34:02.954
72.0, 14427.067569144676, 18874.729439583953, 30357.62522907558, 14153.236347822709, 31422.149410504033, 6149.546045010811, -187500.02235174447, 36660.25837186079, 15396.529781404708, -25427.85858247979, -187500.02235174447, 53030.25132778303, 25692.927919975275, -2855.547112887754, 60869.030460003676, 31331.356624526576, 0.18552734375, 0.9782607421875, 0.257330078125, 192.0, 0.0, 0.0, 0.0, 0.0, 0.0, 0.0, 0.0, 0.0, 0.0, 1.6959296429545555E9, 0.0, 2023-09-28 14:34:02.954
74.0, 14245.52670067867, 18860.714895810474, 30307.91494940698, 14166.490932284705, 31429.212561751912, 6152.496475278911, -187500.02235174447, 36667.880316720046, 15383.4316591539, -25422.963550444074, -187500.02235174447, 52986.12898422826, 25709.937597505763, -2846.025269749793, 60786.597226452504, 31298.544263666186, 0.18552734375, 0.9782607421875, 0.257330078125, 192.0, 0.0, 0.0, 0.0, 0.0, 0.0, 0.0, 0.0, 0.0, 0.0, 1.6959296429545865E9, 0.0, 2023-09-28 14:34:02.954
76.0, 14428.073397645165, 18875.757619828895, 30380.356953186627, 14151.112932099455, 31433.302930987233, 6175.407013345602, -187500.02235174447, 36677.5586220692, 15367.89719675746, -25419.700195753598, -187500.02235174447, 53031.905356872725, 25673.437198810247, -2858.2740257113014, 60861.07323897759, 31347.91926716796, 0.18552734375, 0.9782607421875, 0.257330078125, 192.0, 0.0, 0.0, 0.0, 0.0, 0.0, 0.0, 0.0, 0.0, 0.0, 1.6959296429546025E9, 0.0, 2023-09-28 14:34:02.954
78.0, 14257.976622340277, 18853.718799795963, 30300.382411525537, 14147.0896180975, 31426.105669272623, 6176.681062779554, -187500.02235174447, 36673.73647376734, 15391.94767379137, -25422.762384743975, -187500.02235174447, 52996.72371110007, 25698.448800855735, -2823.0700281941927, 60802.802241182595, 31315.464534218852, 0.18776367187499998, 0.97813037109375, 0.2546650390625, 192.0, 2.5, 120.0, 15.0, 72.0, 3.5, 112.0, 0.0, 0.0, 0.0, 1.6959296429546168E9, 0.0, 2023-09-28 14:34:02.954
80.0, 14448.43583684395, 18860.44667487701, 30379.351124686138, 14123.240306763686, 31406.458485896408, 6161.325414338758, -187500.02235174447, 36647.96491241037, 15365.773781034206, -25449.85269902381, -187500.02235174447, 53002.64692338073, 25677.281698856557, -2852.641386108564, 60854.613584830004, 31323.801734900684, 0.18776367187499998, 0.97813037109375, 0.2546650390625, 192.0, 0.0, 0.0, 0.0, 0.0, 0.0, 0.0, 0.0, 0.0, 0.0, 1.695929642954631E9, 0.0, 2023-09-28 14:34:02.954
82.0, 14270.985337613267, 18873.298927938813, 30294.168626566963, 14167.072077640543, 31443.204753780934, 6181.978426215462, -187500.02235174447, 36672.06009293319, 15394.42871742591, -25425.042262678417, -187500.02235174447, 53005.686760626646, 25686.200044894227, -2854.988319276371, 60823.18703212584, 31302.455818945866, 0.18776367187499998, 0.97813037109375, 0.2546650390625, 192.0, 0.0, 0.0, 0.0, 0.0, 0.0, 0.0, 0.0, 0.0, 0.0, 1.6959296429546452E9, 0.0, 2023-09-28 14:34:02.954
84.0, 14445.217185642385, 18867.576881358254, 30389.9234998135, 14144.586222718504, 31410.280634198265, 6175.183495901048, -187500.02235174447, 36650.37890081154, 15371.80875203714, -25426.56218130138, -187500.02235174447, 53024.64103992475, 25687.161169905805, -2825.7075340399188, 60836.88865147694, 31318.236150531313, 0.18776367187499998, 0.97813037109375, 0.2546650390625, 192.0, 0.0, 0.0, 0.0, 0.0, 0.0, 0.0, 0.0, 0.0, 0.0, 1.6959296429546597E9, 0.0, 2023-09-28 14:34:02.954
86.0, 14286.340986054061, 18881.88199780965, 30308.630205229547, 14176.057478911576, 31451.430195740486, 6219.015266777906, -187500.02235174447, 36670.4060638435, 15403.525877419219, -25402.757573456478, -187500.02235174447, 53023.59050793535, 25685.19421639374, -2847.9475197729494, 60839.88378523396, 31322.393575, 0.18776367187499998, 0.97813037109375, 0.2546650390625, 192.0, 0.0, 0.0, 0.0, 0.0, 0.0, 0.0, 0.0, 0.0, 0.0, 1.695929642954674E9, 0.0, 2023-09-28 14:34:02.954
88.0, 14430.107406390598, 18865.676983079553, 30405.770886632312, 14138.931231371313, 31410.995890020837, 6175.921103468073, -187500.02235174447, 36655.899781692, 15405.023444297725, -25425.824573734353, -187500.02235174447, 53019.99187707804, 25722.85690580093, -2832.413057376511, 60822.04709315862, 31334.977607128338, 0.1878818359375, 0.9760651855468749, 0.25233251953125, 192.0, 2.5, 112.0, 15.0, 56.0, 3.5, 104.0, 0.0, 0.0, 0.0, 1.69592964295469E9, 0.0, 2023-09-28 14:34:02.954
0.0, 7386.491583167503, 9468.15424777916, 15127.168908973803, 7091.962646479923, 15746.133416430166, 3127.2996219753772, -93750.01117587223, 18097.58163661738, 7681.244037299638, -12720.198955559606, -93750.01117587223, 26512.812258340393, 12831.018904569019, -1433.6185376189396, 30464.712436760958, 15657.374639198142, 0.18794091796875, 0.9690325927734375, 0.268166259765625, 192.0, 2.5, 112.0, 15.0, 8.0, 4.0, 112.0, 0.0, 0.0, 0.0, 1.6959296435379145E9, 0.0, 2023-09-28 14:34:03.537
2.0, 14635.117606534674, 18949.294859086855, 30142.847316604533, 14213.653113085404, 31526.733222810417, 6289.177392623114, -187500.02235174447, 36210.51892167555, 15899.846363049313, -25323.922970762607, -187500.02235174447, 53124.240413217594, 25653.99118113413, -2865.4936391703654, 60777.47771471473, 31177.55427092961, 0.18794091796875, 0.9690325927734375, 0.268166259765625, 192.0, 0.0, 0.0, 0.0, 0.0, 0.0, 0.0, 0.0, 0.0, 0.0, 1.69592964353795E9, 0.0, 2023-09-28 14:34:03.537
4.0, 14660.889167891643, 18939.61655373771, 30238.691596828892, 14201.76198503518, 31508.67301329053, 6275.453421527555, -187500.02235174447, 36214.45282869969, 15917.593648146827, -25304.409897853126, -187500.02235174447, 53121.9381835387, 25677.259347112104, -2837.218682434402, 60679.80059144504, 31205.851579410028, 0.18794091796875, 0.9690325927734375, 0.268166259765625, 192.0, 0.0, 0.0, 0.0, 0.0, 0.0, 0.0, 0.0, 0.0, 0.0, 1.695929643537966E9, 0.0, 2023-09-28 14:34:03.537
6.0, 14661.872644647676, 18938.878946170684, 30145.708339894813, 14200.845563512512, 31518.37367038413, 6284.684691987597, -187500.02235174447, 36193.86687205635, 15896.158325214188, -25332.86366854473, -187500.02235174447, 53118.80893931496, 25661.277849826558, -2868.2652554828237, 60778.192970537304, 31182.69517215433, 0.18794091796875, 0.9690325927734375, 0.268166259765625, 192.0, 0.0, 0.0, 0.0, 0.0, 0.0, 0.0, 0.0, 0.0, 0.0, 1.6959296435379796E9, 0.0, 2023-09-28 14:34:03.537
8.0, 14647.522824707368, 18931.592277478252, 30223.291244899185, 14200.66674955687, 31503.643870788084, 6271.921845903617, -187500.02235174447, 36207.188511751716, 15912.877430066757, -25310.757793278433, -187500.02235174447, 53103.56504959644, 25671.716114487186, -2842.314880170212, 60670.23404481817, 31196.28503278316, 0.192, 0.9540000000000001, 0.3, 192.0, 3.0, 0.0, 14.5, 104.0, 4.5, 48.0, 0.0, 0.0, 0.0, 1.6959296435379925E9, 0.0, 2023-09-28 14:34:03.537
10.0, 14695.57907528628, 18943.058722383827, 30154.984313843768, 14202.544296091117, 31516.004385471868, 6278.761479706941, -187500.02235174447, 36193.10691274487, 15892.738508312525, -25333.511869133934, -187500.02235174447, 53118.719532337134, 25654.54997474551, -2867.99703454936, 60793.32510153355, 31191.904090869917, 0.192, 0.9540000000000001, 0.3, 192.0, 0.0, 0.0, 0.0, 0.0, 0.0, 0.0, 0.0, 0.0, 0.0, 1.695929643538005E9, 0.0, 2023-09-28 14:34:03.538
12.0, 14637.643353658123, 18924.104443085726, 30218.731489030302, 14190.027319196144, 31499.128818408113, 6260.634214953687, -187500.02235174447, 36209.96012806417, 15915.514935912483, -25312.143601434662, -187500.02235174447, 53107.543660109484, 25683.115504159392, -2848.3945546620557, 60664.891977893356, 31198.74372467324, 0.192, 0.9540000000000001, 0.3, 192.0, 0.0, 0.0, 0.0, 0.0, 0.0, 0.0, 0.0, 0.0, 0.0, 1.6959296435380228E9, 0.0, 2023-09-28 14:34:03.538
14.0, 14737.689761840078, 18931.07818735578, 30153.866726621, 14184.215865637765, 31499.86642597514, 6263.450534755056, -187500.02235174447, 36176.54427010349, 15883.060202963377, -25361.675067147622, -187500.02235174447, 53111.90225027827, 25641.518907728067, -2890.281723771301, 60800.23179057024, 31169.97702955926, 0.192, 0.9540000000000001, 0.3, 192.0, 0.0, 0.0, 0.0, 0.0, 0.0, 0.0, 0.0, 0.0, 0.0, 1.6959296435380363E9, 0.0, 2023-09-28 14:34:03.538
16.0, 14613.726987090944, 18928.08305359877, 30196.49150329727, 14201.605522823993, 31507.22014990093, 6263.271720799413, -187500.02235174447, 36217.045631056506, 15912.743319600026, -25309.841371755767, -187500.02235174447, 53102.38040714031, 25685.149512904827, -2845.9358627719716, 60653.89491962134, 31185.22091927778, 0.192, 0.9540000000000001, 0.3, 192.0, 0.0, 0.0, 0.0, 0.0, 0.0, 0.0, 0.0, 0.0, 0.0, 1.6959296435380502E9, 0.0, 2023-09-28 14:34:03.538
18.0, 14750.474959668514, 18925.087919841757, 30169.892927395456, 14175.990423678211, 31506.639004545097, 6266.020985367416, -187500.02235174447, 36196.5937848799, 15885.161266942176, -25348.554593152356, -187500.02235174447, 53113.980962512614, 25645.721035685663, -2884.1126423016362, 60790.866409643466, 31182.49400645423, 0.196, 0.9520000000000001, 0.312, 192.0, 3.0, 16.0, 14.5, 96.0, 4.5, 96.0, 0.0, 0.0, 0.0, 1.695929643538064E9, 0.0, 2023-09-28 14:34:03.538
20.0, 14602.17113520755, 18913.01797783589, 30180.39824728945, 14194.117688431465, 31508.114219679144, 6265.663357456131, -187500.02235174447, 36212.26235774307, 15910.329331198853, -25321.933665506087, -187500.02235174447, 53084.74488076507, 25672.587832520945, -2858.743412344863, 60657.02416384508, 31177.710733140797, 0.196, 0.9520000000000001, 0.312, 192.0, 0.0, 0.0, 0.0, 0.0, 0.0, 0.0, 0.0, 0.0, 0.0, 1.6959296435380783E9, 0.0, 2023-09-28 14:34:03.538
22.0, 14759.370953961725, 18919.388225005656, 30182.49931126825, 14183.612368537471, 31502.19100739849, 6260.477752742499, -187500.02235174447, 36187.63073535332, 15895.085441480333, -25353.382569954705, -187500.02235174447, 53115.1879567132, 25646.190422319225, -2888.0465493257702, 60780.4952002162, 31192.35112575902, 0.196, 0.9520000000000001, 0.312, 192.0, 0.0, 0.0, 0.0, 0.0, 0.0, 0.0, 0.0, 0.0, 0.0, 1.695929643538092E9, 0.0, 2023-09-28 14:34:03.538
24.0, 14595.376204893138, 18907.92178010008, 30173.469206508307, 14198.319816389063, 31513.61274881515, 6263.204665566047, -187500.02235174447, 36209.96012806417, 15913.0562440224, -25333.221296456017, -187500.02235174447, 53089.75167152306, 25670.687934242244, -2871.774479362307, 60668.311794795016, 31175.207337761804, 0.196, 0.9520000000000001, 0.312, 192.0, 0.0, 0.0, 0.0, 0.0, 0.0, 0.0, 0.0, 0.0, 0.0, 1.695929643538108E9, 0.0, 2023-09-28 14:34:03.538
26.0, 14789.612864209756, 18906.960655088504, 30215.624596551013, 14176.057478911576, 31494.122027650123, 6242.529301944888, -187500.02235174447, 36176.05253172547, 15893.543171112917, -25345.671218117623, -187500.02235174447, 53117.71370383665, 25653.94647764522, -2876.602456164653, 60781.92571186134, 31199.816608407094, 0.196, 0.9520000000000001, 0.312, 192.0, 0.0, 0.0, 0.0, 0.0, 0.0, 0.0, 0.0, 0.0, 0.0, 1.6959296435381432E9, 0.0, 2023-09-28 14:34:03.538
28.0, 14594.236265925916, 18921.0646058398, 30182.633421734983, 14213.898982274412, 31528.364900155655, 6271.586569736787, -187500.02235174447, 36206.07092452895, 15907.513011397483, -25318.67031081561, -187500.02235174447, 53091.20453491266, 25666.46345454019, -2855.6812233544856, 60685.433231047784, 31173.150977271915, 0.192, 0.9480000000000001, 0.322, 192.0, 3.0, 0.0, 14.5, 80.0, 5.0, 8.0, 0.0, 0.0, 0.0, 1.695929643538158E9, 0.0, 2023-09-28 14:34:03.538
30.0, 14799.090003858806, 18901.50682944141, 30235.60705609406, 14179.544351046605, 31491.909204949046, 6238.215415265014, -187500.02235174447, 36174.0855782134, 15893.744336813013, -25339.39037792568, -187500.02235174447, 53121.245279460585, 25651.867765410872, -2875.8424968531726, 60768.17938902133, 31200.822436907583, 0.192, 0.9480000000000001, 0.322, 192.0, 0.0, 0.0, 0.0, 0.0, 0.0, 0.0, 0.0, 0.0, 0.0, 1.695929643538173E9, 0.0, 2023-09-28 14:34:03.538
32.0, 14618.666722615568, 18912.816812135796, 30166.0707790936, 14207.9534182493, 31510.394097613585, 6255.8956451291615, -187500.02235174447, 36195.40914242377, 15897.700595581604, -25324.660578329633, -187500.02235174447, 53091.62921805731, 25661.858995182396, -2870.835706095184, 60700.63241727739, 31167.31717196908, 0.192, 0.9480000000000001, 0.322, 192.0, 0.0, 0.0, 0.0, 0.0, 0.0, 0.0, 0.0, 0.0, 0.0, 1.695929643538189E9, 0.0, 2023-09-28 14:34:03.538
34.0, 14797.100698602284, 18921.042254095348, 30249.353378934073, 14198.699796044802, 31507.24250164539, 6239.4000577211455, -187500.02235174447, 36184.456787640665, 15902.662682850681, -25323.76650855142, -187500.02235174447, 53128.08491326391, 25655.756968946098, -2873.85319159665, 60748.64396436739, 31205.56100673211, 0.192, 0.9480000000000001, 0.322, 192.0, 0.0, 0.0, 0.0, 0.0, 0.0, 0.0, 0.0, 0.0, 0.0, 1.6959296435382025E9, 0.0, 2023-09-28 14:34:03.538
36.0, 14624.36641745167, 18923.456242496522, 30164.528508726184, 14215.351845664007, 31519.535961095808, 6255.828589895796, -187500.02235174447, 36204.61806113936, 15916.878392324257, -25307.494438587957, -187500.02235174447, 53112.41634040074, 25669.302126086015, -2863.9066653140385, 60709.282542381596, 31181.063494809092, 0.192, 0.9480000000000001, 0.322, 192.0, 0.0, 0.0, 0.0, 0.0, 0.0, 0.0, 0.0, 0.0, 0.0, 1.6959296435382276E9, 0.0, 2023-09-28 14:34:03.538
38.0, 14800.006425381474, 18911.02867257937, 30248.36990217804, 14181.153676647387, 31479.794559454273, 6221.116330756704, -187500.02235174447, 36185.082636485415, 15898.885238037736, -25328.34861616476, -187500.02235174447, 53120.10534049336, 25649.945515387717, -2879.955217832949, 60730.85197578096, 31201.64945145243, 0.188, 0.9520000000000001, 0.33, 192.0, 2.5, 112.0, 14.5, 96.0, 5.0, 40.0, 0.0, 0.0, 0.0, 1.6959296435382447E9, 0.0, 2023-09-28 14:34:03.538
40.0, 14639.342086236727, 18930.27352455539, 30152.793842887146, 14207.081700215544, 31530.91299902356, 6268.122049346215, -187500.02235174447, 36220.48779970262, 15909.211743976086, -25319.519677104912, -187500.02235174447, 53107.186032198195, 25660.227317837158, -2878.1894300209797, 60718.558516330544, 31171.6087069045, 0.188, 0.9520000000000001, 0.33, 192.0, 0.0, 0.0, 0.0, 0.0, 0.0, 0.0, 0.0, 0.0, 0.0, 1.6959296435382576E9, 0.0, 2023-09-28 14:34:03.538
42.0, 14789.322291531837, 18908.92760860057, 30256.595344137593, 14172.525903287638, 31489.696382247974, 6228.961793060517, -187500.02235174447, 36199.67832561473, 15913.726796356059, -25318.6256073267, -187500.02235174447, 53130.811826087454, 25660.45083528171, -2850.4509151519437, 60709.282542381596, 31202.074134597082, 0.188, 0.9520000000000001, 0.33, 192.0, 0.0, 0.0, 0.0, 0.0, 0.0, 0.0, 0.0, 0.0, 0.0, 1.6959296435382712E9, 0.0, 2023-09-28 14:34:03.538
44.0, 14662.632603959157, 18934.967390891004, 30157.912392367412, 14209.518040361172, 31534.981016514426, 6267.742069690475, -187500.02235174447, 36202.02525878254, 15911.715139355081, -25320.659616072135, -187500.02235174447, 53110.628200844316, 25659.377951547856, -2860.442144923466, 60744.46418815425, 31165.193756245826, 0.188, 0.9520000000000001, 0.33, 192.0, 0.0, 0.0, 0.0, 0.0, 0.0, 0.0, 0.0, 0.0, 0.0, 1.695929643538284E9, 0.0, 2023-09-28 14:34:03.538
46.0, 14755.079419026306, 18926.18315532007, 30277.09189380311, 14195.235275654231, 31503.398001599075, 6233.163921018115, -187500.02235174447, 36200.25947097057, 15927.093139540333, -25300.610101295722, -187500.02235174447, 53134.589270900404, 25675.73942848914, -2855.256540209835, 60694.41863231881, 31219.910826672418, 0.188, 0.9520000000000001, 0.33, 192.0, 0.0, 0.0, 0.0, 0.0, 0.0, 0.0, 0.0, 0.0, 0.0, 1.695929643538298E9, 0.0, 2023-09-28 14:34:03.538
48.0, 14683.889112936153, 18929.89354489965, 30171.479901251783, 14192.888342486423, 31524.3415861537, 6253.995746850461, -187500.02235174447, 36191.25171795508, 15918.286552224941, -25312.501229345948, -187500.02235174447, 53128.84487257539, 25662.99893414962, -2852.6190343641088, 60761.853845340476, 31178.001305818714, 0.184, 0.9500000000000001, 0.336, 192.0, 2.5, 96.0, 14.5, 88.0, 5.0, 64.0, 0.0, 0.0, 0.0, 1.6959296435383143E9, 0.0, 2023-09-28 14:34:03.538
50.0, 14722.20000293255, 18918.069472082792, 30268.642934399002, 14184.9981766937, 31504.292071377287, 6234.192101263059, -187500.02235174447, 36185.88729928581, 15926.780215117959, -25315.406956125138, -187500.02235174447, 53118.29484919248, 25679.40511457981, -2847.99222326186, 60683.98036765819, 31194.116913570993, 0.184, 0.9500000000000001, 0.336, 192.0, 0.0, 0.0, 0.0, 0.0, 0.0, 0.0, 0.0, 0.0, 0.0, 1.6959296435383308E9, 0.0, 2023-09-28 14:34:03.538
52.0, 14709.459508593025, 18918.069472082792, 30176.710209454326, 14184.819362738057, 31513.880969748614, 6242.104618800237, -187500.02235174447, 36181.81928179494, 15908.183563731143, -25336.81992731332, -187500.02235174447, 53114.22683170162, 25657.142777102326, -2873.495563685365, 60769.69930764429, 31177.196643018324, 0.184, 0.9500000000000001, 0.336, 192.0, 0.0, 0.0, 0.0, 0.0, 0.0, 0.0, 0.0, 0.0, 0.0, 1.6959296435383468E9, 0.0, 2023-09-28 14:34:03.538
54.0, 14710.688854538066, 18909.285236511856, 30247.65464635547, 14185.020528438155, 31502.07924867621, 6223.6644296246095, -187500.02235174447, 36194.179796478726, 15909.390557931729, -25332.908372033642, -187500.02235174447, 53094.55729658095, 25661.255498082104, -2861.604435635142, 60673.29623380855, 31194.116913570993, 0.184, 0.9500000000000001, 0.336, 192.0, 0.0, 0.0, 0.0, 0.0, 0.0, 0.0, 0.0, 0.0, 0.0, 1.6959296435383725E9, 0.0, 2023-09-28 14:34:03.538
56.0, 14716.276790651893, 18941.963486905515, 30171.792825674158, 14200.085604201033, 31525.928560010027, 6257.437915496578, -187500.02235174447, 36184.07680798493, 15918.308903969397, -25334.651808101156, -187500.02235174447, 53125.156834740264, 25658.28271606955, -2862.5432089022647, 60760.64685113989, 31192.284070525657, 0.184, 0.9500000000000001, 0.336, 192.0, 0.0, 0.0, 0.0, 0.0, 0.0, 0.0, 0.0, 0.0, 0.0, 1.6959296435383973E9, 0.0, 2023-09-28 14:34:03.538
58.0, 14665.158351082606, 18931.055835611325, 30249.643951611994, 14189.937912218324, 31521.10058320768, 6241.702287400042, -187500.02235174447, 36219.19139852421, 15947.992020606045, -25304.00756645293, -187500.02235174447, 53119.81476781545, 25687.921129217284, -2835.98933648936, 60627.74337860863, 31195.16744556039, 0.186, 0.9520000000000001, 0.334, 192.0, 2.5, 104.0, 14.5, 96.0, 5.0, 56.0, 0.0, 0.0, 0.0, 1.6959296435384238E9, 0.0, 2023-09-28 14:34:03.538
60.0, 14741.02017176392, 18937.76135894792, 30185.36033455853, 14187.166295905865, 31523.268702419842, 6240.741162388464, -187500.02235174447, 36179.47234862713, 15917.750110358014, -25334.987084267985, -187500.02235174447, 53129.51542490905, 25659.08737886994, -2870.0533950392482, 60758.7916563501, 31187.523148956676, 0.186, 0.9520000000000001, 0.334, 192.0, 0.0, 0.0, 0.0, 0.0, 0.0, 0.0, 0.0, 0.0, 0.0, 1.695929643538444E9, 0.0, 2023-09-28 14:34:03.538
62.0, 14674.993118642942, 18914.336730758754, 30223.715928043835, 14171.251853853686, 31496.200739884465, 6218.6799906110755, -187500.02235174447, 36196.124398246335, 15934.692732655138, -25328.10274697575, -187500.02235174447, 53097.46302336014, 25678.689858757243, -2875.8424968531726, 60626.3128669635, 31174.26856449468, 0.186, 0.9520000000000001, 0.334, 192.0, 0.0, 0.0, 0.0, 0.0, 0.0, 0.0, 0.0, 0.0, 0.0, 1.6959296435384705E9, 0.0, 2023-09-28 14:34:03.538
64.0, 14772.379669234715, 18949.138396875667, 30209.50021857026, 14201.024377468155, 31533.796374058293, 6258.913130630628, -187500.02235174447, 36197.91253780276, 15923.449805194117, -25337.043444757874, -187500.02235174447, 53135.21511974515, 25661.4566637822, -2865.2701217258123, 60750.76738009064, 31188.730143157263, 0.186, 0.9520000000000001, 0.334, 192.0, 0.0, 0.0, 0.0, 0.0, 0.0, 0.0, 0.0, 0.0, 0.0, 1.695929643538486E9, 0.0, 2023-09-28 14:34:03.538
66.0, 14648.305135763305, 18929.446510010544, 30232.88014327051, 14193.804764009092, 31514.640929060097, 6234.840301852263, -187500.02235174447, 36202.40523843828, 15945.48862522705, -25315.474011358503, -187500.02235174447, 53114.9867910131, 25685.12716116037, -2845.6452900940526, 60621.328427949964, 31189.93713735785, 0.186, 0.9520000000000001, 0.334, 192.0, 0.0, 0.0, 0.0, 0.0, 0.0, 0.0, 0.0, 0.0, 0.0, 1.695929643538499E9, 0.0, 2023-09-28 14:34:03.538
68.0, 14815.563239522367, 18928.775957676884, 30208.293224369674, 14175.185760877821, 31494.926690450513, 6223.351505202235, -187500.02235174447, 36170.129319444815, 15912.743319600026, -25362.524433436924, -187500.02235174447, 53126.766160341045, 25649.6549427098, -2887.1971830364687, 60754.20954873676, 31177.956602329807, 0.19, 0.9480000000000001, 0.338, 192.0, 2.5, 120.0, 14.5, 80.0, 5.0, 72.0, 0.0, 0.0, 0.0, 1.6959296435385144E9, 0.0, 2023-09-28 14:34:03.538
70.0, 14661.515016736392, 18924.037387852357, 30200.201892876852, 14187.009833694678, 31502.459228331954, 6226.748970359442, -187500.02235174447, 36189.19535746519, 15934.53627044395, -25331.05317724385, -187500.02235174447, 53101.106357706354, 25678.80161747952, -2868.7346421163847, 60622.04368377253, 31165.909012068394, 0.19, 0.9480000000000001, 0.338, 192.0, 0.0, 0.0, 0.0, 0.0, 0.0, 0.0, 0.0, 0.0, 0.0, 1.6959296435385296E9, 0.0, 2023-09-28 14:34:03.538
72.0, 14830.807129240888, 18938.49896651494, 30213.45647733885, 14183.791182493113, 31502.861559732148, 6229.989973305461, -187500.02235174447, 36173.549136346475, 15912.318636455375, -25351.706189120556, -187500.02235174447, 53130.63301213182, 25658.08155036945, -2887.375996992111, 60737.11046422845, 31180.772922131175, 0.19, 0.9480000000000001, 0.338, 192.0, 0.0, 0.0, 0.0, 0.0, 0.0, 0.0, 0.0, 0.0, 0.0, 1.695929643538545E9, 0.0, 2023-09-28 14:34:03.538
74.0, 14647.589879940735, 18934.565059490807, 30189.6742212384, 14199.683272800838, 31522.06170821926, 6240.204720521537, -187500.02235174447, 36208.73078211913, 15941.82293913638, -25319.519677104912, -187500.02235174447, 53112.39398865629, 25697.577082821976, -2850.8755982965945, 60617.23805871464, 31173.530956927654, 0.19, 0.9480000000000001, 0.338, 192.0, 0.0, 0.0, 0.0, 0.0, 0.0, 0.0, 0.0, 0.0, 0.0, 1.6959296435385573E9, 0.0, 2023-09-28 14:34:03.538
76.0, 14830.829480985341, 18934.90033565764, 30233.93067525991, 14178.650281268392, 31504.873216733125, 6230.7722843613965, -187500.02235174447, 36187.58603186441, 15920.745244115025, -25340.843241315277, -187500.02235174447, 53139.79722735849, 25669.190367363735, -2871.573313662209, 60714.84812675096, 31198.609614206507, 0.19, 0.9480000000000001, 0.338, 192.0, 0.0, 0.0, 0.0, 0.0, 0.0, 0.0, 0.0, 0.0, 0.0, 1.6959296435385718E9, 0.0, 2023-09-28 14:34:03.538
78.0, 14642.091350804729, 18933.78274843487, 30178.990087388767, 14191.726051774747, 31510.684670291506, 6241.210549022026, -187500.02235174447, 36200.751209348586, 15935.00565707751, -25320.34669164976, -187500.02235174447, 53112.63985784529, 25686.580024549967, -2861.447973423955, 60629.68798037624, 31169.88762258144, 0.184, 0.9480000000000001, 0.334, 192.0, 2.5, 96.0, 14.5, 80.0, 5.0, 56.0, 0.0, 0.0, 0.0, 1.695929643538586E9, 0.0, 2023-09-28 14:34:03.538
80.0, 14854.142350452228, 18916.191925548545, 30235.11531771604, 14155.359763545963, 31478.162882109034, 6202.9443625145395, -187500.02235174447, 36163.02146470803, 15901.031005505445, -25356.198889756073, -187500.02235174447, 53123.838081817405, 25648.73852118713, -2900.831747154206, 60708.52258307012, 31176.68255289585, 0.184, 0.9480000000000001, 0.334, 192.0, 0.0, 0.0, 0.0, 0.0, 0.0, 0.0, 0.0, 0.0, 0.0, 1.6959296435386016E9, 0.0, 2023-09-28 14:34:03.538
82.0, 14662.56554872579, 18936.442606025055, 30161.48867148026, 14193.491839586717, 31511.51168483635, 6240.6294036661875, -187500.02235174447, 36188.524805131536, 15919.158270258698, -25325.44288938557, -187500.02235174447, 53106.87310777583, 25674.532434288554, -2877.340063731678, 60653.984326599166, 31152.4532619063, 0.184, 0.9480000000000001, 0.334, 192.0, 0.0, 0.0, 0.0, 0.0, 0.0, 0.0, 0.0, 0.0, 0.0, 1.6959296435386276E9, 0.0, 2023-09-28 14:34:03.538
84.0, 14842.74296078002, 18929.93824838856, 30251.40973942396, 14171.52007478715, 31484.130797878603, 6209.292257939846, -187500.02235174447, 36172.87858401282, 15911.022235276967, -25339.368026181226, -187500.02235174447, 53125.581517884915, 25663.22245159417, -2896.76372966334, 60689.545952027554, 31191.79233214764, 0.184, 0.9480000000000001, 0.334, 192.0, 0.0, 0.0, 0.0, 0.0, 0.0, 0.0, 0.0, 0.0, 0.0, 1.6959296435386543E9, 0.0, 2023-09-28 14:34:03.538
86.0, 14685.051403647829, 18929.98295187747, 30156.83950863356, 14181.064269669567, 31503.666222532538, 6231.085208783771, -187500.02235174447, 36182.53453761751, 15911.089290510332, -25337.423424413613, -187500.02235174447, 53103.073311218424, 25660.69670447072, -2893.030988339304, 60673.9220826533, 31152.386206672934, 0.184, 0.9480000000000001, 0.334, 192.0, 0.0, 0.0, 0.0, 0.0, 0.0, 0.0, 0.0, 0.0, 0.0, 1.6959296435386848E9, 0.0, 2023-09-28 14:34:03.538
88.0, 14830.203632140594, 18932.17342283409, 30256.215364481854, 14172.972938176745, 31482.096789133167, 6212.6897230970535, -187500.02235174447, 36165.234287409105, 15917.258371979997, -25335.6799883461, -187500.02235174447, 53127.883747563814, 25661.36725680438, -2891.28755227179, 60668.28944305056, 31183.522186699178, 0.186, 0.9480000000000001, 0.332, 192.0, 2.5, 104.0, 14.5, 80.0, 5.0, 48.0, 0.0, 0.0, 0.0, 1.6959296435387063E9, 0.0, 2023-09-28 14:34:03.538
90.0, 14680.066964634296, 18955.396885323153, 30170.20585181783, 14208.534563605139, 31517.457248861465, 6254.800409650852, -187500.02235174447, 36192.078732499926, 15927.875450596268, -25319.363214893725, -187500.02235174447, 53134.07518077793, 25673.437198810247, -2871.148630517558, 60675.821980932, 31168.948849314314, 0.186, 0.9480000000000001, 0.332, 192.0, 0.0, 0.0, 0.0, 0.0, 0.0, 0.0, 0.0, 0.0, 0.0, 1.69592964353872E9, 0.0, 2023-09-28 14:34:03.538
92.0, 14821.844079714308, 18927.680722198573, 30267.41358845396, 14164.032240394621, 31473.603126240152, 6198.541068856844, -187500.02235174447, 36153.857249481356, 15910.754014343504, -25332.86366854473, -187500.02235174447, 53133.44933193318, 25653.79001543403, -2888.8512121261615, 60650.85508237542, 31191.658221680907, 0.186, 0.9480000000000001, 0.332, 192.0, 0.0, 0.0, 0.0, 0.0, 0.0, 0.0, 0.0, 0.0, 0.0, 1.6959296435387328E9, 0.0, 2023-09-28 14:34:03.538
94.0, 14704.586828301768, 18959.420199325108, 30171.949287885345, 14207.61814208247, 31525.213304187455, 6250.352412504246, -187500.02235174447, 36187.51897663104, 15916.967799302078, -25318.402089882147, -187500.02235174447, 53133.24816623308, 25660.629649237355, -2882.6597789120415, 60687.8248677045, 31159.337599198534, 0.186, 0.9480000000000001, 0.332, 192.0, 0.0, 0.0, 0.0, 0.0, 0.0, 0.0, 0.0, 0.0, 0.0, 1.6959296435387459E9, 0.0, 2023-09-28 14:34:03.538
96.0, 14801.503992259979, 18928.530088487874, 30268.955858821377, 14164.367516561451, 31471.546765750263, 6193.064891465294, -187500.02235174447, 36157.25471463856, 15914.978494045556, -25328.929761520598, -187500.02235174447, 53138.1431982688, 25659.06502712548, -2874.143764274569, 60628.36922745338, 31191.92644261437, 0.186, 0.9480000000000001, 0.332, 192.0, 0.0, 0.0, 0.0, 0.0, 0.0, 0.0, 0.0, 0.0, 0.0, 1.69592964353876E9, 0.0, 2023-09-28 14:34:03.538
98.0, 14731.945363515064, 18966.393943595165, 30181.6722967234, 14203.684235058337, 31523.939254753503, 6243.244557767458, -187500.02235174447, 36179.9417352607, 15909.122336998265, -25329.86853478772, -187500.02235174447, 53142.05475354848, 25661.590774248933, -2887.6442179255746, 60698.10667015394, 31161.34925619951, 0.188, 0.9440000000000001, 0.334, 192.0, 2.5, 112.0, 14.5, 64.0, 5.0, 56.0, 0.0, 0.0, 0.0, 1.6959296435387747E9, 0.0, 2023-09-28 14:34:03.538
100.0, 14758.298070227871, 18943.550460761842, 30282.61277468357, 14181.779525492137, 31492.64681251607, 6203.167879959093, -187500.02235174447, 36170.08461595591, 15916.856040579802, -25313.372947379703, -187500.02235174447, 53142.568843670946, 25671.112617386894, -2869.3381392166784, 60603.58114285245, 31189.825378635574, 0.188, 0.9440000000000001, 0.334, 192.0, 0.0, 0.0, 0.0, 0.0, 0.0, 0.0, 0.0, 0.0, 0.0, 1.6959296435387907E9, 0.0, 2023-09-28 14:34:03.538
102.0, 14758.096904527772, 18951.105350387734, 30195.93270968589, 14195.123516931953, 31513.56804532624, 6225.6090313922205, -187500.02235174447, 36177.93007825972, 15899.108755482288, -25328.192153953572, -187500.02235174447, 53152.202445531184, 25657.925088158263, -2880.7375288888848, 60710.62364704891, 31175.229689506257, 0.188, 0.9440000000000001, 0.334, 192.0, 0.0, 0.0, 0.0, 0.0, 0.0, 0.0, 0.0, 0.0, 0.0, 1.695929643538803E9, 0.0, 2023-09-28 14:34:03.538
104.0, 14748.664468367633, 18922.69628318504, 30259.299905216685, 14172.212978865264, 31488.735257236396, 6193.5566298433105, -187500.02235174447, 36161.523897829524, 15901.09806073881, -25332.930723778096, -187500.02235174447, 53125.648573118284, 25662.909527171796, -2876.2895317422785, 60617.37216918137, 31177.531919185156, 0.188, 0.9440000000000001, 0.334, 192.0, 0.0, 0.0, 0.0, 0.0, 0.0, 0.0, 0.0, 0.0, 0.0, 1.6959296435388184E9, 0.0, 2023-09-28 14:34:03.538
106.0, 14802.532172504923, 18931.525222244887, 30183.706305468837, 14169.530769530627, 31500.246405630878, 6205.157185215615, -187500.02235174447, 36165.100176942375, 15880.892083751212, -25357.49529093448, -187500.02235174447, 53132.152930754775, 25643.68702694023, -2903.2457355553793, 60735.59054560549, 31161.21514573278, 0.188, 0.9440000000000001, 0.334, 192.0, 0.0, 0.0, 0.0, 0.0, 0.0, 0.0, 0.0, 0.0, 0.0, 1.695929643538843E9, 0.0, 2023-09-28 14:34:03.538
108.0, 14726.6256483347, 18921.13166107317, 30237.059919483654, 14167.452057296285, 31486.678896746507, 6188.952170485517, -187500.02235174447, 36174.37615089132, 15903.95908402909, -25328.505078375947, -187500.02235174447, 53111.99165725609, 25669.36918131938, -2878.323540487712, 60601.547134107015, 31170.468767937276, 0.184, 0.9480000000000001, 0.326, 192.0, 2.5, 96.0, 14.5, 80.0, 5.0, 24.0, 0.0, 0.0, 0.0, 1.6959296435388663E9, 0.0, 2023-09-28 14:34:03.538
110.0, 14822.782852981432, 18933.670989712595, 30187.126122370497, 14162.333507816018, 31489.36110608114, 6191.835545520252, -187500.02235174447, 36151.80088899146, 15883.015499474466, -25350.320380964327, -187500.02235174447, 53132.018820288045, 25642.368274017368, -2904.3633227781443, 60728.996780991176, 31163.02563703366, 0.184, 0.9480000000000001, 0.326, 192.0, 0.0, 0.0, 0.0, 0.0, 0.0, 0.0, 0.0, 0.0, 0.0, 1.6959296435388882E9, 0.0, 2023-09-28 14:34:03.538
112.0, 14717.260267407926, 18920.2152395505, 30212.45064883836, 14159.09250487, 31471.45735877244, 6169.304987109303, -187500.02235174447, 36155.667740782235, 15897.231208948042, -25335.836450557286, -187500.02235174447, 53095.40666287025, 25653.298277056012, -2894.6850174289966, 60599.446070128215, 31152.74383458422, 0.184, 0.9480000000000001, 0.326, 192.0, 0.0, 0.0, 0.0, 0.0, 0.0, 0.0, 0.0, 0.0, 0.0, 1.6959296435389028E9, 0.0, 2023-09-28 14:34:03.538
114.0, 14845.246356159016, 18942.052893883338, 30192.043506150665, 14158.019621136144, 31478.073475131212, 6178.4692023359785, -187500.02235174447, 36144.29070285448, 15875.52766508194, -25350.521546664426, -187500.02235174447, 53126.54264289649, 25632.019416334562, -2912.6558199710635, 60724.727597800214, 31154.10729099599, 0.184, 0.9480000000000001, 0.326, 192.0, 0.0, 0.0, 0.0, 0.0, 0.0, 0.0, 0.0, 0.0, 0.0, 1.6959296435389175E9, 0.0, 2023-09-28 14:34:03.538
116.0, 14682.659766991112, 18943.84103343976, 30199.30782309864, 14176.66097601187, 31494.636117772596, 6185.733519283953, -187500.02235174447, 36170.263429911545, 15898.594665359817, -25322.44775562856, -187500.02235174447, 53104.83909903039, 25662.730713216155, -2887.778328392307, 60586.48205834414, 31146.73121532574, 0.184, 0.9480000000000001, 0.326, 192.0, 0.0, 0.0, 0.0, 0.0, 0.0, 0.0, 0.0, 0.0, 0.0, 1.6959296435389392E9, 0.0, 2023-09-28 14:34:03.538
118.0, 14844.374638125259, 18942.27641132789, 30212.98709070529, 14155.203301334775, 31478.788730953784, 6165.818114974274, -187500.02235174447, 36148.023444178514, 15890.52568561145, -25337.043444757874, -187500.02235174447, 53142.47943669313, 25646.682160697244, -2908.610154224653, 60697.70433875374, 31164.344389956525, 0.186, 0.9500000000000001, 0.322, 192.0, 2.5, 104.0, 14.5, 88.0, 5.0, 8.0, 0.0, 0.0, 0.0, 1.6959296435389612E9, 0.0, 2023-09-28 14:34:03.538
120.0, 14678.345880311237, 18924.573829719287, 30190.836511950078, 14163.384039805418, 31485.71777173493, 6165.706356251998, -187500.02235174447, 36167.961200232654, 15890.391575144718, -25334.383587167693, -187500.02235174447, 53100.01112222805, 25652.001875877606, -2906.084407101203, 60589.67835780125, 31137.92462801035, 0.186, 0.9500000000000001, 0.322, 192.0, 0.0, 0.0, 0.0, 0.0, 0.0, 0.0, 0.0, 0.0, 0.0, 1.6959296440176327E9, 0.0, 2023-09-28 14:34:04.017
122.0, 14862.032516244952, 18930.653504211128, 30216.943349473877, 14145.614402963449, 31477.559385008743, 6157.056231147794, -187500.02235174447, 36149.31984535693, 15864.798827743392, -25359.931631080108, -187500.02235174447, 53125.55916614046, 25631.393567489813, -2926.558605022264, 60692.004643917644, 31156.40952067489, 0.186, 0.9500000000000001, 0.322, 192.0, 0.0, 0.0, 0.0, 0.0, 0.0, 0.0, 0.0, 0.0, 0.0, 1.69592964401769E9, 0.0, 2023-09-28 14:34:04.017
124.0, 14674.434325031558, 18927.23368730947, 30167.47893899428, 14158.958394403267, 31498.79354224128, 6167.114516152682, -187500.02235174447, 36172.520956101536, 15876.95817672708, -25335.34471217927, -187500.02235174447, 53097.753596038056, 25652.27009681107, -2905.7491309343736, 60596.8532677714, 31137.87992452144, 0.186, 0.9500000000000001, 0.322, 192.0, 0.0, 0.0, 0.0, 0.0, 0.0, 0.0, 0.0, 0.0, 0.0, 1.6959296440177076E9, 0.0, 2023-09-28 14:34:04.017
126.0, 14850.74488529502, 18931.83814666726, 30229.393271135483, 14153.303403056074, 31497.720658507427, 6159.8054957157965, -187500.02235174447, 36175.49373811409, 15865.84935973279, -25356.265944989438, -187500.02235174447, 53122.87695680583, 25640.334265271937, -2926.536253277809, 60676.04549837655, 31159.806985832096, 0.186, 0.9500000000000001, 0.322, 192.0, 0.0, 0.0, 0.0, 0.0, 0.0, 0.0, 0.0, 0.0, 0.0, 1.6959296440177252E9, 0.0, 2023-09-28 14:34:04.017
128.0, 14660.866816147187, 18928.440681510056, 30169.132968083977, 14171.385964320418, 31512.964548225948, 6177.686891280043, -187500.02235174447, 36201.935851804716, 15879.103944194789, -25340.530316892902, -187500.02235174447, 53102.20159318466, 25657.858032924898, -2906.1738140790244, 60609.34789292191, 31147.804099059595, 0.194, 0.9560000000000001, 0.318, 192.0, 3.0, 8.0, 14.5, 112.0, 4.5, 120.0, 0.0, 0.0, 0.0, 1.6959296440177412E9, 0.0, 2023-09-28 14:34:04.017
130.0, 14842.899422991208, 18936.50966125842, 30254.583687136615, 14157.617289735948, 31486.388324068586, 6150.574225255755, -187500.02235174447, 36179.718217816146, 15874.119505181254, -25340.172688981616, -187500.02235174447, 53134.07518077793, 25647.50917524209, -2910.8453286701833, 60662.25447204763, 31181.868157609482, 0.194, 0.9560000000000001, 0.318, 192.0, 0.0, 0.0, 0.0, 0.0, 0.0, 0.0, 0.0, 0.0, 0.0, 1.6959296440177562E9, 0.0, 2023-09-28 14:34:04.017
132.0, 14667.170008083584, 18960.358972592232, 30171.21168031832, 14192.19543840831, 31500.201702141967, 6184.727690783464, -187500.02235174447, 36199.29834595899, 15889.653967577693, -25316.658653814633, -187500.02235174447, 53122.295811449985, 25653.611201478387, -2889.8123371377396, 60631.252602488115, 31152.475613650757, 0.194, 0.9560000000000001, 0.318, 192.0, 0.0, 0.0, 0.0, 0.0, 0.0, 0.0, 0.0, 0.0, 0.0, 1.6959296440177734E9, 0.0, 2023-09-28 14:34:04.017
134.0, 14840.664248545678, 18960.18015863659, 30264.88784133051, 14171.050688153588, 31462.51666099032, 6146.908539165085, -187500.02235174447, 36169.212897922145, 15895.532476369439, -25302.19707515205, -187500.02235174447, 53148.84968386289, 25643.88819264033, -2886.5936859361755, 60647.01058232911, 31182.292840754133, 0.194, 0.9560000000000001, 0.318, 192.0, 0.0, 0.0, 0.0, 0.0, 0.0, 0.0, 0.0, 0.0, 0.0, 1.695929644017789E9, 0.0, 2023-09-28 14:34:04.017
136.0, 14693.030976418375, 18957.90028070215, 30161.53337496917, 14176.124534144943, 31490.00930667035, 6156.385678814135, -187500.02235174447, 36181.796930050485, 15898.14763047071, -25301.01243269592, -187500.02235174447, 53128.55429989747, 25643.061178095482, -2886.928962103005, 60642.5625851825, 31148.854631048995, 0.194, 0.9560000000000001, 0.318, 192.0, 0.0, 0.0, 0.0, 0.0, 0.0, 0.0, 0.0, 0.0, 0.0, 1.695929644017804E9, 0.0, 2023-09-28 14:34:04.017
138.0, 14834.070483931362, 18914.046158080837, 30250.828594068123, 14129.878774866913, 31459.18625106648, 6100.4616141869565, -187500.02235174447, 36157.50058382757, 15886.658833820682, -25325.711110319033, -187500.02235174447, 53123.413398672754, 25633.58403844643, -2909.5265757473203, 60625.41879718528, 31167.540689413632, 0.192, 0.962, 0.318, 192.0, 3.0, 0.0, 15.0, 8.0, 4.5, 120.0, 0.0, 0.0, 0.0, 1.6959296440178213E9, 0.0, 2023-09-28 14:34:04.017
140.0, 14714.354540628738, 18914.403785992123, 30141.59561891504, 14152.252871066676, 31503.599167299173, 6133.475140747445, -187500.02235174447, 36173.124453201825, 15866.072877177345, -25362.099750292273, -187500.02235174447, 53090.80220351246, 25629.337206999924, -2937.3544975941777, 60658.25350979013, 31127.084031949526, 0.192, 0.962, 0.318, 192.0, 0.0, 0.0, 0.0, 0.0, 0.0, 0.0, 0.0, 0.0, 0.0, 1.6959296440178363E9, 0.0, 2023-09-28 14:34:04.017
142.0, 14810.399986553191, 18900.277483496367, 30242.51374513075, 14131.979838845711, 31476.352390808155, 6107.323599734736, -187500.02235174447, 36167.49181359909, 15874.0971534368, -25352.77907285441, -187500.02235174447, 53093.46206110264, 25638.859050137886, -2922.7588084648623, 60612.67830284576, 31161.818642833074, 0.192, 0.962, 0.318, 192.0, 0.0, 0.0, 0.0, 0.0, 0.0, 0.0, 0.0, 0.0, 0.0, 1.6959296440178514E9, 0.0, 2023-09-28 14:34:04.017
144.0, 14740.81900606382, 18898.198771262025, 30140.1651072699, 14142.731027928714, 31497.60889978515, 6125.316754021258, -187500.02235174447, 36162.95440947466, 15856.238109617008, -25374.728485909523, -187500.02235174447, 53090.17635466771, 25619.435384206223, -2937.578015038731, 60685.90261768134, 31138.30460766609, 0.192, 0.962, 0.318, 192.0, 0.0, 0.0, 0.0, 0.0, 0.0, 0.0, 0.0, 0.0, 0.0, 1.6959296440178668E9, 0.0, 2023-09-28 14:34:04.017
146.0, 14786.72948917502, 18893.393146204133, 30242.379634664016, 14133.41035049085, 31480.979201910402, 6093.577276894722, -187500.02235174447, 36168.318828143936, 15872.465476091562, -25359.574003168822, -187500.02235174447, 53082.75557550855, 25635.618047191867, -2919.048418885281, 60603.11175621889, 31162.064512022083, 0.192, 0.962, 0.318, 192.0, 0.0, 0.0, 0.0, 0.0, 0.0, 0.0, 0.0, 0.0, 0.0, 1.695929644017882E9, 0.0, 2023-09-28 14:34:04.017
148.0, 14758.946270817074, 18909.061719067304, 30147.29531375114, 14144.161539573854, 31496.066629417735, 6121.6510679305875, -187500.02235174447, 36163.893182741784, 15858.652098018183, -25369.5875846848, -187500.02235174447, 53085.84011624338, 25616.663767893766, -2935.409895826566, 60687.26607409312, 31141.053872234093, 0.192, 0.96, 0.318, 192.0, 3.0, 0.0, 15.0, 0.0, 4.5, 120.0, 0.0, 0.0, 0.0, 1.6959296440178971E9, 0.0, 2023-09-28 14:34:04.017
150.0, 14764.757724375455, 18892.11909677018, 30233.26012292625, 14126.928344598813, 31476.441797785974, 6083.764861078842, -187500.02235174447, 36165.524860087025, 15868.308051622875, -25354.097825777273, -187500.02235174447, 53074.59718878236, 25630.54420120051, -2923.921099176538, 60584.26923564306, 31154.017884018172, 0.192, 0.96, 0.318, 192.0, 0.0, 0.0, 0.0, 0.0, 0.0, 0.0, 0.0, 0.0, 0.0, 1.6959296440179124E9, 0.0, 2023-09-28 14:34:04.017
152.0, 14778.30288151537, 18921.533992473363, 30162.40509300293, 14152.901071655879, 31503.219187643434, 6116.510166705867, -187500.02235174447, 36171.71629330114, 15856.66279276166, -25368.40294222867, -187500.02235174447, 53095.49606984807, 25615.25560799308, -2933.8676254591496, 60698.710167254234, 31139.221029188757, 0.192, 0.96, 0.318, 192.0, 0.0, 0.0, 0.0, 0.0, 0.0, 0.0, 0.0, 0.0, 0.0, 1.6959296440179293E9, 0.0, 2023-09-28 14:34:04.017
154.0, 14729.307857669337, 18913.174440047078, 30238.289265428695, 14151.068228610544, 31489.249347358866, 6101.601553154177, -187500.02235174447, 36193.97863077863, 15885.205970431087, -25335.009436012442, -187500.02235174447, 53092.38917736879, 25641.138928072327, -2897.5236889748203, 60575.954386705685, 31158.64469512042, 0.192, 0.96, 0.318, 192.0, 0.0, 0.0, 0.0, 0.0, 0.0, 0.0, 0.0, 0.0, 0.0, 1.695929644017944E9, 0.0, 2023-09-28 14:34:04.017
156.0, 14807.181335351628, 18913.2638470249, 30178.319535055107, 14146.396714019385, 31484.22020485642, 6095.4101199400575, -187500.02235174447, 36160.562772817946, 15869.716211523559, -25354.544860666378, -187500.02235174447, 53117.4901863921, 25617.11080278287, -2927.117398633647, 60708.232010392196, 31156.40952067489, 0.192, 0.96, 0.318, 192.0, 0.0, 0.0, 0.0, 0.0, 0.0, 0.0, 0.0, 0.0, 0.0, 1.695929644017959E9, 0.0, 2023-09-28 14:34:04.017
158.0, 14733.755854815943, 18888.140486257136, 30216.116334929033, 14135.913745869846, 31473.13373960659, 6074.779459807809, -187500.02235174447, 36177.93007825972, 15875.460609848573, -25354.857785088752, -187500.02235174447, 53077.480563817095, 25623.279884252537, -2914.086331616203, 60587.08555544443, 31152.855593306496, 0.19, 0.9500000000000001, 0.316, 192.0, 2.5, 120.0, 14.5, 88.0, 4.5, 112.0, 0.0, 0.0, 0.0, 1.6959296440179749E9, 0.0, 2023-09-28 14:34:04.017
160.0, 14853.203577185104, 18907.720614399983, 30176.285526309675, 14132.963315601744, 31487.304745591257, 6089.956294292962, -187500.02235174447, 36170.79987177847, 15853.488845049007, -25375.108465565263, -187500.02235174447, 53094.91492449224, 25592.05449724847, -2936.1922068825015, 60730.00260949166, 31147.334712426033, 0.19, 0.9500000000000001, 0.316, 192.0, 0.0, 0.0, 0.0, 0.0, 0.0, 0.0, 0.0, 0.0, 0.0, 1.695929644017992E9, 0.0, 2023-09-28 14:34:04.017
162.0, 14718.221392419506, 18897.01412880589, 30204.851055723557, 14140.875833138924, 31484.577832767707, 6079.942712776985, -187500.02235174447, 36186.691962086195, 15890.972720500557, -25339.569191881325, -187500.02235174447, 53076.05005217196, 25629.203096533194, -2901.6811134435075, 60588.35960487838, 31150.419253160868, 0.19, 0.9500000000000001, 0.316, 192.0, 0.0, 0.0, 0.0, 0.0, 0.0, 0.0, 0.0, 0.0, 0.0, 1.6959296440180092E9, 0.0, 2023-09-28 14:34:04.018
164.0, 14876.5611501409, 18903.719652142485, 30194.01045966273, 14126.973048087722, 31478.676972231508, 6072.365471406636, -187500.02235174447, 36159.26637163954, 15860.842568974802, -25381.143436568196, -187500.02235174447, 53093.707930291646, 25592.278014693024, -2943.277709874834, 60725.10757745595, 31157.772977086664, 0.19, 0.9500000000000001, 0.316, 192.0, 0.0, 0.0, 0.0, 0.0, 0.0, 0.0, 0.0, 0.0, 0.0, 1.6959296440180264E9, 0.0, 2023-09-28 14:34:04.018
166.0, 14695.109688652718, 18908.391166733643, 30195.26215735223, 14150.174158832331, 31499.508798063853, 6087.2517332138705, -187500.02235174447, 36181.90868877276, 15895.197200202609, -25347.50406116296, -187500.02235174447, 53068.07047940141, 25623.704567397188, -2906.665552457041, 60591.75707003559, 31144.2501716912, 0.19, 0.9500000000000001, 0.316, 192.0, 0.0, 0.0, 0.0, 0.0, 0.0, 0.0, 0.0, 0.0, 0.0, 1.6959296440180416E9, 0.0, 2023-09-28 14:34:04.018
168.0, 14880.048022275929, 18910.000492334424, 30220.810201264645, 14127.822414377024, 31474.854823929647, 6060.67550905651, -187500.02235174447, 36145.74356624408, 15876.198217415598, -25374.25909927596, -187500.02235174447, 53099.11705244983, 25597.307157195468, -2936.371020838144, 60708.0308446921, 31159.49406140972, 0.188, 0.9460000000000001, 0.314, 192.0, 2.5, 112.0, 14.5, 72.0, 4.5, 104.0, 0.0, 0.0, 0.0, 1.6959296440180573E9, 0.0, 2023-09-28 14:34:04.018
170.0, 14693.232142118472, 18908.637035922653, 30191.618823006014, 14152.878719911423, 31490.255175859354, 6071.672567328521, -187500.02235174447, 36170.554002589466, 15895.711290325082, -25343.59250588328, -187500.02235174447, 53073.41254632623, 25618.74248012811, -2905.86088965665, 60597.92615150526, 31132.515505852167, 0.188, 0.9460000000000001, 0.314, 192.0, 0.0, 0.0, 0.0, 0.0, 0.0, 0.0, 0.0, 0.0, 0.0, 1.6959296440180728E9, 0.0, 2023-09-28 14:34:04.018
172.0, 14879.243359475537, 18917.465974982497, 30242.066710241645, 14146.75434193067, 31489.025829914313, 6062.016613723828, -187500.02235174447, 36154.57250530392, 15881.47322910705, -25358.478767690514, -187500.02235174447, 53100.2346396726, 25596.97188102864, -2921.8423869421945, 60695.33505384148, 31162.891526566927, 0.188, 0.9460000000000001, 0.314, 192.0, 0.0, 0.0, 0.0, 0.0, 0.0, 0.0, 0.0, 0.0, 0.0, 1.695929644018088E9, 0.0, 2023-09-28 14:34:04.018
174.0, 14677.675327977578, 18927.479556498474, 30194.59160501857, 14175.319871344553, 31515.937330238503, 6087.899933803074, -187500.02235174447, 36178.511223615555, 15898.795831059913, -25331.611970855236, -187500.02235174447, 53071.37853758079, 25622.989311574616, -2896.4061017520553, 60613.907648790795, 31142.037348990125, 0.188, 0.9460000000000001, 0.314, 192.0, 0.0, 0.0, 0.0, 0.0, 0.0, 0.0, 0.0, 0.0, 0.0, 1.6959296440181034E9, 0.0, 2023-09-28 14:34:04.018
176.0, 14883.087859521851, 18912.056852824313, 30268.37471346554, 14155.650336223882, 31492.065667160234, 6055.288738642781, -187500.02235174447, 36157.81350824994, 15891.218589689564, -25350.320380964327, -187500.02235174447, 53101.01695072853, 25601.397526430792, -2920.367171808144, 60697.324359098006, 31171.206375504302, 0.188, 0.9460000000000001, 0.314, 192.0, 0.0, 0.0, 0.0, 0.0, 0.0, 0.0, 0.0, 0.0, 0.0, 1.69592964401812E9, 0.0, 2023-09-28 14:34:04.018
178.0, 14686.079583892773, 18941.069417127303, 30202.973509189313, 14195.27997914314, 31528.834286789217, 6094.381939695113, -187500.02235174447, 36189.30711618747, 15921.572258659871, -25324.325302162804, -187500.02235174447, 53086.75653776605, 25633.338169257426, -2889.767633648829, 60638.606326413916, 31149.301665938103, 0.192, 0.96, 0.306, 192.0, 3.0, 0.0, 15.0, 0.0, 4.5, 72.0, 0.0, 0.0, 0.0, 1.6959296440181353E9, 0.0, 2023-09-28 14:34:04.018
180.0, 14874.169513484183, 18935.50383275793, 30288.33482126413, 14170.156618375377, 31500.313460864243, 6061.502523601356, -187500.02235174447, 36157.92526697222, 15911.20104923261, -25338.608066869747, -187500.02235174447, 53109.73413106611, 25613.73568937012, -2905.3020960452673, 60685.18736185877, 31182.292840754133, 0.192, 0.96, 0.306, 192.0, 0.0, 0.0, 0.0, 0.0, 0.0, 0.0, 0.0, 0.0, 0.0, 1.6959296440181515E9, 0.0, 2023-09-28 14:34:04.018
182.0, 14691.533409539868, 18955.016905667413, 30201.542997544173, 14211.976732251256, 31545.084005008222, 6104.082596788717, -187500.02235174447, 36193.911575545266, 15920.275857481463, -25317.217447426017, -187500.02235174447, 53094.5796483254, 25627.21379127667, -2887.755976647851, 60661.22629180268, 31146.284180436636, 0.192, 0.96, 0.306, 192.0, 0.0, 0.0, 0.0, 0.0, 0.0, 0.0, 0.0, 0.0, 0.0, 1.6959296440181737E9, 0.0, 2023-09-28 14:34:04.018
184.0, 14849.582594583344, 18942.544632261353, 30304.22691157185, 14182.450077825795, 31505.789638255792, 6068.163343449038, -187500.02235174447, 36183.31684867345, 15923.248639494019, -25315.474011358503, -187500.02235174447, 53115.99261951359, 25623.59280867491, -2885.6772644135076, 60659.48285573517, 31187.299631512124, 0.192, 0.96, 0.306, 192.0, 0.0, 0.0, 0.0, 0.0, 0.0, 0.0, 0.0, 0.0, 0.0, 1.6959296440181887E9, 0.0, 2023-09-28 14:34:04.018
186.0, 14709.235991148471, 18961.253042370445, 30194.770418974214, 14210.38975839493, 31542.42414741804, 6103.233230499414, -187500.02235174447, 36207.546139663, 15934.692732655138, -25316.68100555909, -187500.02235174447, 53098.60296232736, 25634.053425079994, -2881.7210056449185, 60673.45269601974, 31153.235572962236, 0.192, 0.96, 0.306, 192.0, 0.0, 0.0, 0.0, 0.0, 0.0, 0.0, 0.0, 0.0, 0.0, 1.695929644018204E9, 0.0, 2023-09-28 14:34:04.018
188.0, 14831.857661230286, 18951.686495743572, 30302.103495848598, 14190.183781407331, 31505.90139697807, 6064.520009102823, -187500.02235174447, 36194.805645323475, 15947.097950827832, -25308.455563599535, -187500.02235174447, 53115.880860791316, 25626.476183709645, -2880.089328299681, 60642.13790203785, 31195.301556027123, 0.196, 0.9580000000000001, 0.306, 192.0, 3.0, 16.0, 14.5, 120.0, 4.5, 72.0, 0.0, 0.0, 0.0, 1.695929644018221E9, 0.0, 2023-09-28 14:34:04.018
190.0, 14744.350581687759, 18962.3259261043, 30192.267023595217, 14210.121537461466, 31525.079193720725, 6090.448032670979, -187500.02235174447, 36192.77163657804, 15938.313715256896, -25325.174668452106, -187500.02235174447, 53102.022779229024, 25611.724032369144, -2891.756938905351, 60695.04448116356, 31151.805061317096, 0.196, 0.9580000000000001, 0.306, 192.0, 0.0, 0.0, 0.0, 0.0, 0.0, 0.0, 0.0, 0.0, 0.0, 1.6959296440182354E9, 0.0, 2023-09-28 14:34:04.018
192.0, 14823.967495437562, 18956.313306845823, 30292.89457713301, 14208.266342671675, 31503.107428921157, 6072.790154551287, -187500.02235174447, 36210.8989013313, 15953.44584625314, -25308.38850836617, -187500.02235174447, 53112.84102354539, 25629.40426223329, -2867.795868849262, 60624.99411404063, 31182.49400645423, 0.196, 0.9580000000000001, 0.306, 192.0, 0.0, 0.0, 0.0, 0.0, 0.0, 0.0, 0.0, 0.0, 0.0, 1.69592964401825E9, 0.0, 2023-09-28 14:34:04.018
194.0, 14775.777134391921, 18971.400734353156, 30188.288413082173, 14224.314895190586, 31535.33864442571, 6100.036931042306, -187500.02235174447, 36213.11172403237, 15946.025067093977, -25317.798592781855, -187500.02235174447, 53115.25501194657, 25622.519924941054, -2877.8988573430606, 60708.701397025754, 31169.820567348073, 0.196, 0.9580000000000001, 0.306, 192.0, 0.0, 0.0, 0.0, 0.0, 0.0, 0.0, 0.0, 0.0, 0.0, 1.6959296440182643E9, 0.0, 2023-09-28 14:34:04.018
196.0, 14815.74205347801, 18955.575699278797, 30279.908213604478, 14205.33826414803, 31504.225016143922, 6066.308148659247, -187500.02235174447, 36196.79495058, 15970.947262161644, -25298.71020301702, -187500.02235174447, 53104.59322984138, 25639.104919326892, -2871.3721479621113, 60617.79685232602, 31188.03723907915, 0.196, 0.9580000000000001, 0.306, 192.0, 0.0, 0.0, 0.0, 0.0, 0.0, 0.0, 0.0, 0.0, 0.0, 1.6959296440182796E9, 0.0, 2023-09-28 14:34:04.018
198.0, 14813.752748221488, 18972.18304540909, 30188.087247382075, 14220.068063744076, 31527.783754799817, 6093.39846293908, -187500.02235174447, 36206.272090229046, 15950.182491562664, -25315.295197402862, -187500.02235174447, 53111.8351950449, 25619.77066037305, -2884.7384911463846, 60721.710112298744, 31164.254982978702, 0.196, 0.9520000000000001, 0.314, 192.0, 3.0, 16.0, 14.5, 96.0, 4.5, 104.0, 0.0, 0.0, 0.0, 1.6959296440182943E9, 0.0, 2023-09-28 14:34:04.018
200.0, 14782.505009472969, 18961.208338881534, 30253.8907830585, 14219.218697454775, 31512.04812670328, 6073.907741774052, -187500.02235174447, 36215.92804383374, 15969.919081916702, -25299.090182672764, -187500.02235174447, 53094.28907564749, 25647.285657797536, -2874.9037235860496, 60606.79979405401, 31176.995477318225, 0.196, 0.9520000000000001, 0.314, 192.0, 0.0, 0.0, 0.0, 0.0, 0.0, 0.0, 0.0, 0.0, 0.0, 1.6959296440183103E9, 0.0, 2023-09-28 14:34:04.018
202.0, 14840.239565401027, 18969.81376049683, 30188.757799715735, 14213.697816574315, 31519.446554117985, 6082.893143045086, -187500.02235174447, 36199.11953200335, 15957.156235832721, -25316.301025903347, -187500.02235174447, 53122.027590516525, 25620.083584795426, -2890.8628691271388, 60726.26986816763, 31174.916765083883, 0.196, 0.9520000000000001, 0.314, 192.0, 0.0, 0.0, 0.0, 0.0, 0.0, 0.0, 0.0, 0.0, 0.0, 1.695929644018328E9, 0.0, 2023-09-28 14:34:04.018
204.0, 14775.01717508044, 18948.13256837518, 30233.528343859714, 14199.727976289747, 31497.966527696437, 6056.853360754652, -187500.02235174447, 36191.40818016627, 15975.529369774982, -25303.404069352637, -187500.02235174447, 53090.37752036781, 25641.16127981678, -2883.866773112628, 60601.9047620183, 31167.786558602642, 0.196, 0.9520000000000001, 0.314, 192.0, 0.0, 0.0, 0.0, 0.0, 0.0, 0.0, 0.0, 0.0, 0.0, 1.6959296440183482E9, 0.0, 2023-09-28 14:34:04.018
206.0, 14858.433885387647, 18971.110161675235, 30187.9754886598, 14202.656054813393, 31515.46794360494, 6070.622035339122, -187500.02235174447, 36182.37807540633, 15948.34964851733, -25321.978368994998, -187500.02235174447, 53108.63889558779, 25622.296407496502, -2908.3866367800997, 60728.90737401335, 31159.27054396517, 0.196, 0.9520000000000001, 0.314, 192.0, 0.0, 0.0, 0.0, 0.0, 0.0, 0.0, 0.0, 0.0, 0.0, 1.6959296440183656E9, 0.0, 2023-09-28 14:34:04.018
208.0, 14737.44389265107, 18955.21807136751, 30220.251407653264, 14207.036996726632, 31503.241539387887, 6060.161418934038, -187500.02235174447, 36195.789122079506, 15978.546855276449, -25290.28359535737, -187500.02235174447, 53091.51745933503, 25654.952306145708, -2871.506258428843, 60584.67156704326, 31159.82933757655, 0.2, 0.9520000000000001, 0.312, 192.0, 3.0, 32.0, 14.5, 96.0, 4.5, 96.0, 0.0, 0.0, 0.0, 1.6959296440183809E9, 0.0, 2023-09-28 14:34:04.018
210.0, 14875.600025129323, 18965.365763350223, 30194.569253274116, 14204.019511225166, 31503.465056832443, 6063.469477113424, -187500.02235174447, 36181.8416335394, 15960.240776567553, -25317.597427081757, -187500.02235174447, 53116.618468358334, 25631.17005004526, -2902.6422384550856, 60716.41274886284, 31164.925535312363, 0.2, 0.9520000000000001, 0.312, 192.0, 0.0, 0.0, 0.0, 0.0, 0.0, 0.0, 0.0, 0.0, 0.0, 1.695929644018397E9, 0.0, 2023-09-28 14:34:04.018
212.0, 14712.141717927661, 18956.246251612458, 30204.605186534547, 14215.57536310856, 31510.14822842458, 6072.231360939903, -187500.02235174447, 36203.20990123867, 15981.49728554455, -25289.72480174599, -187500.02235174447, 53083.40377609775, 25657.545108502523, -2874.389633463578, 60587.37612812235, 31156.61068637499, 0.2, 0.9520000000000001, 0.312, 192.0, 0.0, 0.0, 0.0, 0.0, 0.0, 0.0, 0.0, 0.0, 0.0, 1.6959296440184138E9, 0.0, 2023-09-28 14:34:04.018
214.0, 14883.80311534442, 18954.681629500585, 30209.63432903699, 14192.62012155296, 31495.552539295262, 6051.935976974485, -187500.02235174447, 36173.482081113114, 15956.955070132622, -25326.985159752985, -187500.02235174447, 53104.48147111911, 25622.095241796404, -2909.571279236231, 60712.94822847226, 31162.869174822474, 0.2, 0.9520000000000001, 0.312, 192.0, 0.0, 0.0, 0.0, 0.0, 0.0, 0.0, 0.0, 0.0, 0.0, 1.6959296440184395E9, 0.0, 2023-09-28 14:34:04.018
216.0, 14694.103860152229, 18952.871138199705, 30180.979392645288, 14213.831927041047, 31511.690498791995, 6065.995224236873, -187500.02235174447, 36195.67736335723, 15969.11441911631, -25310.154296178138, -187500.02235174447, 53071.73616549208, 25645.341056029923, -2892.2710290278233, 60601.16715445127, 31139.93628501133, 0.2, 0.9520000000000001, 0.312, 192.0, 0.0, 0.0, 0.0, 0.0, 0.0, 0.0, 0.0, 0.0, 0.0, 1.695929644018473E9, 0.0, 2023-09-28 14:34:04.018
218.0, 14857.472760376068, 18964.695211016562, 30224.74410828878, 14201.0020257237, 31505.56612081124, 6055.422849109513, -187500.02235174447, 36183.339200417904, 15978.837427954368, -25310.511924089424, -187500.02235174447, 53110.35997991085, 25648.336189786936, -2889.387653993089, 60691.73642298418, 31175.36379997299, 0.198, 0.9560000000000001, 0.312, 192.0, 3.0, 24.0, 14.5, 112.0, 4.5, 96.0, 0.0, 0.0, 0.0, 1.6959296440184946E9, 0.0, 2023-09-28 14:34:04.018
220.0, 14682.726822224478, 18946.56794626331, 30167.07660759409, 14197.738671033225, 31501.118123664633, 6049.320822873214, -187500.02235174447, 36187.85425279787, 15967.214520837608, -25312.076546201297, -187500.02235174447, 53064.6730142442, 25645.11753858537, -2893.343912761678, 60612.454785401205, 31139.422194888855, 0.198, 0.9560000000000001, 0.312, 192.0, 0.0, 0.0, 0.0, 0.0, 0.0, 0.0, 0.0, 0.0, 0.0, 1.6959296440185103E9, 0.0, 2023-09-28 14:34:04.018
222.0, 14875.33180419586, 18959.621365025207, 30224.609997822048, 14176.504513800683, 31476.79942569726, 6022.968116160407, -187500.02235174447, 36161.70271178517, 15954.9657648761, -25324.39235739617, -187500.02235174447, 53089.10347093386, 25619.21186676167, -2904.989171622893, 60688.942454927266, 31153.570849129064, 0.198, 0.9560000000000001, 0.312, 192.0, 0.0, 0.0, 0.0, 0.0, 0.0, 0.0, 0.0, 0.0, 0.0, 1.6959296440185266E9, 0.0, 2023-09-28 14:34:04.018
224.0, 14680.134019867663, 18942.209356094525, 30155.20783128832, 14201.203191423798, 31506.348431867176, 6056.33927063218, -187500.02235174447, 36183.138034717806, 15959.167892833699, -25329.175630709608, -187500.02235174447, 53058.615691496816, 25628.554895943988, -2902.8657558996388, 60624.055340773506, 31120.982005713227, 0.198, 0.9560000000000001, 0.312, 192.0, 0.0, 0.0, 0.0, 0.0, 0.0, 0.0, 0.0, 0.0, 0.0, 1.6959296440185413E9, 0.0, 2023-09-28 14:34:04.018
226.0, 14851.638955073233, 18936.84493742525, 30232.924846759423, 14175.52103704465, 31487.349449080164, 6032.534662787279, -187500.02235174447, 36173.30326715747, 15969.069715627398, -25335.322360434817, -187500.02235174447, 53089.10347093386, 25640.669541438765, -2908.8336716692056, 60659.6169662019, 31162.26567772218, 0.198, 0.9560000000000001, 0.312, 192.0, 0.0, 0.0, 0.0, 0.0, 0.0, 0.0, 0.0, 0.0, 0.0, 1.6959296440185585E9, 0.0, 2023-09-28 14:34:04.018
228.0, 14672.914406408598, 18935.146204846646, 30139.1145752805, 14190.42965059634, 31509.85765574666, 6047.666793783521, -187500.02235174447, 36182.981572506615, 15967.482741771073, -25343.6819128611, -187500.02235174447, 53056.872255429305, 25639.21667804917, -2905.927944890016, 60628.257468731106, 31129.00628197268, 0.194, 0.9560000000000001, 0.306, 192.0, 3.0, 8.0, 14.5, 112.0, 4.5, 72.0, 0.0, 0.0, 0.0, 1.6959296440185735E9, 0.0, 2023-09-28 14:34:04.018
230.0, 14839.501957834002, 18924.46207099701, 30235.025910738223, 14169.821342208546, 31481.649754244063, 6015.927316656986, -187500.02235174447, 36174.51026135805, 15967.281576070975, -25361.00451481396, -187500.02235174447, 53071.467944558615, 25633.40522449079, -2922.535291020309, 60640.77444562608, 31156.320113697067, 0.194, 0.9560000000000001, 0.306, 192.0, 0.0, 0.0, 0.0, 0.0, 0.0, 0.0, 0.0, 0.0, 0.0, 1.6959296440185883E9, 0.0, 2023-09-28 14:34:04.018
232.0, 14701.390528844659, 18929.0665303548, 30138.824002602578, 14178.449115568295, 31497.899472463072, 6033.048752909751, -187500.02235174447, 36171.805700278965, 15957.49151199955, -25359.909279335654, -187500.02235174447, 53051.86546467131, 25630.723015156153, -2924.904575932572, 60650.81037888651, 31128.738061039217, 0.194, 0.9560000000000001, 0.306, 192.0, 0.0, 0.0, 0.0, 0.0, 0.0, 0.0, 0.0, 0.0, 0.0, 1.695929644018603E9, 0.0, 2023-09-28 14:34:04.018
234.0, 14843.569975324866, 18920.2152395505, 30230.287340913696, 14151.738780944203, 31465.064759858225, 5997.6212379480885, -187500.02235174447, 36148.33636860089, 15942.1135118143, -25369.811102129355, -187500.02235174447, 53056.55933100693, 25617.714299883166, -2928.1679306230462, 60637.131111279865, 31148.295837437614, 0.194, 0.9560000000000001, 0.306, 192.0, 0.0, 0.0, 0.0, 0.0, 0.0, 0.0, 0.0, 0.0, 0.0, 1.6959296440186176E9, 0.0, 2023-09-28 14:34:04.018
236.0, 14703.826868990287, 18950.3230393318, 30138.48872643575, 14197.559857077582, 31524.85567627617, 6049.432581595491, -187500.02235174447, 36181.12637771683, 15959.436113767162, -25352.64496238768, -187500.02235174447, 53059.64387174176, 25634.03107333554, -2912.834633926706, 60659.86283539091, 31124.78180227063, 0.194, 0.9560000000000001, 0.306, 192.0, 0.0, 0.0, 0.0, 0.0, 0.0, 0.0, 0.0, 0.0, 0.0, 1.695929644018632E9, 0.0, 2023-09-28 14:34:04.018
238.0, 14784.606073451767, 18942.61168749472, 30261.758597106767, 14190.452002340795, 31504.537940566297, 6023.392799305057, -187500.02235174447, 36177.460691626155, 15981.519637289006, -25326.11344171923, -187500.02235174447, 53087.98588371109, 25658.17095734727, -2886.481927213899, 60596.920323004764, 31172.07809353806, 0.188, 0.962, 0.308, 192.0, 2.5, 112.0, 15.0, 8.0, 4.5, 80.0, 0.0, 0.0, 0.0, 1.6959296440186503E9, 0.0, 2023-09-28 14:34:04.018
240.0, 14711.761738271922, 18950.680667243083, 30167.434235505374, 14204.019511225166, 31524.922731509538, 6041.609471036133, -187500.02235174447, 36182.80275855098, 15970.053192383433, -25333.802441811855, -187500.02235174447, 53099.49703210557, 25644.983428118638, -2903.8045291667618, 60670.256396562625, 31151.961523528284, 0.188, 0.962, 0.308, 192.0, 0.0, 0.0, 0.0, 0.0, 0.0, 0.0, 0.0, 0.0, 0.0, 1.695929644498316E9, 0.0, 2023-09-28 14:34:04.498
242.0, 14771.64206166769, 18927.23368730947, 30260.41749243945, 14177.689156256814, 31486.47773104641, 6006.897211897041, -187500.02235174447, 36171.42572062322, 15967.68390747117, -25339.837412814788, -187500.02235174447, 53084.25314238705, 25644.64815195181, -2899.9153256315385, 60600.988340495634, 31168.30064872511, 0.188, 0.962, 0.308, 192.0, 0.0, 0.0, 0.0, 0.0, 0.0, 0.0, 0.0, 0.0, 0.0, 1.6959296444983752E9, 0.0, 2023-09-28 14:34:04.498
244.0, 14752.39720969167, 18948.46784454201, 30170.563479729117, 14198.699796044802, 31515.803219771773, 6036.222700622404, -187500.02235174447, 36174.26439216905, 15944.169872304186, -25358.568174668333, -187500.02235174447, 53083.1802586532, 25614.048613792493, -2924.0328578988147, 60701.77235624461, 31144.317226924566, 0.188, 0.962, 0.308, 192.0, 0.0, 0.0, 0.0, 0.0, 0.0, 0.0, 0.0, 0.0, 0.0, 1.6959296444984117E9, 0.0, 2023-09-28 14:34:04.498
246.0, 14744.30587819885, 18927.568963476297, 30251.40973942396, 14177.957377190278, 31493.697344505472, 6002.113938583606, -187500.02235174447, 36159.713406528645, 15968.577977249382, -25342.74313959398, -187500.02235174447, 53075.98299693859, 25641.138928072327, -2904.6091919671526, 60588.694881045216, 31160.052855021106, 0.188, 0.962, 0.308, 192.0, 0.0, 0.0, 0.0, 0.0, 0.0, 0.0, 0.0, 0.0, 0.0, 1.6959296444984393E9, 0.0, 2023-09-28 14:34:04.498
248.0, 14765.942366831587, 18946.54559451885, 30178.006610632732, 14195.48114484324, 31521.86054251916, 6026.253822595337, -187500.02235174447, 36172.67741831272, 15957.87149165529, -25354.902488577663, -187500.02235174447, 53093.7302820361, 25626.990273832118, -2924.4351892990103, 60695.849143963955, 31144.4513373913, 0.19, 0.962, 0.302, 192.0, 2.5, 120.0, 15.0, 8.0, 4.5, 56.0, 0.0, 0.0, 0.0, 1.6959296444984574E9, 0.0, 2023-09-28 14:34:04.498
250.0, 14721.641209321167, 18931.458167011522, 30250.090986501098, 14187.009833694678, 31499.03941143029, 6000.191688560449, -187500.02235174447, 36166.66479905424, 15967.259224326519, -25334.316531934328, -187500.02235174447, 53077.7264330061, 25643.441157751222, -2904.4974332448764, 60579.84359024091, 31153.12381423996, 0.19, 0.962, 0.302, 192.0, 0.0, 0.0, 0.0, 0.0, 0.0, 0.0, 0.0, 0.0, 0.0, 1.695929644498476E9, 0.0, 2023-09-28 14:34:04.498
252.0, 14783.26496878445, 18950.926536432093, 30196.31268934163, 14194.452964598295, 31514.171542426535, 6015.726150956888, -187500.02235174447, 36153.87960122581, 15954.384619520262, -25351.795596098378, -187500.02235174447, 53092.90326749126, 25623.793974375007, -2925.6868869885075, 60703.739309756675, 31141.299741423103, 0.19, 0.962, 0.302, 192.0, 0.0, 0.0, 0.0, 0.0, 0.0, 0.0, 0.0, 0.0, 0.0, 1.695929644498492E9, 0.0, 2023-09-28 14:34:04.498
254.0, 14701.837563733765, 18926.160803575614, 30245.46417539885, 14180.103144657987, 31485.248385101368, 5987.808822132209, -187500.02235174447, 36159.26637163954, 15970.120247616798, -25334.830622056797, -187500.02235174447, 53065.947063678155, 25642.435329250733, -2908.0066571243597, 60573.2498256266, 31144.02665424665, 0.19, 0.962, 0.302, 192.0, 0.0, 0.0, 0.0, 0.0, 0.0, 0.0, 0.0, 0.0, 0.0, 1.695929644498504E9, 0.0, 2023-09-28 14:34:04.498
0.0, 14845.55928058139, 18928.395978021144, 30203.353488845052, 14161.886472926912, 31480.93449842149, 5982.980845329863, -187500.02235174447, 36133.226589349106, 15930.356494230808, -25388.11718083825, -187500.02235174447, 53070.86444745833, 25600.145828741293, -2952.1066489346804, 60720.57017333152, 31135.085956464525, 0.19, 0.962, 0.302, 192.0, 0.0, 0.0, 0.0, 0.0, 0.0, 0.0, 0.0, 0.0, 0.0, 1.6959296444985156E9, 0.0, 2023-09-28 14:34:04.498
2.0, 14704.475069579492, 18930.385283277665, 30219.379689619505, 14174.157580632876, 31492.22212937142, 5984.970150586385, -187500.02235174447, 36156.718272771635, 15962.095971357343, -25350.834471086797, -187500.02235174447, 53052.75953444953, 25638.54612571551, -2915.2709740723344, 60579.53066581854, 31126.30172089359, 0.188, 0.966, 0.308, 192.0, 2.5, 112.0, 15.0, 24.0, 4.5, 80.0, 0.0, 0.0, 0.0, 1.6959296444985273E9, 0.0, 2023-09-28 14:34:04.498
4.0, 14854.254109174504, 18942.45522528353, 30221.50310534276, 14172.771772476646, 31496.066629417735, 5990.379272744569, -187500.02235174447, 36143.57544703191, 15947.63439269476, -25360.22220375803, -187500.02235174447, 53092.657398302246, 25619.97182607315, -2933.5770527812306, 60700.38654808838, 31144.093709480014, 0.188, 0.966, 0.308, 192.0, 0.0, 0.0, 0.0, 0.0, 0.0, 0.0, 0.0, 0.0, 0.0, 1.6959296444985428E9, 0.0, 2023-09-28 14:34:04.498
6.0, 14676.177761099072, 18938.454263026033, 30221.637215809493, 14192.351900619497, 31513.121010437135, 6000.370502516092, -187500.02235174447, 36186.53549987501, 15972.645994740249, -25331.25434294395, -187500.02235174447, 53061.968453165115, 25647.12919558635, -2902.374017521622, 60574.7473925051, 31133.610741330474, 0.188, 0.966, 0.308, 192.0, 0.0, 0.0, 0.0, 0.0, 0.0, 0.0, 0.0, 0.0, 0.0, 1.6959296444985645E9, 0.0, 2023-09-28 14:34:04.498
8.0, 14865.27351919097, 18933.64863796814, 30246.291189943695, 14174.626967266437, 31493.183254383, 5985.484240708857, -187500.02235174447, 36173.50443285757, 15955.636317209759, -25356.91414557864, -187500.02235174447, 53091.76332852404, 25624.911561597775, -2925.7539422218733, 60685.45558279224, 31160.522241654664, 0.188, 0.966, 0.308, 192.0, 0.0, 0.0, 0.0, 0.0, 0.0, 0.0, 0.0, 0.0, 0.0, 1.695929644498603E9, 0.0, 2023-09-28 14:34:04.498
10.0, 14685.029051903375, 18933.246306567944, 30208.427334836404, 14192.62012155296, 31510.349394124678, 6001.264572294303, -187500.02235174447, 36192.570470877945, 15962.87828241328, -25343.078415760807, -187500.02235174447, 53055.01706063951, 25638.74729141561, -2910.9794391369155, 60593.07582295845, 31140.025691989147, 0.188, 0.966, 0.308, 192.0, 0.0, 0.0, 0.0, 0.0, 0.0, 0.0, 0.0, 0.0, 0.0, 1.6959296444986155E9, 0.0, 2023-09-28 14:34:04.498
12.0, 14860.624356344266, 18943.215184595014, 30264.396102952494, 14185.735784260725, 31508.829475501716, 5994.737862913355, -187500.02235174447, 36182.75805506206, 15960.441942267651, -25354.857785088752, -187500.02235174447, 53090.64574130127, 25634.54516345801, -2918.4896252738986, 60678.7724112001, 31172.279259238156, 0.186, 0.96, 0.312, 192.0, 2.5, 104.0, 15.0, 0.0, 4.5, 96.0, 0.0, 0.0, 0.0, 1.6959296444986277E9, 0.0, 2023-09-28 14:34:04.498
14.0, 14662.006755114407, 18940.04123688236, 30202.280605111195, 14194.76588902067, 31524.587455342706, 6011.635781721567, -187500.02235174447, 36184.881470785316, 15979.39622156575, -25340.35150293726, -187500.02235174447, 53060.96262466462, 25652.09128285543, -2895.1320523181025, 60596.04860497101, 31143.177287957347, 0.186, 0.96, 0.312, 192.0, 0.0, 0.0, 0.0, 0.0, 0.0, 0.0, 0.0, 0.0, 0.0, 1.6959296444986393E9, 0.0, 2023-09-28 14:34:04.498
16.0, 14852.041286473428, 18933.64863796814, 30273.783835623723, 14173.889359699413, 31495.351373595164, 5982.019720318284, -187500.02235174447, 36160.9874559626, 15971.617814495305, -25354.276639732914, -187500.02235174447, 53089.77402326751, 25637.294428026013, -2916.187395595002, 60655.660707433315, 31166.69132312433, 0.186, 0.96, 0.312, 192.0, 0.0, 0.0, 0.0, 0.0, 0.0, 0.0, 0.0, 0.0, 0.0, 1.6959296444986515E9, 0.0, 2023-09-28 14:34:04.498
18.0, 14670.925101152076, 18938.677780470585, 30192.870520695513, 14190.809630252079, 31516.585530827706, 6008.394778775547, -187500.02235174447, 36185.75318881908, 15973.11538137381, -25351.97441005402, -187500.02235174447, 53056.80520019594, 25637.897925126308, -2910.308886803256, 60608.78909931053, 31130.906180251382, 0.186, 0.96, 0.312, 192.0, 0.0, 0.0, 0.0, 0.0, 0.0, 0.0, 0.0, 0.0, 0.0, 1.6959296444986691E9, 0.0, 2023-09-28 14:34:04.498
20.0, 14854.142350452228, 18925.959637875516, 30275.773140880247, 14169.866045697458, 31484.555481023253, 5976.588246415645, -187500.02235174447, 36159.60164780637, 15971.237834839563, -25354.768378110934, -187500.02235174447, 53080.85567722985, 25638.479070482146, -2914.1086833606582, 60638.40516071382, 31159.44935792081, 0.186, 0.96, 0.312, 192.0, 0.0, 0.0, 0.0, 0.0, 0.0, 0.0, 0.0, 0.0, 0.0, 1.6959296444986925E9, 0.0, 2023-09-28 14:34:04.498
22.0, 14691.488706050957, 18939.683608971074, 30189.182482860386, 14201.203191423798, 31519.468905862443, 6013.222755577893, -187500.02235174447, 36179.87468002733, 15969.248529583041, -25351.415616442635, -187500.02235174447, 53065.43297355568, 25629.136041299826, -2915.785064194806, 60630.73851236564, 31126.681700549332, 0.19, 0.96, 0.314, 192.0, 2.5, 120.0, 15.0, 0.0, 4.5, 104.0, 0.0, 0.0, 0.0, 1.6959296444987147E9, 0.0, 2023-09-28 14:34:04.498
24.0, 14835.590402554322, 18936.017922880405, 30291.553472465694, 14184.148810404398, 31491.082190404202, 5988.389967488047, -187500.02235174447, 36171.78334853451, 15987.755773992036, -25345.49240416198, -187500.02235174447, 53094.62435181432, 25642.904715884295, -2902.9104593885495, 60620.99315178313, 31170.133491770448, 0.19, 0.96, 0.314, 192.0, 0.0, 0.0, 0.0, 0.0, 0.0, 0.0, 0.0, 0.0, 0.0, 1.695929644498727E9, 0.0, 2023-09-28 14:34:04.498
26.0, 14709.10188068174, 18941.963486905515, 30186.924956670402, 14202.56664783557, 31519.37949888462, 6010.875822410086, -187500.02235174447, 36175.62784858082, 15982.905445445234, -25349.850994330765, -187500.02235174447, 53084.6331220428, 25635.97567510315, -2905.503261745365, 60645.08833230595, 31147.78174731514, 0.19, 0.96, 0.314, 192.0, 0.0, 0.0, 0.0, 0.0, 0.0, 0.0, 0.0, 0.0, 0.0, 1.6959296444987392E9, 0.0, 2023-09-28 14:34:04.498
28.0, 14828.214326884072, 18924.12679483018, 30282.053981072186, 14170.201321864286, 31478.676972231508, 5976.811763860198, -187500.02235174447, 36157.99232220559, 15988.627492025793, -25350.007456541953, -187500.02235174447, 53088.83525000039, 25644.31287578498, -2895.7579011628513, 60606.084538231444, 31175.207337761804, 0.19, 0.96, 0.314, 192.0, 0.0, 0.0, 0.0, 0.0, 0.0, 0.0, 0.0, 0.0, 0.0, 1.6959296444987507E9, 0.0, 2023-09-28 14:34:04.498
30.0, 14743.858843309743, 18937.806062436826, 30166.69662793835, 14182.897112714902, 31499.732315508405, 5993.061482079206, -187500.02235174447, 36154.86307798184, 15970.656689483725, -25369.341715495793, -187500.02235174447, 53066.729374734095, 25621.603503418388, -2914.890994416594, 60663.59557671495, 31129.20744767278, 0.19, 0.96, 0.314, 192.0, 0.0, 0.0, 0.0, 0.0, 0.0, 0.0, 0.0, 0.0, 0.0, 1.6959296444987636E9, 0.0, 2023-09-28 14:34:04.498
32.0, 14816.50201278949, 18927.166632076103, 30267.681809387424, 14166.46858054025, 31479.90631817655, 5970.217999245882, -187500.02235174447, 36162.14974667427, 15983.486590801072, -25362.703247392565, -187500.02235174447, 53063.421316554704, 25635.81921289196, -2913.3487240491777, 60592.69584330271, 31156.387168930432, 0.194, 0.9540000000000001, 0.314, 192.0, 3.0, 8.0, 14.5, 104.0, 4.5, 104.0, 0.0, 0.0, 0.0, 1.695929644498776E9, 0.0, 2023-09-28 14:34:04.498
34.0, 14757.471055683025, 18947.84199569726, 30179.9735641448, 14189.468525584762, 31517.56900758374, 6014.42974977848, -187500.02235174447, 36174.71142705815, 15983.866570456812, -25361.83152935881, -187500.02235174447, 53074.686595760184, 25634.96984660266, -2904.9668198784375, 60669.74230644016, 31143.35610191299, 0.194, 0.9540000000000001, 0.314, 192.0, 0.0, 0.0, 0.0, 0.0, 0.0, 0.0, 0.0, 0.0, 0.0, 1.69592964449879E9, 0.0, 2023-09-28 14:34:04.498
36.0, 14789.366995020748, 18922.65157969613, 30274.923774590945, 14167.340298574007, 31484.46607404543, 5972.408470202502, -187500.02235174447, 36166.01659846504, 15992.315529860918, -25346.87821231821, -187500.02235174447, 53068.472810801606, 25644.111710084882, -2890.929924360505, 60577.54136056201, 31166.356046957502, 0.194, 0.9540000000000001, 0.314, 192.0, 0.0, 0.0, 0.0, 0.0, 0.0, 0.0, 0.0, 0.0, 0.0, 1.6959296444988017E9, 0.0, 2023-09-28 14:34:04.498
38.0, 14800.364053292758, 18932.50869900092, 30181.851110679047, 14170.536598031116, 31496.893643962583, 5983.070252307684, -187500.02235174447, 36145.85532496635, 15972.891863929257, -25375.667259176644, -187500.02235174447, 53074.753650993545, 25617.35667197188, -2921.14948286408, 60689.85887644993, 31147.379415914944, 0.194, 0.9540000000000001, 0.314, 192.0, 0.0, 0.0, 0.0, 0.0, 0.0, 0.0, 0.0, 0.0, 0.0, 1.6959296444988134E9, 0.0, 2023-09-28 14:34:04.498
40.0, 14743.903546798652, 18944.13160611768, 30265.245469241796, 14191.882513985935, 31507.86835049014, 5993.039130334751, -187500.02235174447, 36172.230383423615, 16003.424346855207, -25341.089110504283, -187500.02235174447, 53066.729374734095, 25650.481957254644, -2891.5334214607983, 60558.98941266411, 31161.97510504426, 0.194, 0.9540000000000001, 0.314, 192.0, 0.0, 0.0, 0.0, 0.0, 0.0, 0.0, 0.0, 0.0, 0.0, 1.6959296444988253E9, 0.0, 2023-09-28 14:34:04.498
42.0, 14803.090966116306, 18946.18796660757, 30217.27862564071, 14185.311101116074, 31516.116144194144, 6003.186822317461, -187500.02235174447, 36154.84072623739, 15986.817000724914, -25350.11921526423, -187500.02235174447, 53103.900325763265, 25638.635532693334, -2888.3818254926, 60680.739364712164, 31162.53389865564, 0.19, 0.9520000000000001, 0.316, 192.0, 2.5, 120.0, 14.5, 96.0, 4.5, 112.0, 0.0, 0.0, 0.0, 1.695929644498837E9, 0.0, 2023-09-28 14:34:04.498
44.0, 14733.353523415748, 18923.612704707706, 30260.976286050834, 14173.777600977135, 31495.731353250907, 5976.834115604654, -187500.02235174447, 36162.4850228411, 15992.986082194577, -25347.6828751186, -187500.02235174447, 53068.048127656955, 25647.844451408917, -2887.0407208252814, 60567.66188951277, 31157.482404408744, 0.19, 0.9520000000000001, 0.316, 192.0, 0.0, 0.0, 0.0, 0.0, 0.0, 0.0, 0.0, 0.0, 0.0, 1.695929644498849E9, 0.0, 2023-09-28 14:34:04.498
46.0, 14848.621469571766, 18928.351274532233, 30212.69651802737, 14159.628946736926, 31487.438856057986, 5975.247141748327, -187500.02235174447, 36137.18284811769, 15975.551721519438, -25366.078360805317, -187500.02235174447, 53088.07529068891, 25618.675424894744, -2913.236965326901, 60699.24660912116, 31150.531011883144, 0.19, 0.9520000000000001, 0.316, 192.0, 0.0, 0.0, 0.0, 0.0, 0.0, 0.0, 0.0, 0.0, 0.0, 1.6959296444988625E9, 0.0, 2023-09-28 14:34:04.498
48.0, 14726.938572757075, 18930.474690255487, 30244.011312009254, 14176.66097601187, 31496.58071954021, 5977.392909216036, -187500.02235174447, 36157.85821173885, 15987.64401526976, -25348.420482685626, -187500.02235174447, 53050.50200825954, 25629.6501314223, -2888.024197581315, 60567.72894474614, 31132.336691896522, 0.19, 0.9520000000000001, 0.316, 192.0, 0.0, 0.0, 0.0, 0.0, 0.0, 0.0, 0.0, 0.0, 0.0, 1.695929644498874E9, 0.0, 2023-09-28 14:34:04.498
50.0, 14878.572807141878, 18930.385283277665, 30229.46032636885, 14158.824283936536, 31487.14828338007, 5969.011005045296, -187500.02235174447, 36130.49967652556, 15977.78689596497, -25361.45154970307, -187500.02235174447, 53092.34447387987, 25621.89407609631, -2906.017351867837, 60695.06683290802, 31147.53587812613, 0.19, 0.9520000000000001, 0.316, 192.0, 0.0, 0.0, 0.0, 0.0, 0.0, 0.0, 0.0, 0.0, 0.0, 1.6959296444988859E9, 0.0, 2023-09-28 14:34:04.498
52.0, 14712.924028983598, 18929.379454777176, 30237.305788672664, 14180.684290013825, 31510.818780758236, 5988.591133188144, -187500.02235174447, 36167.7376827881, 15999.512791575527, -25336.43994765758, -187500.02235174447, 53064.85182819985, 25637.49559372611, -2873.4285084519993, 60567.75129649059, 31134.795383786608, 0.184, 0.9580000000000001, 0.31, 192.0, 2.5, 96.0, 14.5, 120.0, 4.5, 88.0, 0.0, 0.0, 0.0, 1.6959296444988976E9, 0.0, 2023-09-28 14:34:04.498
54.0, 14906.423080733191, 18915.49902147043, 30250.582724879114, 14148.184853575809, 31484.019039156323, 5956.337565939137, -187500.02235174447, 36126.25284507905, 15976.490494786562, -25382.97627961353, -187500.02235174447, 53092.232715157596, 25611.366404457858, -2916.6567822285633, 60695.89384745286, 31141.523258867655, 0.184, 0.9580000000000001, 0.31, 192.0, 0.0, 0.0, 0.0, 0.0, 0.0, 0.0, 0.0, 0.0, 0.0, 1.6959296444989092E9, 0.0, 2023-09-28 14:34:04.498
56.0, 14723.563459344323, 18931.636980967163, 30223.671224554924, 14175.47633355574, 31516.317309894242, 5989.70872041091, -187500.02235174447, 36171.649238067774, 15997.009396196532, -25358.97050606853, -187500.02235174447, 53054.055935627934, 25636.914448370273, -2887.2642382698346, 60587.5996455669, 31120.4455638463, 0.184, 0.9580000000000001, 0.31, 192.0, 0.0, 0.0, 0.0, 0.0, 0.0, 0.0, 0.0, 0.0, 0.0, 1.695929644498926E9, 0.0, 2023-09-28 14:34:04.498
58.0, 14914.156784314728, 18953.586394022273, 30283.976231095345, 14184.797010993601, 31505.677879533516, 5995.408415247013, -187500.02235174447, 36162.663836796746, 16008.431137613195, -25350.834471086797, -187500.02235174447, 53110.53879386649, 25636.959151859184, -2885.900781858061, 60687.57899851549, 31166.780730102153, 0.184, 0.9580000000000001, 0.31, 192.0, 0.0, 0.0, 0.0, 0.0, 0.0, 0.0, 0.0, 0.0, 0.0, 1.6959296444989505E9, 0.0, 2023-09-28 14:34:04.498
60.0, 14732.68297108209, 18957.810873724327, 30235.18237294941, 14198.722147789258, 31501.788675998294, 6004.170299073494, -187500.02235174447, 36160.71923502913, 16021.193983697176, -25315.094031702763, -187500.02235174447, 53091.87508724631, 25650.347846787914, -2848.416906406511, 60600.69776781771, 31152.2520962062, 0.184, 0.9580000000000001, 0.31, 192.0, 0.0, 0.0, 0.0, 0.0, 0.0, 0.0, 0.0, 0.0, 0.0, 1.6959296444989724E9, 0.0, 2023-09-28 14:34:04.498
62.0, 14925.891450153764, 18962.907071460137, 30292.447542243906, 14178.717336501759, 31476.262983830333, 5981.907961596008, -187500.02235174447, 36126.990452646074, 16020.724597063614, -25322.112479461728, -187500.02235174447, 53122.04994226098, 25628.21961977716, -2856.4188309215106, 60674.525579753594, 31173.240384249737, 0.182, 0.966, 0.31, 192.0, 2.5, 88.0, 15.0, 24.0, 4.5, 88.0, 0.0, 0.0, 0.0, 1.695929644498985E9, 0.0, 2023-09-28 14:34:04.498
64.0, 14725.776282045399, 18958.07909465779, 30218.373861119017, 14189.826153496046, 31505.297899877776, 5998.47060423739, -187500.02235174447, 36147.50935405605, 16032.83924255839, -25303.828752497287, -187500.02235174447, 53101.88866876229, 25656.74044570213, -2841.2643481808127, 60605.92807602025, 31143.847840291008, 0.182, 0.966, 0.31, 192.0, 0.0, 0.0, 0.0, 0.0, 0.0, 0.0, 0.0, 0.0, 0.0, 1.6959296444989967E9, 0.0, 2023-09-28 14:34:04.498
66.0, 14918.180098316681, 18930.295876299846, 30281.56224269417, 14142.976897117722, 31475.972411152416, 5954.348260682615, -187500.02235174447, 36127.415135790725, 16005.436003856184, -25361.40684621416, -187500.02235174447, 53096.97128498212, 25620.061233050972, -2885.163174291036, 60660.4663324912, 31145.948904269804, 0.182, 0.966, 0.31, 192.0, 0.0, 0.0, 0.0, 0.0, 0.0, 0.0, 0.0, 0.0, 0.0, 1.695929644499009E9, 0.0, 2023-09-28 14:34:04.499
68.0, 14715.941514485065, 18952.08882714377, 30198.659622509436, 14189.71439477377, 31528.163734455557, 6002.560973472711, -187500.02235174447, 36162.216801907634, 16026.64780934427, -25342.698436105067, -187500.02235174447, 53078.30757836194, 25649.342018287425, -2865.2701217258123, 60614.824070313465, 31127.039328460614, 0.182, 0.966, 0.31, 192.0, 0.0, 0.0, 0.0, 0.0, 0.0, 0.0, 0.0, 0.0, 0.0, 1.6959296444990203E9, 0.0, 2023-09-28 14:34:04.499
70.0, 14888.27346423548, 18935.347370546744, 30298.03547835773, 14157.192606591298, 31489.115236892136, 5963.624234631567, -187500.02235174447, 36133.80773470494, 16024.367931409828, -25345.850032073264, -187500.02235174447, 53103.96738099663, 25652.56066948899, -2865.1136595146254, 60626.60343964141, 31166.043122535128, 0.182, 0.966, 0.31, 192.0, 0.0, 0.0, 0.0, 0.0, 0.0, 0.0, 0.0, 0.0, 0.0, 1.6959296444990323E9, 0.0, 2023-09-28 14:34:04.499
72.0, 14743.389456676181, 18948.60195500874, 30193.317555584617, 14178.002080679189, 31517.56900758374, 6002.538621728257, -187500.02235174447, 36164.675493797724, 16020.07639647441, -25355.26011648895, -187500.02235174447, 53077.614674283825, 25649.006742120593, -2869.7851741057843, 60639.85802410341, 31124.513581337167, 0.186, 0.968, 0.312, 192.0, 2.5, 104.0, 15.0, 32.0, 4.5, 96.0, 0.0, 0.0, 0.0, 1.6959296444990458E9, 0.0, 2023-09-28 14:34:04.499
74.0, 14878.70691760861, 18940.264754326912, 30298.214292313376, 14154.75626644567, 31487.930594436002, 5964.428897431958, -187500.02235174447, 36142.72608074261, 16023.853841287357, -25346.140604751185, -187500.02235174447, 53094.333779136396, 25649.342018287425, -2863.8396100806726, 60626.73755010815, 31162.220974233267, 0.186, 0.968, 0.312, 192.0, 0.0, 0.0, 0.0, 0.0, 0.0, 0.0, 0.0, 0.0, 0.0, 1.6959296444990575E9, 0.0, 2023-09-28 14:34:04.499
76.0, 14771.195026778583, 18946.79146370786, 30191.529416028192, 14171.162446875865, 31512.316347636744, 5987.987636087852, -187500.02235174447, 36141.80965921994, 16017.774166795512, -25353.226107743518, -187500.02235174447, 53080.006310940546, 25643.061178095482, -2865.5159909148206, 60667.954166883734, 31132.224933174246, 0.186, 0.968, 0.312, 192.0, 0.0, 0.0, 0.0, 0.0, 0.0, 0.0, 0.0, 0.0, 0.0, 1.6959296444990692E9, 0.0, 2023-09-28 14:34:04.499
78.0, 14855.684620819644, 18942.991667150458, 30295.666193445468, 14168.256720096675, 31496.357202095653, 5972.430821946958, -187500.02235174447, 36146.65998776675, 16024.50204187656, -25348.24166872998, -187500.02235174447, 53088.11999417782, 25651.01839912157, -2861.2915112127675, 60617.99801802612, 31156.700093352807, 0.186, 0.968, 0.312, 192.0, 0.0, 0.0, 0.0, 0.0, 0.0, 0.0, 0.0, 0.0, 0.0, 1.6959296444990811E9, 0.0, 2023-09-28 14:34:04.499
80.0, 14780.135724560705, 18963.08588541578, 30205.007517934744, 14193.380080864441, 31533.81872580275, 6013.088645111161, -187500.02235174447, 36161.389787362794, 16025.820794799423, -25336.752872079956, -187500.02235174447, 53102.91684900723, 25655.868727668374, -2854.921264043005, 60683.06394613552, 31142.68554957933, 0.186, 0.968, 0.312, 192.0, 0.0, 0.0, 0.0, 0.0, 0.0, 0.0, 0.0, 0.0, 0.0, 1.6959296444990928E9, 0.0, 2023-09-28 14:34:04.499
82.0, 14835.880975232241, 18932.46399551201, 30298.61662371357, 14156.61146123546, 31494.256138116856, 5966.552313155212, -187500.02235174447, 36146.25765636655, 16040.37178043983, -25330.24851444346, -187500.02235174447, 53098.670017560726, 25668.475111541167, -2834.983507988871, 60602.57531435196, 31178.425988963365, 0.186, 0.964, 0.31, 192.0, 2.5, 104.0, 15.0, 16.0, 4.5, 88.0, 0.0, 0.0, 0.0, 1.6959296444991045E9, 0.0, 2023-09-28 14:34:04.499
84.0, 14824.995675682507, 18944.243364839956, 30192.40113406195, 14164.65808923937, 31512.42810635902, 5990.2228105333825, -187500.02235174447, 36140.781478975, 16004.78780326698, -25361.07157004733, -187500.02235174447, 53085.102508676355, 25639.73076817164, -2878.9046858435495, 60707.00266444715, 31131.48732560722, 0.186, 0.964, 0.31, 192.0, 0.0, 0.0, 0.0, 0.0, 0.0, 0.0, 0.0, 0.0, 0.0, 1.6959296444991164E9, 0.0, 2023-09-28 14:34:04.499
86.0, 14793.457364256068, 18949.09369338676, 30287.664268930468, 14178.069135912554, 31510.99759471388, 5987.093566309639, -187500.02235174447, 36156.1818309047, 16044.529204908516, -25319.6761393161, -187500.02235174447, 53090.84690700137, 25667.804559207507, -2833.8882725105614, 60584.068069942965, 31158.085901509035, 0.186, 0.964, 0.31, 192.0, 0.0, 0.0, 0.0, 0.0, 0.0, 0.0, 0.0, 0.0, 0.0, 1.695929644499132E9, 0.0, 2023-09-28 14:34:04.499
88.0, 14831.522385063457, 18953.60874576673, 30209.388459847985, 14174.626967266437, 31518.57483608423, 5999.543487971246, -187500.02235174447, 36156.3829966048, 16022.848012786868, -25344.866555317232, -187500.02235174447, 53111.097587477874, 25647.084492097438, -2856.128258243592, 60704.096937667964, 31146.954732770293, 0.186, 0.964, 0.31, 192.0, 0.0, 0.0, 0.0, 0.0, 0.0, 0.0, 0.0, 0.0, 0.0, 1.695929644499156E9, 0.0, 2023-09-28 14:34:04.499
90.0, 14777.788791392899, 18936.532013002874, 30271.146329778, 14168.368478818951, 31500.179350397513, 5977.459964449402, -187500.02235174447, 36157.00884544955, 16050.407713700262, -25321.933665506087, -187500.02235174447, 53100.30169490596, 25673.392495321335, -2834.7152870554078, 60587.28672114453, 31155.247229963214, 0.186, 0.964, 0.31, 192.0, 0.0, 0.0, 0.0, 0.0, 0.0, 0.0, 0.0, 0.0, 0.0, 1.6959296444991794E9, 0.0, 2023-09-28 14:34:04.499
92.0, 14878.729269353065, 18939.32598105979, 30216.004576206757, 14154.644507723393, 31497.072457918224, 5984.076080808173, -187500.02235174447, 36131.79607770396, 16014.130832449298, -25363.150282281673, -187500.02235174447, 53109.9352967662, 25635.81921289196, -2866.1641915040245, 60725.80048153407, 31143.132584468436, 0.188, 0.9580000000000001, 0.312, 192.0, 2.5, 112.0, 14.5, 120.0, 4.5, 96.0, 0.0, 0.0, 0.0, 1.6959296444991994E9, 0.0, 2023-09-28 14:34:04.499
94.0, 14773.005518079462, 18942.3211148168, 30249.241620211797, 14167.18383636282, 31498.99470794138, 5981.863258107097, -187500.02235174447, 36146.838801722384, 16030.31349543494, -25339.189212225585, -187500.02235174447, 53080.766270252025, 25656.583983490942, -2846.449952894444, 60589.4995438456, 31134.01307273067, 0.188, 0.9580000000000001, 0.312, 192.0, 0.0, 0.0, 0.0, 0.0, 0.0, 0.0, 0.0, 0.0, 0.0, 1.6959296444992187E9, 0.0, 2023-09-28 14:34:04.499
96.0, 14906.04310107745, 18954.838091711772, 30220.094945442077, 14158.37724904743, 31498.033582929802, 5983.159659285505, -187500.02235174447, 36134.43358354969, 16017.349483650862, -25337.982218024998, -187500.02235174447, 53110.40468339976, 25637.808518148486, -2860.2409792233684, 60710.84716449347, 31145.188944958325, 0.188, 0.9580000000000001, 0.312, 192.0, 0.0, 0.0, 0.0, 0.0, 0.0, 0.0, 0.0, 0.0, 0.0, 1.695929644499231E9, 0.0, 2023-09-28 14:34:04.499
98.0, 14774.994823335985, 18913.532067958364, 30235.674111327426, 14162.489970027205, 31497.586548040697, 5972.341414969136, -187500.02235174447, 36148.55988604545, 16033.778015825514, -25343.52545064991, -187500.02235174447, 53074.776002738006, 25660.920221915272, -2844.415944149011, 60589.47719210115, 31137.20937218778, 0.188, 0.9580000000000001, 0.312, 192.0, 0.0, 0.0, 0.0, 0.0, 0.0, 0.0, 0.0, 0.0, 0.0, 1.6959296444992447E9, 0.0, 2023-09-28 14:34:04.499
100.0, 14920.974066373596, 18924.015036107903, 30232.41075663695, 14155.471522268239, 31498.838245730192, 5979.806897617209, -187500.02235174447, 36133.74067947158, 16015.538992349982, -25383.44566624709, -187500.02235174447, 53095.07138670342, 25637.964980359673, -2875.015482308326, 60711.49536508267, 31143.311398424077, 0.188, 0.9580000000000001, 0.312, 192.0, 0.0, 0.0, 0.0, 0.0, 0.0, 0.0, 0.0, 0.0, 0.0, 1.6959296444992633E9, 0.0, 2023-09-28 14:34:04.499
102.0, 14742.674200853611, 18920.595219206243, 30232.857791526058, 14168.390830563407, 31522.307577408264, 5991.250990778326, -187500.02235174447, 36155.82420299342, 16049.290126477496, -25357.11531127874, -187500.02235174447, 53069.366880579815, 25678.5110448016, -2839.1632842020135, 60584.38099436534, 31129.609779072976, 0.192, 0.962, 0.316, 192.0, 3.0, 0.0, 15.0, 8.0, 4.5, 112.0, 0.0, 0.0, 0.0, 1.695929644499283E9, 0.0, 2023-09-28 14:34:04.499
104.0, 14929.087749610871, 18926.205507064522, 30267.950030320888, 14164.255757839175, 31505.05203068877, 5975.805935359709, -187500.02235174447, 36134.56769401642, 16021.596315097371, -25382.082209835316, -187500.02235174447, 53094.87022100332, 25644.983428118638, -2869.874581083606, 60699.96186494373, 31146.12771822545, 0.192, 0.962, 0.316, 192.0, 0.0, 0.0, 0.0, 0.0, 0.0, 0.0, 0.0, 0.0, 0.0, 1.695929644977945E9, 0.0, 2023-09-28 14:34:04.977
106.0, 14726.133909956683, 18943.863385184217, 30227.962759490343, 14197.090470444022, 31534.80220255878, 6006.316066541203, -187500.02235174447, 36170.196374678184, 16053.671068390737, -25343.39134018318, -187500.02235174447, 53076.96647369462, 25680.187425635748, -2834.290603910757, 60592.36056713588, 31129.63213081743, 0.192, 0.962, 0.316, 192.0, 0.0, 0.0, 0.0, 0.0, 0.0, 0.0, 0.0, 0.0, 0.0, 1.6959296449780505E9, 0.0, 2023-09-28 14:34:04.978
108.0, 14919.90118263974, 18937.56019324782, 30283.37273399505, 14173.397621321395, 31503.934443466, 5983.159659285505, -187500.02235174447, 36142.39080457578, 16047.770207854535, -25352.77907285441, -187500.02235174447, 53107.52130836503, 25664.295335328025, -2844.572406360198, 60677.0736786215, 31159.471709665268, 0.192, 0.962, 0.316, 192.0, 0.0, 0.0, 0.0, 0.0, 0.0, 0.0, 0.0, 0.0, 0.0, 1.6959296449780807E9, 0.0, 2023-09-28 14:34:04.978
110.0, 14736.996857761964, 18943.12577761719, 30228.141573445988, 14208.065176971577, 31526.643815832595, 6010.272325309793, -187500.02235174447, 36170.21872642264, 16043.03163803001, -25336.7305203355, -187500.02235174447, 53075.33479634939, 25667.60339350741, -2838.872711524095, 60610.1078522334, 31134.996549486706, 0.192, 0.962, 0.316, 192.0, 0.0, 0.0, 0.0, 0.0, 0.0, 0.0, 0.0, 0.0, 0.0, 1.6959296449781153E9, 0.0, 2023-09-28 14:34:04.978
112.0, 14921.421101262702, 18950.07717014279, 30308.451391273906, 14193.447136097806, 31512.919844737036, 5992.23446753436, -187500.02235174447, 36150.23626687959, 16050.452417189172, -25339.077453503305, -187500.02235174447, 53104.90615426376, 25670.37500981987, -2838.7162493129076, 60669.58584422897, 31169.59704990352, 0.198, 0.9580000000000001, 0.312, 192.0, 3.0, 24.0, 14.5, 120.0, 4.5, 96.0, 0.0, 0.0, 0.0, 1.695929644978144E9, 0.0, 2023-09-28 14:34:04.978
114.0, 14746.809273577843, 18951.619440510207, 30229.728547302315, 14210.076833972555, 31531.583551357216, 6008.864165409108, -187500.02235174447, 36150.05745292395, 16051.949984067678, -25334.472994145515, -187500.02235174447, 53076.20651438314, 25675.471207555678, -2829.6414410640527, 60632.660762388805, 31139.042215233116, 0.198, 0.9580000000000001, 0.312, 192.0, 0.0, 0.0, 0.0, 0.0, 0.0, 0.0, 0.0, 0.0, 0.0, 1.695929644978167E9, 0.0, 2023-09-28 14:34:04.978
116.0, 14918.962409372618, 18949.071341642302, 30316.788591955734, 14190.541409318615, 31507.175446412024, 5990.982769844863, -187500.02235174447, 36136.82522020641, 16049.021905544032, -25333.333055178293, -187500.02235174447, 53103.40858738525, 25670.55382377551, -2839.27504292429, 60658.29821327904, 31170.066436537083, 0.198, 0.9580000000000001, 0.312, 192.0, 0.0, 0.0, 0.0, 0.0, 0.0, 0.0, 0.0, 0.0, 0.0, 1.6959296449781868E9, 0.0, 2023-09-28 14:34:04.978
118.0, 14771.418544223136, 18941.807024694328, 30216.02692795121, 14197.492801844217, 31526.509705365865, 6002.136290328061, -187500.02235174447, 36141.6308452643, 16048.396056699285, -25335.948209279562, -187500.02235174447, 53076.11710740532, 25670.93380343125, -2838.626842335086, 60649.53632945256, 31139.73511931123, 0.198, 0.9580000000000001, 0.312, 192.0, 0.0, 0.0, 0.0, 0.0, 0.0, 0.0, 0.0, 0.0, 0.0, 1.6959296449782224E9, 0.0, 2023-09-28 14:34:04.978
120.0, 14929.043046121962, 18929.781786177373, 30309.233702329842, 14177.979728934733, 31499.352335852665, 5980.3656912285915, -187500.02235174447, 36131.50550502605, 16032.861594302845, -25349.627476886213, -187500.02235174447, 53076.161810894235, 25658.327419558456, -2852.3284616861897, 60652.84438763194, 31165.64079113493, 0.198, 0.9580000000000001, 0.312, 192.0, 0.0, 0.0, 0.0, 0.0, 0.0, 0.0, 0.0, 0.0, 0.0, 1.6959296449782465E9, 0.0, 2023-09-28 14:34:04.978
122.0, 14797.748899191487, 18939.19187059306, 30205.45455282385, 14196.509325088184, 31534.15400196958, 6010.697008454444, -187500.02235174447, 36140.66972025272, 16043.590431641393, -25346.20765998455, -187500.02235174447, 53062.728412476594, 25672.341963331935, -2850.8755982965945, 60669.65289946234, 31141.456203634287, 0.192, 0.9500000000000001, 0.308, 192.0, 3.0, 0.0, 14.5, 88.0, 4.5, 80.0, 0.0, 0.0, 0.0, 1.6959296449782724E9, 0.0, 2023-09-28 14:34:04.978
124.0, 14888.005243302017, 18940.287106071366, 30318.979062912356, 14186.831019739035, 31525.70504256547, 5989.731072155366, -187500.02235174447, 36140.80383071945, 16065.13751329631, -25335.054139501353, -187500.02235174447, 53072.74199399257, 25680.053315169018, -2831.898967254039, 60623.1612709953, 31178.493044196734, 0.192, 0.9500000000000001, 0.308, 192.0, 0.0, 0.0, 0.0, 0.0, 0.0, 0.0, 0.0, 0.0, 0.0, 1.6959296449782994E9, 0.0, 2023-09-28 14:34:04.978
126.0, 14801.034605626417, 18939.59420199325, 30204.158151645443, 14188.842676740012, 31536.657397348572, 5999.52113622679, -187500.02235174447, 36122.587158988375, 16046.22793748712, -25355.461282189048, -187500.02235174447, 53066.19293286717, 25669.480940041656, -2850.9426535299604, 60678.928873411285, 31142.082052479036, 0.192, 0.9500000000000001, 0.308, 192.0, 0.0, 0.0, 0.0, 0.0, 0.0, 0.0, 0.0, 0.0, 0.0, 1.6959296449783113E9, 0.0, 2023-09-28 14:34:04.978
128.0, 14863.261862189993, 18935.973219391493, 30302.28230980424, 14185.892246471913, 31516.250254660878, 5992.4579849789125, -187500.02235174447, 36154.39369134828, 16056.196815514186, -25339.30097094786, -187500.02235174447, 53063.33190957689, 25682.13202740336, -2836.1681504450025, 60602.48590737414, 31161.75158759971, 0.192, 0.9500000000000001, 0.308, 192.0, 0.0, 0.0, 0.0, 0.0, 0.0, 0.0, 0.0, 0.0, 0.0, 1.695929644978323E9, 0.0, 2023-09-28 14:34:04.978
130.0, 14825.912097205175, 18944.735103217972, 30206.080401668598, 14197.850429755501, 31535.62921710363, 6011.769892188298, -187500.02235174447, 36146.61528427783, 16041.757588596058, -25351.415616442635, -187500.02235174447, 53071.26677885852, 25667.245765596126, -2847.411077906022, 60691.57996077299, 31152.587372373033, 0.192, 0.9500000000000001, 0.308, 192.0, 0.0, 0.0, 0.0, 0.0, 0.0, 0.0, 0.0, 0.0, 0.0, 1.6959296449783344E9, 0.0, 2023-09-28 14:34:04.978
132.0, 14842.050056701906, 18924.305608785824, 30279.841158371113, 14179.365537090962, 31510.818780758236, 5980.969188328885, -187500.02235174447, 36134.59004576088, 16052.575832912426, -25347.414654185137, -187500.02235174447, 53054.413563539216, 25676.052352911516, -2842.6725080814967, 60595.48981135963, 31156.655389863896, 0.196, 0.9580000000000001, 0.312, 192.0, 3.0, 16.0, 14.5, 120.0, 4.5, 96.0, 0.0, 0.0, 0.0, 1.6959296449783485E9, 0.0, 2023-09-28 14:34:04.978
134.0, 14855.841083030831, 18935.79440543585, 30198.681974253894, 14185.109935415976, 31530.95770251247, 6004.3714647735915, -187500.02235174447, 36133.070127137915, 16027.810100055945, -25368.671163162133, -187500.02235174447, 53064.74006947757, 25652.49361425562, -2870.0980985281585, 60702.04057717807, 31137.58935184352, 0.196, 0.9580000000000001, 0.312, 192.0, 0.0, 0.0, 0.0, 0.0, 0.0, 0.0, 0.0, 0.0, 0.0, 1.69592964497836E9, 0.0, 2023-09-28 14:34:04.978
136.0, 14816.144384878206, 18927.613666965208, 30278.343591492605, 14186.42868833884, 31516.27260640533, 5987.205325031916, -187500.02235174447, 36145.05066216596, 16058.946080082189, -25339.837412814788, -187500.02235174447, 53054.63708098377, 25683.383725092855, -2832.3236503986896, 60580.67060478576, 31154.017884018172, 0.196, 0.9580000000000001, 0.312, 192.0, 0.0, 0.0, 0.0, 0.0, 0.0, 0.0, 0.0, 0.0, 0.0, 1.6959296449783747E9, 0.0, 2023-09-28 14:34:04.978
