%OpenBCI Raw EXG Data
%Number of channels = 16
%Sample Rate = 125 Hz
%Board = OpenBCI_GUI$BoardCytonSerialDaisy
Sample Index, EXG Channel 0, EXG Channel 1, EXG Channel 2, EXG Channel 3, EXG Channel 4, EXG Channel 5, EXG Channel 6, EXG Channel 7, EXG Channel 8, EXG Channel 9, EXG Channel 10, EXG Channel 11, EXG Channel 12, EXG Channel 13, EXG Channel 14, EXG Channel 15, Accel Channel 0, Accel Channel 1, Accel Channel 2, Other, Other, Other, Other, Other, Other, Other, Analog Channel 0, Analog Channel 1, Analog Channel 2, Timestamp, Other, Timestamp (Formatted)
0.0, 14494.100450766142, 18980.408487368644, 29170.702895009865, 14397.004472852288, 31668.242116956964, 6060.809619523242, -187500.02235174447, 34190.94940316074, 0.0, 0.0, 0.0, 0.0, 0.0, 0.0, 0.0, 0.0, 0.0, 0.0, 0.0, 192.0, 0.0, 0.0, 0.0, 0.0, 0.0, 0.0, 0.0, 0.0, 0.0, 1.6959296930601912E9, 0.0, 2023-09-28 14:34:53.060
224.0, 14666.968842383487, 18966.997440695457, 29162.231583861303, 14367.991908549298, 31656.373340651196, 6038.726096001398, -187500.02235174447, 34155.76775738809, 16442.859642846543, -25395.493256508504, -187500.02235174447, 53047.909205902724, 25849.88186954044, -2800.3606558276006, 71047.14316691675, 29767.338009755375, 0.122, 0.47800000000000004, 0.132, 192.0, 3.5, 80.0, 14.5, 112.0, 4.0, 32.0, 0.0, 0.0, 0.0, 1.6959296930602121E9, 0.0, 2023-09-28 14:34:53.060
226.0, 14497.34145371216, 18977.41335361163, 29131.00619685724, 14391.37183324955, 31681.831977585793, 6056.540436332279, -187500.02235174447, 34171.23516455116, 16448.44757896037, -25384.339736025304, -187500.02235174447, 53013.509871186005, 25859.202546978304, -2792.8281179461624, 70969.38144795674, 29730.54703838194, 0.122, 0.47800000000000004, 0.132, 192.0, 0.0, 0.0, 0.0, 0.0, 0.0, 0.0, 0.0, 0.0, 0.0, 1.6959296930602272E9, 0.0, 2023-09-28 14:34:53.060
228.0, 14663.146694081628, 18971.80306575335, 29168.870051964528, 14370.361193461562, 31652.819413282803, 6043.24114838137, -187500.02235174447, 34149.03988230704, 16452.73911389579, -25389.055954105374, -187500.02235174447, 53043.55061573394, 25855.246288209713, -2798.348998826623, 71030.75933823102, 29763.448806220153, 0.122, 0.47800000000000004, 0.132, 192.0, 0.0, 0.0, 0.0, 0.0, 0.0, 0.0, 0.0, 0.0, 0.0, 1.6959296930602396E9, 0.0, 2023-09-28 14:34:53.060
230.0, 14488.065479763209, 18985.638795571183, 29129.5756852121, 14406.950999134899, 31695.623003914716, 6074.801811552265, -187500.02235174447, 34190.68118222728, 16455.846006375075, -25399.427163532637, -187500.02235174447, 53017.75670263251, 25863.15880574689, -2790.637646989542, 70978.7021253946, 29733.341006438855, 0.122, 0.47800000000000004, 0.132, 192.0, 0.0, 0.0, 0.0, 0.0, 0.0, 0.0, 0.0, 0.0, 0.0, 1.6959296930602517E9, 0.0, 2023-09-28 14:34:53.060
232.0, 14636.592821668724, 18986.063478715834, 29189.523063841232, 14388.980196592833, 31664.844651799758, 6046.303337371747, -187500.02235174447, 34154.44900446523, 16472.855683905564, -25381.657526690666, -187500.02235174447, 53058.14630486326, 25868.92555581636, -2784.3568067976007, 71009.011090876, 29772.4789109801, 0.122, 0.47800000000000004, 0.132, 192.0, 0.0, 0.0, 0.0, 0.0, 0.0, 0.0, 0.0, 0.0, 0.0, 1.6959296930602663E9, 0.0, 2023-09-28 14:34:53.060
234.0, 14481.561122126714, 18993.819534041828, 29135.409490514936, 14412.114252104075, 31683.195433997567, 6076.209971452949, -187500.02235174447, 34184.33328680197, 16468.83236990361, -25370.6381166742, -187500.02235174447, 53042.16480757771, 25871.853634340005, -2781.384024785045, 70981.27257600696, 29744.963913555614, 0.188, 0.728, 0.2, 192.0, 3.5, 120.0, 15.0, 72.0, 4.0, 48.0, 0.0, 0.0, 0.0, 1.695929693060278E9, 0.0, 2023-09-28 14:34:53.060
236.0, 14598.281931672327, 19003.47548764652, 29201.43654363591, 14408.247400313307, 31685.989402054478, 6072.901913273563, -187500.02235174447, 34181.87459491189, 16472.07337284963, -25372.761532397453, -187500.02235174447, 53061.70023223165, 25867.182119748846, -2778.902981150506, 70988.6039481883, 29774.535271469984, 0.188, 0.728, 0.2, 192.0, 0.0, 0.0, 0.0, 0.0, 0.0, 0.0, 0.0, 0.0, 0.0, 1.69592969306029E9, 0.0, 2023-09-28 14:34:53.060
238.0, 14477.58251161367, 18985.772906037917, 29123.563065953622, 14402.27948454374, 31678.166291495123, 6075.494715630379, -187500.02235174447, 34170.7657779176, 16473.50388449477, -25365.20664277156, -187500.02235174447, 53052.71483096061, 25880.950794333316, -2771.0351671022377, 70985.94409059812, 29753.614038659816, 0.188, 0.728, 0.2, 192.0, 0.0, 0.0, 0.0, 0.0, 0.0, 0.0, 0.0, 0.0, 0.0, 1.695929693060302E9, 0.0, 2023-09-28 14:34:53.060
240.0, 14587.016652466853, 18995.451211387066, 29196.094476711092, 14399.127888575542, 31669.44911115755, 6067.9398260044845, -187500.02235174447, 34189.608298493426, 16464.607890201558, -25374.527320209425, -187500.02235174447, 53049.876159414795, 25860.945983045815, -2788.3130655661903, 70975.86345384878, 29767.27095452201, 0.188, 0.728, 0.2, 192.0, 0.0, 0.0, 0.0, 0.0, 0.0, 0.0, 0.0, 0.0, 0.0, 1.695929693060314E9, 0.0, 2023-09-28 14:34:53.060
242.0, 14498.146116512551, 18980.453190857555, 29102.887702332464, 14388.376699492539, 31673.003038525945, 6076.992282508884, -187500.02235174447, 34180.42173152229, 16468.608852459056, -25379.802331900875, -187500.02235174447, 53051.820761182404, 25862.77882609115, -2778.992388128327, 71013.79436418944, 29755.044550304956, 0.188, 0.728, 0.2, 192.0, 0.0, 0.0, 0.0, 0.0, 0.0, 0.0, 0.0, 0.0, 0.0, 1.6959296930603263E9, 0.0, 2023-09-28 14:34:53.060
244.0, 14574.007937193865, 18973.61355705423, 29169.026514175715, 14371.434077195416, 31664.88935528867, 6042.391782092069, -187500.02235174447, 34162.38387374686, 16459.198768043374, -25379.35529701177, -187500.02235174447, 53042.29891804444, 25861.705942357297, -2782.769832941274, 70962.38535194223, 29766.22042253261, 0.222, 0.848, 0.23700000000000002, 192.0, 4.0, 0.0, 15.0, 32.0, 4.0, 72.0, 0.0, 0.0, 0.0, 1.6959296930603385E9, 0.0, 2023-09-28 14:34:53.060
246.0, 14524.431767991993, 18989.840923528784, 29080.93828927735, 14381.961748833866, 31681.11672176322, 6072.946616762473, -187500.02235174447, 34163.25559178062, 16461.813922144644, -25367.64298291719, -187500.02235174447, 53045.316403545905, 25858.46493941128, -2793.968056913383, 71033.10627139882, 29745.343893211353, 0.222, 0.848, 0.23700000000000002, 192.0, 0.0, 0.0, 0.0, 0.0, 0.0, 0.0, 0.0, 0.0, 0.0, 1.695929693060352E9, 0.0, 2023-09-28 14:34:53.060
248.0, 14553.243166594884, 18952.98289692198, 29134.04603410316, 14335.69363781138, 31643.16345967811, 6036.66973551151, -187500.02235174447, 34152.28088525306, 16472.49805599428, -25390.553520983878, -187500.02235174447, 53031.838301639356, 25857.615573121977, -2787.5307545102546, 70949.04136050241, 29759.581954429384, 0.222, 0.848, 0.23700000000000002, 192.0, 0.0, 0.0, 0.0, 0.0, 0.0, 0.0, 0.0, 0.0, 0.0, 1.6959296930603645E9, 0.0, 2023-09-28 14:34:53.060
250.0, 14543.408399034548, 18999.921560278126, 29050.51756507368, 14371.881112084522, 31665.537555877872, 6062.128372446105, -187500.02235174447, 34152.43734746425, 16461.031611088707, -25398.488390265513, -187500.02235174447, 53006.42436819367, 25837.96838974576, -2800.897097694528, 71040.8176232359, 29721.181657455167, 0.222, 0.848, 0.23700000000000002, 192.0, 0.0, 0.0, 0.0, 0.0, 0.0, 0.0, 0.0, 0.0, 0.0, 1.6959296930603764E9, 0.0, 2023-09-28 14:34:53.060
252.0, 14518.39679698906, 18950.23363235398, 29126.602903199542, 14345.21548094934, 31656.954486007035, 6054.372317120114, -187500.02235174447, 34157.22062077768, 16460.808093644155, -25370.369895740736, -187500.02235174447, 53020.796539878436, 25866.377456948456, -2773.7844316702403, 70926.98018872502, 29751.177698514188, 0.222, 0.848, 0.23700000000000002, 192.0, 0.0, 0.0, 0.0, 0.0, 0.0, 0.0, 0.0, 0.0, 0.0, 1.695929693060388E9, 0.0, 2023-09-28 14:34:53.060
254.0, 14556.908852685554, 18957.90028070215, 29042.31447485858, 14346.243661194285, 31662.02833199839, 6055.691070042976, -187500.02235174447, 34130.733803598145, 16463.043268089685, -25409.328986326338, -187500.02235174447, 53002.98219954756, 25850.954753274294, -2791.576420256665, 71042.87398372579, 29729.74237558155, 0.23399999999999999, 0.899, 0.2555, 192.0, 3.5, 88.0, 14.5, 88.0, 4.0, 72.0, 0.0, 0.0, 0.0, 1.6959296930604055E9, 0.0, 2023-09-28 14:34:53.060
0.0, 14513.010026575332, 18952.625269010696, 29122.177257797393, 14345.662515838447, 31653.26644817191, 6038.5919855346665, -187500.02235174447, 34162.272115024585, 16463.78087565671, -25361.07157004733, -187500.02235174447, 52995.3602546883, 25870.713695372786, -2789.9670946558826, 70925.14734567968, 29733.83274481687, 0.23399999999999999, 0.899, 0.2555, 192.0, 0.0, 0.0, 0.0, 0.0, 0.0, 0.0, 0.0, 0.0, 0.0, 1.6959296930604172E9, 0.0, 2023-09-28 14:34:53.060
2.0, 14589.832972268221, 18998.356938166256, 29095.936309806864, 14385.470972713349, 31680.26735547392, 6076.411137153046, -187500.02235174447, 34171.59279246245, 16456.673020919923, -25398.82366643234, -187500.02235174447, 53012.83931885235, 25834.481517610733, -2822.444179349444, 71058.6766670557, 29736.582009384874, 0.23399999999999999, 0.899, 0.2555, 192.0, 0.0, 0.0, 0.0, 0.0, 0.0, 0.0, 0.0, 0.0, 0.0, 1.6959296930604317E9, 0.0, 2023-09-28 14:34:53.060
4.0, 14493.988692043864, 18978.910920490136, 29138.561086483132, 14378.139600532008, 31672.488948403472, 6062.038965468284, -187500.02235174447, 34172.28569654056, 16496.816753961655, -25324.39235739617, -187500.02235174447, 53024.39517073574, 25877.016887309182, -2771.571608969165, 70931.65170331618, 29765.03578007648, 0.23399999999999999, 0.899, 0.2555, 192.0, 0.0, 0.0, 0.0, 0.0, 0.0, 0.0, 0.0, 0.0, 0.0, 1.6959296930604432E9, 0.0, 2023-09-28 14:34:53.060
6.0, 14592.045794969297, 18966.773923250905, 29086.056838757617, 14365.242643981295, 31669.516166390917, 6061.636634068088, -187500.02235174447, 34151.342111985934, 16461.50099772227, -25340.552668637356, -187500.02235174447, 53024.775150391484, 25863.11410225798, -2799.7795104717625, 71056.59795482135, 29753.50227993754, 0.23399999999999999, 0.899, 0.2555, 192.0, 0.0, 0.0, 0.0, 0.0, 0.0, 0.0, 0.0, 0.0, 0.0, 1.6959296930604548E9, 0.0, 2023-09-28 14:34:53.060
8.0, 14456.974203225876, 18968.919690718616, 29101.14426626495, 14378.832504610124, 31670.052608257844, 6067.313977159736, -187500.02235174447, 34171.43633025126, 16461.50099772227, -25366.39128522769, -187500.02235174447, 52972.270902665965, 25890.629099682465, -2785.1167661090813, 70917.8383252428, 29731.2175907156, 0.236, 0.9275, 0.26275000000000004, 192.0, 3.5, 56.0, 14.5, 112.0, 4.0, 56.0, 0.0, 0.0, 0.0, 1.695929693060466E9, 0.0, 2023-09-28 14:34:53.060
10.0, 14607.535553876825, 19011.34330169479, 29126.848772388552, 14412.538935248725, 31678.233346728488, 6073.974797007418, -187500.02235174447, 34174.11853958589, 16426.989904283273, -25334.987084267985, -187500.02235174447, 53025.400999236226, 25859.49311965622, -2809.1001879096257, 71051.99349546355, 29755.64804740525, 0.236, 0.9275, 0.26275000000000004, 192.0, 0.0, 0.0, 0.0, 0.0, 0.0, 0.0, 0.0, 0.0, 0.0, 1.6959296930604775E9, 0.0, 2023-09-28 14:34:53.060
12.0, 14455.72250553638, 19007.878781304214, 29141.399758028958, 14423.75951096529, 31682.99426829747, 6081.864962800141, -187500.02235174447, 34191.79876945004, 16402.045357471154, -25282.95222317603, -187500.02235174447, 53037.40388600873, 25905.69417544534, -2772.6221409585646, 70943.25225868849, 29762.688846908673, 0.236, 0.9275, 0.26275000000000004, 192.0, 0.0, 0.0, 0.0, 0.0, 0.0, 0.0, 0.0, 0.0, 0.0, 1.6959296930604897E9, 0.0, 2023-09-28 14:34:53.060
14.0, 14616.65506561459, 19002.223789957025, 29135.498897492755, 14405.431080511938, 31665.626962855695, 6076.2770266863145, -187500.02235174447, 34179.125330343886, 16276.607367587969, -25326.11344171923, -187500.02235174447, 53044.26587155651, 25882.537768189643, -2804.473376807377, 71058.00611472203, 29770.690771423673, 0.236, 0.9275, 0.26275000000000004, 192.0, 0.0, 0.0, 0.0, 0.0, 0.0, 0.0, 0.0, 0.0, 0.0, 1.6959296930605268E9, 0.0, 2023-09-28 14:34:53.060
16.0, 14451.252156645318, 18987.76221129444, 29099.91492031991, 14402.61476071057, 31663.682361088082, 6080.099174988172, -187500.02235174447, 34174.073836096984, 16159.707744086712, -25324.19119169607, -187500.02235174447, 53002.043426280434, 25891.254948527214, -2802.5287750397656, 70975.66228814868, 29737.587837885363, 0.236, 0.9275, 0.26275000000000004, 192.0, 0.0, 0.0, 0.0, 0.0, 0.0, 0.0, 0.0, 0.0, 0.0, 1.6959296930605383E9, 0.0, 2023-09-28 14:34:53.060
18.0, 14610.50833588938, 18997.038185243393, 29134.44836550336, 14397.406804252483, 31661.246020942453, 6070.666738828032, -187500.02235174447, 34167.05538833802, 16062.857635361868, -25333.265999944928, -187500.02235174447, 53032.68766792866, 25894.384192750957, -2806.5073855528103, 71043.768053504, 29763.091178308867, 0.239, 0.94475, 0.262375, 192.0, 3.5, 72.0, 15.0, 8.0, 4.0, 24.0, 0.0, 0.0, 0.0, 1.6959296930605493E9, 0.0, 2023-09-28 14:34:53.060
20.0, 14450.201624655918, 19008.147002237678, 29087.688516102855, 14428.431025556449, 31666.141052978168, 6097.131204263116, -187500.02235174447, 34195.464455540714, 15994.863628728823, -25315.988101480976, -187500.02235174447, 53011.31940022939, 25900.195646309334, -2814.799882745729, 70988.20161678811, 29734.59270412835, 0.239, 0.94475, 0.262375, 192.0, 0.0, 0.0, 0.0, 0.0, 0.0, 0.0, 0.0, 0.0, 0.0, 1.6959296930605605E9, 0.0, 2023-09-28 14:34:53.060
22.0, 14611.581219623235, 19017.065348275348, 29136.95176088235, 14417.076339373154, 31665.425797155596, 6080.166230221538, -187500.02235174447, 34172.71037968521, 15944.192224048642, -25309.908426989132, -187500.02235174447, 53049.76440069251, 25897.111105574502, -2809.7260367543745, 71039.09653891284, 29776.0775418374, 0.239, 0.94475, 0.262375, 192.0, 0.0, 0.0, 0.0, 0.0, 0.0, 0.0, 0.0, 0.0, 0.0, 1.6959296930605717E9, 0.0, 2023-09-28 14:34:53.060
24.0, 14453.934365979954, 19026.1401565242, 29073.964545007297, 14441.19387164043, 31678.859195573237, 6111.324561992235, -187500.02235174447, 34211.758877248634, 15929.238907008043, -25300.945377462554, -187500.02235174447, 53030.25132778303, 25910.544503992143, -2798.863088949095, 70996.56116921439, 29758.486718951073, 0.239, 0.94475, 0.262375, 192.0, 0.0, 0.0, 0.0, 0.0, 0.0, 0.0, 0.0, 0.0, 0.0, 1.6959296930605824E9, 0.0, 2023-09-28 14:34:53.060
26.0, 14593.677472314534, 19030.67756064863, 29135.208324814837, 14429.302743590206, 31665.73872157797, 6095.276009473326, -187500.02235174447, 34197.16318811932, 15922.086348782344, -25293.01050818092, -187500.02235174447, 53053.94417690566, 25909.069288858092, -2803.6240105180755, 71016.94596015764, 29792.148446100768, 0.239, 0.94475, 0.262375, 192.0, 0.0, 0.0, 0.0, 0.0, 0.0, 0.0, 0.0, 0.0, 0.0, 1.6959296930605934E9, 0.0, 2023-09-28 14:34:53.060
28.0, 14461.824531772678, 19030.364636226255, 29054.89850698692, 14441.260926873796, 31680.870852574215, 6116.130187050127, -187500.02235174447, 34192.446970039244, 15931.697598898125, -25294.15044714814, -187500.02235174447, 53037.24742379754, 25914.098431360537, -2802.5958302731315, 71009.97221588758, 29762.442977719664, 0.2495, 0.954375, 0.2581875, 192.0, 4.0, 16.0, 15.0, 16.0, 3.5, 120.0, 0.0, 0.0, 0.0, 1.6959296930606065E9, 0.0, 2023-09-28 14:34:53.060
30.0, 14585.563789077258, 19022.04978728888, 29121.998443841752, 14425.167670865974, 31648.527878347384, 6096.5277071628225, -187500.02235174447, 34190.88234792738, 15940.571241446882, -25305.751002520443, -187500.02235174447, 53044.98112737908, 25903.146076577435, -2815.135158912559, 71001.43384950564, 29792.930757156704, 0.2495, 0.954375, 0.2581875, 192.0, 0.0, 0.0, 0.0, 0.0, 0.0, 0.0, 0.0, 0.0, 0.0, 1.6959296930606196E9, 0.0, 2023-09-28 14:34:53.060
32.0, 14478.588340114158, 19025.737825124004, 29037.397091078412, 14439.584546039647, 31674.83588157128, 6117.739512650909, -187500.02235174447, 34192.894004928356, 15946.740322916547, -25313.685871802078, -187500.02235174447, 53036.28629878596, 25900.083887587058, -2828.3673916301004, 71027.65244575172, 29763.828785875892, 0.2495, 0.954375, 0.2581875, 192.0, 0.0, 0.0, 0.0, 0.0, 0.0, 0.0, 0.0, 0.0, 0.0, 1.6959296930606306E9, 0.0, 2023-09-28 14:34:53.060
34.0, 14569.381126091615, 19025.134328023712, 29115.53878969417, 14423.737159220835, 31659.144956963657, 6102.5403264213, -187500.02235174447, 34185.16030134682, 15967.326279559886, -25317.798592781855, -187500.02235174447, 53040.577833721385, 25899.636852697953, -2830.803731775729, 70994.77302965797, 29786.694620453673, 0.2495, 0.954375, 0.2581875, 192.0, 0.0, 0.0, 0.0, 0.0, 0.0, 0.0, 0.0, 0.0, 0.0, 1.6959296930606415E9, 0.0, 2023-09-28 14:34:53.060
36.0, 14494.145154255051, 19027.928296080627, 29036.391262577923, 14433.750740736812, 31682.524881663907, 6120.108797563172, -187500.02235174447, 34186.27788856958, 16001.412689854229, -25308.58967406627, -187500.02235174447, 53041.09192384386, 25906.297672545636, -2847.411077906022, 71044.48330932658, 29775.004658103546, 0.2495, 0.954375, 0.2581875, 192.0, 0.0, 0.0, 0.0, 0.0, 0.0, 0.0, 0.0, 0.0, 0.0, 1.6959296930606527E9, 0.0, 2023-09-28 14:34:53.060
38.0, 14560.462780053947, 19014.472545918532, 29111.493123947756, 14420.116176619074, 31656.865079029216, 6093.867849572641, -187500.02235174447, 34183.70743795722, 16021.395149397273, -25307.114458932218, -187500.02235174447, 53043.75178143404, 25906.18591382336, -2856.731755343885, 70991.97906160106, 29789.980326888603, 0.25775000000000003, 0.9591875, 0.26009375, 192.0, 4.0, 40.0, 15.0, 16.0, 4.0, 24.0, 0.0, 0.0, 0.0, 1.695929693060664E9, 0.0, 2023-09-28 14:34:53.060
40.0, 14532.657209951545, 19023.212078000557, 29023.918989171863, 14428.632191256547, 31672.421893170107, 6121.382846997124, -187500.02235174447, 34175.16907157529, 16029.687646590191, -25325.129964963195, -187500.02235174447, 53037.47094124209, 25886.73989614724, -2870.0757467837034, 71088.65035637026, 29761.45950096363, 0.25775000000000003, 0.9591875, 0.26009375, 192.0, 0.0, 0.0, 0.0, 0.0, 0.0, 0.0, 0.0, 0.0, 0.0, 1.6959296930606763E9, 0.0, 2023-09-28 14:34:53.060
42.0, 14550.717419471433, 18998.893380033183, 29084.626327112477, 14401.653635698991, 31647.186773680067, 6083.250770956371, -187500.02235174447, 34173.26917329659, 16059.661335904759, -25324.749985307455, -187500.02235174447, 53015.92385958718, 25894.22773053977, -2874.411985208033, 71004.11605884029, 29773.372980758308, 0.25775000000000003, 0.9591875, 0.26009375, 192.0, 0.0, 0.0, 0.0, 0.0, 0.0, 0.0, 0.0, 0.0, 0.0, 1.6959296930606873E9, 0.0, 2023-09-28 14:34:53.060
44.0, 14569.135256902608, 19002.536714379396, 29008.295119797604, 14405.922818889954, 31655.1216429617, 6098.5840676527105, -187500.02235174447, 34172.91154538531, 16064.824588873935, -25341.603200626756, -187500.02235174447, 53012.057007796415, 25872.21126225129, -2902.821052410728, 71122.31208351995, 29749.70248338014, 0.25775000000000003, 0.9591875, 0.26009375, 192.0, 0.0, 0.0, 0.0, 0.0, 0.0, 0.0, 0.0, 0.0, 0.0, 1.6959296930606985E9, 0.0, 2023-09-28 14:34:53.060
46.0, 14534.378294274604, 18996.814667798837, 29078.859577043007, 14403.754699677791, 31652.50648886043, 6086.15649773556, -187500.02235174447, 34165.87074588189, 16105.124784126852, -25319.519677104912, -187500.02235174447, 53009.955943817615, 25887.2092827808, -2877.630636409597, 71015.91777991269, 29764.186413787178, 0.25775000000000003, 0.9591875, 0.26009375, 192.0, 0.0, 0.0, 0.0, 0.0, 0.0, 0.0, 0.0, 0.0, 0.0, 1.6959296930607092E9, 0.0, 2023-09-28 14:34:53.060
48.0, 14564.150817889074, 19029.62702865923, 29031.4515270533, 14425.81587145518, 31691.376172468208, 6133.028105858339, -187500.02235174447, 34193.229281095184, 16120.033397678542, -25326.73929056398, -187500.02235174447, 53026.83151088137, 25876.50279718671, -2878.256485254346, 71131.1410225798, 29766.332181254886, 0.261875, 0.9605937499999999, 0.264046875, 192.0, 4.0, 40.0, 15.0, 8.0, 4.0, 48.0, 0.0, 0.0, 0.0, 1.69592969306072E9, 0.0, 2023-09-28 14:34:53.060
50.0, 14494.860410077621, 18998.021661999424, 29081.47473114428, 14400.670158942958, 31660.84368954226, 6089.799832081775, -187500.02235174447, 34181.80753967852, 16164.803941822523, -25308.477915343992, -187500.02235174447, 53016.661467154205, 25902.31906203259, -2851.7473163303516, 71004.83131466285, 29786.42639952021, 0.261875, 0.9605937499999999, 0.264046875, 192.0, 0.0, 0.0, 0.0, 0.0, 0.0, 0.0, 0.0, 0.0, 0.0, 1.6959296930607307E9, 0.0, 2023-09-28 14:34:53.060
52.0, 14582.278082642328, 19006.224752214523, 29028.97048341876, 14399.329054275639, 31666.31986693381, 6109.804643369275, -187500.02235174447, 34171.12340582888, 16151.392895149338, -25350.141567008683, -187500.02235174447, 53015.83445260936, 25861.147148745913, -2899.4235872535214, 71150.67644723374, 29763.046474819956, 0.261875, 0.9605937499999999, 0.264046875, 192.0, 0.0, 0.0, 0.0, 0.0, 0.0, 0.0, 0.0, 0.0, 0.0, 1.695929693060742E9, 0.0, 2023-09-28 14:34:53.060
54.0, 14477.850732547133, 18991.226731685012, 29066.6108210815, 14389.404879737483, 31664.30820993283, 6086.044739013283, -187500.02235174447, 34170.13992907285, 16189.59202642346, -25331.611970855236, -187500.02235174447, 52990.71109184159, 25883.92357634587, -2868.444069438466, 71031.16166963121, 29763.515861453518, 0.261875, 0.9605937499999999, 0.264046875, 192.0, 0.0, 0.0, 0.0, 0.0, 0.0, 0.0, 0.0, 0.0, 0.0, 1.6959296930607555E9, 0.0, 2023-09-28 14:34:53.060
56.0, 14612.385882423627, 18998.1334207217, 29046.98598944974, 14384.621606424047, 31659.9719715085, 6096.550058907278, -187500.02235174447, 34148.57049567348, 16189.077936300986, -25361.295087491882, -187500.02235174447, 53011.855842096316, 25855.73802658773, -2890.281723771301, 71161.56174678347, 29763.56056494243, 0.261875, 0.9605937499999999, 0.264046875, 192.0, 0.0, 0.0, 0.0, 0.0, 0.0, 0.0, 0.0, 0.0, 0.0, 1.6959296930607665E9, 0.0, 2023-09-28 14:34:53.060
58.0, 14462.115104450597, 19011.320949950332, 29066.387303636948, 14405.431080511938, 31679.619154884716, 6115.504338205378, -187500.02235174447, 34188.51306301511, 16225.466576274226, -25321.508982361436, -187500.02235174447, 52999.02594077897, 25878.98384082125, -2867.1476682600583, 71042.20343139213, 29762.264163764023, 0.26293750000000005, 0.9552968749999999, 0.2600234375, 192.0, 4.0, 32.0, 14.5, 88.0, 4.0, 0.0, 0.0, 0.0, 0.0, 1.6959296930607772E9, 0.0, 2023-09-28 14:34:53.060
60.0, 14617.146803992608, 19009.66692086064, 29063.839204769043, 14375.926777830933, 31668.666800101615, 6088.3693204366355, -187500.02235174447, 34154.51605969859, 16240.062265403541, -25352.980238554508, -187500.02235174447, 53018.91899334419, 25864.388151691932, -2879.642293410575, 71150.20706060018, 29775.719913926117, 0.26293750000000005, 0.9552968749999999, 0.2600234375, 192.0, 0.0, 0.0, 0.0, 0.0, 0.0, 0.0, 0.0, 0.0, 0.0, 1.695929693060788E9, 0.0, 2023-09-28 14:34:53.060
62.0, 14472.218092944395, 19006.80589757036, 29066.588469337046, 14394.32226351765, 31669.493814646463, 6096.952390307473, -187500.02235174447, 34172.37510351838, 16265.83382676051, -25336.39524416867, -187500.02235174447, 52983.64794059371, 25874.40173320791, -2863.6160926361194, 71056.66501005471, 29751.535326425474, 0.26293750000000005, 0.9552968749999999, 0.2600234375, 192.0, 0.0, 0.0, 0.0, 0.0, 0.0, 0.0, 0.0, 0.0, 0.0, 1.6959296930608008E9, 0.0, 2023-09-28 14:34:53.060
64.0, 14646.181720040051, 19007.00706327046, 29089.253138214724, 14373.98217606332, 31653.98170399448, 6081.395576166579, -187500.02235174447, 34134.578303644455, 16247.281878862606, -25373.521491708936, -187500.02235174447, 52999.472975668075, 25845.74679681621, -2888.7171016594293, 71162.7016857507, 29762.93471609768, 0.26293750000000005, 0.9552968749999999, 0.2600234375, 192.0, 0.0, 0.0, 0.0, 0.0, 0.0, 0.0, 0.0, 0.0, 0.0, 1.6959296930608115E9, 0.0, 2023-09-28 14:34:53.060
66.0, 14496.022700789297, 19006.3365109368, 29058.18421342185, 14398.971426364355, 31666.811605311825, 6092.951428049973, -187500.02235174447, 34163.63557143636, 16272.919329752844, -25343.838375072286, -187500.02235174447, 52983.29031268243, 25862.085922013037, -2872.5791421626977, 71092.49485641657, 29734.615055872808, 0.26293750000000005, 0.9552968749999999, 0.2600234375, 192.0, 0.0, 0.0, 0.0, 0.0, 0.0, 0.0, 0.0, 0.0, 0.0, 1.6959296930608244E9, 0.0, 2023-09-28 14:34:53.060
68.0, 14656.172949811573, 19011.432708672608, 29103.647661643943, 14388.555513448182, 31661.626000598193, 6086.558829135755, -187500.02235174447, 34153.19730677573, 16273.075791964031, -25348.956924552553, -187500.02235174447, 53016.88498459876, 25854.26281145368, -2876.401290464555, 71165.98739218562, 29769.394370245263, 0.25746875, 0.9606484375, 0.25901171875, 192.0, 3.5, 112.0, 15.0, 24.0, 4.0, 8.0, 0.0, 0.0, 0.0, 1.6959296930608351E9, 0.0, 2023-09-28 14:34:53.060
70.0, 14489.987729786364, 19017.646493631186, 29069.538899605144, 14406.436909012427, 31683.46365493103, 6101.556849665267, -187500.02235174447, 34171.413978506804, 16299.473202165747, -25325.01820624092, -187500.02235174447, 53003.60804839231, 25871.943041317827, -2854.6530431095416, 71101.92729257671, 29744.89685832225, 0.25746875, 0.9606484375, 0.25901171875, 192.0, 0.0, 0.0, 0.0, 0.0, 0.0, 0.0, 0.0, 0.0, 0.0, 1.695929693060846E9, 0.0, 2023-09-28 14:34:53.060
72.0, 14643.633621172146, 19016.506554663963, 29138.248162060758, 14386.409745980473, 31662.87769828769, 6086.91645704704, -187500.02235174447, 34157.48884171115, 16304.770565601655, -25337.15520348015, -187500.02235174447, 53032.799426650934, 25863.605840636, -2857.2011419774467, 71143.43448203022, 29761.481852708086, 0.25746875, 0.9606484375, 0.25901171875, 192.0, 0.0, 0.0, 0.0, 0.0, 0.0, 0.0, 0.0, 0.0, 0.0, 1.695929693060857E9, 0.0, 2023-09-28 14:34:53.060
74.0, 14502.34824447015, 19017.95941805356, 29071.237632183747, 14398.144411819509, 31683.709524120037, 6110.832823614219, -187500.02235174447, 34164.6637516813, 16318.762757630679, -25335.188249968083, -187500.02235174447, 53008.279562983465, 25868.88085232745, -2838.246862679346, 71126.4918597331, 29736.336140195865, 0.25746875, 0.9606484375, 0.25901171875, 192.0, 0.0, 0.0, 0.0, 0.0, 0.0, 0.0, 0.0, 0.0, 0.0, 1.6959296930608675E9, 0.0, 2023-09-28 14:34:53.060
76.0, 14650.450903231014, 19007.655263859662, 29141.109185351037, 14372.37285046254, 31652.193564438054, 6074.287721429792, -187500.02235174447, 34128.47627740816, 16314.18065001734, -25354.67897113311, -187500.02235174447, 53016.169728776185, 25858.911974300383, -2850.5626738742203, 71147.12251986534, 29753.41287295972, 0.25746875, 0.9606484375, 0.25901171875, 192.0, 0.0, 0.0, 0.0, 0.0, 0.0, 0.0, 0.0, 0.0, 0.0, 1.6959296930608785E9, 0.0, 2023-09-28 14:34:53.060
78.0, 14536.479358253404, 19009.62221737173, 29060.955829734306, 14387.952016347888, 31678.233346728488, 6100.4616141869565, -187500.02235174447, 34147.13998402834, 16307.720995869757, -25369.386418984705, -187500.02235174447, 52985.50313538351, 25851.06651199657, -2857.6705286110077, 71168.20021488669, 29707.54709333743, 0.252734375, 0.96232421875, 0.25950585937500004, 192.0, 3.5, 96.0, 15.0, 16.0, 4.0, 16.0, 0.0, 0.0, 0.0, 1.6959296930608912E9, 0.0, 2023-09-28 14:34:53.060
80.0, 14643.857138616699, 19011.365653439243, 29147.546487754167, 14389.51663845976, 31660.709579075527, 6089.106928003661, -187500.02235174447, 34154.69487365423, 16345.450740510314, -25338.988046525486, -187500.02235174447, 53018.136682288256, 25867.36093370449, -2850.1603424740247, 71150.9893716561, 29761.101873052346, 0.252734375, 0.96232421875, 0.25950585937500004, 192.0, 0.0, 0.0, 0.0, 0.0, 0.0, 0.0, 0.0, 0.0, 0.0, 1.695929693060902E9, 0.0, 2023-09-28 14:34:53.060
82.0, 14539.474492010415, 19020.932200066116, 29061.29110590114, 14403.821754911156, 31686.391733454675, 6122.567489453255, -187500.02235174447, 34153.55493468701, 16340.063970096586, -25359.574003168822, -187500.02235174447, 53002.82573733637, 25860.968334790272, -2857.447011166455, 71196.98926174513, 29723.238017945056, 0.252734375, 0.96232421875, 0.25950585937500004, 192.0, 0.0, 0.0, 0.0, 0.0, 0.0, 0.0, 0.0, 0.0, 0.0, 1.6959296930609128E9, 0.0, 2023-09-28 14:34:53.060
84.0, 14616.208030725484, 19009.152830738167, 29156.956572169853, 14388.823734381645, 31668.666800101615, 6090.380977437613, -187500.02235174447, 34151.18564977475, 16367.869540198988, -25343.52545064991, -187500.02235174447, 53022.51762420149, 25880.950794333316, -2832.8824440100725, 71134.18085982572, 29767.09214056637, 0.252734375, 0.96232421875, 0.25950585937500004, 192.0, 0.0, 0.0, 0.0, 0.0, 0.0, 0.0, 0.0, 0.0, 0.0, 1.6959296930609236E9, 0.0, 2023-09-28 14:34:53.060
86.0, 14562.340326588193, 19001.37442366772, 29065.13560594745, 14386.208580280374, 31674.008867026434, 6112.442149215001, -187500.02235174447, 34146.49178343914, 16341.986220119743, -25381.143436568196, -187500.02235174447, 53004.92680131517, 25854.68749459833, -2859.8162960787176, 71222.00086379061, 29727.060166246913, 0.252734375, 0.96232421875, 0.25950585937500004, 192.0, 0.0, 0.0, 0.0, 0.0, 0.0, 0.0, 0.0, 0.0, 0.0, 1.6959296930609345E9, 0.0, 2023-09-28 14:34:53.060
88.0, 14604.428661397536, 18989.2821299174, 29148.06057787664, 14376.753792375779, 31652.394730138152, 6088.3693204366355, -187500.02235174447, 34139.49568742463, 16352.357429547004, -25375.26492777645, -187500.02235174447, 53001.417577435685, 25869.864329083484, -2844.862979038117, 71131.789223169, 29749.07663453539, 0.2503671875, 0.961162109375, 0.2587529296875, 192.0, 3.5, 96.0, 15.0, 0.0, 4.0, 8.0, 0.0, 0.0, 0.0, 1.6959296930609455E9, 0.0, 2023-09-28 14:34:53.060
0.0, 7420.376827761749, 9438.784055564887, 14569.805809236266, 7186.622284248148, 15859.859092218769, 3054.589397262263, -93750.01117587223, 16992.82431516937, 8178.078613052204, -12676.478943405027, -93750.01117587223, 26499.803543067403, 12926.41614990427, -1429.1705404723336, 35605.92658590396, 14860.266728432982, 0.252, 0.96, 0.246, 192.0, 3.5, 112.0, 15.0, 0.0, 3.5, 88.0, 0.0, 0.0, 0.0, 1.695929693626804E9, 0.0, 2023-09-28 14:34:53.626
2.0, 14694.416784574603, 18884.608910633197, 29044.54964930411, 14398.591446708615, 31753.692836009603, 6150.9989084004055, -187500.02235174447, 34022.238436012085, 16380.386517093959, -25319.989063738474, -187500.02235174447, 53066.90818868973, 25906.454134756823, -2820.5219293262876, 71032.54747778743, 29649.432557753633, 0.252, 0.96, 0.246, 192.0, 0.0, 0.0, 0.0, 0.0, 0.0, 0.0, 0.0, 0.0, 0.0, 1.6959296936268833E9, 0.0, 2023-09-28 14:34:53.626
4.0, 14746.473997411013, 18863.3524016562, 29130.313292779127, 14374.719783630346, 31717.773582669925, 6111.525727692334, -187500.02235174447, 34003.59708113636, 16376.698479258834, -25320.883133516687, -187500.02235174447, 53056.46992402911, 25903.816628911096, -2818.152644414025, 70942.82757554384, 29670.68906673063, 0.252, 0.96, 0.246, 192.0, 0.0, 0.0, 0.0, 0.0, 0.0, 0.0, 0.0, 0.0, 0.0, 1.6959296936269183E9, 0.0, 2023-09-28 14:34:53.626
6.0, 14719.96482848702, 18876.361116929187, 29041.68862601383, 14383.973405834844, 31746.830850461825, 6141.208844328981, -187500.02235174447, 34010.43671493968, 16360.672278484379, -25334.96473252353, -187500.02235174447, 53052.737182705074, 25890.5620444491, -2837.2633859233124, 71054.89922224275, 29645.073967584845, 0.252, 0.96, 0.246, 192.0, 0.0, 0.0, 0.0, 0.0, 0.0, 0.0, 0.0, 0.0, 0.0, 1.6959296936269436E9, 0.0, 2023-09-28 14:34:53.626
8.0, 14709.504212081936, 18871.577843615752, 29127.899304377952, 14387.303815758683, 31740.14767886969, 6129.228309300936, -187500.02235174447, 34016.20346500915, 16377.48079031477, -25311.29423514536, -187500.02235174447, 53042.522435488994, 25911.684442959362, -2820.611336304109, 70919.38059561022, 29660.742540448016, 0.25, 0.962, 0.246, 192.0, 3.5, 104.0, 15.0, 8.0, 3.5, 88.0, 0.0, 0.0, 0.0, 1.6959296936269684E9, 0.0, 2023-09-28 14:34:53.626
10.0, 14728.413787891126, 18881.233797220444, 29066.968448992786, 14402.123022332553, 31763.862879736767, 6156.02805090285, -187500.02235174447, 34025.56884593592, 16352.71505745829, -25327.25338068645, -187500.02235174447, 53067.84696195686, 25904.2636638002, -2828.6803160524746, 71048.10429192834, 29665.659924228185, 0.25, 0.962, 0.246, 192.0, 0.0, 0.0, 0.0, 0.0, 0.0, 0.0, 0.0, 0.0, 0.0, 1.6959296936269944E9, 0.0, 2023-09-28 14:34:53.626
12.0, 14660.263319046893, 18866.369887157667, 29126.87112413301, 14394.076394328642, 31746.450870806086, 6138.772504183353, -187500.02235174447, 34033.146087306275, 16364.472075041782, -25315.496363102957, -187500.02235174447, 53049.98791813707, 25925.27430358819, -2811.5588797997093, 70910.55165655038, 29681.507311046997, 0.25, 0.962, 0.246, 192.0, 0.0, 0.0, 0.0, 0.0, 0.0, 0.0, 0.0, 0.0, 0.0, 1.6959296936270213E9, 0.0, 2023-09-28 14:34:53.627
14.0, 14745.982259032997, 18865.498169123908, 29071.93053626186, 14382.207618022874, 31740.862934692257, 6137.632565216132, -187500.02235174447, 34003.507674158536, 16325.580039689547, -25358.143491523682, -187500.02235174447, 53056.291110073464, 25888.192759536836, -2854.3401186871674, 71066.25390842604, 29667.15749110669, 0.25, 0.962, 0.246, 192.0, 0.0, 0.0, 0.0, 0.0, 0.0, 0.0, 0.0, 0.0, 0.0, 1.6959296936270497E9, 0.0, 2023-09-28 14:34:53.627
16.0, 14645.33235375075, 18853.83055851824, 29107.805086112632, 14384.778068635234, 31733.442155533096, 6119.035913829317, -187500.02235174447, 34008.045078282965, 16330.18449904734, -25344.44187217258, -187500.02235174447, 53029.4690167271, 25906.163562078902, -2833.061257965715, 70934.55743009537, 29654.528755489442, 0.25, 0.962, 0.246, 192.0, 0.0, 0.0, 0.0, 0.0, 0.0, 0.0, 0.0, 0.0, 0.0, 1.6959296936270747E9, 0.0, 2023-09-28 14:34:53.627
18.0, 14766.635270909701, 18873.34363142772, 29082.145283477937, 14381.492362200304, 31741.041748647902, 6131.30702153528, -187500.02235174447, 34005.96636604862, 16304.032958034632, -25362.412674714647, -187500.02235174447, 53060.76145896452, 25888.03629732565, -2856.5529413882427, 71077.00509750904, 29656.026322367947, 0.26, 0.964, 0.248, 192.0, 4.0, 16.0, 15.0, 16.0, 3.5, 96.0, 0.0, 0.0, 0.0, 1.6959296936271E9, 0.0, 2023-09-28 14:34:53.627
20.0, 14620.65602787209, 18875.06471575078, 29100.630176142477, 14405.051100856197, 31748.261362106965, 6132.245794802403, -187500.02235174447, 34011.44254344017, 16317.220487263261, -25334.74121507898, -187500.02235174447, 53034.25229004053, 25913.673748215886, -2837.352792901134, 70939.45246213108, 29641.2965227719, 0.26, 0.964, 0.248, 192.0, 0.0, 0.0, 0.0, 0.0, 0.0, 0.0, 0.0, 0.0, 0.0, 1.695929693627122E9, 0.0, 2023-09-28 14:34:53.627
22.0, 14773.676070413123, 18875.712916339984, 29099.356126708524, 14389.829562882134, 31740.95234167008, 6128.937736623017, -187500.02235174447, 34008.71563061662, 16308.883286581433, -25352.510851920946, -187500.02235174447, 53062.951929921146, 25891.70198341632, -2860.9338833014826, 71070.36662940582, 29664.2517643275, 0.26, 0.964, 0.248, 192.0, 0.0, 0.0, 0.0, 0.0, 0.0, 0.0, 0.0, 0.0, 0.0, 1.6959296936271503E9, 0.0, 2023-09-28 14:34:53.627
24.0, 14609.144879477606, 18865.721686568464, 29092.494141160747, 14400.290179287218, 31733.464507277553, 6141.186492584526, -187500.02235174447, 34029.6815669157, 16330.743292658723, -25329.10857547624, -187500.02235174447, 53034.67697318518, 25916.199495339337, -2829.1049991971254, 70953.53406113792, 29656.205136323588, 0.26, 0.964, 0.248, 192.0, 0.0, 0.0, 0.0, 0.0, 0.0, 0.0, 0.0, 0.0, 0.0, 1.695929693627177E9, 0.0, 2023-09-28 14:34:53.627
26.0, 14800.07348061484, 18867.01808774687, 29108.743859379752, 14374.496266185794, 31720.701661193572, 6118.790044640308, -187500.02235174447, 33991.01304900802, 16297.819173076055, -25367.866500361743, -187500.02235174447, 53053.40773503873, 25873.753532618706, -2872.825011351706, 71080.96135627764, 29664.67644747215, 0.26, 0.964, 0.248, 192.0, 0.0, 0.0, 0.0, 0.0, 0.0, 0.0, 0.0, 0.0, 0.0, 1.6959296936272008E9, 0.0, 2023-09-28 14:34:53.627
28.0, 14604.451013141992, 18868.44859939201, 29078.90428053192, 14395.775126907245, 31739.387719558206, 6133.296326791803, -187500.02235174447, 34021.63493891179, 16316.885211096433, -25332.662502844632, -187500.02235174447, 53025.93744110316, 25907.59407372404, -2836.570481845198, 70974.2988317369, 29642.615275694763, 0.262, 0.964, 0.248, 192.0, 4.0, 24.0, 15.0, 16.0, 3.5, 96.0, 0.0, 0.0, 0.0, 1.6959296936272254E9, 0.0, 2023-09-28 14:34:53.627
30.0, 14784.87429438523, 18872.74013432743, 29121.439650230368, 14379.726574388334, 31733.688024722105, 6125.339105765714, -187500.02235174447, 33999.3278979454, 16303.98825454572, -25348.331075707803, -187500.02235174447, 53060.60499675334, 25886.203454280312, -2858.2069704779356, 71057.022637966, 29664.2517643275, 0.262, 0.964, 0.248, 192.0, 0.0, 0.0, 0.0, 0.0, 0.0, 0.0, 0.0, 0.0, 0.0, 1.69592969362725E9, 0.0, 2023-09-28 14:34:53.627
32.0, 14589.855324012677, 18878.12690474116, 29064.75562629171, 14399.70903393138, 31756.911487211168, 6143.041687374317, -187500.02235174447, 34019.19859876616, 16320.662655909378, -25335.210601712537, -187500.02235174447, 53023.031714323966, 25905.69417544534, -2842.6278045925865, 70987.26284352099, 29632.311121500865, 0.262, 0.964, 0.248, 192.0, 0.0, 0.0, 0.0, 0.0, 0.0, 0.0, 0.0, 0.0, 0.0, 1.6959296936272738E9, 0.0, 2023-09-28 14:34:53.627
34.0, 14769.563349433345, 18877.07637275176, 29133.24137130277, 14372.261091740262, 31735.43146078962, 6120.68994291901, -187500.02235174447, 33997.696220600155, 16324.976542589253, -25335.903505790655, -187500.02235174447, 53055.24057808406, 25903.4142975109, -2846.2487871943463, 71034.69324525514, 29669.63853474123, 0.262, 0.964, 0.248, 192.0, 0.0, 0.0, 0.0, 0.0, 0.0, 0.0, 0.0, 0.0, 0.0, 1.695929693627298E9, 0.0, 2023-09-28 14:34:53.627
36.0, 14585.630844310625, 18874.416515161578, 29058.36302737749, 14384.442792468404, 31754.743367999003, 6137.878434405141, -187500.02235174447, 34016.1811132647, 16321.13204254294, -25334.07066274532, -187500.02235174447, 53022.182348034665, 25906.92352139038, -2843.410115648522, 71005.16659082969, 29631.752327889484, 0.262, 0.964, 0.248, 192.0, 0.0, 0.0, 0.0, 0.0, 0.0, 0.0, 0.0, 0.0, 0.0, 1.6959296936273232E9, 0.0, 2023-09-28 14:34:53.627
38.0, 14754.520625414923, 18860.580785343744, 29132.414356757923, 14354.156178731464, 31726.58016998532, 6105.11077703366, -187500.02235174447, 33978.049037223944, 16305.284655724128, -25352.801424598867, -187500.02235174447, 53036.308650530416, 25889.3103467596, -2858.8775228115946, 71029.35117833033, 29655.266363056468, 0.26, 0.962, 0.25, 192.0, 4.0, 16.0, 15.0, 8.0, 3.5, 104.0, 0.0, 0.0, 0.0, 1.6959296936273448E9, 0.0, 2023-09-28 14:34:53.627
40.0, 14584.870884999144, 18867.375715658156, 29041.219239380272, 14372.730478373824, 31757.269115122454, 6134.6821349480315, -187500.02235174447, 34004.80407533694, 16301.976597544743, -25351.415616442635, -187500.02235174447, 53006.87140308278, 25896.865236385496, -2851.61320586362, 71028.12183238528, 29616.48608642651, 0.26, 0.962, 0.25, 192.0, 0.0, 0.0, 0.0, 0.0, 0.0, 0.0, 0.0, 0.0, 0.0, 1.6959296936273737E9, 0.0, 2023-09-28 14:34:53.627
42.0, 14733.889965282675, 18863.97825050095, 29145.15485109745, 14354.200882220375, 31724.188533328597, 6102.227401998926, -187500.02235174447, 33979.85952852482, 16317.287542496628, -25336.127023235207, -187500.02235174447, 53028.59729869334, 25900.307405031614, -2847.746354072852, 71007.46882050858, 29655.31106654538, 0.26, 0.962, 0.25, 192.0, 0.0, 0.0, 0.0, 0.0, 0.0, 0.0, 0.0, 0.0, 0.0, 1.6959296936273985E9, 0.0, 2023-09-28 14:34:53.627
44.0, 14599.444222384003, 18872.36015467169, 29045.622533037968, 14369.914158572456, 31753.46931856505, 6124.176815054037, -187500.02235174447, 34004.28998521447, 16307.139850513919, -25342.564325638334, -187500.02235174447, 53012.28052524097, 25894.250082284223, -2859.123392000603, 71053.4687105976, 29611.456943924066, 0.26, 0.962, 0.25, 192.0, 0.0, 0.0, 0.0, 0.0, 0.0, 0.0, 0.0, 0.0, 0.0, 1.6959296936274211E9, 0.0, 2023-09-28 14:34:53.627
46.0, 14711.180592916084, 18851.505977094886, 29141.064481862126, 14338.867585524034, 31715.672518691128, 6087.519954147334, -187500.02235174447, 33979.166624446705, 16314.6500366509, -25344.061892516842, -187500.02235174447, 53021.73531314556, 25900.55327422062, -2858.0281565222926, 70995.93532036964, 29641.408281494176, 0.26, 0.962, 0.25, 192.0, 0.0, 0.0, 0.0, 0.0, 0.0, 0.0, 0.0, 0.0, 0.0, 1.6959296936274433E9, 0.0, 2023-09-28 14:34:53.627
48.0, 14616.56565863677, 18872.98600351644, 29049.712902273288, 14366.60610039307, 31749.893039452203, 6121.896937119596, -187500.02235174447, 33990.74482807456, 16304.144716756908, -25356.154186267162, -187500.02235174447, 53013.10753978581, 25892.37253574998, -2867.952331060449, 71072.08771372888, 29602.538597886396, 0.25, 0.97, 0.25, 192.0, 3.5, 104.0, 15.0, 40.0, 3.5, 104.0, 0.0, 0.0, 0.0, 1.695929693627467E9, 0.0, 2023-09-28 14:34:53.627
50.0, 14677.89884542213, 18860.089046965724, 29160.376389071513, 14356.41370492145, 31725.730803696017, 6098.606419397166, -187500.02235174447, 34011.10726727334, 16330.139795558429, -25338.49630814747, -187500.02235174447, 53029.29020277145, 25909.18104758037, -2844.482999382377, 70980.17734052865, 29643.15171756169, 0.25, 0.97, 0.25, 192.0, 0.0, 0.0, 0.0, 0.0, 0.0, 0.0, 0.0, 0.0, 0.0, 1.695929693627493E9, 0.0, 2023-09-28 14:34:53.627
52.0, 14647.142845051629, 18862.950070256004, 29059.972352978275, 14355.676097354424, 31736.48199277902, 6112.173928281538, -187500.02235174447, 33995.68456359918, 16308.682120881334, -25367.240651516993, -187500.02235174447, 53017.35437123232, 25880.79433212213, -2874.5684474192203, 71093.61244363933, 29617.111935271256, 0.25, 0.97, 0.25, 192.0, 0.0, 0.0, 0.0, 0.0, 0.0, 0.0, 0.0, 0.0, 0.0, 1.6959296936275196E9, 0.0, 2023-09-28 14:34:53.627
54.0, 14656.105894578206, 18853.092950951213, 29145.95951389784, 14345.55075711617, 31721.148696082677, 6096.103024018172, -187500.02235174447, 33995.28223219898, 16332.062045581586, -25334.204773212048, -187500.02235174447, 53006.9608100606, 25903.950739377826, -2840.2361679358683, 70970.52138692397, 29637.407319236678, 0.25, 0.97, 0.25, 192.0, 0.0, 0.0, 0.0, 0.0, 0.0, 0.0, 0.0, 0.0, 0.0, 1.6959296936275609E9, 0.0, 2023-09-28 14:34:53.627
56.0, 14670.165141840595, 18866.45929413549, 29068.443664126837, 14357.933623544412, 31740.840582947803, 6116.420759728046, -187500.02235174447, 33982.474682626096, 16306.111670268974, -25373.700305664577, -187500.02235174447, 53008.2125077501, 25872.83711109604, -2871.059223539737, 71103.31310073294, 29615.212036992558, 0.25, 0.97, 0.25, 192.0, 0.0, 0.0, 0.0, 0.0, 0.0, 0.0, 0.0, 0.0, 0.0, 1.6959296936275847E9, 0.0, 2023-09-28 14:34:53.627
58.0, 14649.355667752705, 18852.735323039928, 29149.42403428841, 14353.284460697707, 31727.60835023026, 6088.928114048018, -187500.02235174447, 33990.54366237446, 16339.683990440846, -25342.67608436061, -187500.02235174447, 53010.00064730652, 25906.901169645927, -2838.3362696571676, 70975.41641895968, 29637.00498783648, 0.25, 0.974, 0.256, 192.0, 3.5, 104.0, 15.0, 56.0, 4.0, 0.0, 0.0, 0.0, 0.0, 1.695929693627603E9, 0.0, 2023-09-28 14:34:53.627
60.0, 14708.163107414617, 18868.470951136464, 29078.725466576278, 14358.023030522232, 31741.08645213681, 6112.6656666595545, -187500.02235174447, 33985.98390650558, 16316.639341907425, -25376.02488708793, -187500.02235174447, 53012.124063029776, 25874.826416352564, -2876.110717786636, 71115.96418809464, 29620.934083573116, 0.25, 0.974, 0.256, 192.0, 0.0, 0.0, 0.0, 0.0, 0.0, 0.0, 0.0, 0.0, 0.0, 1.6959296936276212E9, 0.0, 2023-09-28 14:34:53.627
62.0, 14622.712388361979, 18865.20759644599, 29128.23458054478, 14365.041478281199, 31738.65011199118, 6112.017466070351, -187500.02235174447, 34008.670927127714, 16349.362295789993, -25348.24166872998, -187500.02235174447, 53006.44671993813, 25905.045974856137, -2831.5636910872095, 70978.92564283915, 29640.983598349525, 0.25, 0.974, 0.256, 192.0, 0.0, 0.0, 0.0, 0.0, 0.0, 0.0, 0.0, 0.0, 0.0, 1.6959296936276398E9, 0.0, 2023-09-28 14:34:53.627
64.0, 14716.723825541, 18874.64003260613, 29092.605899883023, 14361.733420101813, 31744.394510316197, 6112.8444806151965, -187500.02235174447, 33996.77979907749, 16339.527528229659, -25365.49721544948, -187500.02235174447, 53032.71001967311, 25891.590224694042, -2854.3624704316226, 71103.31310073294, 29643.53169721743, 0.25, 0.974, 0.256, 192.0, 0.0, 0.0, 0.0, 0.0, 0.0, 0.0, 0.0, 0.0, 0.0, 1.6959296936276634E9, 0.0, 2023-09-28 14:34:53.627
66.0, 14606.686187587524, 18864.58174760124, 29115.225865271794, 14359.69941135638, 31732.861010177257, 6108.083559046217, -187500.02235174447, 33999.998450279054, 16349.228185323262, -25346.07354951782, -187500.02235174447, 53006.334961215856, 25904.2636638002, -2835.2740806667903, 70978.0986282943, 29623.61629290775, 0.25, 0.974, 0.256, 192.0, 0.0, 0.0, 0.0, 0.0, 0.0, 0.0, 0.0, 0.0, 0.0, 1.6959296936276848E9, 0.0, 2023-09-28 14:34:53.627
68.0, 14750.609070135246, 18869.387372659134, 29098.104429019026, 14354.536158387204, 31728.65888221966, 6093.957256550462, -187500.02235174447, 33966.76140627401, 16337.426464250859, -25383.8927011362, -187500.02235174447, 53032.08417082837, 25880.526111188665, -2866.90179907105, 71108.85633335785, 29634.032205823925, 0.254, 0.97, 0.242, 192.0, 3.5, 120.0, 15.0, 40.0, 3.5, 72.0, 0.0, 0.0, 0.0, 1.6959296936277003E9, 0.0, 2023-09-28 14:34:53.627
70.0, 14589.452992612481, 18880.429134420054, 29105.704022133832, 14378.988966821309, 31746.160298128165, 6116.063131816761, -187500.02235174447, 34006.16753174872, 16357.878310427466, -25348.219316985527, -187500.02235174447, 53008.704246128116, 25904.420126011388, -2835.7881707892625, 70982.94895684111, 29621.15760101767, 0.254, 0.97, 0.242, 192.0, 0.0, 0.0, 0.0, 0.0, 0.0, 0.0, 0.0, 0.0, 0.0, 1.6959296936277194E9, 0.0, 2023-09-28 14:34:53.627
72.0, 14751.547843402368, 18885.234759477946, 29116.365804239013, 14364.594443392092, 31733.665672977648, 6108.284724746314, -187500.02235174447, 33998.34442118936, 16365.276737842172, -25349.850994330765, -187500.02235174447, 53053.20656933863, 25893.55717820611, -2843.6336330930753, 71086.77280983601, 29657.121557846258, 0.254, 0.97, 0.242, 192.0, 0.0, 0.0, 0.0, 0.0, 0.0, 0.0, 0.0, 0.0, 0.0, 1.6959296936277392E9, 0.0, 2023-09-28 14:34:53.627
74.0, 14569.470533069436, 18887.73815485694, 29090.773056837686, 14383.839295368112, 31743.120460882245, 6126.032009843828, -187500.02235174447, 34017.2316452541, 16370.752915233723, -25342.899601805166, -187500.02235174447, 53017.13085378776, 25906.476486501277, -2823.897042739039, 70986.99462258752, 29635.52977270243, 0.254, 0.97, 0.242, 192.0, 0.0, 0.0, 0.0, 0.0, 0.0, 0.0, 0.0, 0.0, 0.0, 1.6959296936277573E9, 0.0, 2023-09-28 14:34:53.627
76.0, 14744.641154365678, 18889.749811857917, 29129.195705556358, 14372.663423140459, 31727.965978141547, 6110.050512558283, -187500.02235174447, 33990.65542109674, 16369.367107077493, -25350.745064108978, -187500.02235174447, 53059.308595574934, 25894.40654449541, -2837.017516734304, 71077.60859460934, 29664.944668405613, 0.254, 0.97, 0.242, 192.0, 0.0, 0.0, 0.0, 0.0, 0.0, 0.0, 0.0, 0.0, 0.0, 1.6959296936277745E9, 0.0, 2023-09-28 14:34:53.627
78.0, 14550.046867137775, 18884.050117021816, 29079.99951601023, 14386.543856447204, 31745.109766138765, 6123.595669698199, -187500.02235174447, 34009.25207248355, 16375.960871691808, -25340.083282003794, -187500.02235174447, 53024.551632946925, 25907.45996325731, -2825.0369817062597, 71000.40566926071, 29629.651263910684, 0.264, 0.97, 0.23800000000000002, 192.0, 4.0, 32.0, 15.0, 40.0, 3.5, 56.0, 0.0, 0.0, 0.0, 1.6959296936277952E9, 0.0, 2023-09-28 14:34:53.627
80.0, 14748.195081734071, 18872.047230249314, 29125.61942644351, 14349.641126351491, 31711.76096341145, 6101.154518265071, -187500.02235174447, 33981.8711855258, 16364.829702953066, -25374.16969229814, -187500.02235174447, 53044.556444234426, 25890.897320615928, -2844.6618133380193, 71071.30540267294, 29655.31106654538, 0.264, 0.97, 0.23800000000000002, 192.0, 0.0, 0.0, 0.0, 0.0, 0.0, 0.0, 0.0, 0.0, 0.0, 1.6959296936278136E9, 0.0, 2023-09-28 14:34:53.627
82.0, 14577.003070950876, 18871.130808726648, 29054.786748264643, 14363.23098698032, 31726.98250138551, 6109.737588135909, -187500.02235174447, 33996.846854310854, 16366.8637116985, -25364.06670380434, -187500.02235174447, 53007.83252809436, 25893.668936928385, -2834.6258800775863, 71031.83222196487, 29616.62019689324, 0.264, 0.97, 0.23800000000000002, 192.0, 0.0, 0.0, 0.0, 0.0, 0.0, 0.0, 0.0, 0.0, 0.0, 1.6959296936278317E9, 0.0, 2023-09-28 14:34:53.627
84.0, 14739.947288030064, 18884.83242807775, 29127.72049042231, 14361.241681723795, 31727.89892290818, 6109.536422435811, -187500.02235174447, 33989.78370306298, 16377.011403681208, -25365.87719510522, -187500.02235174447, 53034.40875225172, 25891.679631671865, -2837.6210138345973, 71062.54351884646, 29645.38689200722, 0.264, 0.97, 0.23800000000000002, 192.0, 0.0, 0.0, 0.0, 0.0, 0.0, 0.0, 0.0, 0.0, 0.0, 1.69592969362785E9, 0.0, 2023-09-28 14:34:53.627
86.0, 14577.919492473542, 18883.89365481063, 29051.456338340802, 14371.299966728684, 31744.260399849463, 6120.667591174554, -187500.02235174447, 33988.599060606844, 16374.552711791124, -25341.91612504913, -187500.02235174447, 53022.20469977912, 25908.331681291067, -2817.4597403359107, 71041.57758254738, 29624.979749319526, 0.264, 0.97, 0.23800000000000002, 192.0, 0.0, 0.0, 0.0, 0.0, 0.0, 0.0, 0.0, 0.0, 0.0, 1.6959296936278687E9, 0.0, 2023-09-28 14:34:53.627
88.0, 14748.44095092308, 18867.286308680334, 29137.823478916107, 14340.767483802734, 31711.09041107779, 6085.687111101998, -187500.02235174447, 33974.49510985555, 16380.81120023861, -25357.450587445568, -187500.02235174447, 53034.98989760756, 25894.160675306404, -2836.414019634011, 71050.25005939604, 29644.671636184652, 0.258, 0.97, 0.234, 192.0, 4.0, 8.0, 15.0, 40.0, 3.5, 40.0, 0.0, 0.0, 0.0, 1.6959296936278872E9, 0.0, 2023-09-28 14:34:53.627
90.0, 14608.31786493276, 18883.916006555082, 29048.75177726171, 14367.23194923782, 31744.349806827286, 6121.6510679305875, -187500.02235174447, 34004.44644742566, 16371.334060589561, -25357.91997407913, -187500.02235174447, 53012.72756013007, 25894.540654962144, -2827.1156939406033, 71078.18973996518, 29614.027394536424, 0.258, 0.97, 0.234, 192.0, 0.0, 0.0, 0.0, 0.0, 0.0, 0.0, 0.0, 0.0, 0.0, 1.6959296936279058E9, 0.0, 2023-09-28 14:34:53.627
92.0, 14734.515814127424, 18875.511750639886, 29141.15388883995, 14346.064847238642, 31714.018489601433, 6090.984474537907, -187500.02235174447, 33986.05096173894, 16384.879217729478, -25344.061892516842, -187500.02235174447, 53036.44276099715, 25901.78262016566, -2825.193443917447, 71038.24717262354, 29650.39368276521, 0.258, 0.97, 0.234, 192.0, 0.0, 0.0, 0.0, 0.0, 0.0, 0.0, 0.0, 0.0, 0.0, 1.695929693627925E9, 0.0, 2023-09-28 14:34:53.627
94.0, 14635.341123979226, 18880.36207918669, 29046.740120260733, 14356.950146788377, 31733.263341577454, 6111.033989314317, -187500.02235174447, 33996.04219151047, 16377.52549380368, -25348.599296641267, -187500.02235174447, 53027.25619402602, 25893.914806117395, -2825.7075340399188, 71093.2324639836, 29618.92242657214, 0.258, 0.97, 0.234, 192.0, 0.0, 0.0, 0.0, 0.0, 0.0, 0.0, 0.0, 0.0, 0.0, 1.695929693627943E9, 0.0, 2023-09-28 14:34:53.627
96.0, 14739.25438395195, 18856.624526575153, 29128.771022411707, 14322.12612892701, 31690.347992223265, 6066.576369592711, -187500.02235174447, 33969.734188286566, 16369.389458821948, -25360.177500269117, -187500.02235174447, 53024.417522480195, 25885.287032757646, -2842.024307492293, 71038.515393557, 29637.094394814303, 0.258, 0.97, 0.234, 192.0, 0.0, 0.0, 0.0, 0.0, 0.0, 0.0, 0.0, 0.0, 0.0, 1.6959296936279604E9, 0.0, 2023-09-28 14:34:53.627
98.0, 14670.992156385442, 18880.473837908965, 29033.08320439854, 14344.656687337958, 31725.306120551366, 6103.434396199513, -187500.02235174447, 33983.10053147084, 16360.113484872996, -25371.35337249677, -187500.02235174447, 53019.27662125548, 25874.334677974544, -2853.155476231036, 71124.14492656529, 29601.979804275015, 0.254, 0.976, 0.23800000000000002, 192.0, 3.5, 120.0, 15.0, 64.0, 3.5, 56.0, 0.0, 0.0, 0.0, 1.6959296936279774E9, 0.0, 2023-09-28 14:34:53.627
100.0, 14702.262246878416, 18876.048192506816, 29134.269551547713, 14341.281573925207, 31709.99517559948, 6088.592837881189, -187500.02235174447, 33991.03540075247, 16389.036642198163, -25349.269848974927, -187500.02235174447, 53032.75472316203, 25899.32392827558, -2822.220661904891, 71018.3094165694, 29641.11770881626, 0.254, 0.976, 0.23800000000000002, 192.0, 0.0, 0.0, 0.0, 0.0, 0.0, 0.0, 0.0, 0.0, 0.0, 1.6959296936280005E9, 0.0, 2023-09-28 14:34:53.628
102.0, 14688.247703104938, 18880.987928031438, 29049.399977850913, 14345.50605362726, 31726.0884316073, 6103.322637477236, -187500.02235174447, 33989.20255770714, 16374.686822257856, -25361.049218302873, -187500.02235174447, 53038.16384532021, 25881.777808878163, -2840.280871424779, 71131.16337432426, 29620.375289961732, 0.254, 0.976, 0.23800000000000002, 192.0, 0.0, 0.0, 0.0, 0.0, 0.0, 0.0, 0.0, 0.0, 0.0, 1.695929693628026E9, 0.0, 2023-09-28 14:34:53.628
104.0, 14672.109743608207, 18878.17160823007, 29129.754499167742, 14346.310716427652, 31715.94073962459, 6091.833840827208, -187500.02235174447, 33997.897386300254, 16403.431165627382, -25352.466148432035, -187500.02235174447, 53033.04529583995, 25906.856466157016, -2823.1817869164693, 71011.93916939964, 29636.937932603116, 0.254, 0.976, 0.23800000000000002, 192.0, 0.0, 0.0, 0.0, 0.0, 0.0, 0.0, 0.0, 0.0, 0.0, 1.695929693628055E9, 0.0, 2023-09-28 14:34:53.628
106.0, 14690.14760138364, 18901.17155327458, 29071.617611839487, 14361.308736957162, 31739.611237002762, 6120.73464640792, -187500.02235174447, 34001.406610179736, 16400.078403959084, -25352.01911354293, -187500.02235174447, 53061.32025257591, 25906.521189990188, -2819.5384525702543, 71126.4918597331, 29637.34026400331, 0.254, 0.976, 0.23800000000000002, 192.0, 0.0, 0.0, 0.0, 0.0, 0.0, 0.0, 0.0, 0.0, 0.0, 1.6959296936280832E9, 0.0, 2023-09-28 14:34:53.628
108.0, 14639.766769381378, 18874.39416341712, 29125.418260743412, 14338.353495401561, 31720.254626304464, 6088.481079158912, -187500.02235174447, 33991.43773215267, 16405.174601694896, -25348.465186174537, -187500.02235174447, 53038.20854880912, 25923.4191087984, -2810.4189408324887, 71007.69233795314, 29639.709548915573, 0.254, 0.976, 0.23600000000000002, 192.0, 3.5, 120.0, 15.0, 64.0, 3.5, 48.0, 0.0, 0.0, 0.0, 1.6959296936281E9, 0.0, 2023-09-28 14:34:53.628
110.0, 14703.603351545735, 18890.532122913854, 29071.550556606122, 14348.009449006255, 31744.215696360556, 6112.263335259358, -187500.02235174447, 33993.427037409194, 16374.619767024491, -25379.06472433385, -187500.02235174447, 53054.03358388348, 25881.44253271133, -2836.5481301007426, 71153.73863622411, 29631.05942381137, 0.254, 0.976, 0.23600000000000002, 192.0, 0.0, 0.0, 0.0, 0.0, 0.0, 0.0, 0.0, 0.0, 0.0, 1.695929693628121E9, 0.0, 2023-09-28 14:34:53.628
112.0, 14587.441335611504, 18881.54672164282, 29113.974167582295, 14349.395257162483, 31734.42563228913, 6106.138957278605, -187500.02235174447, 34010.079087028396, 16410.38255815298, -25350.92387806462, -187500.02235174447, 53037.33683077536, 25920.803954697127, -2807.088530908648, 71008.09466935333, 29637.362615747767, 0.254, 0.976, 0.23600000000000002, 192.0, 0.0, 0.0, 0.0, 0.0, 0.0, 0.0, 0.0, 0.0, 0.0, 1.695929693628141E9, 0.0, 2023-09-28 14:34:53.628
114.0, 14715.315665640315, 18900.568056174285, 29090.594242882045, 14352.569204875137, 31723.540332739394, 6116.264297516858, -187500.02235174447, 34009.386182950286, 16398.893761502954, -25366.234823016504, -187500.02235174447, 53061.20849385363, 25901.17912306537, -2830.6025660756313, 71153.8950984353, 29649.52196473145, 0.254, 0.976, 0.23600000000000002, 192.0, 0.0, 0.0, 0.0, 0.0, 0.0, 0.0, 0.0, 0.0, 0.0, 1.695929693628158E9, 0.0, 2023-09-28 14:34:53.628
116.0, 14565.447219067482, 18922.56217271831, 29105.726373878286, 14380.777106377735, 31720.36638502674, 6132.290498291314, -187500.02235174447, 34011.39783995126, 16430.320314207114, -25315.33990089177, -187500.02235174447, 53048.758572192026, 25920.17810585238, -2783.6191992305758, 71031.34048358686, 29644.850450140293, 0.254, 0.976, 0.23600000000000002, 192.0, 0.0, 0.0, 0.0, 0.0, 0.0, 0.0, 0.0, 0.0, 0.0, 1.695929693628177E9, 0.0, 2023-09-28 14:34:53.628
118.0, 14720.076587209296, 18927.613666965208, 29089.05197251463, 14357.240719466296, 31695.623003914716, 6127.797797655797, -187500.02235174447, 33990.498958885546, 16411.366034909017, -25319.743194549465, -187500.02235174447, 53083.984921453586, 25904.88951264495, -2792.001103401316, 71151.86108968986, 29662.39656953771, 0.266, 0.972, 0.23600000000000002, 192.0, 4.0, 40.0, 15.0, 48.0, 3.5, 48.0, 0.0, 0.0, 0.0, 1.6959296936281931E9, 0.0, 2023-09-28 14:34:53.628
120.0, 14548.102265370164, 18903.272617253377, 29063.101597202018, 14360.861702068056, 31710.621024444226, 6125.562623210267, -187500.02235174447, 34006.368697448816, 16416.506936133737, -25315.474011358503, -187500.02235174447, 53037.09096158636, 25921.966245408803, -2778.478298005855, 71039.70003601314, 29637.049691325392, 0.266, 0.972, 0.23600000000000002, 192.0, 0.0, 0.0, 0.0, 0.0, 0.0, 0.0, 0.0, 0.0, 0.0, 1.6959296941070037E9, 0.0, 2023-09-28 14:34:54.107
122.0, 14715.047444706852, 18889.727460113463, 29075.909146774906, 14331.804434276157, 31697.478198704506, 6102.49562293239, -187500.02235174447, 33983.212290193114, 16397.597360324547, -25362.92676483712, -187500.02235174447, 53055.57585425089, 25908.80106792463, -2818.51027232531, 71140.03701687302, 29651.310104287877, 0.266, 0.972, 0.23600000000000002, 192.0, 0.0, 0.0, 0.0, 0.0, 0.0, 0.0, 0.0, 0.0, 0.0, 1.6959296941070952E9, 0.0, 2023-09-28 14:34:54.107
124.0, 14518.039169077776, 18902.378547475168, 29039.87813471295, 14366.18141724842, 31731.296388065388, 6139.755980939386, -187500.02235174447, 34025.50179070256, 16411.902476775944, -25346.49823266247, -187500.02235174447, 53031.32421151688, 25938.148908394447, -2795.9126586809944, 71042.09167266985, 29631.90879010067, 0.266, 0.972, 0.23600000000000002, 192.0, 0.0, 0.0, 0.0, 0.0, 0.0, 0.0, 0.0, 0.0, 0.0, 1.6959296941071177E9, 0.0, 2023-09-28 14:34:54.107
126.0, 14707.827831247787, 18889.101611268714, 29067.326076904068, 14332.02795172071, 31695.868873103725, 6101.020407798339, -187500.02235174447, 33979.14427270225, 16400.52543884819, -25362.68089564811, -187500.02235174447, 53063.06368864342, 25923.59792275404, -2811.0671414216927, 71117.01472008404, 29671.58313650884, 0.266, 0.972, 0.23600000000000002, 192.0, 0.0, 0.0, 0.0, 0.0, 0.0, 0.0, 0.0, 0.0, 0.0, 1.6959296941071403E9, 0.0, 2023-09-28 14:34:54.107
128.0, 14523.671808680512, 18897.461163695, 28991.441904478303, 14356.547815388181, 31725.12730659572, 6126.188472055015, -187500.02235174447, 33996.44452291066, 16410.136688963972, -25353.896660077175, -187500.02235174447, 53021.847071867836, 25929.632893756974, -2809.7260367543745, 71054.45218735364, 29624.845638852792, 0.278, 0.96, 0.23600000000000002, 192.0, 4.0, 88.0, 15.0, 0.0, 3.5, 48.0, 0.0, 0.0, 0.0, 1.6959296941071599E9, 0.0, 2023-09-28 14:34:54.107
130.0, 14691.868685706699, 18896.58944566124, 29050.852841240507, 14343.561451859649, 31709.056402332357, 6112.956239337474, -187500.02235174447, 34002.70301135814, 16405.711043561823, -25363.86553810424, -187500.02235174447, 53058.03454614098, 25930.526963535187, -2810.061312921204, 71084.26941445701, 29664.96702015007, 0.278, 0.96, 0.23600000000000002, 192.0, 0.0, 0.0, 0.0, 0.0, 0.0, 0.0, 0.0, 0.0, 0.0, 1.6959296941071784E9, 0.0, 2023-09-28 14:34:54.107
132.0, 14511.087776552175, 18891.627358392165, 28963.904555309364, 14352.949184530877, 31729.910579909156, 6131.754056424386, -187500.02235174447, 34007.15100850475, 16410.494316875258, -25353.53903216589, -187500.02235174447, 53026.40682773672, 25936.830155471584, -2806.9097169530055, 71035.38614933327, 29632.48993545651, 0.278, 0.96, 0.23600000000000002, 192.0, 0.0, 0.0, 0.0, 0.0, 0.0, 0.0, 0.0, 0.0, 0.0, 1.695929694107193E9, 0.0, 2023-09-28 14:34:54.107
134.0, 14674.210807587006, 18889.41453569109, 29037.5535532896, 14332.36322788754, 31696.405314970652, 6108.575297424233, -187500.02235174447, 33982.63114483728, 16416.171659966905, -25363.172634026127, -187500.02235174447, 53045.316403545905, 25929.38702456797, -2814.866937979095, 71036.07905341138, 29661.614258481775, 0.278, 0.96, 0.23600000000000002, 192.0, 0.0, 0.0, 0.0, 0.0, 0.0, 0.0, 0.0, 0.0, 0.0, 1.695929694107206E9, 0.0, 2023-09-28 14:34:54.107
136.0, 14515.49107020987, 18895.807134605308, 28939.20587768625, 14356.212539221353, 31734.47033577804, 6140.761809439875, -187500.02235174447, 34005.96636604862, 16395.652758556935, -25363.597317170777, -187500.02235174447, 53025.31159225841, 25928.31414083411, -2816.498615324332, 71030.80404171992, 29622.00696730697, 0.278, 0.96, 0.23600000000000002, 192.0, 0.0, 0.0, 0.0, 0.0, 0.0, 0.0, 0.0, 0.0, 0.0, 1.695929694107218E9, 0.0, 2023-09-28 14:34:54.107
138.0, 14655.368287011182, 18881.16674198708, 29032.189134620327, 14326.864698751533, 31697.880530104703, 6106.295419489792, -187500.02235174447, 33987.30265942844, 16401.71008130432, -25368.961735840054, -187500.02235174447, 53045.09288610135, 25931.510440291222, -2817.3032781247234, 70988.1122098103, 29662.597735237807, 0.28400000000000003, 0.9560000000000001, 0.242, 192.0, 4.0, 112.0, 14.5, 112.0, 3.5, 72.0, 0.0, 0.0, 0.0, 1.69592969410723E9, 0.0, 2023-09-28 14:34:54.107
140.0, 14546.35882930265, 18890.845047336228, 28942.20101144326, 14349.104684484564, 31721.79689667188, 6126.076713332738, -187500.02235174447, 33989.448426896146, 16395.58570332357, -25361.518604936435, -187500.02235174447, 53032.397095250744, 25922.41328029791, -2821.438350848955, 71016.47657352407, 29630.970016833548, 0.28400000000000003, 0.9560000000000001, 0.242, 192.0, 0.0, 0.0, 0.0, 0.0, 0.0, 0.0, 0.0, 0.0, 0.0, 1.6959296941072419E9, 0.0, 2023-09-28 14:34:54.107
142.0, 14633.284763489339, 18881.613776876187, 29027.808192707085, 14336.319486656128, 31695.958280081548, 6107.860041601663, -187500.02235174447, 33994.05288625394, 16401.017177226207, -25348.44283443008, -187500.02235174447, 53040.75664767702, 25930.32579783509, -2815.895118224039, 70952.61763961526, 29661.591906737318, 0.28400000000000003, 0.9560000000000001, 0.242, 192.0, 0.0, 0.0, 0.0, 0.0, 0.0, 0.0, 0.0, 0.0, 0.0, 1.695929694107255E9, 0.0, 2023-09-28 14:34:54.107
144.0, 14542.491977511881, 18901.395070719132, 28941.68692132079, 14362.627489880026, 31729.32943455332, 6151.892978178618, -187500.02235174447, 34019.48917144408, 16405.688691817366, -25358.836395601797, -187500.02235174447, 53039.99668836554, 25935.690216504365, -2815.4257315904774, 70996.76233491449, 29646.593886207807, 0.28400000000000003, 0.9560000000000001, 0.242, 192.0, 0.0, 0.0, 0.0, 0.0, 0.0, 0.0, 0.0, 0.0, 0.0, 1.695929694107267E9, 0.0, 2023-09-28 14:34:54.107
146.0, 14591.218780424451, 18885.145352500123, 29024.83541069453, 14343.449693137372, 31705.99421334198, 6118.87945161813, -187500.02235174447, 34006.16753174872, 16410.494316875258, -25354.097825777273, -187500.02235174447, 53048.4232960252, 25947.313123621123, -2801.254725605813, 70902.57208377983, 29681.14968313571, 0.28400000000000003, 0.9560000000000001, 0.242, 192.0, 0.0, 0.0, 0.0, 0.0, 0.0, 0.0, 0.0, 0.0, 0.0, 1.6959296941072829E9, 0.0, 2023-09-28 14:34:54.107
148.0, 14555.657154996057, 18878.775105330362, 28934.176735183806, 14344.053190237664, 31719.964053626547, 6138.459579760979, -187500.02235174447, 33999.663174112226, 16402.738261549268, -25373.186215542104, -187500.02235174447, 53045.62932796828, 25934.304408348133, -2815.246917634835, 70991.59908194531, 29653.612333966776, 0.28200000000000003, 0.9540000000000001, 0.244, 192.0, 4.0, 104.0, 14.5, 104.0, 3.5, 80.0, 0.0, 0.0, 0.0, 1.6959296941072996E9, 0.0, 2023-09-28 14:34:54.107
150.0, 14545.755332202356, 18869.07444823676, 29002.55072147259, 14328.988114474789, 31694.95245158106, 6115.079655060727, -187500.02235174447, 34005.34051720387, 16421.02198851371, -25376.20370104357, -187500.02235174447, 53019.611897422306, 25948.006027699237, -2811.2012518884244, 70873.5818712213, 29663.558860249384, 0.28200000000000003, 0.9540000000000001, 0.244, 192.0, 0.0, 0.0, 0.0, 0.0, 0.0, 0.0, 0.0, 0.0, 0.0, 1.6959296941073112E9, 0.0, 2023-09-28 14:34:54.107
152.0, 14548.057561881253, 18861.49720686641, 28940.59168584248, 14348.635297851002, 31730.84935317628, 6143.935757152529, -187500.02235174447, 34010.48141842859, 16389.550732320637, -25399.941253655106, -187500.02235174447, 53026.652696925725, 25928.224733856292, -2827.026286962782, 70976.33284048234, 29644.939857118115, 0.28200000000000003, 0.9540000000000001, 0.244, 192.0, 0.0, 0.0, 0.0, 0.0, 0.0, 0.0, 0.0, 0.0, 0.0, 1.6959296941073232E9, 0.0, 2023-09-28 14:34:54.107
154.0, 14495.933293811477, 18821.666398247053, 29014.486553011724, 14333.771387788223, 31723.741498439493, 6120.68994291901, -187500.02235174447, 34007.86626432732, 16407.767404051712, -25382.17161681314, -187500.02235174447, 53014.001609564024, 25963.249917417757, -2803.422844817978, 70847.09505404175, 29674.175938865657, 0.28200000000000003, 0.9540000000000001, 0.244, 192.0, 0.0, 0.0, 0.0, 0.0, 0.0, 0.0, 0.0, 0.0, 0.0, 1.6959296941073356E9, 0.0, 2023-09-28 14:34:54.107
156.0, 14539.385085032593, 18807.87537191813, 28958.74130234019, 14340.007524491255, 31736.66080673466, 6140.270071061858, -187500.02235174447, 34018.192770265676, 16372.786923979154, -25429.6020185473, -187500.02235174447, 53010.782958362455, 25931.532792035676, -2827.182749173969, 70976.57870967135, 29662.329514304343, 0.28200000000000003, 0.9540000000000001, 0.244, 192.0, 0.0, 0.0, 0.0, 0.0, 0.0, 0.0, 0.0, 0.0, 0.0, 1.6959296941073496E9, 0.0, 2023-09-28 14:34:54.107
158.0, 14445.664220531491, 18773.185464523493, 28997.29806152559, 14339.716951813336, 31731.76577469895, 6132.178739569037, -187500.02235174447, 34024.36185173534, 16370.90937744491, -25432.88772498223, -187500.02235174447, 52973.41084163319, 25944.832079986583, -2808.899022209528, 70848.74908313145, 29663.022418382458, 0.272, 0.966, 0.23800000000000002, 192.0, 4.0, 64.0, 15.0, 24.0, 3.5, 56.0, 0.0, 0.0, 0.0, 1.6959296941073613E9, 0.0, 2023-09-28 14:34:54.107
160.0, 14524.297657525261, 18772.91724359003, 28976.53329092661, 14351.943356030388, 31745.780318472425, 6149.367231055168, -187500.02235174447, 34030.03919482698, 16368.204816365816, -25447.885745511743, -187500.02235174447, 52998.82477507887, 25944.094472419558, -2806.708551252908, 70961.8489100753, 29679.003915668003, 0.272, 0.966, 0.23800000000000002, 192.0, 0.0, 0.0, 0.0, 0.0, 0.0, 0.0, 0.0, 0.0, 0.0, 1.6959296941073728E9, 0.0, 2023-09-28 14:34:54.107
162.0, 14397.652673441491, 18742.965906019916, 29007.535160486124, 14355.921966543434, 31746.205001617076, 6151.222425844959, -187500.02235174447, 34044.76899442304, 16368.785961721655, -25433.468870338067, -187500.02235174447, 52967.95701598609, 25955.29269639167, -2785.1167661090813, 70844.9269348296, 29671.627839997753, 0.272, 0.966, 0.23800000000000002, 192.0, 0.0, 0.0, 0.0, 0.0, 0.0, 0.0, 0.0, 0.0, 0.0, 1.6959296941073844E9, 0.0, 2023-09-28 14:34:54.107
164.0, 14520.274343523306, 18727.61025757912, 28997.92391037034, 14350.624603107526, 31735.878495678724, 6149.5013415219, -187500.02235174447, 34027.781668637, 16337.158243317395, -25458.4581206391, -187500.02235174447, 52982.99974000451, 25931.24221935776, -2803.0428651622374, 70974.27647999245, 29673.81831095437, 0.272, 0.966, 0.23800000000000002, 192.0, 0.0, 0.0, 0.0, 0.0, 0.0, 0.0, 0.0, 0.0, 0.0, 1.6959296941073973E9, 0.0, 2023-09-28 14:34:54.107
166.0, 14358.827693322623, 18704.565609045698, 28999.8461603935, 14366.807266093168, 31733.12923111072, 6154.709297979987, -187500.02235174447, 34052.41329102675, 16350.256365568206, -25453.160757203193, -187500.02235174447, 52951.59553904481, 25956.052655703148, -2788.804803944207, 70860.50610071493, 29663.603563738296, 0.272, 0.966, 0.23800000000000002, 192.0, 0.0, 0.0, 0.0, 0.0, 0.0, 0.0, 0.0, 0.0, 0.0, 1.6959296941074083E9, 0.0, 2023-09-28 14:34:54.107
168.0, 14513.032378319785, 18698.061251409203, 29028.41168980738, 14356.816036321645, 31744.349806827286, 6148.808437443786, -187500.02235174447, 34038.82343039792, 16329.223374035762, -25472.964402790596, -187500.02235174447, 52973.27673116645, 25912.354995293023, -2805.836833219151, 70971.43780844663, 29672.2536888425, 0.264, 0.974, 0.23600000000000002, 192.0, 4.0, 32.0, 15.0, 56.0, 3.5, 48.0, 0.0, 0.0, 0.0, 1.6959296941074228E9, 0.0, 2023-09-28 14:34:54.107
170.0, 14352.770370575236, 18699.670577009987, 29003.668308695356, 14370.137676017008, 31748.909562696168, 6161.012489916384, -187500.02235174447, 34057.10715736236, 16326.138833300929, -25451.014989735486, -187500.02235174447, 52947.5498732984, 25936.76310023822, -2782.993350385827, 70884.04248762637, 29653.098243844302, 0.264, 0.974, 0.23600000000000002, 192.0, 0.0, 0.0, 0.0, 0.0, 0.0, 0.0, 0.0, 0.0, 0.0, 1.6959296941074347E9, 0.0, 2023-09-28 14:34:54.107
172.0, 14507.10916603913, 18721.195306920446, 29040.816907980075, 14369.869455083544, 31751.703530753082, 6160.140771882627, -187500.02235174447, 34045.41719501224, 16323.99306583322, -25451.21615543558, -187500.02235174447, 52983.737347571536, 25927.487126289267, -2782.8145364301845, 70967.90623282269, 29684.30127910391, 0.264, 0.974, 0.23600000000000002, 192.0, 0.0, 0.0, 0.0, 0.0, 0.0, 0.0, 0.0, 0.0, 0.0, 1.695929694107447E9, 0.0, 2023-09-28 14:34:54.107
174.0, 14329.859832508546, 18725.6209523226, 29002.55072147259, 14385.202751779885, 31766.701551282593, 6170.377870843157, -187500.02235174447, 34061.26458183105, 16334.856013638499, -25411.31829158286, -187500.02235174447, 52965.9006554962, 25951.85052774555, -2759.0099285852825, 70887.64111848368, 29664.34117130532, 0.264, 0.974, 0.23600000000000002, 192.0, 0.0, 0.0, 0.0, 0.0, 0.0, 0.0, 0.0, 0.0, 0.0, 1.6959296941074593E9, 0.0, 2023-09-28 14:34:54.107
176.0, 14506.170392772006, 18740.79778680775, 29056.75370177671, 14373.333975474117, 31745.33328358332, 6156.922120681063, -187500.02235174447, 34040.23159029861, 16335.213641549784, -25402.087021122818, -187500.02235174447, 52995.427309921666, 25945.122652664504, -2765.290768777224, 70950.6506861032, 29691.69970651862, 0.264, 0.974, 0.23600000000000002, 192.0, 0.0, 0.0, 0.0, 0.0, 0.0, 0.0, 0.0, 0.0, 0.0, 1.6959296941074727E9, 0.0, 2023-09-28 14:34:54.107
178.0, 14344.232004193307, 18755.549938148255, 29004.897654640397, 14410.862554414578, 31772.24478390751, 6190.047405963827, -187500.02235174447, 34069.713541235156, 16329.08926356903, -25391.87227390674, -187500.02235174447, 52976.51773411247, 25950.75529226724, -2753.064364560171, 70910.77517399493, 29672.499558031508, 0.256, 0.97, 0.23800000000000002, 192.0, 4.0, 0.0, 15.0, 40.0, 3.5, 56.0, 0.0, 0.0, 0.0, 1.6959296941074855E9, 0.0, 2023-09-28 14:34:54.107
180.0, 14506.148041027553, 18760.646135884064, 29078.65841134291, 14385.202751779885, 31737.107841623765, 6158.93377768204, -187500.02235174447, 34031.1344303053, 16332.531432215148, -25383.736238925012, -187500.02235174447, 53011.1629380182, 25943.066292174615, -2747.9234633354504, 70935.9432382516, 29710.60928232781, 0.256, 0.97, 0.23800000000000002, 192.0, 0.0, 0.0, 0.0, 0.0, 0.0, 0.0, 0.0, 0.0, 0.0, 1.695929694107501E9, 0.0, 2023-09-28 14:34:54.107
182.0, 14368.327184716129, 18762.098999273658, 29004.4953232402, 14400.714862431869, 31754.69866451009, 6176.815173246286, -187500.02235174447, 34052.010959626554, 16333.447853737815, -25374.817892887342, -187500.02235174447, 52988.67708309616, 25944.36269335302, -2746.2917859902127, 70922.37572936722, 29667.224546340058, 0.256, 0.97, 0.23800000000000002, 192.0, 0.0, 0.0, 0.0, 0.0, 0.0, 0.0, 0.0, 0.0, 0.0, 1.6959296941075132E9, 0.0, 2023-09-28 14:34:54.107
184.0, 14505.902171838543, 18789.256368786857, 29097.031545285172, 14401.385414765527, 31761.51594656896, 6166.22044637447, -187500.02235174447, 34047.56296247995, 16331.145624058918, -25357.271773489927, -187500.02235174447, 53015.02978980897, 25945.346170109056, -2740.25681498728, 70920.72170027754, 29697.77938101046, 0.256, 0.97, 0.23800000000000002, 192.0, 0.0, 0.0, 0.0, 0.0, 0.0, 0.0, 0.0, 0.0, 0.0, 1.6959296941075273E9, 0.0, 2023-09-28 14:34:54.107
186.0, 14392.310606516672, 18794.263159544847, 29009.904445398384, 14407.219220068362, 31776.268097909466, 6182.380757615657, -187500.02235174447, 34052.05566311546, 16330.98916184773, -25343.503098905458, -187500.02235174447, 53006.89375482724, 25947.022550943202, -2737.5969573970983, 70943.11814822175, 29674.913546432683, 0.256, 0.97, 0.23800000000000002, 192.0, 0.0, 0.0, 0.0, 0.0, 0.0, 0.0, 0.0, 0.0, 0.0, 1.695929694107539E9, 0.0, 2023-09-28 14:34:54.107
188.0, 14513.166488786519, 18800.655758459063, 29089.297841703636, 14387.348519247595, 31747.27788535093, 6156.251568347403, -187500.02235174447, 34030.95561634965, 16328.597525191013, -25346.8335088293, -187500.02235174447, 53011.6099729073, 25936.249010115745, -2742.6484516439978, 70915.55844730836, 29694.270157130977, 0.244, 0.976, 0.24, 192.0, 3.5, 80.0, 15.0, 64.0, 3.5, 64.0, 0.0, 0.0, 0.0, 1.6959296941075518E9, 0.0, 2023-09-28 14:34:54.107
190.0, 14415.04233062772, 18825.197973870992, 29005.188227318315, 14421.479633030849, 31783.73358055754, 6196.395301389134, -187500.02235174447, 34070.78642496901, 16331.682065925845, -25329.48855513198, -187500.02235174447, 53013.4651676971, 25943.51332706372, -2728.0527625146824, 70951.03066575894, 29678.556880778895, 0.244, 0.976, 0.24, 192.0, 0.0, 0.0, 0.0, 0.0, 0.0, 0.0, 0.0, 0.0, 0.0, 1.6959296941075635E9, 0.0, 2023-09-28 14:34:54.107
192.0, 14495.888590322566, 18824.035683159316, 29102.842998843553, 14397.920894374955, 31758.587868045317, 6161.83950446123, -187500.02235174447, 34056.771881195535, 16348.579984734059, -25304.76752576441, -187500.02235174447, 53024.082246313366, 25956.790263270173, -2717.390980409501, 70883.05901087035, 29712.64329107324, 0.244, 0.976, 0.24, 192.0, 0.0, 0.0, 0.0, 0.0, 0.0, 0.0, 0.0, 0.0, 0.0, 1.6959296941075819E9, 0.0, 2023-09-28 14:34:54.107
194.0, 14445.57481355367, 18854.00937247388, 29014.35244254499, 14414.550592249703, 31784.180615446643, 6194.026016476872, -187500.02235174447, 34072.68632324771, 16338.678161940357, -25312.68004330159, -187500.02235174447, 53023.14347304624, 25940.89817296245, -2729.3715154375454, 70963.1006077648, 29688.503407061507, 0.244, 0.976, 0.24, 192.0, 0.0, 0.0, 0.0, 0.0, 0.0, 0.0, 0.0, 0.0, 0.0, 1.6959296941076105E9, 0.0, 2023-09-28 14:34:54.107
196.0, 14470.988746999354, 18844.711046780474, 29105.346394222546, 14400.938379876421, 31768.579097816837, 6168.120344653171, -187500.02235174447, 34061.376340553325, 16363.645060496934, -25289.568339534802, -187500.02235174447, 53025.9150893587, 25959.919507493916, -2708.0479512271827, 70856.61689717972, 29704.35079388032, 0.244, 0.976, 0.24, 192.0, 0.0, 0.0, 0.0, 0.0, 0.0, 0.0, 0.0, 0.0, 0.0, 1.6959296941076229E9, 0.0, 2023-09-28 14:34:54.107
198.0, 14469.133552209563, 18859.06086672078, 29040.7051492578, 14411.242534070318, 31784.404132891195, 6187.834583262752, -187500.02235174447, 34059.11881436334, 16349.988144634743, -25303.314662374814, -187500.02235174447, 53032.330040017376, 25945.256763131234, -2721.5260531337326, 70951.99179077051, 29685.77649423796, 0.222, 0.976, 0.25, 192.0, 3.0, 120.0, 15.0, 64.0, 3.5, 104.0, 0.0, 0.0, 0.0, 1.6959296941076343E9, 0.0, 2023-09-28 14:34:54.107
200.0, 14454.828435758167, 18854.814035274274, 29130.782679412685, 14398.747908919802, 31766.299219882396, 6164.924045196062, -187500.02235174447, 34050.826317170424, 16379.090115915551, -25276.112589372708, -187500.02235174447, 53028.552595204426, 25961.931164494894, -2703.5999540805765, 70836.52267891439, 29700.72981127856, 0.222, 0.976, 0.25, 192.0, 0.0, 0.0, 0.0, 0.0, 0.0, 0.0, 0.0, 0.0, 0.0, 1.6959296941076458E9, 0.0, 2023-09-28 14:34:54.107
202.0, 14494.25691297733, 18866.25812843539, 29069.069512971582, 14392.981158850333, 31775.441083364618, 6172.903617966606, -187500.02235174447, 34046.154802579265, 16344.71313294329, -25307.181514165582, -187500.02235174447, 53022.85290036832, 25931.13046063548, -2736.0770387741377, 70957.31150595087, 29678.1545493787, 0.222, 0.976, 0.25, 192.0, 0.0, 0.0, 0.0, 0.0, 0.0, 0.0, 0.0, 0.0, 0.0, 1.6959296941076572E9, 0.0, 2023-09-28 14:34:54.107
204.0, 14432.007304669298, 18855.752808541394, 29133.084909091584, 14382.833466867623, 31764.80165300389, 6148.0037746433945, -187500.02235174447, 34038.97989260911, 16375.089153658051, -25270.43524628106, -187500.02235174447, 53021.288278256456, 25958.176071426402, -2711.646582084487, 70815.31087342631, 29692.169093152177, 0.222, 0.976, 0.25, 192.0, 0.0, 0.0, 0.0, 0.0, 0.0, 0.0, 0.0, 0.0, 0.0, 1.6959296941076684E9, 0.0, 2023-09-28 14:34:54.107
206.0, 14486.076174506687, 18886.17353274507, 29092.47178941629, 14403.464126999872, 31799.62567086526, 6185.979388472962, -187500.02235174447, 34055.31901780594, 16355.307859815106, -25298.33022336128, -187500.02235174447, 53035.325173774385, 25936.31606534911, -2733.9759747953385, 70937.39610164119, 29682.468436058574, 0.222, 0.976, 0.25, 192.0, 0.0, 0.0, 0.0, 0.0, 0.0, 0.0, 0.0, 0.0, 0.0, 1.695929694107682E9, 0.0, 2023-09-28 14:34:54.107
208.0, 14388.935493103922, 18873.20952096099, 29144.10431910805, 14397.898542630499, 31777.363333387773, 6162.532408539344, -187500.02235174447, 34059.20822134116, 16384.25336888473, -25266.210766579006, -187500.02235174447, 53025.602164936325, 25965.306277907646, -2695.933305732406, 70792.19916965952, 29696.997069954527, 0.20600000000000002, 0.968, 0.254, 192.0, 3.0, 56.0, 15.0, 32.0, 3.5, 120.0, 0.0, 0.0, 0.0, 1.6959296941076934E9, 0.0, 2023-09-28 14:34:54.107
210.0, 14519.246163278362, 18869.16385521458, 29107.4698099458, 14374.675080141436, 31771.127196684745, 6156.74330672542, -187500.02235174447, 34028.4298692262, 16350.211662079295, -25306.19803740955, -187500.02235174447, 53032.598260950836, 25921.675672730886, -2745.6659371454643, 70934.8927062622, 29687.49757856102, 0.20600000000000002, 0.968, 0.254, 192.0, 0.0, 0.0, 0.0, 0.0, 0.0, 0.0, 0.0, 0.0, 0.0, 1.6959296941077056E9, 0.0, 2023-09-28 14:34:54.107
212.0, 14364.996774792287, 18884.430096677555, 29125.932350865885, 14403.508830488781, 31792.406057406195, 6172.702452266509, -187500.02235174447, 34052.50269800457, 16372.362240834504, -25283.77923772088, -187500.02235174447, 53003.33982745884, 25951.917582978916, -2719.223823454836, 70801.43044011957, 29672.365447564778, 0.20600000000000002, 0.968, 0.254, 192.0, 0.0, 0.0, 0.0, 0.0, 0.0, 0.0, 0.0, 0.0, 0.0, 1.6959296941077168E9, 0.0, 2023-09-28 14:34:54.107
214.0, 14519.357922000638, 18887.693451368028, 29132.481411991288, 14375.546798175194, 31771.060141451377, 6152.272957834359, -187500.02235174447, 34027.42404072572, 16374.48565655776, -25289.72480174599, -187500.02235174447, 53045.29405180145, 25937.590114783063, -2737.4628469303666, 70910.8869327172, 29693.644308286228, 0.20600000000000002, 0.968, 0.254, 192.0, 0.0, 0.0, 0.0, 0.0, 0.0, 0.0, 0.0, 0.0, 0.0, 1.6959296941077285E9, 0.0, 2023-09-28 14:34:54.107
216.0, 14368.193074249397, 18886.64291937863, 29127.04993808865, 14389.248417526296, 31779.44204562212, 6159.023184659861, -187500.02235174447, 34041.662101943744, 16379.201874637829, -25274.637374238657, -187500.02235174447, 53008.95011531712, 25943.915658463917, -2726.555195636177, 70807.64422507814, 29659.893174158715, 0.20600000000000002, 0.968, 0.254, 192.0, 0.0, 0.0, 0.0, 0.0, 0.0, 0.0, 0.0, 0.0, 0.0, 1.6959296941077404E9, 0.0, 2023-09-28 14:34:54.107
218.0, 14529.59502096117, 18902.892637597637, 29150.87689767801, 14386.074469813642, 31774.971696731056, 6158.263225348381, -187500.02235174447, 34043.137317077795, 16379.581854293569, -25285.723839488488, -187500.02235174447, 53044.82466516789, 25934.617332770507, -2742.156713265981, 70902.86265645774, 29689.68804951764, 0.198, 0.972, 0.246, 192.0, 3.0, 24.0, 15.0, 48.0, 3.5, 88.0, 0.0, 0.0, 0.0, 1.695929694107752E9, 0.0, 2023-09-28 14:34:54.107
220.0, 14352.815074064145, 18902.199733519523, 29123.116031064517, 14396.445679240906, 31787.600432348307, 6161.6830422500425, -187500.02235174447, 34051.787442182, 16383.269892128694, -25277.453694040025, -187500.02235174447, 53021.73531314556, 25949.682408533386, -2718.508567632266, 70809.00768148991, 29671.15845336419, 0.198, 0.972, 0.246, 192.0, 0.0, 0.0, 0.0, 0.0, 0.0, 0.0, 0.0, 0.0, 0.0, 1.695929694107766E9, 0.0, 2023-09-28 14:34:54.107
222.0, 14525.214079047928, 18899.27165499588, 29170.524081054224, 14371.545835917692, 31767.014475704967, 6134.190396570015, -187500.02235174447, 34014.41532545273, 16376.385554836459, -25286.752019733434, -187500.02235174447, 53046.47869425758, 25933.3209315921, -2742.1790650104363, 70874.78886542188, 29680.657944757695, 0.198, 0.972, 0.246, 192.0, 0.0, 0.0, 0.0, 0.0, 0.0, 0.0, 0.0, 0.0, 0.0, 1.6959296941077778E9, 0.0, 2023-09-28 14:34:54.107
224.0, 14352.859777553056, 18909.37464348968, 29131.72145267981, 14399.217295553362, 31790.170882960665, 6157.369155570168, -187500.02235174447, 34043.5843519669, 16384.745107262745, -25272.066923626295, -187500.02235174447, 53020.59537417834, 25945.592039298062, -2738.4910271753106, 70813.65684433661, 29654.39464502271, 0.198, 0.972, 0.246, 192.0, 0.0, 0.0, 0.0, 0.0, 0.0, 0.0, 0.0, 0.0, 0.0, 1.6959296941077898E9, 0.0, 2023-09-28 14:34:54.107
226.0, 14531.897250640066, 18893.37079445968, 29195.155703443972, 14372.149333017986, 31756.71032151107, 6128.244832544903, -187500.02235174447, 34018.63980515478, 16379.38068859347, -25282.751057475933, -187500.02235174447, 53044.39998202324, 25932.337454836066, -2752.97495758235, 70861.93661236008, 29681.954345936105, 0.198, 0.972, 0.246, 192.0, 0.0, 0.0, 0.0, 0.0, 0.0, 0.0, 0.0, 0.0, 0.0, 1.6959296941078014E9, 0.0, 2023-09-28 14:34:54.107
228.0, 14366.024955037232, 18905.08310855426, 29140.975074884307, 14396.445679240906, 31784.605298591294, 6151.892978178618, -187500.02235174447, 34035.247151285075, 16388.746069520246, -25262.232156065962, -187500.02235174447, 53031.68183942817, 25944.22858288629, -2736.1887974964143, 70825.41386192011, 29659.24497356951, 0.182, 0.98, 0.24, 192.0, 2.5, 88.0, 15.0, 80.0, 3.5, 64.0, 0.0, 0.0, 0.0, 1.6959296941078134E9, 0.0, 2023-09-28 14:34:54.107
230.0, 14520.296695267762, 18901.50682944141, 29228.280988726736, 14374.295100485695, 31775.61989732026, 6125.093236576705, -187500.02235174447, 34016.02465105351, 16378.508970559715, -25271.82105443729, -187500.02235174447, 53053.586548994375, 25932.98565542527, -2748.2140360133694, 70855.02992332338, 29681.373200580267, 0.182, 0.98, 0.24, 192.0, 0.0, 0.0, 0.0, 0.0, 0.0, 0.0, 0.0, 0.0, 0.0, 1.6959296941078248E9, 0.0, 2023-09-28 14:34:54.107
232.0, 14369.712992872357, 18907.340634744243, 29160.82342396062, 14391.125964060542, 31802.9560807891, 6158.151466626105, -187500.02235174447, 34045.01486361204, 16381.973490950286, -25256.957144374508, -187500.02235174447, 53037.69445868665, 25947.246068387758, -2733.6183468840536, 70859.29910651436, 29655.44517701211, 0.182, 0.98, 0.24, 192.0, 0.0, 0.0, 0.0, 0.0, 0.0, 0.0, 0.0, 0.0, 0.0, 1.695929694107839E9, 0.0, 2023-09-28 14:34:54.107
234.0, 14495.48625892237, 18899.69633814053, 29247.25761976929, 14370.60706265057, 31776.804539776393, 6130.323544779247, -187500.02235174447, 34036.05181408546, 16382.308767117116, -25272.33514455976, -187500.02235174447, 53047.73039194708, 25945.99437069826, -2737.775771352741, 70841.97650456149, 29689.15160765071, 0.182, 0.98, 0.24, 192.0, 0.0, 0.0, 0.0, 0.0, 0.0, 0.0, 0.0, 0.0, 0.0, 1.6959296941078513E9, 0.0, 2023-09-28 14:34:54.107
236.0, 14391.595350694102, 18897.84114335074, 29158.00710415925, 14377.960786576366, 31787.980412004046, 6139.800684428297, -187500.02235174447, 34035.1353925628, 16372.652813512423, -25273.408028293616, -187500.02235174447, 53038.320307531394, 25939.13238515048, -2749.4657337028666, 70874.52064448841, 29661.524851503953, 0.182, 0.98, 0.24, 192.0, 0.0, 0.0, 0.0, 0.0, 0.0, 0.0, 0.0, 0.0, 0.0, 1.6959296941078632E9, 0.0, 2023-09-28 14:34:54.107
238.0, 14476.017889501798, 18900.612759663196, 29256.17596580696, 14373.043402796198, 31776.871595009758, 6125.517919721356, -187500.02235174447, 34033.05668032845, 16367.176636120874, -25273.139807360152, -187500.02235174447, 53036.39805750824, 25935.533754293177, -2754.964262838872, 70826.77731833188, 29677.215776111578, 0.17400000000000002, 0.984, 0.234, 192.0, 2.5, 56.0, 15.0, 96.0, 3.5, 40.0, 0.0, 0.0, 0.0, 1.695929694107876E9, 0.0, 2023-09-28 14:34:54.107
240.0, 14395.126926318042, 18916.057815081815, 29195.73684879981, 14386.186228535918, 31803.090191255833, 6144.293385063814, -187500.02235174447, 34035.873000129825, 16372.362240834504, -25270.278784069873, -187500.02235174447, 53047.6186332248, 25946.28494337618, -2749.0186988137602, 70875.88410090019, 29665.34699980581, 0.17400000000000002, 0.984, 0.234, 192.0, 0.0, 0.0, 0.0, 0.0, 0.0, 0.0, 0.0, 0.0, 0.0, 1.6959296945865688E9, 0.0, 2023-09-28 14:34:54.586
242.0, 14454.38140086906, 18902.3114922418, 29298.331355849667, 14368.729516116324, 31775.1505106867, 6107.7929863682975, -187500.02235174447, 34017.20929350964, 16377.659604270411, -25264.33322004476, -187500.02235174447, 53046.7692669355, 25950.46471958932, -2745.442419700911, 70803.2632831649, 29688.123427405768, 0.17400000000000002, 0.984, 0.234, 192.0, 0.0, 0.0, 0.0, 0.0, 0.0, 0.0, 0.0, 0.0, 0.0, 1.6959296945866728E9, 0.0, 2023-09-28 14:34:54.586
244.0, 14418.640961485025, 18922.472765740487, 29223.274197968745, 14388.935493103922, 31796.518778385973, 6135.106818092682, -187500.02235174447, 34040.52216297652, 16360.09113312854, -25274.838539938755, -187500.02235174447, 53048.24448206955, 25938.305370605634, -2761.8486001311067, 70889.16103710665, 29665.14583410571, 0.17400000000000002, 0.984, 0.234, 192.0, 0.0, 0.0, 0.0, 0.0, 0.0, 0.0, 0.0, 0.0, 0.0, 1.695929694586696E9, 0.0, 2023-09-28 14:34:54.586
246.0, 14425.413540054982, 18914.403785992123, 29316.458620602923, 14380.665347655458, 31777.855071765793, 6108.865870102152, -187500.02235174447, 34036.34238676338, 16377.838418226054, -25252.173871061073, -187500.02235174447, 53051.910168160226, 25960.411245871932, -2742.4025824549894, 70763.96891641247, 29690.000973940012, 0.17400000000000002, 0.984, 0.234, 192.0, 0.0, 0.0, 0.0, 0.0, 0.0, 0.0, 0.0, 0.0, 0.0, 1.695929694586715E9, 0.0, 2023-09-28 14:34:54.586
248.0, 14433.549575036715, 18936.04027462486, 29249.515145959278, 14391.841219883112, 31799.3574499318, 6131.172911068548, -187500.02235174447, 34034.57659895141, 16351.351601046515, -25265.204938078517, -187500.02235174447, 53061.20849385363, 25941.971056696304, -2765.8942658775172, 70861.15430130414, 29668.49859577401, 0.164, 0.988, 0.228, 192.0, 2.5, 16.0, 15.0, 112.0, 3.5, 16.0, 0.0, 0.0, 0.0, 1.6959296945867336E9, 0.0, 2023-09-28 14:34:54.586
250.0, 14397.764432163767, 18918.85178313873, 29335.03292024528, 14385.649786668992, 31780.403170633697, 6107.278896245825, -187500.02235174447, 34041.01390135454, 16370.395287322437, -25241.5567924448, -187500.02235174447, 53052.75953444953, 25962.177033683904, -2745.2636057452687, 70719.98068332442, 29686.000011682514, 0.164, 0.988, 0.228, 192.0, 0.0, 0.0, 0.0, 0.0, 0.0, 0.0, 0.0, 0.0, 0.0, 1.6959296945867505E9, 0.0, 2023-09-28 14:34:54.586
252.0, 14441.730313507356, 18936.621419980696, 29281.522844019277, 14387.236760525318, 31788.226281193052, 6121.606364441677, -187500.02235174447, 34032.989625095084, 16346.747141688722, -25264.33322004476, -187500.02235174447, 53072.13849689228, 25942.66396077442, -2771.772774669263, 70822.68694909656, 29680.657944757695, 0.164, 0.988, 0.228, 192.0, 0.0, 0.0, 0.0, 0.0, 0.0, 0.0, 0.0, 0.0, 0.0, 1.695929694586766E9, 0.0, 2023-09-28 14:34:54.586
254.0, 14382.073507556142, 18906.69243415504, 29338.31862668021, 14366.471989926338, 31769.33905712832, 6086.447070413479, -187500.02235174447, 34020.60675866684, 16344.333153287549, -25257.895917641632, -187500.02235174447, 53051.23961582656, 25955.873841747507, -2769.917579879472, 70689.82818005422, 29669.794996952416, 0.164, 0.988, 0.228, 192.0, 0.0, 0.0, 0.0, 0.0, 0.0, 0.0, 0.0, 0.0, 0.0, 1.6959296945867817E9, 0.0, 2023-09-28 14:34:54.586
0.0, 14475.392040657049, 18932.531050745376, 29304.880416975073, 14374.473914441338, 31785.253499180497, 6108.463538701956, -187500.02235174447, 34028.02753782601, 16309.375024959449, -25275.397333550136, -187500.02235174447, 53067.26581660102, 25930.370501324, -2792.6269522460643, 70821.21173396251, 29664.631743983242, 0.164, 0.988, 0.228, 192.0, 0.0, 0.0, 0.0, 0.0, 0.0, 0.0, 0.0, 0.0, 0.0, 1.6959296945867975E9, 0.0, 2023-09-28 14:34:54.586
2.0, 14367.74603936029, 18920.103480828224, 29345.784109328284, 14372.417553951449, 31777.00570547649, 6099.791061853298, -187500.02235174447, 34034.21897104013, 16317.891039596921, -25257.47123449698, -187500.02235174447, 53041.203682566134, 25956.544394081164, -2774.387928770534, 70685.31312767424, 29667.96215390708, 0.162, 0.988, 0.216, 192.0, 2.5, 8.0, 15.0, 112.0, 3.0, 96.0, 0.0, 0.0, 0.0, 1.6959296945868149E9, 0.0, 2023-09-28 14:34:54.586
4.0, 14497.274398478796, 18928.70890244352, 29328.23798993087, 14370.27178648374, 31778.39151363272, 6096.706521118465, -187500.02235174447, 34015.62231965331, 16304.301178968095, -25270.636411981155, -187500.02235174447, 53060.09090663087, 25939.579420039587, -2795.733844725352, 70811.28755942435, 29676.2546511, 0.162, 0.988, 0.216, 192.0, 0.0, 0.0, 0.0, 0.0, 0.0, 0.0, 0.0, 0.0, 0.0, 1.6959296945868409E9, 0.0, 2023-09-28 14:34:54.586
6.0, 14372.775181862735, 18917.17540230458, 29330.540219609764, 14378.139600532008, 31775.19521417561, 6098.181736252515, -187500.02235174447, 34028.00518608155, 16313.13011802794, -25267.842443924244, -187500.02235174447, 53026.384475992265, 25947.067254432113, -2793.8339464466508, 70714.70567163297, 29658.797938680404, 0.162, 0.988, 0.216, 192.0, 0.0, 0.0, 0.0, 0.0, 0.0, 0.0, 0.0, 0.0, 0.0, 1.69592969458686E9, 0.0, 2023-09-28 14:34:54.586
8.0, 14530.422035506015, 18927.546611731843, 29339.257399947335, 14375.815019108657, 31774.457606608583, 6098.226439741426, -187500.02235174447, 34014.0800492859, 16313.443042450315, -25278.303060329326, -187500.02235174447, 53060.33677581987, 25939.691178761863, -2802.349961084123, 70828.54310614384, 29676.50052028901, 0.162, 0.988, 0.216, 192.0, 0.0, 0.0, 0.0, 0.0, 0.0, 0.0, 0.0, 0.0, 0.0, 1.695929694586877E9, 0.0, 2023-09-28 14:34:54.586
10.0, 14376.08324004212, 18927.345446031744, 29324.3711381401, 14393.785821650723, 31780.112597955776, 6109.201146268982, -187500.02235174447, 34045.6854159457, 16325.244763522716, -25258.946449631032, -187500.02235174447, 53043.46120875612, 25958.019609215215, -2788.178955099458, 70742.48888999091, 29660.653133470194, 0.162, 0.988, 0.216, 192.0, 0.0, 0.0, 0.0, 0.0, 0.0, 0.0, 0.0, 0.0, 0.0, 1.6959296945868936E9, 0.0, 2023-09-28 14:34:54.586
12.0, 14547.342306058683, 18928.373626276687, 29340.62085635911, 14376.284405742217, 31759.839565734812, 6092.4149861830465, -187500.02235174447, 34015.667023142225, 16306.156373757885, -25289.568339534802, -187500.02235174447, 53064.31538633292, 25929.767004223708, -2823.002972960827, 70850.4254639656, 29680.881462202247, 0.176, 0.994, 0.218, 192.0, 2.5, 64.0, 15.5, 8.0, 3.0, 104.0, 0.0, 0.0, 0.0, 1.6959296945869164E9, 0.0, 2023-09-28 14:34:54.586
14.0, 14387.884961114522, 18920.28229478387, 29308.210826898914, 14389.784859393223, 31775.508138597983, 6106.004846811873, -187500.02235174447, 34038.242285042084, 16314.739443628723, -25274.190339349552, -187500.02235174447, 53037.716810431106, 25943.490975319266, -2805.0098186743044, 70782.27499512136, 29661.323685803854, 0.176, 0.994, 0.218, 192.0, 0.0, 0.0, 0.0, 0.0, 0.0, 0.0, 0.0, 0.0, 0.0, 1.6959296945869367E9, 0.0, 2023-09-28 14:34:54.586
16.0, 14563.12263764413, 18918.74002441645, 29353.406054187544, 14365.533216659214, 31760.91244946867, 6083.720157589932, -187500.02235174447, 34013.92358707471, 16299.093222510008, -25302.889979230164, -187500.02235174447, 53059.91209267522, 25926.615408255508, -2816.69978102443, 70865.33407751728, 29684.63655527074, 0.176, 0.994, 0.218, 192.0, 0.0, 0.0, 0.0, 0.0, 0.0, 0.0, 0.0, 0.0, 0.0, 1.6959296945869577E9, 0.0, 2023-09-28 14:34:54.586
18.0, 14398.36792926406, 18934.766225190906, 29300.253605872826, 14396.915065874466, 31786.415789892173, 6117.739512650909, -187500.02235174447, 34038.376395508814, 16317.42165296336, -25282.013449908907, -187500.02235174447, 53041.87423489979, 25948.788338755174, -2797.0973011371257, 70821.05527175132, 29663.71532246057, 0.176, 0.994, 0.218, 192.0, 0.0, 0.0, 0.0, 0.0, 0.0, 0.0, 0.0, 0.0, 0.0, 1.6959296945869808E9, 0.0, 2023-09-28 14:34:54.586
20.0, 14562.608547521657, 18929.044178610347, 29351.215583230925, 14378.206655765374, 31763.013513447466, 6094.0019600393725, -187500.02235174447, 34013.05186904095, 16305.396414446404, -25294.66453727061, -187500.02235174447, 53061.38730780927, 25935.93608569337, -2811.6929902664415, 70861.75779840443, 29694.091343175336, 0.176, 0.994, 0.218, 192.0, 0.0, 0.0, 0.0, 0.0, 0.0, 0.0, 0.0, 0.0, 0.0, 1.6959296945870032E9, 0.0, 2023-09-28 14:34:54.587
22.0, 14429.928592434955, 18924.663236697106, 29279.5111870183, 14389.449583226393, 31778.704438055094, 6114.610268427166, -187500.02235174447, 34026.68643315869, 16308.659769136879, -25288.47310405649, -187500.02235174447, 53044.4670372566, 25944.80972824213, -2805.5462605412317, 70840.38953070516, 29678.959212179092, 0.2, 0.978, 0.226, 192.0, 3.0, 32.0, 15.0, 72.0, 3.5, 8.0, 0.0, 0.0, 0.0, 1.695929694587023E9, 0.0, 2023-09-28 14:34:54.587
24.0, 14595.08563221522, 18913.912047614103, 29345.47118490591, 14367.03078353772, 31749.55776328537, 6089.285741959303, -187500.02235174447, 34011.73311611809, 16295.829867819533, -25311.04836595635, -187500.02235174447, 53053.720659461105, 25925.587228010565, -2813.3693711005894, 70866.92105137362, 29700.036907200447, 0.2, 0.978, 0.226, 192.0, 0.0, 0.0, 0.0, 0.0, 0.0, 0.0, 0.0, 0.0, 0.0, 1.695929694587044E9, 0.0, 2023-09-28 14:34:54.587
26.0, 14473.089810978152, 18927.524259987385, 29261.4062740095, 14395.305740273685, 31789.0532957379, 6123.036876086817, -187500.02235174447, 34036.34238676338, 16296.45571666428, -25306.376851365192, -187500.02235174447, 53037.269775542, 25932.784489725174, -2810.4189408324887, 70885.5847579938, 29672.834834198336, 0.2, 0.978, 0.226, 192.0, 0.0, 0.0, 0.0, 0.0, 0.0, 0.0, 0.0, 0.0, 0.0, 1.6959296945870695E9, 0.0, 2023-09-28 14:34:54.587
28.0, 14608.183754466028, 18911.006320834913, 29341.067891248214, 14370.562359161659, 31754.56455404336, 6086.178849480016, -187500.02235174447, 34012.805999851946, 16302.066004522563, -25306.600368809744, -187500.02235174447, 53051.59724373785, 25935.84667871555, -2806.574440786176, 70858.00270533595, 29707.658852059707, 0.2, 0.978, 0.226, 192.0, 0.0, 0.0, 0.0, 0.0, 0.0, 0.0, 0.0, 0.0, 0.0, 1.6959296945870955E9, 0.0, 2023-09-28 14:34:54.587
30.0, 14527.650419193556, 18942.3211148168, 29255.46070998439, 14402.704167688391, 31780.090246211323, 6131.865815146663, -187500.02235174447, 34035.783593152, 16296.790992831111, -25296.810304738323, -187500.02235174447, 53048.08801985837, 25928.247085600746, -2795.7561964698075, 70907.26595011544, 29683.563671536886, 0.2, 0.978, 0.226, 192.0, 0.0, 0.0, 0.0, 0.0, 0.0, 0.0, 0.0, 0.0, 0.0, 1.695929694587119E9, 0.0, 2023-09-28 14:34:54.587
32.0, 14607.244981198906, 18958.83905396927, 29342.00666451534, 14403.933513633432, 31758.789033745416, 6123.215690042459, -187500.02235174447, 34022.305491245446, 16324.641266422424, -25257.85121415272, -187500.02235174447, 53070.775040480505, 25946.150832909447, -2762.5638559536765, 70843.42936795109, 29723.103907478322, 0.21, 0.974, 0.224, 192.0, 3.0, 72.0, 15.0, 56.0, 3.5, 0.0, 0.0, 0.0, 0.0, 1.6959296945871394E9, 0.0, 2023-09-28 14:34:54.587
34.0, 14563.636727766601, 18966.483350572988, 29252.26441052728, 14417.121042862063, 31774.636420564228, 6151.177722356048, -187500.02235174447, 34039.00224435356, 16322.875478610455, -25259.684057198057, -187500.02235174447, 53081.682691774695, 25932.493917047253, -2753.9807860828387, 70908.80822048285, 29703.859055502304, 0.21, 0.974, 0.224, 192.0, 0.0, 0.0, 0.0, 0.0, 0.0, 0.0, 0.0, 0.0, 0.0, 1.6959296945871613E9, 0.0, 2023-09-28 14:34:54.587
36.0, 14606.529725376337, 18930.765262933404, 29325.086393962672, 14398.99377810881, 31756.24093487751, 6117.4265882285345, -187500.02235174447, 34027.11111630334, 16322.629609421447, -25258.745283930934, -187500.02235174447, 53073.54665679296, 25940.65230377344, -2748.5940156691095, 70833.25932422392, 29729.809430814916, 0.21, 0.974, 0.224, 192.0, 0.0, 0.0, 0.0, 0.0, 0.0, 0.0, 0.0, 0.0, 0.0, 1.695929694587185E9, 0.0, 2023-09-28 14:34:54.587
38.0, 14591.218780424451, 18931.346408289242, 29240.753262132795, 14398.747908919802, 31781.09607471181, 6126.903727877585, -187500.02235174447, 34021.456124956145, 16299.853181821489, -25287.44492381155, -187500.02235174447, 53062.393136309765, 25924.067309387603, -2772.6668444474753, 70919.42529909912, 29696.952366465615, 0.21, 0.974, 0.224, 192.0, 0.0, 0.0, 0.0, 0.0, 0.0, 0.0, 0.0, 0.0, 0.0, 1.6959296945872223E9, 0.0, 2023-09-28 14:34:54.587
40.0, 14604.451013141992, 18897.08118403926, 29310.80362925573, 14373.333975474117, 31754.72101625455, 6091.207991982459, -187500.02235174447, 34006.03342128199, 16301.686024866824, -25283.24279585395, -187500.02235174447, 53045.472865757096, 25928.73882397876, -2781.696949207419, 70830.21948697799, 29706.20598867011, 0.21, 0.974, 0.224, 192.0, 0.0, 0.0, 0.0, 0.0, 0.0, 0.0, 0.0, 0.0, 0.0, 1.6959296945872517E9, 0.0, 2023-09-28 14:34:54.587
42.0, 14648.551004952313, 18902.758527130907, 29244.01661682327, 14378.072545298643, 31762.074740180346, 6102.3391607212025, -187500.02235174447, 34004.24528172556, 16281.144771712396, -25301.7723920074, -187500.02235174447, 53053.40773503873, 25904.50953298921, -2802.5958302731315, 70956.70800885058, 29692.12438966327, 0.222, 0.98, 0.226, 192.0, 3.0, 120.0, 15.0, 80.0, 3.5, 8.0, 0.0, 0.0, 0.0, 1.6959296945872896E9, 0.0, 2023-09-28 14:34:54.587
44.0, 14602.595818352202, 18904.59137017624, 29298.4654663164, 14389.85191462659, 31763.058216936377, 6103.2779339883255, -187500.02235174447, 34025.07710755791, 16292.03007126213, -25294.19515063705, -187500.02235174447, 53039.370839520794, 25917.40648953992, -2789.095376622126, 70851.54305118836, 29693.73371526405, 0.222, 0.98, 0.226, 192.0, 0.0, 0.0, 0.0, 0.0, 0.0, 0.0, 0.0, 0.0, 0.0, 1.6959296945873215E9, 0.0, 2023-09-28 14:34:54.587
46.0, 14666.387697027649, 18919.812908150307, 29254.164308805983, 14391.7965163942, 31773.116501941266, 6120.153501052082, -187500.02235174447, 34022.32784298991, 16295.516943397159, -25300.05130768434, -187500.02235174447, 53065.85765670033, 25910.388041780956, -2792.8951731795282, 70965.44754093261, 29696.72884902106, 0.222, 0.98, 0.226, 192.0, 0.0, 0.0, 0.0, 0.0, 0.0, 0.0, 0.0, 0.0, 0.0, 1.6959296945873528E9, 0.0, 2023-09-28 14:34:54.587
48.0, 14592.112850202662, 18903.22791376447, 29294.12922789207, 14383.861647112566, 31758.409054089672, 6099.478137430923, -187500.02235174447, 34019.62328191081, 16309.777356359644, -25279.331240574273, -187500.02235174447, 53046.21047332412, 25930.079928646082, -2776.511344493788, 70837.77437660389, 29699.008726955504, 0.222, 0.98, 0.226, 192.0, 0.0, 0.0, 0.0, 0.0, 0.0, 0.0, 0.0, 0.0, 0.0, 1.6959296945873811E9, 0.0, 2023-09-28 14:34:54.587
50.0, 14694.215618874505, 18923.031559351868, 29266.16719557848, 14394.9481123624, 31771.39541761821, 6112.956239337474, -187500.02235174447, 34017.902197587755, 16298.914408554365, -25295.580958793278, -187500.02235174447, 53066.103525889346, 25909.02458536918, -2782.6804259634528, 70963.77116009846, 29703.2108549131, 0.222, 0.98, 0.226, 192.0, 0.0, 0.0, 0.0, 0.0, 0.0, 0.0, 0.0, 0.0, 0.0, 1.6959296945874076E9, 0.0, 2023-09-28 14:34:54.587
52.0, 14582.166323920052, 18905.373681232177, 29290.79881796823, 14392.377661750039, 31761.113615168768, 6102.674436888032, -187500.02235174447, 34025.367680235824, 16311.56549591607, -25282.438133053558, -187500.02235174447, 53042.187159322166, 25925.095489632546, -2767.3918327560227, 70846.73742613046, 29695.36539260929, 0.224, 0.978, 0.23, 192.0, 3.5, 0.0, 15.0, 72.0, 3.5, 24.0, 0.0, 0.0, 0.0, 1.6959296945874317E9, 0.0, 2023-09-28 14:34:54.587
54.0, 14734.337000171781, 18906.155992288113, 29275.84550092763, 14372.708126629368, 31743.120460882245, 6082.311997689248, -187500.02235174447, 33983.05582798193, 16286.50919038167, -25312.836505512776, -187500.02235174447, 53055.86642692881, 25893.26660552819, -2797.2984668372237, 70974.41059045919, 29694.11369491979, 0.224, 0.978, 0.23, 192.0, 0.0, 0.0, 0.0, 0.0, 0.0, 0.0, 0.0, 0.0, 0.0, 1.6959296945874555E9, 0.0, 2023-09-28 14:34:54.587
56.0, 14611.447109156503, 18900.478649196466, 29274.057361371204, 14387.259112269774, 31753.37991158723, 6088.525782647823, -187500.02235174447, 34008.06743002742, 16301.753080100189, -25291.825865724786, -187500.02235174447, 53028.4184847377, 25910.186876080857, -2779.9088096509945, 70873.89479564368, 29680.412075568685, 0.224, 0.978, 0.23, 192.0, 0.0, 0.0, 0.0, 0.0, 0.0, 0.0, 0.0, 0.0, 0.0, 1.6959296945874796E9, 0.0, 2023-09-28 14:34:54.587
58.0, 14767.506988943458, 18914.292027269847, 29280.874643430074, 14376.686737142414, 31748.216658618054, 6086.894105302586, -187500.02235174447, 33993.20351996464, 16286.486838637215, -25306.689775787567, -187500.02235174447, 53049.7196972036, 25886.874006613973, -2805.635667519053, 70986.16760804267, 29695.611261798294, 0.224, 0.978, 0.23, 192.0, 0.0, 0.0, 0.0, 0.0, 0.0, 0.0, 0.0, 0.0, 0.0, 1.6959296945875063E9, 0.0, 2023-09-28 14:34:54.587
60.0, 14601.791155551811, 18915.54372495934, 29269.676419457963, 14399.261999042274, 31771.060141451377, 6106.697750889987, -187500.02235174447, 34024.339499990885, 16314.582981417536, -25275.978478905974, -187500.02235174447, 53037.18036856418, 25923.329701820578, -2769.4705449903663, 70879.61684222423, 29689.531587306454, 0.224, 0.978, 0.23, 192.0, 0.0, 0.0, 0.0, 0.0, 0.0, 0.0, 0.0, 0.0, 0.0, 1.6959296945875337E9, 0.0, 2023-09-28 14:34:54.587
62.0, 14775.687727414099, 18909.396995234132, 29307.249701887336, 14377.893731343, 31746.27205685044, 6084.837744812697, -187500.02235174447, 34002.14421774676, 16307.206905747284, -25300.20776989553, -187500.02235174447, 53059.509761275025, 25902.810800410607, -2785.250876575813, 70965.64870663271, 29711.860980017304, 0.228, 0.994, 0.23, 192.0, 3.5, 16.0, 15.5, 8.0, 3.5, 24.0, 0.0, 0.0, 0.0, 1.6959296945875578E9, 0.0, 2023-09-28 14:34:54.587
64.0, 14612.117661490163, 18913.01797783589, 29252.666741927475, 14396.51273447427, 31768.91437398367, 6112.218631770448, -187500.02235174447, 34023.06545055693, 16306.603408646992, -25290.037726168364, -187500.02235174447, 53034.565214462906, 25907.102335346026, -2773.5832659701427, 70908.04826117138, 29682.468436058574, 0.228, 0.994, 0.23, 192.0, 0.0, 0.0, 0.0, 0.0, 0.0, 0.0, 0.0, 0.0, 0.0, 1.6959296945875793E9, 0.0, 2023-09-28 14:34:54.587
66.0, 14772.714945401543, 18917.64478893814, 29308.724917021387, 14375.03270805272, 31756.017417432955, 6087.855230314163, -187500.02235174447, 34012.805999851946, 16317.712225641279, -25282.14756037564, -187500.02235174447, 53065.7235462336, 25907.92934989087, -2768.598826956609, 70951.43299715912, 29724.422660401186, 0.228, 0.994, 0.23, 192.0, 0.0, 0.0, 0.0, 0.0, 0.0, 0.0, 0.0, 0.0, 0.0, 1.6959296945875978E9, 0.0, 2023-09-28 14:34:54.587
68.0, 14630.155519265596, 18892.32026247028, 29239.792137121218, 14374.65272839698, 31765.092225681812, 6087.676416358521, -187500.02235174447, 34009.25207248355, 16311.498440682702, -25282.72870573148, -187500.02235174447, 53031.92770861718, 25907.772887679683, -2771.504553735799, 70922.86746774525, 29687.72109600557, 0.228, 0.994, 0.23, 192.0, 0.0, 0.0, 0.0, 0.0, 0.0, 0.0, 0.0, 0.0, 0.0, 1.6959296945876343E9, 0.0, 2023-09-28 14:34:54.587
70.0, 14787.467096742046, 18892.92375957057, 29302.466428573898, 14358.045382266688, 31748.28371385142, 6076.902875531063, -187500.02235174447, 34003.775895092, 16302.155411500386, -25297.927891961088, -187500.02235174447, 53041.829531410884, 25891.88079737196, -2792.1352138680477, 70954.27166870495, 29704.239035158043, 0.228, 0.994, 0.23, 192.0, 0.0, 0.0, 0.0, 0.0, 0.0, 0.0, 0.0, 0.0, 0.0, 1.6959296945876515E9, 0.0, 2023-09-28 14:34:54.587
72.0, 14647.947507852019, 18904.88194285416, 29231.4996399283, 14385.60508318008, 31788.24863293751, 6105.893088089596, -187500.02235174447, 34025.099459302364, 16303.094184767508, -25287.467275556002, -187500.02235174447, 53032.77707490648, 25899.56979746459, -2778.9476846394164, 70956.43978791712, 29683.764837236984, 0.22, 0.992, 0.228, 192.0, 3.0, 112.0, 15.5, 0.0, 3.5, 16.0, 0.0, 0.0, 0.0, 1.6959296945876682E9, 0.0, 2023-09-28 14:34:54.587
74.0, 14780.940387361097, 18894.667195638085, 29315.810420013717, 14357.151312488475, 31754.89983021019, 6074.846515041175, -187500.02235174447, 34010.12379051731, 16311.923123827353, -25294.798647737345, -187500.02235174447, 53048.6691652142, 25902.45317249932, -2769.5599519681873, 70951.79062507041, 29721.338119666354, 0.22, 0.992, 0.228, 192.0, 0.0, 0.0, 0.0, 0.0, 0.0, 0.0, 0.0, 0.0, 0.0, 1.695929694587685E9, 0.0, 2023-09-28 14:34:54.587
76.0, 14651.434379987048, 18909.77697488987, 29237.6016661646, 14385.158048290974, 31791.24376669452, 6109.044684057794, -187500.02235174447, 34027.53579944799, 16310.269094737661, -25284.114513887707, -187500.02235174447, 53035.21341505211, 25903.168428321893, -2772.532733980743, 70973.4494654476, 29690.179787895657, 0.22, 0.992, 0.228, 192.0, 0.0, 0.0, 0.0, 0.0, 0.0, 0.0, 0.0, 0.0, 0.0, 1.6959296945877032E9, 0.0, 2023-09-28 14:34:54.587
78.0, 14753.961831803541, 18897.93055032856, 29325.086393962672, 14361.040516023699, 31759.57134480135, 6072.968968506929, -187500.02235174447, 34006.25693872654, 16313.666559894868, -25278.05719114032, -187500.02235174447, 53041.80717966642, 25904.286015544658, -2775.997254371316, 70928.05307245888, 29719.058241731913, 0.22, 0.992, 0.228, 192.0, 0.0, 0.0, 0.0, 0.0, 0.0, 0.0, 0.0, 0.0, 0.0, 1.69592969458772E9, 0.0, 2023-09-28 14:34:54.587
80.0, 14671.23802557445, 18916.102518570726, 29241.06618655517, 14380.263016255263, 31782.414827634675, 6103.233230499414, -187500.02235174447, 34023.33367149039, 16305.016434790665, -25282.549891775834, -187500.02235174447, 53038.901452887236, 25895.121800317982, -2776.5560479826986, 70988.84981737731, 29688.190482639133, 0.22, 0.992, 0.228, 192.0, 0.0, 0.0, 0.0, 0.0, 0.0, 0.0, 0.0, 0.0, 0.0, 1.6959296945877368E9, 0.0, 2023-09-28 14:34:54.587
82.0, 14714.265133650915, 18908.36881498919, 29322.448888116945, 14364.996774792287, 31768.310876883374, 6079.540381376789, -187500.02235174447, 34012.515427174025, 16320.841469865021, -25277.230176595473, -187500.02235174447, 53040.10844708782, 25911.70679470382, -2767.4588879893886, 70919.00061595447, 29713.179732940167, 0.2, 0.984, 0.23, 192.0, 3.0, 32.0, 15.0, 96.0, 3.5, 24.0, 0.0, 0.0, 0.0, 1.6959296945877557E9, 0.0, 2023-09-28 14:34:54.587
84.0, 14683.777354213877, 18925.691416942052, 29255.036026839738, 14384.867475613055, 31779.687914811126, 6092.303227460769, -187500.02235174447, 34011.24137774007, 16298.355614942982, -25273.363324804704, -187500.02235174447, 53045.271700057, 25894.69711717333, -2775.416109015478, 70999.42219250467, 29690.984450696047, 0.2, 0.984, 0.23, 192.0, 0.0, 0.0, 0.0, 0.0, 0.0, 0.0, 0.0, 0.0, 0.0, 1.6959296945877767E9, 0.0, 2023-09-28 14:34:54.587
86.0, 14675.082525620763, 18927.479556498474, 29340.66555984802, 14387.66144366997, 31778.883252010735, 6091.811489082753, -187500.02235174447, 34022.01491856753, 16328.7539874022, -25250.117510571185, -187500.02235174447, 53046.47869425758, 25914.724280205286, -2751.656204659487, 70905.81308672584, 29712.755049795516, 0.2, 0.984, 0.23, 192.0, 0.0, 0.0, 0.0, 0.0, 0.0, 0.0, 0.0, 0.0, 0.0, 1.6959296945877972E9, 0.0, 2023-09-28 14:34:54.587
88.0, 14667.371173783682, 18943.818681695306, 29282.506320775312, 14394.635187940024, 31799.62567086526, 6109.603477669177, -187500.02235174447, 34028.45222097066, 16330.47507172526, -25259.6617054536, -187500.02235174447, 53063.24250259907, 25914.277245316178, -2748.8175331136626, 70994.23658779103, 29707.50238984852, 0.2, 0.984, 0.23, 192.0, 0.0, 0.0, 0.0, 0.0, 0.0, 0.0, 0.0, 0.0, 0.0, 1.695929694587819E9, 0.0, 2023-09-28 14:34:54.587
90.0, 14635.6540484016, 18936.062626369316, 29352.489632664878, 14387.773202392245, 31782.705400312592, 6094.069015272738, -187500.02235174447, 34028.27340701502, 16346.054237610608, -25248.61994369268, -187500.02235174447, 53053.18421759418, 25929.74465247925, -2736.3005562186904, 70891.57502550782, 29717.56067485341, 0.2, 0.984, 0.23, 192.0, 0.0, 0.0, 0.0, 0.0, 0.0, 0.0, 0.0, 0.0, 0.0, 1.6959296945878391E9, 0.0, 2023-09-28 14:34:54.587
92.0, 14670.746287196433, 18944.26571658441, 29300.767695995295, 14385.962711091366, 31805.459476168096, 6105.960143322962, -187500.02235174447, 34015.06352604193, 16344.847243410022, -25251.928001872064, -187500.02235174447, 53074.59718878236, 25917.60765524002, -2734.9594515513722, 71004.74190768503, 29714.54318935194, 0.188, 0.97, 0.23600000000000002, 192.0, 2.5, 112.0, 15.0, 40.0, 3.5, 48.0, 0.0, 0.0, 0.0, 1.6959296945878592E9, 0.0, 2023-09-28 14:34:54.587
94.0, 14585.563789077258, 18938.588373492763, 29368.493481694877, 14390.56717044916, 31792.51781612847, 6094.404291439569, -187500.02235174447, 34034.35308150686, 16361.879272684966, -25236.818222620277, -187500.02235174447, 53057.36399380732, 25940.18291713988, -2717.770960065241, 70879.16980733511, 29716.800715541925, 0.188, 0.97, 0.23600000000000002, 192.0, 0.0, 0.0, 0.0, 0.0, 0.0, 0.0, 0.0, 0.0, 0.0, 1.6959296945878763E9, 0.0, 2023-09-28 14:34:54.587
96.0, 14664.04076385984, 18949.2725073424, 29331.27782717679, 14383.638129668014, 31797.47990339755, 6100.774538609331, -187500.02235174447, 34025.72530814711, 16348.892909156431, -25250.00575184891, -187500.02235174447, 53072.227903870094, 25918.90405641843, -2743.3413557221124, 71004.45133500712, 29718.231227187065, 0.188, 0.97, 0.23600000000000002, 192.0, 0.0, 0.0, 0.0, 0.0, 0.0, 0.0, 0.0, 0.0, 0.0, 1.6959296945878932E9, 0.0, 2023-09-28 14:34:54.587
98.0, 14554.718381728933, 18935.45912926902, 29359.08339727919, 14381.335899989117, 31797.748124331014, 6090.11275650415, -187500.02235174447, 34027.91577910373, 16361.499293029225, -25248.17290880357, -187500.02235174447, 53043.93059538968, 25936.159603137923, -2725.7728845802408, 70881.02500212491, 29708.150590437723, 0.188, 0.97, 0.23600000000000002, 192.0, 0.0, 0.0, 0.0, 0.0, 0.0, 0.0, 0.0, 0.0, 0.0, 1.6959296945879104E9, 0.0, 2023-09-28 14:34:54.587
100.0, 14680.156371612118, 18936.46495776951, 29337.53631562428, 14371.70229812888, 31790.28264168294, 6080.993244766384, -187500.02235174447, 34006.63691838228, 16343.573193976068, -25274.10093237173, -187500.02235174447, 53065.74589797806, 25916.93710290636, -2743.0507830441934, 71001.25503555001, 29715.32550040788, 0.188, 0.97, 0.23600000000000002, 192.0, 0.0, 0.0, 0.0, 0.0, 0.0, 0.0, 0.0, 0.0, 0.0, 1.69592969458793E9, 0.0, 2023-09-28 14:34:54.587
102.0, 14553.109056128153, 18923.99268436345, 29352.199059986957, 14382.140562789507, 31786.61695559227, 6091.520916404834, -187500.02235174447, 34017.85749409885, 16344.824891665567, -25257.068903096784, -187500.02235174447, 53033.89466212925, 25924.89432393245, -2722.5318816342215, 70892.24557784147, 29702.182674668155, 0.178, 0.974, 0.234, 192.0, 2.5, 72.0, 15.0, 56.0, 3.5, 40.0, 0.0, 0.0, 0.0, 1.69592969458795E9, 0.0, 2023-09-28 14:34:54.587
104.0, 14706.285560880371, 18927.65837045412, 29359.217507745925, 14369.98121380582, 31778.52562409945, 6079.406270910057, -187500.02235174447, 33989.13550247377, 16342.52266198667, -25288.450752312037, -187500.02235174447, 53057.94513916316, 25908.197570824334, -2746.0459168012044, 71004.4066315182, 29715.146686452234, 0.178, 0.974, 0.234, 192.0, 0.0, 0.0, 0.0, 0.0, 0.0, 0.0, 0.0, 0.0, 0.0, 1.6959296950674255E9, 0.0, 2023-09-28 14:34:55.067
106.0, 14558.16055037505, 18914.73906215895, 29343.794804071764, 14371.724649873335, 31781.967792745567, 6078.333387176202, -187500.02235174447, 33991.03540075247, 16341.18155731935, -25281.946394675542, -187500.02235174447, 53023.25523176852, 25919.88753317446, -2730.9137858049617, 70908.27177861593, 29688.995145439523, 0.178, 0.974, 0.234, 192.0, 0.0, 0.0, 0.0, 0.0, 0.0, 0.0, 0.0, 0.0, 0.0, 1.6959296950675397E9, 0.0, 2023-09-28 14:34:55.067
108.0, 14716.612066818723, 18918.583562205265, 29358.94928681246, 14365.197940492386, 31769.80844376188, 6067.023404481817, -187500.02235174447, 33978.406665135226, 16333.403150248903, -25304.655767042135, -187500.02235174447, 53042.09775234434, 25900.195646309334, -2754.874855861051, 71000.38331751624, 29705.26721540299, 0.178, 0.974, 0.234, 192.0, 0.0, 0.0, 0.0, 0.0, 0.0, 0.0, 0.0, 0.0, 0.0, 1.695929695067558E9, 0.0, 2023-09-28 14:34:55.067
110.0, 14526.175204059507, 18933.2686583124, 29330.540219609764, 14400.401938009494, 31802.19612147762, 6104.261410744359, -187500.02235174447, 34021.41142146724, 16350.61399347949, -25286.975537177987, -187500.02235174447, 53020.12598754478, 25926.95068442234, -2734.132437006526, 70908.47294431603, 29689.19631113962, 0.178, 0.974, 0.234, 192.0, 0.0, 0.0, 0.0, 0.0, 0.0, 0.0, 0.0, 0.0, 0.0, 1.6959296950675747E9, 0.0, 2023-09-28 14:34:55.067
112.0, 14705.659712035622, 18925.154975075126, 29375.75779864285, 14369.310661472162, 31762.588830302815, 6070.219703938926, -187500.02235174447, 33989.090798984864, 16351.23984232424, -25294.57513029279, -187500.02235174447, 53052.670127471705, 25914.70192846083, -2740.4579806873776, 70976.5563579269, 29720.734622566062, 0.198, 0.982, 0.24, 192.0, 3.0, 24.0, 15.0, 88.0, 3.5, 64.0, 0.0, 0.0, 0.0, 1.6959296950675912E9, 0.0, 2023-09-28 14:34:55.067
114.0, 14530.042055850276, 18940.734140960474, 29321.152486938536, 14399.865496142567, 31804.49835115652, 6096.952390307473, -187500.02235174447, 34007.44158118267, 16359.442932539338, -25286.14852263314, -187500.02235174447, 53025.959792847614, 25924.201419854337, -2728.96918403735, 70931.31642714936, 29683.340154092333, 0.198, 0.982, 0.24, 192.0, 0.0, 0.0, 0.0, 0.0, 0.0, 0.0, 0.0, 0.0, 0.0, 1.6959296950676093E9, 0.0, 2023-09-28 14:34:55.067
116.0, 14704.63153179068, 18920.975198861983, 29387.91714762654, 14368.12601901603, 31769.96490597307, 6063.491828857878, -187500.02235174447, 33987.704990828635, 16360.649926739923, -25302.66646178561, -187500.02235174447, 53048.333889047375, 25920.08869887456, -2731.2714137162466, 70963.68175312063, 29717.247750431034, 0.198, 0.982, 0.24, 192.0, 0.0, 0.0, 0.0, 0.0, 0.0, 0.0, 0.0, 0.0, 0.0, 1.6959296950676258E9, 0.0, 2023-09-28 14:34:55.067
118.0, 14550.315088071238, 18927.859536154217, 29320.90661774953, 14397.94324611941, 31799.513912142982, 6093.554925150267, -187500.02235174447, 34009.855569583844, 16349.965792890287, -25297.68202277208, -187500.02235174447, 53022.00353407902, 25920.781602952673, -2724.8117595686626, 70953.17643322665, 29687.609337283295, 0.198, 0.982, 0.24, 192.0, 0.0, 0.0, 0.0, 0.0, 0.0, 0.0, 0.0, 0.0, 0.0, 1.6959296950676422E9, 0.0, 2023-09-28 14:34:55.067
120.0, 14705.793822502355, 18915.02963483687, 29382.70919116845, 14365.063830025654, 31755.033940676924, 6054.685241542487, -187500.02235174447, 33969.018932464, 16355.889005170942, -25304.745174019954, -187500.02235174447, 53044.95877563462, 25916.22184708379, -2739.228634742336, 70956.32802919485, 29712.88916026225, 0.198, 0.982, 0.24, 192.0, 0.0, 0.0, 0.0, 0.0, 0.0, 0.0, 0.0, 0.0, 0.0, 1.6959296950676708E9, 0.0, 2023-09-28 14:34:55.067
122.0, 14577.78538200681, 18929.200640821535, 29303.94164370795, 14386.454449469382, 31777.072760709856, 6080.523858132823, -187500.02235174447, 33989.82840655189, 16348.37881903396, -25296.49738031595, -187500.02235174447, 53026.04919982544, 25907.705832446318, -2734.802989340185, 70969.001468301, 29669.973810908057, 0.202, 0.996, 0.24, 192.0, 3.0, 40.0, 15.5, 16.0, 3.5, 64.0, 0.0, 0.0, 0.0, 1.6959296950676873E9, 0.0, 2023-09-28 14:34:55.067
124.0, 14704.966807957508, 18915.11904181469, 29402.423429778035, 14375.010356308265, 31764.62283904825, 6067.91747426003, -187500.02235174447, 34002.367735191314, 16359.085304628052, -25306.846237998754, -187500.02235174447, 53049.11620010331, 25919.820477941095, -2731.9866695388164, 70954.33872393832, 29709.06701196039, 0.202, 0.996, 0.24, 192.0, 0.0, 0.0, 0.0, 0.0, 0.0, 0.0, 0.0, 0.0, 0.0, 1.6959296950677032E9, 0.0, 2023-09-28 14:34:55.067
126.0, 14595.197390937496, 18937.627248481185, 29318.112649692615, 14401.765394421267, 31796.943461530624, 6102.920306077041, -187500.02235174447, 34018.326880732406, 16356.961888904798, -25308.947301977554, -187500.02235174447, 53051.55254024894, 25917.317082562102, -2730.198529982392, 71002.19380881713, 29684.368334337276, 0.202, 0.996, 0.24, 192.0, 0.0, 0.0, 0.0, 0.0, 0.0, 0.0, 0.0, 0.0, 0.0, 1.6959296950677211E9, 0.0, 2023-09-28 14:34:55.067
128.0, 14677.876493677675, 18930.36293153321, 29394.890891896594, 14383.45931571237, 31766.992123960514, 6072.365471406636, -187500.02235174447, 33996.95861303313, 16373.546883290635, -25287.44492381155, -187500.02235174447, 53062.28137758749, 25930.281094346177, -2714.5299571192213, 70939.63127608673, 29719.4158696432, 0.202, 0.996, 0.24, 192.0, 0.0, 0.0, 0.0, 0.0, 0.0, 0.0, 0.0, 0.0, 0.0, 1.695929695067737E9, 0.0, 2023-09-28 14:34:55.067
130.0, 14630.021408798864, 18939.214222337512, 29305.483914075365, 14388.846086126101, 31784.04650497991, 6089.799832081775, -187500.02235174447, 33992.57767111989, 16362.549825018625, -25285.500322043936, -187500.02235174447, 53057.431049040686, 25921.072175630594, -2727.739838092308, 71012.05092812193, 29692.839645485838, 0.202, 0.996, 0.24, 192.0, 0.0, 0.0, 0.0, 0.0, 0.0, 0.0, 0.0, 0.0, 0.0, 1.6959296950677536E9, 0.0, 2023-09-28 14:34:55.067
132.0, 14675.6636709766, 18926.674893698084, 29378.082380066204, 14363.610966636059, 31756.3973970887, 6063.491828857878, -187500.02235174447, 33991.63889785277, 16365.299089586628, -25282.57224352029, -187500.02235174447, 53050.03262162598, 25922.435632042365, -2728.7009631038864, 70942.17937495463, 29704.551959580418, 0.20600000000000002, 1.002, 0.23800000000000002, 192.0, 3.0, 56.0, 15.5, 40.0, 3.5, 56.0, 0.0, 0.0, 0.0, 1.6959296950677717E9, 0.0, 2023-09-28 14:34:55.067
134.0, 14661.537368480847, 18944.46688228451, 29300.90180646203, 14374.98800456381, 31783.73358055754, 6097.689997874499, -187500.02235174447, 34007.70980211614, 16358.101827872018, -25294.463371570513, -187500.02235174447, 53057.60986299633, 25915.663053472406, -2743.609576655576, 71032.12279464278, 29690.78328499595, 0.20600000000000002, 1.002, 0.23800000000000002, 192.0, 0.0, 0.0, 0.0, 0.0, 0.0, 0.0, 0.0, 0.0, 0.0, 1.695929695067788E9, 0.0, 2023-09-28 14:34:55.067
136.0, 14654.071885832775, 18930.429986766576, 29371.37685672961, 14358.782989833713, 31767.28269663843, 6069.3479859051695, -187500.02235174447, 33997.71857234461, 16380.85590372752, -25275.218519594495, -187500.02235174447, 53055.12881936179, 25938.126556649993, -2714.1052739745705, 70921.6381218002, 29709.1117154493, 0.20600000000000002, 1.002, 0.23800000000000002, 192.0, 0.0, 0.0, 0.0, 0.0, 0.0, 0.0, 0.0, 0.0, 0.0, 1.695929695067804E9, 0.0, 2023-09-28 14:34:55.067
138.0, 14667.795856928333, 18945.807986951826, 29293.615137769597, 14375.591501664103, 31790.3049934274, 6094.292532717292, -187500.02235174447, 34001.339554946375, 16362.750990718723, -25287.959013934018, -187500.02235174447, 53066.148229378254, 25923.08383263157, -2731.2937654607017, 71026.9148381847, 29688.39164833923, 0.20600000000000002, 1.002, 0.23800000000000002, 192.0, 0.0, 0.0, 0.0, 0.0, 0.0, 0.0, 0.0, 0.0, 0.0, 1.6959296950678225E9, 0.0, 2023-09-28 14:34:55.067
140.0, 14637.218670513472, 18917.55538196032, 29350.90265880855, 14346.9365652724, 31760.04073143491, 6058.775610777809, -187500.02235174447, 33984.86631928281, 16377.257272870216, -25269.13884510265, -187500.02235174447, 53053.0724588719, 25937.99244618326, -2722.77775082323, 70909.74699374998, 29699.791038011437, 0.20600000000000002, 1.002, 0.23800000000000002, 192.0, 0.0, 0.0, 0.0, 0.0, 0.0, 0.0, 0.0, 0.0, 0.0, 1.6959296950678391E9, 0.0, 2023-09-28 14:34:55.067
142.0, 14701.546991055846, 18932.307533300824, 29294.397448825534, 14355.541986887692, 31790.841435294325, 6079.115698232138, -187500.02235174447, 33986.63210709478, 16355.151397603919, -25300.14071466216, -187500.02235174447, 53051.77605769349, 25913.69609996034, -2754.3384139941236, 71045.4220825937, 29685.01653492648, 0.196, 0.98, 0.24, 192.0, 3.0, 16.0, 15.0, 80.0, 3.5, 64.0, 0.0, 0.0, 0.0, 1.6959296950678563E9, 0.0, 2023-09-28 14:34:55.067
