%OpenBCI Raw EXG Data
%Number of channels = 16
%Sample Rate = 125 Hz
%Board = OpenBCI_GUI$BoardCytonSerialDaisy
Sample Index, EXG Channel 0, EXG Channel 1, EXG Channel 2, EXG Channel 3, EXG Channel 4, EXG Channel 5, EXG Channel 6, EXG Channel 7, EXG Channel 8, EXG Channel 9, EXG Channel 10, EXG Channel 11, EXG Channel 12, EXG Channel 13, EXG Channel 14, EXG Channel 15, Accel Channel 0, Accel Channel 1, Accel Channel 2, Other, Other, Other, Other, Other, Other, Other, Analog Channel 0, Analog Channel 1, Analog Channel 2, Timestamp, Other, Timestamp (Formatted)
0.0, -130794.74190410876, 56589.587818335036, -7464.521523060981, 10675.237855343563, 75007.33584253024, 42469.76732847301, -187500.02235174447, 65210.56624776915, 0.0, 0.0, 0.0, 0.0, 0.0, 0.0, 0.0, 0.0, 0.0, 0.0, 0.0, 192.0, 0.0, 0.0, 0.0, 0.0, 0.0, 0.0, 0.0, 0.0, 0.0, 1.695422338475318E9, 0.0, 2023-09-22 17:38:58.475
224.0, -130911.7979898212, 56502.93010508181, -7448.674136242168, 10597.163211961177, 74869.15735830752, 42458.479697523086, -187500.02235174447, 65128.91532527391, 72802.06803108074, 69321.45438450032, 4778.132412210991, 13358.49772196981, 76931.4634122209, 38905.26758495183, 15178.555569476554, 9570.07820249536, 0.132, 1.012, 0.068, 192.0, 2.0, 16.0, 15.5, 80.0, 1.0, 16.0, 0.0, 0.0, 0.0, 1.695422338475326E9, 0.0, 2023-09-22 17:38:58.475
226.0, -130827.1742853134, 56563.27981511114, -7464.6779852721675, 10660.597462725338, 74994.93062435754, 42468.962665672625, -187500.02235174447, 65200.597369742085, 72816.17198183203, 69321.54379147814, 4784.972046014314, 13355.413181234979, 76941.20877280341, 38900.10433198266, 15182.578883478509, 9584.226856735571, 0.132, 1.012, 0.068, 192.0, 0.0, 0.0, 0.0, 0.0, 0.0, 0.0, 0.0, 0.0, 0.0, 1.69542233847533E9, 0.0, 2023-09-22 17:38:58.475
228.0, -130913.40731542198, 56500.69493063628, -7441.052191382908, 10598.459613139585, 74874.29825953225, 42468.336816827876, -187500.02235174447, 65139.286534701176, 72806.91835962754, 69330.93152414936, 4779.115888967024, 13360.844655137618, 76941.76756641478, 38913.090695511186, 15187.853895169961, 9579.555342144411, 0.132, 1.012, 0.068, 192.0, 0.0, 0.0, 0.0, 0.0, 0.0, 0.0, 0.0, 0.0, 0.0, 1.695422338475334E9, 0.0, 2023-09-22 17:38:58.475
230.0, -130836.40555577345, 56555.59081501851, -7478.960749979109, 10659.144599335743, 74998.81982789276, 42464.335854570374, -187500.02235174447, 65201.75966045376, 72800.30224326876, 69317.92280887638, 4779.831144789594, 13350.294631754712, 76935.64318843403, 38900.17138721602, 15179.360232276946, 9587.713728870598, 0.132, 1.012, 0.068, 192.0, 0.0, 0.0, 0.0, 0.0, 0.0, 0.0, 0.0, 0.0, 0.0, 1.695422338475337E9, 0.0, 2023-09-22 17:38:58.475
232.0, -130859.80783221815, 56523.82898614753, -7453.993851422531, 10601.72296783006, 74896.29237607628, 42457.138592855765, -187500.02235174447, 65145.2768022152, 72811.94750212997, 69324.27070430169, 4776.098403465558, 13348.864120109572, 76923.7073568949, 38901.065456994234, 15168.787857149586, 9576.739022343043, 0.132, 1.012, 0.068, 192.0, 0.0, 0.0, 0.0, 0.0, 0.0, 0.0, 0.0, 0.0, 0.0, 1.695422338475341E9, 0.0, 2023-09-22 17:38:58.475
234.0, -130861.70773049686, 56534.0437333636, -7458.575959035869, 10657.021183612489, 74976.49043518191, 42472.62835176329, -187500.02235174447, 65171.093067061076, 72780.99033605937, 69330.10450960451, 4784.055624491647, 13365.06913483967, 76934.36913900007, 38910.3861344321, 15174.24168279668, 9579.309472955403, 0.134, 1.012, 0.066, 192.0, 2.0, 24.0, 15.5, 80.0, 1.0, 8.0, 0.0, 0.0, 0.0, 1.695422338475344E9, 0.0, 2023-09-22 17:38:58.475
236.0, -130850.37539605802, 56530.46745425075, -7458.106572402307, 10610.015465022978, 74902.64027150157, 42454.74695619905, -187500.02235174447, 65156.25150874275, 72818.20599057747, 69331.73618694975, 4788.794194316172, 13358.564777203177, 76928.66944416397, 38903.45709365095, 15168.00554609365, 9580.583522389355, 0.134, 1.012, 0.066, 192.0, 0.0, 0.0, 0.0, 0.0, 0.0, 0.0, 0.0, 0.0, 0.0, 1.695422338475347E9, 0.0, 2023-09-22 17:38:58.475
238.0, -130883.85830925207, 56522.08555008001, -7461.414630581693, 10648.639279441748, 74959.8383855627, 42458.52440101199, -187500.02235174447, 65174.08820081809, 72753.922373524, 69315.08413733056, 4774.623188331508, 13354.720277156865, 76929.6082174311, 38897.55623311475, 15172.319432773524, 9569.921740284175, 0.134, 1.012, 0.066, 192.0, 0.0, 0.0, 0.0, 0.0, 0.0, 0.0, 0.0, 0.0, 0.0, 1.695422338475351E9, 0.0, 2023-09-22 17:38:58.475
0.0, -64851.73134228365, 28247.10646237212, -3796.667313178458, 5369.4254600316835, 37191.64874454126, 21303.02295720851, -93750.01117587223, 32542.217676903925, 36390.07048488504, 34660.96188556694, 2389.7814619280653, 6677.2260281117, 38462.99361741467, 19447.068208106542, 7586.0032541755745, 4785.284970436689, 0.132, 1.012, 0.068, 192.0, 2.0, 16.0, 15.5, 80.0, 1.0, 16.0, 0.0, 0.0, 0.0, 1.695422338609957E9, 0.0, 2023-09-22 17:38:58.609
2.0, -129541.21137156623, 56582.323501387065, -7585.0644809084515, 10745.020001533032, 74418.27796915507, 42600.92736493675, -187500.02235174447, 65134.100929987544, 72074.2058246381, 69043.51044219857, 4855.223578837345, 13316.856422049574, 76363.08090246689, 39327.246168523576, 15306.049919849625, 9061.665423114948, 0.132, 1.012, 0.068, 192.0, 0.0, 0.0, 0.0, 0.0, 0.0, 0.0, 0.0, 0.0, 0.0, 1.695422338609969E9, 0.0, 2023-09-22 17:38:58.609
4.0, -129727.4684581123, 56470.4306686438, -7565.037317876497, 10709.056044704443, 74306.1392672228, 42611.03035343056, -187500.02235174447, 65047.77849290115, 71985.73762008401, 69056.63091619384, 4852.161389846968, 13360.196454548413, 76384.29270795497, 39370.31798008895, 15348.115902914513, 9053.507036388759, 0.132, 1.012, 0.068, 192.0, 0.0, 0.0, 0.0, 0.0, 0.0, 0.0, 0.0, 0.0, 0.0, 1.695422338609973E9, 0.0, 2023-09-22 17:38:58.609
6.0, -129531.08603132797, 56595.332216660056, -7590.138326899806, 10764.644833164792, 74439.13214673188, 42603.0060771711, -187500.02235174447, 65143.51101440323, 72074.2058246381, 69056.42975049374, 4862.353785318588, 13358.74359115882, 76373.6309258498, 39347.34038678889, 15334.727207985785, 9072.997757553787, 0.132, 1.012, 0.068, 192.0, 0.0, 0.0, 0.0, 0.0, 0.0, 0.0, 0.0, 0.0, 0.0, 1.695422338609976E9, 0.0, 2023-09-22 17:38:58.609
8.0, -129719.42183010839, 56479.66193910384, -7554.196721815672, 10707.446719103662, 74305.1334387223, 42622.58620531395, -187500.02235174447, 65049.63368769094, 71995.17005624414, 69067.18093957675, 4855.022413137247, 13396.674501499476, 76389.21009173513, 39383.48315757312, 15368.299528157655, 9058.849103313578, 0.13, 1.008, 0.064, 192.0, 2.0, 8.0, 15.5, 64.0, 1.0, 0.0, 0.0, 0.0, 0.0, 1.695422338609979E9, 0.0, 2023-09-22 17:38:58.609
10.0, -129528.78380164909, 56596.87448702747, -7594.206344390673, 10766.745897143592, 74449.61511488141, 42607.945812695725, -187500.02235174447, 65156.407970953944, 72074.74226650504, 69055.46862548216, 4867.002948165292, 13390.348957818624, 76380.4258561642, 39356.12462235983, 15361.214025165324, 9082.363138480561, 0.13, 1.008, 0.064, 192.0, 0.0, 0.0, 0.0, 0.0, 0.0, 0.0, 0.0, 0.0, 0.0, 1.695422338609983E9, 0.0, 2023-09-22 17:38:58.609
12.0, -129699.2158531208, 56487.88738106339, -7561.192817830184, 10700.964713211622, 74297.55619735197, 42619.0099262011, -187500.02235174447, 65061.614222718985, 72001.51795166945, 69060.20719530669, 4850.753229946284, 13416.902830231527, 76387.08667601188, 39380.68918951621, 15383.990452765282, 9059.877283558522, 0.13, 1.008, 0.064, 192.0, 0.0, 0.0, 0.0, 0.0, 0.0, 0.0, 0.0, 0.0, 0.0, 1.695422338609986E9, 0.0, 2023-09-22 17:38:58.609
14.0, -129541.30077854406, 56594.259332926194, -7591.971169945142, 10767.662318666258, 74447.13407124688, 42617.46765583368, -187500.02235174447, 65167.47208445932, 72062.78408322146, 69059.82721565095, 4862.733764974328, 13418.646266299042, 76381.8340160649, 39362.62897999633, 15378.71544107383, 9079.189190767907, 0.13, 1.008, 0.064, 192.0, 0.0, 0.0, 0.0, 0.0, 0.0, 0.0, 0.0, 0.0, 0.0, 1.695422338609989E9, 0.0, 2023-09-22 17:38:58.609
16.0, -129684.12842561347, 56502.01368355915, -7572.323986568927, 10697.075509676399, 74298.58437759691, 42618.808760501, -187500.02235174447, 65075.941690914835, 72017.2982832549, 69075.29462281402, 4855.022413137247, 13447.323554435201, 76391.04293478047, 39391.9991722106, 15400.821316340127, 9068.54976040718, 0.13, 1.008, 0.064, 192.0, 0.0, 0.0, 0.0, 0.0, 0.0, 0.0, 0.0, 0.0, 0.0, 1.695422338669697E9, 0.0, 2023-09-22 17:38:58.669
18.0, -129567.8322992125, 56582.72583278726, -7606.768024774555, 10762.856693608368, 74439.22155370969, 42619.47931283466, -187500.02235174447, 65155.73741862028, 72049.52949875945, 69057.3014685275, 4861.5044190292865, 13440.238051442868, 76387.37724868981, 39372.8437272124, 15396.686243615895, 9068.37094645154, 0.128, 1.002, 0.07, 192.0, 2.0, 0.0, 15.5, 40.0, 1.0, 24.0, 0.0, 0.0, 0.0, 1.695422338669709E9, 0.0, 2023-09-22 17:38:58.669
20.0, -129659.56385845708, 56514.4859569652, -7579.789469216999, 10691.01818692901, 74309.26851144654, 42613.37728659836, -187500.02235174447, 65084.39065031894, 72026.73071941503, 69051.4006079913, 4844.628851965529, 13441.422693899, 76375.1284927283, 39373.156651634774, 15393.981682536803, 9043.448751383872, 0.128, 1.002, 0.07, 192.0, 0.0, 0.0, 0.0, 0.0, 0.0, 0.0, 0.0, 0.0, 0.0, 1.695422338669713E9, 0.0, 2023-09-22 17:38:58.669
22.0, -129585.37841860992, 56573.226341393754, -7606.0751206964405, 10755.905301082767, 74435.84644029694, 42613.26552787609, -187500.02235174447, 65157.50320643225, 72036.34196953083, 69058.553166217, 4861.482067284831, 13454.721981849907, 76386.03614402248, 39376.62117202535, 15407.325673976622, 9056.502170145772, 0.128, 1.002, 0.07, 192.0, 0.0, 0.0, 0.0, 0.0, 0.0, 0.0, 0.0, 0.0, 0.0, 1.695422338669716E9, 0.0, 2023-09-22 17:38:58.669
24.0, -129632.87587557745, 56526.77941641562, -7590.6971205111895, 10692.605160785337, 74322.03135753052, 42606.06826616148, -187500.02235174447, 65105.378938362475, 72038.42068176517, 69053.72518941465, 4849.635642723518, 13454.029077771793, 76374.34618167236, 39369.84859345539, 15403.324711719122, 9040.8335972826, 0.128, 1.002, 0.07, 192.0, 0.0, 0.0, 0.0, 0.0, 0.0, 0.0, 0.0, 0.0, 0.0, 1.69542233866972E9, 0.0, 2023-09-22 17:38:58.669
26.0, -129590.00522971216, 56560.39644007641, -7619.307353413982, 10752.820760347935, 74435.95819901922, 42607.25290861761, -187500.02235174447, 65157.70437213235, 72013.78905937541, 69055.0439423375, 4851.110857857569, 13457.09126676217, 76381.99047827607, 39374.58716327991, 15413.67356940193, 9047.516768874737, 0.128, 1.002, 0.07, 192.0, 0.0, 0.0, 0.0, 0.0, 0.0, 0.0, 0.0, 0.0, 0.0, 1.695422338669723E9, 0.0, 2023-09-22 17:38:58.669
28.0, -129589.22291865623, 56540.81631193356, -7594.765138002055, 10693.253361374542, 74344.60661943039, 42602.53669053754, -187500.02235174447, 65116.621865823494, 72035.22438230805, 69035.75438687258, 4836.001078605781, 13436.32649616319, 76363.75145480054, 39357.845706682885, 15401.089537273592, 9036.430303624906, 0.128, 1.0, 0.078, 192.0, 2.0, 0.0, 15.5, 32.0, 1.0, 56.0, 0.0, 0.0, 0.0, 1.695422338669726E9, 0.0, 2023-09-22 17:38:58.669
30.0, -129585.06549418754, 56551.85807369448, -7620.514347614569, 10742.337792198396, 74424.31294015801, 42607.63288827335, -187500.02235174447, 65160.878319845004, 71986.00584101747, 69035.26264849456, 4839.599709463085, 13441.75797006583, 76371.01577174853, 39364.61828525284, 15412.421871712431, 9038.64312632598, 0.128, 1.0, 0.078, 192.0, 0.0, 0.0, 0.0, 0.0, 0.0, 0.0, 0.0, 0.0, 0.0, 1.69542233872985E9, 0.0, 2023-09-22 17:38:58.729
32.0, -129549.88384841489, 56559.79294297611, -7587.165544887251, 10699.578905055394, 74352.96617185666, 42607.63288827335, -187500.02235174447, 65142.25931671373, 72045.01444637949, 69033.16158451576, 4842.684250197917, 13433.934859506471, 76364.77963504549, 39359.09740437238, 15403.883505330505, 9041.101818216064, 0.128, 1.0, 0.078, 192.0, 0.0, 0.0, 0.0, 0.0, 0.0, 0.0, 0.0, 0.0, 0.0, 1.695422338729864E9, 0.0, 2023-09-22 17:38:58.729
34.0, -129625.70096560729, 56524.76775941465, -7592.909943212265, 10739.499120652572, 74407.68324228325, 42621.289804135544, -187500.02235174447, 65138.48187190079, 71993.49367541, 69058.68727668373, 4853.189570091912, 13462.455685431443, 76393.36751620383, 39387.97585820864, 15436.695866190896, 9053.864664300045, 0.128, 1.0, 0.078, 192.0, 0.0, 0.0, 0.0, 0.0, 0.0, 0.0, 0.0, 0.0, 0.0, 1.695422338729868E9, 0.0, 2023-09-22 17:38:58.729
36.0, -129541.21137156623, 56564.39740233391, -7580.728242484122, 10709.436024360184, 74392.93109094276, 42604.928327194255, -187500.02235174447, 65141.9240405469, 72068.9084612022, 69039.30831424097, 4843.7794856762275, 13429.75508329333, 76369.83112929239, 39355.543477003994, 15405.895162331482, 9050.131922976008, 0.128, 1.0, 0.078, 192.0, 0.0, 0.0, 0.0, 0.0, 0.0, 0.0, 0.0, 0.0, 0.0, 1.695422338729871E9, 0.0, 2023-09-22 17:38:58.729
38.0, -129634.23933198921, 56520.00683784567, -7610.567821331957, 10730.200794959164, 74405.69393702674, 42603.69898124922, -187500.02235174447, 65133.273915442696, 71991.16909398665, 69050.77475914654, 4846.037011866214, 13453.626746371598, 76391.75819060304, 39382.99141919511, 15432.203165555378, 9048.522597375226, 0.126, 1.006, 0.074, 192.0, 1.5, 120.0, 15.5, 56.0, 1.0, 40.0, 0.0, 0.0, 0.0, 1.695422338729875E9, 0.0, 2023-09-22 17:38:58.729
40.0, -129491.88107155336, 56585.944483988824, -7600.531888071524, 10710.620666816314, 74414.43346910876, 42597.68636199074, -187500.02235174447, 65169.215520526835, 72069.24373736903, 69025.98667454561, 4830.904880869971, 13413.728882518875, 76350.29570463845, 39340.67956694121, 15383.208141709345, 9034.865681513034, 0.126, 1.006, 0.074, 192.0, 0.0, 0.0, 0.0, 0.0, 0.0, 0.0, 0.0, 0.0, 0.0, 1.695422338729878E9, 0.0, 2023-09-22 17:38:58.729
42.0, -129627.06442201906, 56504.293561493585, -7606.164527674262, 10713.325227895408, 74379.22947159165, 42606.269431861576, -187500.02235174447, 65114.341987889056, 71975.47816937903, 69041.83406136442, 4832.469502981842, 13443.166129966514, 76376.00021076205, 39377.783462737025, 15417.406310725966, 9033.591632079082, 0.126, 1.006, 0.074, 192.0, 0.0, 0.0, 0.0, 0.0, 0.0, 0.0, 0.0, 0.0, 0.0, 1.695422338729881E9, 0.0, 2023-09-22 17:38:58.729
44.0, -129481.95689701522, 56587.01736772268, -7599.950742715686, 10720.142509954276, 74410.34309987344, 42601.083827147944, -187500.02235174447, 65157.16793026542, 72074.67521127168, 69038.9953898186, 4840.091447841102, 13422.870746001096, 76359.30345765394, 39356.05756712647, 15392.797040080672, 9037.659649569947, 0.126, 1.006, 0.074, 192.0, 0.0, 0.0, 0.0, 0.0, 0.0, 0.0, 0.0, 0.0, 0.0, 1.695422338729884E9, 0.0, 2023-09-22 17:38:58.729
46.0, -129638.50851518018, 56492.693006121284, -7604.756367773577, 10699.757719011035, 74355.26840153556, 42605.28595510554, -187500.02235174447, 65100.30509237112, 71977.80275080237, 69039.39772121879, 4828.6920581688955, 13441.176824709992, 76375.48612063959, 39380.443320327206, 15417.965104337349, 9025.701466286358, 0.126, 1.006, 0.074, 192.0, 0.0, 0.0, 0.0, 0.0, 0.0, 0.0, 0.0, 0.0, 0.0, 1.695422338790119E9, 0.0, 2023-09-22 17:38:58.790
48.0, -129462.04149270554, 56594.03581548164, -7603.527021828535, 10719.74017855408, 74427.97862624867, 42601.150882381306, -187500.02235174447, 65168.433209470895, 72070.09310365834, 69031.10522402587, 4829.921404113938, 13409.616161539097, 76355.21308841862, 39350.31316880145, 15391.657101113451, 9033.613983823536, 0.128, 1.008, 0.07, 192.0, 2.0, 0.0, 15.5, 64.0, 1.0, 24.0, 0.0, 0.0, 0.0, 1.69542233879013E9, 0.0, 2023-09-22 17:38:58.790
50.0, -129650.64551241942, 56478.767869325624, -7598.386120603815, 10687.218390371609, 74327.10520352187, 42612.50556856461, -187500.02235174447, 65077.86394093799, 71977.2886606799, 69046.19265153322, 4828.066209324147, 13439.366333409112, 76382.0798852539, 39392.110930932875, 15427.710464919863, 9029.277745399208, 0.128, 1.008, 0.07, 192.0, 0.0, 0.0, 0.0, 0.0, 0.0, 0.0, 0.0, 0.0, 0.0, 1.695422338790133E9, 0.0, 2023-09-22 17:38:58.790
52.0, -129471.42922537676, 56585.58685607754, -7605.605734062879, 10726.64686759077, 74431.08551872797, 42611.32092610847, -187500.02235174447, 65155.8268255981, 72064.66162975569, 69023.30446521098, 4830.122569814035, 13408.27505687178, 76357.18004193068, 39355.11879385934, 15393.221723225322, 9038.710181559347, 0.128, 1.008, 0.07, 192.0, 0.0, 0.0, 0.0, 0.0, 0.0, 0.0, 0.0, 0.0, 0.0, 1.695422338790137E9, 0.0, 2023-09-22 17:38:58.790
54.0, -129655.22762003275, 56475.348052423964, -7603.214097406161, 10685.11732639281, 74309.78260156901, 42611.56679529748, -187500.02235174447, 65066.12927509896, 71978.07097173584, 69047.26553526707, 4827.373305246032, 13440.506272376333, 76380.31409744192, 39393.4967390891, 15426.503470719275, 9037.302021658663, 0.128, 1.008, 0.07, 192.0, 0.0, 0.0, 0.0, 0.0, 0.0, 0.0, 0.0, 0.0, 0.0, 1.69542233879014E9, 0.0, 2023-09-22 17:38:58.790
56.0, -129449.34570185492, 56596.87448702747, -7623.107149971384, 10731.810120559945, 74425.5199343586, 42599.38509456934, -187500.02235174447, 65165.61688966953, 72052.27876332746, 69013.06736625044, 4820.220747020334, 13393.545257275731, 76342.56200105691, 39337.8855988843, 15378.827199796106, 9034.351591390561, 0.128, 1.008, 0.07, 192.0, 0.0, 0.0, 0.0, 0.0, 0.0, 0.0, 0.0, 0.0, 0.0, 1.695422338790143E9, 0.0, 2023-09-22 17:38:58.790
58.0, -129619.97891902673, 56483.14881123887, -7594.943951957697, 10676.221332099598, 74272.58929879538, 42602.33552483744, -187500.02235174447, 65073.415943791384, 71978.80857930286, 69029.048863536, 4817.359723730055, 13415.628780797575, 76358.20822217563, 39373.156651634774, 15402.520048918732, 9024.829748252601, 0.13, 1.004, 0.08, 192.0, 2.0, 8.0, 15.5, 48.0, 1.0, 64.0, 0.0, 0.0, 0.0, 1.695422338790147E9, 0.0, 2023-09-22 17:38:58.790
60.0, -129452.43024258975, 56589.4090043794, -7613.898231255798, 10745.89171956679, 74403.14583815883, 42600.77090272557, -187500.02235174447, 65159.15723552195, 72047.58489699184, 69032.11105252636, 4834.145883815991, 13407.984484193861, 76356.15186168574, 39356.661064226755, 15393.042909269681, 9047.650879341469, 0.13, 1.004, 0.08, 192.0, 0.0, 0.0, 0.0, 0.0, 0.0, 0.0, 0.0, 0.0, 0.0, 1.695422338850449E9, 0.0, 2023-09-22 17:38:58.850
62.0, -129613.42985790133, 56484.46756416173, -7583.49985879658, 10684.759698481525, 74253.83618519738, 42610.35980109689, -187500.02235174447, 65047.353809756496, 71987.83868406281, 69037.14019502881, 4823.595860433085, 13423.854222757129, 76367.01480949103, 39379.05751217098, 15412.377168223522, 9034.97744023531, 0.13, 1.004, 0.08, 192.0, 0.0, 0.0, 0.0, 0.0, 0.0, 0.0, 0.0, 0.0, 0.0, 1.695422338850463E9, 0.0, 2023-09-22 17:38:58.850
64.0, -129468.34468464192, 56582.56937057607, -7606.946838730198, 10756.151170271776, 74408.33144287247, 42613.26552787609, -187500.02235174447, 65133.966819520814, 72037.88423989824, 69029.63000889182, 4830.010811091758, 13405.637551026053, 76359.95165824314, 39359.45503228367, 15399.211990739346, 9051.987117765799, 0.13, 1.004, 0.08, 192.0, 0.0, 0.0, 0.0, 0.0, 0.0, 0.0, 0.0, 0.0, 0.0, 1.695422338850466E9, 0.0, 2023-09-22 17:38:58.850
66.0, -129599.61647982795, 56493.00593054366, -7582.7398994851, 10688.559495038926, 74269.70592376064, 42607.67759176226, -187500.02235174447, 65049.27605977966, 72000.40036444669, 69040.00121831908, 4828.759113402261, 13419.048597699237, 76366.45601587964, 39379.75041624909, 15414.47823220232, 9044.946318262377, 0.13, 1.004, 0.08, 192.0, 0.0, 0.0, 0.0, 0.0, 0.0, 0.0, 0.0, 0.0, 0.0, 1.695422338850469E9, 0.0, 2023-09-22 17:38:58.850
68.0, -129500.30767921302, 56564.12918140044, -7604.59990556239, 10757.738144128101, 74396.12739039987, 42617.53471106705, -187500.02235174447, 65123.55090660464, 72026.90953337068, 69033.96624731616, 4836.045782094691, 13408.386815594056, 76361.96331524412, 39364.95356141968, 15403.525877419219, 9057.642109112992, 0.138, 1.006, 0.064, 192.0, 2.0, 40.0, 15.5, 56.0, 1.0, 0.0, 0.0, 0.0, 0.0, 1.695422338850472E9, 0.0, 2023-09-22 17:38:58.850
70.0, -129570.87213645842, 56509.054483062566, -7591.233562378116, 10694.30389336394, 74264.63207776929, 42609.97982144116, -187500.02235174447, 65065.77164718767, 72013.78905937541, 69036.00025606158, 4827.105084312569, 13405.950475448428, 76355.54836458545, 39369.110985888365, 15402.385938451998, 9051.383620665505, 0.138, 1.006, 0.064, 192.0, 0.0, 0.0, 0.0, 0.0, 0.0, 0.0, 0.0, 0.0, 0.0, 1.695422338850476E9, 0.0, 2023-09-22 17:38:58.850
72.0, -129512.71289738572, 56556.440181307815, -7613.562955088968, 10755.860597593857, 74382.7610472156, 42629.64935656182, -187500.02235174447, 65137.14076723347, 71997.42758243413, 69034.56974441645, 4832.178930303923, 13407.783318493763, 76362.32094315541, 39370.161517877765, 15408.152688521468, 9059.921987047434, 0.138, 1.006, 0.064, 192.0, 0.0, 0.0, 0.0, 0.0, 0.0, 0.0, 0.0, 0.0, 0.0, 1.695422338850479E9, 0.0, 2023-09-22 17:38:58.850
74.0, -129556.54466826258, 56517.034055833115, -7591.412376333759, 10697.902524221245, 74272.4775400731, 42626.58716757145, -187500.02235174447, 65085.240016608244, 72010.92803608514, 69028.40066294679, 4825.607517434063, 13398.574399778176, 76351.86032675032, 39368.686302743714, 15401.357758207056, 9056.301004445673, 0.138, 1.006, 0.064, 192.0, 0.0, 0.0, 0.0, 0.0, 0.0, 0.0, 0.0, 0.0, 0.0, 1.695422338850482E9, 0.0, 2023-09-22 17:38:58.850
76.0, -129540.8760953994, 56543.63263173493, -7618.457987124681, 10754.228920248619, 74375.38497154534, 42631.12457169587, -187500.02235174447, 65137.185470722376, 71988.1963119741, 69033.2956949825, 4829.183796546912, 13408.208001638413, 76362.38799838877, 39375.92826794723, 15407.884467588005, 9063.453562671371, 0.138, 1.006, 0.064, 192.0, 0.0, 0.0, 0.0, 0.0, 0.0, 0.0, 0.0, 0.0, 0.0, 1.695422338909797E9, 0.0, 2023-09-22 17:38:58.909
78.0, -129514.05400205303, 56541.62097473395, -7601.045978193996, 10702.21641090112, 74297.71265956314, 42612.93025170926, -187500.02235174447, 65122.67918857088, 72031.2010683061, 69024.8467355784, 4821.628906921018, 13390.416013051989, 76339.1645358997, 39353.62122698084, 15382.291720186679, 9049.729591575813, 0.132, 1.01, 0.064, 192.0, 2.0, 16.0, 15.5, 72.0, 1.0, 0.0, 0.0, 0.0, 0.0, 1.695422338909811E9, 0.0, 2023-09-22 17:38:58.909
80.0, -129542.95480763374, 56531.24976530669, -7612.98180973313, 10738.985030530099, 74369.21589007568, 42619.747533768124, -187500.02235174447, 65123.52855486018, 71970.47137862103, 69024.042072778, 4823.5288051997195, 13394.55108577622, 76351.34623662785, 39360.1926398507, 15397.066223271637, 9044.476931628817, 0.132, 1.01, 0.064, 192.0, 0.0, 0.0, 0.0, 0.0, 0.0, 0.0, 0.0, 0.0, 0.0, 1.695422338909814E9, 0.0, 2023-09-22 17:38:58.909
82.0, -129497.6701733673, 56551.209873105276, -7592.529963556524, 10703.311646379429, 74309.3355666799, 42613.84667323192, -187500.02235174447, 65094.828914979575, 72041.79579517791, 69027.57364840194, 4829.899052369482, 13382.83877168164, 76349.58044881588, 39355.789346193, 15393.691109858884, 9051.093047987586, 0.132, 1.01, 0.064, 192.0, 0.0, 0.0, 0.0, 0.0, 0.0, 0.0, 0.0, 0.0, 0.0, 1.695422338909818E9, 0.0, 2023-09-22 17:38:58.909
84.0, -129561.37264506491, 56521.23618379071, -7617.832138279932, 10729.485539136595, 74340.76211938408, 42609.62219352987, -187500.02235174447, 65077.23809209325, 71968.19150068659, 69016.6883488522, 4821.248927265278, 13389.343129318135, 76355.50366109653, 39367.38990156531, 15405.738700120295, 9048.32143167513, 0.132, 1.01, 0.064, 192.0, 0.0, 0.0, 0.0, 0.0, 0.0, 0.0, 0.0, 0.0, 0.0, 1.695422338909821E9, 0.0, 2023-09-22 17:38:58.909
86.0, -129464.96957122917, 56569.11362041398, -7593.021701934541, 10708.229030159597, 74322.61250288636, 42611.61149878639, -187500.02235174447, 65088.190446876346, 72026.73071941503, 69015.86133430735, 4816.867985352038, 13370.41120176449, 76334.80594573093, 39344.68052919871, 15378.782496307194, 9044.342821162083, 0.132, 1.01, 0.064, 192.0, 0.0, 0.0, 0.0, 0.0, 0.0, 0.0, 0.0, 0.0, 0.0, 1.695422338909824E9, 0.0, 2023-09-22 17:38:58.909
88.0, -129589.20056691178, 56503.98063707121, -7595.994483947097, 10727.160957713242, 74327.41812794426, 42627.05655420501, -187500.02235174447, 65057.23328080575, 71951.29358187837, 69025.18201174522, 4824.601688933574, 13401.480126557366, 76361.29276291047, 39378.409311581774, 15414.522935691231, 9049.818998553634, 0.136, 1.012, 0.058, 192.0, 2.0, 32.0, 15.5, 80.0, 0.5, 104.0, 0.0, 0.0, 0.0, 1.695422338909828E9, 0.0, 2023-09-22 17:38:58.909
90.0, -129462.66734155027, 56580.46830659727, -7595.1004141688845, 10729.574946114415, 74344.91954385275, 42618.29467037853, -187500.02235174447, 65095.722984757784, 72047.24962082501, 69030.3452647144, 4831.620136692541, 13388.091431628638, 76346.83118424787, 39356.21402933765, 15394.33931044809, 9062.179513237419, 0.136, 1.012, 0.058, 192.0, 0.0, 0.0, 0.0, 0.0, 0.0, 0.0, 0.0, 0.0, 0.0, 1.695422338969622E9, 0.0, 2023-09-22 17:38:58.969
92.0, -129593.5368053361, 56502.2372010037, -7609.472585853647, 10726.445701890672, 74302.45122938768, 42615.18777789924, -187500.02235174447, 65053.098208081516, 71957.90969823716, 69020.57755238743, 4821.38303773201, 13398.730861989363, 76356.21891691911, 39372.821375467945, 15409.896124588982, 9049.729591575813, 0.136, 1.012, 0.058, 192.0, 0.0, 0.0, 0.0, 0.0, 0.0, 0.0, 0.0, 0.0, 0.0, 1.695422338969637E9, 0.0, 2023-09-22 17:38:58.969
94.0, -129436.78402147103, 56590.548943346614, -7600.263667138061, 10740.214376475142, 74357.57063121446, 42614.00313544311, -187500.02235174447, 65110.631598309476, 72050.58003074885, 69019.48231690911, 4828.8708721245375, 13377.384946034545, 76340.93032371168, 39349.64261646779, 15384.079859743102, 9056.390411423494, 0.136, 1.012, 0.058, 192.0, 0.0, 0.0, 0.0, 0.0, 0.0, 0.0, 0.0, 0.0, 0.0, 1.695422338969641E9, 0.0, 2023-09-22 17:38:58.969
96.0, -129600.0411629726, 56487.75327059666, -7598.967265959653, 10712.945248239666, 74279.94302272119, 42609.73395225214, -187500.02235174447, 65048.44904523481, 71957.90969823716, 69025.22671523414, 4823.9981918332805, 13396.026300910271, 76356.64360006376, 39379.16927089325, 15409.71731063334, 9041.593556594082, 0.136, 1.012, 0.058, 192.0, 0.0, 0.0, 0.0, 0.0, 0.0, 0.0, 0.0, 0.0, 0.0, 1.695422338969644E9, 0.0, 2023-09-22 17:38:58.969
98.0, -129422.59066374191, 56591.107736958, -7602.834117750421, 10738.873271807823, 74365.68431445173, 42611.231519130655, -187500.02235174447, 65122.41096763742, 72048.47896677005, 69021.96336054365, 4835.062305338658, 13370.947643631416, 76337.44345157665, 39348.770898434035, 15380.928263774904, 9048.969632264332, 0.14, 1.006, 0.07, 192.0, 2.0, 48.0, 15.5, 56.0, 1.0, 24.0, 0.0, 0.0, 0.0, 1.695422338969648E9, 0.0, 2023-09-22 17:38:58.969
100.0, -129597.42600887132, 56478.566703625525, -7598.363768859359, 10701.9258382232, 74259.11119688883, 42613.69021102074, -187500.02235174447, 65040.87180386446, 71952.58998305678, 69021.7398430991, 4820.041933064692, 13388.024376395271, 76352.75439652853, 39380.778596494034, 15407.772708865728, 9040.677135071413, 0.14, 1.006, 0.07, 192.0, 0.0, 0.0, 0.0, 0.0, 0.0, 0.0, 0.0, 0.0, 0.0, 1.695422338969652E9, 0.0, 2023-09-22 17:38:58.969
102.0, -129412.28650954802, 56593.63348408145, -7608.019722464052, 10752.038449291998, 74373.32861105545, 42612.43851333124, -187500.02235174447, 65136.96195327782, 72041.5499259889, 69018.1412122418, 4829.496720969287, 13365.672631939964, 76338.87396322179, 39354.51529675905, 15386.315034188634, 9056.301004445673, 0.14, 1.006, 0.07, 192.0, 0.0, 0.0, 0.0, 0.0, 0.0, 0.0, 0.0, 0.0, 0.0, 1.695422338969655E9, 0.0, 2023-09-22 17:38:58.969
104.0, -129582.67385753083, 56486.546276396075, -7592.529963556524, 10700.83060274489, 74242.68266471419, 42619.47931283466, -187500.02235174447, 65055.42278950487, 71958.78141627091, 69021.27045646554, 4821.047761565181, 13383.308158315202, 76346.13828016976, 39378.901049959786, 15401.067185529137, 9043.7840275507, 0.14, 1.006, 0.07, 192.0, 0.0, 0.0, 0.0, 0.0, 0.0, 0.0, 0.0, 0.0, 0.0, 1.695422338969659E9, 0.0, 2023-09-22 17:38:58.969
106.0, -129414.02994561553, 56596.31569341609, -7605.829251507432, 10756.866426094346, 74379.6541547363, 42622.25092914712, -187500.02235174447, 65147.80254933865, 72041.16994633318, 69023.30446521098, 4837.7892181622055, 13368.757172674797, 76339.83508823336, 39359.56679100595, 15388.170228978424, 9059.184379480408, 0.14, 1.006, 0.07, 192.0, 0.0, 0.0, 0.0, 0.0, 0.0, 0.0, 0.0, 0.0, 0.0, 1.695422339030041E9, 0.0, 2023-09-22 17:38:59.030
108.0, -129589.80406401207, 56487.06036651855, -7582.851658207376, 10700.674140533703, 74242.10151935834, 42632.823304274476, -187500.02235174447, 65052.941745870325, 71968.92910825362, 69032.6921978822, 4825.4063517339655, 13386.102126372114, 76348.7757860155, 39390.21103265417, 15410.924304833927, 9051.674193343424, 0.128, 1.008, 0.068, 192.0, 2.0, 0.0, 15.5, 64.0, 1.0, 16.0, 0.0, 0.0, 0.0, 1.695422339030058E9, 0.0, 2023-09-22 17:38:59.030
110.0, -129433.67712899175, 56594.16992594838, -7609.629048064834, 10770.143362300798, 74385.86793969489, 42637.1148392099, -187500.02235174447, 65142.81811032512, 72030.97755086154, 69036.11201478387, 4838.973860618336, 13375.194475077926, 76343.5231260685, 39372.21787836765, 15395.322787204123, 9075.076469788131, 0.128, 1.008, 0.068, 192.0, 0.0, 0.0, 0.0, 0.0, 0.0, 0.0, 0.0, 0.0, 0.0, 1.695422339030061E9, 0.0, 2023-09-22 17:38:59.030
112.0, -129573.59904928197, 56498.6832736353, -7585.64562626429, 10707.513774337027, 74237.45235651164, 42643.306272424015, -187500.02235174447, 65054.416961004375, 71981.7366578265, 69042.37050323134, 4825.272241267234, 13383.59873099312, 76337.37639634329, 39385.13718666282, 15399.65902562845, 9062.112458004052, 0.128, 1.008, 0.068, 192.0, 0.0, 0.0, 0.0, 0.0, 0.0, 0.0, 0.0, 0.0, 0.0, 1.695422339030064E9, 0.0, 2023-09-22 17:38:59.030
114.0, -129436.4040418153, 56588.537286345636, -7627.398684906803, 10772.736164657614, 74383.58806176044, 42636.44428687624, -187500.02235174447, 65150.685924373385, 72018.5052774555, 69030.9934653036, 4837.252776295278, 13373.652204710508, 76335.92353295369, 39365.80292770898, 15389.466630156832, 9077.155182022474, 0.128, 1.008, 0.068, 192.0, 0.0, 0.0, 0.0, 0.0, 0.0, 0.0, 0.0, 0.0, 0.0, 1.695422339030068E9, 0.0, 2023-09-22 17:38:59.030
116.0, -129525.14046730286, 56507.48986095069, -7602.141213672307, 10697.12021316531, 74252.27156308551, 42623.592033814435, -187500.02235174447, 65080.99318516174, 71982.742486327, 69015.14607848479, 4806.5638311581415, 13353.69209691192, 76316.3657565553, 39354.783517692515, 15373.932167760393, 9049.953109020365, 0.128, 1.008, 0.068, 192.0, 0.0, 0.0, 0.0, 0.0, 0.0, 0.0, 0.0, 0.0, 0.0, 1.695422339030072E9, 0.0, 2023-09-22 17:38:59.030
118.0, -129467.31650439698, 56557.04367840811, -7606.164527674262, 10761.85086510788, 74363.78441617303, 42641.562836356505, -187500.02235174447, 65139.95708703484, 72001.27208248044, 69029.13827051381, 4829.452017480376, 13366.991384862828, 76339.58921904436, 39365.22178235314, 15391.85826681355, 9064.235873727308, 0.126, 1.008, 0.076, 192.0, 1.5, 120.0, 15.5, 64.0, 1.0, 48.0, 0.0, 0.0, 0.0, 1.695422339030075E9, 0.0, 2023-09-22 17:38:59.030
120.0, -129537.79155466457, 56505.65701790536, -7589.713643755155, 10701.322341122906, 74250.95281016265, 42628.26354840559, -187500.02235174447, 65085.038850908146, 72012.78323087493, 69034.793261861, 4824.7581511447615, 13362.364573760578, 76337.17523064319, 39364.148898619285, 15389.041947012181, 9054.334050933607, 0.126, 1.008, 0.076, 192.0, 0.0, 0.0, 0.0, 0.0, 0.0, 0.0, 0.0, 0.0, 0.0, 1.695422339090227E9, 0.0, 2023-09-22 17:38:59.090
122.0, -129475.76546380109, 56550.67343123835, -7618.614449335868, 10763.348431986384, 74382.49282628213, 42630.63283331786, -187500.02235174447, 65156.6761918874, 71993.82895157683, 69017.58241863042, 4823.327639499622, 13353.44622772291, 76335.3200358534, 39349.329692045416, 15389.980720279304, 9055.384582923005, 0.126, 1.008, 0.076, 192.0, 0.0, 0.0, 0.0, 0.0, 0.0, 0.0, 0.0, 0.0, 0.0, 1.695422339090241E9, 0.0, 2023-09-22 17:38:59.090
124.0, -129513.9198915863, 56515.268268021144, -7576.146134870784, 10706.239724903075, 74271.96344995064, 42632.35391764092, -187500.02235174447, 65105.244827895745, 72016.78419313242, 69019.70583435368, 4820.4219127204315, 13350.272280010258, 76330.7155764956, 39346.55807573296, 15386.382089421999, 9050.69071658739, 0.126, 1.008, 0.076, 192.0, 0.0, 0.0, 0.0, 0.0, 0.0, 0.0, 0.0, 0.0, 0.0, 1.695422339090245E9, 0.0, 2023-09-22 17:38:59.090
126.0, -129506.81203684951, 56528.7910734166, -7614.658190567278, 10759.302766239973, 74367.58421273043, 42627.235368160655, -187500.02235174447, 65148.27193597221, 71988.62099511875, 69021.04693902099, 4824.2887645112, 13356.910748113483, 76340.70680626713, 39352.14601184679, 15400.106060517557, 9065.062888272154, 0.126, 1.008, 0.076, 192.0, 0.0, 0.0, 0.0, 0.0, 0.0, 0.0, 0.0, 0.0, 0.0, 1.695422339090248E9, 0.0, 2023-09-22 17:38:59.090
128.0, -129473.95497250021, 56532.52381474064, -7590.495954811091, 10713.347579639862, 74301.0877729759, 42622.139170424845, -187500.02235174447, 65128.69180782936, 72023.62382693576, 69012.77679357253, 4812.397636460976, 13337.73295137083, 76318.13154436726, 39334.82340989392, 15377.419039895422, 9057.12801899052, 0.13, 1.002, 0.068, 192.0, 2.0, 8.0, 15.5, 40.0, 1.0, 16.0, 0.0, 0.0, 0.0, 1.695422339090251E9, 0.0, 2023-09-22 17:38:59.090
130.0, -129518.65846141083, 56510.32853249652, -7607.349170130393, 10749.13272251281, 74351.4015497448, 42632.84565601894, -187500.02235174447, 65123.372092649, 71968.34796289778, 69013.67086335074, 4813.694037639384, 13351.5016259553, 76331.98962592955, 39349.821430423435, 15392.215894724834, 9058.089144002097, 0.13, 1.002, 0.068, 192.0, 0.0, 0.0, 0.0, 0.0, 0.0, 0.0, 0.0, 0.0, 0.0, 1.695422339090254E9, 0.0, 2023-09-22 17:38:59.090
132.0, -129456.14063216934, 56539.20698633278, -7586.807916975966, 10721.349504154863, 74304.97697651113, 42629.51524609509, -187500.02235174447, 65107.45765059682, 72034.50912648549, 69018.96822678664, 4827.060380823658, 13343.902032840495, 76324.18886711466, 39340.76897391903, 15378.603682351553, 9060.950167292378, 0.13, 1.002, 0.068, 192.0, 0.0, 0.0, 0.0, 0.0, 0.0, 0.0, 0.0, 0.0, 0.0, 1.695422339090257E9, 0.0, 2023-09-22 17:38:59.090
134.0, -129542.88775240038, 56493.65413113286, -7605.113995684862, 10745.757609100057, 74327.1946104997, 42633.78442928605, -187500.02235174447, 65091.23028412227, 71956.21096565855, 69026.81368909046, 4822.724142399328, 13359.861178381585, 76332.07903290738, 39354.38118629232, 15392.66292961394, 9050.914234031945, 0.13, 1.002, 0.068, 192.0, 0.0, 0.0, 0.0, 0.0, 0.0, 0.0, 0.0, 0.0, 0.0, 1.69542233909026E9, 0.0, 2023-09-22 17:38:59.090
136.0, -129438.21453311617, 56548.23709109272, -7592.373501345337, 10735.207585717153, 74318.61154062886, 42631.59395832944, -187500.02235174447, 65112.4197378659, 72037.16898407567, 69024.91379081176, 4826.5239389567305, 13345.556061930189, 76315.15876235471, 39338.35498551786, 15368.992432235771, 9052.322393932629, 0.13, 1.002, 0.068, 192.0, 0.0, 0.0, 0.0, 0.0, 0.0, 0.0, 0.0, 0.0, 0.0, 1.695422339150444E9, 0.0, 2023-09-22 17:38:59.150
138.0, -129580.10340691847, 56473.35874716744, -7596.776795003033, 10742.985992787599, 74292.16942693823, 42637.47246712118, -187500.02235174447, 65070.107885612, 71955.94274472508, 69040.49295669711, 4830.636659936507, 13374.725088444364, 76338.20341088813, 39375.88356445832, 15400.217819239835, 9056.278652701218, 0.132, 1.004, 0.066, 192.0, 2.0, 16.0, 15.5, 48.0, 1.0, 8.0, 0.0, 0.0, 0.0, 1.695422339150454E9, 0.0, 2023-09-22 17:38:59.150
140.0, -129406.49740773409, 56564.062126167075, -7607.885611997321, 10745.51173991105, 74323.77479359803, 42614.18194939875, -187500.02235174447, 65141.90168880245, 72047.92017315867, 69015.8836860518, 4822.254755765767, 13327.4958524103, 76301.99358487054, 39323.736944644086, 15353.726190772795, 9051.271861943229, 0.132, 1.004, 0.066, 192.0, 0.0, 0.0, 0.0, 0.0, 0.0, 0.0, 0.0, 0.0, 0.0, 1.695422339150458E9, 0.0, 2023-09-22 17:38:59.150
142.0, -129563.25019159916, 56467.16731395332, -7595.972132202642, 10733.218280460631, 74263.89447020227, 42632.86800776339, -187500.02235174447, 65073.63946123594, 71947.96317195454, 69024.93614255621, 4820.153691786968, 13356.597823691109, 76328.12277413878, 39359.7903084505, 15385.756240577251, 9042.152350205464, 0.132, 1.004, 0.066, 192.0, 0.0, 0.0, 0.0, 0.0, 0.0, 0.0, 0.0, 0.0, 0.0, 1.695422339150461E9, 0.0, 2023-09-22 17:38:59.150
144.0, -129397.6461169298, 56563.7492017447, -7600.308370626971, 10753.22309174813, 74337.38700597132, 42623.14499892533, -187500.02235174447, 65132.446900897856, 72056.90557442971, 69031.08287228142, 4840.2926135412, 13338.045875793205, 76317.50569552252, 39333.951691860166, 15366.04200196767, 9057.79857132418, 0.132, 1.004, 0.066, 192.0, 0.0, 0.0, 0.0, 0.0, 0.0, 0.0, 0.0, 0.0, 0.0, 1.695422339150464E9, 0.0, 2023-09-22 17:38:59.150
146.0, -129562.82550845451, 56457.824284771006, -7597.737920014611, 10713.258172662041, 74255.5796212649, 42626.453057104714, -187500.02235174447, 65054.05933309309, 71949.01370394394, 69018.20826747516, 4818.969049330837, 13343.611460162576, 76320.14320136824, 39350.9390176462, 15381.174132963914, 9037.011448980744, 0.132, 1.004, 0.066, 192.0, 0.0, 0.0, 0.0, 0.0, 0.0, 0.0, 0.0, 0.0, 0.0, 1.695422339150468E9, 0.0, 2023-09-22 17:38:59.150
148.0, -129370.10876776086, 56567.370184346466, -7617.005123735085, 10749.490350424094, 74371.8533959214, 42615.76892325508, -187500.02235174447, 65139.86768005702, 72038.04070210943, 69008.28409293701, 4824.2887645112, 13315.627076104533, 76304.54168373844, 39324.31808999993, 15356.922490229905, 9042.040591483188, 0.126, 1.004, 0.068, 192.0, 1.5, 120.0, 15.5, 48.0, 1.0, 16.0, 0.0, 0.0, 0.0, 1.695422339150471E9, 0.0, 2023-09-22 17:38:59.150
150.0, -129549.43681352578, 56452.7280870352, -7596.441518836203, 10705.770338269513, 74258.82062421092, 42623.07794369196, -187500.02235174447, 65048.06906557907, 71934.46271830353, 69013.60380811738, 4804.3957119459765, 13329.060474522172, 76306.1063058503, 39350.35787229036, 15370.311185158633, 9022.169890662419, 0.126, 1.004, 0.068, 192.0, 0.0, 0.0, 0.0, 0.0, 0.0, 0.0, 0.0, 0.0, 0.0, 1.695422339209823E9, 0.0, 2023-09-22 17:38:59.209
152.0, -129385.73263713511, 56563.59273953352, -7609.271420153549, 10755.346507471384, 74367.11482609688, 42626.944795482734, -187500.02235174447, 65142.304020202646, 72030.37405376126, 69029.83117459192, 4829.787293647206, 13325.595954131599, 76309.4590675186, 39338.287930284496, 15359.694106542363, 9045.795684551678, 0.126, 1.004, 0.068, 192.0, 0.0, 0.0, 0.0, 0.0, 0.0, 0.0, 0.0, 0.0, 0.0, 1.695422339209837E9, 0.0, 2023-09-22 17:38:59.209
154.0, -129556.56702000703, 56458.98657548268, -7594.765138002055, 10697.656655032237, 74230.72448143059, 42625.402525115314, -187500.02235174447, 65056.92035638337, 71952.27705863441, 69032.11105252636, 4820.4219127204315, 13335.386018203024, 76311.13544835275, 39354.11296535885, 15371.294661914668, 9032.518748345226, 0.126, 1.004, 0.068, 192.0, 0.0, 0.0, 0.0, 0.0, 0.0, 0.0, 0.0, 0.0, 0.0, 1.695422339209841E9, 0.0, 2023-09-22 17:38:59.209
156.0, -129375.11555851884, 56576.19912340631, -7625.275269183549, 10755.435914449205, 74369.08177960894, 42617.73587676715, -187500.02235174447, 65143.71218010333, 72022.23801877952, 69015.34724418489, 4835.755209416772, 13319.181003472926, 76303.3570412823, 39329.034308079994, 15353.100341928048, 9048.477893886316, 0.126, 1.004, 0.068, 192.0, 0.0, 0.0, 0.0, 0.0, 0.0, 0.0, 0.0, 0.0, 0.0, 1.695422339209844E9, 0.0, 2023-09-22 17:38:59.209
158.0, -129545.81583092402, 56466.11678196392, -7583.857486707865, 10694.035672430477, 74219.43685048066, 42637.47246712118, -187500.02235174447, 65040.13419629743, 71951.3829888562, 69024.6902733672, 4819.617249920041, 13332.547346657198, 76307.62622447326, 39356.25873282656, 15368.366583391022, 9037.346725147572, 0.128, 1.0, 0.066, 192.0, 2.0, 0.0, 15.5, 32.0, 1.0, 8.0, 0.0, 0.0, 0.0, 1.695422339209847E9, 0.0, 2023-09-22 17:38:59.209
160.0, -129400.35067800888, 56566.163190145875, -7608.7796817755325, 10776.155981559275, 74376.36844830138, 42637.27130142108, -187500.02235174447, 65142.99692428076, 72006.994129061, 69029.20532574717, 4841.879587397527, 13330.35687570058, 76310.73311695256, 39344.50171524307, 15363.985641477782, 9065.711088861357, 0.128, 1.0, 0.066, 192.0, 0.0, 0.0, 0.0, 0.0, 0.0, 0.0, 0.0, 0.0, 0.0, 1.695422339209851E9, 0.0, 2023-09-22 17:38:59.209
162.0, -129547.33574954698, 56476.666805346824, -7574.626216247823, 10714.778091285001, 74237.20648732263, 42636.891321765346, -187500.02235174447, 65049.29841152411, 71961.37421862772, 69043.93512534323, 4836.67163093944, 13348.081809053638, 76317.93037866717, 39367.21108760966, 15379.833028296594, 9056.077487001121, 0.128, 1.0, 0.066, 192.0, 0.0, 0.0, 0.0, 0.0, 0.0, 0.0, 0.0, 0.0, 0.0, 1.695422339209857E9, 0.0, 2023-09-22 17:38:59.209
164.0, -129411.3924397698, 56575.57327456156, -7625.141158716818, 10785.230789808129, 74387.6560792513, 42620.663955290795, -187500.02235174447, 65145.52267140421, 71997.94167255661, 69036.98373281762, 4848.830979923127, 13338.314096726668, 76310.59900648582, 39346.84864841088, 15362.264557154724, 9064.54879814968, 0.128, 1.0, 0.066, 192.0, 0.0, 0.0, 0.0, 0.0, 0.0, 0.0, 0.0, 0.0, 0.0, 1.695422339209861E9, 0.0, 2023-09-22 17:38:59.209
166.0, -129500.64295537985, 56506.90871559486, -7582.583437273913, 10712.341751139373, 74232.37851052028, 42621.04393494653, -187500.02235174447, 65065.883405909946, 71973.26534667794, 69024.39970068929, 4827.708581412862, 13327.629962877032, 76293.99166035553, 39345.57459897693, 15347.37829534749, 9035.737399546791, 0.128, 1.0, 0.066, 192.0, 0.0, 0.0, 0.0, 0.0, 0.0, 0.0, 0.0, 0.0, 0.0, 1.695422339269508E9, 0.0, 2023-09-22 17:38:59.269
168.0, -129428.06684113346, 56567.638405279926, -7600.8001090049875, 10790.237580566118, 74350.30631426649, 42639.55117935553, -187500.02235174447, 65135.3749794215, 71992.53255039842, 69040.00121831908, 4851.267320068756, 13346.807759619685, 76313.4153262872, 39362.56192476296, 15368.098362457558, 9058.804399824667, 0.132, 1.006, 0.078, 192.0, 2.0, 16.0, 15.5, 56.0, 1.0, 56.0, 0.0, 0.0, 0.0, 1.695422339269518E9, 0.0, 2023-09-22 17:38:59.269
170.0, -129473.12795795537, 56526.444140248794, -7578.694233738689, 10729.843167047879, 74226.45529823963, 42628.50941759461, -187500.02235174447, 65075.49465602573, 72003.90958832618, 69050.3500760019, 4848.965090389859, 13346.517186941766, 76304.25111106051, 39365.28883758651, 15362.979812977293, 9045.058076984653, 0.132, 1.006, 0.078, 192.0, 0.0, 0.0, 0.0, 0.0, 0.0, 0.0, 0.0, 0.0, 0.0, 1.695422339269522E9, 0.0, 2023-09-22 17:38:59.269
172.0, -129455.11245192439, 56546.29248932511, -7599.481356082125, 10774.032565836022, 74318.32096795095, 42627.12360943838, -187500.02235174447, 65110.341025631555, 71981.15551247066, 69038.3471892294, 4848.1827793339235, 13342.248003750803, 76308.87792216276, 39355.74464270409, 15361.482246098787, 9039.514844359737, 0.132, 1.006, 0.078, 192.0, 0.0, 0.0, 0.0, 0.0, 0.0, 0.0, 0.0, 0.0, 0.0, 1.695422339269525E9, 0.0, 2023-09-22 17:38:59.269
174.0, -129449.45746057719, 56536.23420432022, -7597.223829892138, 10716.92385875271, 74247.19771709415, 42604.19071962723, -187500.02235174447, 65093.64427252344, 72021.52276295696, 69036.60375316188, 4837.72216292884, 13329.73102685583, 76301.16657032569, 39344.23349430961, 15349.591118048564, 9035.69269605788, 0.132, 1.006, 0.078, 192.0, 0.0, 0.0, 0.0, 0.0, 0.0, 0.0, 0.0, 0.0, 0.0, 1.695422339269528E9, 0.0, 2023-09-22 17:38:59.269
176.0, -129456.0065217026, 56535.04956186409, -7611.864222510365, 10755.301803982473, 74340.4938984506, 42617.60176630042, -187500.02235174447, 65130.09996773004, 71956.74740752547, 69017.76123258605, 4823.081770310613, 13323.584297130621, 76297.63499470174, 39337.25975003955, 15351.312202371622, 9025.880280242, 0.132, 1.006, 0.078, 192.0, 0.0, 0.0, 0.0, 0.0, 0.0, 0.0, 0.0, 0.0, 0.0, 1.695422339269531E9, 0.0, 2023-09-22 17:38:59.269
178.0, -129430.48082953464, 56539.63166947743, -7583.477507052125, 10715.091015707376, 74275.60678429685, 42622.72031578068, -187500.02235174447, 65109.782232020174, 72023.08738506882, 69019.30350295348, 4831.2401570368, 13316.118814482548, 76295.66804118968, 39336.90212212827, 15348.60764129253, 9027.131977931498, 0.132, 1.01, 0.082, 192.0, 2.0, 16.0, 15.5, 72.0, 1.0, 72.0, 0.0, 0.0, 0.0, 1.695422339269534E9, 0.0, 2023-09-22 17:38:59.269
180.0, -129501.6711356248, 56508.920372595836, -7599.906039226776, 10754.74301037109, 74315.3928894273, 42632.01864147409, -187500.02235174447, 65096.39353709144, 71964.21289017354, 69024.31029371146, 4838.571529218141, 13335.274259480746, 76314.15293385422, 39360.05852938396, 15370.981737492293, 9027.087274442587, 0.132, 1.01, 0.082, 192.0, 0.0, 0.0, 0.0, 0.0, 0.0, 0.0, 0.0, 0.0, 0.0, 1.695422339329947E9, 0.0, 2023-09-22 17:38:59.329
182.0, -129390.24768951509, 56558.58594877553, -7597.492050825603, 10731.65365834876, 74300.64073808679, 42610.22569063016, -187500.02235174447, 65109.31284538661, 72036.99017012003, 69014.56493312895, 4828.066209324147, 13305.322921910636, 76284.64863117322, 39326.70972665665, 15339.376370832488, 9027.176681420407, 0.132, 1.01, 0.082, 192.0, 0.0, 0.0, 0.0, 0.0, 0.0, 0.0, 0.0, 0.0, 0.0, 1.695422339329971E9, 0.0, 2023-09-22 17:38:59.329
184.0, -129498.85481582342, 56497.3868724569, -7588.59605653239, 10750.384420202307, 74308.0838689904, 42629.470542606185, -187500.02235174447, 65072.18659784635, 71949.50544232196, 69018.76706108655, 4833.408276248965, 13330.155710000481, 76304.67579420516, 39353.800040936476, 15370.579406092098, 9023.64510579647, 0.132, 1.01, 0.082, 192.0, 0.0, 0.0, 0.0, 0.0, 0.0, 0.0, 0.0, 0.0, 0.0, 1.695422339329974E9, 0.0, 2023-09-22 17:38:59.329
186.0, -129381.17288126623, 56562.743373244215, -7583.611617518857, 10745.60114688887, 74320.35497669637, 42627.48123734966, -187500.02235174447, 65096.281778369164, 72051.58585924935, 69017.9400465417, 4855.491799770809, 13321.68439885192, 76294.14812256672, 39339.22670355162, 15349.94874595985, 9035.938565246888, 0.132, 1.01, 0.082, 192.0, 0.0, 0.0, 0.0, 0.0, 0.0, 0.0, 0.0, 0.0, 0.0, 1.695422339329977E9, 0.0, 2023-09-22 17:38:59.329
188.0, -129536.20458080825, 56482.478258905205, -7575.900265681776, 10748.015135290043, 74276.2773366305, 42640.311138667006, -187500.02235174447, 65042.324667254055, 71957.19444241458, 69036.49199443961, 4852.4072590359765, 13349.557024187689, 76309.0120326295, 39369.289799844, 15370.869978770017, 9023.868623241022, 0.134, 1.006, 0.074, 192.0, 2.0, 24.0, 15.5, 56.0, 1.0, 40.0, 0.0, 0.0, 0.0, 1.69542233932998E9, 0.0, 2023-09-22 17:38:59.329
190.0, -129378.31185797595, 56576.82497225106, -7585.109184397363, 10756.821722605435, 74325.83115408792, 42625.46958034868, -187500.02235174447, 65109.17873491988, 72064.14753963322, 69033.22863974913, 4863.471372541353, 13329.976896044838, 76295.08689583384, 39342.98179662011, 15349.367600604011, 9036.564414091637, 0.134, 1.006, 0.074, 192.0, 0.0, 0.0, 0.0, 0.0, 0.0, 0.0, 0.0, 0.0, 0.0, 1.695422339329983E9, 0.0, 2023-09-22 17:38:59.329
192.0, -129527.48740047067, 56483.21586647223, -7582.136402384806, 10735.855786306356, 74256.6301532543, 42626.02837396006, -187500.02235174447, 65051.690048180826, 71956.4344831031, 69026.25489547907, 4838.817398407149, 13331.474462923345, 76295.82450340087, 39357.51043051606, 15359.604699564541, 9014.257373125241, 0.134, 1.006, 0.074, 192.0, 0.0, 0.0, 0.0, 0.0, 0.0, 0.0, 0.0, 0.0, 0.0, 1.695422339329987E9, 0.0, 2023-09-22 17:38:59.329
194.0, -129367.38185493731, 56584.91630374388, -7580.21415236165, 10770.791562890001, 74331.21792450166, 42631.03516471806, -187500.02235174447, 65118.253543168736, 72060.4595017981, 69030.85935483687, 4861.191494606912, 13327.227631476837, 76297.54558772393, 39346.803944921965, 15350.12755991549, 9033.859853012545, 0.134, 1.006, 0.074, 192.0, 0.0, 0.0, 0.0, 0.0, 0.0, 0.0, 0.0, 0.0, 0.0, 1.69542233932999E9, 0.0, 2023-09-22 17:38:59.329
196.0, -129542.17249657781, 56478.432593158795, -7576.7272802266225, 10732.972411271621, 74238.23466756758, 42629.93992923974, -187500.02235174447, 65044.4033794884, 71958.46849184853, 69033.4968606826, 4850.172084590446, 13343.186777017925, 76305.70397445011, 39368.10515738787, 15369.171246191412, 9021.78991100668, 0.134, 1.006, 0.074, 192.0, 0.0, 0.0, 0.0, 0.0, 0.0, 0.0, 0.0, 0.0, 0.0, 1.695422339389549E9, 0.0, 2023-09-22 17:38:59.389
198.0, -129359.46933740012, 56588.78315553465, -7595.480393824625, 10769.048126822487, 74359.67169519326, 42627.995327472134, -187500.02235174447, 65135.46438639932, 72044.79092893493, 69018.40943317526, 4856.743497460306, 13316.945829027394, 76291.82354114337, 39339.45022099617, 15344.137292401469, 9033.792797779179, 0.136, 1.01, 0.068, 192.0, 2.0, 32.0, 15.5, 72.0, 1.0, 16.0, 0.0, 0.0, 0.0, 1.695422339389561E9, 0.0, 2023-09-22 17:38:59.389
200.0, -129537.25511279765, 56470.85535178845, -7574.670919736734, 10718.890812264779, 74239.24049606806, 42628.59882457243, -187500.02235174447, 65039.597754430506, 71948.00787544345, 69014.22965696212, 4841.38784901951, 13326.199451231892, 76296.18213131215, 39358.11392761635, 15360.834045509584, 9019.55473656115, 0.136, 1.01, 0.068, 192.0, 0.0, 0.0, 0.0, 0.0, 0.0, 0.0, 0.0, 0.0, 0.0, 1.695422339389565E9, 0.0, 2023-09-22 17:38:59.389
202.0, -129352.3838344078, 56582.0552804536, -7609.271420153549, 10768.265815766552, 74366.37721852986, 42620.39573435733, -187500.02235174447, 65126.81426129511, 72031.78221366194, 69009.31227318195, 4851.423782279942, 13305.948770755384, 76292.11411382128, 39334.532837216, 15346.081894169081, 9036.49735885827, 0.136, 1.01, 0.068, 192.0, 0.0, 0.0, 0.0, 0.0, 0.0, 0.0, 0.0, 0.0, 0.0, 1.695422339389568E9, 0.0, 2023-09-22 17:38:59.389
204.0, -129508.42136245029, 56469.53659886558, -7585.176239630729, 10704.40688185774, 74228.62341745179, 42621.31215588, -187500.02235174447, 65020.10703326548, 71949.10311092176, 69008.32879642592, 4822.701790654873, 13305.166459699449, 76282.2569945165, 39345.52989548801, 15343.287926112167, 9009.854079467545, 0.136, 1.01, 0.068, 192.0, 0.0, 0.0, 0.0, 0.0, 0.0, 0.0, 0.0, 0.0, 0.0, 1.695422339389571E9, 0.0, 2023-09-22 17:38:59.389
206.0, -129347.19822969417, 56569.314786114075, -7604.622257306845, 10769.18223728922, 74358.17412831476, 42624.19553091473, -187500.02235174447, 65106.34006337405, 72021.27689376795, 69003.81374404595, 4842.639546709007, 13304.16063119896, 76284.20159628411, 39337.237398295096, 15335.174242874891, 9032.652858811958, 0.136, 1.01, 0.068, 192.0, 0.0, 0.0, 0.0, 0.0, 0.0, 0.0, 0.0, 0.0, 0.0, 1.695422339389575E9, 0.0, 2023-09-22 17:38:59.389
208.0, -129514.09870554194, 56464.19453194077, -7580.16944887274, 10699.73536726658, 74204.0141468065, 42621.60272855792, -187500.02235174447, 65002.762079568165, 71970.7395995545, 69020.4881454096, 4837.073962339636, 13320.343294184602, 76295.33276502285, 39362.0925381294, 15346.12659765799, 9017.543079560171, 0.136, 1.008, 0.074, 192.0, 2.0, 32.0, 15.5, 64.0, 1.0, 40.0, 0.0, 0.0, 0.0, 1.695422339389578E9, 0.0, 2023-09-22 17:38:59.389
210.0, -129365.45960491415, 56568.420716335866, -7623.9788680051415, 10763.437838964206, 74350.37336949985, 42618.361725611896, -187500.02235174447, 65098.82987723707, 72024.87552462525, 69007.54648536998, 4847.62398572254, 13303.423023631934, 76288.78370389744, 39339.89725588528, 15330.972114917293, 9028.853062254557, 0.136, 1.008, 0.074, 192.0, 0.0, 0.0, 0.0, 0.0, 0.0, 0.0, 0.0, 0.0, 0.0, 1.695422339449832E9, 0.0, 2023-09-22 17:38:59.449
212.0, -129455.0006932021, 56492.84946833247, -7605.471623596147, 10688.425384572194, 74207.05398405243, 42607.18585338424, -187500.02235174447, 65032.601658415995, 71989.87269280823, 68993.80016252997, 4826.300421512177, 13297.745680540285, 76269.76236936598, 39342.69122394219, 15321.070292123592, 9002.455652052839, 0.136, 1.008, 0.074, 192.0, 0.0, 0.0, 0.0, 0.0, 0.0, 0.0, 0.0, 0.0, 0.0, 1.695422339449845E9, 0.0, 2023-09-22 17:38:59.449
214.0, -129356.16127922075, 56564.64327152292, -7613.048864966496, 10755.324155726928, 74343.75725314108, 42623.4132198588, -187500.02235174447, 65103.07670868358, 72011.97856807454, 69007.79235455899, 4847.7133927003615, 13311.223782446836, 76280.73707589353, 39347.988587378095, 15329.18397536087, 9017.096044671065, 0.136, 1.008, 0.074, 192.0, 0.0, 0.0, 0.0, 0.0, 0.0, 0.0, 0.0, 0.0, 0.0, 1.695422339449849E9, 0.0, 2023-09-22 17:38:59.449
216.0, -129454.68776877974, 56501.14196552539, -7574.313291825449, 10692.515753807516, 74224.06366158291, 42630.05168796202, -187500.02235174447, 65019.7941088431, 72015.33132974284, 69021.11399425435, 4853.256625325278, 13332.480291423833, 76289.67777367566, 39373.06724465695, 15344.629030779486, 9015.35260860355, 0.136, 1.008, 0.074, 192.0, 0.0, 0.0, 0.0, 0.0, 0.0, 0.0, 0.0, 0.0, 0.0, 1.695422339449852E9, 0.0, 2023-09-22 17:38:59.449
218.0, -129407.01149785657, 56553.13212312843, -7611.305428898982, 10764.823647120435, 74365.19257607372, 42632.5103798521, -187500.02235174447, 65088.57042653208, 72015.37603323175, 69024.73497685611, 4872.72499474585, 13355.301422512703, 76306.73215469506, 39385.56186980747, 15363.225682166301, 9030.037704710687, 0.132, 1.012, 0.07200000000000001, 192.0, 2.0, 16.0, 15.5, 80.0, 1.0, 32.0, 0.0, 0.0, 0.0, 1.695422339449855E9, 0.0, 2023-09-22 17:38:59.449
220.0, -129422.38949804181, 56526.041808848604, -7596.776795003033, 10701.411748100729, 74259.55823177793, 42621.44626634673, -187500.02235174447, 65056.4062662609, 72028.42945199364, 69011.10041273838, 4854.173046847945, 13344.371419474057, 76280.44650321561, 39369.64742775529, 15345.791321491162, 9016.894878970967, 0.132, 1.012, 0.07200000000000001, 192.0, 0.0, 0.0, 0.0, 0.0, 0.0, 0.0, 0.0, 0.0, 0.0, 1.695422339449858E9, 0.0, 2023-09-22 17:38:59.449
222.0, -129395.9473843512, 56546.314841069565, -7627.041056995518, 10752.284318481008, 74350.9545148557, 42630.454019362216, -187500.02235174447, 65111.950351232335, 71996.68997486711, 69007.09945048088, 4857.794029449705, 13364.197416805913, 76288.87311087527, 39381.42679708324, 15365.773781034206, 9026.394370364473, 0.132, 1.012, 0.07200000000000001, 192.0, 0.0, 0.0, 0.0, 0.0, 0.0, 0.0, 0.0, 0.0, 0.0, 1.695422339449862E9, 0.0, 2023-09-22 17:38:59.449
224.0, -129388.5936604254, 56536.457721764775, -7591.077100166929, 10700.428271344696, 74260.13937713378, 42635.37140314238, -187500.02235174447, 65079.517970027686, 72030.93284737263, 69010.11693598234, 4859.604520750585, 13373.719259943875, 76280.73707589353, 39376.71057900317, 15365.930243245393, 9024.762693019235, 0.132, 1.012, 0.07200000000000001, 192.0, 0.0, 0.0, 0.0, 0.0, 0.0, 0.0, 0.0, 0.0, 0.0, 1.695422339449865E9, 0.0, 2023-09-22 17:38:59.449
226.0, -129439.22036161667, 56522.48788148021, -7613.965286489164, 10745.578795144414, 74333.14017452481, 42651.44230740575, -187500.02235174447, 65099.34396735954, 71983.48009389402, 69022.94683729969, 4873.529657546242, 13416.344036620145, 76306.84391341734, 39402.236271171125, 15405.515182675743, 9037.92787050341, 0.132, 1.012, 0.07200000000000001, 192.0, 0.0, 0.0, 0.0, 0.0, 0.0, 0.0, 0.0, 0.0, 0.0, 1.695422339509956E9, 0.0, 2023-09-22 17:38:59.509
228.0, -129367.18068923721, 56554.070896395555, -7610.165489931762, 10704.630399302292, 74278.49015933159, 42634.47733336417, -187500.02235174447, 65101.243865638244, 72039.001827121, 69001.22094168913, 4853.681308469929, 13393.299388086723, 76275.21619501307, 39371.189698122704, 15382.738755075785, 9028.048399454165, 0.13, 1.008, 0.07200000000000001, 192.0, 2.0, 8.0, 15.5, 64.0, 1.0, 32.0, 0.0, 0.0, 0.0, 1.695422339509966E9, 0.0, 2023-09-22 17:38:59.509
230.0, -129430.48082953464, 56519.112768067454, -7634.059504754485, 10728.166786213731, 74309.1344009798, 42640.95933925621, -187500.02235174447, 65085.2623683527, 71968.41501813114, 69004.99838650208, 4845.165293832457, 13416.768719764796, 76283.88867186173, 39387.50647157508, 15402.877676830016, 9016.336085359584, 0.13, 1.008, 0.07200000000000001, 192.0, 0.0, 0.0, 0.0, 0.0, 0.0, 0.0, 0.0, 0.0, 0.0, 1.69542233950997E9, 0.0, 2023-09-22 17:38:59.509
232.0, -129336.78231677799, 56566.11848665697, -7608.846737008898, 10710.732425538592, 74301.84773228738, 42644.15563871332, -187500.02235174447, 65095.74533650224, 72056.14561511822, 69002.69615682318, 4853.8154189366605, 13411.359597606612, 76272.91396533418, 39371.72613998963, 15391.791211580183, 9016.514899315227, 0.13, 1.008, 0.07200000000000001, 192.0, 0.0, 0.0, 0.0, 0.0, 0.0, 0.0, 0.0, 0.0, 0.0, 1.695422339509973E9, 0.0, 2023-09-22 17:38:59.509
234.0, -129464.27666715106, 56498.8844393354, -7619.396760391804, 10727.630344346804, 74292.52705484952, 42650.928217283275, -187500.02235174447, 65061.63657446344, 71979.09915198079, 69021.89630531029, 4862.465544040864, 13450.363391681123, 76303.40174477121, 39411.86987303136, 15437.187604568911, 9023.35453311855, 0.13, 1.008, 0.07200000000000001, 192.0, 0.0, 0.0, 0.0, 0.0, 0.0, 0.0, 0.0, 0.0, 0.0, 1.695422339509977E9, 0.0, 2023-09-22 17:38:59.509
236.0, -129315.79402873445, 56575.43916409483, -7612.445367866203, 10722.35533265535, 74317.538656895, 42635.10318220892, -187500.02235174447, 65102.47321158329, 72069.15433039122, 68994.89539800827, 4854.173046847945, 13411.180783650969, 76273.31629673437, 39369.58037252192, 15402.296531474178, 9022.952201718355, 0.13, 1.008, 0.07200000000000001, 192.0, 0.0, 0.0, 0.0, 0.0, 0.0, 0.0, 0.0, 0.0, 0.0, 1.69542233950998E9, 0.0, 2023-09-22 17:38:59.509
238.0, -129452.83257398994, 56489.340244452986, -7614.345266144904, 10710.106576693843, 74294.58341533941, 42634.6114438309, -187500.02235174447, 65055.06516159358, 71974.1370647117, 68988.56985432743, 4844.494741498797, 13433.957211250927, 76292.35998301029, 39398.23530891363, 15431.86788938855, 9012.603344035548, 0.132, 1.01, 0.074, 192.0, 2.0, 16.0, 15.5, 72.0, 1.0, 40.0, 0.0, 0.0, 0.0, 1.695422339509985E9, 0.0, 2023-09-22 17:38:59.509
240.0, -129315.1681798897, 56577.204951906795, -7598.073196181441, 10731.139568226286, 74354.77666315755, 42641.87576077888, -187500.02235174447, 65091.09617365553, 72075.03283918295, 68999.41045038826, 4865.952416175892, 13429.218641426402, 76292.11411382128, 39385.22659364064, 15421.273162516734, 9028.40602736545, 0.132, 1.01, 0.074, 192.0, 0.0, 0.0, 0.0, 0.0, 0.0, 0.0, 0.0, 0.0, 0.0, 1.695422339570327E9, 0.0, 2023-09-22 17:38:59.570
242.0, -129477.93358301326, 56479.10314549245, -7609.114957942362, 10709.570134826916, 74286.11210419085, 42639.68528982226, -187500.02235174447, 65032.42284446036, 71978.83093104731, 69005.95951151366, 4861.191494606912, 13447.368257924112, 76301.0101081145, 39412.093390475915, 15446.374171540043, 9019.107701672043, 0.132, 1.01, 0.074, 192.0, 0.0, 0.0, 0.0, 0.0, 0.0, 0.0, 0.0, 0.0, 0.0, 1.695422339570339E9, 0.0, 2023-09-22 17:38:59.570
244.0, -129300.10310412683, 56589.945446246325, -7619.195594691706, 10750.9879173026, 74380.68233498125, 42642.1663334568, -187500.02235174447, 65115.68309255637, 72072.59649903733, 69004.41724114624, 4871.070965656158, 13432.99608623935, 76289.63307018674, 39389.719294276154, 15424.33535150711, 9032.429341367406, 0.132, 1.01, 0.074, 192.0, 0.0, 0.0, 0.0, 0.0, 0.0, 0.0, 0.0, 0.0, 0.0, 1.695422339570343E9, 0.0, 2023-09-22 17:38:59.570
246.0, -129457.16881241428, 56477.85144780296, -7615.172280689751, 10706.083262691887, 74279.1830634097, 42640.60171134493, -187500.02235174447, 65037.47433870725, 71965.15166344067, 68992.8390375184, 4847.132247344523, 13438.941650264462, 76284.78274163995, 39400.31402114797, 15434.460691745364, 9009.004713178243, 0.132, 1.01, 0.074, 192.0, 0.0, 0.0, 0.0, 0.0, 0.0, 0.0, 0.0, 0.0, 0.0, 1.695422339570346E9, 0.0, 2023-09-22 17:38:59.570
248.0, -129271.44816773513, 56584.93865548833, -7623.464777882669, 10748.663335879248, 74392.93109094276, 42637.13719095435, -187500.02235174447, 65125.74137756126, 72052.8599086833, 68984.4347816032, 4857.034070138225, 13420.3673506221, 76277.87605260326, 39374.140128390805, 15420.066168316147, 9016.872527226511, 0.126, 1.006, 0.078, 192.0, 1.5, 120.0, 15.5, 56.0, 1.0, 56.0, 0.0, 0.0, 0.0, 1.69542233957035E9, 0.0, 2023-09-22 17:38:59.570
250.0, -129445.85882971989, 56473.06817448953, -7611.998332977097, 10691.465221818116, 74267.24723187057, 42632.57743508547, -187500.02235174447, 65031.282905493135, 71967.81152103085, 68997.041165476, 4844.405334520976, 13440.506272376333, 76287.77787539696, 39399.95639323669, 15436.58410746862, 8998.387634561972, 0.126, 1.006, 0.078, 192.0, 0.0, 0.0, 0.0, 0.0, 0.0, 0.0, 0.0, 0.0, 0.0, 1.695422339570353E9, 0.0, 2023-09-22 17:38:59.570
252.0, -129280.92530738418, 56572.01934719317, -7622.7495220600995, 10752.038449291998, 74393.69105025423, 42647.19547595924, -187500.02235174447, 65121.047511225646, 72048.27780106995, 68990.00036597256, 4860.00685215078, 13428.838661770662, 76286.97321259657, 39381.73972150561, 15429.67741843193, 9019.55473656115, 0.126, 1.006, 0.078, 192.0, 0.0, 0.0, 0.0, 0.0, 0.0, 0.0, 0.0, 0.0, 0.0, 1.695422339570356E9, 0.0, 2023-09-22 17:38:59.570
254.0, -129435.50997203708, 56459.9253487498, -7609.204364920183, 10686.30196884894, 74250.55047876245, 42638.835923532955, -187500.02235174447, 65038.279001507646, 71981.82606480432, 68980.63498504579, 4839.443247251898, 13426.782301280773, 76285.2074247846, 39385.830090740936, 15433.633677200518, 9001.002788663243, 0.126, 1.006, 0.078, 192.0, 0.0, 0.0, 0.0, 0.0, 0.0, 0.0, 0.0, 0.0, 0.0, 1.695422339570359E9, 0.0, 2023-09-22 17:38:59.570
0.0, -129288.01081037651, 56561.15639938789, -7626.772836062055, 10756.12881852732, 74394.24984386562, 42643.239217190654, -187500.02235174447, 65126.501336872745, 72038.48773699853, 68981.37259261282, 4857.078773627135, 13426.51408034731, 76289.007221342, 39375.83886096941, 15425.743511407794, 9010.21170737883, 0.126, 1.006, 0.078, 192.0, 0.0, 0.0, 0.0, 0.0, 0.0, 0.0, 0.0, 0.0, 0.0, 1.695422339630555E9, 0.0, 2023-09-22 17:38:59.630
2.0, -129419.97550964064, 56464.9768429967, -7598.967265959653, 10688.626550272293, 74239.79928967945, 42649.78827831606, -187500.02235174447, 65040.558879442084, 71998.07578302333, 68985.17238917023, 4844.561796732163, 13429.822138526695, 76281.58644218283, 39385.87479422984, 15430.057398087669, 8992.442070536861, 0.124, 1.01, 0.074, 192.0, 1.5, 112.0, 15.5, 72.0, 1.0, 40.0, 0.0, 0.0, 0.0, 1.695422339630566E9, 0.0, 2023-09-22 17:38:59.630
4.0, -129291.36357204481, 56551.835721950025, -7630.751446575099, 10758.69926913968, 74376.52491051255, 42652.045804506044, -187500.02235174447, 65127.21659269531, 72034.12914682974, 68979.74091526758, 4856.832904438127, 13425.664714058008, 76287.1073230633, 39376.867041214355, 15435.801796412683, 9011.753977746246, 0.124, 1.01, 0.074, 192.0, 0.0, 0.0, 0.0, 0.0, 0.0, 0.0, 0.0, 0.0, 0.0, 1.69542233963057E9, 0.0, 2023-09-22 17:38:59.630
6.0, -129410.83364615843, 56472.10704947794, -7582.695195996189, 10689.051233416943, 74230.76918491951, 42663.378138944885, -187500.02235174447, 65025.11382402347, 72004.62484414874, 68979.56210131194, 4841.521959486242, 13426.402321625033, 76281.8546631163, 39383.147881406294, 15441.568546482153, 8998.678207239891, 0.124, 1.01, 0.074, 192.0, 0.0, 0.0, 0.0, 0.0, 0.0, 0.0, 0.0, 0.0, 0.0, 1.695422339630573E9, 0.0, 2023-09-22 17:38:59.630
8.0, -129320.73376425909, 56542.403285789886, -7626.392856406314, 10757.335812727906, 74371.07108486547, 42662.23819997766, -187500.02235174447, 65102.74143251675, 72024.56260020287, 68989.9333107392, 4863.180799863434, 13433.51017636182, 76292.73996266603, 39388.86992798685, 15452.565604754163, 9018.772425505213, 0.124, 1.01, 0.074, 192.0, 0.0, 0.0, 0.0, 0.0, 0.0, 0.0, 0.0, 0.0, 0.0, 1.695422339630577E9, 0.0, 2023-09-22 17:38:59.630
10.0, -129384.2350702566, 56493.36355845494, -7591.971169945142, 10697.075509676399, 74246.23659208258, 42664.272208723094, -187500.02235174447, 65036.2002892733, 72023.04268157991, 68990.7379735396, 4850.641471224007, 13431.364408894111, 76276.73611363604, 39390.635715798824, 15443.2449273163, 9001.092195641064, 0.124, 1.01, 0.074, 192.0, 0.0, 0.0, 0.0, 0.0, 0.0, 0.0, 0.0, 0.0, 0.0, 1.695422339630581E9, 0.0, 2023-09-22 17:38:59.630
12.0, -129327.3275288734, 56538.46937876575, -7627.577498862446, 10757.872254594833, 74351.803881145, 42662.39466218885, -187500.02235174447, 65087.38578407595, 71997.13700975622, 68987.56402582694, 4854.418916036954, 13428.391626881556, 76274.72445663506, 39388.333486119926, 15442.261450560267, 9006.747186988257, 0.126, 1.006, 0.078, 192.0, 1.5, 120.0, 15.5, 56.0, 1.0, 56.0, 0.0, 0.0, 0.0, 1.695422339630584E9, 0.0, 2023-09-22 17:38:59.630
14.0, -129359.15641297775, 56512.92133485334, -7594.832193235421, 10704.876268491302, 74246.68362697169, 42669.48016518118, -187500.02235174447, 65027.03607404663, 72018.41587047766, 68993.30842415195, 4852.63077648053, 13426.93876349196, 76273.31629673437, 39394.904898989786, 15434.237174300812, 8998.745262473258, 0.126, 1.006, 0.078, 192.0, 0.0, 0.0, 0.0, 0.0, 0.0, 0.0, 0.0, 0.0, 0.0, 1.695422339689945E9, 0.0, 2023-09-22 17:38:59.689
16.0, -129358.30704668845, 56528.1428728274, -7625.185862205728, 10756.486446438605, 74340.56095368398, 42666.797955846545, -187500.02235174447, 65059.04377210663, 71981.37902991522, 68999.27633992152, 4858.442230038909, 13431.163243194014, 76280.87118636027, 39401.85629151539, 15437.254659802278, 9003.193259619864, 0.126, 1.006, 0.078, 192.0, 0.0, 0.0, 0.0, 0.0, 0.0, 0.0, 0.0, 0.0, 0.0, 1.695422339689967E9, 0.0, 2023-09-22 17:38:59.689
18.0, -129334.21186616563, 56533.35082928549, -7600.196611904695, 10712.565268583927, 74269.77297899402, 42663.89222906736, -187500.02235174447, 65036.446158462306, 72035.22438230805, 68997.10822070936, 4859.8056864506825, 13423.630705312575, 76271.81872985586, 39394.70373328969, 15422.569563695142, 9004.042625909166, 0.126, 1.006, 0.078, 192.0, 0.0, 0.0, 0.0, 0.0, 0.0, 0.0, 0.0, 0.0, 0.0, 1.695422339689971E9, 0.0, 2023-09-22 17:38:59.689
20.0, -129392.95225059417, 56509.45681446276, -7617.474510368647, 10746.875196322822, 74322.52309590855, 42665.322740712494, -187500.02235174447, 65057.38974301693, 71976.57340485734, 69002.1373632118, 4864.4995527862975, 13431.543222849754, 76284.89450036222, 39406.7513235511, 15437.38877026901, 9008.378864333496, 0.126, 1.006, 0.078, 192.0, 0.0, 0.0, 0.0, 0.0, 0.0, 0.0, 0.0, 0.0, 0.0, 1.695422339689975E9, 0.0, 2023-09-22 17:38:59.689
22.0, -129311.68130775468, 56546.00191664719, -7608.489109097613, 10716.141547696776, 74289.01783097003, 42651.19643821674, -187500.02235174447, 65068.52091175567, 72044.61211497929, 68998.60578758786, 4863.337262074621, 13407.179821393469, 76270.9470118221, 39384.57839305144, 15412.198354267879, 9008.647085266959, 0.128, 1.012, 0.08, 192.0, 2.0, 0.0, 15.5, 80.0, 1.0, 64.0, 0.0, 0.0, 0.0, 1.695422339689979E9, 0.0, 2023-09-22 17:38:59.689
24.0, -129380.27881148802, 56496.7833753566, -7629.522100630057, 10727.049198990966, 74319.21503772915, 42644.692080580244, -187500.02235174447, 65049.097245824014, 71955.89804123617, 68981.68551703519, 4845.098238599091, 13401.681292257465, 76269.74001762153, 39388.10996867537, 15417.00397932577, 8994.96781766031, 0.128, 1.012, 0.08, 192.0, 0.0, 0.0, 0.0, 0.0, 0.0, 0.0, 0.0, 0.0, 0.0, 1.695422339689982E9, 0.0, 2023-09-22 17:38:59.689
26.0, -129265.70376941012, 56550.494617282704, -7614.07704521144, 10713.347579639862, 74334.88361059233, 42642.903941023826, -187500.02235174447, 65067.82800767756, 72048.72483595906, 68981.43964784619, 4851.423782279942, 13388.22554209537, 76265.11320651928, 39379.32573310444, 15397.289740716189, 8997.851192695045, 0.128, 1.012, 0.08, 192.0, 0.0, 0.0, 0.0, 0.0, 0.0, 0.0, 0.0, 0.0, 0.0, 1.695422339689985E9, 0.0, 2023-09-22 17:38:59.689
28.0, -129404.95513736668, 56471.145924466364, -7620.290830170015, 10719.851937276357, 74310.85548530286, 42646.43551664776, -187500.02235174447, 65019.97292279875, 71964.63757331819, 68989.44157236119, 4853.860122425571, 13410.711397017409, 76285.87797711826, 39411.91457652028, 15424.916496862948, 8991.30213156964, 0.128, 1.012, 0.08, 192.0, 0.0, 0.0, 0.0, 0.0, 0.0, 0.0, 0.0, 0.0, 0.0, 1.695422339689989E9, 0.0, 2023-09-22 17:38:59.689
30.0, -129262.14984204172, 56557.73658248623, -7618.659152824778, 10729.731408325602, 74351.89328812281, 42645.58615035846, -187500.02235174447, 65049.790149902125, 72062.06882739888, 68994.29190090799, 4864.164276619467, 13393.902885187017, 76273.36100022329, 39389.78634950952, 15398.80965933915, 8999.527573529193, 0.128, 1.012, 0.08, 192.0, 0.0, 0.0, 0.0, 0.0, 0.0, 0.0, 0.0, 0.0, 0.0, 1.695422339749754E9, 0.0, 2023-09-22 17:38:59.749
32.0, -129402.20587279867, 56466.74263080867, -7626.41520815077, 10713.504041851049, 74300.73014506462, 42636.22076943168, -187500.02235174447, 64989.37338463943, 71953.52875632391, 68995.23067417511, 4849.479180512331, 13402.664769013498, 76276.24437525801, 39408.673573574255, 15414.411176968953, 8983.031986121177, 0.124, 1.012, 0.078, 192.0, 1.5, 112.0, 15.5, 80.0, 1.0, 56.0, 0.0, 0.0, 0.0, 1.695422339749769E9, 0.0, 2023-09-22 17:38:59.749
34.0, -129223.34721366731, 56566.945501201815, -7620.000257492096, 10739.11914099683, 74381.86697743738, 42644.0662317355, -187500.02235174447, 65059.1555308289, 72056.88322268525, 68977.34927861087, 4858.732802716828, 13378.904864657507, 76260.5981541393, 39380.577430793935, 15396.172153493424, 8995.59366650506, 0.124, 1.012, 0.078, 192.0, 0.0, 0.0, 0.0, 0.0, 0.0, 0.0, 0.0, 0.0, 0.0, 1.695422339749774E9, 0.0, 2023-09-22 17:38:59.749
36.0, -129392.05818081596, 56457.01962197061, -7611.46189111017, 10709.011341215533, 74291.43181937121, 42645.98848175866, -187500.02235174447, 64989.86512301745, 71959.11669243773, 68984.65829904775, 4849.210959578867, 13399.759042234307, 76270.11999727726, 39409.38882939683, 15419.57442993813, 8988.597570490549, 0.124, 1.012, 0.078, 192.0, 0.0, 0.0, 0.0, 0.0, 0.0, 0.0, 0.0, 0.0, 0.0, 1.695422339749778E9, 0.0, 2023-09-22 17:38:59.749
38.0, -129222.43079214465, 56561.15639938789, -7611.752463788089, 10749.088019023899, 74385.84558795042, 42654.25862720712, -187500.02235174447, 65076.299318826124, 72054.06690288387, 68988.21222641614, 4856.877607927037, 13386.213885094392, 76263.12390126275, 39391.64154429931, 15405.3363687201, 9012.759806246735, 0.124, 1.012, 0.078, 192.0, 0.0, 0.0, 0.0, 0.0, 0.0, 0.0, 0.0, 0.0, 0.0, 1.695422339749781E9, 0.0, 2023-09-22 17:38:59.749
40.0, -129406.87738738983, 56452.25870040163, -7604.108167184373, 10708.31843713742, 74267.11312140383, 42663.84752557844, -187500.02235174447, 65004.572570869044, 71968.01268673094, 68998.60578758786, 4852.5860729916185, 13408.722091760887, 76278.94893633711, 39423.85040805941, 15432.069055088647, 9007.708311999835, 0.124, 1.012, 0.078, 192.0, 0.0, 0.0, 0.0, 0.0, 0.0, 0.0, 0.0, 0.0, 0.0, 1.695422339749785E9, 0.0, 2023-09-22 17:38:59.749
42.0, -129201.77778026793, 56573.56161756058, -7633.7018768432, 10758.65456565077, 74401.76003000261, 42646.36846141439, -187500.02235174447, 65112.017406465704, 72047.29432431392, 68981.7302205241, 4852.63077648053, 13377.004966378805, 76254.22790696954, 39385.8971459743, 15393.936979047892, 9012.06690216862, 0.12, 1.014, 0.08, 192.0, 1.5, 96.0, 15.5, 88.0, 1.0, 64.0, 0.0, 0.0, 0.0, 1.695422339749789E9, 0.0, 2023-09-22 17:38:59.749
44.0, -129393.06400931645, 56452.325755635, -7606.79037651901, 10696.427309087196, 74260.49700504506, 42656.82907781948, -187500.02235174447, 65004.46081214677, 71964.0340762179, 68992.6378718183, 4840.918462385948, 13400.787222479252, 76268.22009899856, 39420.40823941329, 15416.847517114582, 8995.750128716247, 0.12, 1.014, 0.08, 192.0, 0.0, 0.0, 0.0, 0.0, 0.0, 0.0, 0.0, 0.0, 0.0, 1.695422339810168E9, 0.0, 2023-09-22 17:38:59.810
46.0, -129219.12273396525, 56561.558730788085, -7631.936089031231, 10757.805199361468, 74409.24786439513, 42645.94377826974, -187500.02235174447, 65102.00382494972, 72038.53244048744, 68981.0820199349, 4850.7085264573725, 13375.842675667129, 76259.56997389437, 39387.573526808446, 15398.295569216678, 9014.860870225533, 0.12, 1.014, 0.08, 192.0, 0.0, 0.0, 0.0, 0.0, 0.0, 0.0, 0.0, 0.0, 0.0, 1.695422339810182E9, 0.0, 2023-09-22 17:38:59.810
48.0, -129377.26132598655, 56456.17025568131, -7602.297675883494, 10693.231009630086, 74266.46492081463, 42659.2207144762, -187500.02235174447, 65009.534658138116, 71971.41015188815, 68990.7826770285, 4841.38784901951, 13388.27024558428, 76267.68365713164, 39407.42187588476, 15411.52780193422, 8997.314750828118, 0.12, 1.014, 0.08, 192.0, 0.0, 0.0, 0.0, 0.0, 0.0, 0.0, 0.0, 0.0, 0.0, 1.695422339810186E9, 0.0, 2023-09-22 17:38:59.810
50.0, -129235.75243184001, 56558.831817964536, -7627.711609329178, 10767.885836110812, 74404.19637014823, 42668.742557614154, -187500.02235174447, 65098.27108362569, 72028.83178339383, 68999.72337481062, 4861.482067284831, 13387.644396739532, 76269.56120366589, 39402.43743687122, 15411.237229256301, 9019.867660983522, 0.12, 1.014, 0.08, 192.0, 0.0, 0.0, 0.0, 0.0, 0.0, 0.0, 0.0, 0.0, 0.0, 1.695422339810189E9, 0.0, 2023-09-22 17:38:59.810
52.0, -129348.71814831713, 56474.655148345846, -7614.725245800644, 10692.895733463256, 74261.70399924566, 42653.7668888291, -187500.02235174447, 65028.10895778048, 71987.41400091816, 68993.2860724075, 4840.806703663672, 13382.83877168164, 76258.98882853852, 39407.84655902941, 15403.883505330505, 9004.35555033154, 0.11800000000000001, 1.014, 0.074, 192.0, 1.5, 88.0, 15.5, 88.0, 1.0, 40.0, 0.0, 0.0, 0.0, 1.695422339810192E9, 0.0, 2023-09-22 17:38:59.810
54.0, -129244.29079822193, 56553.35564057298, -7634.9535745326975, 10767.304690754974, 74392.48405605365, 42659.734804598666, -187500.02235174447, 65108.44112735285, 72011.48682969651, 68998.42697363222, 4850.440305523909, 13387.59969325062, 76264.57676465235, 39408.47240787416, 15406.006921053759, 9013.944448702867, 0.11800000000000001, 1.014, 0.074, 192.0, 0.0, 0.0, 0.0, 0.0, 0.0, 0.0, 0.0, 0.0, 0.0, 1.695422339810195E9, 0.0, 2023-09-22 17:38:59.810
56.0, -129325.51703757251, 56491.95539855426, -7604.756367773577, 10697.231971887586, 74254.61849625332, 42648.20130445973, -187500.02235174447, 65045.476263222256, 71997.58404464532, 68992.25789216255, 4837.76686641775, 13381.855294925606, 76252.03743601292, 39402.19156768222, 15397.62501688302, 8995.079576382586, 0.11800000000000001, 1.014, 0.074, 192.0, 0.0, 0.0, 0.0, 0.0, 0.0, 0.0, 0.0, 0.0, 0.0, 1.695422339810198E9, 0.0, 2023-09-22 17:38:59.810
58.0, -129259.84761236282, 56542.93972765681, -7630.215004708172, 10764.823647120435, 74387.03023040656, 42658.05842376452, -187500.02235174447, 65106.38476686297, 71997.42758243413, 69000.036299233, 4862.040860896213, 13394.484030542855, 76274.74680837951, 39410.86404453088, 15416.311075247655, 9011.843384724067, 0.11800000000000001, 1.014, 0.074, 192.0, 0.0, 0.0, 0.0, 0.0, 0.0, 0.0, 0.0, 0.0, 0.0, 1.695422339810202E9, 0.0, 2023-09-22 17:38:59.810
60.0, -129306.31688908541, 56502.617180659436, -7598.386120603815, 10702.149355667754, 74275.11504591884, 42655.6667871078, -187500.02235174447, 65047.24205103422, 72007.70938488358, 68987.16169442674, 4850.283843312722, 13379.17308559097, 76254.07144475836, 39404.31498340547, 15403.078842530114, 9004.422605564905, 0.11800000000000001, 1.014, 0.074, 192.0, 0.0, 0.0, 0.0, 0.0, 0.0, 0.0, 0.0, 0.0, 0.0, 1.695422339870427E9, 0.0, 2023-09-22 17:38:59.870
62.0, -129266.66489442169, 56537.642364220905, -7636.31703094447, 10761.292071496497, 74383.72217222716, 42646.61433060341, -187500.02235174447, 65104.484868584266, 71987.21283521806, 68994.67188056372, 4857.637567238518, 13388.203190350914, 76266.9460495646, 39410.640527086325, 15417.67453165943, 9014.615001036525, 0.122, 1.016, 0.074, 192.0, 1.5, 104.0, 15.5, 96.0, 1.0, 40.0, 0.0, 0.0, 0.0, 1.695422339870437E9, 0.0, 2023-09-22 17:38:59.870
64.0, -129261.43458621915, 56517.77166340013, -7607.6620945527675, 10705.9268004807, 74282.5805285669, 42647.79897305954, -187500.02235174447, 65067.135103599445, 72013.72200414205, 68989.95566248366, 4839.510302485264, 13366.521998229266, 76243.67788358664, 39395.50839609008, 15396.686243615895, 8998.030006650688, 0.122, 1.016, 0.074, 192.0, 0.0, 0.0, 0.0, 0.0, 0.0, 0.0, 0.0, 0.0, 0.0, 1.695422339870441E9, 0.0, 2023-09-22 17:38:59.870
66.0, -129286.75911268701, 56511.96020984176, -7628.0915889849175, 10754.184216759708, 74344.02547407454, 42650.659996349816, -187500.02235174447, 65085.86586545299, 71973.24299493349, 68993.57664508541, 4846.238177566312, 13377.250835567813, 76258.09475876032, 39409.18766369673, 15411.99718856778, 9007.462442810827, 0.122, 1.016, 0.074, 192.0, 0.0, 0.0, 0.0, 0.0, 0.0, 0.0, 0.0, 0.0, 0.0, 1.695422339870444E9, 0.0, 2023-09-22 17:38:59.870
68.0, -129246.79419360093, 56523.67252393634, -7600.867164238354, 10718.443777375673, 74267.78367373749, 42649.117725982396, -187500.02235174447, 65061.52481574116, 72023.06503332437, 68988.45809560515, 4846.327584544133, 13362.275166782758, 76246.53890687691, 39399.15173043629, 15394.965159292837, 9005.16021313193, 0.122, 1.016, 0.074, 192.0, 0.0, 0.0, 0.0, 0.0, 0.0, 0.0, 0.0, 0.0, 0.0, 1.695422339870447E9, 0.0, 2023-09-22 17:38:59.870
70.0, -129329.60740680783, 56491.41895668733, -7624.671772083256, 10749.959737057656, 74302.29476717649, 42656.2702842081, -187500.02235174447, 65057.2556325502, 71967.3868378862, 68998.40462188776, 4855.111820115068, 13384.984539149349, 76266.7448838645, 39422.241082458626, 15418.076863059625, 9012.245716124264, 0.122, 1.016, 0.074, 192.0, 0.0, 0.0, 0.0, 0.0, 0.0, 0.0, 0.0, 0.0, 0.0, 1.69542233987045E9, 0.0, 2023-09-22 17:38:59.870
72.0, -129225.26946369046, 56546.98539340322, -7625.722304072655, 10723.249402433563, 74285.12862743481, 42646.659034092314, -187500.02235174447, 65096.080612669066, 72032.02808285094, 68988.21222641614, 4847.109895600069, 13354.742628901318, 76237.26293292796, 39391.64154429931, 15379.207179451845, 9010.815204479124, 0.126, 1.01, 0.076, 192.0, 1.5, 120.0, 15.5, 72.0, 1.0, 48.0, 0.0, 0.0, 0.0, 1.695422339870453E9, 0.0, 2023-09-22 17:38:59.870
74.0, -129312.68713625518, 56497.20805850125, -7643.961327548186, 10735.207585717153, 74269.01301968253, 42654.34803418494, -187500.02235174447, 65089.59860677703, 71941.39175908468, 68986.9828804711, 4835.352878016577, 13369.718297686375, 76246.02481675445, 39411.44518988671, 15393.400537180965, 9000.421643307405, 0.126, 1.01, 0.076, 192.0, 0.0, 0.0, 0.0, 0.0, 0.0, 0.0, 0.0, 0.0, 0.0, 1.695422339930701E9, 0.0, 2023-09-22 17:38:59.930
76.0, -129165.16562285014, 56572.39932684891, -7635.1323884883395, 10729.9325740257, 74269.21418538263, 42646.77079281459, -187500.02235174447, 65140.31471494612, 72026.3507397593, 68978.31040362244, 4833.05064833768, 13345.243137507814, 76225.75178453348, 39383.75137850659, 15365.550263589654, 8999.549925273648, 0.126, 1.01, 0.076, 192.0, 0.0, 0.0, 0.0, 0.0, 0.0, 0.0, 0.0, 0.0, 0.0, 1.695422339930714E9, 0.0, 2023-09-22 17:38:59.930
78.0, -129323.527732316, 56483.394680427875, -7618.457987124681, 10726.132777468298, 74208.48449569756, 42662.64053137786, -187500.02235174447, 65074.68999322534, 71935.49089854848, 68989.39686887227, 4835.1517123164795, 13372.378155276556, 76249.35522667828, 39419.13418997934, 15400.508391917754, 8996.532439772182, 0.126, 1.01, 0.076, 192.0, 0.0, 0.0, 0.0, 0.0, 0.0, 0.0, 0.0, 0.0, 0.0, 1.695422339930717E9, 0.0, 2023-09-22 17:38:59.930
80.0, -129196.12278892075, 56567.92897795785, -7608.757330031077, 10748.953908557167, 74254.10440613085, 42666.75325235764, -187500.02235174447, 65122.299208915145, 72050.7588447045, 69003.54552311248, 4864.34309057511, 13365.6055767066, 76248.7964330669, 39407.95831775168, 15391.120659246524, 9021.49933832876, 0.126, 1.01, 0.076, 192.0, 0.0, 0.0, 0.0, 0.0, 0.0, 0.0, 0.0, 0.0, 0.0, 1.69542233993072E9, 0.0, 2023-09-22 17:38:59.930
82.0, -129356.72007283212, 56473.42580240081, -7617.474510368647, 10730.178443214709, 74194.69346936863, 42660.58417088797, -187500.02235174447, 65061.10013259651, 71956.72505578102, 68997.39879338727, 4850.216788079356, 13374.41216402199, 76253.26678195797, 39420.27412894656, 15404.442298941887, 9004.668474753915, 0.13, 1.014, 0.07200000000000001, 192.0, 2.0, 8.0, 15.5, 88.0, 1.0, 32.0, 0.0, 0.0, 0.0, 1.695422339930724E9, 0.0, 2023-09-22 17:38:59.930
84.0, -129170.66415198614, 56584.3575101325, -7627.711609329178, 10760.643870907292, 74293.71169730565, 42653.565723129, -187500.02235174447, 65140.44882541285, 72050.3118098154, 68989.97801422811, 4851.133209602023, 13347.59007067562, 76229.12689794623, 39385.87479422984, 15374.647423582963, 9009.675265511903, 0.13, 1.014, 0.07200000000000001, 192.0, 0.0, 0.0, 0.0, 0.0, 0.0, 0.0, 0.0, 0.0, 0.0, 1.695422339930727E9, 0.0, 2023-09-22 17:38:59.930
86.0, -129360.40811066725, 56466.541465108574, -7605.538678829513, 10718.26496342003, 74198.64972813723, 42668.65315063634, -187500.02235174447, 65049.29841152411, 71947.20321264306, 68996.8399997759, 4836.023430350236, 13366.11966682907, 76245.1530987207, 39418.93302427924, 15401.178944251413, 8996.934771172379, 0.13, 1.014, 0.07200000000000001, 192.0, 0.0, 0.0, 0.0, 0.0, 0.0, 0.0, 0.0, 0.0, 0.0, 1.69542233993073E9, 0.0, 2023-09-22 17:38:59.930
88.0, -129189.3949138397, 56575.66268153938, -7624.180033705239, 10765.896530854288, 74309.22380795763, 42659.06425226501, -187500.02235174447, 65140.35941843503, 72049.01540863699, 69001.86914227833, 4859.135134117024, 13354.183835289936, 76241.15213646319, 39402.728009549144, 15386.42679291091, 9018.615963294025, 0.13, 1.014, 0.07200000000000001, 192.0, 0.0, 0.0, 0.0, 0.0, 0.0, 0.0, 0.0, 0.0, 0.0, 1.695422339930733E9, 0.0, 2023-09-22 17:38:59.930
90.0, -129368.34297994888, 56466.74263080867, -7609.114957942362, 10712.364102883828, 74179.06959999439, 42656.940836541755, -187500.02235174447, 65043.375199243455, 71964.52581459592, 68999.65631957726, 4843.041878109202, 13363.45980923889, 76243.11908997525, 39415.8037800555, 15395.926284304416, 8991.927980414388, 0.13, 1.014, 0.07200000000000001, 192.0, 0.0, 0.0, 0.0, 0.0, 0.0, 0.0, 0.0, 0.0, 0.0, 1.695422339990093E9, 0.0, 2023-09-22 17:38:59.990
92.0, -129167.69136997359, 56584.64808281042, -7648.029345039052, 10766.522379699038, 74317.24808421709, 42644.24504569114, -187500.02235174447, 65128.40123515144, 72036.43137650864, 68992.25789216255, 4853.211921836367, 13342.002134561793, 76227.78579327892, 39387.84174774191, 15372.009917737238, 9002.54505903066, 0.132, 1.01, 0.07, 192.0, 2.0, 16.0, 15.5, 72.0, 1.0, 24.0, 0.0, 0.0, 0.0, 1.695422339990102E9, 0.0, 2023-09-22 17:38:59.990
94.0, -129343.06315696993, 56464.373345896405, -7607.416225363759, 10704.429233602195, 74158.81891951787, 42658.907790053825, -187500.02235174447, 65002.38209991242, 71955.31689588033, 68994.00132823006, 4829.943755858392, 13351.948660844406, 76228.09871770129, 39410.88639627533, 15378.558978862642, 8980.841515164557, 0.132, 1.01, 0.07, 192.0, 0.0, 0.0, 0.0, 0.0, 0.0, 0.0, 0.0, 0.0, 0.0, 1.695422339990106E9, 0.0, 2023-09-22 17:38:59.990
96.0, -129193.03824818591, 56564.978547689745, -7630.751446575099, 10773.205551291174, 74303.1888369547, 42663.40049068934, -187500.02235174447, 65085.32942358607, 72037.14663233122, 69002.11501146735, 4858.039898638714, 13350.853425366096, 76236.5476771054, 39403.21974792716, 15379.788324807683, 9012.089253913076, 0.132, 1.01, 0.07, 192.0, 0.0, 0.0, 0.0, 0.0, 0.0, 0.0, 0.0, 0.0, 0.0, 1.695422339990109E9, 0.0, 2023-09-22 17:38:59.990
98.0, -129354.06021524195, 56461.60172958395, -7598.877858981831, 10701.411748100729, 74152.51572758147, 42666.41797619081, -187500.02235174447, 64991.5415038516, 71977.31101242435, 69001.24329343358, 4840.67259319694, 13354.720277156865, 76237.08411897231, 39416.76490506708, 15389.421926667921, 8994.610189749026, 0.132, 1.01, 0.07, 192.0, 0.0, 0.0, 0.0, 0.0, 0.0, 0.0, 0.0, 0.0, 0.0, 1.695422339990112E9, 0.0, 2023-09-22 17:38:59.990
100.0, -129223.9507107676, 56550.82989344954, -7639.89331005732, 10764.555426186971, 74297.13151420731, 42655.77854583008, -187500.02235174447, 65084.27889159667, 72024.80846939188, 68997.44349687618, 4851.535541002219, 13341.063361294671, 76237.70996781706, 39400.001096725595, 15382.649348097963, 9007.663608510926, 0.132, 1.01, 0.07, 192.0, 0.0, 0.0, 0.0, 0.0, 0.0, 0.0, 0.0, 0.0, 0.0, 1.695422339990115E9, 0.0, 2023-09-22 17:38:59.990
102.0, -129336.02235746651, 56468.5307703651, -7613.8311760224315, 10693.789803241469, 74153.38744561523, 42643.70860382421, -187500.02235174447, 65013.28975120661, 71981.22256770404, 68994.0907352079, 4829.273203524734, 13334.179024002437, 76228.76927003494, 39401.543367093014, 15379.050717240658, 8986.228285578285, 0.13, 1.012, 0.076, 192.0, 2.0, 8.0, 15.5, 80.0, 1.0, 48.0, 0.0, 0.0, 0.0, 1.695422339990118E9, 0.0, 2023-09-22 17:38:59.990
104.0, -129232.48907714953, 56539.22933807723, -7645.593004893423, 10761.783809874512, 74294.06932521693, 42644.982653258165, -187500.02235174447, 65108.26231339721, 71992.48784690951, 68986.1335141818, 4839.19737806289, 13332.145015257003, 76224.52243858844, 39390.3451431209, 15370.646461325463, 8993.716119970813, 0.13, 1.012, 0.076, 192.0, 0.0, 0.0, 0.0, 0.0, 0.0, 0.0, 0.0, 0.0, 0.0, 1.695422340049942E9, 0.0, 2023-09-22 17:39:00.049
106.0, -129300.05840063792, 56484.9816542842, -7613.31708589996, 10702.484631834583, 74172.54289061343, 42643.32862416848, -187500.02235174447, 65063.424714019864, 71992.68901260961, 68992.14613344027, 4834.034125093714, 13333.195547246403, 76220.96851122004, 39399.62111706986, 15367.114885701525, 8983.277855310185, 0.13, 1.012, 0.076, 192.0, 0.0, 0.0, 0.0, 0.0, 0.0, 0.0, 0.0, 0.0, 0.0, 1.695422340049954E9, 0.0, 2023-09-22 17:39:00.049
108.0, -129239.28400746394, 56532.881442651924, -7635.154740232795, 10770.61274893436, 74290.29188040398, 42650.928217283275, -187500.02235174447, 65129.362360163024, 71985.4470474061, 68988.2792816495, 4842.348974031088, 13336.190681003414, 76225.68472930012, 39398.57058508046, 15370.668813069919, 8992.844401937056, 0.13, 1.012, 0.076, 192.0, 0.0, 0.0, 0.0, 0.0, 0.0, 0.0, 0.0, 0.0, 0.0, 1.695422340049957E9, 0.0, 2023-09-22 17:39:00.049
110.0, -129277.79606316044, 56500.1361370249, -7602.0294549500295, 10712.766434284023, 74173.68282958065, 42654.12451674038, -187500.02235174447, 65079.585025261054, 72010.19042851811, 68999.16458119925, 4846.953433388881, 13338.537614171222, 76227.80814502337, 39403.93500374973, 15376.793191050672, 8992.151497858942, 0.13, 1.012, 0.076, 192.0, 0.0, 0.0, 0.0, 0.0, 0.0, 0.0, 0.0, 0.0, 0.0, 1.69542234004996E9, 0.0, 2023-09-22 17:39:00.049
112.0, -129247.28593197894, 56521.929087868826, -7631.712571586678, 10770.9927285901, 74273.3269063624, 42660.02537727659, -187500.02235174447, 65133.497432887256, 71979.21091070306, 68994.56012184145, 4845.634680466018, 13337.576489159643, 76230.78092703593, 39401.85629151539, 15383.454010898355, 9000.242829351762, 0.126, 1.008, 0.07200000000000001, 192.0, 1.5, 120.0, 15.5, 64.0, 1.0, 32.0, 0.0, 0.0, 0.0, 1.695422340049964E9, 0.0, 2023-09-22 17:39:00.049
114.0, -129233.80783007239, 56514.84358487649, -7588.260780365561, 10728.725579825114, 74182.24354770702, 42671.8718018379, -187500.02235174447, 65091.45380156682, 72019.89108561171, 68991.05089796196, 4842.974822875836, 13330.82626233414, 76219.04626119688, 39398.45882635818, 15374.937996260882, 9000.332236329585, 0.126, 1.008, 0.07200000000000001, 192.0, 0.0, 0.0, 0.0, 0.0, 0.0, 0.0, 0.0, 0.0, 0.0, 1.695422340049967E9, 0.0, 2023-09-22 17:39:00.049
116.0, -129282.86990915179, 56506.70754989476, -7611.908925999275, 10780.067536838955, 74246.43775778267, 42687.16039504533, -187500.02235174447, 65098.40519409242, 71974.09236122279, 69015.74957558508, 4863.493724285809, 13366.74551567382, 76248.41645341116, 39437.95435881071, 15409.985531566803, 9025.097969186065, 0.126, 1.008, 0.07200000000000001, 192.0, 0.0, 0.0, 0.0, 0.0, 0.0, 0.0, 0.0, 0.0, 0.0, 1.69542234004997E9, 0.0, 2023-09-22 17:39:00.049
118.0, -129227.03525150243, 56535.36248628647, -7593.066405423451, 10741.756646842558, 74198.98500430406, 42675.69395013976, -187500.02235174447, 65081.39551656193, 72034.03973985193, 69010.31810168244, 4857.324642816144, 13342.560928173176, 76223.91894148814, 39412.69688757621, 15378.670737584918, 9017.83365223809, 0.126, 1.008, 0.07200000000000001, 192.0, 0.0, 0.0, 0.0, 0.0, 0.0, 0.0, 0.0, 0.0, 0.0, 1.695422340049973E9, 0.0, 2023-09-22 17:39:00.049
120.0, -129325.09235442786, 56491.97775029871, -7620.134367958828, 10764.309556997963, 74225.69533892816, 42667.62497039139, -187500.02235174447, 65057.8591296505, 71961.44127386108, 69018.63295061981, 4860.833866695627, 13363.370402261067, 76240.50393587399, 39435.294501220524, 15398.362624450045, 9012.02219867971, 0.126, 1.008, 0.07200000000000001, 192.0, 0.0, 0.0, 0.0, 0.0, 0.0, 0.0, 0.0, 0.0, 0.0, 1.695422340110064E9, 0.0, 2023-09-22 17:39:00.110
122.0, -129238.72521385257, 56536.725942698235, -7602.051806694485, 10743.611841632348, 74219.66036792521, 42662.05938602202, -187500.02235174447, 65069.77260944517, 72040.43233876614, 69003.90315102377, 4854.083639870124, 13334.134320513525, 76218.53217107442, 39399.82228276996, 15368.366583391022, 9004.064977653621, 0.126, 1.004, 0.074, 192.0, 1.5, 120.0, 15.5, 48.0, 1.0, 40.0, 0.0, 0.0, 0.0, 1.695422340110077E9, 0.0, 2023-09-22 17:39:00.110
124.0, -129338.21282842313, 56479.50547689265, -7628.896251785309, 10755.234748749108, 74234.99366462155, 42652.962226028714, -187500.02235174447, 65063.849397164515, 71949.63955278869, 68994.00132823006, 4846.998136877792, 13337.464730437367, 76223.38249962122, 39410.81934104196, 15385.28685394369, 8997.381806061483, 0.126, 1.004, 0.074, 192.0, 0.0, 0.0, 0.0, 0.0, 0.0, 0.0, 0.0, 0.0, 0.0, 1.69542234011008E9, 0.0, 2023-09-22 17:39:00.110
126.0, -129191.40657084067, 56558.00480341969, -7607.684446297222, 10753.088981281398, 74282.51347333354, 42656.672615608295, -187500.02235174447, 65118.07472921309, 72036.76665267548, 68974.60001404287, 4849.143904345501, 13310.285009179714, 76208.45153432507, 39378.85634647088, 15363.09157169957, 8993.649064737447, 0.126, 1.004, 0.074, 192.0, 0.0, 0.0, 0.0, 0.0, 0.0, 0.0, 0.0, 0.0, 0.0, 1.695422340110084E9, 0.0, 2023-09-22 17:39:00.110
128.0, -129341.40912788024, 56470.050688988056, -7605.225754407139, 10742.091923009388, 74231.21621980862, 42665.83683083497, -187500.02235174447, 65061.14483608543, 71939.51421255044, 68984.2336159031, 4849.725049701339, 13338.179986259936, 76233.0384532259, 39411.08756197543, 15394.652234870462, 8986.697672211847, 0.126, 1.004, 0.074, 192.0, 0.0, 0.0, 0.0, 0.0, 0.0, 0.0, 0.0, 0.0, 0.0, 1.695422340110087E9, 0.0, 2023-09-22 17:39:00.110
130.0, -129186.10920740476, 56564.19623663381, -7605.181050918228, 10761.336774985406, 74287.72142979162, 42659.48893540966, -187500.02235174447, 65120.0193309807, 72045.77440569096, 68992.8390375184, 4865.684195242428, 13327.764073343764, 76226.73526128952, 39391.73095127713, 15373.775705549206, 9000.958085174332, 0.126, 1.004, 0.074, 192.0, 0.0, 0.0, 0.0, 0.0, 0.0, 0.0, 0.0, 0.0, 0.0, 1.69542234011009E9, 0.0, 2023-09-22 17:39:00.110
132.0, -129331.3284911309, 56467.16731395332, -7611.171318432251, 10727.809158302445, 74213.89361785575, 42643.57449335748, -187500.02235174447, 65051.555937714096, 71943.7833957414, 68979.15976991174, 4839.800875163183, 13327.473500665845, 76221.19202866459, 39398.682343802735, 15377.262577684234, 8977.756974429723, 0.126, 1.008, 0.076, 192.0, 1.5, 120.0, 15.5, 64.0, 1.0, 48.0, 0.0, 0.0, 0.0, 1.695422340110093E9, 0.0, 2023-09-22 17:39:00.110
134.0, -129170.06065488586, 56569.91828321437, -7602.230620650127, 10768.332870999917, 74291.85650251586, 42655.2197522187, -187500.02235174447, 65112.75501403273, 72047.33902780284, 68984.0771536919, 4862.063212640669, 13320.790329073709, 76218.8897989857, 39387.68528553072, 15363.046868210658, 8992.129146114487, 0.126, 1.008, 0.076, 192.0, 0.0, 0.0, 0.0, 0.0, 0.0, 0.0, 0.0, 0.0, 0.0, 1.695422340170435E9, 0.0, 2023-09-22 17:39:00.170
136.0, -129351.64622684078, 56459.03127897159, -7599.7942805044995, 10733.017114760532, 74177.8626057938, 42659.82421157649, -187500.02235174447, 65020.28584722112, 71957.41795985913, 68996.8847032648, 4856.5199800157525, 13344.170253773958, 76227.40581362318, 39423.89511154832, 15388.505505145253, 8989.223419335296, 0.126, 1.008, 0.076, 192.0, 0.0, 0.0, 0.0, 0.0, 0.0, 0.0, 0.0, 0.0, 0.0, 1.695422340170452E9, 0.0, 2023-09-22 17:39:00.170
138.0, -129154.92852388961, 56582.85994325399, -7626.884594784331, 10779.911074627767, 74308.0838689904, 42654.34803418494, -187500.02235174447, 65115.236057667265, 72039.001827121, 68996.59413058688, 4864.544256275208, 13324.835994820118, 76201.74601098849, 39394.904898989786, 15363.024516466203, 8998.722910728802, 0.126, 1.008, 0.076, 192.0, 0.0, 0.0, 0.0, 0.0, 0.0, 0.0, 0.0, 0.0, 0.0, 1.695422340170455E9, 0.0, 2023-09-22 17:39:00.170
140.0, -129330.9261597307, 56469.760116310135, -7602.744710772599, 10718.756701798047, 74175.5603761149, 42658.93014179828, -187500.02235174447, 65004.46081214677, 71949.86307023324, 68994.15779044126, 4845.500569999286, 13338.15763451548, 76198.34854583128, 39416.47433238916, 15369.66298456943, 8974.091288339054, 0.126, 1.008, 0.076, 192.0, 0.0, 0.0, 0.0, 0.0, 0.0, 0.0, 0.0, 0.0, 0.0, 1.695422340170459E9, 0.0, 2023-09-22 17:39:00.170
142.0, -129160.22588732552, 56580.848286253015, -7625.767007561566, 10780.626330450337, 74317.20338072817, 42660.383005187876, -187500.02235174447, 65100.10392667102, 72031.80456540639, 68994.56012184145, 4866.86883769856, 13326.892355310007, 76200.36020283225, 39400.6492973148, 15361.191673420868, 8991.324483314096, 0.128, 1.012, 0.074, 192.0, 2.0, 0.0, 15.5, 80.0, 1.0, 40.0, 0.0, 0.0, 0.0, 1.695422340170462E9, 0.0, 2023-09-22 17:39:00.170
144.0, -129326.8804939843, 56473.93989252328, -7602.476489839136, 10716.92385875271, 74172.8558150358, 42662.68523486677, -187500.02235174447, 65010.89811454989, 71964.61522157374, 68984.9265199812, 4853.033107880725, 13332.703808868386, 76206.73045000201, 39420.16237022429, 15371.719345059319, 8977.131125584976, 0.128, 1.012, 0.074, 192.0, 0.0, 0.0, 0.0, 0.0, 0.0, 0.0, 0.0, 0.0, 0.0, 1.695422340170465E9, 0.0, 2023-09-22 17:39:00.170
146.0, -129163.82451818282, 56581.31767288657, -7637.7028391007, 10779.061708338466, 74334.97301757014, 42648.7153945822, -187500.02235174447, 65117.69474955735, 72031.22342005056, 68986.15586592625, 4860.789163206717, 13315.917648782452, 76209.30090061437, 39398.07884670244, 15359.939975731371, 8990.788041447167, 0.128, 1.012, 0.074, 192.0, 0.0, 0.0, 0.0, 0.0, 0.0, 0.0, 0.0, 0.0, 0.0, 1.695422340170469E9, 0.0, 2023-09-22 17:39:00.170
148.0, -129298.15850235922, 56480.15367748185, -7596.9779607031305, 10701.612913800825, 74195.00639379102, 42649.58711261596, -187500.02235174447, 65029.98650431473, 71979.70264908107, 68976.6787262772, 4836.246947794789, 13307.222820189336, 76208.49623781399, 39399.28584090303, 15359.291775142166, 8962.468381222294, 0.128, 1.012, 0.074, 192.0, 0.0, 0.0, 0.0, 0.0, 0.0, 0.0, 0.0, 0.0, 0.0, 1.695422340170472E9, 0.0, 2023-09-22 17:39:00.170
150.0, -129171.82644269783, 56560.798771476606, -7630.974964019652, 10770.813914634457, 74340.85152636189, 42649.58711261596, -187500.02235174447, 65127.7753863067, 72024.31673101387, 68968.2297668731, 4853.971881147848, 13303.646541076487, 76220.90145598668, 39392.31209663297, 15357.816560008117, 8984.954236144333, 0.128, 1.012, 0.074, 192.0, 0.0, 0.0, 0.0, 0.0, 0.0, 0.0, 0.0, 0.0, 0.0, 1.695422340230573E9, 0.0, 2023-09-22 17:39:00.230
152.0, -129267.53661245546, 56481.89711354937, -7596.352111858382, 10702.931666723689, 74202.69539388364, 42649.92238878279, -187500.02235174447, 65054.68518193784, 71990.65500386417, 68967.02277267251, 4834.570566960641, 13296.829259017619, 76210.91022621516, 39392.803835010985, 15349.054676181637, 8968.033965591665, 0.13, 1.008, 0.076, 192.0, 2.0, 8.0, 15.5, 64.0, 1.0, 48.0, 0.0, 0.0, 0.0, 1.695422340230584E9, 0.0, 2023-09-22 17:39:00.230
154.0, -129182.13059689171, 56540.57044274455, -7632.628993109345, 10771.149190801287, 74332.26845649106, 42651.57641787248, -187500.02235174447, 65121.248676925745, 72007.10588778328, 68971.62723203031, 4848.383945034021, 13302.171325942438, 76213.36891810525, 39390.568660565456, 15352.385086105478, 8981.154439586931, 0.13, 1.008, 0.076, 192.0, 0.0, 0.0, 0.0, 0.0, 0.0, 0.0, 0.0, 0.0, 0.0, 1.695422340230587E9, 0.0, 2023-09-22 17:39:00.230
156.0, -129262.03808331945, 56486.4345176738, -7602.007103205575, 10710.844184260868, 74205.55641717392, 42663.8698773229, -187500.02235174447, 65048.29258302362, 72015.04075706491, 68982.84780774688, 4839.756171674272, 13309.435642890412, 76204.9423104456, 39401.61042232638, 15351.334554116078, 8971.654948193425, 0.13, 1.008, 0.076, 192.0, 0.0, 0.0, 0.0, 0.0, 0.0, 0.0, 0.0, 0.0, 0.0, 1.69542234023059E9, 0.0, 2023-09-22 17:39:00.230
158.0, -129222.72136482256, 56528.16522457186, -7636.2499757111045, 10773.47377222464, 74313.4929911486, 42665.94858955724, -187500.02235174447, 65095.92415045788, 72000.8921028247, 68987.87695024931, 4848.875683412038, 13319.739797084309, 76210.4855430705, 39407.645393329316, 15356.833083252084, 8984.283683810674, 0.13, 1.008, 0.076, 192.0, 0.0, 0.0, 0.0, 0.0, 0.0, 0.0, 0.0, 0.0, 0.0, 1.695422340230594E9, 0.0, 2023-09-22 17:39:00.230
160.0, -129240.13337375324, 56515.00004708768, -7599.861335737865, 10719.74017855408, 74209.9150073427, 42671.625932648894, -187500.02235174447, 65050.415998746874, 72028.96589386057, 68983.65247054725, 4847.668689211451, 13313.548363870188, 76196.15807487465, 39407.53363460703, 15343.913774956916, 8973.465439494305, 0.13, 1.008, 0.076, 192.0, 0.0, 0.0, 0.0, 0.0, 0.0, 0.0, 0.0, 0.0, 0.0, 1.695422340230597E9, 0.0, 2023-09-22 17:39:00.230
162.0, -129254.21497276009, 56526.33238152652, -7624.381199405337, 10773.429068735728, 74285.57566232391, 42673.27996173858, -187500.02235174447, 65084.23418810776, 71991.99610853149, 68993.97897648561, 4862.6220062520515, 13339.454035693889, 76213.70419427207, 39432.925216308264, 15370.020612480714, 8985.40127103344, 0.128, 1.008, 0.074, 192.0, 2.0, 0.0, 15.5, 64.0, 1.0, 40.0, 0.0, 0.0, 0.0, 1.6954223402306E9, 0.0, 2023-09-22 17:39:00.230
164.0, -129192.92648946363, 56545.42077129135, -7620.6484580813, 10724.814024545434, 74242.28033331399, 42651.218789961196, -187500.02235174447, 65086.223493364276, 72039.31475154338, 68976.38815359928, 4849.613290979063, 13316.454090649378, 76188.13379861519, 39408.0030212406, 15340.516309799708, 8974.940654628355, 0.128, 1.008, 0.074, 192.0, 0.0, 0.0, 0.0, 0.0, 0.0, 0.0, 0.0, 0.0, 0.0, 1.695422340290059E9, 0.0, 2023-09-22 17:39:00.290
166.0, -129251.84568784782, 56516.29644826609, -7628.002182007097, 10753.446609192682, 74293.24231067208, 42671.35771171543, -187500.02235174447, 65090.80560097762, 71962.80473027287, 68977.21516814413, 4847.5345787447195, 13336.503605425789, 76209.54676980339, 39431.47235291867, 15369.618281080518, 8971.476134237782, 0.128, 1.008, 0.074, 192.0, 0.0, 0.0, 0.0, 0.0, 0.0, 0.0, 0.0, 0.0, 0.0, 1.695422340290071E9, 0.0, 2023-09-22 17:39:00.290
168.0, -129179.51544279045, 56544.68316372432, -7606.678617796733, 10721.908297766246, 74266.44256907018, 42671.51417392662, -187500.02235174447, 65091.744374244736, 72035.62671370825, 68970.62140352982, 4849.456828767876, 13328.524032655245, 76199.57789177631, 39422.91163479229, 15361.459894354331, 8979.276893052685, 0.128, 1.008, 0.074, 192.0, 0.0, 0.0, 0.0, 0.0, 0.0, 0.0, 0.0, 0.0, 0.0, 1.695422340290075E9, 0.0, 2023-09-22 17:39:00.290
170.0, -129279.07011259439, 56489.65316887536, -7627.689257584722, 10740.728466597613, 74299.88077877532, 42677.54914492955, -187500.02235174447, 65068.0068216332, 71961.06129420534, 68975.65054603227, 4849.501532256786, 13357.134265558037, 76224.43303161062, 39448.6608444048, 15400.039005284192, 8978.293416296652, 0.128, 1.008, 0.074, 192.0, 0.0, 0.0, 0.0, 0.0, 0.0, 0.0, 0.0, 0.0, 0.0, 1.695422340290078E9, 0.0, 2023-09-22 17:39:00.290
172.0, -129147.97713136401, 56560.95523368779, -7626.884594784331, 10723.875251278312, 74321.47256391915, 42666.373272701894, -187500.02235174447, 65118.54411584665, 72044.500356257, 68961.21131911413, 4844.070058354147, 13337.263564737268, 76199.64494700968, 39413.45684688769, 15372.479304370798, 8976.080593595576, 0.122, 1.012, 0.068, 192.0, 1.5, 104.0, 15.5, 80.0, 1.0, 16.0, 0.0, 0.0, 0.0, 1.695422340290082E9, 0.0, 2023-09-22 17:39:00.290
174.0, -129274.0633218364, 56486.72509035171, -7633.791283821021, 10721.953001255155, 74296.17038919573, 42670.77656635959, -187500.02235174447, 65085.9105689419, 71947.73965450999, 68969.50381630706, 4838.951508873882, 13371.506437242799, 76215.20176115057, 39437.95435881071, 15401.916551818438, 8963.653023678426, 0.122, 1.012, 0.068, 192.0, 0.0, 0.0, 0.0, 0.0, 0.0, 0.0, 0.0, 0.0, 0.0, 1.695422340290085E9, 0.0, 2023-09-22 17:39:00.290
176.0, -129105.26294770993, 56571.43820183733, -7638.663964112278, 10731.474844393117, 74340.38213972833, 42659.24306622065, -187500.02235174447, 65152.69758137436, 72054.13395811725, 68958.43970280167, 4849.233311323323, 13359.727067914853, 76196.60510976375, 39408.606518340894, 15385.398612665966, 8967.34106151355, 0.122, 1.012, 0.068, 192.0, 0.0, 0.0, 0.0, 0.0, 0.0, 0.0, 0.0, 0.0, 0.0, 1.695422340290088E9, 0.0, 2023-09-22 17:39:00.290
178.0, -129273.52687996947, 56466.0273749861, -7626.258745939583, 10714.912201751733, 74272.6787057732, 42674.978694317186, -187500.02235174447, 65088.92805444337, 71953.66286679065, 68962.44066505917, 4841.834883908616, 13397.523867788777, 76218.01808095194, 39438.42374544427, 15426.749339908283, 8958.087439309054, 0.122, 1.012, 0.068, 192.0, 0.0, 0.0, 0.0, 0.0, 0.0, 0.0, 0.0, 0.0, 0.0, 1.695422340290091E9, 0.0, 2023-09-22 17:39:00.290
180.0, -129106.89462505515, 56565.470286067764, -7626.996353506608, 10739.45441716366, 74349.16637529926, 42676.655075151335, -187500.02235174447, 65149.836558084084, 72057.17379536317, 68962.99945867056, 4856.564683504664, 13390.37130956308, 76211.60313029327, 39411.42283814226, 15418.658008415463, 8974.62773020598, 0.122, 1.012, 0.068, 192.0, 0.0, 0.0, 0.0, 0.0, 0.0, 0.0, 0.0, 0.0, 0.0, 1.695422340349713E9, 0.0, 2023-09-22 17:39:00.349
182.0, -129278.33250502736, 56468.284901176085, -7626.392856406314, 10706.26207664753, 74249.56700200641, 42672.65411289383, -187500.02235174447, 65054.416961004375, 71959.49667209348, 68967.73802849508, 4846.953433388881, 13416.969885464894, 76224.03070021042, 39437.57437915497, 15446.329468051134, 8960.836703877058, 0.122, 1.006, 0.07200000000000001, 192.0, 1.5, 104.0, 15.5, 56.0, 1.0, 32.0, 0.0, 0.0, 0.0, 1.695422340349726E9, 0.0, 2023-09-22 17:39:00.349
184.0, -129090.24257543596, 56582.882294998446, -7636.674658855755, 10746.562271900448, 74345.2995235085, 42668.36257795842, -187500.02235174447, 65134.123281732, 72055.92209767367, 68961.8818714478, 4852.943700902903, 13395.467507298888, 76203.35533658926, 39408.94179450772, 15423.061302073158, 8967.765744658202, 0.122, 1.006, 0.07200000000000001, 192.0, 0.0, 0.0, 0.0, 0.0, 0.0, 0.0, 0.0, 0.0, 0.0, 1.69542234034973E9, 0.0, 2023-09-22 17:39:00.349
186.0, -129282.08759809585, 56467.100258719955, -7618.703856313688, 10701.992893456567, 74215.48059171207, 42678.71143564123, -187500.02235174447, 65037.96607708527, 71971.54426235489, 68976.47756057711, 4844.67355545444, 13425.888231502562, 76218.8897989857, 39452.728861895666, 15456.745380967306, 8957.349831742029, 0.122, 1.006, 0.07200000000000001, 192.0, 0.0, 0.0, 0.0, 0.0, 0.0, 0.0, 0.0, 0.0, 0.0, 1.695422340349733E9, 0.0, 2023-09-22 17:39:00.349
188.0, -129103.63127036468, 56586.27976015565, -7643.9389758037305, 10755.41356270475, 74309.4920288911, 42670.865973337415, -187500.02235174447, 65134.14563347646, 72057.50907153, 68961.32307783641, 4856.184703848923, 13408.543277805244, 76207.91509245815, 39427.94077729473, 15436.24883130179, 8971.297320282141, 0.122, 1.006, 0.07200000000000001, 192.0, 0.0, 0.0, 0.0, 0.0, 0.0, 0.0, 0.0, 0.0, 0.0, 1.695422340349736E9, 0.0, 2023-09-22 17:39:00.349
190.0, -129257.47832745056, 56483.7299565947, -7629.075065740952, 10696.606123042837, 74156.4049311167, 42666.39562444635, -187500.02235174447, 65058.55203372861, 71971.41015188815, 68951.64477248726, 4833.72120067134, 13412.70070227393, 76197.1862551196, 39439.27311173357, 15438.998095869792, 8949.102038038021, 0.122, 1.006, 0.07200000000000001, 192.0, 0.0, 0.0, 0.0, 0.0, 0.0, 0.0, 0.0, 0.0, 0.0, 1.69542234034974E9, 0.0, 2023-09-22 17:39:00.349
192.0, -129107.43106692209, 56581.36237637549, -7635.9594030331855, 10759.41452496225, 74286.91676699124, 42679.0243600636, -187500.02235174447, 65144.8297673261, 72041.92990564465, 68961.18896736967, 4850.462657268365, 13409.102071416626, 76199.15320863166, 39430.28771046254, 15435.2430028013, 8969.643291192448, 0.128, 0.998, 0.068, 192.0, 2.0, 0.0, 15.5, 24.0, 1.0, 16.0, 0.0, 0.0, 0.0, 1.695422340349743E9, 0.0, 2023-09-22 17:39:00.349
194.0, -129258.2606385065, 56476.331529179995, -7632.1372547313285, 10689.542971794961, 74144.35734085529, 42669.569572159, -187500.02235174447, 65057.16622557238, 71993.53837889891, 68970.35318259636, 4835.844616394594, 13418.758025021318, 76202.14834238868, 39446.559780426, 15449.056380874681, 8954.466456707294, 0.128, 0.998, 0.068, 192.0, 0.0, 0.0, 0.0, 0.0, 0.0, 0.0, 0.0, 0.0, 0.0, 1.695422340410057E9, 0.0, 2023-09-22 17:39:00.410
196.0, -129111.0744012683, 56568.28660586913, -7653.885502086342, 10749.9373853132, 74286.89441524677, 42669.3684064589, -187500.02235174447, 65146.59555513806, 72031.96102761758, 68953.4776155326, 4833.229462293322, 13391.488896785844, 76188.33496431529, 39418.15071322331, 15426.43641548591, 8957.081610808566, 0.128, 0.998, 0.068, 192.0, 0.0, 0.0, 0.0, 0.0, 0.0, 0.0, 0.0, 0.0, 0.0, 1.69542234041007E9, 0.0, 2023-09-22 17:39:00.410
198.0, -129230.87975154875, 56478.18672396979, -7630.863205297376, 10684.223256614598, 74136.4001198292, 42670.95538031523, -187500.02235174447, 65055.534548227144, 71990.96792828655, 68954.01405739952, 4824.2887645112, 13403.13415564706, 76194.66050799614, 39433.66282387529, 15438.215784813856, 8945.078724036066, 0.128, 0.998, 0.068, 192.0, 0.0, 0.0, 0.0, 0.0, 0.0, 0.0, 0.0, 0.0, 0.0, 1.695422340410074E9, 0.0, 2023-09-22 17:39:00.410
200.0, -129119.14338101666, 56550.785189960625, -7654.488999186636, 10751.591414402892, 74278.1325314203, 42673.68229313878, -187500.02235174447, 65131.28461018618, 72018.21470477757, 68947.15207185174, 4830.591956447596, 13393.299388086723, 76191.88889168369, 39417.27899518955, 15428.62688644253, 8953.617090417993, 0.128, 0.998, 0.068, 192.0, 0.0, 0.0, 0.0, 0.0, 0.0, 0.0, 0.0, 0.0, 0.0, 1.695422340410077E9, 0.0, 2023-09-22 17:39:00.410
202.0, -129192.68062027462, 56485.71926185123, -7640.675621113256, 10685.318492092907, 74152.51572758147, 42664.495726167646, -187500.02235174447, 65070.62197573447, 72010.90568434069, 68955.46692078911, 4821.137168543001, 13392.919408430984, 76189.78782770489, 39425.12445749336, 15426.838746886106, 8947.380953714963, 0.126, 1.004, 0.074, 192.0, 1.5, 120.0, 15.5, 48.0, 1.0, 40.0, 0.0, 0.0, 0.0, 1.69542234041008E9, 0.0, 2023-09-22 17:39:00.410
204.0, -129132.59913117877, 56531.27211705114, -7654.9136823312865, 10744.483559666105, 74265.50379580304, 42680.25370600864, -187500.02235174447, 65119.10290945804, 72004.42367844864, 68962.44066505917, 4818.8349388641045, 13389.812515951697, 76191.9335951726, 39421.14584698032, 15424.089482318102, 8949.973756071777, 0.126, 1.004, 0.074, 192.0, 0.0, 0.0, 0.0, 0.0, 0.0, 0.0, 0.0, 0.0, 0.0, 1.695422340410083E9, 0.0, 2023-09-22 17:39:00.410
206.0, -129181.48239630251, 56493.07298577702, -7624.895289527809, 10691.35346309584, 74146.43605308964, 42677.95147632974, -187500.02235174447, 65067.60449023301, 72027.53538221543, 68959.53493827999, 4821.852424365571, 13392.964111919895, 76191.62067075023, 39431.248835474114, 15424.514165462753, 8948.073857793077, 0.126, 1.004, 0.074, 192.0, 0.0, 0.0, 0.0, 0.0, 0.0, 0.0, 0.0, 0.0, 0.0, 1.695422340410087E9, 0.0, 2023-09-22 17:39:00.410
208.0, -129160.31529430335, 56523.27019253614, -7661.1945225232275, 10750.786751602502, 74258.3288858329, 42675.15750827283, -187500.02235174447, 65118.3205984021, 72001.67441388064, 68964.2288046156, 4832.894186126493, 13407.291580115747, 76204.1376476452, 39439.720146622676, 15438.126377836035, 8954.57821542957, 0.126, 1.004, 0.074, 192.0, 0.0, 0.0, 0.0, 0.0, 0.0, 0.0, 0.0, 0.0, 0.0, 1.69542234041009E9, 0.0, 2023-09-22 17:39:00.410
210.0, -129136.19776203607, 56521.30323902408, -7632.0254960090515, 10696.762585254024, 74177.37086741577, 42663.75811860062, -187500.02235174447, 65092.794906234136, 72032.13984157323, 68947.15207185174, 4817.091502796591, 13381.095335614125, 76173.985144375, 39422.21873071417, 15407.012749554247, 8934.349886697519, 0.126, 1.004, 0.074, 192.0, 0.0, 0.0, 0.0, 0.0, 0.0, 0.0, 0.0, 0.0, 0.0, 1.695422340470306E9, 0.0, 2023-09-22 17:39:00.470
212.0, -129162.84104142679, 56517.32462851103, -7649.079877028451, 10746.562271900448, 74245.58839149337, 42678.93495308578, -187500.02235174447, 65112.35268263253, 71980.08262873681, 68974.39884834277, 4836.7386861728055, 13412.946571462939, 76205.65756626816, 39453.64528341834, 15444.250755816789, 8948.967927571288, 0.134, 1.008, 0.07200000000000001, 192.0, 2.0, 24.0, 15.5, 64.0, 1.0, 32.0, 0.0, 0.0, 0.0, 1.695422340470318E9, 0.0, 2023-09-22 17:39:00.470
214.0, -129118.71869787201, 56535.78716943112, -7618.592097591412, 10704.250419646552, 74182.53412038495, 42675.62689490639, -187500.02235174447, 65104.64133079545, 72040.4546905106, 68959.49023479107, 4833.698848926884, 13389.767812462786, 76189.96664166053, 39429.08071626195, 15429.29743877619, 8944.765799613691, 0.134, 1.008, 0.07200000000000001, 192.0, 0.0, 0.0, 0.0, 0.0, 0.0, 0.0, 0.0, 0.0, 0.0, 1.695422340470322E9, 0.0, 2023-09-22 17:39:00.470
216.0, -129200.95076572309, 56506.14875628338, -7632.22666170915, 10739.007382274554, 74215.3688329898, 42688.97088634621, -187500.02235174447, 65096.68410976936, 71983.01070726046, 68967.24629011707, 4841.857235653071, 13409.45969932791, 76213.54773206088, 39453.57822818497, 15459.740514724317, 8954.019421818188, 0.134, 1.008, 0.07200000000000001, 192.0, 0.0, 0.0, 0.0, 0.0, 0.0, 0.0, 0.0, 0.0, 0.0, 1.695422340470325E9, 0.0, 2023-09-22 17:39:00.470
218.0, -129108.25808146693, 56557.75893423068, -7619.50851911408, 10721.97535299961, 74198.38150720377, 42678.64438040786, -187500.02235174447, 65107.904685485926, 72064.70633324461, 68962.66418250372, 4844.584148476619, 13385.409222294, 76189.94428991608, 39425.14680923782, 15430.504432976775, 8958.10979105351, 0.134, 1.008, 0.07200000000000001, 192.0, 0.0, 0.0, 0.0, 0.0, 0.0, 0.0, 0.0, 0.0, 0.0, 1.695422340470328E9, 0.0, 2023-09-22 17:39:00.470
220.0, -129227.43758290262, 56495.7328433672, -7627.242222695616, 10736.83926306239, 74193.53117865697, 42684.277020010595, -187500.02235174447, 65088.59277827654, 71975.41111414565, 68976.16463615473, 4843.086581598113, 13404.832888225663, 76204.80819997886, 39449.912542094295, 15451.783293698229, 8952.208930517309, 0.134, 1.008, 0.07200000000000001, 192.0, 0.0, 0.0, 0.0, 0.0, 0.0, 0.0, 0.0, 0.0, 0.0, 1.695422340470331E9, 0.0, 2023-09-22 17:39:00.470
222.0, -129079.13375844166, 56572.95812046029, -7632.651344853801, 10734.112350238842, 74212.06077481041, 42675.962171073224, -187500.02235174447, 65152.27289822971, 72070.04840016943, 68960.76428422502, 4842.259567053266, 13375.21682682238, 76180.51185375593, 39415.35674516639, 15416.95927583686, 8957.014555575199, 0.132, 1.008, 0.07, 192.0, 2.0, 16.0, 15.5, 64.0, 1.0, 24.0, 0.0, 0.0, 0.0, 1.695422340470335E9, 0.0, 2023-09-22 17:39:00.470
224.0, -129239.08284176384, 56484.936950795294, -7633.0760279984515, 10733.710018838647, 74162.99869573102, 42695.11761607142, -187500.02235174447, 65098.49460107024, 71972.25951817745, 68969.03442967348, 4839.5550059741745, 13405.03405392576, 76205.1881796346, 39455.47812646367, 15446.083598862124, 8950.465494449794, 0.132, 1.008, 0.07, 192.0, 0.0, 0.0, 0.0, 0.0, 0.0, 0.0, 0.0, 0.0, 0.0, 1.695422340530691E9, 0.0, 2023-09-22 17:39:00.530
226.0, -129058.57015354278, 56581.29532114212, -7647.805827594499, 10741.466074164638, 74227.30466452893, 42680.566630431014, -187500.02235174447, 65148.67426737241, 72068.34966759082, 68948.98491489708, 4837.72216292884, 13367.796047663218, 76175.43800776459, 39415.55791086649, 15404.375243708522, 8949.660831649404, 0.132, 1.008, 0.07, 192.0, 0.0, 0.0, 0.0, 0.0, 0.0, 0.0, 0.0, 0.0, 0.0, 1.695422340530705E9, 0.0, 2023-09-22 17:39:00.530
228.0, -129218.13925720922, 56475.75038382416, -7646.263557227083, 10712.431158117195, 74151.12991942525, 42680.52192694211, -187500.02235174447, 65057.50150173921, 71957.93204998161, 68953.81289169943, 4822.09829355458, 13381.005928636305, 76190.23486259399, 39444.10108853592, 15426.034084085713, 8928.583136628049, 0.132, 1.008, 0.07, 192.0, 0.0, 0.0, 0.0, 0.0, 0.0, 0.0, 0.0, 0.0, 0.0, 1.695422340530708E9, 0.0, 2023-09-22 17:39:00.530
230.0, -129048.08718539325, 56576.73556527324, -7645.481246171146, 10746.584623644903, 74245.61074323783, 42680.90190659784, -187500.02235174447, 65124.802604294135, 72062.04647565442, 68960.78663596947, 4834.548215216186, 13362.051649338204, 76183.43993227958, 39423.224559214665, 15408.398557710476, 8940.474264678272, 0.132, 1.008, 0.07, 192.0, 0.0, 0.0, 0.0, 0.0, 0.0, 0.0, 0.0, 0.0, 0.0, 1.695422340530711E9, 0.0, 2023-09-22 17:39:00.530
232.0, -129214.0488879739, 56466.18383719729, -7643.246071725616, 10709.88305924929, 74153.38744561523, 42670.10601402593, -187500.02235174447, 65046.61620218947, 71963.29646865088, 68954.95283066665, 4821.293630754189, 13374.926254144462, 76188.75964745994, 39441.84356234593, 15427.732816664316, 8928.627840116958, 0.132, 1.01, 0.07, 192.0, 2.0, 16.0, 15.5, 72.0, 1.0, 24.0, 0.0, 0.0, 0.0, 1.695422340530715E9, 0.0, 2023-09-22 17:39:00.530
234.0, -129005.97649883945, 56582.34585313152, -7658.735830633143, 10754.407734204262, 74290.1354181928, 42667.73672911367, -187500.02235174447, 65137.14076723347, 72046.98139989155, 68937.51846999151, 4827.350953501577, 13351.993364333317, 76170.00653386195, 39410.23819568613, 15401.71538611834, 8940.429561189361, 0.132, 1.01, 0.07, 192.0, 0.0, 0.0, 0.0, 0.0, 0.0, 0.0, 0.0, 0.0, 0.0, 1.695422340530718E9, 0.0, 2023-09-22 17:39:00.530
236.0, -129221.49201887751, 56454.583281824984, -7610.165489931762, 10709.771300527012, 74153.07452119286, 42700.32557252951, -187500.02235174447, 65021.60460014398, 71962.24593666148, 68967.69332500617, 4829.6308314360185, 13390.438364796444, 76198.14738013118, 39458.29444626504, 15442.86494766056, 8925.185671470843, 0.132, 1.01, 0.07, 192.0, 0.0, 0.0, 0.0, 0.0, 0.0, 0.0, 0.0, 0.0, 0.0, 1.695422340530721E9, 0.0, 2023-09-22 17:39:00.530
238.0, -129024.57315022626, 56582.83759150954, -7649.996298551118, 10770.478638467626, 74303.68057533272, 42680.499575197646, -187500.02235174447, 65138.28070620069, 72050.6023824933, 68964.54172903797, 4845.6570322104735, 13371.774658176264, 76179.90835665565, 39424.90094004881, 15419.507374704765, 8949.414962460394, 0.132, 1.01, 0.07, 192.0, 0.0, 0.0, 0.0, 0.0, 0.0, 0.0, 0.0, 0.0, 0.0, 1.695422340530724E9, 0.0, 2023-09-22 17:39:00.530
240.0, -129181.05771315786, 56479.75134608166, -7618.07800746894, 10710.955942983144, 74162.48460560854, 42684.79111013307, -187500.02235174447, 65033.83100436104, 71969.95728849855, 68964.47467380461, 4828.490892468798, 13384.403393793511, 76180.26598456693, 39442.514114679594, 15435.108892334569, 8925.543299382127, 0.132, 1.01, 0.07, 192.0, 0.0, 0.0, 0.0, 0.0, 0.0, 0.0, 0.0, 0.0, 0.0, 1.695422340590428E9, 0.0, 2023-09-22 17:39:00.590
242.0, -129016.88415013364, 56590.81716428008, -7638.507501901091, 10783.8449816519, 74297.10916246286, 42690.6249154359, -187500.02235174447, 65117.962970490815, 72044.2991905569, 68968.90031920676, 4850.86498866856, 13380.178914091459, 76179.483673511, 39428.18664648374, 15427.799871897683, 8945.391648458439, 0.128, 1.012, 0.068, 192.0, 2.0, 0.0, 15.5, 80.0, 1.0, 16.0, 0.0, 0.0, 0.0, 1.695422340590442E9, 0.0, 2023-09-22 17:39:00.590
244.0, -129164.11509086074, 56490.81545958704, -7609.494937598102, 10718.711998309136, 74158.34953288431, 42696.21285154973, -187500.02235174447, 65026.20905950178, 71998.32165221234, 68973.0800954199, 4844.606500221074, 13394.282864842757, 76181.60708923425, 39449.39845197183, 15441.657953459973, 8935.355715198006, 0.128, 1.012, 0.068, 192.0, 0.0, 0.0, 0.0, 0.0, 0.0, 0.0, 0.0, 0.0, 0.0, 1.695422340590447E9, 0.0, 2023-09-22 17:39:00.590
246.0, -129033.73736545294, 56575.752088517205, -7631.086722741929, 10787.309502042473, 74307.05568874547, 42689.373217746404, -187500.02235174447, 65117.895915257446, 72034.08444334083, 68967.29099360597, 4856.832904438127, 13387.17501010597, 76180.26598456693, 39432.34407095243, 15434.125415578535, 8947.20213975932, 0.128, 1.012, 0.068, 192.0, 0.0, 0.0, 0.0, 0.0, 0.0, 0.0, 0.0, 0.0, 0.0, 1.69542234059045E9, 0.0, 2023-09-22 17:39:00.590
248.0, -129144.3337970178, 56497.3868724569, -7609.405530620281, 10718.734350053592, 74165.9044225102, 42686.04280782257, -187500.02235174447, 65039.68716140833, 72009.3410622288, 68969.52616805151, 4852.742535202806, 13392.450021797422, 76181.42827527861, 39443.72110888018, 15445.703619206384, 8936.62976463196, 0.128, 1.012, 0.068, 192.0, 0.0, 0.0, 0.0, 0.0, 0.0, 0.0, 0.0, 0.0, 0.0, 1.695422340590454E9, 0.0, 2023-09-22 17:39:00.590
250.0, -129047.8636679487, 56565.91732095687, -7640.765028091077, 10781.341586272907, 74299.16552295274, 42689.64143867987, -187500.02235174447, 65111.682130298876, 72023.69088216912, 68959.28906909097, 4857.145828860501, 13381.36355654759, 76175.23684206449, 39425.19151272673, 15438.260488302767, 8939.110808266498, 0.128, 1.012, 0.068, 192.0, 0.0, 0.0, 0.0, 0.0, 0.0, 0.0, 0.0, 0.0, 0.0, 1.695422340590458E9, 0.0, 2023-09-22 17:39:00.590
252.0, -129130.78863987788, 56501.56664867004, -7610.925449243242, 10714.286352906985, 74166.9549544996, 42688.43444447928, -187500.02235174447, 65040.69298990882, 72025.12139381426, 68956.8750806898, 4845.209997321367, 13380.424783280467, 76173.06872285232, 39430.913559307286, 15437.075845846635, 8930.214813973285, 0.126, 1.004, 0.076, 192.0, 1.5, 120.0, 15.5, 48.0, 1.0, 48.0, 0.0, 0.0, 0.0, 1.695422340590461E9, 0.0, 2023-09-22 17:39:00.590
254.0, -129095.83051154978, 56546.13602711392, -7637.635783867334, 10779.955778116677, 74269.30359236045, 42694.1788428043, -187500.02235174447, 65094.538342301654, 72022.08155656833, 68970.15201689626, 4860.297424828699, 13390.617178752087, 76186.83739743679, 39439.18370475575, 15444.608383728075, 8941.167168756387, 0.126, 1.004, 0.076, 192.0, 0.0, 0.0, 0.0, 0.0, 0.0, 0.0, 0.0, 0.0, 0.0, 1.695422340590465E9, 0.0, 2023-09-22 17:39:00.590
0.0, -129119.45630543905, 56520.05154133458, -7612.288905655016, 10722.914126266734, 74161.27761140796, 42691.98837184768, -187500.02235174447, 65051.82415864756, 72043.69569345661, 68966.57573778341, 4854.687136970418, 13380.31302455819, 76172.66639145212, 39431.94173955223, 15430.01269459876, 8928.270212205674, 0.126, 1.004, 0.076, 192.0, 0.0, 0.0, 0.0, 0.0, 0.0, 0.0, 0.0, 0.0, 0.0, 1.695422340650839E9, 0.0, 2023-09-22 17:39:00.650
2.0, -129092.43304639257, 56536.41301827586, -7654.645461397823, 10773.809048391468, 74258.50769978853, 42683.00297057664, -187500.02235174447, 65099.366319103996, 72003.70842262608, 68954.63990624427, 4854.664785225962, 13375.373289033567, 76176.15326358716, 39427.270224961074, 15433.030180100224, 8925.81152031559, 0.126, 1.004, 0.076, 192.0, 0.0, 0.0, 0.0, 0.0, 0.0, 0.0, 0.0, 0.0, 0.0, 1.69542234065085E9, 0.0, 2023-09-22 17:39:00.650
4.0, -129084.9228602556, 56526.891175137906, -7609.785510276021, 10724.970486756622, 74162.9539922421, 42700.97377311871, -187500.02235174447, 65068.96794664478, 72041.01348412198, 68958.61851675731, 4843.041878109202, 13362.096352827115, 76160.81996689082, 39419.804742313, 15417.898049103982, 8916.28967717763, 0.126, 1.004, 0.076, 192.0, 0.0, 0.0, 0.0, 0.0, 0.0, 0.0, 0.0, 0.0, 0.0, 1.695422340650854E9, 0.0, 2023-09-22 17:39:00.650
6.0, -129131.34743348927, 56514.083625565014, -7641.167359491273, 10766.008289576566, 74227.32701627338, 42702.40428476385, -187500.02235174447, 65097.51112431421, 71993.73954459901, 68967.67097326172, 4852.63077648053, 13382.503495514811, 76181.1824060896, 39438.401393699816, 15443.602555227586, 8930.326572695563, 0.128, 1.004, 0.07, 192.0, 2.0, 0.0, 15.5, 48.0, 1.0, 24.0, 0.0, 0.0, 0.0, 1.695422340650857E9, 0.0, 2023-09-22 17:39:00.650
8.0, -129044.64501674713, 56549.734657971225, -7632.919565787264, 10737.308649695951, 74202.89655958374, 42688.97088634621, -187500.02235174447, 65112.55384833263, 72059.29721108642, 68953.05293238795, 4845.925253143937, 13358.11774231407, 76158.18246104509, 39413.38979165433, 15415.707578147361, 8928.471377905773, 0.128, 1.004, 0.07, 192.0, 0.0, 0.0, 0.0, 0.0, 0.0, 0.0, 0.0, 0.0, 0.0, 1.69542234065086E9, 0.0, 2023-09-22 17:39:00.650
