%OpenBCI Raw EXG Data
%Number of channels = 16
%Sample Rate = 125 Hz
%Board = OpenBCI_GUI$BoardCytonSerialDaisy
Sample Index, EXG Channel 0, EXG Channel 1, EXG Channel 2, EXG Channel 3, EXG Channel 4, EXG Channel 5, EXG Channel 6, EXG Channel 7, EXG Channel 8, EXG Channel 9, EXG Channel 10, EXG Channel 11, EXG Channel 12, EXG Channel 13, EXG Channel 14, EXG Channel 15, Accel Channel 0, Accel Channel 1, Accel Channel 2, Other, Other, Other, Other, Other, Other, Other, Analog Channel 0, Analog Channel 1, Analog Channel 2, Timestamp, Other, Timestamp (Formatted)
148.0, -165107.39655582866, 57660.70576437781, -10048.249071627746, 7523.418369700715, 102970.79866776451, 61019.63651414353, -187500.02235174447, 82576.4411778976, 70261.99343943519, 74049.45183389806, 9495.222210314538, 11994.773089262617, 93163.09906996478, 37506.584823916535, 10541.216795589542, 8610.60722000685, 0.0, 0.0, 0.0, 192.0, 0.0, 0.0, 0.0, 0.0, 0.0, 0.0, 0.0, 0.0, 0.0, 1.695422244147196E9, 0.0, 2023-09-22 17:37:24.147
150.0, -165266.13864495023, 57566.20258882077, -10085.755298823751, 7506.945134037153, 102920.41783576224, 60997.374176666046, -187500.02235174447, 82470.11392952371, 70210.94205509927, 74058.63840086918, 9506.196916842095, 12061.00130808369, 93122.7318194785, 37509.64701290691, 10607.154441732699, 8658.864636285858, 0.0, 0.0, 0.0, 192.0, 0.0, 0.0, 0.0, 0.0, 0.0, 0.0, 0.0, 0.0, 0.0, 1.695422244147204E9, 0.0, 2023-09-22 17:37:24.147
152.0, -165068.83979664324, 57677.35781399701, -10066.532798592187, 7534.616593672824, 102948.15635063128, 60984.3431096486, -187500.02235174447, 82530.24012210847, 70507.5944075101, 73981.79310343183, 9454.340869705782, 11946.560376472518, 93142.89309297719, 37477.25933519117, 10482.811687327825, 8553.252643734533, 0.0, 0.0, 0.0, 192.0, 0.0, 0.0, 0.0, 0.0, 0.0, 0.0, 0.0, 0.0, 0.0, 1.695422244147208E9, 0.0, 2023-09-22 17:37:24.147
154.0, -165238.53424054795, 57575.232693580714, -10001.578629205063, 7594.720434513144, 102901.50825995306, 61026.29733399121, -187500.02235174447, 82436.83218202976, 70543.93834399442, 74028.53060108788, 9520.680847249132, 12077.943930380814, 93121.10014213326, 37471.38082639943, 10634.982363579556, 8710.988904355634, 0.106, 1.01, 0.022, 192.0, 1.5, 40.0, 15.5, 72.0, 0.0, 88.0, 0.0, 0.0, 0.0, 1.695422244147217E9, 0.0, 2023-09-22 17:37:24.147
156.0, -165047.67269464408, 57685.762069912205, -10067.963310237326, 7555.582529971902, 102965.14367641731, 60901.5745999306, -187500.02235174447, 82499.21590080451, 70761.57727975574, 73984.83294067776, 9479.888913618197, 11975.729402986695, 93084.13035680418, 37417.244901328675, 10551.766818972448, 8633.60716505136, 0.106, 1.01, 0.022, 192.0, 0.0, 0.0, 0.0, 0.0, 0.0, 0.0, 0.0, 0.0, 0.0, 1.695422244147221E9, 0.0, 2023-09-22 17:37:24.147
158.0, -165234.48857480154, 57557.77598116112, -10067.918606748415, 7549.614614202334, 102862.7279833231, 60948.66972549793, -187500.02235174447, 82408.84779797171, 70826.17382123158, 73987.51515001239, 9454.787904594887, 12025.86436579995, 93152.14671518168, 37462.88716350641, 10570.050545936889, 8668.788810824015, 0.106, 1.01, 0.022, 192.0, 0.0, 0.0, 0.0, 0.0, 0.0, 0.0, 0.0, 0.0, 0.0, 1.695422244147224E9, 0.0, 2023-09-22 17:37:24.147
160.0, -165036.51917416087, 57687.08082283507, -10057.23447289878, 7564.322062053927, 102984.05325222651, 60917.44433849387, -187500.02235174447, 82485.22370877549, 70980.33380273984, 73992.63369949267, 9480.514762462946, 11992.023824694614, 93078.00597882342, 37448.626750543925, 10570.497580825995, 8674.443802171207, 0.106, 1.01, 0.022, 192.0, 0.0, 0.0, 0.0, 0.0, 0.0, 0.0, 0.0, 0.0, 0.0, 1.695422244147227E9, 0.0, 2023-09-22 17:37:24.147
162.0, -165223.69268222962, 57568.37070803293, -10026.232603339267, 7523.10544527834, 102899.69776865219, 60922.20526006285, -187500.02235174447, 82410.18890263903, 71093.72420236161, 74027.23419990948, 9479.084250817807, 12032.033447269612, 93097.04966509934, 37571.181365392375, 10635.138825790742, 8672.298034703497, 0.106, 1.01, 0.022, 192.0, 0.0, 0.0, 0.0, 0.0, 0.0, 0.0, 0.0, 0.0, 0.0, 1.69542224414723E9, 0.0, 2023-09-22 17:37:24.147
164.0, -165015.73205181744, 57679.391822742444, -10136.136130826013, 7504.575849124891, 102989.52942961807, 60813.46402328778, -187500.02235174447, 82494.87966238019, 71167.84258697541, 73946.61145765918, 9450.116390003728, 11959.144408600856, 93153.77839252692, 37367.24404898215, 10551.073914894332, 8659.848113041891, 0.134, 1.016, 0.028, 192.0, 2.0, 24.0, 15.5, 96.0, 0.0, 112.0, 0.0, 0.0, 0.0, 1.695422244147234E9, 0.0, 2023-09-22 17:37:24.147
0.0, -77619.2265891107, 28426.076880225766, -4215.427245548635, 4143.29816619136, 47177.268228205234, 25104.764116378323, -93750.01117587223, 34013.2306829966, 35723.85438965016, 36989.186643265086, 4727.1480831084355, 5992.189764045449, 46528.508845389944, 18718.84837375264, 5298.458671386084, 4319.675781688187, 0.124, 1.017, 0.027000000000000003, 192.0, 1.5, 72.0, 15.5, 104.0, 0.0, 104.0, 0.0, 0.0, 0.0, 1.695422244315145E9, 0.0, 2023-09-22 17:37:24.315
2.0, -155087.6012548925, 56952.28957561131, -8477.502581775498, 8362.502856552943, 94497.27469650206, 50183.577857444034, -187500.02235174447, 68125.94898056376, 71477.83893082607, 73287.59262413891, 6746.04704928959, 13065.332241694003, 87022.4937227361, 37413.55686349355, 12170.770725103705, 17802.67272027406, 0.124, 1.017, 0.027000000000000003, 192.0, 0.0, 0.0, 0.0, 0.0, 0.0, 0.0, 0.0, 0.0, 0.0, 1.695422244315157E9, 0.0, 2023-09-22 17:37:24.315
4.0, -155110.89177261494, 56920.72891244041, -8416.90700255716, 8301.773166867873, 94388.44405274917, 50214.89265142592, -187500.02235174447, 68075.09876192793, 71722.72464307841, 73270.89587103079, 6723.583546112007, 13046.91440426283, 86996.74451312357, 37395.60841269594, 12156.219739463299, 17781.237397341418, 0.124, 1.017, 0.027000000000000003, 192.0, 0.0, 0.0, 0.0, 0.0, 0.0, 0.0, 0.0, 0.0, 0.0, 1.69542224431516E9, 0.0, 2023-09-22 17:37:24.315
6.0, -155118.67017968537, 56933.4917585244, -8445.76310464896, 8369.498952567454, 94497.31939999097, 50207.293058311116, -187500.02235174447, 68103.61958785291, 71457.34238116055, 73304.49054294713, 6761.536808197118, 13092.981349585218, 87045.65012999179, 37442.92705570782, 12208.746338933272, 17822.342255394728, 0.124, 1.017, 0.027000000000000003, 192.0, 0.0, 0.0, 0.0, 0.0, 0.0, 0.0, 0.0, 0.0, 0.0, 1.695422244315164E9, 0.0, 2023-09-22 17:37:24.315
8.0, -155099.85001085402, 56934.54229051379, -8404.457080895554, 8325.845995646237, 94406.32544831342, 50228.03547716564, -187500.02235174447, 68085.53702658857, 71711.19114293947, 73298.76849636657, 6746.561139412062, 13068.461485917745, 87017.84455988939, 37421.424677541814, 12179.21968450781, 17813.58037156825, 0.106, 1.02, 0.022, 192.0, 1.5, 40.0, 15.5, 112.0, 0.0, 88.0, 0.0, 0.0, 0.0, 1.695422244315167E9, 0.0, 2023-09-22 17:37:24.315
10.0, -155143.79354045316, 56915.140976326584, -8448.221796539045, 8368.493124066965, 94470.87728630034, 50213.79741594761, -187500.02235174447, 68098.99277675066, 71443.75252053172, 73295.68395563173, 6763.012023331168, 13096.602332186978, 87034.60836823087, 37453.253561646176, 12205.393577264975, 17837.094406735232, 0.106, 1.02, 0.022, 192.0, 0.0, 0.0, 0.0, 0.0, 0.0, 0.0, 0.0, 0.0, 0.0, 1.69542224431517E9, 0.0, 2023-09-22 17:37:24.315
12.0, -155068.8034378056, 56948.33331684272, -8418.359865946753, 8336.552481240331, 94406.86189018034, 50224.72741898626, -187500.02235174447, 68113.38730017988, 71698.96473872241, 73289.6042811399, 6742.671935876839, 13055.96686076723, 87009.35089699637, 37410.87465415891, 12161.003012776735, 17821.649351316613, 0.106, 1.02, 0.022, 192.0, 0.0, 0.0, 0.0, 0.0, 0.0, 0.0, 0.0, 0.0, 0.0, 1.695422244315173E9, 0.0, 2023-09-22 17:37:24.315
14.0, -155162.74781975124, 56896.141993539575, -8440.041058068402, 8367.509647310932, 94448.97257673414, 50221.41936080687, -187500.02235174447, 68106.12298323191, 71446.14415718844, 73295.68395563173, 6756.57472092804, 13098.144602554394, 87037.46939152115, 37461.74722453919, 12202.107870830045, 17838.413159658096, 0.106, 1.02, 0.022, 192.0, 0.0, 0.0, 0.0, 0.0, 0.0, 0.0, 0.0, 0.0, 0.0, 1.695422244315177E9, 0.0, 2023-09-22 17:37:24.315
16.0, -155042.07075143704, 56954.65886052357, -8433.42494170963, 8341.827492931783, 94420.9434891872, 50208.79062518962, -187500.02235174447, 68134.24147775669, 71687.58770079467, 73296.08628703193, 6736.055819518068, 13052.815264799032, 87013.15069355378, 37412.0816483595, 12156.733829585772, 17833.205203200007, 0.106, 1.02, 0.022, 192.0, 0.0, 0.0, 0.0, 0.0, 0.0, 0.0, 0.0, 0.0, 0.0, 1.695422244375504E9, 0.0, 2023-09-22 17:37:24.375
18.0, -155176.11416293553, 56881.85922883263, -8425.400665450175, 8354.277414593389, 94428.56543404644, 50227.18611087634, -187500.02235174447, 68094.99181449316, 71465.00902950871, 73293.33702246392, 6744.057744033068, 13091.483782706713, 87031.00973737356, 37462.21661117275, 12206.108833087545, 17838.6590288471, 0.10400000000000001, 1.018, 0.022, 192.0, 1.5, 32.0, 15.5, 104.0, 0.0, 88.0, 0.0, 0.0, 0.0, 1.695422244375517E9, 0.0, 2023-09-22 17:37:24.375
20.0, -155035.9910769452, 56965.924139729046, -8416.974057790525, 8351.863426192216, 94435.71799227214, 50221.15113987341, -187500.02235174447, 68140.96935283772, 71670.17569186399, 73303.01532781307, 6745.220034744744, 13055.653936344856, 87015.72114416613, 37418.78717169609, 12166.501541912741, 17847.376209184673, 0.10400000000000001, 1.018, 0.022, 192.0, 0.0, 0.0, 0.0, 0.0, 0.0, 0.0, 0.0, 0.0, 0.0, 1.69542224437552E9, 0.0, 2023-09-22 17:37:24.375
22.0, -155190.26281717574, 56872.04681301676, -8435.10132254378, 8342.542748754353, 94412.3380675719, 50209.79645369011, -187500.02235174447, 68092.73428830318, 71476.31901220311, 73298.07559228846, 6759.569854685052, 13094.523619952633, 87033.2449118191, 37461.88133500592, 12208.858097655548, 17849.924308052578, 0.10400000000000001, 1.018, 0.022, 192.0, 0.0, 0.0, 0.0, 0.0, 0.0, 0.0, 0.0, 0.0, 0.0, 1.695422244375523E9, 0.0, 2023-09-22 17:37:24.375
24.0, -155001.5246869951, 56980.00573873589, -8436.643592911196, 8353.919786682103, 94452.68296631372, 50194.86548839397, -187500.02235174447, 68157.10731233445, 71653.79186317824, 73289.2466532286, 6745.0859242780125, 13038.845424514464, 87006.66868766173, 37404.14677907786, 12156.420905163397, 17843.665819605092, 0.10400000000000001, 1.018, 0.022, 192.0, 0.0, 0.0, 0.0, 0.0, 0.0, 0.0, 0.0, 0.0, 0.0, 1.695422244375526E9, 0.0, 2023-09-22 17:37:24.375
26.0, -155180.1821804264, 56867.48705714787, -8414.269496711433, 8332.84209166075, 94385.85125039236, 50213.97622990325, -187500.02235174447, 68075.74696251714, 71519.65904470194, 73283.65871711478, 6753.266662748655, 13082.16310526885, 87021.0408593465, 37453.879410490925, 12203.717196430827, 17837.85436604671, 0.10400000000000001, 1.018, 0.022, 192.0, 0.0, 0.0, 0.0, 0.0, 0.0, 0.0, 0.0, 0.0, 0.0, 1.69542224437553E9, 0.0, 2023-09-22 17:37:24.375
28.0, -154984.11267806444, 56984.94547426051, -8440.309279001865, 8359.664185007117, 94449.30785290097, 50189.188145302316, -187500.02235174447, 68169.84780667399, 71632.69181641244, 73287.90554856129, 6739.520339908641, 13034.196261667761, 87004.3888097273, 37398.558842964034, 12156.733829585772, 17842.682342849057, 0.096, 1.006, 0.022, 192.0, 1.5, 0.0, 15.5, 56.0, 0.0, 88.0, 0.0, 0.0, 0.0, 1.695422244375533E9, 0.0, 2023-09-22 17:37:24.375
30.0, -155157.29399410417, 56872.60560662814, -8418.315162457844, 8328.058818347314, 94359.90087507974, 50208.27653506715, -187500.02235174447, 68098.7245558172, 71548.40338807147, 73284.57513863745, 6732.971278783236, 13072.931834808807, 86998.30913523545, 37444.80460224207, 12191.781364891693, 17836.66972359058, 0.096, 1.006, 0.022, 192.0, 0.0, 0.0, 0.0, 0.0, 0.0, 0.0, 0.0, 0.0, 0.0, 1.695422244435839E9, 0.0, 2023-09-22 17:37:24.435
32.0, -154952.328497449, 56997.641265111124, -8459.218854811055, 8376.98678695998, 94455.47693437063, 50185.99184584521, -187500.02235174447, 68193.98769068571, 71604.48391490984, 73288.7549148506, 6741.241424231699, 13042.824035027508, 87003.00300157107, 37412.59573848197, 12159.281928453676, 17855.221671488485, 0.096, 1.006, 0.022, 192.0, 0.0, 0.0, 0.0, 0.0, 0.0, 0.0, 0.0, 0.0, 0.0, 1.69542224443585E9, 0.0, 2023-09-22 17:37:24.435
34.0, -155122.84995589853, 56877.38887994157, -8413.040150766392, 8328.4164462586, 94329.07781947588, 50218.15600611639, -187500.02235174447, 68090.09678245745, 71608.79780158971, 73280.61887986885, 6732.591299127495, 13066.405125427858, 86999.82905385841, 37449.49846857768, 12179.130277529988, 17837.273220690873, 0.096, 1.006, 0.022, 192.0, 0.0, 0.0, 0.0, 0.0, 0.0, 0.0, 0.0, 0.0, 0.0, 1.695422244435854E9, 0.0, 2023-09-22 17:37:24.435
36.0, -154949.80275032553, 56990.108727229686, -8443.930261603626, 8385.771022530917, 94437.79670450649, 50197.23477330623, -187500.02235174447, 68161.95764088126, 71582.66861232146, 73292.91233931927, 6745.197683000289, 13042.779331538599, 87008.92621385172, 37419.59183449648, 12154.185730717867, 17855.132264510663, 0.096, 1.006, 0.022, 192.0, 0.0, 0.0, 0.0, 0.0, 0.0, 0.0, 0.0, 0.0, 0.0, 1.695422244435857E9, 0.0, 2023-09-22 17:37:24.435
38.0, -155109.37185399196, 56885.234342245385, -8404.188859962089, 8330.964545126504, 94299.0594266724, 50215.49614852621, -187500.02235174447, 68064.8616629674, 71632.08831931214, 73293.51583641957, 6734.1112177504565, 13062.426514914814, 87000.1419782808, 37446.16805865384, 12172.000071048746, 17852.159482498108, 0.098, 1.012, 0.02, 192.0, 1.5, 8.0, 15.5, 80.0, 0.0, 80.0, 0.0, 0.0, 0.0, 1.69542224443586E9, 0.0, 2023-09-22 17:37:24.435
40.0, -154940.19150020977, 56997.61891336667, -8437.738828389505, 8401.37254016072, 94438.8919399848, 50192.540906970615, -187500.02235174447, 68162.87406240393, 71551.46557706184, 73294.23109224213, 6746.471732434241, 13048.613136841434, 87007.24983301757, 37422.274043831116, 12159.125466242489, 17878.95922410002, 0.098, 1.012, 0.02, 192.0, 0.0, 0.0, 0.0, 0.0, 0.0, 0.0, 0.0, 0.0, 0.0, 1.695422244435863E9, 0.0, 2023-09-22 17:37:24.435
42.0, -155087.13186825896, 56900.16530754153, -8378.707871283039, 8338.586489985764, 94310.6599820447, 50228.102532399, -187500.02235174447, 68064.1687588893, 71666.57706100668, 73301.6518714013, 6753.512531937663, 13076.463410432747, 87019.16331281225, 37461.009616972166, 12192.898952114458, 17878.713354911015, 0.098, 1.012, 0.02, 192.0, 0.0, 0.0, 0.0, 0.0, 0.0, 0.0, 0.0, 0.0, 0.0, 1.695422244435867E9, 0.0, 2023-09-22 17:37:24.435
44.0, -154973.47324770372, 56983.447907382004, -8407.765139074938, 8405.217040207033, 94450.40308837929, 50210.779930446144, -187500.02235174447, 68138.82358537002, 71520.70957669134, 73303.70823189119, 6766.878875121936, 13059.6325468579, 87016.39169649979, 37436.60151202697, 12187.355719489542, 17898.584055731782, 0.098, 1.012, 0.02, 192.0, 0.0, 0.0, 0.0, 0.0, 0.0, 0.0, 0.0, 0.0, 0.0, 1.69542224443587E9, 0.0, 2023-09-22 17:37:24.435
46.0, -155089.2552839822, 56906.37909250011, -8374.505743325442, 8343.816798188305, 94326.84264503034, 50220.59234626202, -187500.02235174447, 68065.35340134542, 71671.24857559784, 73315.46524947468, 6767.594130944506, 13075.815209843542, 87022.89605413629, 37465.3905588854, 12212.970818635324, 17893.867837651713, 0.098, 1.012, 0.02, 192.0, 0.0, 0.0, 0.0, 0.0, 0.0, 0.0, 0.0, 0.0, 0.0, 1.695422244496094E9, 0.0, 2023-09-22 17:37:24.496
48.0, -154997.34491078198, 56969.03103220833, -8430.094531785791, 8399.405586648654, 94451.18539943521, 50186.84121213451, -187500.02235174447, 68138.15303303636, 71488.47836118679, 73292.3982491968, 6762.699098908794, 13053.307003177048, 87017.21871104464, 37436.825029471525, 12193.547152703663, 17890.8727038947, 0.10200000000000001, 1.006, 0.024, 192.0, 1.5, 24.0, 15.5, 56.0, 0.0, 96.0, 0.0, 0.0, 0.0, 1.695422244496109E9, 0.0, 2023-09-22 17:37:24.496
50.0, -155050.63146956344, 56922.07001710773, -8384.139345185678, 8337.066571362802, 94311.48699658955, 50210.087026368026, -187500.02235174447, 68083.3689073764, 71714.78977379677, 73291.52653116305, 6743.677764377328, 13042.801683283054, 86997.37036196832, 37438.32259635003, 12171.59773964855, 17864.028258803875, 0.10200000000000001, 1.006, 0.024, 192.0, 0.0, 0.0, 0.0, 0.0, 0.0, 0.0, 0.0, 0.0, 0.0, 1.695422244496115E9, 0.0, 2023-09-22 17:37:24.496
52.0, -155013.1922976008, 56957.27401462484, -8442.343287747299, 8401.66311283864, 94411.57810826041, 50183.33198825503, -187500.02235174447, 68140.67878015981, 71480.69995411634, 73304.17761852474, 6764.844866376504, 13066.494532405679, 87016.65991743325, 37456.51691633665, 12182.483039198285, 17880.188570045062, 0.10200000000000001, 1.006, 0.024, 192.0, 0.0, 0.0, 0.0, 0.0, 0.0, 0.0, 0.0, 0.0, 0.0, 1.695422244496119E9, 0.0, 2023-09-22 17:37:24.496
54.0, -154997.97075962674, 56940.376095816624, -8413.442482166587, 8342.296879565345, 94296.37721733777, 50190.283380780624, -187500.02235174447, 68113.52141064662, 71742.57299215472, 73283.3010892035, 6724.611726356951, 13024.786177252076, 86976.29266694697, 37421.89406417538, 12134.315029897098, 17848.985534785454, 0.10200000000000001, 1.006, 0.024, 192.0, 0.0, 0.0, 0.0, 0.0, 0.0, 0.0, 0.0, 0.0, 0.0, 1.695422244496122E9, 0.0, 2023-09-22 17:37:24.496
56.0, -155014.30988482357, 56938.02916264882, -8432.977906820524, 8397.081005225302, 94390.54511672797, 50196.60892446148, -187500.02235174447, 68134.01796031212, 71495.00507056774, 73293.33702246392, 6744.549482411085, 13054.223424699716, 87006.82514987292, 37459.333236138016, 12169.429620436385, 17873.281881008374, 0.10200000000000001, 1.006, 0.024, 192.0, 0.0, 0.0, 0.0, 0.0, 0.0, 0.0, 0.0, 0.0, 0.0, 1.695422244496125E9, 0.0, 2023-09-22 17:37:24.496
58.0, -154978.4800384617, 56953.20599713398, -8393.795298790372, 8368.336661855777, 94313.2080809126, 50213.41743629187, -187500.02235174447, 68125.32313171901, 71737.05211127426, 73317.4545547312, 6746.76230511216, 13047.696715318765, 86997.10214103486, 37456.98630297021, 12162.880559310981, 17882.82607589079, 0.10400000000000001, 1.012, 0.022, 192.0, 1.5, 32.0, 15.5, 80.0, 0.0, 88.0, 0.0, 0.0, 0.0, 1.695422244496128E9, 0.0, 2023-09-22 17:37:24.496
60.0, -155035.76755950064, 56925.087502609196, -8424.327781716322, 8400.701987827062, 94373.20016303065, 50201.9509913863, -187500.02235174447, 68134.42029171232, 71489.26067224273, 73302.7024033907, 6746.4940841786965, 13061.219520714227, 87004.27705100502, 37471.626695588435, 12187.489829956274, 17881.932006112576, 0.10400000000000001, 1.012, 0.022, 192.0, 0.0, 0.0, 0.0, 0.0, 0.0, 0.0, 0.0, 0.0, 0.0, 1.695422244556327E9, 0.0, 2023-09-22 17:37:24.556
62.0, -154926.80280528104, 56974.998947977896, -8425.020685794436, 8365.587397287774, 94329.41309564271, 50188.53994471311, -187500.02235174447, 68150.93823086479, 71745.52342242282, 73301.24954000111, 6722.085979233501, 13018.728854504689, 86976.31501869143, 37429.627767756916, 12139.321820655086, 17868.520959439393, 0.10400000000000001, 1.012, 0.022, 192.0, 0.0, 0.0, 0.0, 0.0, 0.0, 0.0, 0.0, 0.0, 0.0, 1.69542224455634E9, 0.0, 2023-09-22 17:37:24.556
64.0, -155039.03091419113, 56910.961200113445, -8417.801072335371, 8385.905132997648, 94346.48982840656, 50209.43882577882, -187500.02235174447, 68108.46991639971, 71513.55701846564, 73292.13002826335, 6732.211319471756, 13053.955203766252, 86993.70467587766, 37472.118433966454, 12178.50442868524, 17867.179854772075, 0.10400000000000001, 1.012, 0.022, 192.0, 0.0, 0.0, 0.0, 0.0, 0.0, 0.0, 0.0, 0.0, 0.0, 1.695422244556344E9, 0.0, 2023-09-22 17:37:24.556
66.0, -154941.93493627728, 56971.89205549861, -8394.354092401754, 8375.064536936825, 94326.79794154143, 50224.52625328616, -187500.02235174447, 68125.18902125228, 71722.79169831178, 73315.88993261934, 6734.804121828571, 13031.58110756649, 86993.14588226627, 37445.29634062009, 12150.721210327294, 17871.493741451948, 0.10400000000000001, 1.012, 0.022, 192.0, 0.0, 0.0, 0.0, 0.0, 0.0, 0.0, 0.0, 0.0, 0.0, 1.695422244556347E9, 0.0, 2023-09-22 17:37:24.556
68.0, -155075.844237309, 56893.3256737382, -8423.813691593848, 8378.66316779413, 94322.93108975067, 50205.88489841043, -187500.02235174447, 68090.49911385764, 71491.2276257548, 73314.34766225191, 6742.381363198921, 13064.77344808262, 87002.95829808216, 37483.85309980549, 12187.690995656372, 17859.87083433519, 0.10400000000000001, 1.008, 0.024, 192.0, 1.5, 32.0, 15.5, 64.0, 0.0, 96.0, 0.0, 0.0, 0.0, 1.69542224455635E9, 0.0, 2023-09-22 17:37:24.556
70.0, -154917.68329354326, 56987.0018347504, -8410.134423987201, 8376.495048581965, 94339.67254634769, 50198.08413959553, -187500.02235174447, 68136.20843126875, 71699.45647710044, 73318.12510706486, 6729.909089792859, 13019.846441727454, 86983.62403912832, 37435.86390445995, 12140.417056133398, 17851.176005742076, 0.10400000000000001, 1.008, 0.024, 192.0, 0.0, 0.0, 0.0, 0.0, 0.0, 0.0, 0.0, 0.0, 0.0, 1.695422244556353E9, 0.0, 2023-09-22 17:37:24.556
72.0, -155079.5099233997, 56884.96612131192, -8395.739900557983, 8365.363879843222, 94296.04194117093, 50206.22017457726, -187500.02235174447, 68071.85775898192, 71532.95833265285, 73311.53134245054, 6731.1160839934455, 13051.764732809632, 86992.09535027688, 37476.92405902434, 12176.023385050701, 17849.834901074755, 0.10400000000000001, 1.008, 0.024, 192.0, 0.0, 0.0, 0.0, 0.0, 0.0, 0.0, 0.0, 0.0, 0.0, 1.695422244556357E9, 0.0, 2023-09-22 17:37:24.556
74.0, -154909.43549983925, 56992.07568074175, -8395.248162179967, 8396.209287191545, 94342.28770044896, 50201.92863964184, -187500.02235174447, 68137.41542546933, 71673.26023259881, 73327.60224671391, 6746.896415578892, 13030.038837199074, 86996.27512649001, 37449.342006366496, 12152.576405117085, 17870.934947840567, 0.10400000000000001, 1.008, 0.024, 192.0, 0.0, 0.0, 0.0, 0.0, 0.0, 0.0, 0.0, 0.0, 0.0, 1.69542224455636E9, 0.0, 2023-09-22 17:37:24.556
76.0, -155098.866534098, 56875.71249910742, -8383.558199829842, 8367.487295566476, 94267.38700477923, 50211.36107580198, -187500.02235174447, 68073.60119504943, 71555.9359259529, 73315.88993261934, 6749.578624913529, 13064.616985871433, 87003.45003646017, 37491.050361520094, 12191.982530591791, 17870.465561207006, 0.10400000000000001, 1.008, 0.024, 192.0, 0.0, 0.0, 0.0, 0.0, 0.0, 0.0, 0.0, 0.0, 0.0, 1.69542224461528E9, 0.0, 2023-09-22 17:37:24.615
78.0, -154900.04776716803, 57001.32930294625, -8419.119825258234, 8396.879839525203, 94353.06124127642, 50179.21926727525, -187500.02235174447, 68164.70690544926, 71641.3642932611, 73311.68780466173, 6745.421200444842, 13026.48490983068, 86989.2790304755, 37434.12046839243, 12142.629878834472, 17874.0194885754, 0.10200000000000001, 1.006, 0.024, 192.0, 1.5, 24.0, 15.5, 56.0, 0.0, 96.0, 0.0, 0.0, 0.0, 1.69542224461529E9, 0.0, 2023-09-22 17:37:24.615
80.0, -155086.84129558102, 56876.62892063009, -8388.654397565651, 8343.369763299199, 94255.49587672901, 50204.45438676529, -187500.02235174447, 68070.18137814777, 71597.13019098404, 73302.36712722387, 6735.407618928864, 13051.675325831811, 86991.11187352084, 37472.185489199815, 12178.347966474053, 17860.474331435482, 0.10200000000000001, 1.006, 0.024, 192.0, 0.0, 0.0, 0.0, 0.0, 0.0, 0.0, 0.0, 0.0, 0.0, 1.695422244615294E9, 0.0, 2023-09-22 17:37:24.615
82.0, -154908.72024401667, 56995.09316624322, -8424.014857293947, 8392.767118545427, 94358.64917739025, 50182.1473457989, -187500.02235174447, 68156.36970476744, 71613.1563917585, 73305.20579876969, 6739.09565676399, 13017.275991115093, 86989.77076885353, 37435.95331143776, 12151.503521383229, 17873.572453686294, 0.10200000000000001, 1.006, 0.024, 192.0, 0.0, 0.0, 0.0, 0.0, 0.0, 0.0, 0.0, 0.0, 0.0, 1.695422244615297E9, 0.0, 2023-09-22 17:37:24.615
84.0, -155084.2484932242, 56876.15953399653, -8386.553333586853, 8334.69728645054, 94226.79623684839, 50201.615715219465, -187500.02235174447, 68059.85487220941, 71629.4061099775, 73296.33215622093, 6715.335752407998, 13028.362456364925, 86975.53270763549, 37458.30505589307, 12168.446143680352, 17838.52491838037, 0.10200000000000001, 1.006, 0.024, 192.0, 0.0, 0.0, 0.0, 0.0, 0.0, 0.0, 0.0, 0.0, 0.0, 1.6954222446153E9, 0.0, 2023-09-22 17:37:24.615
86.0, -154931.1613954498, 56987.49357312841, -8422.316124715344, 8405.775833818416, 94354.44704943265, 50180.73918589821, -187500.02235174447, 68148.94892560827, 71562.08265567811, 73318.0580518315, 6739.833264331015, 13028.898898231853, 86996.14101602329, 37450.169020911344, 12168.915530313914, 17850.0137150304, 0.10200000000000001, 1.006, 0.024, 192.0, 0.0, 0.0, 0.0, 0.0, 0.0, 0.0, 0.0, 0.0, 0.0, 1.695422244615303E9, 0.0, 2023-09-22 17:37:24.615
88.0, -155056.88995801093, 56888.27417949131, -8403.13832797269, 8332.395056771644, 94212.87110005274, 50174.592456173, -187500.02235174447, 68056.1668343743, 71652.16018583301, 73286.40798168279, 6712.541784351085, 13013.073863157495, 86961.69697781766, 37442.614131285445, 12148.061352737112, 17819.257714659896, 0.094, 1.014, 0.026000000000000002, 192.0, 1.0, 120.0, 15.5, 88.0, 0.0, 104.0, 0.0, 0.0, 0.0, 1.695422244615307E9, 0.0, 2023-09-22 17:37:24.615
90.0, -154919.58319182196, 56987.53827661733, -8406.245220451978, 8401.976037261014, 94341.05835450391, 50176.60411317398, -187500.02235174447, 68127.53595442009, 71556.89705096449, 73296.84624634341, 6731.607822371462, 13011.173964878793, 86973.49869889006, 37425.9844334107, 12133.957401985814, 17829.494813620426, 0.094, 1.014, 0.026000000000000002, 192.0, 0.0, 0.0, 0.0, 0.0, 0.0, 0.0, 0.0, 0.0, 0.0, 1.695422244675395E9, 0.0, 2023-09-22 17:37:24.675
92.0, -155062.34378365803, 56905.84265063318, -8352.981013414981, 8354.389173315665, 94195.36968414423, 50208.07536936705, -187500.02235174447, 68032.69750269622, 71677.23884311186, 73334.33012179496, 6749.153941768878, 13060.43720965829, 86986.21684148513, 37475.87352703494, 12168.423791935897, 17841.028313759365, 0.094, 1.014, 0.026000000000000002, 192.0, 0.0, 0.0, 0.0, 0.0, 0.0, 0.0, 0.0, 0.0, 0.0, 1.695422244675412E9, 0.0, 2023-09-22 17:37:24.675
94.0, -154930.98258149417, 56995.4507941545, -8425.445368939087, 8422.51729041544, 94327.89317701974, 50161.22611298873, -187500.02235174447, 68122.81973634002, 71514.33932952158, 73324.04831934551, 6747.969299312747, 13049.954241508753, 86981.0312367715, 37450.12431742243, 12146.295564925143, 17860.85431109122, 0.094, 1.014, 0.026000000000000002, 192.0, 0.0, 0.0, 0.0, 0.0, 0.0, 0.0, 0.0, 0.0, 0.0, 1.695422244675416E9, 0.0, 2023-09-22 17:37:24.675
96.0, -155041.37784735893, 56924.595764231184, -8333.467940505498, 8360.781772229884, 94190.63111431971, 50231.812921978584, -187500.02235174447, 68036.49729925362, 71713.58277959618, 73329.39038627033, 6730.803159571071, 13054.581052611, 86967.3296174204, 37474.04068398961, 12156.487960396762, 17845.789235328346, 0.094, 1.014, 0.026000000000000002, 192.0, 0.0, 0.0, 0.0, 0.0, 0.0, 0.0, 0.0, 0.0, 0.0, 1.695422244675419E9, 0.0, 2023-09-22 17:37:24.675
98.0, -154995.7355851812, 56974.55191308879, -8413.867165311238, 8424.90892707216, 94325.30037466293, 50192.76442441517, -187500.02235174447, 68105.49713438716, 71470.52991038917, 73355.83249996096, 6769.896360623403, 13071.568378397034, 87007.36159173986, 37498.02410579015, 12189.233266023788, 17890.82800040579, 0.1, 1.014, 0.022, 192.0, 1.5, 16.0, 15.5, 88.0, 0.0, 88.0, 0.0, 0.0, 0.0, 1.695422244675423E9, 0.0, 2023-09-22 17:37:24.675
100.0, -155013.594629001, 56931.994191645885, -8385.23458066399, 8343.056838876824, 94193.84976552127, 50196.63127620593, -187500.02235174447, 68054.64691575133, 71712.86752377362, 73298.96966206667, 6705.031598214102, 12993.739604203654, 86944.08380318688, 37443.21762838574, 12127.251878649222, 17839.933078281054, 0.1, 1.014, 0.022, 192.0, 0.0, 0.0, 0.0, 0.0, 0.0, 0.0, 0.0, 0.0, 0.0, 1.695422244675426E9, 0.0, 2023-09-22 17:37:24.675
102.0, -155009.2360388322, 56940.689020239, -8412.66017111065, 8404.993522762481, 94303.5521273079, 50185.477755722735, -187500.02235174447, 68087.07929695598, 71463.2208899523, 73308.22328427115, 6738.022773030135, 13024.406197596336, 86976.35972218034, 37477.08052123553, 12165.294547712154, 17872.790142630358, 0.1, 1.014, 0.022, 192.0, 0.0, 0.0, 0.0, 0.0, 0.0, 0.0, 0.0, 0.0, 0.0, 1.69542224467543E9, 0.0, 2023-09-22 17:37:24.675
104.0, -154990.32646302303, 56933.42470329103, -8374.170467158612, 8353.428048304087, 94204.89152728219, 50189.813994147065, -187500.02235174447, 68067.61092753541, 71716.60026509766, 73301.40600221229, 6729.8867380484035, 12997.271179827594, 86952.28689340198, 37444.82695398652, 12131.856338007014, 17859.692020379545, 0.1, 1.014, 0.022, 192.0, 0.0, 0.0, 0.0, 0.0, 0.0, 0.0, 0.0, 0.0, 0.0, 1.695422244675433E9, 0.0, 2023-09-22 17:37:24.675
106.0, -155023.6976174948, 56920.97478162942, -8405.462909396043, 8400.701987827062, 94284.24022009852, 50176.33589224052, -187500.02235174447, 68083.86064575442, 71467.24420395425, 73307.01629007058, 6755.747706383194, 13033.481005845191, 86979.10898674834, 37474.06303573406, 12162.411172677419, 17867.11279953871, 0.1, 1.014, 0.022, 192.0, 0.0, 0.0, 0.0, 0.0, 0.0, 0.0, 0.0, 0.0, 0.0, 1.695422244735855E9, 0.0, 2023-09-22 17:37:24.735
108.0, -154948.14872123586, 56951.12728489963, -8378.462002094031, 8358.725411739995, 94204.37743715971, 50175.10654629547, -187500.02235174447, 68077.73626777367, 71736.96270429644, 73296.57802540995, 6724.3658571679425, 12990.90093265783, 86944.93316947618, 37424.03983164309, 12111.091567408033, 17838.882546291657, 0.096, 1.014, 0.024, 192.0, 1.5, 0.0, 15.5, 88.0, 0.0, 96.0, 0.0, 0.0, 0.0, 1.695422244735866E9, 0.0, 2023-09-22 17:37:24.735
110.0, -155038.2933066241, 56910.044778590775, -8382.84294400727, 8410.179127476113, 94259.47448724204, 50190.082215080525, -187500.02235174447, 68074.80818925002, 71479.89529131596, 73322.9083803783, 6757.558197684074, 13060.39250616938, 86984.74162635108, 37491.25152722019, 12184.0253095657, 17869.325622239783, 0.096, 1.014, 0.024, 192.0, 0.0, 0.0, 0.0, 0.0, 0.0, 0.0, 0.0, 0.0, 0.0, 1.69542224473587E9, 0.0, 2023-09-22 17:37:24.735
112.0, -154921.48309010066, 56970.05921245328, -8368.001385688947, 8388.453231865553, 94231.26658573945, 50184.918962111355, -187500.02235174447, 68103.15020121935, 71735.30867520675, 73309.07265056047, 6730.914918293348, 13006.345988076448, 86949.62703581179, 37434.589855025995, 12130.023494961679, 17860.027296546377, 0.096, 1.014, 0.024, 192.0, 0.0, 0.0, 0.0, 0.0, 0.0, 0.0, 0.0, 0.0, 0.0, 1.695422244735873E9, 0.0, 2023-09-22 17:37:24.735
114.0, -155031.9901146877, 56909.95537161295, -8390.688406311085, 8408.100415241768, 94241.88366435572, 50178.5934184305, -187500.02235174447, 68073.8694159829, 71502.13527704899, 73319.71208092119, 6752.461999948264, 13056.34684042297, 86970.97295176661, 37488.7481318412, 12178.16915251841, 17876.232311276475, 0.096, 1.014, 0.024, 192.0, 0.0, 0.0, 0.0, 0.0, 0.0, 0.0, 0.0, 0.0, 0.0, 1.695422244735876E9, 0.0, 2023-09-22 17:37:24.735
116.0, -154907.82617423846, 56989.16995396256, -8350.567025013808, 8401.730168072007, 94236.76511487545, 50199.15702332938, -187500.02235174447, 68104.35719541993, 71728.6255036146, 73316.06874657498, 6744.594185899996, 13015.174927136295, 86953.18096318019, 37446.45863133176, 12131.92339324038, 17873.840674619758, 0.096, 1.014, 0.024, 192.0, 0.0, 0.0, 0.0, 0.0, 0.0, 0.0, 0.0, 0.0, 0.0, 1.695422244735879E9, 0.0, 2023-09-22 17:37:24.735
118.0, -155087.7130136148, 56900.612342430635, -8357.741934983962, 8409.486223397997, 94221.00713503447, 50205.21434607677, -187500.02235174447, 68051.20474710522, 71505.7339079063, 73343.67315097728, 6784.290884052621, 13080.620834901434, 87001.79600737047, 37525.98613810374, 12205.751205176259, 17900.707471455036, 0.092, 1.012, 0.024, 192.0, 1.0, 112.0, 15.5, 80.0, 0.0, 96.0, 0.0, 0.0, 0.0, 1.695422244735882E9, 0.0, 2023-09-22 17:37:24.735
120.0, -154884.7144704717, 57012.08049202925, -8386.03924346438, 8405.418205907132, 94251.02552783795, 50170.34562472649, -187500.02235174447, 68130.57579166601, 71698.11537243311, 73306.23397901464, 6744.281261477621, 12983.502505243125, 86942.20625665263, 37429.80658171255, 12111.024512174668, 17877.34989849924, 0.092, 1.012, 0.024, 192.0, 0.0, 0.0, 0.0, 0.0, 0.0, 0.0, 0.0, 0.0, 0.0, 1.69542224479612E9, 0.0, 2023-09-22 17:37:24.796
122.0, -155072.357365174, 56897.41604297353, -8367.062612421825, 8386.419223120121, 94185.11023343923, 50199.69346519631, -187500.02235174447, 68055.22806110718, 71557.54525155369, 73309.050298816, 6755.166561027356, 13039.046590214562, 86969.83301279938, 37501.958012814284, 12171.061297781624, 17879.33920375576, 0.092, 1.012, 0.024, 192.0, 0.0, 0.0, 0.0, 0.0, 0.0, 0.0, 0.0, 0.0, 0.0, 1.695422244796156E9, 0.0, 2023-09-22 17:37:24.796
124.0, -154876.26551106758, 57018.137814776645, -8398.243295936978, 8411.408473421154, 94252.32192901635, 50172.73726138321, -187500.02235174447, 68136.0296173131, 71682.44679956995, 73318.97447335416, 6739.676802119828, 12993.493735014647, 86953.270370158, 37452.38184361241, 12120.25578263471, 17892.437326006573, 0.092, 1.012, 0.024, 192.0, 0.0, 0.0, 0.0, 0.0, 0.0, 0.0, 0.0, 0.0, 0.0, 1.695422244796161E9, 0.0, 2023-09-22 17:37:24.796
126.0, -155054.23010042074, 56894.3762057276, -8384.586380074785, 8372.114106668723, 94162.64673026165, 50179.37572948643, -187500.02235174447, 68056.14448262984, 71601.82405731965, 73311.37488023935, 6730.020848515135, 13030.15059592135, 86956.26550391501, 37496.14655925591, 12159.572501131595, 17884.50245672494, 0.092, 1.012, 0.024, 192.0, 0.0, 0.0, 0.0, 0.0, 0.0, 0.0, 0.0, 0.0, 0.0, 1.695422244796166E9, 0.0, 2023-09-22 17:37:24.796
128.0, -154868.5541592305, 57010.649980384114, -8377.32206312681, 8416.750540345973, 94250.91376911566, 50173.877200350435, -187500.02235174447, 68148.92657386382, 71676.165959378, 73310.92784535025, 6730.400828170876, 12990.319787301993, 86946.27427414349, 37445.7880789981, 12115.338398854543, 17881.39556424565, 0.1, 1.014, 0.024, 192.0, 1.5, 16.0, 15.5, 88.0, 0.0, 96.0, 0.0, 0.0, 0.0, 1.69542224479617E9, 0.0, 2023-09-22 17:37:24.796
130.0, -155054.63243182094, 56886.977778312896, -8351.438743047565, 8371.443554335065, 94145.9276254091, 50179.73335739772, -187500.02235174447, 68047.42730229227, 71641.2078310499, 73320.3602815104, 6756.731183139227, 13042.064075716029, 86970.77178606651, 37499.253451735196, 12164.422829678397, 17878.556892699828, 0.1, 1.014, 0.024, 192.0, 0.0, 0.0, 0.0, 0.0, 0.0, 0.0, 0.0, 0.0, 0.0, 1.695422244796174E9, 0.0, 2023-09-22 17:37:24.796
132.0, -154876.22080757868, 57005.062044270286, -8381.479487595498, 8425.490072427998, 94251.85254238278, 50157.381612942416, -187500.02235174447, 68134.66616090134, 71636.20104029191, 73324.11537457888, 6759.122819795945, 13008.33529333297, 86963.19454469616, 37458.483869848715, 12125.977829215268, 17879.227445033484, 0.1, 1.014, 0.024, 192.0, 0.0, 0.0, 0.0, 0.0, 0.0, 0.0, 0.0, 0.0, 0.0, 1.695422244796179E9, 0.0, 2023-09-22 17:37:24.796
134.0, -155044.57414681604, 56894.28679874978, -8353.070420392802, 8359.93240594058, 94117.25033727293, 50175.30771199557, -187500.02235174447, 68041.50409001161, 71676.34477333365, 73319.64502568782, 6756.284148250121, 13028.38480810938, 86957.33838764887, 37492.65968712088, 12143.233375934766, 17862.038953547355, 0.1, 1.014, 0.024, 192.0, 0.0, 0.0, 0.0, 0.0, 0.0, 0.0, 0.0, 0.0, 0.0, 1.695422244796184E9, 0.0, 2023-09-22 17:37:24.796
136.0, -154880.22176983618, 57005.196154737016, -8386.75449928695, 8418.561031646852, 94235.0440305524, 50149.37968842741, -187500.02235174447, 68133.01213181164, 71609.69187136792, 73311.24076977263, 6764.2190175317555, 12998.254656583627, 86957.13722194878, 37459.98143672722, 12110.331608096554, 17868.43155246157, 0.1, 1.014, 0.024, 192.0, 0.0, 0.0, 0.0, 0.0, 0.0, 0.0, 0.0, 0.0, 0.0, 1.695422244856452E9, 0.0, 2023-09-22 17:37:24.856
138.0, -155039.88028048043, 56904.83682213269, -8334.965507384004, 8359.75359198494, 94103.43695919955, 50183.55550569958, -187500.02235174447, 68036.67611320927, 71703.68095680249, 73328.4069095143, 6771.192761801811, 13036.699657046755, 86961.24994292855, 37507.836521606034, 12142.652230578928, 17866.0175640604, 0.098, 1.018, 0.022, 192.0, 1.5, 8.0, 15.5, 104.0, 0.0, 88.0, 0.0, 0.0, 0.0, 1.695422244856463E9, 0.0, 2023-09-22 17:37:24.856
140.0, -154891.7105664862, 57002.73746284693, -8409.463871653543, 8424.975982305525, 94257.7981064079, 50135.05222023156, -187500.02235174447, 68132.65450390035, 71568.51995808125, 73330.28445604855, 6781.027529362146, 13020.829918483487, 86963.46276562962, 37483.78604457212, 12135.20909967531, 17885.754154414433, 0.098, 1.018, 0.022, 192.0, 0.0, 0.0, 0.0, 0.0, 0.0, 0.0, 0.0, 0.0, 0.0, 1.695422244856466E9, 0.0, 2023-09-22 17:37:24.856
142.0, -154960.6209946419, 56930.250755578374, -8368.940158956071, 8349.114161624213, 94115.26103201641, 50154.76645884114, -187500.02235174447, 68066.38158159037, 71765.86350987715, 73291.16890325176, 6732.703057849772, 13001.629769996378, 86918.04402089644, 37466.37403564144, 12114.489032565241, 17844.559889383305, 0.098, 1.018, 0.022, 192.0, 0.0, 0.0, 0.0, 0.0, 0.0, 0.0, 0.0, 0.0, 0.0, 1.69542224485647E9, 0.0, 2023-09-22 17:37:24.856
144.0, -154858.4511707367, 56994.26615169837, -8405.932296029603, 8415.118863000735, 94254.46769648406, 50139.053182489064, -187500.02235174447, 68133.81679461204, 71600.46060090789, 73295.59454865391, 6753.579587171029, 13025.948467963752, 86938.76408800652, 37478.756902069676, 12135.991410731247, 17869.504436195428, 0.098, 1.018, 0.022, 192.0, 0.0, 0.0, 0.0, 0.0, 0.0, 0.0, 0.0, 0.0, 0.0, 1.695422244856473E9, 0.0, 2023-09-22 17:37:24.856
146.0, -154924.12059594638, 56936.50924402586, -8360.155923385135, 8352.913958181614, 94131.75661942443, 50171.39615671589, -187500.02235174447, 68060.39131407635, 71809.02472842035, 73307.48567670413, 6747.768133612649, 13046.132093206894, 86930.9186257027, 37496.794759845114, 12150.877672538481, 17863.558872170313, 0.098, 1.018, 0.022, 192.0, 0.0, 0.0, 0.0, 0.0, 0.0, 0.0, 0.0, 0.0, 0.0, 1.695422244856476E9, 0.0, 2023-09-22 17:37:24.856
148.0, -154897.90199970032, 56970.863875253664, -8386.508630097942, 8423.433711938109, 94254.53475171742, 50170.68090089332, -187500.02235174447, 68105.0277477536, 71574.28670815071, 73333.72662469467, 6771.639796690917, 13085.292349492593, 86958.6794923162, 37521.62754793496, 12187.333367745086, 17895.119535341208, 0.098, 1.018, 0.022, 192.0, 1.5, 8.0, 15.5, 104.0, 0.0, 88.0, 0.0, 0.0, 0.0, 1.69542224485648E9, 0.0, 2023-09-22 17:37:24.856
150.0, -154904.60752303692, 56951.26139536636, -8360.312385596322, 8363.262815864422, 94154.46599179102, 50171.37380497144, -187500.02235174447, 68074.38350610537, 71806.2531121079, 73309.54203719403, 6754.294842993599, 13066.002794027663, 86936.48421007207, 37493.82197783256, 12174.861094339025, 17891.520904483903, 0.098, 1.018, 0.022, 192.0, 0.0, 0.0, 0.0, 0.0, 0.0, 0.0, 0.0, 0.0, 0.0, 1.69542224491575E9, 0.0, 2023-09-22 17:37:24.915
152.0, -154903.0652526695, 56965.45475309548, -8396.656322080651, 8417.890479313193, 94248.45507722558, 50158.74506935419, -187500.02235174447, 68115.39895718086, 71560.9427167109, 73302.18831326823, 6768.667014678361, 13092.556666440567, 86954.56677133641, 37510.228158262755, 12201.16909756292, 17907.79297444737, 0.098, 1.018, 0.022, 192.0, 0.0, 0.0, 0.0, 0.0, 0.0, 0.0, 0.0, 0.0, 0.0, 1.695422244915764E9, 0.0, 2023-09-22 17:37:24.915
154.0, -154875.84082792292, 56969.88039849763, -8351.148170369646, 8369.901283967649, 94163.69726225105, 50176.246485262694, -187500.02235174447, 68096.89171277186, 71817.87601922466, 73305.29520574752, 6750.4279912028305, 13082.87836109142, 86934.04786992645, 37487.47408240725, 12179.532608930185, 17895.54421848586, 0.098, 1.018, 0.022, 192.0, 0.0, 0.0, 0.0, 0.0, 0.0, 0.0, 0.0, 0.0, 0.0, 1.695422244915767E9, 0.0, 2023-09-22 17:37:24.915
156.0, -154920.54431683355, 56948.31096509826, -8394.063519723835, 8406.133461729702, 94239.00028932099, 50152.754801840165, -187500.02235174447, 68106.34650067646, 71555.62300153053, 73309.38557498284, 6764.509590209675, 13124.810233689575, 86954.58912308088, 37515.65963216539, 12221.598591995073, 17909.849334937255, 0.098, 1.018, 0.022, 192.0, 0.0, 0.0, 0.0, 0.0, 0.0, 0.0, 0.0, 0.0, 0.0, 1.695422244915771E9, 0.0, 2023-09-22 17:37:24.915
158.0, -154838.8486908494, 56987.2030004505, -8369.409545589631, 8369.789525245373, 94187.34540788477, 50155.280548963616, -187500.02235174447, 68110.12394548941, 71807.12483014165, 73310.79373488353, 6745.041220789101, 13099.910390366364, 86932.14797164775, 37477.639314846914, 12188.2274375233, 17891.54325622836, 0.096, 1.016, 0.028, 192.0, 1.5, 0.0, 15.5, 96.0, 0.0, 112.0, 0.0, 0.0, 0.0, 1.695422244915774E9, 0.0, 2023-09-22 17:37:24.915
160.0, -154909.18963065025, 56940.86783419464, -8410.80497632086, 8386.396871375666, 94221.61063213476, 50130.9842027407, -187500.02235174447, 68110.19100072277, 71566.97768771384, 73295.97452830966, 6745.823531845037, 13132.387475059924, 86938.60762579532, 37502.89678608141, 12218.335237304598, 17887.20701780403, 0.096, 1.016, 0.028, 192.0, 0.0, 0.0, 0.0, 0.0, 0.0, 0.0, 0.0, 0.0, 0.0, 1.695422244915777E9, 0.0, 2023-09-22 17:37:24.915
162.0, -154803.4882311211, 56998.46827965597, -8368.359013600233, 8374.483391580987, 94188.55240208536, 50162.29899672258, -187500.02235174447, 68125.54664916356, 71808.91296969807, 73299.05906904448, 6735.206453228767, 13112.941457383808, 86924.10134364384, 37475.29238167911, 12195.782327149192, 17879.227445033484, 0.096, 1.016, 0.028, 192.0, 0.0, 0.0, 0.0, 0.0, 0.0, 0.0, 0.0, 0.0, 0.0, 1.69542224491578E9, 0.0, 2023-09-22 17:37:24.915
164.0, -154928.74740704865, 56923.76874968634, -8414.51536590044, 8378.350243371755, 94191.43577712009, 50138.09205747749, -187500.02235174447, 68096.0199947381, 71570.26339414876, 73304.11056329138, 6752.417296459353, 13157.712001527787, 86945.55901832093, 37520.33114675655, 12242.341010849597, 17891.006814361433, 0.096, 1.016, 0.028, 192.0, 0.0, 0.0, 0.0, 0.0, 0.0, 0.0, 0.0, 0.0, 0.0, 1.695422244915784E9, 0.0, 2023-09-22 17:37:24.915
166.0, -154776.80024824146, 57008.057178027295, -8388.632045821196, 8370.773002001406, 94194.22974517701, 50147.32332793753, -187500.02235174447, 68136.09667254647, 71784.75073394188, 73282.67524035875, 6721.817758300038, 13097.406994987368, 86907.78457019146, 37455.354625624976, 12185.008786321734, 17868.386848972663, 0.096, 1.016, 0.028, 192.0, 0.0, 0.0, 0.0, 0.0, 0.0, 0.0, 0.0, 0.0, 0.0, 1.695422244975553E9, 0.0, 2023-09-22 17:37:24.975
168.0, -154949.93686079228, 56908.07782507871, -8400.076138982313, 8364.55921704283, 94167.6758727641, 50146.1386854814, -187500.02235174447, 68082.45248585373, 71583.51797861076, 73304.46819120267, 6755.211264516266, 13163.277585897158, 86949.55998057843, 37528.69069918284, 12257.18256916792, 17884.033070091376, 0.098, 1.01, 0.022, 192.0, 1.5, 8.0, 15.5, 72.0, 0.0, 88.0, 0.0, 0.0, 0.0, 1.695422244975568E9, 0.0, 2023-09-22 17:37:24.975
170.0, -154772.21814062813, 57015.72382637547, -8394.80112729086, 8382.731185284994, 94213.07226575282, 50139.611976100445, -187500.02235174447, 68146.11025406246, 71750.61962015863, 73294.18638875322, 6731.831339816015, 13107.040596847606, 86917.88755868525, 37463.26714316215, 12198.397481250464, 17868.565662928304, 0.098, 1.01, 0.022, 192.0, 0.0, 0.0, 0.0, 0.0, 0.0, 0.0, 0.0, 0.0, 0.0, 1.695422244975572E9, 0.0, 2023-09-22 17:37:24.975
172.0, -154961.9844510537, 56901.14878429756, -8391.42601387811, 8357.741934983962, 94142.79838118535, 50142.09301973499, -187500.02235174447, 68068.1697211468, 71612.59759814711, 73303.97645282465, 6743.990688799702, 13164.596338820022, 86937.84766648384, 37523.54979795811, 12252.801627254681, 17870.15263678463, 0.098, 1.01, 0.022, 192.0, 0.0, 0.0, 0.0, 0.0, 0.0, 0.0, 0.0, 0.0, 0.0, 1.695422244975575E9, 0.0, 2023-09-22 17:37:24.975
174.0, -154764.59619576886, 57020.507099688904, -8418.493976413487, 8383.446441107564, 94211.30647794086, 50112.074626931506, -187500.02235174447, 68150.71471342024, 71711.81699178422, 73297.27092948806, 6720.923688521825, 13109.387530015414, 86909.37154404778, 37458.416814615346, 12197.637521938983, 17858.797950601336, 0.098, 1.01, 0.022, 192.0, 0.0, 0.0, 0.0, 0.0, 0.0, 0.0, 0.0, 0.0, 0.0, 1.695422244975578E9, 0.0, 2023-09-22 17:37:24.975
176.0, -154941.35379092142, 56905.17209829952, -8389.23554292149, 8343.034487132369, 94109.00254356892, 50130.87244401842, -187500.02235174447, 68067.3650583464, 71644.67235144047, 73289.8501503289, 6716.587450097496, 13144.45741706579, 86907.49399751353, 37505.824864605056, 12236.775426480226, 17847.219746973486, 0.098, 1.01, 0.022, 192.0, 0.0, 0.0, 0.0, 0.0, 0.0, 0.0, 0.0, 0.0, 0.0, 1.695422244975582E9, 0.0, 2023-09-22 17:37:24.975
178.0, -154757.66715498772, 57027.52554744787, -8391.336606900288, 8397.460984881041, 94223.21995773553, 50129.15135969536, -187500.02235174447, 68152.99459135468, 71679.58577627967, 73296.24274924312, 6729.774979326127, 13123.580887744534, 86909.99739289253, 37471.44788163279, 12210.869754656525, 17861.25664249142, 0.1, 1.01, 0.02, 192.0, 1.5, 16.0, 15.5, 72.0, 0.0, 80.0, 0.0, 0.0, 0.0, 1.695422244975585E9, 0.0, 2023-09-22 17:37:24.975
180.0, -154958.8328550855, 56906.557906455746, -8361.586435030275, 8353.070420392802, 94112.28825000385, 50151.95013903978, -187500.02235174447, 68054.02106690659, 71657.59165973564, 73313.56535119598, 6749.824494102538, 13182.433030895358, 86938.62997753978, 37536.223237064274, 12270.548912352195, 17871.82901761878, 0.1, 1.01, 0.02, 192.0, 0.0, 0.0, 0.0, 0.0, 0.0, 0.0, 0.0, 0.0, 0.0, 1.695422244975588E9, 0.0, 2023-09-22 17:37:24.975
182.0, -154764.81971321342, 57025.49153870244, -8425.534775916907, 8402.244258194478, 94224.53871065841, 50104.63149602789, -187500.02235174447, 68159.47659724673, 71628.19911577691, 73299.5508074225, 6730.669049104339, 13127.69360872431, 86908.67863996967, 37470.3973496434, 12215.89889715897, 17870.934947840567, 0.1, 1.01, 0.02, 192.0, 0.0, 0.0, 0.0, 0.0, 0.0, 0.0, 0.0, 0.0, 0.0, 1.695422245037547E9, 0.0, 2023-09-22 17:37:25.037
184.0, -154913.57057256348, 56912.32465652522, -8389.95079874406, 8332.149187582634, 94078.44770889851, 50128.74902829517, -187500.02235174447, 68066.068657168, 71706.83255277069, 73284.1504554928, 6698.281371388599, 13133.259193093681, 86886.72922691455, 37489.37398068595, 12220.033969883201, 17840.58127887026, 0.1, 1.01, 0.02, 192.0, 0.0, 0.0, 0.0, 0.0, 0.0, 0.0, 0.0, 0.0, 0.0, 1.695422245037559E9, 0.0, 2023-09-22 17:37:25.037
186.0, -154772.77693423952, 57011.43229144005, -8419.097473513779, 8403.13832797269, 94219.37545768922, 50125.217452671226, -187500.02235174447, 68151.13939656489, 71602.06992650866, 73299.03671730003, 6716.52039486413, 13132.633344248932, 86905.14706434573, 37487.07175100705, 12221.442129783885, 17866.82222686079, 0.1, 1.01, 0.02, 192.0, 0.0, 0.0, 0.0, 0.0, 0.0, 0.0, 0.0, 0.0, 0.0, 1.695422245037563E9, 0.0, 2023-09-22 17:37:25.037
188.0, -154915.69398828674, 56910.22359254642, -8385.592208575274, 8337.513606251909, 94082.40396766711, 50139.88019703391, -187500.02235174447, 68063.83348272246, 71714.25333192985, 73297.18152251023, 6712.1841564398, 13146.357315344492, 86901.25786081051, 37515.63728042094, 12236.440150313396, 17858.239156989952, 0.1, 1.012, 0.02, 192.0, 1.5, 16.0, 15.5, 80.0, 0.0, 80.0, 0.0, 0.0, 0.0, 1.695422245037566E9, 0.0, 2023-09-22 17:37:25.037
190.0, -154789.47368734764, 56994.75789007639, -8438.85641561227, 8403.115976228235, 94217.02852452142, 50101.18932738177, -187500.02235174447, 68156.8837948899, 71561.92619346693, 73288.28552821702, 6709.814871527537, 13121.792748188109, 86892.22775605056, 37485.64123936191, 12209.148670333467, 17858.105046523222, 0.1, 1.012, 0.02, 192.0, 0.0, 0.0, 0.0, 0.0, 0.0, 0.0, 0.0, 0.0, 0.0, 1.695422245037569E9, 0.0, 2023-09-22 17:37:25.037
192.0, -154880.802915192, 56917.01852286083, -8378.774926516406, 8342.810969687816, 94076.19018270852, 50132.25825217465, -187500.02235174447, 68073.82471249398, 71751.55839342576, 73272.01345825357, 6695.330941120499, 13124.519661011656, 86881.2083460341, 37491.072713264555, 12216.658856470449, 17841.788273070844, 0.1, 1.012, 0.02, 192.0, 0.0, 0.0, 0.0, 0.0, 0.0, 0.0, 0.0, 0.0, 0.0, 1.695422245037572E9, 0.0, 2023-09-22 17:37:25.037
194.0, -154793.74287053858, 56976.809439278775, -8431.457988197564, 8406.781662318905, 94213.85457680876, 50096.58486802398, -187500.02235174447, 68136.74487313567, 71547.46461480434, 73277.86961530085, 6709.9266302498145, 13124.78788194512, 86899.1120933428, 37484.5460038836, 12220.548060005673, 17858.797950601336, 0.1, 1.012, 0.02, 192.0, 0.0, 0.0, 0.0, 0.0, 0.0, 0.0, 0.0, 0.0, 0.0, 1.695422245037576E9, 0.0, 2023-09-22 17:37:25.037
196.0, -154830.4444349342, 56931.45774977896, -8381.255970150945, 8340.93342315357, 94066.1542494481, 50112.007571698145, -187500.02235174447, 68078.54093057406, 71782.53791124081, 73267.34194366241, 6685.317359604521, 13103.106689823473, 86870.9041918402, 37472.833689789026, 12200.051510340156, 17837.407331157607, 0.1, 1.012, 0.02, 192.0, 0.0, 0.0, 0.0, 0.0, 0.0, 0.0, 0.0, 0.0, 0.0, 1.695422245096408E9, 0.0, 2023-09-22 17:37:25.096
198.0, -154803.06354797646, 56956.961090202465, -8422.986677049003, 8397.438633136588, 94165.9771401855, 50090.08051038749, -187500.02235174447, 68117.79059383758, 71547.30815259316, 73287.16794099426, 6710.619534327929, 13125.391379045413, 86897.34630553082, 37493.21848073226, 12221.41977803943, 17859.982593057466, 0.094, 1.008, 0.022, 192.0, 1.0, 120.0, 15.5, 64.0, 0.0, 88.0, 0.0, 0.0, 0.0, 1.695422245096421E9, 0.0, 2023-09-22 17:37:25.096
200.0, -154808.293856179, 56943.192415617996, -8373.94694971406, 8349.114161624213, 94059.69459530052, 50112.991048454176, -187500.02235174447, 68081.73723003117, 71794.71961196895, 73284.82100782645, 6699.845993500471, 13116.629495218933, 86877.27443900997, 37481.81909106005, 12199.380958006497, 17849.879604563666, 0.094, 1.008, 0.022, 192.0, 0.0, 0.0, 0.0, 0.0, 0.0, 0.0, 0.0, 0.0, 0.0, 1.695422245096425E9, 0.0, 2023-09-22 17:37:25.096
202.0, -154820.00617027358, 56944.84644470769, -8407.94395303058, 8403.115976228235, 94148.69924172155, 50100.07174015901, -187500.02235174447, 68114.70605310274, 71543.26248684675, 73274.8968332883, 6711.0442174725795, 13133.952097171796, 86892.94301187314, 37497.71118136778, 12221.218612339331, 17863.983555314964, 0.094, 1.008, 0.022, 192.0, 0.0, 0.0, 0.0, 0.0, 0.0, 0.0, 0.0, 0.0, 0.0, 1.695422245096428E9, 0.0, 2023-09-22 17:37:25.096
204.0, -154772.57576853942, 56963.040764694306, -8374.729260769995, 8364.425106576098, 94070.71400531699, 50106.95607745124, -187500.02235174447, 68091.88492201388, 71799.72640272694, 73285.22333922665, 6702.952885979758, 13112.896753894896, 86878.39202623273, 37479.60626835898, 12197.011673094234, 17863.223596003485, 0.094, 1.008, 0.022, 192.0, 0.0, 0.0, 0.0, 0.0, 0.0, 0.0, 0.0, 0.0, 0.0, 1.695422245096431E9, 0.0, 2023-09-22 17:37:25.096
206.0, -154851.4997782111, 56926.29449680979, -8394.75642380195, 8399.003255248459, 94125.25226178793, 50101.12227214841, -187500.02235174447, 68083.81594226552, 71534.94763790937, 73290.96773755166, 6719.001438498669, 13149.88889096843, 86901.34726778833, 37518.43124847785, 12236.66366775795, 17875.49470370945, 0.094, 1.008, 0.022, 192.0, 0.0, 0.0, 0.0, 0.0, 0.0, 0.0, 0.0, 0.0, 0.0, 1.695422245096434E9, 0.0, 2023-09-22 17:37:25.096
208.0, -154755.05200088644, 56973.523732843845, -8369.23073163399, 8373.432859591587, 94083.56625837878, 50104.653847772344, -187500.02235174447, 68103.7760500641, 71781.57678622923, 73275.20975771068, 6702.930534235303, 13105.185402057816, 86875.82157562037, 37473.39248340041, 12194.932960859891, 17866.889282094155, 0.098, 1.008, 0.02, 192.0, 1.5, 8.0, 15.5, 64.0, 0.0, 80.0, 0.0, 0.0, 0.0, 1.695422245096437E9, 0.0, 2023-09-22 17:37:25.096
210.0, -154860.52988297105, 56910.44710999097, -8402.065444238835, 8390.04020572188, 94107.23675575695, 50091.26515284362, -187500.02235174447, 68096.04234648256, 71540.04383564518, 73268.16895820724, 6713.771130296127, 13136.209623361781, 86898.64270670923, 37513.04447806412, 12236.440150313396, 17876.1205525542, 0.098, 1.008, 0.02, 192.0, 0.0, 0.0, 0.0, 0.0, 0.0, 0.0, 0.0, 0.0, 0.0, 1.695422245096441E9, 0.0, 2023-09-22 17:37:25.096
212.0, -154699.262046726, 56989.058195240286, -8407.273400696922, 8370.683595023584, 94087.61192412519, 50075.39541428035, -187500.02235174447, 68147.78663489659, 71783.96842288596, 73249.66171379825, 6689.295970117566, 13074.094125520483, 86859.23658123452, 37453.70059653528, 12171.08364952608, 17862.10600878072, 0.098, 1.008, 0.02, 192.0, 0.0, 0.0, 0.0, 0.0, 0.0, 0.0, 0.0, 0.0, 0.0, 1.695422245156667E9, 0.0, 2023-09-22 17:37:25.156
214.0, -154848.39288573182, 56897.43839471798, -8391.582476089296, 8370.616539790219, 94056.02890920984, 50100.63053377039, -187500.02235174447, 68084.59825332144, 71587.25071993479, 73253.52856558902, 6700.918877234326, 13123.469129022256, 86877.74382564353, 37512.597443175015, 12217.374112293019, 17870.376154229183, 0.098, 1.008, 0.02, 192.0, 0.0, 0.0, 0.0, 0.0, 0.0, 0.0, 0.0, 0.0, 0.0, 1.695422245156677E9, 0.0, 2023-09-22 17:37:25.156
216.0, -154692.73533734505, 56990.108727229686, -8389.973150488515, 8388.229714421, 94085.19793572402, 50092.80742321103, -187500.02235174447, 68138.75653013666, 71756.94516383948, 73280.70828684668, 6711.513604106141, 13102.234971789716, 86880.67190416717, 37487.0493992626, 12196.184658549388, 17897.153544086643, 0.098, 1.008, 0.02, 192.0, 0.0, 0.0, 0.0, 0.0, 0.0, 0.0, 0.0, 0.0, 0.0, 1.69542224515668E9, 0.0, 2023-09-22 17:37:25.156
218.0, -154840.63683040583, 56890.01761555882, -8394.75642380195, 8364.916844954116, 94032.22430136494, 50085.34194056296, -187500.02235174447, 68072.75182876013, 71607.21082773338, 73248.23120215311, 6697.052025443558, 13117.21064057477, 86868.87018309477, 37502.91913782587, 12215.585972736595, 17883.407221246627, 0.10200000000000001, 1.012, 0.012, 192.0, 1.5, 24.0, 15.5, 80.0, 0.0, 48.0, 0.0, 0.0, 0.0, 1.695422245156684E9, 0.0, 2023-09-22 17:37:25.156
220.0, -154662.78399977495, 56998.71414884498, -8391.560124344842, 8390.822516777816, 94087.00842702489, 50083.822021939995, -187500.02235174447, 68144.56798369503, 71739.51080316435, 73263.0951122159, 6698.795461511071, 13092.869590862942, 86867.86435459428, 37475.00180900119, 12188.473306712307, 17890.62683470569, 0.10200000000000001, 1.012, 0.012, 192.0, 0.0, 0.0, 0.0, 0.0, 0.0, 0.0, 0.0, 0.0, 0.0, 1.695422245156687E9, 0.0, 2023-09-22 17:37:25.156
222.0, -154862.049801594, 56874.72902235139, -8352.981013414981, 8360.871179207705, 94004.6422487071, 50109.481824574694, -187500.02235174447, 68055.13865412935, 71627.97559833236, 73265.30793491697, 6702.416444112831, 13131.426350048347, 86882.9070786127, 37522.70043166881, 12230.47223454383, 17886.40235500364, 0.10200000000000001, 1.012, 0.012, 192.0, 0.0, 0.0, 0.0, 0.0, 0.0, 0.0, 0.0, 0.0, 0.0, 1.69542224515669E9, 0.0, 2023-09-22 17:37:25.156
224.0, -154677.87142728228, 56997.52950638885, -8395.069348224324, 8408.681560597606, 94101.62646789866, 50076.89298115885, -187500.02235174447, 68146.95962035176, 71674.4225233105, 73288.33023170594, 6722.71182807825, 13117.300047552591, 86893.2559362955, 37497.88999532342, 12209.215725566832, 17912.06215763833, 0.10200000000000001, 1.012, 0.012, 192.0, 0.0, 0.0, 0.0, 0.0, 0.0, 0.0, 0.0, 0.0, 0.0, 1.695422245156694E9, 0.0, 2023-09-22 17:37:25.156
226.0, -154856.21599629117, 56876.695975863455, -8352.019888403403, 8355.015022160414, 93995.90271662507, 50103.960943694234, -187500.02235174447, 68048.8131104485, 71647.28750554175, 73257.14954819078, 6691.620551540917, 13116.093053352006, 86865.53977317092, 37508.976460573256, 12215.720083203327, 17883.004889846434, 0.10200000000000001, 1.012, 0.012, 192.0, 0.0, 0.0, 0.0, 0.0, 0.0, 0.0, 0.0, 0.0, 0.0, 1.695422245218353E9, 0.0, 2023-09-22 17:37:25.218
228.0, -154671.88115976827, 56994.04263425382, -8398.489165125986, 8410.648514109673, 94117.38444773966, 50078.61406548191, -187500.02235174447, 68152.45814948775, 71643.24183979533, 73274.00276351009, 6713.793482040583, 13103.173745056838, 86880.4036832337, 37488.189338229815, 12206.712330187838, 17914.900829184156, 0.10400000000000001, 1.012, 0.016, 192.0, 1.5, 32.0, 15.5, 80.0, 0.0, 64.0, 0.0, 0.0, 0.0, 1.695422245218365E9, 0.0, 2023-09-22 17:37:25.218
230.0, -154847.32000199796, 56876.51716190782, -8359.306557095833, 8353.98684191547, 93981.75406238486, 50112.52166182061, -187500.02235174447, 68067.85679672442, 71674.69074424396, 73266.44787388419, 6693.207525397244, 13118.194117330804, 86866.2550289935, 37519.928815356354, 12226.270106586231, 17894.15841032963, 0.10400000000000001, 1.012, 0.016, 192.0, 0.0, 0.0, 0.0, 0.0, 0.0, 0.0, 0.0, 0.0, 0.0, 1.695422245218369E9, 0.0, 2023-09-22 17:37:25.218
232.0, -154696.3116164579, 56982.73265155943, -8387.559162087342, 8421.422054937131, 94104.44278770004, 50102.53043204909, -187500.02235174447, 68157.91197513485, 71604.19334223191, 73271.92405127574, 6701.321208634521, 13096.40116648688, 86867.99846506101, 37494.58193714404, 12205.952370876357, 17912.08450938279, 0.10400000000000001, 1.012, 0.016, 192.0, 0.0, 0.0, 0.0, 0.0, 0.0, 0.0, 0.0, 0.0, 0.0, 1.695422245218372E9, 0.0, 2023-09-22 17:37:25.218
234.0, -154858.94290911473, 56880.98751079888, -8359.999461173948, 8364.201589131546, 93984.05629206376, 50111.47112983121, -187500.02235174447, 68072.52831131557, 71670.08628488616, 73288.53139740604, 6703.578734824507, 13125.279620323137, 86872.11118604078, 37534.256283552204, 12237.356571836064, 17904.239047078972, 0.10400000000000001, 1.012, 0.016, 192.0, 0.0, 0.0, 0.0, 0.0, 0.0, 0.0, 0.0, 0.0, 0.0, 1.695422245218375E9, 0.0, 2023-09-22 17:37:25.218
236.0, -154696.9598170471, 56983.47025912646, -8409.173298975624, 8421.176185748123, 94114.27755526037, 50074.85897241342, -187500.02235174447, 68167.56792873955, 71562.8873184785, 73256.7472167906, 6690.726481762706, 13083.97359656973, 86855.92852305515, 37482.48964339372, 12193.390690492475, 17901.467430766515, 0.10400000000000001, 1.012, 0.016, 192.0, 0.0, 0.0, 0.0, 0.0, 0.0, 0.0, 0.0, 0.0, 0.0, 1.695422245218378E9, 0.0, 2023-09-22 17:37:25.218
238.0, -154823.0460075195, 56893.750356882854, -8344.040315632858, 8359.261853606922, 93972.72395762491, 50110.174728652804, -187500.02235174447, 68085.29115739955, 71712.24167492887, 73261.26226917056, 6694.906257975848, 13109.521640482146, 86861.69527312461, 37518.0065653332, 12218.1340716045, 17887.497590481948, 0.10200000000000001, 1.012, 0.018000000000000002, 192.0, 1.5, 24.0, 15.5, 80.0, 0.0, 72.0, 0.0, 0.0, 0.0, 1.695422245218382E9, 0.0, 2023-09-22 17:37:25.218
240.0, -154718.50689870203, 56967.3993548631, -8395.762252302438, 8425.758293361461, 94109.47193020249, 50083.95613240673, -187500.02235174447, 68166.7409141947, 71538.30039957767, 73274.71801933265, 6712.474729117719, 13110.572172471544, 86877.67677041017, 37508.66353615088, 12219.251658827265, 17907.74827095846, 0.10200000000000001, 1.012, 0.018000000000000002, 192.0, 0.0, 0.0, 0.0, 0.0, 0.0, 0.0, 0.0, 0.0, 0.0, 1.695422245218385E9, 0.0, 2023-09-22 17:37:25.218
242.0, -154774.69918426266, 56910.827089646715, -8358.390135573165, 8360.044164662859, 93966.89015232208, 50096.42840581279, -187500.02235174447, 68101.29500642956, 71754.91115509406, 73263.9444785052, 6689.005397439647, 13096.02118683114, 86847.59132237332, 37494.87250982196, 12199.582123706596, 17882.423744490596, 0.10200000000000001, 1.012, 0.018000000000000002, 192.0, 0.0, 0.0, 0.0, 0.0, 0.0, 0.0, 0.0, 0.0, 0.0, 1.695422245277325E9, 0.0, 2023-09-22 17:37:25.277
244.0, -154718.95393359114, 56957.028145435834, -8379.46783059452, 8426.3394387173, 94076.704272831, 50094.01441741162, -187500.02235174447, 68149.35125700847, 71554.95244919688, 73259.04944646948, 6702.729368535205, 13103.441965990301, 86860.26476147947, 37502.69562038131, 12208.858097655548, 17895.54421848586, 0.10200000000000001, 1.012, 0.018000000000000002, 192.0, 0.0, 0.0, 0.0, 0.0, 0.0, 0.0, 0.0, 0.0, 0.0, 1.69542224527734E9, 0.0, 2023-09-22 17:37:25.277
246.0, -154755.3872770533, 56924.70752295346, -8339.50291150843, 8375.511571825931, 93965.37023369911, 50106.24082162867, -187500.02235174447, 68105.76535532062, 71771.51850122435, 73287.07853401644, 6704.986894725192, 13109.342826526503, 86863.3045987254, 37519.12415255596, 12213.41785352443, 17897.39941327565, 0.10200000000000001, 1.012, 0.018000000000000002, 192.0, 0.0, 0.0, 0.0, 0.0, 0.0, 0.0, 0.0, 0.0, 0.0, 1.695422245277344E9, 0.0, 2023-09-22 17:37:25.277
248.0, -154752.0792188739, 56937.31390682625, -8374.617502047719, 8428.239336996001, 94071.71983381746, 50093.03094065558, -187500.02235174447, 68137.10250104696, 71528.24211457279, 73281.17767348024, 6716.051008230568, 13116.40597777438, 86879.44255822213, 37530.143562572426, 12227.499452531274, 17909.60346574825, 0.10400000000000001, 1.01, 0.026000000000000002, 192.0, 1.5, 32.0, 15.5, 72.0, 0.0, 104.0, 0.0, 0.0, 0.0, 1.695422245277347E9, 0.0, 2023-09-22 17:37:25.277
250.0, -154733.05788434242, 56941.40427606157, -8355.439705305065, 8379.668996294618, 93981.97757982941, 50096.406054068335, -187500.02235174447, 68114.16961123582, 71778.8945768946, 73281.4458944137, 6700.985932467692, 13095.238875775203, 86856.86729632226, 37513.04447806412, 12202.42079525242, 17901.35567204424, 0.10400000000000001, 1.01, 0.026000000000000002, 192.0, 0.0, 0.0, 0.0, 0.0, 0.0, 0.0, 0.0, 0.0, 0.0, 1.695422245277351E9, 0.0, 2023-09-22 17:37:25.277
252.0, -154755.70020147564, 56932.687095724, -8396.052824980357, 8416.772892090428, 94046.10473467168, 50074.65780671332, -187500.02235174447, 68133.079187045, 71539.14976586697, 73258.87063251385, 6691.106461418446, 13099.753928155176, 86856.24144747751, 37515.48081820975, 12209.282780800198, 17898.24877956495, 0.10400000000000001, 1.01, 0.026000000000000002, 192.0, 0.0, 0.0, 0.0, 0.0, 0.0, 0.0, 0.0, 0.0, 0.0, 1.695422245277354E9, 0.0, 2023-09-22 17:37:25.277
254.0, -154689.58374137685, 56956.37994484663, -8351.259929091922, 8382.708833540539, 93976.4343472045, 50093.94736217825, -187500.02235174447, 68132.0286550556, 71802.11803938365, 73263.31862966045, 6677.136621133879, 13069.981404540707, 86840.10348798078, 37490.35745744198, 12184.785268877182, 17891.16327657262, 0.10400000000000001, 1.01, 0.026000000000000002, 192.0, 0.0, 0.0, 0.0, 0.0, 0.0, 0.0, 0.0, 0.0, 0.0, 1.695422245277357E9, 0.0, 2023-09-22 17:37:25.277
0.0, -154777.24728313056, 56908.14488031207, -8367.777868244395, 8416.504671156963, 94017.65096398008, 50093.56738252251, -187500.02235174447, 68119.69049211628, 71546.74935898178, 73272.41578965375, 6703.80225226906, 13111.935628883319, 86869.60779066179, 37538.123135342976, 12232.573298522628, 17908.93291341459, 0.10400000000000001, 1.01, 0.026000000000000002, 192.0, 0.0, 0.0, 0.0, 0.0, 0.0, 0.0, 0.0, 0.0, 0.0, 1.695422245336612E9, 0.0, 2023-09-22 17:37:25.336
2.0, -154656.68197353865, 56969.38866011961, -8350.07528663579, 8395.47167962452, 93996.75208291438, 50089.34290282046, -187500.02235174447, 68141.90812610486, 71793.26674857936, 73263.43038838272, 6683.37275783691, 13059.029049757606, 86838.31534842437, 37486.6470678624, 12176.425716450896, 17893.756078929437, 0.10400000000000001, 1.01, 0.03, 192.0, 1.5, 32.0, 15.5, 72.0, 0.0, 120.0, 0.0, 0.0, 0.0, 1.695422245336628E9, 0.0, 2023-09-22 17:37:25.336
4.0, -154791.95473098216, 56897.86307786263, -8360.737068740973, 8408.078063497313, 94002.9882196174, 50082.81619343951, -187500.02235174447, 68103.70899483073, 71554.21484162984, 73269.71122857467, 6705.143356936379, 13113.053216106084, 86869.27251449497, 37546.48268776926, 12236.41779856894, 17906.831849435788, 0.10400000000000001, 1.01, 0.03, 192.0, 0.0, 0.0, 0.0, 0.0, 0.0, 0.0, 0.0, 0.0, 0.0, 1.695422245336632E9, 0.0, 2023-09-22 17:37:25.336
6.0, -154639.09115065233, 56984.56549460477, -8358.904225695638, 8401.03726399389, 94002.96586787295, 50069.829829910974, -187500.02235174447, 68150.20062329777, 71768.7915884008, 73263.34098140491, 6684.244475870666, 13057.307965434547, 86840.75168856999, 37484.501300394695, 12177.163324017922, 17894.292520796364, 0.10400000000000001, 1.01, 0.03, 192.0, 0.0, 0.0, 0.0, 0.0, 0.0, 0.0, 0.0, 0.0, 0.0, 1.695422245336636E9, 0.0, 2023-09-22 17:37:25.336
8.0, -154793.9887397276, 56888.00595855784, -8354.031545404381, 8393.549429601364, 93969.21473374544, 50082.95030390624, -187500.02235174447, 68087.54868358954, 71585.73080131183, 73260.56936509245, 6688.804231739549, 13095.015358330651, 86853.98392128754, 37528.71305092729, 12217.262353570743, 17891.87853239519, 0.10400000000000001, 1.01, 0.03, 192.0, 0.0, 0.0, 0.0, 0.0, 0.0, 0.0, 0.0, 0.0, 0.0, 1.695422245336639E9, 0.0, 2023-09-22 17:37:25.336
10.0, -154610.25740030498, 56997.46245115548, -8361.340565841267, 8414.895345556182, 94008.91143189806, 50068.26520779911, -187500.02235174447, 68158.3813617684, 71748.3844457131, 73265.95613550617, 6690.815888740527, 13059.453732902257, 86841.01990950346, 37485.37301842845, 12175.621053650506, 17899.701642954547, 0.10400000000000001, 1.01, 0.03, 192.0, 0.0, 0.0, 0.0, 0.0, 0.0, 0.0, 0.0, 0.0, 0.0, 1.695422245336643E9, 0.0, 2023-09-22 17:37:25.336
12.0, -154788.75843152506, 56883.35679571114, -8348.175388357091, 8385.994539975469, 93946.84063754567, 50081.40803353883, -187500.02235174447, 68070.58370954797, 71609.24483647881, 73264.83854828341, 6693.028711441602, 13097.295236265092, 86851.1452497417, 37530.367080016986, 12214.93777214739, 17892.16910507311, 0.096, 1.012, 0.028, 192.0, 1.5, 0.0, 15.5, 80.0, 0.0, 112.0, 0.0, 0.0, 0.0, 1.695422245336646E9, 0.0, 2023-09-22 17:37:25.336
14.0, -154613.02901661742, 56999.205887223, -8350.410562802621, 8418.873956069227, 94006.5421469858, 50078.167030592806, -187500.02235174447, 68142.10929180495, 71711.14643945056, 73271.81229255347, 6695.442699842775, 13063.857026559954, 86848.01600551797, 37494.26901272166, 12181.968949075814, 17896.527695241894, 0.096, 1.012, 0.028, 192.0, 0.0, 0.0, 0.0, 0.0, 0.0, 0.0, 0.0, 0.0, 0.0, 1.69542224533665E9, 0.0, 2023-09-22 17:37:25.336
16.0, -154780.57769305442, 56889.19060101397, -8355.685574494073, 8376.852676493249, 93916.30815461972, 50073.58492297947, -187500.02235174447, 68070.9189857148, 71624.53342968624, 73271.81229255347, 6694.794499253571, 13091.439079217802, 86850.78762183043, 37533.13869632944, 12218.022312882224, 17890.962110872522, 0.096, 1.012, 0.028, 192.0, 0.0, 0.0, 0.0, 0.0, 0.0, 0.0, 0.0, 0.0, 0.0, 1.695422245396405E9, 0.0, 2023-09-22 17:37:25.396
18.0, -154562.42466717062, 57014.47212868597, -8376.115068926223, 8414.694179856084, 94015.05816162327, 50053.66951866979, -187500.02235174447, 68171.70300146377, 71698.4730003444, 73248.5888300644, 6673.537990276574, 13029.547098821056, 86820.5457115824, 37464.20591642927, 12154.20808246232, 17881.753192156935, 0.096, 1.012, 0.028, 192.0, 0.0, 0.0, 0.0, 0.0, 0.0, 0.0, 0.0, 0.0, 0.0, 1.695422245396415E9, 0.0, 2023-09-22 17:37:25.396
20.0, -154766.00435566955, 56885.9272463235, -8336.574832984787, 8364.022775175903, 93893.01763689729, 50085.18547835177, -187500.02235174447, 68068.52734905807, 71672.05323839822, 73272.52754837603, 6697.007321954647, 13090.388547228402, 86846.20551421709, 37538.07843185406, 12215.720083203327, 17888.63752944917, 0.096, 1.012, 0.028, 192.0, 0.0, 0.0, 0.0, 0.0, 0.0, 0.0, 0.0, 0.0, 0.0, 1.695422245396418E9, 0.0, 2023-09-22 17:37:25.396
22.0, -154588.50915294996, 57003.452718669505, -8375.243350892468, 8418.739845602495, 94005.8939463966, 50061.5149809736, -187500.02235174447, 68162.47173100374, 71642.23601129485, 73268.63834484082, 6698.214316155233, 13044.43336062829, 86832.63800533272, 37487.988172529724, 12169.921358814403, 17895.34305278576, 0.1, 1.008, 0.03, 192.0, 1.5, 16.0, 15.5, 64.0, 0.0, 120.0, 0.0, 0.0, 0.0, 1.695422245396422E9, 0.0, 2023-09-22 17:37:25.396
24.0, -154772.39695458376, 56884.2285137449, -8314.804233885317, 8369.096621167257, 93885.01571238229, 50104.00564718314, -187500.02235174447, 68060.52542454308, 71682.29033735876, 73283.9492897927, 6705.61274356994, 13085.918198337342, 86844.48442989403, 37542.57113248958, 12216.70355995936, 17894.292520796364, 0.1, 1.008, 0.03, 192.0, 0.0, 0.0, 0.0, 0.0, 0.0, 0.0, 0.0, 0.0, 0.0, 1.695422245396425E9, 0.0, 2023-09-22 17:37:25.396
26.0, -154603.50717347948, 56996.389567421626, -8377.880856738193, 8425.981810806014, 94021.9424989155, 50055.94939660423, -187500.02235174447, 68157.75551292366, 71594.67149909395, 73273.01928675405, 6712.497080862175, 13054.379886910903, 86840.63992984772, 37501.600384903, 12185.925207844402, 17905.64720697966, 0.1, 1.008, 0.03, 192.0, 0.0, 0.0, 0.0, 0.0, 0.0, 0.0, 0.0, 0.0, 0.0, 1.695422245396428E9, 0.0, 2023-09-22 17:37:25.396
28.0, -154734.1754715652, 56897.70661565145, -8329.779902670372, 8358.166618128613, 93872.8116599097, 50079.75400444913, -187500.02235174447, 68071.5224828151, 71714.16392495202, 73273.26515594307, 6697.2308393992, 13066.87451206142, 86823.6973075506, 37524.17564680286, 12192.608379436539, 17875.159427542618, 0.1, 1.008, 0.03, 192.0, 0.0, 0.0, 0.0, 0.0, 0.0, 0.0, 0.0, 0.0, 0.0, 1.695422245396431E9, 0.0, 2023-09-22 17:37:25.396
30.0, -154609.11746133774, 56983.447907382004, -8367.55435079984, 8424.797168349884, 94001.11067308315, 50056.418783237794, -187500.02235174447, 68149.17244305283, 71570.79983601569, 73274.87448154384, 6711.200679683767, 13052.278822932103, 86834.76142105597, 37506.67423089436, 12186.439297966874, 17895.41010801913, 0.1, 1.008, 0.03, 192.0, 0.0, 0.0, 0.0, 0.0, 0.0, 0.0, 0.0, 0.0, 0.0, 1.695422245456689E9, 0.0, 2023-09-22 17:37:25.456
32.0, -154698.14445950324, 56906.04381633327, -8336.4183707736, 8354.165655871113, 93874.62215121057, 50066.11944033139, -187500.02235174447, 68075.18816890576, 71742.32712296571, 73267.78897855151, 6693.296932375066, 13048.389619396881, 86816.63415630271, 37511.211635018786, 12185.478172955296, 17885.642395692157, 0.098, 1.012, 0.03, 192.0, 1.5, 8.0, 15.5, 80.0, 0.0, 120.0, 0.0, 0.0, 0.0, 1.695422245456703E9, 0.0, 2023-09-22 17:37:25.456
34.0, -154622.9084876667, 56958.436305336516, -8356.579644272286, 8420.57268864783, 93997.89202188159, 50062.18553330726, -187500.02235174447, 68143.94213485028, 71554.90774570797, 73269.82298729694, 6701.522374334619, 13044.43336062829, 86828.72645005303, 37506.51776868317, 12187.847457867558, 17896.974730130998, 0.098, 1.012, 0.03, 192.0, 0.0, 0.0, 0.0, 0.0, 0.0, 0.0, 0.0, 0.0, 0.0, 1.695422245456707E9, 0.0, 2023-09-22 17:37:25.456
36.0, -154688.9131890432, 56906.73672041139, -8318.671085676086, 8367.956682200036, 93872.6551976985, 50078.21173408172, -187500.02235174447, 68091.6167010804, 71744.9869805559, 73286.02800202704, 6707.624400570918, 13056.123322978417, 86834.15792395567, 37529.160085816395, 12204.901838886957, 17905.535448257382, 0.098, 1.012, 0.03, 192.0, 0.0, 0.0, 0.0, 0.0, 0.0, 0.0, 0.0, 0.0, 0.0, 1.69542224545671E9, 0.0, 2023-09-22 17:37:25.456
38.0, -154646.78015074495, 56942.72302898444, -8351.103466880735, 8434.408418465664, 93977.90956233855, 50065.73946067566, -187500.02235174447, 68139.56119293705, 71525.22462907132, 73281.58000488044, 6712.027694228613, 13055.497474133668, 86831.7439355545, 37523.080411324554, 12198.956274861846, 17912.196268105065, 0.098, 1.012, 0.03, 192.0, 0.0, 0.0, 0.0, 0.0, 0.0, 0.0, 0.0, 0.0, 0.0, 1.695422245456713E9, 0.0, 2023-09-22 17:37:25.456
40.0, -154663.02986896396, 56927.03210437681, -8302.756643623907, 8384.809897519339, 93864.72032841686, 50090.95222842124, -187500.02235174447, 68092.1754946918, 71759.24739351838, 73293.51583641957, 6708.272601160122, 13052.614099098933, 86825.53015059592, 37523.0580595801, 12191.60255093605, 17909.514058770426, 0.098, 1.012, 0.03, 192.0, 0.0, 0.0, 0.0, 0.0, 0.0, 0.0, 0.0, 0.0, 0.0, 1.695422245456716E9, 0.0, 2023-09-22 17:37:25.456
42.0, -154697.54096240294, 56933.75997945786, -8331.992725371449, 8444.801979637383, 93957.63653011758, 50087.84533594195, -187500.02235174447, 68108.69343384427, 71492.09934378855, 73314.19120004073, 6737.62044162994, 13099.128079310427, 86858.11899401176, 37565.43696706736, 12231.366304322042, 17937.230221895006, 0.098, 1.006, 0.03, 192.0, 1.5, 8.0, 15.5, 56.0, 0.0, 120.0, 0.0, 0.0, 0.0, 1.69542224545672E9, 0.0, 2023-09-22 17:37:25.456
44.0, -154646.6013367893, 56951.90959595556, -8325.890699135149, 8397.013949991937, 93872.92341863197, 50066.47706824268, -187500.02235174447, 68099.90919827332, 71745.8363468452, 73293.58289165293, 6705.679798803306, 13050.334221164492, 86814.86836849074, 37516.7548676437, 12178.437373451874, 17913.470317539017, 0.098, 1.006, 0.03, 192.0, 0.0, 0.0, 0.0, 0.0, 0.0, 0.0, 0.0, 0.0, 0.0, 1.695422245456723E9, 0.0, 2023-09-22 17:37:25.456
46.0, -154694.67993911266, 56920.08071185121, -8365.497990309954, 8417.868127568738, 93929.09335244815, 50039.923195829775, -187500.02235174447, 68102.21142795222, 71498.33548049159, 73280.7976938245, 6702.818775513027, 13060.616023613933, 86823.07145870585, 37526.81315264859, 12196.810507394137, 17899.88045691019, 0.098, 1.006, 0.03, 192.0, 0.0, 0.0, 0.0, 0.0, 0.0, 0.0, 0.0, 0.0, 0.0, 1.695422245516921E9, 0.0, 2023-09-22 17:37:25.516
48.0, -154594.8794001197, 56961.25262513789, -8340.396981286643, 8383.1782201741, 93885.77567169377, 50047.16516103329, -187500.02235174447, 68110.5262768896, 71758.91211735155, 73271.54407162, 6679.885885701881, 13015.420796325303, 86796.00349617047, 37484.79187307261, 12150.989431260758, 17882.0214130904, 0.098, 1.006, 0.03, 192.0, 0.0, 0.0, 0.0, 0.0, 0.0, 0.0, 0.0, 0.0, 0.0, 1.695422245516933E9, 0.0, 2023-09-22 17:37:25.516
50.0, -154691.0589565109, 56904.97093259942, -8352.377516314687, 8405.015874506937, 93921.76198026682, 50045.77935287706, -187500.02235174447, 68089.38152663488, 71516.93213187839, 73263.47509187163, 6687.261961372133, 13052.43528514329, 86813.8848917347, 37522.387507246436, 12191.691957913872, 17893.48785799597, 0.098, 1.006, 0.03, 192.0, 0.0, 0.0, 0.0, 0.0, 0.0, 0.0, 0.0, 0.0, 0.0, 1.695422245516936E9, 0.0, 2023-09-22 17:37:25.516
52.0, -154568.59374864027, 56975.11070670017, -8327.343562524744, 8399.025606992915, 93908.99913418283, 50050.11559130139, -187500.02235174447, 68115.08603275848, 71744.51759392233, 73278.67427810124, 6689.94417070677, 13024.249735385149, 86804.85478697477, 37492.27970746514, 12160.958309287824, 17898.427593520595, 0.1, 1.01, 0.03, 192.0, 1.5, 16.0, 15.5, 72.0, 0.0, 120.0, 0.0, 0.0, 0.0, 1.695422245516939E9, 0.0, 2023-09-22 17:37:25.516
54.0, -154734.08606458738, 56888.63180740259, -8326.002457857425, 8410.223830965022, 93898.44911079993, 50058.60925419441, -187500.02235174447, 68056.83738670795, 71514.09346033257, 73297.49444693261, 6715.849842530471, 13084.957073325762, 86841.24342694801, 37559.13377513096, 12219.944562905379, 17911.771584960414, 0.1, 1.01, 0.03, 192.0, 0.0, 0.0, 0.0, 0.0, 0.0, 0.0, 0.0, 0.0, 0.0, 1.695422245516943E9, 0.0, 2023-09-22 17:37:25.516
56.0, -154572.66176613115, 56987.2030004505, -8328.327039280777, 8415.454139167565, 93916.39756159754, 50036.59278590594, -187500.02235174447, 68111.12977398989, 71706.6760905595, 73290.78892359602, 6702.148223179367, 13031.067017444018, 86812.94611846759, 37496.41478018937, 12156.97969877478, 17902.07092786681, 0.1, 1.01, 0.03, 192.0, 0.0, 0.0, 0.0, 0.0, 0.0, 0.0, 0.0, 0.0, 0.0, 1.695422245516946E9, 0.0, 2023-09-22 17:37:25.516
58.0, -154746.24541357107, 56886.08370853469, -8321.241536288446, 8406.80401406336, 93871.69407268692, 50050.36146049041, -187500.02235174447, 68046.77910170307, 71531.19254484089, 73291.21360674067, 6706.886793003892, 13075.479933676712, 86828.23471167502, 37549.34371105954, 12201.593780707572, 17903.568494745316, 0.1, 1.01, 0.03, 192.0, 0.0, 0.0, 0.0, 0.0, 0.0, 0.0, 0.0, 0.0, 0.0, 1.695422245516949E9, 0.0, 2023-09-22 17:37:25.516
60.0, -154565.30804220535, 56997.88713430013, -8342.922728410093, 8431.346229475288, 93918.90095697653, 50028.90378581331, -187500.02235174447, 68131.31339923304, 71666.9123371735, 73297.62855739934, 6703.466976102231, 13039.605383825945, 86816.05301094688, 37507.99298381722, 12161.0700680101, 17914.78907046188, 0.1, 1.01, 0.03, 192.0, 0.0, 0.0, 0.0, 0.0, 0.0, 0.0, 0.0, 0.0, 0.0, 1.695422245577298E9, 0.0, 2023-09-22 17:37:25.577
62.0, -154748.90527116123, 56880.138144509576, -8319.900431621127, 8400.679636082607, 93834.5454734022, 50048.08158255596, -187500.02235174447, 68048.16490985929, 71552.71727475134, 73280.3953624243, 6695.599162053963, 13064.169950982327, 86814.86836849074, 37544.58278949056, 12195.156478304443, 17906.206000591043, 0.10400000000000001, 1.01, 0.032, 192.0, 1.5, 32.0, 15.5, 72.0, 0.5, 0.0, 0.0, 0.0, 0.0, 1.695422245577311E9, 0.0, 2023-09-22 17:37:25.577
64.0, -154555.1379984782, 56995.29433194332, -8340.776960942383, 8432.150892275678, 93920.77850351078, 50032.61417539289, -187500.02235174447, 68135.20260276826, 71635.66459842499, 73286.92207180525, 6696.090900431979, 13020.516994061112, 86805.27947011942, 37499.56637615757, 12157.583195875073, 17918.45475655255, 0.10400000000000001, 1.01, 0.032, 192.0, 0.0, 0.0, 0.0, 0.0, 0.0, 0.0, 0.0, 0.0, 0.0, 1.695422245577314E9, 0.0, 2023-09-22 17:37:25.577
66.0, -154739.4728350011, 56872.40444092804, -8323.677876434074, 8384.385214374688, 93829.2928134552, 50042.13601853085, -187500.02235174447, 68049.43895929324, 71572.56562382766, 73289.58192939544, 6691.464089329731, 13055.095142733473, 86813.32609812333, 37546.862667425, 12200.207972551343, 17911.101032626753, 0.10400000000000001, 1.01, 0.032, 192.0, 0.0, 0.0, 0.0, 0.0, 0.0, 0.0, 0.0, 0.0, 0.0, 1.695422245577318E9, 0.0, 2023-09-22 17:37:25.577
68.0, -154538.06126571432, 56999.16118373408, -8360.044164662859, 8435.503653943975, 93935.7765240403, 50010.50830012659, -187500.02235174447, 68157.04025710109, 71599.9018072965, 73276.55086237799, 6687.776051494605, 13007.396520065848, 86803.71484800754, 37496.70535286729, 12157.672602852894, 17910.8775151822, 0.10400000000000001, 1.01, 0.032, 192.0, 0.0, 0.0, 0.0, 0.0, 0.0, 0.0, 0.0, 0.0, 0.0, 1.695422245577322E9, 0.0, 2023-09-22 17:37:25.577
70.0, -154703.15125026123, 56876.83008633019, -8322.135606066657, 8378.506705582942, 93810.85262427958, 50033.57530040447, -187500.02235174447, 68063.3640960889, 71623.23702850784, 73264.21269943866, 6673.806211210038, 13025.34497086346, 86793.09776939127, 37524.51092296969, 12176.559826917628, 17888.83869514927, 0.10400000000000001, 1.01, 0.032, 192.0, 0.0, 0.0, 0.0, 0.0, 0.0, 0.0, 0.0, 0.0, 0.0, 1.695422245577326E9, 0.0, 2023-09-22 17:37:25.577
72.0, -154531.8698325002, 56989.92991327404, -8348.689478479562, 8445.494883715497, 93931.35087863814, 50019.35959093089, -187500.02235174447, 68154.46980648873, 71574.73374303982, 73271.05233324198, 6684.8032694820495, 13011.419834067803, 86804.25128987448, 37504.684925637834, 12158.521969142195, 17911.0786808823, 0.092, 1.012, 0.03, 192.0, 1.0, 112.0, 15.5, 80.0, 0.0, 120.0, 0.0, 0.0, 0.0, 1.695422245577329E9, 0.0, 2023-09-22 17:37:25.577
74.0, -154701.27370372697, 56881.68041487699, -8297.54868716582, 8389.369653388221, 93793.75353977126, 50049.713259901204, -187500.02235174447, 68068.12501765788, 71642.34777001712, 73282.38466768083, 6689.363025350932, 13043.539290850078, 86811.96264171155, 37548.5614000036, 12188.383899734486, 17908.821154692312, 0.092, 1.012, 0.03, 192.0, 0.0, 0.0, 0.0, 0.0, 0.0, 0.0, 0.0, 0.0, 0.0, 1.695422245577332E9, 0.0, 2023-09-22 17:37:25.577
76.0, -154556.14382697866, 56982.84441028171, -8355.46205704952, 8450.345212262298, 93929.09335244815, 50010.44124489323, -187500.02235174447, 68162.7846554261, 71525.09051860459, 73291.68299337423, 6697.588467310485, 13025.657895285833, 86812.32026962284, 37522.96865260228, 12167.775591346694, 17925.65201826716, 0.092, 1.012, 0.03, 192.0, 0.0, 0.0, 0.0, 0.0, 0.0, 0.0, 0.0, 0.0, 0.0, 1.69542224563657E9, 0.0, 2023-09-22 17:37:25.636
78.0, -154667.99195623302, 56893.906819094045, -8324.460187490009, 8375.220999148012, 93784.8351937336, 50013.10110248341, -187500.02235174447, 68068.75086650263, 71663.44781678294, 73276.10382748889, 6673.158010620834, 13021.299305117049, 86790.86259494575, 37526.76844915968, 12164.98162328978, 17892.750250428948, 0.092, 1.012, 0.03, 192.0, 0.0, 0.0, 0.0, 0.0, 0.0, 0.0, 0.0, 0.0, 0.0, 1.695422245636579E9, 0.0, 2023-09-22 17:37:25.636
80.0, -154553.2381001995, 56974.306043899785, -8347.79540870135, 8442.991488336504, 93916.26345113081, 50008.29547742552, -187500.02235174447, 68140.20939352625, 71511.32184402012, 73274.4945018881, 6681.472859558208, 13010.995150923152, 86798.99862992748, 37512.57509143056, 12155.795056318648, 17902.674424967103, 0.092, 1.012, 0.03, 192.0, 0.0, 0.0, 0.0, 0.0, 0.0, 0.0, 0.0, 0.0, 0.0, 1.695422245636583E9, 0.0, 2023-09-22 17:37:25.636
82.0, -154645.68491526664, 56909.843612890676, -8293.860649330694, 8386.642740564674, 93781.79535648768, 50035.81047485, -187500.02235174447, 68074.22704389418, 71689.88993047357, 73288.44199042821, 6688.960693950737, 13034.017447712118, 86803.37957184072, 37540.71593769979, 12174.16819026091, 17906.429518035595, 0.094, 1.016, 0.03, 192.0, 1.0, 120.0, 15.5, 96.0, 0.0, 120.0, 0.0, 0.0, 0.0, 1.69542224563659E9, 0.0, 2023-09-22 17:37:25.636
84.0, -154575.18751325458, 56965.499456584395, -8361.765248985917, 8447.551244205386, 93909.04383767175, 49994.57150632996, -187500.02235174447, 68144.99266683968, 71474.93320404687, 73294.00757479758, 6699.845993500471, 13033.570412823012, 86811.739124267, 37542.8617051675, 12176.202199006344, 17923.34978858826, 0.094, 1.016, 0.03, 192.0, 0.0, 0.0, 0.0, 0.0, 0.0, 0.0, 0.0, 0.0, 0.0, 1.695422245636594E9, 0.0, 2023-09-22 17:37:25.636
86.0, -154599.55091471088, 56918.49373799488, -8305.192983769535, 8381.926522484604, 93792.41243510395, 50016.76678857408, -187500.02235174447, 68094.25420692614, 71712.9792824959, 73260.88228951482, 6667.011280895625, 13002.993226408153, 86781.20664134105, 37517.73834439973, 12156.890291796959, 17900.036919121376, 0.094, 1.016, 0.03, 192.0, 0.0, 0.0, 0.0, 0.0, 0.0, 0.0, 0.0, 0.0, 0.0, 1.695422245636598E9, 0.0, 2023-09-22 17:37:25.636
88.0, -154589.06794656135, 56935.011677147355, -8335.859577162217, 8437.783531878416, 93900.6172300121, 50008.13901521433, -187500.02235174447, 68133.81679461204, 71471.73690458976, 73268.66069658527, 6695.107423675946, 13034.799758768053, 86816.23182490253, 37549.14254535944, 12197.436356238886, 17932.491652070483, 0.094, 1.016, 0.03, 192.0, 0.0, 0.0, 0.0, 0.0, 0.0, 0.0, 0.0, 0.0, 0.0, 1.695422245636602E9, 0.0, 2023-09-22 17:37:25.636
90.0, -154592.733632652, 56922.20412757446, -8294.955884809004, 8387.872086509715, 93805.4435021214, 50025.595727633925, -187500.02235174447, 68098.85866628394, 71714.94623600796, 73268.54893786299, 6684.356234592943, 13022.461595828725, 86807.98403119852, 37541.408841777906, 12189.814411379626, 17927.12723340121, 0.094, 1.016, 0.03, 192.0, 0.0, 0.0, 0.0, 0.0, 0.0, 0.0, 0.0, 0.0, 0.0, 1.695422245696512E9, 0.0, 2023-09-22 17:37:25.696
92.0, -154634.24082210552, 56918.449034505975, -8336.619536473696, 8439.57167143484, 93885.59685773813, 50016.23034670715, -187500.02235174447, 68115.95775079224, 71446.65824731092, 73279.300126946, 6706.842089514982, 13065.421648671825, 86835.05199373388, 37573.99768519374, 12228.125301376022, 17944.651001054168, 0.096, 1.016, 0.028, 192.0, 1.5, 0.0, 15.5, 96.0, 0.0, 112.0, 0.0, 0.0, 0.0, 1.695422245696527E9, 0.0, 2023-09-22 17:37:25.696
94.0, -154573.24291148697, 56947.30513659777, -8318.268754275889, 8387.983845231993, 93811.32201091314, 50020.79010257604, -187500.02235174447, 68121.90331481735, 71709.35829989414, 73266.13494946182, 6678.768298479116, 13028.6753807873, 86799.66918226113, 37530.43413525035, 12181.343100231064, 17924.065044410832, 0.096, 1.016, 0.028, 192.0, 0.0, 0.0, 0.0, 0.0, 0.0, 0.0, 0.0, 0.0, 0.0, 1.69542224569653E9, 0.0, 2023-09-22 17:37:25.696
96.0, -154646.66839202266, 56914.22455480392, -8351.617557003208, 8414.493014155985, 93864.87679062806, 50013.39167516133, -187500.02235174447, 68128.92176257631, 71456.29184917115, 73269.01832449654, 6689.474784073208, 13070.294328963082, 86817.14824642519, 37568.186231635365, 12218.446996026874, 17932.893983470676, 0.096, 1.016, 0.028, 192.0, 0.0, 0.0, 0.0, 0.0, 0.0, 0.0, 0.0, 0.0, 0.0, 1.695422245696534E9, 0.0, 2023-09-22 17:37:25.696
98.0, -154537.8824517587, 56969.32160488625, -8339.771132441894, 8390.911923755637, 93836.04304028071, 50006.9543727582, -187500.02235174447, 68144.76914939513, 71706.11729694811, 73267.96779250716, 6676.153144377845, 13049.618965341922, 86794.52828103642, 37532.82577190707, 12187.713347400826, 17928.26717236843, 0.096, 1.016, 0.028, 192.0, 0.0, 0.0, 0.0, 0.0, 0.0, 0.0, 0.0, 0.0, 0.0, 1.695422245696537E9, 0.0, 2023-09-22 17:37:25.696
100.0, -154652.9045287257, 56899.89708660806, -8350.589376758264, 8406.647551852173, 93851.57750267714, 50011.31296292698, -187500.02235174447, 68104.84893379796, 71482.68925937287, 73259.7423505476, 6684.1774206373, 13092.35550074047, 86807.82756898733, 37568.9685426913, 12230.047551399179, 17930.16707064713, 0.096, 1.016, 0.028, 192.0, 0.0, 0.0, 0.0, 0.0, 0.0, 0.0, 0.0, 0.0, 0.0, 1.69542224569654E9, 0.0, 2023-09-22 17:37:25.696
102.0, -154495.66000648262, 56983.403203893096, -8355.618519260708, 8399.204420948556, 93857.2548457688, 49995.800852275, -187500.02235174447, 68147.11608256293, 71709.33594814967, 73264.5926790944, 6671.235760597678, 13061.86772130343, 86787.9345164221, 37523.66155668039, 12193.70361491485, 17927.417806079127, 0.094, 1.014, 0.026000000000000002, 192.0, 1.0, 120.0, 15.5, 88.0, 0.0, 104.0, 0.0, 0.0, 0.0, 1.695422245696543E9, 0.0, 2023-09-22 17:37:25.696
104.0, -154629.39049355872, 56899.986493585886, -8363.598092031252, 8394.599961590762, 93836.154799003, 49996.35964588638, -187500.02235174447, 68088.06277371202, 71525.76107093824, 73252.41097836626, 6670.609911752929, 13102.190268300805, 86794.99766766997, 37562.95592343282, 12239.23411837031, 17915.906657684645, 0.094, 1.014, 0.026000000000000002, 192.0, 0.0, 0.0, 0.0, 0.0, 0.0, 0.0, 0.0, 0.0, 0.0, 1.695422245696547E9, 0.0, 2023-09-22 17:37:25.696
106.0, -154449.3024884823, 57002.37983493565, -8356.713754739018, 8408.18982221959, 93858.21597078038, 49992.76101502908, -187500.02235174447, 68140.99170458218, 71717.36022440913, 73256.52369934603, 6660.730440703684, 13073.244759231182, 86777.11627210573, 37517.648937421916, 12196.966969605324, 17907.144773858163, 0.094, 1.014, 0.026000000000000002, 192.0, 0.0, 0.0, 0.0, 0.0, 0.0, 0.0, 0.0, 0.0, 0.0, 1.695422245756714E9, 0.0, 2023-09-22 17:37:25.756
108.0, -154651.36225835828, 56885.81548760122, -8318.604030442719, 8401.260781438445, 93805.4435021214, 50029.41787593578, -187500.02235174447, 68058.33495358645, 71551.89026020649, 73277.40022866729, 6687.0384439275795, 13146.312611855581, 86813.50491207898, 37594.51658660371, 12269.52073210725, 17918.611218763737, 0.094, 1.014, 0.026000000000000002, 192.0, 0.0, 0.0, 0.0, 0.0, 0.0, 0.0, 0.0, 0.0, 0.0, 1.695422245756726E9, 0.0, 2023-09-22 17:37:25.756
110.0, -154472.39184050463, 57002.98333203594, -8353.383344815176, 8433.871976598737, 93872.47638374286, 49996.717273797665, -187500.02235174447, 68146.15495755136, 71654.26124981181, 73292.30884221898, 6697.99079871068, 13123.044445877606, 86812.67789753413, 37558.82085070859, 12240.37405733753, 17937.610201550746, 0.094, 1.014, 0.026000000000000002, 192.0, 0.0, 0.0, 0.0, 0.0, 0.0, 0.0, 0.0, 0.0, 0.0, 1.695422245756729E9, 0.0, 2023-09-22 17:37:25.756
112.0, -154642.98035418754, 56885.74843236786, -8339.79348418635, 8384.362862630232, 93783.02470243273, 50003.355741900894, -187500.02235174447, 68062.00063967714, 71575.6948680514, 73259.45177786968, 6672.822734454005, 13133.795634960608, 86793.1424728802, 37573.8188712381, 12254.925042977935, 17909.178782603598, 0.098, 1.012, 0.026000000000000002, 192.0, 1.5, 8.0, 15.5, 80.0, 0.0, 104.0, 0.0, 0.0, 0.0, 1.695422245756732E9, 0.0, 2023-09-22 17:37:25.756
114.0, -154456.96913683048, 57002.51394540238, -8355.84203670526, 8426.071217783836, 93874.48804074383, 49990.078805694444, -187500.02235174447, 68133.41446321184, 71643.01832235078, 73271.83464429792, 6680.288217102077, 13113.097919594995, 86798.08220840481, 37540.31360629959, 12230.56164152165, 17915.660788495636, 0.098, 1.012, 0.026000000000000002, 192.0, 0.0, 0.0, 0.0, 0.0, 0.0, 0.0, 0.0, 0.0, 0.0, 1.695422245756736E9, 0.0, 2023-09-22 17:37:25.756
116.0, -154639.0017436745, 56882.61918814411, -8342.520397009897, 8372.60584504674, 93758.95187365435, 49994.3032853965, -187500.02235174447, 68035.49147075313, 71612.17291500246, 73269.24184194111, 6678.254208356644, 13149.933594457341, 86797.03167641541, 37577.618667795505, 12259.015412213257, 17896.21477081952, 0.098, 1.012, 0.026000000000000002, 192.0, 0.0, 0.0, 0.0, 0.0, 0.0, 0.0, 0.0, 0.0, 0.0, 1.695422245756739E9, 0.0, 2023-09-22 17:37:25.756
118.0, -154443.91571806857, 57004.503250658905, -8382.172391673612, 8424.707761372061, 93860.42879348145, 49964.419003059746, -187500.02235174447, 68138.57771618101, 71612.37408070256, 73270.18061520823, 6673.068603643013, 13115.578963229533, 86781.76543495244, 37527.215484048786, 12217.776443693214, 17891.833828906278, 0.098, 1.012, 0.026000000000000002, 192.0, 0.0, 0.0, 0.0, 0.0, 0.0, 0.0, 0.0, 0.0, 0.0, 1.695422245756742E9, 0.0, 2023-09-22 17:37:25.756
120.0, -154626.12713886824, 56884.92141782301, -8320.816853143795, 8371.04122293487, 93730.74397215176, 50002.93105875624, -187500.02235174447, 68044.34276155743, 71649.14270033153, 73270.89587103079, 6671.816905953516, 13149.151283401405, 86787.8898129332, 37569.10265315803, 12255.66265054496, 17883.831904391278, 0.098, 1.012, 0.026000000000000002, 192.0, 0.0, 0.0, 0.0, 0.0, 0.0, 0.0, 0.0, 0.0, 0.0, 1.695422245816966E9, 0.0, 2023-09-22 17:37:25.816
122.0, -154455.1586455296, 56996.65778835509, -8380.741880028472, 8434.453121954575, 93866.7096336734, 49962.22853210313, -187500.02235174447, 68155.56504196704, 71569.43637960391, 73274.87448154384, 6684.1774206373, 13128.4982715247, 86796.24936535947, 37538.50311499871, 12242.050438171678, 17911.01162564893, 0.094, 1.012, 0.026000000000000002, 192.0, 1.0, 120.0, 15.5, 80.0, 0.0, 104.0, 0.0, 0.0, 0.0, 1.695422245816987E9, 0.0, 2023-09-22 17:37:25.816
124.0, -154599.4391559886, 56897.483098206896, -8323.07437933378, 8368.828400233793, 93715.34362022205, 49994.1021196964, -187500.02235174447, 68073.48943632716, 71685.95602344943, 73259.40707438077, 6661.0880686149685, 13128.922954669351, 86776.31160930534, 37552.942341916845, 12249.225348141832, 17888.793991660357, 0.094, 1.012, 0.026000000000000002, 192.0, 0.0, 0.0, 0.0, 0.0, 0.0, 0.0, 0.0, 0.0, 0.0, 1.69542224581699E9, 0.0, 2023-09-22 17:37:25.816
126.0, -154449.5483576713, 56994.46731739847, -8398.489165125986, 8428.865185840748, 93861.0993458151, 49948.57161624094, -187500.02235174447, 68167.92555665082, 71547.95635318237, 73257.66363831326, 6668.173571607301, 13119.35640804248, 86783.44181578659, 37531.08233583955, 12242.117493405045, 17914.78907046188, 0.094, 1.012, 0.026000000000000002, 192.0, 0.0, 0.0, 0.0, 0.0, 0.0, 0.0, 0.0, 0.0, 0.0, 1.695422245816993E9, 0.0, 2023-09-22 17:37:25.816
128.0, -154554.15452172214, 56913.24107804788, -8324.259021789912, 8357.160789628124, 93721.60210866954, 49987.88833473782, -187500.02235174447, 68071.54483455955, 71726.926771036, 73238.57524854843, 6639.473931726687, 13108.6946259373, 86754.54101020587, 37529.920045127874, 12232.483891544807, 17888.235198048973, 0.094, 1.012, 0.026000000000000002, 192.0, 0.0, 0.0, 0.0, 0.0, 0.0, 0.0, 0.0, 0.0, 0.0, 1.695422245816997E9, 0.0, 2023-09-22 17:37:25.816
130.0, -154458.5561106868, 56983.22438993745, -8384.809897519339, 8421.869089826238, 93859.46766846988, 49957.2440930896, -187500.02235174447, 68148.21131804124, 71530.79021344069, 73262.75983604907, 6671.74985072015, 13122.910335410874, 86784.31353382034, 37539.017205121185, 12249.47121733084, 17924.914410700134, 0.094, 1.012, 0.026000000000000002, 192.0, 0.0, 0.0, 0.0, 0.0, 0.0, 0.0, 0.0, 0.0, 0.0, 1.695422245817E9, 0.0, 2023-09-22 17:37:25.817
132.0, -154534.3285243903, 56922.44999676347, -8323.677876434074, 8362.592263530763, 93726.43008547189, 49988.111852182374, -187500.02235174447, 68080.59729106394, 71735.64395137358, 73265.86672852836, 6658.0929348579575, 13125.726655212244, 86770.90248714716, 37546.214466835794, 12245.000868439778, 17907.703567469547, 0.1, 1.008, 0.026000000000000002, 192.0, 1.5, 16.0, 15.5, 64.0, 0.0, 104.0, 0.0, 0.0, 0.0, 1.695422245817003E9, 0.0, 2023-09-22 17:37:25.817
134.0, -154475.43167775057, 56970.37213687565, -8379.490182338976, 8427.926412573626, 93842.72621187285, 49954.38306979932, -187500.02235174447, 68139.60589642596, 71511.4783062313, 73268.83951054091, 6668.665309985317, 13129.50410002519, 86784.51469952044, 37546.32622555807, 12248.957127208369, 17913.649131494658, 0.1, 1.008, 0.026000000000000002, 192.0, 0.0, 0.0, 0.0, 0.0, 0.0, 0.0, 0.0, 0.0, 0.0, 1.695422245817007E9, 0.0, 2023-09-22 17:37:25.817
136.0, -154503.12548913067, 56942.901842940075, -8322.381475255666, 8373.298749124855, 93732.24153903026, 49985.85432599239, -187500.02235174447, 68094.03068948159, 71752.63127715961, 73268.28071692953, 6654.717821445206, 13118.574096986546, 86768.17557432361, 37537.6090452205, 12232.059208400156, 17893.443154507062, 0.1, 1.008, 0.026000000000000002, 192.0, 0.0, 0.0, 0.0, 0.0, 0.0, 0.0, 0.0, 0.0, 0.0, 1.69542224587732E9, 0.0, 2023-09-22 17:37:25.877
138.0, -154503.66193099762, 56958.9950989479, -8361.541731541363, 8429.043999796391, 93827.16939773195, 49961.02153790254, -187500.02235174447, 68135.22495451271, 71496.63674791298, 73271.43231289773, 6678.0530426565465, 13142.69162925382, 86792.986010669, 37557.59150476355, 12263.016374470757, 17917.270114096416, 0.1, 1.008, 0.026000000000000002, 192.0, 0.0, 0.0, 0.0, 0.0, 0.0, 0.0, 0.0, 0.0, 0.0, 1.69542224587733E9, 0.0, 2023-09-22 17:37:25.877
140.0, -154458.958442087, 56967.242892651906, -8338.474731263486, 8377.545580571363, 93733.85086463105, 49957.2440930896, -187500.02235174447, 68114.95192229174, 71757.70512315097, 73258.42359762473, 6653.823751666993, 13106.280637536125, 86760.24070504197, 37518.677117666855, 12222.403254795463, 17890.850352150246, 0.1, 1.008, 0.026000000000000002, 192.0, 0.0, 0.0, 0.0, 0.0, 0.0, 0.0, 0.0, 0.0, 0.0, 1.695422245877334E9, 0.0, 2023-09-22 17:37:25.877
142.0, -154502.18671586356, 56943.818264462745, -8362.771077486406, 8419.902136314171, 93798.17918517342, 49952.661985476254, -187500.02235174447, 68127.84887884246, 71509.01961434122, 73260.52466160353, 6665.156086105834, 13135.516719283667, 86778.30091456187, 37548.51669651469, 12251.840502243103, 17898.606407476236, 0.094, 1.014, 0.024, 192.0, 1.0, 120.0, 15.5, 88.0, 0.0, 96.0, 0.0, 0.0, 0.0, 1.695422245877338E9, 0.0, 2023-09-22 17:37:25.877
144.0, -154419.03822648982, 56980.20690443598, -8327.723542180483, 8389.816688277328, 93748.04422236017, 49962.519104781044, -187500.02235174447, 68128.85470734295, 71769.77506515683, 73262.35750464887, 6649.711030687217, 13102.30202702308, 86758.56432420782, 37509.46819895127, 12214.423682024919, 17888.88339863818, 0.094, 1.014, 0.024, 192.0, 0.0, 0.0, 0.0, 0.0, 0.0, 0.0, 0.0, 0.0, 0.0, 1.695422245877341E9, 0.0, 2023-09-22 17:37:25.877
146.0, -154524.2702393854, 56924.93104039801, -8345.962565656015, 8414.783586833904, 93790.06550193614, 49963.12260188134, -187500.02235174447, 68105.2289134537, 71515.47926848881, 73274.8968332883, 6675.147315877356, 13145.373838588457, 86790.19204261209, 37555.9151239294, 12265.787990783214, 17909.35759655924, 0.094, 1.014, 0.024, 192.0, 0.0, 0.0, 0.0, 0.0, 0.0, 0.0, 0.0, 0.0, 0.0, 1.695422245877344E9, 0.0, 2023-09-22 17:37:25.877
148.0, -154394.4960110779, 56990.153430718594, -8349.829417446783, 8394.421147635121, 93766.37265281352, 49948.6386714743, -187500.02235174447, 68139.87411735942, 71746.17162301202, 73265.48674887262, 6656.729478446184, 13097.742271154199, 86761.93943762057, 37507.791818117126, 12220.972743150323, 17899.232256320985, 0.094, 1.014, 0.024, 192.0, 0.0, 0.0, 0.0, 0.0, 0.0, 0.0, 0.0, 0.0, 0.0, 1.695422245877347E9, 0.0, 2023-09-22 17:37:25.877
150.0, -154522.1691754066, 56909.30717102375, -8347.594243001253, 8396.365749402732, 93764.20453360135, 49957.4899622786, -187500.02235174447, 68105.58654136497, 71533.36066405305, 73249.10292018687, 6652.192074321756, 13121.613934232466, 86769.80725166884, 37539.12896384346, 12250.879377231524, 17894.426631263093, 0.094, 1.014, 0.024, 192.0, 0.0, 0.0, 0.0, 0.0, 0.0, 0.0, 0.0, 0.0, 0.0, 1.695422245936804E9, 0.0, 2023-09-22 17:37:25.936
152.0, -154383.8789324616, 56989.192305707016, -8325.93540262406, 8408.390987919687, 93780.23073437581, 49968.4423170617, -187500.02235174447, 68156.12383557843, 71729.65368385955, 73262.64807732678, 6654.9860423786695, 13093.987178085707, 86760.44187074207, 37506.651879149904, 12218.670513471427, 17901.758003444436, 0.096, 1.014, 0.022, 192.0, 1.5, 0.0, 15.5, 88.0, 0.0, 88.0, 0.0, 0.0, 0.0, 1.695422245936818E9, 0.0, 2023-09-22 17:37:25.936
154.0, -154532.9203644896, 56896.11964179512, -8348.622423246195, 8400.970208760526, 93760.91882716642, 49958.473439034635, -187500.02235174447, 68107.88877104387, 71535.34996930957, 73260.05527496997, 6664.418478538809, 13134.801463461097, 86778.2785628174, 37555.19986810683, 12265.497418105295, 17909.916390170623, 0.096, 1.014, 0.022, 192.0, 0.0, 0.0, 0.0, 0.0, 0.0, 0.0, 0.0, 0.0, 0.0, 1.695422245936822E9, 0.0, 2023-09-22 17:37:25.936
156.0, -154350.77599892332, 57005.46437567048, -8342.900376665637, 8418.248107224477, 93809.89149926801, 49949.62214823034, -187500.02235174447, 68164.0363531156, 71701.89281724606, 73251.36044637686, 6646.8276556524825, 13083.817134358542, 86753.31166426084, 37498.78406510163, 12220.168080349933, 17901.467430766515, 0.096, 1.014, 0.022, 192.0, 0.0, 0.0, 0.0, 0.0, 0.0, 0.0, 0.0, 0.0, 0.0, 1.695422245936825E9, 0.0, 2023-09-22 17:37:25.936
158.0, -154528.60647780975, 56893.66094990504, -8332.104484093725, 8391.783641789394, 93740.46698098982, 49958.98752915711, -187500.02235174447, 68078.22800615168, 71570.66572554896, 73250.55578357646, 6648.7052021867285, 13126.128986612439, 86765.11338533323, 37547.53321975866, 12268.0455169732, 17899.522828998903, 0.096, 1.014, 0.022, 192.0, 0.0, 0.0, 0.0, 0.0, 0.0, 0.0, 0.0, 0.0, 0.0, 1.695422245936828E9, 0.0, 2023-09-22 17:37:25.936
160.0, -154336.5826411942, 57009.71120711699, -8340.799312686839, 8432.217947509045, 93818.07223773864, 49946.44820051768, -187500.02235174447, 68158.0907890905, 71675.0707238997, 73254.55674583396, 6645.575957962985, 13089.717994894743, 86754.07162357231, 37500.88512908043, 12225.733664719304, 17905.155468601642, 0.096, 1.014, 0.022, 192.0, 0.0, 0.0, 0.0, 0.0, 0.0, 0.0, 0.0, 0.0, 0.0, 1.695422245936831E9, 0.0, 2023-09-22 17:37:25.936
162.0, -154526.34895161976, 56887.00013005736, -8314.066626318292, 8396.455156380553, 93718.60697491253, 49966.76593622756, -187500.02235174447, 68065.57691878997, 71597.55487412869, 73256.81427202396, 6657.1541615908345, 13132.901565182396, 86771.9306673921, 37554.32815007307, 12272.627624586537, 17904.21669533452, 0.096, 1.016, 0.026000000000000002, 192.0, 1.5, 0.0, 15.5, 96.0, 0.0, 104.0, 0.0, 0.0, 0.0, 1.695422245936834E9, 0.0, 2023-09-22 17:37:25.936
164.0, -154330.50296670236, 57011.78991935134, -8351.550501769842, 8441.270404013445, 93816.39585690449, 49937.015764357544, -187500.02235174447, 68164.93042289381, 71633.161203046, 73259.22826042512, 6654.248434811644, 13094.702433908276, 86763.36994926572, 37507.635355905935, 12229.578164765617, 17906.988311646975, 0.096, 1.016, 0.026000000000000002, 192.0, 0.0, 0.0, 0.0, 0.0, 0.0, 0.0, 0.0, 0.0, 0.0, 1.695422245936838E9, 0.0, 2023-09-22 17:37:25.936
166.0, -154511.97677993498, 56894.040929560775, -8314.64777167413, 8390.28607491089, 93699.49623340325, 49963.569636770444, -187500.02235174447, 68065.2639943676, 71631.5518774452, 73258.71417030266, 6642.826693394983, 13126.173690101348, 86760.64303644217, 37547.48851626975, 12260.870607003048, 17893.53256148488, 0.096, 1.016, 0.026000000000000002, 192.0, 0.0, 0.0, 0.0, 0.0, 0.0, 0.0, 0.0, 0.0, 0.0, 1.695422245996536E9, 0.0, 2023-09-22 17:37:25.996
168.0, -154330.1676905355, 57013.62276239667, -8354.188007615568, 8450.076991328835, 93820.06154299517, 49939.22858705862, -187500.02235174447, 68167.85850141746, 71600.7511735858, 73261.79871103748, 6646.939414374759, 13096.155297297872, 86756.82088814031, 37513.513864697685, 12234.674362501426, 17914.051462894855, 0.096, 1.016, 0.026000000000000002, 192.0, 0.0, 0.0, 0.0, 0.0, 0.0, 0.0, 0.0, 0.0, 0.0, 1.695422245996553E9, 0.0, 2023-09-22 17:37:25.996
170.0, -154487.09928835623, 56902.780461642804, -8314.3124955073, 8383.669958552118, 93675.11048020251, 49964.17313387074, -187500.02235174447, 68086.78872427807, 71669.68395348596, 73253.97560047812, 6636.367039247399, 13114.12609983994, 86749.55657119234, 37538.123135342976, 12256.310851134163, 17895.25364580794, 0.096, 1.016, 0.026000000000000002, 192.0, 0.0, 0.0, 0.0, 0.0, 0.0, 0.0, 0.0, 0.0, 0.0, 1.695422245996557E9, 0.0, 2023-09-22 17:37:25.996
172.0, -154316.19785025096, 57008.839489083235, -8365.60974903223, 8452.513331474463, 93809.55622310117, 49929.86320613184, -187500.02235174447, 68193.67476626334, 71579.31585065316, 73264.05623722747, 6649.9345481317705, 13101.743233411698, 86754.74217590597, 37515.9055013544, 12242.408066082962, 17913.02328264991, 0.098, 1.014, 0.028, 192.0, 1.5, 8.0, 15.5, 88.0, 0.0, 112.0, 0.0, 0.0, 0.0, 1.695422245996562E9, 0.0, 2023-09-22 17:37:25.996
174.0, -154458.13142754216, 56910.00007510187, -8288.071547516769, 8393.728243557005, 93668.31554988808, 49980.17698290074, -187500.02235174447, 68101.40676515184, 71713.47102087391, 73263.34098140491, 6640.122132315891, 13121.524527254645, 86743.14162053367, 37542.459373767306, 12256.847293001092, 17895.186590574576, 0.098, 1.014, 0.028, 192.0, 0.0, 0.0, 0.0, 0.0, 0.0, 0.0, 0.0, 0.0, 0.0, 1.695422245996566E9, 0.0, 2023-09-22 17:37:25.996
176.0, -154353.72642919142, 56993.28267494234, -8337.066571362802, 8468.897160160204, 93812.21608069136, 49953.243130832096, -187500.02235174447, 68183.95175742528, 71539.79796645617, 73284.9998217821, 6670.140525119367, 13130.711094225777, 86771.75185343646, 37544.02399587918, 12270.034822229723, 17928.960076446543, 0.098, 1.014, 0.028, 192.0, 0.0, 0.0, 0.0, 0.0, 0.0, 0.0, 0.0, 0.0, 0.0, 1.695422245996572E9, 0.0, 2023-09-22 17:37:25.996
178.0, -154445.18976750254, 56922.919383397035, -8301.616704656686, 8399.383234904199, 93675.53516334716, 49963.726098981635, -187500.02235174447, 68113.14143099087, 71718.85779128764, 73276.26028970008, 6647.989946364159, 13118.574096986546, 86750.76356539293, 37542.23585632275, 12260.892958747501, 17904.104936612242, 0.098, 1.014, 0.028, 192.0, 0.0, 0.0, 0.0, 0.0, 0.0, 0.0, 0.0, 0.0, 0.0, 1.695422245996577E9, 0.0, 2023-09-22 17:37:25.996
180.0, -154386.67290051855, 56973.36727063266, -8334.205548072523, 8468.226607826544, 93791.1830891589, 49946.64936621778, -187500.02235174447, 68164.99747812719, 71512.88646613198, 73273.62278385434, 6665.93839716177, 13127.805367446586, 86769.24845805747, 37547.22029533629, 12271.733554808327, 17915.414919306626, 0.098, 1.014, 0.028, 192.0, 0.0, 0.0, 0.0, 0.0, 0.0, 0.0, 0.0, 0.0, 0.0, 1.695422246056761E9, 0.0, 2023-09-22 17:37:26.056
182.0, -154416.08779622172, 56936.44218879249, -8311.295010005833, 8396.388101147188, 93663.97931146376, 49942.22372081563, -187500.02235174447, 68111.55445713454, 71735.26397171784, 73254.31087664496, 6639.675097426784, 13098.97161709924, 86734.73736461847, 37518.2077310333, 12242.117493405045, 17894.985424874478, 0.098, 1.014, 0.028, 192.0, 1.5, 8.0, 15.5, 88.0, 0.0, 112.0, 0.0, 0.0, 0.0, 1.695422246056775E9, 0.0, 2023-09-22 17:37:26.056
184.0, -154383.25308361687, 56966.952319973985, -8344.085019121769, 8460.872883900749, 93777.61558027453, 49929.617336942836, -187500.02235174447, 68147.60782094096, 71509.44429748587, 73259.58588833641, 6657.578844735485, 13117.344751041503, 86756.79853639586, 37533.8092486631, 12263.57516808214, 17909.73757621498, 0.098, 1.014, 0.028, 192.0, 0.0, 0.0, 0.0, 0.0, 0.0, 0.0, 0.0, 0.0, 0.0, 1.695422246056779E9, 0.0, 2023-09-22 17:37:26.056
186.0, -154381.17437138254, 56953.675383767535, -8289.390300439632, 8415.878822312216, 93670.6624830559, 49948.772781941036, -187500.02235174447, 68115.86834381442, 71762.51074820885, 73259.98821973661, 6643.385487006365, 13097.87638162093, 86734.69266112956, 37513.715030397776, 12236.395446824485, 17892.325567284297, 0.098, 1.014, 0.028, 192.0, 0.0, 0.0, 0.0, 0.0, 0.0, 0.0, 0.0, 0.0, 0.0, 1.695422246056783E9, 0.0, 2023-09-22 17:37:26.056
188.0, -154412.93620025352, 56951.864892466656, -8328.59526021424, 8469.075974115845, 93763.9810161568, 49933.819464900436, -187500.02235174447, 68147.89839361887, 71493.88748334498, 73280.50712114658, 6674.9461501772585, 13143.161015887383, 86776.22220232752, 37557.77031871919, 12287.916217793969, 17923.77447173291, 0.098, 1.014, 0.028, 192.0, 0.0, 0.0, 0.0, 0.0, 0.0, 0.0, 0.0, 0.0, 0.0, 1.695422246056786E9, 0.0, 2023-09-22 17:37:26.056
190.0, -154353.56996698023, 56973.30021539929, -8301.035559300848, 8417.845775824282, 93684.22999194027, 49937.015764357544, -187500.02235174447, 68141.14816679337, 71761.6390301751, 73256.65780981276, 6640.435056738264, 13085.091183792494, 86729.8199808383, 37502.606213403495, 12233.065036900645, 17897.287654553373, 0.098, 1.014, 0.028, 192.0, 0.0, 0.0, 0.0, 0.0, 0.0, 0.0, 0.0, 0.0, 0.0, 1.69542224605679E9, 0.0, 2023-09-22 17:37:26.056
192.0, -154426.97309577145, 56941.158406872564, -8321.152129310623, 8458.05656409938, 93740.44462924536, 49938.759200425055, -187500.02235174447, 68133.52622193411, 71508.57257945211, 73267.54310936251, 6657.064754613013, 13122.843280177509, 86755.79270789537, 37545.90154241342, 12273.05230773119, 17912.911523927633, 0.1, 1.016, 0.026000000000000002, 192.0, 1.5, 16.0, 15.5, 96.0, 0.0, 104.0, 0.0, 0.0, 0.0, 1.695422246056793E9, 0.0, 2023-09-22 17:37:26.056
194.0, -154346.6409261991, 56984.721956815956, -8288.45152717251, 8441.024534824435, 93698.49040490275, 49944.995337128086, -187500.02235174447, 68139.91882084832, 71750.8878410921, 73280.10478974639, 6652.594405721951, 13101.027977589129, 86744.75094613445, 37521.113457812484, 12246.051400429178, 17913.984407661486, 0.1, 1.016, 0.026000000000000002, 192.0, 0.0, 0.0, 0.0, 0.0, 0.0, 0.0, 0.0, 0.0, 0.0, 1.695422246056797E9, 0.0, 2023-09-22 17:37:26.056
196.0, -154432.94101154103, 56929.46844452244, -8330.048123603836, 8454.256767541978, 93716.59531791155, 49915.15575828025, -187500.02235174447, 68130.5310881771, 71511.52300972021, 73267.31959191794, 6655.388373778865, 13122.195079588304, 86749.19894328105, 37538.391356276436, 12273.231121686831, 17911.704529727045, 0.1, 1.016, 0.026000000000000002, 192.0, 0.0, 0.0, 0.0, 0.0, 0.0, 0.0, 0.0, 0.0, 0.0, 1.695422246116998E9, 0.0, 2023-09-22 17:37:26.116
198.0, -154289.04048073775, 56997.797727322315, -8300.007379055904, 8441.896252858192, 93688.07449198658, 49923.71647640663, -187500.02235174447, 68164.79631242709, 71756.18520452801, 73252.5897923219, 6635.182396791268, 13071.322509208025, 86718.44294291055, 37487.67524810735, 12223.65495248496, 17899.053442365344, 0.1, 1.016, 0.026000000000000002, 192.0, 0.0, 0.0, 0.0, 0.0, 0.0, 0.0, 0.0, 0.0, 0.0, 1.695422246117008E9, 0.0, 2023-09-22 17:37:26.117
200.0, -154451.62706990566, 56908.34604601217, -8280.136678235136, 8449.741715162005, 93674.73050054676, 49947.94576739619, -187500.02235174447, 68102.43494539677, 71539.35093156707, 73270.06885648594, 6665.334900061477, 13131.336943070524, 86755.09980381725, 37552.13767911645, 12287.022148015756, 17916.756023973947, 0.1, 1.016, 0.026000000000000002, 192.0, 0.0, 0.0, 0.0, 0.0, 0.0, 0.0, 0.0, 0.0, 0.0, 1.695422246117012E9, 0.0, 2023-09-22 17:37:26.117
202.0, -154299.18817272046, 57001.843393068724, -8298.420405199577, 8451.641613440706, 93706.89466081795, 49927.04688633048, -187500.02235174447, 68154.17923381082, 71701.64694805705, 73284.8433595709, 6665.379603550387, 13096.602332186978, 86747.1202310467, 37508.70823963979, 12244.37501959503, 17925.8308322228, 0.094, 1.012, 0.026000000000000002, 192.0, 1.0, 120.0, 15.5, 80.0, 0.0, 104.0, 0.0, 0.0, 0.0, 1.695422246117015E9, 0.0, 2023-09-22 17:37:26.117
204.0, -154457.0585438083, 56898.73479589639, -8305.371797725176, 8430.04982829688, 93649.69654675682, 49922.17420603922, -187500.02235174447, 68093.5165993591, 71540.46851878983, 73259.71999880315, 6650.940376632259, 13113.388492272914, 86737.8219053533, 37531.61877770648, 12265.966804738857, 17909.98344540399, 0.094, 1.012, 0.026000000000000002, 192.0, 0.0, 0.0, 0.0, 0.0, 0.0, 0.0, 0.0, 0.0, 0.0, 1.695422246117018E9, 0.0, 2023-09-22 17:37:26.117
206.0, -154266.912253727, 57010.8064425953, -8305.707073892007, 8457.140142576713, 93698.40099792492, 49916.07217980292, -187500.02235174447, 68177.44739978878, 71689.10761941763, 73261.59754533738, 6640.725629416183, 13067.366250439436, 86721.84040806776, 37481.908498037876, 12219.050493127168, 17905.87072442421, 0.094, 1.012, 0.026000000000000002, 192.0, 0.0, 0.0, 0.0, 0.0, 0.0, 0.0, 0.0, 0.0, 0.0, 1.695422246117022E9, 0.0, 2023-09-22 17:37:26.117
208.0, -154452.2529187504, 56889.52587718081, -8293.435966186044, 8422.80786309336, 93615.00663936218, 49926.64455493028, -187500.02235174447, 68092.1754946918, 71587.38483040153, 73268.81715879646, 6655.388373778865, 13114.707245195777, 86739.85591409873, 37538.257245809706, 12271.063002474666, 17905.40133779065, 0.094, 1.012, 0.026000000000000002, 192.0, 0.0, 0.0, 0.0, 0.0, 0.0, 0.0, 0.0, 0.0, 0.0, 1.695422246117025E9, 0.0, 2023-09-22 17:37:26.117
210.0, -154247.24271860634, 57007.25251522691, -8315.3630274967, 8458.168322821657, 93701.06085551511, 49903.175223252205, -187500.02235174447, 68176.17335035483, 71675.98714542236, 73259.65294356977, 6643.0725625839905, 13057.82205555702, 86720.61106212271, 37474.66653283436, 12218.089368115589, 17908.73174771449, 0.094, 1.012, 0.026000000000000002, 192.0, 0.0, 0.0, 0.0, 0.0, 0.0, 0.0, 0.0, 0.0, 0.0, 1.695422246177366E9, 0.0, 2023-09-22 17:37:26.177
212.0, -154445.3015262248, 56882.082746277185, -8282.193038725023, 8416.862299068249, 93588.60922916046, 49930.46670323214, -187500.02235174447, 68081.75958177562, 71633.25061002381, 73267.29724017349, 6653.153199333335, 13104.02311134614, 86738.09012628677, 37535.5079812417, 12270.057173974177, 17912.240971593972, 0.094, 1.012, 0.028, 192.0, 1.0, 120.0, 15.5, 80.0, 0.0, 112.0, 0.0, 0.0, 0.0, 1.695422246177394E9, 0.0, 2023-09-22 17:37:26.177
214.0, -154243.46527379338, 57005.822003581765, -8331.813911415806, 8459.95646237808, 93702.69253286035, 49889.11597598982, -187500.02235174447, 68180.50958877917, 71644.62764795157, 73260.56936509245, 6642.223196294689, 13052.949375265764, 86715.09018124225, 37479.06982649205, 12215.965952392335, 17917.180707118598, 0.094, 1.012, 0.028, 192.0, 0.0, 0.0, 0.0, 0.0, 0.0, 0.0, 0.0, 0.0, 0.0, 1.695422246177398E9, 0.0, 2023-09-22 17:37:26.177
216.0, -154432.60573537418, 56886.19546725696, -8273.967596765471, 8409.016836764436, 93582.97658955773, 49934.82529340092, -187500.02235174447, 68071.54483455955, 71671.1144651311, 73263.72096106064, 6647.520559730597, 13092.422555973835, 86726.33310870327, 37530.769411417175, 12255.550891822684, 17910.40812854864, 0.094, 1.012, 0.028, 192.0, 0.0, 0.0, 0.0, 0.0, 0.0, 0.0, 0.0, 0.0, 0.0, 1.695422246177401E9, 0.0, 2023-09-22 17:37:26.177
218.0, -154261.03374493527, 56998.26711395587, -8330.517510237398, 8472.62990148424, 93717.69055338985, 49893.474566158606, -187500.02235174447, 68172.57471949753, 71606.18264748844, 73267.83368204042, 6655.701298201239, 13069.579073140512, 86730.57994014978, 37499.588727902024, 12231.723932233326, 17935.486785827492, 0.094, 1.012, 0.028, 192.0, 0.0, 0.0, 0.0, 0.0, 0.0, 0.0, 0.0, 0.0, 0.0, 1.695422246177404E9, 0.0, 2023-09-22 17:37:26.177
220.0, -154406.9012292506, 56893.95152258295, -8279.667291601574, 8402.445423894576, 93576.42752843232, 49922.39772348377, -187500.02235174447, 68072.93064271577, 71703.68095680249, 73258.06596971345, 6628.141597287846, 13070.562549896546, 86705.18835844855, 37510.004640818195, 12234.026161912223, 17904.507268012436, 0.094, 1.012, 0.028, 192.0, 0.0, 0.0, 0.0, 0.0, 0.0, 0.0, 0.0, 0.0, 0.0, 1.695422246177407E9, 0.0, 2023-09-22 17:37:26.177
222.0, -154277.1270009431, 56987.38181440614, -8323.610821200708, 8469.455953771587, 93706.0676462731, 49897.6766941162, -187500.02235174447, 68159.6330594579, 71573.16912092795, 73274.18157746573, 6653.51082724462, 13073.691794120288, 86726.15429474763, 37506.89774833891, 12236.082522402112, 17932.26813462593, 0.094, 1.012, 0.028, 192.0, 1.0, 120.0, 15.5, 80.0, 0.0, 112.0, 0.0, 0.0, 0.0, 1.69542224617741E9, 0.0, 2023-09-22 17:37:26.177
224.0, -154409.35992114068, 56898.46657496293, -8263.216407682468, 8406.982828019003, 93560.55778986905, 49934.19944455617, -187500.02235174447, 68071.18720664826, 71717.22611394241, 73270.85116754188, 6639.630393937874, 13079.279730234115, 86715.60427136473, 37521.98517584624, 12238.9882491813, 17915.437271051083, 0.094, 1.012, 0.028, 192.0, 0.0, 0.0, 0.0, 0.0, 0.0, 0.0, 0.0, 0.0, 0.0, 1.695422246177414E9, 0.0, 2023-09-22 17:37:26.177
226.0, -154297.91412328652, 56980.586884091725, -8339.748780697439, 8476.20618059709, 93695.98700952376, 49881.56108636392, -187500.02235174447, 68153.35221926597, 71531.30430356316, 73275.9920687666, 6659.478743014186, 13079.480895934212, 86737.06194604182, 37514.74321064272, 12241.290478860197, 17941.365294619238, 0.094, 1.012, 0.028, 192.0, 0.0, 0.0, 0.0, 0.0, 0.0, 0.0, 0.0, 0.0, 0.0, 1.695422246236629E9, 0.0, 2023-09-22 17:37:26.236
228.0, -154347.46794074393, 56924.43930201999, -8287.02101552737, 8397.505688369953, 93551.4829816202, 49904.583383152894, -187500.02235174447, 68084.88882599937, 71758.77800688482, 73245.4372340962, 6614.216460492189, 13040.63356407089, 86679.77442500288, 37479.65097184789, 12194.463574226329, 17895.119535341208, 0.094, 1.012, 0.028, 192.0, 0.0, 0.0, 0.0, 0.0, 0.0, 0.0, 0.0, 0.0, 0.0, 1.695422246236663E9, 0.0, 2023-09-22 17:37:26.236
230.0, -154303.50205940034, 56970.595654320205, -8317.50879496441, 8474.619206740763, 93679.64788432693, 49899.911868561736, -187500.02235174447, 68138.80123362556, 71533.96416115334, 73272.75106582059, 6653.734344689173, 13077.7374598667, 86725.50609415842, 37517.89480661092, 12237.893013702991, 17929.205945635553, 0.094, 1.012, 0.028, 192.0, 0.0, 0.0, 0.0, 0.0, 0.0, 0.0, 0.0, 0.0, 0.0, 1.695422246236668E9, 0.0, 2023-09-22 17:37:26.236
232.0, -154339.39896099558, 56933.670572480034, -8269.92193101906, 8408.413339664143, 93557.71911832322, 49914.41815071322, -187500.02235174447, 68092.89075051436, 71766.31054476625, 73261.30697265947, 6630.488530455653, 13053.530520621602, 86701.03093397987, 37497.8005883456, 12214.177812835911, 17913.69383498357, 0.092, 1.018, 0.026000000000000002, 192.0, 1.0, 112.0, 15.5, 104.0, 0.0, 104.0, 0.0, 0.0, 0.0, 1.695422246236673E9, 0.0, 2023-09-22 17:37:26.236
234.0, -154338.46018772843, 56955.32941285723, -8319.989838598947, 8465.834971169827, 93661.54297131812, 49892.53579289148, -187500.02235174447, 68132.11806203342, 71505.91272186193, 73274.65096409929, 6651.655632454829, 13081.336090724004, 86726.98130929247, 37523.72861191376, 12247.370153352042, 17935.12915791621, 0.092, 1.018, 0.026000000000000002, 192.0, 0.0, 0.0, 0.0, 0.0, 0.0, 0.0, 0.0, 0.0, 0.0, 1.695422246236678E9, 0.0, 2023-09-22 17:37:26.236
236.0, -154325.40676896652, 56959.978575703935, -8272.514733375876, 8416.19174673459, 93565.54222888258, 49910.88657508929, -187500.02235174447, 68104.2230849532, 71760.16381504104, 73267.54310936251, 6630.108550799912, 13048.546081608069, 86697.40995137811, 37492.83850107652, 12206.645274954471, 17905.8260209353, 0.092, 1.018, 0.026000000000000002, 192.0, 0.0, 0.0, 0.0, 0.0, 0.0, 0.0, 0.0, 0.0, 0.0, 1.695422246236683E9, 0.0, 2023-09-22 17:37:26.236
238.0, -154345.56804246522, 56955.66468902406, -8313.93251585156, 8473.188695095623, 93644.82386646557, 49898.570763894415, -187500.02235174447, 68145.19383253978, 71505.24216952827, 73277.93667053423, 6650.493341743153, 13081.514904679645, 86716.81126556531, 37528.48953348274, 12242.51982480524, 17930.16707064713, 0.092, 1.018, 0.026000000000000002, 192.0, 0.0, 0.0, 0.0, 0.0, 0.0, 0.0, 0.0, 0.0, 0.0, 1.695422246236688E9, 0.0, 2023-09-22 17:37:26.236
240.0, -154270.37677411758, 56986.51009637238, -8283.824716070261, 8443.99731683699, 93564.58110387101, 49910.97598206711, -187500.02235174447, 68142.64573367187, 71775.63122220412, 73293.6499468863, 6635.160045046812, 13058.11262823494, 86689.18450941856, 37508.84235010652, 12204.767728420225, 17922.36631183223, 0.092, 1.018, 0.026000000000000002, 192.0, 0.0, 0.0, 0.0, 0.0, 0.0, 0.0, 0.0, 0.0, 0.0, 1.69542224629643E9, 0.0, 2023-09-22 17:37:26.296
242.0, -154347.22207155492, 56939.43732254951, -8325.443664246042, 8468.003090381992, 93604.38956074591, 49890.01004576803, -187500.02235174447, 68125.25607648565, 71528.39857678396, 73287.1455892498, 6642.98315560617, 13085.582922170512, 86707.02120149389, 37541.274731311176, 12238.965897436847, 17930.21177413604, 0.098, 1.014, 0.024, 192.0, 1.5, 8.0, 15.5, 88.0, 0.0, 96.0, 0.0, 0.0, 0.0, 1.69542224629645E9, 0.0, 2023-09-22 17:37:26.296
244.0, -154226.2544305628, 56998.93766628953, -8293.16774525258, 8440.085761557313, 93572.15834524136, 49897.98961853857, -187500.02235174447, 68145.59616393998, 71790.42807703353, 73268.28071692953, 6618.396236705332, 13033.033970956085, 86673.13595689964, 37482.668457349355, 12187.288664256175, 17910.519887270915, 0.098, 1.014, 0.024, 192.0, 0.0, 0.0, 0.0, 0.0, 0.0, 0.0, 0.0, 0.0, 0.0, 1.695422246296455E9, 0.0, 2023-09-22 17:37:26.296
246.0, -154373.84299920118, 56915.40919726005, -8291.290198718334, 8452.312165774365, 93578.57329590003, 49905.209231997644, -187500.02235174447, 68099.50686687314, 71554.4383590744, 73279.7471618351, 6640.211539293711, 13084.465334947747, 86710.8657015402, 37539.19601907683, 12249.404162097475, 17930.681160769604, 0.098, 1.014, 0.024, 192.0, 0.0, 0.0, 0.0, 0.0, 0.0, 0.0, 0.0, 0.0, 0.0, 1.69542224629646E9, 0.0, 2023-09-22 17:37:26.296
248.0, -154238.57024175767, 56998.13300348914, -8280.963692779982, 8453.094476830302, 93586.57522041503, 49900.045979028466, -187500.02235174447, 68146.06555057353, 71751.89366959258, 73282.42937116974, 6643.296080028544, 13052.6811543323, 86701.94735550253, 37496.81711158957, 12212.881411657503, 17935.911468972143, 0.098, 1.014, 0.024, 192.0, 0.0, 0.0, 0.0, 0.0, 0.0, 0.0, 0.0, 0.0, 0.0, 1.695422246296466E9, 0.0, 2023-09-22 17:37:26.296
250.0, -154384.32596735074, 56912.436415247495, -8290.105556262202, 8446.344250004799, 93565.00578701566, 49896.73792084908, -187500.02235174447, 68099.14923896185, 71567.2459086473, 73274.71801933265, 6652.572053977497, 13089.44977396128, 86711.75977131841, 37536.89378939793, 12251.102894676078, 17935.06210268284, 0.098, 1.014, 0.024, 192.0, 0.0, 0.0, 0.0, 0.0, 0.0, 0.0, 0.0, 0.0, 0.0, 1.695422246296471E9, 0.0, 2023-09-22 17:37:26.296
252.0, -154203.7909273852, 57017.221393253974, -8297.280466232356, 8453.921491375148, 93609.843386393, 49878.16362120672, -187500.02235174447, 68166.22682407222, 71741.5895153987, 73270.51589137506, 6636.411742736309, 13039.225404170205, 86686.0105617059, 37479.65097184789, 12198.039853339178, 17924.64618976667, 0.10400000000000001, 1.016, 0.022, 192.0, 1.5, 32.0, 15.5, 96.0, 0.0, 88.0, 0.0, 0.0, 0.0, 1.695422246296476E9, 0.0, 2023-09-22 17:37:26.296
254.0, -154382.3366620942, 56906.557906455746, -8278.706166589996, 8432.866148098248, 93545.11273445043, 49896.42499642671, -187500.02235174447, 68088.97919523469, 71598.02426076225, 73272.95223152069, 6638.0210683370915, 13082.073698291028, 86698.79575953433, 37530.54589397262, 12241.513996304751, 17923.55095428836, 0.10400000000000001, 1.016, 0.022, 192.0, 0.0, 0.0, 0.0, 0.0, 0.0, 0.0, 0.0, 0.0, 0.0, 1.695422246296482E9, 0.0, 2023-09-22 17:37:26.296
0.0, -154193.12914528002, 57022.116425289685, -8294.464146430988, 8470.126506105245, 93613.59847946149, 49880.10822297433, -187500.02235174447, 68177.46975153325, 71706.49727660386, 73283.88223455934, 6640.233891038167, 13050.781256053599, 86691.10675944171, 37489.57514638605, 12204.924190631413, 17936.380855605705, 0.10400000000000001, 1.016, 0.022, 192.0, 0.0, 0.0, 0.0, 0.0, 0.0, 0.0, 0.0, 0.0, 0.0, 1.695422246356671E9, 0.0, 2023-09-22 17:37:26.356
2.0, -154386.5834935407, 56905.507374466346, -8270.63718684163, 8440.130465046223, 93525.59966154095, 49902.3258569629, -187500.02235174447, 68088.08512545648, 71619.97367381737, 73290.23012998464, 6647.632318452874, 13097.406994987368, 86700.71800955749, 37549.12019361499, 12253.762752266259, 17938.437216095594, 0.10400000000000001, 1.016, 0.022, 192.0, 0.0, 0.0, 0.0, 0.0, 0.0, 0.0, 0.0, 0.0, 0.0, 1.695422246356681E9, 0.0, 2023-09-22 17:37:26.356
