%OpenBCI Raw EXG Data
%Number of channels = 16
%Sample Rate = 125 Hz
%Board = OpenBCI_GUI$BoardCytonSerialDaisy
Sample Index, EXG Channel 0, EXG Channel 1, EXG Channel 2, EXG Channel 3, EXG Channel 4, EXG Channel 5, EXG Channel 6, EXG Channel 7, EXG Channel 8, EXG Channel 9, EXG Channel 10, EXG Channel 11, EXG Channel 12, EXG Channel 13, EXG Channel 14, EXG Channel 15, Accel Channel 0, Accel Channel 1, Accel Channel 2, Other, Other, Other, Other, Other, Other, Other, Analog Channel 0, Analog Channel 1, Analog Channel 2, Timestamp, Other, Timestamp (Formatted)
178.0, -150789.87488625944, 56896.94665633997, -7974.968311186828, 8667.134781734321, 90658.42964153644, 49010.13362528487, -187500.02235174447, 68157.57669896803, 72131.56040091043, 72865.27876440034, 6160.341937582724, 13198.079252014071, 85439.69964262244, 38021.94899582255, 12649.858015758755, 17984.258292228973, 0.0, 0.0, 0.0, 192.0, 0.0, 0.0, 0.0, 0.0, 0.0, 0.0, 0.0, 0.0, 0.0, 1.695422260637093E9, 0.0, 2023-09-22 17:37:40.637
180.0, -150886.30031183962, 56829.77966425177, -8017.101349485082, 8673.952063793191, 90674.20997312189, 48988.29597095204, -187500.02235174447, 68128.92176257631, 71888.17225553658, 72867.87156675715, 6161.772449227864, 13225.080159316083, 85456.12817479708, 38057.331807295304, 12685.88902782071, 17984.638271884713, 0.0, 0.0, 0.0, 192.0, 0.0, 0.0, 0.0, 0.0, 0.0, 0.0, 0.0, 0.0, 0.0, 1.695422260637101E9, 0.0, 2023-09-22 17:37:40.637
182.0, -150762.15872313484, 56886.39663295706, -7992.939113728895, 8656.204778695677, 90658.9437316589, 48998.331904212464, -187500.02235174447, 68152.81577739904, 72115.08716524686, 72841.47415655544, 6138.638393716621, 13178.208551193304, 85427.94262503894, 38011.04134452836, 12648.673373302625, 17978.379783437227, 0.0, 0.0, 0.0, 192.0, 0.0, 0.0, 0.0, 0.0, 0.0, 0.0, 0.0, 0.0, 0.0, 1.695422260637105E9, 0.0, 2023-09-22 17:37:40.637
184.0, -150905.23223939328, 56789.99355912132, -8003.042102222694, 8656.42829614023, 90649.75716468778, 48996.811985589506, -187500.02235174447, 68111.88973330137, 71902.61148245473, 72831.14765061709, 6144.986289141928, 13209.23277249727, 85445.82402060319, 38047.94407462407, 12694.315635480361, 17982.73837360601, 0.092, 1.012, 0.024, 192.0, 1.0, 112.0, 15.5, 80.0, 0.0, 96.0, 0.0, 0.0, 0.0, 1.695422260637109E9, 0.0, 2023-09-22 17:37:40.637
186.0, -150737.70591470075, 56870.10221124914, -8005.612552835054, 8658.730525819126, 90672.01950216526, 48976.62836034637, -187500.02235174447, 68176.2404055882, 72086.47693234407, 72815.05439460927, 6130.435303501524, 13158.248443394714, 85427.47323840538, 37996.311544932316, 12647.242861657485, 17972.50127464548, 0.092, 1.012, 0.024, 192.0, 0.0, 0.0, 0.0, 0.0, 0.0, 0.0, 0.0, 0.0, 0.0, 1.695422260637113E9, 0.0, 2023-09-22 17:37:40.637
188.0, -150911.80365226313, 56747.90522431198, -8006.372512146535, 8634.344772618386, 90612.29564098068, 48976.516601624084, -187500.02235174447, 68102.41259365232, 71916.91659890611, 72794.71430715494, 6135.978536126439, 13188.713871087299, 85449.15443052704, 38034.30951050633, 12691.789888356912, 17955.201024437076, 0.092, 1.012, 0.024, 192.0, 0.0, 0.0, 0.0, 0.0, 0.0, 0.0, 0.0, 0.0, 0.0, 1.695422260637117E9, 0.0, 2023-09-22 17:37:40.637
190.0, -150733.68260069878, 56845.69410630395, -8012.742759316297, 8653.679031572226, 90665.17986836194, 48962.971444484174, -187500.02235174447, 68163.05287635956, 72047.87546966976, 72777.68227788, 6120.265259774359, 13133.996800660707, 85420.03010750176, 37972.596344065234, 12633.429483584105, 17970.377858922227, 0.092, 1.012, 0.024, 192.0, 0.0, 0.0, 0.0, 0.0, 0.0, 0.0, 0.0, 0.0, 0.0, 1.69542226063712E9, 0.0, 2023-09-22 17:37:40.637
192.0, -150947.45468466936, 56714.735235540305, -7982.456145579356, 8624.644115524783, 90565.33462588009, 48990.12881399737, -187500.02235174447, 68059.49724429814, 71926.28197983289, 72786.75708612884, 6134.413914014568, 13185.94225477484, 85445.95813106991, 38035.04711807336, 12682.93859755261, 17978.782114837424, 0.092, 1.012, 0.024, 192.0, 0.0, 0.0, 0.0, 0.0, 0.0, 0.0, 0.0, 0.0, 0.0, 1.695422260637125E9, 0.0, 2023-09-22 17:37:40.637
194.0, -150785.33748213502, 56822.023608925774, -8003.2879714117025, 8673.415621926264, 90665.67160673995, 48978.572962113976, -187500.02235174447, 68143.20452728326, 71969.21968093154, 72795.69778391097, 6150.618928744666, 13163.188178919338, 85448.19330551545, 38005.22989096998, 12659.871597274732, 18000.262141258972, 0.098, 1.008, 0.024, 192.0, 1.5, 8.0, 15.5, 64.0, 0.0, 96.0, 0.0, 0.0, 0.0, 1.695422260637139E9, 0.0, 2023-09-22 17:37:40.637
0.0, -73932.41809993006, 28439.48792689895, -3826.5068920262925, 4479.64721675482, 44099.63418240955, 24196.903311837115, -93750.01117587223, 33981.826482036886, 36021.04318392792, 36384.54960400458, 3062.1666386326124, 6578.923055997259, 42712.90960465784, 19001.687348090094, 6328.002372741982, 8989.82691643559, 0.098, 1.0110000000000001, 0.022, 192.0, 1.5, 8.0, 15.5, 88.0, 0.0, 80.0, 0.0, 0.0, 0.0, 1.695422260800016E9, 0.0, 2023-09-22 17:37:40.800
2.0, -147678.22148540278, 56993.12621273115, -7664.927263847264, 8974.87359939499, 88252.19729568927, 48375.18762054296, -187500.02235174447, 68030.48467999515, 72024.09321356931, 72713.0633846597, 5931.594184827111, 13319.44922440639, 84520.26063445339, 38315.27093830954, 12985.737679688655, 17593.169819494466, 0.098, 1.0110000000000001, 0.022, 192.0, 0.0, 0.0, 0.0, 0.0, 0.0, 0.0, 0.0, 0.0, 0.0, 1.695422260800027E9, 0.0, 2023-09-22 17:37:40.800
4.0, -147827.82171104214, 56885.77078411231, -7658.020574810574, 8917.161395211388, 88146.51824790458, 48367.073937305686, -187500.02235174447, 67949.77253076703, 72011.75505062999, 72697.48421877435, 5913.869251474053, 13343.16442527347, 84510.09059072622, 38333.35349957389, 13010.43635731177, 17557.67524929944, 0.098, 1.0110000000000001, 0.022, 192.0, 0.0, 0.0, 0.0, 0.0, 0.0, 0.0, 0.0, 0.0, 0.0, 1.695422260800031E9, 0.0, 2023-09-22 17:37:40.800
6.0, -147639.64237447293, 57001.79868957981, -7672.1692290507835, 8975.655910450925, 88270.2351534647, 48357.552094167724, -187500.02235174447, 68035.26795330858, 72015.97953033204, 72702.93804442145, 5922.631135300534, 13336.749474614797, 84511.36464016017, 38307.336069027915, 12996.33240656047, 17557.42938011043, 0.098, 1.0110000000000001, 0.022, 192.0, 0.0, 0.0, 0.0, 0.0, 0.0, 0.0, 0.0, 0.0, 0.0, 1.695422260800034E9, 0.0, 2023-09-22 17:37:40.800
8.0, -147803.77123400822, 56886.776612612804, -7631.109074486384, 8915.283848677142, 88138.2033989672, 48379.34504501165, -187500.02235174447, 67930.30416134646, 72059.18545236415, 72708.52598053527, 5921.98293471133, 13373.473390754867, 84519.5006751419, 38342.718880500666, 13029.77061626561, 17547.43815033891, 0.094, 1.014, 0.022, 192.0, 1.0, 120.0, 15.5, 88.0, 0.0, 88.0, 0.0, 0.0, 0.0, 1.695422260800037E9, 0.0, 2023-09-22 17:37:40.800
10.0, -147632.80274066958, 56994.06498599827, -7682.160458822305, 8982.070861109598, 88278.48294716871, 48349.728983608366, -187500.02235174447, 68015.17373504327, 71983.43539040511, 72715.87970446107, 5934.946946495408, 13364.197416805913, 84522.71932634346, 38319.406011033774, 13015.063168414017, 17563.151426690987, 0.094, 1.014, 0.022, 192.0, 0.0, 0.0, 0.0, 0.0, 0.0, 0.0, 0.0, 0.0, 0.0, 1.69542226080004E9, 0.0, 2023-09-22 17:37:40.800
12.0, -147767.628463224, 56890.79992661476, -7648.409324694792, 8914.389778898929, 88134.73887857662, 48366.40338497203, -187500.02235174447, 67928.51602179004, 72090.27672890147, 72702.24514034334, 5910.874117717042, 13376.736745445342, 84512.90691052758, 38336.25922635308, 13025.546136563557, 17536.50814730026, 0.094, 1.014, 0.022, 192.0, 0.0, 0.0, 0.0, 0.0, 0.0, 0.0, 0.0, 0.0, 0.0, 1.695422260800044E9, 0.0, 2023-09-22 17:37:40.800
14.0, -147644.80562744208, 56973.41197412157, -7670.358737749903, 8990.072785624598, 88263.97666501721, 48363.9670448264, -187500.02235174447, 67998.27581623505, 71958.20027091507, 72704.16739036649, 5917.8478619870975, 13372.400507021011, 84519.0536402528, 38324.63631923632, 13020.315828361016, 17554.300135886686, 0.094, 1.014, 0.022, 192.0, 0.0, 0.0, 0.0, 0.0, 0.0, 0.0, 0.0, 0.0, 0.0, 1.695422260800047E9, 0.0, 2023-09-22 17:37:40.800
16.0, -147762.21934106582, 56890.330539981194, -7623.84475753841, 8925.878575548957, 88123.27243367105, 48382.54134446876, -187500.02235174447, 67919.48591703009, 72102.07844997388, 72717.10905040611, 5923.41344635647, 13394.484030542855, 84527.54730314581, 38353.894752728316, 13041.14765419336, 17554.9930399648, 0.094, 1.014, 0.022, 192.0, 0.0, 0.0, 0.0, 0.0, 0.0, 0.0, 0.0, 0.0, 0.0, 1.695422260860396E9, 0.0, 2023-09-22 17:37:40.860
18.0, -147685.55285758412, 56954.61415703466, -7658.51231318859, 8995.526611271693, 88262.16617371634, 48366.40338497203, -187500.02235174447, 67989.13395275283, 71908.98172962449, 72721.73586150836, 5942.188911698927, 13402.12832714657, 84548.26737025588, 38354.386491106336, 13055.162197966838, 17569.119342460555, 0.1, 1.012, 0.024, 192.0, 1.5, 16.0, 15.5, 80.0, 0.0, 96.0, 0.0, 0.0, 0.0, 1.695422260860407E9, 0.0, 2023-09-22 17:37:40.860
20.0, -147734.10084654103, 56907.58608670069, -7629.097417485406, 8926.43736916034, 88133.1072012314, 48365.57637042718, -187500.02235174447, 67925.92321943321, 72122.5749996394, 72699.49587577533, 5914.808024741176, 13379.061326868694, 84519.16539897506, 38330.55953151698, 13039.270107659115, 17547.03581893871, 0.1, 1.012, 0.024, 192.0, 0.0, 0.0, 0.0, 0.0, 0.0, 0.0, 0.0, 0.0, 0.0, 1.695422260860411E9, 0.0, 2023-09-22 17:37:40.860
22.0, -147687.67627330736, 56947.75217148688, -7667.207141781705, 8989.782212946679, 88238.58508331598, 48359.27317849078, -187500.02235174447, 67986.07176376245, 71909.0711366023, 72702.9603961659, 5927.861443503076, 13390.527771774267, 84533.64932938211, 38340.50605779959, 13057.933814279297, 17562.1455981905, 0.1, 1.012, 0.024, 192.0, 0.0, 0.0, 0.0, 0.0, 0.0, 0.0, 0.0, 0.0, 0.0, 1.695422260860415E9, 0.0, 2023-09-22 17:37:40.860
24.0, -147698.9639042573, 56919.99130487339, -7640.27328971306, 8931.15358724041, 88123.6971168157, 48369.175001284486, -187500.02235174447, 67959.4955396051, 72149.50885170804, 72700.38994555354, 5909.153033393984, 13377.295539056724, 84509.35298315919, 38328.81609544946, 13039.180700681294, 17552.08731318561, 0.1, 1.012, 0.024, 192.0, 0.0, 0.0, 0.0, 0.0, 0.0, 0.0, 0.0, 0.0, 0.0, 1.695422260860418E9, 0.0, 2023-09-22 17:37:40.860
26.0, -147703.45660489282, 56924.953392142466, -7681.713423933199, 8974.314805783606, 88219.69785925125, 48356.859190089606, -187500.02235174447, 67989.13395275283, 71903.28203478838, 72700.90403567601, 5916.752626508788, 13396.205114865914, 84522.33934668772, 38339.23200836564, 13051.049476987062, 17555.685944042914, 0.1, 1.012, 0.024, 192.0, 0.0, 0.0, 0.0, 0.0, 0.0, 0.0, 0.0, 0.0, 0.0, 1.695422260860421E9, 0.0, 2023-09-22 17:37:40.860
28.0, -147673.5499708116, 56931.725970712425, -7651.337403218437, 8927.286735449641, 88135.40943091028, 48355.27221623328, -187500.02235174447, 67966.22341468614, 72151.4758052201, 72699.45117228641, 5903.006303668774, 13376.69204195643, 84499.78643653232, 38309.50418824008, 13016.739549248166, 17535.256449610766, 0.098, 1.008, 0.026000000000000002, 192.0, 1.5, 8.0, 15.5, 64.0, 0.0, 104.0, 0.0, 0.0, 0.0, 1.695422260860424E9, 0.0, 2023-09-22 17:37:40.860
30.0, -147709.02218926218, 56915.8338804047, -7685.826144912976, 8965.48586672376, 88196.317934551, 48340.56476838169, -187500.02235174447, 67969.17384495423, 71901.69506093205, 72695.11493386209, 5913.712789262866, 13394.305216587212, 84511.90108202709, 38324.68102272523, 13040.164177437327, 17534.831766466115, 0.098, 1.008, 0.026000000000000002, 192.0, 0.0, 0.0, 0.0, 0.0, 0.0, 0.0, 0.0, 0.0, 0.0, 1.69542226092063E9, 0.0, 2023-09-22 17:37:40.920
32.0, -147619.61521144095, 56952.96012794496, -7649.593967150923, 8940.67543037837, 88153.1567160078, 48351.98650979835, -187500.02235174447, 67965.30699316347, 72163.97043037062, 72694.48908501734, 5903.609800769067, 13368.556006974699, 84494.95845972997, 38298.35066775688, 13016.113700403417, 17533.781234476715, 0.098, 1.008, 0.026000000000000002, 192.0, 0.0, 0.0, 0.0, 0.0, 0.0, 0.0, 0.0, 0.0, 0.0, 1.695422260920642E9, 0.0, 2023-09-22 17:37:40.920
34.0, -147713.80546257563, 56902.93692385399, -7658.132333532851, 8971.833762149068, 88186.75138792413, 48358.84849534613, -187500.02235174447, 67952.52179533504, 71924.40443329864, 72706.78254446776, 5928.308478392181, 13415.427615097478, 84524.68627985552, 38345.75871774658, 13066.718049850233, 17550.90267072948, 0.098, 1.008, 0.026000000000000002, 192.0, 0.0, 0.0, 0.0, 0.0, 0.0, 0.0, 0.0, 0.0, 0.0, 1.695422260920646E9, 0.0, 2023-09-22 17:37:40.920
36.0, -147593.35191170598, 56967.06407869626, -7637.792246078521, 8964.100058567532, 88174.32381800697, 48357.552094167724, -187500.02235174447, 67985.87059806235, 72155.92380236671, 72706.3131578342, 5921.871175989053, 13383.397565293022, 84509.95648025948, 38307.64899345028, 13032.609287811434, 17554.322487631143, 0.098, 1.008, 0.026000000000000002, 192.0, 0.0, 0.0, 0.0, 0.0, 0.0, 0.0, 0.0, 0.0, 0.0, 1.695422260920649E9, 0.0, 2023-09-22 17:37:40.920
38.0, -147695.83466003355, 56896.07493830621, -7666.2460167701265, 8961.529607955172, 88168.98175108216, 48341.72705909337, -187500.02235174447, 67956.67921980371, 71944.47629981951, 72697.61832924109, 5916.685571275422, 13404.497612058833, 84513.55511111679, 38332.68294724023, 13058.090276490484, 17548.958068961867, 0.096, 1.01, 0.028, 192.0, 1.5, 0.0, 15.5, 72.0, 0.0, 112.0, 0.0, 0.0, 0.0, 1.695422260920658E9, 0.0, 2023-09-22 17:37:40.920
40.0, -147526.98958241817, 56984.31962541576, -7632.763103576077, 8959.361488743007, 88183.15275706683, 48349.99720454183, -187500.02235174447, 67994.9007028223, 72163.32222978142, 72682.46384650038, 5893.059777386163, 13356.486064968833, 84482.79911074629, 38283.77733037202, 13013.342084090958, 17536.37403683353, 0.096, 1.01, 0.028, 192.0, 0.0, 0.0, 0.0, 0.0, 0.0, 0.0, 0.0, 0.0, 0.0, 1.695422260920661E9, 0.0, 2023-09-22 17:37:40.920
42.0, -147731.35158197302, 56872.784420583775, -7609.6961032982, 8962.58013994457, 88134.04597449851, 48384.91062938102, -187500.02235174447, 67907.30421630194, 71955.07102669132, 72727.94964646694, 5934.611670328578, 13440.148644465047, 84541.09246028573, 38377.0064564951, 13100.82681188903, 17560.71508654536, 0.096, 1.01, 0.028, 192.0, 0.0, 0.0, 0.0, 0.0, 0.0, 0.0, 0.0, 0.0, 0.0, 1.695422260920664E9, 0.0, 2023-09-22 17:37:40.920
44.0, -147542.09936166994, 56983.179686448544, -7652.589100907934, 8983.814297177112, 88195.4685682617, 48342.21879747138, -187500.02235174447, 67980.86380730437, 72089.76263877901, 72713.97980618237, 5921.334734122126, 13383.866951926584, 84506.11198021317, 38309.63829870681, 13039.873604759408, 17567.57707209314, 0.096, 1.01, 0.028, 192.0, 0.0, 0.0, 0.0, 0.0, 0.0, 0.0, 0.0, 0.0, 0.0, 1.695422260920667E9, 0.0, 2023-09-22 17:37:40.920
46.0, -147716.89000331046, 56869.16343798202, -7641.256766469093, 8947.313898481596, 88119.91967200275, 48350.220721986385, -187500.02235174447, 67895.74836441856, 71975.67933507911, 72702.73687872135, 5907.946039193397, 13406.84454522664, 84506.91664301357, 38343.747060745605, 13068.528541151112, 17551.14853991849, 0.096, 1.01, 0.028, 192.0, 0.0, 0.0, 0.0, 0.0, 0.0, 0.0, 0.0, 0.0, 0.0, 1.695422260980834E9, 0.0, 2023-09-22 17:37:40.980
48.0, -147516.19368984626, 56987.94060801752, -7658.579368421957, 8985.356567544528, 88211.96415566972, 48339.64834685902, -187500.02235174447, 67979.27683344804, 72073.66938277119, 72695.62902398455, 5897.463071043858, 13361.135227815537, 84487.56003231526, 38294.30500201047, 13023.780348751587, 17558.055228955178, 0.10400000000000001, 1.012, 0.026000000000000002, 192.0, 1.5, 32.0, 15.5, 80.0, 0.0, 104.0, 0.0, 0.0, 0.0, 1.695422260980845E9, 0.0, 2023-09-22 17:37:40.980
50.0, -147711.25736370773, 56866.90591179203, -7640.876786813354, 8941.703610623314, 88097.43381708072, 48363.05062330373, -187500.02235174447, 67899.99519586506, 71998.12048651224, 72705.910826434, 5905.867326959054, 13407.470394071388, 84508.43656163652, 38351.59252304942, 13068.953224295763, 17559.686906300416, 0.10400000000000001, 1.012, 0.026000000000000002, 192.0, 0.0, 0.0, 0.0, 0.0, 0.0, 0.0, 0.0, 0.0, 0.0, 1.695422260980848E9, 0.0, 2023-09-22 17:37:40.980
52.0, -147489.81863138897, 56992.388605164124, -7686.004958868619, 8981.534419242671, 88211.45006554724, 48323.08570421764, -187500.02235174447, 68001.67328139226, 72039.4041585212, 72683.73789593433, 5889.371739551037, 13351.5016259553, 84475.22186937594, 38281.34099022639, 13003.127336874884, 17554.590708564607, 0.10400000000000001, 1.012, 0.026000000000000002, 192.0, 0.0, 0.0, 0.0, 0.0, 0.0, 0.0, 0.0, 0.0, 0.0, 1.695422260980852E9, 0.0, 2023-09-22 17:37:40.980
54.0, -147677.08154643554, 56866.54828388075, -7635.758237333088, 8929.43250291735, 88079.57477326093, 48356.74743136733, -187500.02235174447, 67899.23523655358, 72043.42747252315, 72698.08771587464, 5897.016036154751, 13392.740594475341, 84493.10326494017, 38332.213560606666, 13045.461540873235, 17535.61407752205, 0.10400000000000001, 1.012, 0.026000000000000002, 192.0, 0.0, 0.0, 0.0, 0.0, 0.0, 0.0, 0.0, 0.0, 0.0, 1.695422260980855E9, 0.0, 2023-09-22 17:37:40.980
56.0, -147501.39683501684, 56976.60827357868, -7672.079822072962, 8993.224381592796, 88204.90100442183, 48332.182864210954, -187500.02235174447, 68000.91332208077, 72002.5908354033, 72701.23931184284, 5910.717655505855, 13367.840751152129, 84500.65815456607, 38303.11158932586, 13020.449938827747, 17552.57905156363, 0.10400000000000001, 1.012, 0.026000000000000002, 192.0, 0.0, 0.0, 0.0, 0.0, 0.0, 0.0, 0.0, 0.0, 0.0, 1.695422260980858E9, 0.0, 2023-09-22 17:37:40.980
58.0, -147646.63847048744, 56869.856342060135, -7634.573594876957, 8924.626877859459, 88061.35810152986, 48349.57252139718, -187500.02235174447, 67915.66376872823, 72080.12903691876, 72692.14215184953, 5892.411576796959, 13372.087582598637, 84487.60473580417, 38316.18735983221, 13021.120491161406, 17525.22051635033, 0.1, 1.012, 0.026000000000000002, 192.0, 1.5, 16.0, 15.5, 80.0, 0.0, 104.0, 0.0, 0.0, 0.0, 1.695422260980861E9, 0.0, 2023-09-22 17:37:40.980
60.0, -147496.14417506984, 56965.32064262875, -7664.033194069051, 8993.313788570618, 88190.4617775037, 48330.640593843535, -187500.02235174447, 68011.93273209724, 71977.86980603574, 72695.5619687512, 5905.733216492322, 13361.626966193553, 84495.0925701967, 38301.323449769436, 13012.76093873512, 17540.307943857664, 0.1, 1.012, 0.026000000000000002, 192.0, 0.0, 0.0, 0.0, 0.0, 0.0, 0.0, 0.0, 0.0, 0.0, 1.69542226104127E9, 0.0, 2023-09-22 17:37:41.041
62.0, -147643.8445024305, 56865.43069665798, -7593.088757167907, 8932.405284929906, 88045.60012168887, 48359.7649168688, -187500.02235174447, 67916.44607978417, 72094.00947022552, 72697.66303273, 5909.354199094081, 13377.854332668107, 84500.68050631053, 38329.06196463847, 13036.252622157648, 17528.52857452972, 0.1, 1.012, 0.026000000000000002, 192.0, 0.0, 0.0, 0.0, 0.0, 0.0, 0.0, 0.0, 0.0, 0.0, 1.695422261041289E9, 0.0, 2023-09-22 17:37:41.041
64.0, -147532.30929759852, 56955.284709368316, -7639.982717035141, 9005.54019278767, 88195.64738221734, 48335.84855030162, -187500.02235174447, 67990.65387137579, 71917.18481983957, 72704.27914908876, 5931.862405760576, 13381.721184458875, 84517.95840477449, 38323.272862824546, 13042.131130949394, 17558.144635933, 0.1, 1.012, 0.026000000000000002, 192.0, 0.0, 0.0, 0.0, 0.0, 0.0, 0.0, 0.0, 0.0, 0.0, 1.695422261041293E9, 0.0, 2023-09-22 17:37:41.041
66.0, -147600.52682167612, 56896.209048772944, -7611.663056810267, 8929.991296528733, 88056.15014507176, 48338.73192533635, -187500.02235174447, 67919.03888214099, 72114.79659256895, 72682.97793662286, 5902.492213546302, 13361.269338282269, 84485.57072705874, 38305.3914672603, 13017.208935881727, 17534.29532459919, 0.1, 1.012, 0.026000000000000002, 192.0, 0.0, 0.0, 0.0, 0.0, 0.0, 0.0, 0.0, 0.0, 0.0, 1.695422261041296E9, 0.0, 2023-09-22 17:37:41.041
68.0, -147530.7670272311, 56952.66955526705, -7665.1284295473615, 8994.900762426945, 88166.88068710336, 48332.78636131124, -187500.02235174447, 67966.55869085297, 71911.50747674794, 72697.68538447445, 5926.945021980408, 13377.831980923651, 84503.47447436744, 38318.377830788835, 13030.15059592135, 17550.254470140277, 0.1, 1.01, 0.026000000000000002, 192.0, 1.5, 16.0, 15.5, 72.0, 0.0, 104.0, 0.0, 0.0, 0.0, 1.6954222610413E9, 0.0, 2023-09-22 17:37:41.041
70.0, -147572.4306788958, 56907.72019716742, -7623.643591838311, 8935.91450880939, 88034.69247039467, 48353.03704178775, -187500.02235174447, 67908.39945178026, 72136.29897073496, 72686.24129131333, 5907.476652559835, 13362.990422605328, 84475.89242170959, 38306.352592271876, 13006.278932843083, 17529.9367344304, 0.1, 1.01, 0.026000000000000002, 192.0, 0.0, 0.0, 0.0, 0.0, 0.0, 0.0, 0.0, 0.0, 0.0, 1.695422261041303E9, 0.0, 2023-09-22 17:37:41.041
72.0, -147549.0284024511, 56937.112741126155, -7669.866999371887, 9000.287532840674, 88144.46188741468, 48339.89421604803, -187500.02235174447, 67954.19817616919, 71897.00119459644, 72703.45213454391, 5934.186987183927, 13386.660919983498, 84499.2946981543, 38326.31270007047, 13030.575279066, 17547.86283348356, 0.1, 1.01, 0.026000000000000002, 192.0, 0.0, 0.0, 0.0, 0.0, 0.0, 0.0, 0.0, 0.0, 0.0, 1.695422261041306E9, 0.0, 2023-09-22 17:37:41.041
74.0, -147524.15091087233, 56933.536462013304, -7651.18094100725, 8938.95434605531, 88045.46601122213, 48334.75331482331, -187500.02235174447, 67938.79782423947, 72149.1288720523, 72696.79131469624, 5906.873155459542, 13357.134265558037, 84467.26464834984, 38298.14950205678, 12995.483040271169, 17529.824975708125, 0.1, 1.01, 0.026000000000000002, 192.0, 0.0, 0.0, 0.0, 0.0, 0.0, 0.0, 0.0, 0.0, 0.0, 1.695422261041309E9, 0.0, 2023-09-22 17:37:41.041
76.0, -147518.8758991809, 56935.52576726983, -7687.703691447222, 8977.309939540619, 88125.5523116055, 48321.09639896112, -187500.02235174447, 67976.95225202468, 71918.70473846255, 72689.07996285915, 5908.862460716065, 13363.750381916809, 84474.66307576455, 38305.90555738277, 13013.990284680163, 17532.015446664744, 0.1, 1.01, 0.026000000000000002, 192.0, 0.0, 0.0, 0.0, 0.0, 0.0, 0.0, 0.0, 0.0, 0.0, 1.695422261100581E9, 0.0, 2023-09-22 17:37:41.100
78.0, -147477.1675440273, 56948.62388952063, -7631.466702397669, 8946.755104870213, 88054.29495028198, 48348.119658007585, -187500.02235174447, 67950.64424880079, 72177.3367735549, 72698.46769553039, 5899.139451878006, 13351.233405021836, 84468.27047685033, 38299.17768230173, 13001.540363018557, 17524.862888439045, 0.10200000000000001, 1.014, 0.02, 192.0, 1.5, 24.0, 15.5, 88.0, 0.0, 80.0, 0.0, 0.0, 0.0, 1.695422261100591E9, 0.0, 2023-09-22 17:37:41.100
80.0, -147556.80680952154, 56913.86692689263, -7649.772781106566, 8987.859962923523, 88115.40461962279, 48347.42675392947, -187500.02235174447, 67940.29539111798, 71912.93798839307, 72708.92831193547, 5918.920745720952, 13386.727975216863, 84500.83696852172, 38336.21452286417, 13045.506244362146, 17546.81230149416, 0.10200000000000001, 1.014, 0.02, 192.0, 0.0, 0.0, 0.0, 0.0, 0.0, 0.0, 0.0, 0.0, 0.0, 1.695422261100597E9, 0.0, 2023-09-22 17:37:41.100
82.0, -147470.8643520909, 56961.87847398263, -7630.125597730351, 8966.961081857811, 88080.44649129469, 48346.778553340264, -187500.02235174447, 67952.87942324633, 72145.64199991728, 72708.83890495765, 5906.336713592615, 13354.11678005657, 84486.4424450925, 38305.70439168267, 13020.226421383193, 17548.66749628395, 0.10200000000000001, 1.014, 0.02, 192.0, 0.0, 0.0, 0.0, 0.0, 0.0, 0.0, 0.0, 0.0, 0.0, 1.695422261100601E9, 0.0, 2023-09-22 17:37:41.100
84.0, -147574.5764463635, 56897.57250518471, -7645.458894426692, 8972.884294138466, 88079.73123547212, 48332.585195611144, -187500.02235174447, 67933.29929510347, 71917.14011635067, 72694.71260246189, 5901.329922834626, 13361.984594104839, 84487.31416312626, 38320.16597034526, 13040.477101859702, 17541.313772358153, 0.10200000000000001, 1.014, 0.02, 192.0, 0.0, 0.0, 0.0, 0.0, 0.0, 0.0, 0.0, 0.0, 0.0, 1.695422261100604E9, 0.0, 2023-09-22 17:37:41.100
86.0, -147421.6458108003, 56976.675328812045, -7638.306336200993, 8960.121448054488, 88066.32018879893, 48315.821387269665, -187500.02235174447, 67982.38372592733, 72140.43404345919, 72686.59891922462, 5893.529164019724, 13319.650390106486, 84465.3871018156, 38268.24286797558, 12998.52287751709, 17527.94742917388, 0.10200000000000001, 1.014, 0.02, 192.0, 0.0, 0.0, 0.0, 0.0, 0.0, 0.0, 0.0, 0.0, 0.0, 1.695422261100608E9, 0.0, 2023-09-22 17:37:41.100
88.0, -147586.5346296471, 56878.55117065325, -7620.112016214373, 8958.847398620534, 88041.88973210928, 48343.13521899405, -187500.02235174447, 67930.34886483537, 71937.86018346074, 72695.69607921793, 5906.560231037168, 13368.041916852228, 84492.83504400672, 38319.89774941179, 13053.06113398804, 17525.958123917357, 0.1, 1.016, 0.02, 192.0, 1.5, 16.0, 15.5, 96.0, 0.0, 80.0, 0.0, 0.0, 0.0, 1.695422261100611E9, 0.0, 2023-09-22 17:37:41.100
90.0, -147418.67302878774, 56974.52956134434, -7633.813635565476, 8970.470305737294, 88087.57669777593, 48328.76304730929, -187500.02235174447, 68000.98037731415, 72100.42442088418, 72695.87489317356, 5900.838184456609, 13326.758244843275, 84474.61837227564, 38273.71904536713, 13015.890182958865, 17535.770539733236, 0.1, 1.016, 0.02, 192.0, 0.0, 0.0, 0.0, 0.0, 0.0, 0.0, 0.0, 0.0, 0.0, 1.695422261160318E9, 0.0, 2023-09-22 17:37:41.160
92.0, -147597.91166757487, 56862.41321115652, -7627.555147117991, 8953.103000295521, 88020.96849929911, 48349.88544581956, -187500.02235174447, 67915.37319605032, 71940.92237245111, 72696.50074201831, 5895.093786131595, 13358.922405114461, 84479.692218267, 38315.13682784281, 13045.215671684227, 17530.00378966377, 0.1, 1.016, 0.02, 192.0, 0.0, 0.0, 0.0, 0.0, 0.0, 0.0, 0.0, 0.0, 0.0, 1.695422261160341E9, 0.0, 2023-09-22 17:37:41.160
94.0, -147423.88098524584, 56974.61896832216, -7646.665888627278, 8990.25159958024, 88096.8973752138, 48344.87865506156, -187500.02235174447, 67979.76857182605, 72048.07663536986, 72713.01868117078, 5907.566059537657, 13340.862195594573, 84472.80788097477, 38286.59365017339, 13012.58212477948, 17549.405103850975, 0.1, 1.016, 0.02, 192.0, 0.0, 0.0, 0.0, 0.0, 0.0, 0.0, 0.0, 0.0, 0.0, 1.695422261160345E9, 0.0, 2023-09-22 17:37:41.160
96.0, -147593.2848564726, 56871.01863277181, -7645.972984549164, 8954.511160196205, 88002.43890314567, 48345.63861437305, -187500.02235174447, 67914.85910592784, 71947.60554404325, 72702.84863744362, 5901.128757134528, 13362.610442949586, 84467.26464834984, 38316.00854587657, 13031.804625011042, 17535.23409786631, 0.1, 1.016, 0.02, 192.0, 0.0, 0.0, 0.0, 0.0, 0.0, 0.0, 0.0, 0.0, 0.0, 1.695422261160348E9, 0.0, 2023-09-22 17:37:41.160
98.0, -147391.47095578563, 56990.46635514097, -7667.676528415267, 8990.720986213802, 88095.66802926875, 48324.4044571405, -187500.02235174447, 68003.97551107116, 72026.41779499267, 72700.32289032017, 5901.039350156707, 13322.645523863499, 84448.62329347411, 38266.25356271906, 12981.75906917561, 17537.156347889468, 0.098, 1.016, 0.022, 192.0, 1.5, 8.0, 15.5, 96.0, 0.0, 88.0, 0.0, 0.0, 0.0, 1.695422261160351E9, 0.0, 2023-09-22 17:37:41.160
100.0, -147585.7746703356, 56865.788324569265, -7638.239280967628, 8943.379991457461, 87979.14838542324, 48343.73871609435, -187500.02235174447, 67912.46746927113, 71981.8931200377, 72711.90109394802, 5908.951867693886, 13367.93015812995, 84473.25491586387, 38319.4954180116, 13033.302191889548, 17534.764711232747, 0.098, 1.016, 0.022, 192.0, 0.0, 0.0, 0.0, 0.0, 0.0, 0.0, 0.0, 0.0, 0.0, 1.695422261160354E9, 0.0, 2023-09-22 17:37:41.160
102.0, -147403.76441523604, 56979.60340733569, -7655.7406968761325, 8995.280742082685, 88094.55044204599, 48332.89812003352, -187500.02235174447, 68005.13780178282, 71989.62682361923, 72697.03718388524, 5900.458204800869, 13323.204317474881, 84458.50276452336, 38270.209821487646, 12990.364490790904, 17537.044589167188, 0.098, 1.016, 0.022, 192.0, 0.0, 0.0, 0.0, 0.0, 0.0, 0.0, 0.0, 0.0, 0.0, 1.695422261160357E9, 0.0, 2023-09-22 17:37:41.160
104.0, -147599.40923445337, 56862.43556290097, -7610.210193420672, 8943.715267624291, 87981.07063544639, 48360.74839362483, -187500.02235174447, 67899.30229178695, 72004.35662321528, 72713.33160559316, 5913.1539956514835, 13365.225597050858, 84480.83215723421, 38322.95993840217, 13038.197223925261, 17537.692789756395, 0.098, 1.016, 0.022, 192.0, 0.0, 0.0, 0.0, 0.0, 0.0, 0.0, 0.0, 0.0, 0.0, 1.695422261160361E9, 0.0, 2023-09-22 17:37:41.160
106.0, -147434.34160165093, 56975.557741589284, -7653.527874175057, 9009.339989345073, 88134.51536113207, 48328.76304730929, -187500.02235174447, 67998.00759530159, 71936.0273404154, 72711.3646520811, 5921.446492844402, 13337.68824788192, 84478.59698278869, 38289.76759788604, 13011.218668367705, 17560.871548756546, 0.098, 1.016, 0.022, 192.0, 0.0, 0.0, 0.0, 0.0, 0.0, 0.0, 0.0, 0.0, 0.0, 1.695422261220623E9, 0.0, 2023-09-22 17:37:41.220
108.0, -147580.54436213308, 56872.29268220576, -7598.5649345594575, 8943.134122268453, 87985.78685352646, 48338.79898056972, -187500.02235174447, 67906.07487035691, 72039.4041585212, 72699.42882054196, 5910.650600272489, 13345.846634608108, 84469.20925011746, 38302.217519547645, 13021.38871209487, 17540.79968223568, 0.10200000000000001, 1.01, 0.024, 192.0, 1.5, 24.0, 15.5, 72.0, 0.0, 96.0, 0.0, 0.0, 0.0, 1.695422261220634E9, 0.0, 2023-09-22 17:37:41.220
110.0, -147462.23657873113, 56964.51597982836, -7624.336495916426, 9013.49741381376, 88129.37445990735, 48324.918547262976, -187500.02235174447, 67983.81423757247, 71906.38892726766, 72710.49293404733, 5933.069399961162, 13343.387942718024, 84488.85643349367, 38293.16506304325, 13030.754093021644, 17560.08923770061, 0.10200000000000001, 1.01, 0.024, 192.0, 0.0, 0.0, 0.0, 0.0, 0.0, 0.0, 0.0, 0.0, 0.0, 1.695422261220637E9, 0.0, 2023-09-22 17:37:41.220
112.0, -147560.6289578234, 56889.03413880279, -7586.9420274426975, 8942.977660057266, 87989.3184291504, 48335.15564622351, -187500.02235174447, 67903.32560578891, 72072.0600571704, 72694.26556757279, 5907.767225237754, 13327.920535554951, 84458.01102614535, 38282.14565302678, 13014.370264335903, 17534.988228677303, 0.10200000000000001, 1.01, 0.024, 192.0, 0.0, 0.0, 0.0, 0.0, 0.0, 0.0, 0.0, 0.0, 0.0, 1.695422261220641E9, 0.0, 2023-09-22 17:37:41.220
114.0, -147478.35218648342, 56958.41395359206, -7644.430714181747, 9018.437149338382, 88112.65535505478, 48324.53856760723, -187500.02235174447, 67970.67141183275, 71880.6173659107, 72723.18872489795, 5943.820589044165, 13356.195492290914, 84494.82434926323, 38308.00662136157, 13041.661744315834, 17567.666479070962, 0.10200000000000001, 1.01, 0.024, 192.0, 0.0, 0.0, 0.0, 0.0, 0.0, 0.0, 0.0, 0.0, 0.0, 1.695422261220644E9, 0.0, 2023-09-22 17:37:41.220
116.0, -147534.25389936613, 56899.58416218569, -7609.159661431273, 8943.223529246276, 87974.34276036534, 48334.79801831222, -187500.02235174447, 67903.01268136653, 72103.08427847437, 72692.09744836063, 5904.995608925296, 13315.716483082353, 84446.8798574066, 38275.037798289995, 12996.980607149675, 17533.89299319899, 0.10200000000000001, 1.01, 0.024, 192.0, 0.0, 0.0, 0.0, 0.0, 0.0, 0.0, 0.0, 0.0, 0.0, 1.695422261220648E9, 0.0, 2023-09-22 17:37:41.220
118.0, -147467.69040437823, 56948.55683428727, -7667.028327826063, 9006.702483499346, 88083.08399714042, 48308.08768368813, -187500.02235174447, 67954.8910802473, 71890.3180230043, 72704.63677700005, 5920.6641817884665, 13327.942887299407, 84465.34239832668, 38285.25254550607, 13008.849383455443, 17550.880318985026, 0.11, 1.008, 0.022, 192.0, 1.5, 56.0, 15.5, 64.0, 0.0, 88.0, 0.0, 0.0, 0.0, 1.695422261220651E9, 0.0, 2023-09-22 17:37:41.220
120.0, -147490.84681163394, 56922.67351420802, -7620.804920292488, 8947.805636859614, 87960.95406543661, 48331.825236299665, -187500.02235174447, 67900.71045168763, 72134.28731373398, 72705.664957245, 5907.051969415184, 13318.689265094908, 84450.72435745291, 38282.70444663816, 12998.701691472734, 17531.85898445356, 0.11, 1.008, 0.022, 192.0, 0.0, 0.0, 0.0, 0.0, 0.0, 0.0, 0.0, 0.0, 0.0, 1.695422261280806E9, 0.0, 2023-09-22 17:37:41.280
122.0, -147483.20251503022, 56938.07386613773, -7648.8116560949875, 9004.601419520548, 88046.5835984449, 48324.47151237387, -187500.02235174447, 67928.80659446795, 71896.8670841297, 72708.63773925755, 5914.897431718998, 13335.296611225202, 84461.20732560246, 38295.936679355706, 13011.397482323348, 17541.872565969537, 0.11, 1.008, 0.022, 192.0, 0.0, 0.0, 0.0, 0.0, 0.0, 0.0, 0.0, 0.0, 0.0, 1.69542226128082E9, 0.0, 2023-09-22 17:37:41.280
124.0, -147462.32598570897, 56940.28668883881, -7623.285963927026, 8962.624843433481, 87966.13967015025, 48329.92533802096, -187500.02235174447, 67899.4811057426, 72134.75670036754, 72721.78056499727, 5916.350295108592, 13328.412273932967, 84454.54650575477, 38293.075656065426, 12999.372243806392, 17538.676266512426, 0.11, 1.008, 0.022, 192.0, 0.0, 0.0, 0.0, 0.0, 0.0, 0.0, 0.0, 0.0, 0.0, 1.695422261280824E9, 0.0, 2023-09-22 17:37:41.280
126.0, -147506.67184670828, 56921.04183686279, -7648.006993294596, 8997.225343850296, 88025.90823482374, 48321.901061761506, -187500.02235174447, 67916.11080361734, 71884.99830782393, 72712.57164628168, 5919.50189107679, 13336.548308914698, 84462.10139538067, 38305.14559807129, 13012.984456179674, 17536.798719978182, 0.11, 1.008, 0.022, 192.0, 0.0, 0.0, 0.0, 0.0, 0.0, 0.0, 0.0, 0.0, 0.0, 1.695422261280827E9, 0.0, 2023-09-22 17:37:41.280
128.0, -147430.74297079362, 56956.64816578009, -7617.899193513298, 8966.178770801875, 87972.95695220912, 48324.1585879515, -187500.02235174447, 67923.44217579869, 72138.73531088058, 72708.660091002, 5910.605896783579, 13307.91572426745, 84444.80114517226, 38275.97657155712, 12984.24011281015, 17532.685998998404, 0.11, 1.012, 0.026000000000000002, 192.0, 1.5, 56.0, 15.5, 80.0, 0.0, 104.0, 0.0, 0.0, 0.0, 1.695422261280831E9, 0.0, 2023-09-22 17:37:41.280
130.0, -147518.29475382506, 56909.37422625712, -7633.590118120924, 8991.391538547461, 88001.45542638963, 48315.77668378076, -187500.02235174447, 67910.25464657004, 71898.74463066395, 72717.10905040611, 5922.02763820024, 13338.15763451548, 84468.09166289469, 38310.48766499611, 13016.739549248166, 17533.24479260979, 0.11, 1.012, 0.026000000000000002, 192.0, 0.0, 0.0, 0.0, 0.0, 0.0, 0.0, 0.0, 0.0, 0.0, 1.695422261280834E9, 0.0, 2023-09-22 17:37:41.280
132.0, -147398.6011622669, 56963.599558305694, -7614.5911353339125, 8971.610244704514, 87985.9656674821, 48303.08089293014, -187500.02235174447, 67944.07283593093, 72138.35533122484, 72708.14600087953, 5906.001437425785, 13295.4881543503, 84451.46196501995, 38285.67722865072, 12979.032156352063, 17523.544135516186, 0.11, 1.012, 0.026000000000000002, 192.0, 0.0, 0.0, 0.0, 0.0, 0.0, 0.0, 0.0, 0.0, 0.0, 1.695422261280838E9, 0.0, 2023-09-22 17:37:41.280
134.0, -147516.6630764798, 56888.520048680315, -7617.452158624192, 8974.895951139444, 87986.9714959826, 48308.557070321694, -187500.02235174447, 67905.00198662306, 71928.69596823407, 72697.77479145226, 5912.394036340003, 13318.219878461347, 84462.92840992552, 38326.044479137, 13012.38095907938, 17516.637446479494, 0.11, 1.012, 0.026000000000000002, 192.0, 0.0, 0.0, 0.0, 0.0, 0.0, 0.0, 0.0, 0.0, 0.0, 1.695422261280841E9, 0.0, 2023-09-22 17:37:41.280
136.0, -147347.0803912974, 56979.71516605797, -7626.214042450672, 8976.862904651513, 87999.24260368856, 48295.12367190405, -187500.02235174447, 67964.16705419625, 72136.47778469059, 72696.6572042295, 5910.784710739221, 13280.557189054154, 84439.0790985917, 38286.414836217744, 12967.722173657678, 17512.83764992209, 0.11, 1.012, 0.026000000000000002, 192.0, 0.0, 0.0, 0.0, 0.0, 0.0, 0.0, 0.0, 0.0, 0.0, 1.695422261341111E9, 0.0, 2023-09-22 17:37:41.341
138.0, -147500.65922744983, 56885.659025390036, -7625.252917439094, 8964.457686478816, 87942.58093149435, 48318.123616948564, -187500.02235174447, 67910.74638494807, 71961.79890177237, 72697.35010830761, 5912.908126462475, 13316.811718560662, 84448.5785899852, 38330.470124539155, 13002.233267096672, 17506.422699263418, 0.10400000000000001, 1.008, 0.028, 192.0, 1.5, 32.0, 15.5, 64.0, 0.0, 112.0, 0.0, 0.0, 0.0, 1.695422261341121E9, 0.0, 2023-09-22 17:37:41.341
140.0, -147326.6285451208, 56989.952265018495, -7645.928281060253, 8984.618959977504, 87990.90540300672, 48306.254840642796, -187500.02235174447, 67987.85990331888, 72109.25335994404, 72706.42491655647, 5912.639905529011, 13288.402651357968, 84439.32496778072, 38299.24473753509, 12967.364545746392, 17515.877487168014, 0.10400000000000001, 1.008, 0.028, 192.0, 0.0, 0.0, 0.0, 0.0, 0.0, 0.0, 0.0, 0.0, 0.0, 1.695422261341124E9, 0.0, 2023-09-22 17:37:41.341
142.0, -147497.70879718172, 56881.21102824343, -7641.614394380378, 8958.757991642713, 87915.4012102367, 48319.397666382516, -187500.02235174447, 67919.5753240079, 71978.62976534721, 72706.78254446776, 5902.313399590659, 13316.811718560662, 84437.96151136894, 38340.036671166024, 12998.411118794815, 17506.69092019688, 0.10400000000000001, 1.008, 0.028, 192.0, 0.0, 0.0, 0.0, 0.0, 0.0, 0.0, 0.0, 0.0, 0.0, 1.695422261341127E9, 0.0, 2023-09-22 17:37:41.341
144.0, -147294.82201276088, 57002.268076213375, -7655.405420709303, 8994.96781766031, 88002.64006884577, 48305.11490167557, -187500.02235174447, 68001.29330173651, 72090.74611553505, 72705.37438456707, 5900.301742589681, 13280.49013382079, 84417.28614774779, 38293.969725843635, 12953.305298484005, 17514.849306923068, 0.10400000000000001, 1.008, 0.028, 192.0, 0.0, 0.0, 0.0, 0.0, 0.0, 0.0, 0.0, 0.0, 0.0, 1.69542226134113E9, 0.0, 2023-09-22 17:37:41.341
146.0, -147503.60965771793, 56874.1255252511, -7605.337513129415, 8959.182674787364, 87885.80750057787, 48335.98266076835, -187500.02235174447, 67906.74542269057, 72015.37603323175, 72717.66784401749, 5912.438739828914, 13333.910803068973, 84440.42020325903, 38353.4030143503, 13003.060281641518, 17513.396443533475, 0.10400000000000001, 1.008, 0.028, 192.0, 0.0, 0.0, 0.0, 0.0, 0.0, 0.0, 0.0, 0.0, 0.0, 1.695422261341134E9, 0.0, 2023-09-22 17:37:41.341
148.0, -147324.5721846309, 56992.29919818631, -7636.339382688926, 9016.112567915032, 88004.04822874645, 48311.59690756761, -187500.02235174447, 67991.01149928708, 72034.01738810747, 72723.72516676488, 5926.855615002587, 13311.626113847033, 84439.12380208062, 38319.070734866946, 12979.769763919088, 17533.982400176814, 0.106, 1.01, 0.03, 192.0, 1.5, 40.0, 15.5, 72.0, 0.0, 120.0, 0.0, 0.0, 0.0, 1.695422261341137E9, 0.0, 2023-09-22 17:37:41.341
150.0, -147517.17716660228, 56874.326690951195, -7605.449271851692, 8961.663718421903, 87876.82209930684, 48332.36167816659, -187500.02235174447, 67877.30817524293, 72021.56746644586, 72722.5628760532, 5922.117045178062, 13337.084750781627, 84444.01883411633, 38357.82865975245, 13009.966970678208, 17520.817222692636, 0.106, 1.01, 0.03, 192.0, 0.0, 0.0, 0.0, 0.0, 0.0, 0.0, 0.0, 0.0, 0.0, 1.695422261400457E9, 0.0, 2023-09-22 17:37:41.400
152.0, -147323.1640247302, 56994.4002621651, -7650.711554373688, 9012.759806246735, 88011.71487709462, 48297.82823298314, -187500.02235174447, 67973.39832465629, 72004.73660287102, 72704.6591287445, 5908.5718880381455, 13286.815677501641, 84420.9741855829, 38303.58097595942, 12965.33053700096, 17523.387673305, 0.106, 1.01, 0.03, 192.0, 0.0, 0.0, 0.0, 0.0, 0.0, 0.0, 0.0, 0.0, 0.0, 1.695422261400468E9, 0.0, 2023-09-22 17:37:41.400
154.0, -147503.83317516246, 56878.50646716434, -7589.087794910407, 8946.039849047644, 87865.15448870117, 48331.981698510855, -187500.02235174447, 67865.10412277032, 72067.14267339023, 72708.25775960181, 5910.024751427741, 13313.816584803651, 84429.35608975364, 38343.43413632323, 12995.863019926908, 17507.74145218628, 0.106, 1.01, 0.03, 192.0, 0.0, 0.0, 0.0, 0.0, 0.0, 0.0, 0.0, 0.0, 0.0, 1.695422261400472E9, 0.0, 2023-09-22 17:37:41.400
156.0, -147345.67223139672, 56985.45956438298, -7634.148911732306, 9012.513937057727, 88007.35628692583, 48295.548355048704, -187500.02235174447, 67977.26517644706, 71960.25663140496, 72713.97980618237, 5925.760379524277, 13294.05764270516, 84437.06744159073, 38321.44001977921, 12982.027290109074, 17529.199126863376, 0.106, 1.01, 0.03, 192.0, 0.0, 0.0, 0.0, 0.0, 0.0, 0.0, 0.0, 0.0, 0.0, 1.695422261400475E9, 0.0, 2023-09-22 17:37:41.400
158.0, -147472.89836083632, 56892.76688012682, -7572.0334138910075, 8943.379991457461, 87865.89209626819, 48320.358791394094, -187500.02235174447, 67905.11374534533, 72091.32726089087, 72700.2558350868, 5903.5203937912465, 13291.06250894815, 84421.5776826832, 38329.35253731639, 12991.169153591294, 17498.46547823733, 0.10400000000000001, 1.014, 0.026000000000000002, 192.0, 1.5, 32.0, 15.5, 88.0, 0.0, 104.0, 0.0, 0.0, 0.0, 1.695422261400479E9, 0.0, 2023-09-22 17:37:41.400
160.0, -147356.84810362436, 56981.302139914296, -7616.4686818681585, 9021.901669728955, 88008.2727084485, 48306.858337743084, -187500.02235174447, 67994.43131618874, 71931.42288105762, 72721.28882661925, 5927.07913244714, 13301.97016024234, 84449.7855841858, 38334.806362963485, 13006.636560754367, 17508.389652775484, 0.10400000000000001, 1.014, 0.026000000000000002, 192.0, 0.0, 0.0, 0.0, 0.0, 0.0, 0.0, 0.0, 0.0, 0.0, 1.695422261400482E9, 0.0, 2023-09-22 17:37:41.400
162.0, -147458.19091298472, 56914.515127481834, -7560.946948641175, 8961.417849232896, 87865.02037823443, 48338.08372474715, -187500.02235174447, 67908.46650701363, 72113.14256347925, 72716.28203586127, 5917.26671663126, 13305.009997488261, 84433.04412758877, 38342.74123224512, 12995.483040271169, 17485.54616994216, 0.10400000000000001, 1.014, 0.026000000000000002, 192.0, 0.0, 0.0, 0.0, 0.0, 0.0, 0.0, 0.0, 0.0, 0.0, 1.695422261400486E9, 0.0, 2023-09-22 17:37:41.400
164.0, -147399.36112157837, 56972.897883999096, -7624.537661616524, 9034.26218441274, 87981.5176703355, 48318.347134393116, -187500.02235174447, 67964.547033852, 71903.88553188868, 72738.09733844965, 5948.849731546608, 13329.216936733359, 84457.9886744009, 38362.343712132424, 13010.972799178697, 17512.435318521897, 0.10400000000000001, 1.014, 0.026000000000000002, 192.0, 0.0, 0.0, 0.0, 0.0, 0.0, 0.0, 0.0, 0.0, 0.0, 1.695422261400489E9, 0.0, 2023-09-22 17:37:41.400
166.0, -147434.83334002894, 56922.36058978565, -7615.216984178661, 8958.48977070925, 87850.71526178304, 48315.687276802935, -187500.02235174447, 67911.90867565974, 72121.50211590555, 72704.2120938554, 5905.26382985876, 13287.553285068667, 84404.34448770815, 38326.335051814924, 12964.749391645122, 17480.561730928628, 0.10400000000000001, 1.014, 0.026000000000000002, 192.0, 0.0, 0.0, 0.0, 0.0, 0.0, 0.0, 0.0, 0.0, 0.0, 1.695422261460392E9, 0.0, 2023-09-22 17:37:41.460
168.0, -147397.95296167769, 56947.05926740877, -7653.282004986049, 9017.476024326805, 87956.41666131219, 48308.199442410405, -187500.02235174447, 67962.46832161765, 71894.09546781724, 72705.57555026717, 5908.415425826958, 13296.359872384057, 84417.26379600332, 38335.67808099724, 12980.373261019382, 17490.64236767797, 0.098, 1.016, 0.026000000000000002, 192.0, 1.5, 8.0, 15.5, 96.0, 0.0, 104.0, 0.0, 0.0, 0.0, 1.695422261460419E9, 0.0, 2023-09-22 17:37:41.460
170.0, -147389.1910778512, 56932.17300560153, -7609.293771898005, 8967.497523724738, 87843.40624134615, 48321.498730361316, -187500.02235174447, 67926.01262641104, 72145.28437200599, 72698.44534378593, 5895.853745443076, 13278.880808220007, 84402.2210719849, 38320.121266856346, 12967.386897490847, 17479.242978005765, 0.098, 1.016, 0.026000000000000002, 192.0, 0.0, 0.0, 0.0, 0.0, 0.0, 0.0, 0.0, 0.0, 0.0, 1.695422261460423E9, 0.0, 2023-09-22 17:37:41.460
172.0, -147417.6001450539, 56930.1389968561, -7626.638725595323, 9023.779216263201, 87919.42452423865, 48321.901061761506, -187500.02235174447, 67936.71911200513, 71890.87681661568, 72711.99050092585, 5919.591298054612, 13308.809794045663, 84436.50864797934, 38350.76550850457, 13006.681264243278, 17503.02523410621, 0.098, 1.016, 0.026000000000000002, 192.0, 0.0, 0.0, 0.0, 0.0, 0.0, 0.0, 0.0, 0.0, 0.0, 1.695422261460427E9, 0.0, 2023-09-22 17:37:41.460
174.0, -147352.17658903322, 56948.646241265094, -7603.348207872893, 8983.523724499193, 87847.5860175593, 48310.34520987811, -187500.02235174447, 67925.85616419985, 72153.50981396555, 72703.161561866, 5901.26286760126, 13268.934281937396, 84406.44555168695, 38310.822941162936, 12964.034135822552, 17492.832838634593, 0.098, 1.016, 0.026000000000000002, 192.0, 0.0, 0.0, 0.0, 0.0, 0.0, 0.0, 0.0, 0.0, 0.0, 1.695422261460431E9, 0.0, 2023-09-22 17:37:41.460
176.0, -147409.48646181662, 56916.347970527175, -7615.127577200839, 9016.537251059683, 87914.44008522513, 48304.779625508745, -187500.02235174447, 67914.4791262721, 71913.83205817129, 72697.4618670299, 5912.371684595548, 13296.20341017287, 84427.81381938623, 38338.382642076336, 12997.76291820561, 17498.107850326043, 0.098, 1.016, 0.026000000000000002, 192.0, 0.0, 0.0, 0.0, 0.0, 0.0, 0.0, 0.0, 0.0, 0.0, 1.695422261460434E9, 0.0, 2023-09-22 17:37:41.460
178.0, -147320.50416714002, 56959.88916872611, -7587.366710587348, 8992.464422281317, 87880.91246854216, 48307.9535732214, -187500.02235174447, 67930.32651309091, 72156.61670644482, 72696.34427980713, 5906.023789170241, 13268.934281937396, 84412.1228947786, 38310.8452929074, 12969.80088589202, 17499.404251504453, 0.1, 1.012, 0.028, 192.0, 1.5, 16.0, 15.5, 80.0, 0.0, 112.0, 0.0, 0.0, 0.0, 1.695422261460438E9, 0.0, 2023-09-22 17:37:41.460
180.0, -147433.73810455063, 56902.9816273429, -7611.975981232641, 9005.249620109751, 87889.31672445736, 48303.93025921944, -187500.02235174447, 67896.66478594122, 71910.14402033616, 72709.55416078022, 5911.589373539612, 13299.846744519085, 84424.41635422902, 38349.71497651518, 12997.718214716699, 17502.757013172748, 0.1, 1.012, 0.028, 192.0, 0.0, 0.0, 0.0, 0.0, 0.0, 0.0, 0.0, 0.0, 0.0, 1.695422261520558E9, 0.0, 2023-09-22 17:37:41.520
182.0, -147292.65389354873, 56972.674366554544, -7595.815669991454, 8995.705425227336, 87894.9493640601, 48300.577497551145, -187500.02235174447, 67940.96594345164, 72130.88984857677, 72688.92350064797, 5901.30757109017, 13253.24335732977, 84400.83526382867, 38298.19420554569, 12957.328612485959, 17496.99026310328, 0.1, 1.012, 0.028, 192.0, 0.0, 0.0, 0.0, 0.0, 0.0, 0.0, 0.0, 0.0, 0.0, 1.695422261520577E9, 0.0, 2023-09-22 17:37:41.520
184.0, -147447.01504075708, 56877.902970064046, -7599.07902468193, 8992.39736704795, 87862.87461076672, 48312.44627385691, -187500.02235174447, 67888.03701258148, 71923.82328794281, 72680.83216915514, 5914.6739142744445, 13292.515372337744, 84430.6301391876, 38343.121211900856, 13011.397482323348, 17500.588893960583, 0.1, 1.012, 0.028, 192.0, 0.0, 0.0, 0.0, 0.0, 0.0, 0.0, 0.0, 0.0, 0.0, 1.695422261520582E9, 0.0, 2023-09-22 17:37:41.520
186.0, -147284.07082367787, 56960.62677629314, -7618.882670269331, 8996.621846750004, 87897.81038735037, 48290.027474168244, -187500.02235174447, 67938.48489981711, 72105.9676535091, 72668.67282017146, 5904.570925780646, 13243.90032814745, 84409.55244416624, 38291.57808918692, 12965.531702701057, 17496.722042169815, 0.1, 1.012, 0.028, 192.0, 0.0, 0.0, 0.0, 0.0, 0.0, 0.0, 0.0, 0.0, 0.0, 1.695422261520585E9, 0.0, 2023-09-22 17:37:41.520
188.0, -147460.18021824126, 56845.448237114935, -7617.496862113102, 8972.884294138466, 87840.36640410023, 48295.66011377098, -187500.02235174447, 67849.63671560725, 71949.61720104422, 72656.53582293223, 5902.268696101749, 13272.667023261432, 84423.90226410655, 38330.71599372816, 12998.500525772635, 17482.28281525169, 0.1, 1.008, 0.024, 192.0, 1.5, 16.0, 15.5, 64.0, 0.0, 96.0, 0.0, 0.0, 0.0, 1.695422261520598E9, 0.0, 2023-09-22 17:37:41.520
190.0, -147279.98045444256, 56946.23225286392, -7622.973039504653, 8990.609227491526, 87902.50425368598, 48284.88657294352, -187500.02235174447, 67918.56949550743, 72090.81317076841, 72634.07231975465, 5889.282332573215, 13217.301752245636, 84399.91884230601, 38270.276876721015, 12945.593946646923, 17485.188542030875, 0.1, 1.008, 0.024, 192.0, 0.0, 0.0, 0.0, 0.0, 0.0, 0.0, 0.0, 0.0, 0.0, 1.695422261520602E9, 0.0, 2023-09-22 17:37:41.520
192.0, -147468.3609567119, 56826.44925432793, -7609.182013175728, 8961.171980043886, 87807.28582230638, 48292.12853814704, -187500.02235174447, 67840.22663119157, 71978.71917232504, 72637.60389537858, 5901.955771679374, 13260.15004636646, 84419.94600533796, 38318.221368577644, 12988.911627401309, 17485.590873431072, 0.1, 1.008, 0.024, 192.0, 0.0, 0.0, 0.0, 0.0, 0.0, 0.0, 0.0, 0.0, 0.0, 1.695422261520605E9, 0.0, 2023-09-22 17:37:41.520
194.0, -147286.57421905687, 56938.49854928238, -7626.526966873046, 9003.193259619864, 87905.70055314309, 48273.6436454825, -187500.02235174447, 67921.09524263088, 72051.8093766939, 72635.50283139979, 5910.40473108348, 13232.5232902197, 84411.09471453365, 38277.80941460245, 12952.74650487262, 17493.771611901717, 0.1, 1.008, 0.024, 192.0, 0.0, 0.0, 0.0, 0.0, 0.0, 0.0, 0.0, 0.0, 0.0, 1.695422261520609E9, 0.0, 2023-09-22 17:37:41.520
196.0, -147473.34539572542, 56817.843832712635, -7601.872992738842, 8952.812427617602, 87794.25475528893, 48279.99154090781, -187500.02235174447, 67833.58816308835, 72006.12241102725, 72625.13162197253, 5906.604934526078, 13260.86530218903, 84419.94600533796, 38310.66647895175, 12980.641481952845, 17481.70166989585, 0.1, 1.008, 0.024, 192.0, 0.0, 0.0, 0.0, 0.0, 0.0, 0.0, 0.0, 0.0, 0.0, 1.695422261580854E9, 0.0, 2023-09-22 17:37:41.580
198.0, -147280.24867537603, 56932.73179921291, -7629.767969819066, 8995.392500804961, 87902.97364031954, 48244.94400560189, -187500.02235174447, 67922.74927172056, 72028.36239676028, 72603.83040950661, 5898.290085588705, 13213.546659177144, 84408.65837438803, 38252.82016430142, 12934.105149996896, 17480.069992550612, 0.10200000000000001, 1.004, 0.024, 192.0, 1.5, 24.0, 15.5, 48.0, 0.0, 96.0, 0.0, 0.0, 0.0, 1.695422261580868E9, 0.0, 2023-09-22 17:37:41.580
200.0, -147467.93627356723, 56809.21605935288, -7584.349225085882, 8936.316840209585, 87778.04974055884, 48266.26756981225, -187500.02235174447, 67819.64067454824, 72056.2126703516, 72603.07045019513, 5894.400882053481, 13242.134540335483, 84418.78371462629, 38292.58391768741, 12964.61528117839, 17456.287736450166, 0.10200000000000001, 1.004, 0.024, 192.0, 0.0, 0.0, 0.0, 0.0, 0.0, 0.0, 0.0, 0.0, 0.0, 1.695422261580871E9, 0.0, 2023-09-22 17:37:41.580
202.0, -147286.57421905687, 56923.6346392196, -7639.647440868312, 8998.857021195534, 87921.01149809499, 48229.70011588337, -187500.02235174447, 67923.86685894334, 72000.62388189124, 72607.71961304183, 5903.028655413229, 13224.56606919361, 84412.86050234563, 38261.06795800543, 12940.698914611212, 17467.821236589105, 0.10200000000000001, 1.004, 0.024, 192.0, 0.0, 0.0, 0.0, 0.0, 0.0, 0.0, 0.0, 0.0, 0.0, 1.695422261580874E9, 0.0, 2023-09-22 17:37:41.580
204.0, -147432.26288941657, 56817.77677747927, -7591.702949011678, 8933.120540752476, 87777.9156300921, 48256.142229574, -187500.02235174447, 67838.34908465733, 72104.62654884178, 72602.19873216137, 5884.521411004235, 13236.054865843638, 84398.55538589423, 38280.80454835946, 12951.204234505205, 17441.468529876296, 0.10200000000000001, 1.004, 0.024, 192.0, 0.0, 0.0, 0.0, 0.0, 0.0, 0.0, 0.0, 0.0, 0.0, 1.695422261580877E9, 0.0, 2023-09-22 17:37:41.580
206.0, -147288.22824814657, 56919.65602870656, -7635.534719888535, 9008.490623055772, 87920.94444286161, 48245.12281955753, -187500.02235174447, 67934.4839375596, 71991.23614922001, 72608.45722060886, 5905.26382985876, 13240.704028690343, 84414.6262901576, 38277.51884192453, 12953.350001972914, 17468.804713345136, 0.10200000000000001, 1.004, 0.024, 192.0, 0.0, 0.0, 0.0, 0.0, 0.0, 0.0, 0.0, 0.0, 0.0, 1.69542226158088E9, 0.0, 2023-09-22 17:37:41.580
208.0, -147430.09477020442, 56834.09355093164, -7579.700062239178, 8949.8619973495, 87774.22759225698, 48285.46771829936, -187500.02235174447, 67851.33544818586, 72132.61093289983, 72616.19092419039, 5902.626324013034, 13271.594139527577, 84417.7778861258, 38316.74615344359, 12982.519028487091, 17470.235224990276, 0.098, 1.012, 0.022, 192.0, 1.5, 8.0, 15.5, 80.0, 0.0, 88.0, 0.0, 0.0, 0.0, 1.695422261580884E9, 0.0, 2023-09-22 17:37:41.580
210.0, -147300.63346631927, 56922.31588629674, -7670.179923794261, 9013.229192880297, 87925.9512336196, 48240.9877468333, -187500.02235174447, 67952.9911819686, 71955.60746855826, 72607.29492989718, 5906.627286270534, 13264.754505724253, 84415.74387738036, 38298.14950205678, 12973.846551638431, 17487.334309498587, 0.098, 1.012, 0.022, 192.0, 0.0, 0.0, 0.0, 0.0, 0.0, 0.0, 0.0, 0.0, 0.0, 1.69542226164121E9, 0.0, 2023-09-22 17:37:41.641
212.0, -147380.6303597248, 56850.92441450649, -7616.513385357069, 8932.248822718719, 87794.23240354448, 48269.37446229154, -187500.02235174447, 67872.45784669612, 72171.83824441889, 72587.60304303205, 5874.217256810339, 13260.753543466753, 84393.92857479198, 38298.68594392371, 12969.75618240311, 17454.097265493547, 0.098, 1.012, 0.022, 192.0, 0.0, 0.0, 0.0, 0.0, 0.0, 0.0, 0.0, 0.0, 0.0, 1.695422261641236E9, 0.0, 2023-09-22 17:37:41.641
214.0, -147314.3127339259, 56895.56084818373, -7663.116772546384, 8991.548000758648, 87927.51585573147, 48246.329813758115, -187500.02235174447, 67936.47324281612, 71955.67452379162, 72590.39701108898, 5885.884867416009, 13280.221912887326, 84409.70890637743, 38302.28457478101, 12984.195409321239, 17462.70268710884, 0.098, 1.012, 0.022, 192.0, 0.0, 0.0, 0.0, 0.0, 0.0, 0.0, 0.0, 0.0, 0.0, 1.695422261641239E9, 0.0, 2023-09-22 17:37:41.641
216.0, -147344.7334581296, 56861.675603589494, -7623.84475753841, 8930.617145373482, 87814.86306367673, 48258.86914239754, -187500.02235174447, 67896.9330068747, 72187.2385963486, 72595.69437452489, 5879.469916757335, 13288.000319957771, 84403.13749350757, 38303.44686549269, 12985.514162244102, 17444.374256655487, 0.098, 1.012, 0.022, 192.0, 0.0, 0.0, 0.0, 0.0, 0.0, 0.0, 0.0, 0.0, 0.0, 1.695422261641242E9, 0.0, 2023-09-22 17:37:41.641
218.0, -147318.80543456142, 56884.42967944499, -7673.175057551272, 8974.314805783606, 87912.40607647969, 48232.15880777345, -187500.02235174447, 67942.64232428579, 71948.11963416572, 72587.60304303205, 5885.616646482546, 13308.809794045663, 84411.18412151148, 38305.5926329604, 13003.686130486267, 17449.895137535947, 0.09, 1.012, 0.026000000000000002, 192.0, 1.0, 104.0, 15.5, 80.0, 0.0, 104.0, 0.0, 0.0, 0.0, 1.695422261641246E9, 0.0, 2023-09-22 17:37:41.641
220.0, -147299.24765816305, 56880.36166195413, -7621.564879603968, 8918.43544464534, 87811.1750258416, 48240.92069159993, -187500.02235174447, 67911.3275303039, 72204.53884655701, 72580.11520863953, 5867.489381729291, 13295.242285161292, 84391.96162127992, 38277.31767622443, 12987.57052273399, 17420.63670404395, 0.09, 1.012, 0.026000000000000002, 192.0, 0.0, 0.0, 0.0, 0.0, 0.0, 0.0, 0.0, 0.0, 0.0, 1.695422261641249E9, 0.0, 2023-09-22 17:37:41.641
222.0, -147332.59646089035, 56871.44331591646, -7659.674603900266, 8960.613186432503, 87878.76670107445, 48229.05191529416, -187500.02235174447, 67920.3799868083, 71945.59388704227, 72588.2288918768, 5882.30858830316, 13333.3967129465, 84416.70500239194, 38299.95999335766, 13031.178776166294, 17423.900058734424, 0.09, 1.012, 0.026000000000000002, 192.0, 0.0, 0.0, 0.0, 0.0, 0.0, 0.0, 0.0, 0.0, 0.0, 1.695422261641252E9, 0.0, 2023-09-22 17:37:41.641
224.0, -147282.39444284374, 56901.46170871994, -7619.441463880714, 8934.081665764053, 87826.19539811557, 48252.81181965015, -187500.02235174447, 67899.97284412061, 72201.27549186653, 72595.35909835805, 5874.127849832517, 13330.267468722757, 84400.05295277273, 38286.12426353982, 13018.43828182677, 17415.58520979705, 0.09, 1.012, 0.026000000000000002, 192.0, 0.0, 0.0, 0.0, 0.0, 0.0, 0.0, 0.0, 0.0, 0.0, 1.695422261641256E9, 0.0, 2023-09-22 17:37:41.641
226.0, -147344.42053370722, 56864.6707373465, -7665.620167925378, 8959.853227121022, 87864.86391602326, 48231.01886880623, -187500.02235174447, 67904.33143428939, 71955.04867494687, 72585.52433079772, 5875.625416711023, 13351.300460255201, 84402.8692725741, 38302.86572013685, 13046.48972111818, 17424.280038390167, 0.09, 1.012, 0.026000000000000002, 192.0, 0.0, 0.0, 0.0, 0.0, 0.0, 0.0, 0.0, 0.0, 0.0, 1.69542226170043E9, 0.0, 2023-09-22 17:37:41.700
228.0, -147213.93104957714, 56921.39946477407, -7662.647385912823, 8937.0097442877, 87835.24785461997, 48224.69332512538, -187500.02235174447, 67938.57430679492, 72202.99657618959, 72578.14825512747, 5859.040422325185, 13318.689265094908, 84376.85184202813, 38264.71129235164, 13009.743453233654, 17412.813593484592, 0.094, 1.01, 0.026000000000000002, 192.0, 1.0, 120.0, 15.5, 72.0, 0.0, 104.0, 0.0, 0.0, 0.0, 1.69542226170044E9, 0.0, 2023-09-22 17:37:41.700
230.0, -147334.45165568014, 56845.09060920365, -7670.13522030535, 8949.43731420485, 87834.57730228631, 48235.5339211862, -187500.02235174447, 67898.11764933082, 71980.0379252479, 72575.75661847075, 5863.577826449612, 13355.994326590817, 84395.44849341494, 38307.82780740593, 13051.92119502082, 17411.78541323965, 0.094, 1.01, 0.026000000000000002, 192.0, 0.0, 0.0, 0.0, 0.0, 0.0, 0.0, 0.0, 0.0, 0.0, 1.695422261700443E9, 0.0, 2023-09-22 17:37:41.700
232.0, -147180.35872940527, 56930.16134860055, -7645.190673493228, 8955.71815439679, 87856.57141883032, 48241.434781722404, -187500.02235174447, 67948.20790865517, 72190.56900627245, 72571.95682191335, 5854.726535645311, 13321.393826174, 84375.42133038299, 38265.53830689649, 13013.38678757987, 17415.62991328596, 0.094, 1.01, 0.026000000000000002, 192.0, 0.0, 0.0, 0.0, 0.0, 0.0, 0.0, 0.0, 0.0, 0.0, 1.695422261700447E9, 0.0, 2023-09-22 17:37:41.700
234.0, -147361.6313769378, 56831.23252764136, -7636.339382688926, 8956.76868638619, 87820.07102013481, 48263.89828489999, -187500.02235174447, 67883.9689950906, 71980.17203571464, 72598.82361874862, 5885.259018571261, 13392.472373541877, 84415.74387738036, 38340.28254035504, 13085.806439615064, 17439.032189730668, 0.094, 1.01, 0.026000000000000002, 192.0, 0.0, 0.0, 0.0, 0.0, 0.0, 0.0, 0.0, 0.0, 0.0, 1.69542226170045E9, 0.0, 2023-09-22 17:37:41.700
236.0, -147183.1974009511, 56934.251717835876, -7655.360717220393, 8970.11267782601, 87876.55387837338, 48232.5834909181, -187500.02235174447, 67950.97952496762, 72131.53804916597, 72585.65844126444, 5872.451468998369, 13341.64450665051, 84387.33481017766, 38281.944487326684, 13035.559718079534, 17437.042884474147, 0.094, 1.01, 0.026000000000000002, 192.0, 0.0, 0.0, 0.0, 0.0, 0.0, 0.0, 0.0, 0.0, 0.0, 1.695422261700454E9, 0.0, 2023-09-22 17:37:41.700
238.0, -147355.28348151248, 56821.35305659212, -7644.363658948381, 8940.764837356191, 87805.31886879432, 48241.45713346686, -187500.02235174447, 67875.22946300858, 71991.50437015347, 72581.52336854022, 5867.556436962657, 13368.913634885983, 84397.21428122692, 38319.428362778235, 13073.468276675734, 17423.900058734424, 0.096, 1.01, 0.026000000000000002, 192.0, 1.5, 0.0, 15.5, 72.0, 0.0, 104.0, 0.0, 0.0, 0.0, 1.695422261700457E9, 0.0, 2023-09-22 17:37:41.700
240.0, -147161.85148499627, 56936.10691262566, -7650.175112506761, 8968.190427802852, 87888.02032327895, 48229.834226350096, -187500.02235174447, 67975.38762991282, 72104.44773488614, 72578.86351095003, 5867.019995095729, 13334.35783795808, 84386.30662993272, 38276.87064133533, 13035.336200634982, 17428.929201236868, 0.096, 1.01, 0.026000000000000002, 192.0, 0.0, 0.0, 0.0, 0.0, 0.0, 0.0, 0.0, 0.0, 0.0, 1.695422261760303E9, 0.0, 2023-09-22 17:37:41.760
242.0, -147348.60030992035, 56813.84287045513, -7606.522155585547, 8925.185671470843, 87793.18187155508, 48250.46488648235, -187500.02235174447, 67886.00300383604, 72034.10679508529, 72571.37567655751, 5858.995718836274, 13362.74455341632, 84397.14722599354, 38308.61011846187, 13069.467314418234, 17410.377253338964, 0.096, 1.01, 0.026000000000000002, 192.0, 0.0, 0.0, 0.0, 0.0, 0.0, 0.0, 0.0, 0.0, 0.0, 1.695422261760315E9, 0.0, 2023-09-22 17:37:41.760
244.0, -147162.90201698567, 56936.59865100368, -7640.787379835532, 8979.790983175157, 87915.73648640353, 48223.35222045806, -187500.02235174447, 67970.42554264373, 72065.71216174509, 72589.2347203773, 5882.420347025436, 13358.11774231407, 84410.4688656889, 38286.66070540675, 13062.024183514617, 17434.49478560624, 0.096, 1.01, 0.026000000000000002, 192.0, 0.0, 0.0, 0.0, 0.0, 0.0, 0.0, 0.0, 0.0, 0.0, 1.695422261760318E9, 0.0, 2023-09-22 17:37:41.760
246.0, -147343.50411218454, 56821.84479497014, -7606.41039686327, 8927.510252894193, 87793.36068551072, 48249.8390376376, -187500.02235174447, 67872.54725367394, 72066.02508616747, 72575.95778417085, 5862.393183993481, 13369.31596628618, 84396.25315621533, 38307.85015915038, 13072.35068945297, 17405.281055603155, 0.096, 1.01, 0.026000000000000002, 192.0, 0.0, 0.0, 0.0, 0.0, 0.0, 0.0, 0.0, 0.0, 0.0, 1.695422261760321E9, 0.0, 2023-09-22 17:37:41.760
248.0, -147151.0332406799, 56946.23225286392, -7657.394725965825, 8989.916323413412, 87915.28945151443, 48221.25115647926, -187500.02235174447, 67967.38570539781, 72046.89199291373, 72584.33968834158, 5872.920855631931, 13350.607556177087, 84396.99076378236, 38280.22340300363, 13048.72489556371, 17430.91850649339, 0.088, 1.01, 0.024, 192.0, 1.0, 96.0, 15.5, 72.0, 0.0, 96.0, 0.0, 0.0, 0.0, 1.695422261760325E9, 0.0, 2023-09-22 17:37:41.760
250.0, -147312.54694611396, 56831.59015555265, -7624.314144171971, 8929.052523261611, 87769.37726371018, 48240.808932877655, -187500.02235174447, 67854.12941624278, 72107.50992387653, 72584.4290953194, 5865.477724728314, 13373.831018666151, 84396.25315621533, 38316.567339487956, 13068.77441034012, 17412.4112620844, 0.088, 1.01, 0.024, 192.0, 0.0, 0.0, 0.0, 0.0, 0.0, 0.0, 0.0, 0.0, 0.0, 1.695422261760328E9, 0.0, 2023-09-22 17:37:41.760
252.0, -147121.8865659102, 56942.7900842178, -7674.940845363241, 8992.084442625575, 87901.61018390777, 48207.9295167839, -187500.02235174447, 67947.55970806595, 72043.42747252315, 72567.9335079114, 5860.403878736959, 13338.78348336023, 84379.42229264049, 38268.935772053694, 13028.228345898193, 17413.238276629243, 0.088, 1.01, 0.024, 192.0, 0.0, 0.0, 0.0, 0.0, 0.0, 0.0, 0.0, 0.0, 0.0, 1.695422261760331E9, 0.0, 2023-09-22 17:37:41.760
254.0, -147254.32065180788, 56842.49780684684, -7626.41520815077, 8923.933973781344, 87741.95167326352, 48226.83909259309, -187500.02235174447, 67849.4131981627, 72170.89947115177, 72567.21825208882, 5852.781933877699, 13360.442323737423, 84377.34358040614, 38294.170891543734, 13047.24968042966, 17398.508477033196, 0.088, 1.01, 0.024, 192.0, 0.0, 0.0, 0.0, 0.0, 0.0, 0.0, 0.0, 0.0, 0.0, 1.695422261760334E9, 0.0, 2023-09-22 17:37:41.760
0.0, -147130.46963578102, 56925.64629622058, -7664.368470235881, 8996.800660705645, 87885.22635522204, 48211.505795896745, -187500.02235174447, 67924.49270778809, 72028.74237641602, 72574.63903124798, 5868.472858485325, 13361.828131893652, 84386.66425784401, 38284.55964142796, 13045.170968195316, 17415.87578247497, 0.088, 1.01, 0.024, 192.0, 0.0, 0.0, 0.0, 0.0, 0.0, 0.0, 0.0, 0.0, 0.0, 1.695422261822177E9, 0.0, 2023-09-22 17:37:41.822
2.0, -147234.02526784246, 56842.83308301367, -7613.853527766887, 8929.343095939528, 87748.8136588113, 48232.67289789592, -187500.02235174447, 67841.70184632562, 72195.21816911915, 72578.88586269449, 5858.2134077803385, 13367.751344174309, 84381.59041185265, 38298.305964267965, 13052.43528514329, 17407.180953881856, 0.09, 1.012, 0.026000000000000002, 192.0, 1.0, 104.0, 15.5, 80.0, 0.0, 104.0, 0.0, 0.0, 0.0, 1.695422261822186E9, 0.0, 2023-09-22 17:37:41.822
4.0, -147134.47059803852, 56907.943714611974, -7689.067147858996, 8978.9192651414, 87874.7880905614, 48185.086033950574, -187500.02235174447, 67914.38971929428, 71998.65692837918, 72566.95003115536, 5870.260998041749, 13355.323774257156, 84388.40769391152, 38275.82010934593, 13040.611212326434, 17413.238276629243, 0.09, 1.012, 0.026000000000000002, 192.0, 0.0, 0.0, 0.0, 0.0, 0.0, 0.0, 0.0, 0.0, 0.0, 1.69542226182219E9, 0.0, 2023-09-22 17:37:41.822
6.0, -147186.10312773028, 56862.368507667605, -7605.628085807334, 8919.9553632683, 87743.1586674641, 48229.18602576089, -187500.02235174447, 67850.53078538548, 72218.62044556385, 72566.882975922, 5843.014221550729, 13339.230518249336, 84362.39026336554, 38267.23703947509, 13020.38288359438, 17381.96818613627, 0.09, 1.012, 0.026000000000000002, 192.0, 0.0, 0.0, 0.0, 0.0, 0.0, 0.0, 0.0, 0.0, 0.0, 1.695422261822193E9, 0.0, 2023-09-22 17:37:41.822
8.0, -147140.729086486, 56900.43352847499, -7639.602737379401, 8992.30796007013, 87871.99412250449, 48217.85369132205, -187500.02235174447, 67914.09914661637, 71982.72013458255, 72589.10060991057, 5878.799364423677, 13374.590977977632, 84402.48929291837, 38298.641240434794, 13070.763715596642, 17434.271268161687, 0.09, 1.012, 0.026000000000000002, 192.0, 0.0, 0.0, 0.0, 0.0, 0.0, 0.0, 0.0, 0.0, 0.0, 1.695422261822197E9, 0.0, 2023-09-22 17:37:41.822
10.0, -147152.08377266928, 56883.35679571114, -7578.761288972055, 8943.089418779542, 87776.32865623578, 48248.34147075909, -187500.02235174447, 67873.37426821879, 72231.58445734793, 72596.92372046992, 5858.928663602908, 13358.095390569615, 84381.47865313038, 38289.991115330595, 13051.675325831811, 17421.2625528887, 0.09, 1.012, 0.026000000000000002, 192.0, 0.0, 0.0, 0.0, 0.0, 0.0, 0.0, 0.0, 0.0, 0.0, 1.695422261822202E9, 0.0, 2023-09-22 17:37:41.822
12.0, -147165.226598409, 56894.44326096097, -7621.6989900707, 9000.287532840674, 87862.96401774455, 48239.17725553242, -187500.02235174447, 67906.07487035691, 71971.00782048795, 72625.64571209499, 5883.225009825827, 13393.589960764642, 84408.39015345457, 38322.37879304634, 13082.476029691225, 17442.384951398963, 0.092, 1.016, 0.024, 192.0, 1.0, 112.0, 15.5, 96.0, 0.0, 96.0, 0.0, 0.0, 0.0, 1.695422261822205E9, 0.0, 2023-09-22 17:37:41.822
14.0, -147108.00613260342, 56913.5316507258, -7607.617391063856, 8961.909587610911, 87790.0749790758, 48239.132552043506, -187500.02235174447, 67902.81151566643, 72228.83519277992, 72626.9421132734, 5868.0705270851295, 13364.040954594728, 84375.8683652721, 38299.87058637984, 13044.388657139381, 17442.40730314342, 0.092, 1.016, 0.024, 192.0, 0.0, 0.0, 0.0, 0.0, 0.0, 0.0, 0.0, 0.0, 0.0, 1.695422261880972E9, 0.0, 2023-09-22 17:37:41.880
16.0, -147156.97880470502, 56893.9291708385, -7628.784493063033, 9001.472175296805, 87833.21384587453, 48244.92165385743, -187500.02235174447, 67898.45292549765, 71988.241015463, 72631.68068309793, 5875.379547522015, 13386.146829861025, 84383.57971710917, 38326.044479137, 13067.478009161712, 17452.82321605959, 0.092, 1.016, 0.024, 192.0, 0.0, 0.0, 0.0, 0.0, 0.0, 0.0, 0.0, 0.0, 0.0, 1.695422261880984E9, 0.0, 2023-09-22 17:37:41.880
18.0, -147085.16264977012, 56935.32460156973, -7601.001274705086, 8983.076689610087, 87779.01086557041, 48256.27634004073, -187500.02235174447, 67888.86402712631, 72226.53296310102, 72659.95563983389, 5882.532105747713, 13381.855294925606, 84378.28235367326, 38321.68588896822, 13049.238985686183, 17463.97673654279, 0.092, 1.016, 0.024, 192.0, 0.0, 0.0, 0.0, 0.0, 0.0, 0.0, 0.0, 0.0, 0.0, 1.695422261880987E9, 0.0, 2023-09-22 17:37:41.880
20.0, -147192.11574698874, 56882.93211256649, -7628.628030851845, 9010.25641086774, 87807.5763949843, 48250.91192137145, -187500.02235174447, 67862.06428552441, 71979.09915198079, 72659.5533084337, 5896.144318120995, 13416.634609298064, 84395.62730737058, 38357.89571498582, 13084.845314603486, 17481.478152451295, 0.092, 1.016, 0.024, 192.0, 0.0, 0.0, 0.0, 0.0, 0.0, 0.0, 0.0, 0.0, 0.0, 1.695422261880991E9, 0.0, 2023-09-22 17:37:41.880
22.0, -147059.4581436465, 56952.42368607804, -7618.7485598026, 8992.8220501926, 87793.49479597746, 48247.60386319207, -187500.02235174447, 67901.02337611001, 72210.30559662648, 72638.98970353481, 5875.267788799738, 13364.510341228288, 84361.02680695377, 38300.76465615805, 13032.586936066979, 17469.631727889984, 0.092, 1.016, 0.024, 192.0, 1.0, 112.0, 15.5, 96.0, 0.0, 96.0, 0.0, 0.0, 0.0, 1.695422261880994E9, 0.0, 2023-09-22 17:37:41.880
24.0, -147181.5433718614, 56879.8252200872, -7638.149873989806, 8992.777346703691, 87774.40640621263, 48242.66412766745, -187500.02235174447, 67873.66484089672, 72002.38966970322, 72637.6933023564, 5882.889733658998, 13398.708510244907, 84375.08605421615, 38340.170781632754, 13068.282671962104, 17468.51414066722, 0.092, 1.016, 0.024, 192.0, 0.0, 0.0, 0.0, 0.0, 0.0, 0.0, 0.0, 0.0, 0.0, 1.695422261880997E9, 0.0, 2023-09-22 17:37:41.880
26.0, -146996.78385219382, 56975.960072989474, -7636.31703094447, 8989.268122824207, 87809.14101709618, 48231.77882811771, -187500.02235174447, 67944.94455396468, 72214.86535249536, 72625.22102895034, 5866.751774162266, 13346.740704386319, 84342.09487940013, 38280.849251848376, 13013.923229446797, 17450.58804161406, 0.092, 1.016, 0.024, 192.0, 0.0, 0.0, 0.0, 0.0, 0.0, 0.0, 0.0, 0.0, 0.0, 1.695422261881E9, 0.0, 2023-09-22 17:37:41.881
28.0, -147178.54823810438, 56866.48122864738, -7608.533812586524, 8979.768631430701, 87761.37533919518, 48256.321043529635, -187500.02235174447, 67865.68526812617, 72038.73360618754, 72647.70688387238, 5888.92470466193, 13406.88924871555, 84382.70799907541, 38348.843258481415, 13081.246683746182, 17459.88636730747, 0.092, 1.016, 0.024, 192.0, 0.0, 0.0, 0.0, 0.0, 0.0, 0.0, 0.0, 0.0, 0.0, 1.695422261881003E9, 0.0, 2023-09-22 17:37:41.881
30.0, -146999.48841327292, 56973.30021539929, -7607.617391063856, 9006.188393376875, 87832.07390690732, 48242.70883115636, -187500.02235174447, 67932.7405014921, 72171.05593336296, 72647.86334608357, 5883.806155181665, 13363.616271450075, 84371.59918208113, 38297.121321811836, 13041.460578615735, 17474.03502154768, 0.092, 1.016, 0.024, 192.0, 0.0, 0.0, 0.0, 0.0, 0.0, 0.0, 0.0, 0.0, 0.0, 1.69542226194122E9, 0.0, 2023-09-22 17:37:41.941
32.0, -147186.4384038971, 56856.8699785316, -7576.302597081972, 8973.644253449947, 87751.7640890794, 48253.951758617375, -187500.02235174447, 67845.92632602768, 72051.78702494944, 72645.62817163803, 5882.35329179207, 13395.713376487896, 84386.95483052192, 38339.88020895484, 13081.760773868655, 17467.329498211086, 0.094, 1.014, 0.024, 192.0, 1.0, 120.0, 15.5, 88.0, 0.0, 96.0, 0.0, 0.0, 0.0, 1.695422261941231E9, 0.0, 2023-09-22 17:37:41.941
34.0, -147012.18420412354, 56974.641320066614, -7588.014911176552, 9018.9288877164, 87847.85423849276, 48234.43868570789, -187500.02235174447, 67923.21865835413, 72119.53516239347, 72655.5970496651, 5896.859573943565, 13375.038012866738, 84393.68270560297, 38306.93373762772, 13063.54410213758, 17479.958233828336, 0.094, 1.014, 0.024, 192.0, 0.0, 0.0, 0.0, 0.0, 0.0, 0.0, 0.0, 0.0, 0.0, 1.695422261941234E9, 0.0, 2023-09-22 17:37:41.941
36.0, -147178.45883112657, 56862.81554255671, -7591.948818200686, 8969.285663281164, 87742.957501764, 48222.79342684668, -187500.02235174447, 67838.63965733524, 72067.16502513469, 72642.14129950301, 5883.515582503746, 13390.997158407827, 84383.84793804264, 38326.58092100393, 13077.268073233137, 17454.3207829381, 0.094, 1.014, 0.024, 192.0, 0.0, 0.0, 0.0, 0.0, 0.0, 0.0, 0.0, 0.0, 0.0, 1.695422261941237E9, 0.0, 2023-09-22 17:37:41.941
38.0, -147006.73037847644, 56977.3458811457, -7600.59894330489, 9025.58970756408, 87845.84258149179, 48230.77299961722, -187500.02235174447, 67913.0262628825, 72087.68392654466, 72649.71854087336, 5888.7905941951985, 13370.902940142507, 84377.50004261734, 38298.48477822361, 13046.646183329367, 17460.914547552413, 0.094, 1.014, 0.024, 192.0, 0.0, 0.0, 0.0, 0.0, 0.0, 0.0, 0.0, 0.0, 0.0, 1.69542226194124E9, 0.0, 2023-09-22 17:37:41.941
40.0, -147187.01954925293, 56862.88259779008, -7593.491088568103, 8965.48586672376, 87711.37448684865, 48236.3832874755, -187500.02235174447, 67822.32288388287, 72083.14652242024, 72665.65533467, 5892.791556452698, 13411.069024928693, 84386.99953401084, 38342.18243863373, 13076.441058688291, 17448.755198568728, 0.094, 1.014, 0.024, 192.0, 0.0, 0.0, 0.0, 0.0, 0.0, 0.0, 0.0, 0.0, 0.0, 1.695422261941244E9, 0.0, 2023-09-22 17:37:41.941
42.0, -147015.64872451412, 56973.389622377115, -7632.472530898158, 9020.001771450254, 87842.3780611012, 48221.586432646094, -187500.02235174447, 67920.93878041969, 72035.4031962637, 72655.88762234303, 5891.271637829738, 13376.826152423162, 84374.57196409369, 38304.58680445991, 13043.405180383346, 17454.29843119364, 0.096, 1.014, 0.022, 192.0, 1.5, 0.0, 15.5, 88.0, 0.0, 88.0, 0.0, 0.0, 0.0, 1.695422261941247E9, 0.0, 2023-09-22 17:37:41.941
44.0, -147162.09735418527, 56868.13525773708, -7606.745673030099, 8956.00872707471, 87703.57372803375, 48239.69134565489, -187500.02235174447, 67847.513299884, 72111.24266520055, 72647.81864259466, 5876.765355678243, 13388.158486862003, 84366.25711515632, 38328.77139196055, 13059.833712557998, 17446.050637489636, 0.096, 1.014, 0.022, 192.0, 0.0, 0.0, 0.0, 0.0, 0.0, 0.0, 0.0, 0.0, 0.0, 1.695422262000447E9, 0.0, 2023-09-22 17:37:42.000
46.0, -146998.01319813885, 56968.56164557477, -7656.478304443158, 9020.44880633936, 87843.71916576853, 48214.54563314267, -187500.02235174447, 67952.85707150186, 72012.11267854126, 72640.68843611341, 5873.367890521037, 13358.542425458721, 84356.46705108488, 38294.05913282146, 13035.716180290721, 17452.733809081772, 0.096, 1.014, 0.022, 192.0, 0.0, 0.0, 0.0, 0.0, 0.0, 0.0, 0.0, 0.0, 0.0, 1.695422262000461E9, 0.0, 2023-09-22 17:37:42.000
48.0, -147130.89431892565, 56875.60074038515, -7589.31131235496, 8952.097171795032, 87696.55528027478, 48252.25302603877, -187500.02235174447, 67873.46367519662, 72155.29795352196, 72644.06354952617, 5862.7284601603105, 13370.388850020034, 84355.68474002896, 38317.193188332705, 13047.763770552132, 17438.40634088592, 0.096, 1.014, 0.022, 192.0, 0.0, 0.0, 0.0, 0.0, 0.0, 0.0, 0.0, 0.0, 0.0, 1.695422262000464E9, 0.0, 2023-09-22 17:37:42.000
50.0, -147024.2541461294, 56957.877511725135, -7639.848606568409, 9032.272879156219, 87847.51896232594, 48225.96737455933, -187500.02235174447, 67970.51494962156, 71971.34309665479, 72666.48234921484, 5897.798347210687, 13385.945664160929, 84385.5690223657, 38325.1951128477, 13064.549930638068, 17472.31393722462, 0.096, 1.014, 0.022, 192.0, 0.0, 0.0, 0.0, 0.0, 0.0, 0.0, 0.0, 0.0, 0.0, 1.695422262000468E9, 0.0, 2023-09-22 17:37:42.000
52.0, -147088.80598411633, 56893.616246416124, -7582.851658207376, 8953.34886948453, 87704.87012921217, 48235.779790375214, -187500.02235174447, 67903.23619881108, 72178.20849158865, 72632.37358717604, 5860.761506648244, 13350.764018388274, 84350.0073969373, 38299.53531021301, 13043.069904216518, 17437.86989901899, 0.092, 1.012, 0.026000000000000002, 192.0, 1.0, 112.0, 15.5, 80.0, 0.0, 104.0, 0.0, 0.0, 0.0, 1.695422262000471E9, 0.0, 2023-09-22 17:37:42.000
54.0, -147029.26093688738, 56943.03595340681, -7610.254896909582, 9021.432283095393, 87822.17208411361, 48229.58835716109, -187500.02235174447, 67948.8337574999, 71964.77168378493, 72647.43866293892, 5887.963579650353, 13370.299443042213, 84381.70217057494, 38317.14848484379, 13073.468276675734, 17463.529701653686, 0.092, 1.012, 0.026000000000000002, 192.0, 0.0, 0.0, 0.0, 0.0, 0.0, 0.0, 0.0, 0.0, 0.0, 1.695422262000474E9, 0.0, 2023-09-22 17:37:42.000
56.0, -147068.77882108436, 56903.51806920983, -7563.718564953633, 8963.317747511595, 87706.83708272423, 48247.02271783623, -187500.02235174447, 67893.55789346194, 72184.6904974807, 72645.20348849338, 5874.843105655087, 13361.515207471277, 84367.84408901264, 38311.33703128541, 13066.718049850233, 17456.73477133927, 0.092, 1.012, 0.026000000000000002, 192.0, 0.0, 0.0, 0.0, 0.0, 0.0, 0.0, 0.0, 0.0, 0.0, 1.695422262000477E9, 0.0, 2023-09-22 17:37:42.000
58.0, -147033.7983410118, 56931.6365637346, -7610.120786442851, 9018.21363189383, 87815.73478171049, 48226.50381642626, -187500.02235174447, 67937.8366992279, 71953.79697725737, 72642.18600299192, 5883.090899359096, 13364.420934250467, 84374.03552222675, 38310.822941162936, 13070.45079117427, 17463.3732394425, 0.092, 1.012, 0.026000000000000002, 192.0, 0.0, 0.0, 0.0, 0.0, 0.0, 0.0, 0.0, 0.0, 0.0, 1.69542226200048E9, 0.0, 2023-09-22 17:37:42.000
60.0, -147028.56803280927, 56924.104025853165, -7574.603864503368, 8968.570407458594, 87714.9060624726, 48234.34927873007, -187500.02235174447, 67895.94953011865, 72198.34741334288, 72645.76228210477, 5878.844067912587, 13353.088599811626, 84359.75275751982, 38306.37494401633, 13056.145674722871, 17451.63857360346, 0.092, 1.012, 0.026000000000000002, 192.0, 0.0, 0.0, 0.0, 0.0, 0.0, 0.0, 0.0, 0.0, 0.0, 1.695422262060384E9, 0.0, 2023-09-22 17:37:42.060
62.0, -147045.22008242848, 56922.09236885219, -7630.103245985895, 9010.837556223578, 87789.80675814232, 48213.31628719763, -187500.02235174447, 67931.22058286912, 71946.01857018692, 72640.97900879133, 5886.1530883494725, 13363.437457494434, 84366.74885353433, 38315.89678715429, 13065.242834716182, 17455.416018416407, 0.094, 1.01, 0.028, 192.0, 1.0, 120.0, 15.5, 72.0, 0.0, 112.0, 0.0, 0.0, 0.0, 1.695422262060395E9, 0.0, 2023-09-22 17:37:42.060
64.0, -146983.93159913202, 56942.83478770671, -7584.528039041525, 8975.901779639933, 87731.91574000308, 48233.38815371849, -187500.02235174447, 67920.6258559973, 72212.27255013854, 72637.87211631205, 5866.72942241781, 13334.290782724713, 84341.26786485528, 38283.10677803836, 13026.887241230876, 17442.317896165598, 0.094, 1.01, 0.028, 192.0, 0.0, 0.0, 0.0, 0.0, 0.0, 0.0, 0.0, 0.0, 0.0, 1.695422262060399E9, 0.0, 2023-09-22 17:37:42.060
66.0, -147082.16751601308, 56900.43352847499, -7605.985713718619, 9016.045512681665, 87774.29464749034, 48239.44547646588, -187500.02235174447, 67910.34405354787, 71935.02151191492, 72669.92451786096, 5904.928553691931, 13392.830001453161, 84387.51362413331, 38342.718880500666, 13087.25930300466, 17472.872730836003, 0.094, 1.01, 0.028, 192.0, 0.0, 0.0, 0.0, 0.0, 0.0, 0.0, 0.0, 0.0, 0.0, 1.695422262060402E9, 0.0, 2023-09-22 17:37:42.060
68.0, -146962.96566283295, 56961.27497688234, -7602.163565416761, 8991.860925181023, 87743.98568200895, 48227.21907224883, -187500.02235174447, 67930.70649274666, 72171.01122987404, 72654.92649733144, 5877.838239412098, 13339.454035693889, 84347.61576028059, 38286.347780984375, 13028.250697642648, 17454.477245149286, 0.094, 1.01, 0.028, 192.0, 0.0, 0.0, 0.0, 0.0, 0.0, 0.0, 0.0, 0.0, 0.0, 1.695422262060405E9, 0.0, 2023-09-22 17:37:42.060
70.0, -147080.08880377875, 56895.27027550582, -7609.986675976119, 9001.15925087443, 87739.98471975145, 48230.795351361674, -187500.02235174447, 67898.74349817557, 71938.3295700943, 72652.49015718582, 5884.49905925978, 13370.433553508945, 84366.81590876769, 38326.402107048285, 13067.701526606266, 17444.798939800137, 0.094, 1.01, 0.028, 192.0, 0.0, 0.0, 0.0, 0.0, 0.0, 0.0, 0.0, 0.0, 0.0, 1.695422262060408E9, 0.0, 2023-09-22 17:37:42.060
72.0, -146939.04929626576, 56972.56260783227, -7582.985768674108, 9001.226306107797, 87743.1139639752, 48231.97999381781, -187500.02235174447, 67934.0369026705, 72149.79942438596, 72646.70105537189, 5880.274579557727, 13333.441416435411, 84346.11819340209, 38285.99015307309, 13032.832805255986, 17444.195442699845, 0.096, 1.014, 0.026000000000000002, 192.0, 1.5, 0.0, 15.5, 88.0, 0.0, 104.0, 0.0, 0.0, 0.0, 1.695422262060411E9, 0.0, 2023-09-22 17:37:42.060
74.0, -147100.83122263328, 56882.239208488376, -7578.448364549681, 9004.713178242824, 87719.48817008594, 48242.08298231161, -187500.02235174447, 67882.94081484566, 71938.24016311648, 72666.66116317049, 5897.865402444053, 13384.358690304602, 84380.20460369643, 38345.356386346386, 13090.433250717313, 17440.417997886896, 0.096, 1.014, 0.026000000000000002, 192.0, 0.0, 0.0, 0.0, 0.0, 0.0, 0.0, 0.0, 0.0, 0.0, 1.695422262120659E9, 0.0, 2023-09-22 17:37:42.120
76.0, -146918.6198018336, 56984.4537358825, -7589.959512944164, 9013.83268998059, 87768.63965614315, 48220.26767972323, -187500.02235174447, 67954.287583147, 72113.70135709064, 72646.72340711634, 5879.000530123774, 13325.372436687047, 84350.4097283375, 38280.31280998144, 13032.72104653371, 17433.0642739611, 0.096, 1.014, 0.026000000000000002, 192.0, 0.0, 0.0, 0.0, 0.0, 0.0, 0.0, 0.0, 0.0, 0.0, 1.695422262120674E9, 0.0, 2023-09-22 17:37:42.120
78.0, -147095.53385919737, 56872.44914441695, -7578.247198849583, 8990.855096680534, 87697.69521924201, 48235.153941530465, -187500.02235174447, 67864.00888729202, 71967.69976230858, 72645.94109606041, 5877.011224867252, 13359.302384770202, 84363.88783024406, 38326.93854891522, 13073.133000508906, 17426.02347445768, 0.096, 1.014, 0.026000000000000002, 192.0, 0.0, 0.0, 0.0, 0.0, 0.0, 0.0, 0.0, 0.0, 0.0, 1.695422262120678E9, 0.0, 2023-09-22 17:37:42.120
80.0, -146909.7685110293, 56978.03878522382, -7578.35895757186, 9022.59457380707, 87764.63869388566, 48226.92849957091, -187500.02235174447, 67931.95819043615, 72084.42057185419, 72646.32107571616, 5871.803268409165, 13319.918611039951, 84347.57105679167, 38280.44692044818, 13032.653991300343, 17430.538526837652, 0.096, 1.014, 0.026000000000000002, 192.0, 0.0, 0.0, 0.0, 0.0, 0.0, 0.0, 0.0, 0.0, 0.0, 1.695422262120681E9, 0.0, 2023-09-22 17:37:42.120
82.0, -147119.5172809979, 56856.8699785316, -7552.050954347963, 8992.263256581218, 87660.16664030156, 48252.54359871669, -187500.02235174447, 67828.514317097, 71978.0933234803, 72659.10627354459, 5893.26094308626, 13372.892245399029, 84374.8625367716, 38339.03084266554, 13087.59457917149, 17429.555050081617, 0.094, 1.014, 0.024, 192.0, 1.0, 120.0, 15.5, 88.0, 0.0, 96.0, 0.0, 0.0, 0.0, 1.695422262120685E9, 0.0, 2023-09-22 17:37:42.120
84.0, -146936.90352879805, 56984.789012049325, -7597.201478147684, 9044.588690351093, 87763.43169968507, 48223.37457220251, -187500.02235174447, 67928.3372078344, 72018.7511466445, 72654.32300023115, 5901.665199001455, 13342.203300261892, 84364.26780989979, 38298.10479856787, 13046.936756007286, 17440.26153567571, 0.094, 1.014, 0.024, 192.0, 0.0, 0.0, 0.0, 0.0, 0.0, 0.0, 0.0, 0.0, 0.0, 1.695422262120688E9, 0.0, 2023-09-22 17:37:42.120
86.0, -147110.93421112708, 56869.94574903796, -7584.528039041525, 8992.039739136666, 87639.80420110276, 48232.53878742919, -187500.02235174447, 67862.35485820232, 71999.10396326828, 72643.39299719251, 5879.11228884605, 13355.815512635174, 84355.43887083995, 38322.8928831688, 13058.29144219058, 17420.457890088306, 0.094, 1.014, 0.024, 192.0, 0.0, 0.0, 0.0, 0.0, 0.0, 0.0, 0.0, 0.0, 0.0, 1.695422262120692E9, 0.0, 2023-09-22 17:37:42.120
88.0, -146914.44002562048, 56986.17482020555, -7618.837966780421, 9042.465274627839, 87768.19262125404, 48214.97031628732, -187500.02235174447, 67977.35458342488, 72000.51212316897, 72641.26958146926, 5873.524352732224, 13321.349122685091, 84343.3018736007, 38280.08929253689, 13021.634581283877, 17429.64445705944, 0.094, 1.014, 0.024, 192.0, 0.0, 0.0, 0.0, 0.0, 0.0, 0.0, 0.0, 0.0, 0.0, 1.695422262120695E9, 0.0, 2023-09-22 17:37:42.120
90.0, -147104.0275220904, 56862.81554255671, -7566.289015565993, 8979.120430841498, 87627.37663118562, 48244.11699105704, -187500.02235174447, 67871.13909377326, 72036.09610034182, 72656.08878804313, 5880.766317935743, 13357.827169636152, 84357.38347260756, 38328.369060560355, 13059.789009069087, 17413.998235940726, 0.094, 1.014, 0.024, 192.0, 0.0, 0.0, 0.0, 0.0, 0.0, 0.0, 0.0, 0.0, 0.0, 1.69542226218076E9, 0.0, 2023-09-22 17:37:42.180
92.0, -146922.19608094645, 56975.15541018909, -7631.310240186482, 9035.603289080058, 87766.00215029743, 48197.71476956782, -187500.02235174447, 67976.95225202468, 71958.64730580417, 72644.30941871517, 5881.97331213633, 13318.868079050551, 84344.28535035675, 38280.31280998144, 13023.042741184563, 17414.802898741116, 0.096, 1.018, 0.024, 192.0, 1.5, 0.0, 15.5, 104.0, 0.0, 96.0, 0.0, 0.0, 0.0, 1.69542226218077E9, 0.0, 2023-09-22 17:37:42.180
94.0, -147069.78464958485, 56870.482190904884, -7560.92459689672, 8965.642328934948, 87619.88879679308, 48229.92363332792, -187500.02235174447, 67883.7231259016, 72071.99300193704, 72630.80896506416, 5865.790649150687, 13324.724236097842, 84331.18722810593, 38291.77925488702, 13030.15059592135, 17382.01288962518, 0.096, 1.018, 0.024, 192.0, 0.0, 0.0, 0.0, 0.0, 0.0, 0.0, 0.0, 0.0, 0.0, 1.695422262180774E9, 0.0, 2023-09-22 17:37:42.180
96.0, -146935.49536889736, 56963.89013098361, -7608.310295141971, 9041.54885310517, 87757.4190804266, 48206.05197024965, -187500.02235174447, 67971.25255718858, 71918.74944195146, 72648.51154667277, 5894.445585542391, 13334.290782724713, 84359.50688833081, 38291.22046127563, 13045.193319939772, 17416.367520852986, 0.096, 1.018, 0.024, 192.0, 0.0, 0.0, 0.0, 0.0, 0.0, 0.0, 0.0, 0.0, 0.0, 1.695422262180778E9, 0.0, 2023-09-22 17:37:42.180
98.0, -147048.88576851913, 56882.14980151055, -7540.785675142489, 8973.130163327476, 87600.62159307262, 48232.73995312929, -187500.02235174447, 67883.85723636833, 72090.54494983495, 72633.13354648752, 5871.110364331051, 13327.764073343764, 84342.2066381224, 38289.72289439713, 13043.762808294632, 17387.95845365029, 0.096, 1.018, 0.024, 192.0, 0.0, 0.0, 0.0, 0.0, 0.0, 0.0, 0.0, 0.0, 0.0, 1.695422262180781E9, 0.0, 2023-09-22 17:37:42.180
100.0, -146957.1318575301, 56951.90959595556, -7601.470661338647, 9045.482760129305, 87736.0061092384, 48200.70990332484, -187500.02235174447, 67959.42848437172, 71889.11102880372, 72648.08686352812, 5891.271637829738, 13337.442378692911, 84367.73233029037, 38293.92502235473, 13060.101933491462, 17407.985616682246, 0.096, 1.018, 0.024, 192.0, 0.0, 0.0, 0.0, 0.0, 0.0, 0.0, 0.0, 0.0, 0.0, 1.695422262180785E9, 0.0, 2023-09-22 17:37:42.180
102.0, -147016.36398033667, 56898.667740663026, -7552.20741655915, 8976.30411104013, 87600.62159307262, 48216.423179676916, -187500.02235174447, 67893.11085857282, 72113.1202117348, 72630.25017145279, 5858.749849647266, 13314.710654581864, 84333.40005080702, 38274.59076340088, 13030.441168599269, 17371.48521798673, 0.092, 1.02, 0.022, 192.0, 1.0, 112.0, 15.5, 112.0, 0.0, 88.0, 0.0, 0.0, 0.0, 1.695422262180788E9, 0.0, 2023-09-22 17:37:42.180
104.0, -146995.66626497105, 56937.33625857071, -7578.537771527502, 9048.32143167513, 87718.3035276298, 48219.06068552264, -187500.02235174447, 67926.34790257787, 71881.15380777762, 72653.22776475284, 5896.524297776735, 13349.489968954322, 84365.51950758928, 38299.691772424194, 13057.48677939019, 17401.30244509011, 0.092, 1.02, 0.022, 192.0, 0.0, 0.0, 0.0, 0.0, 0.0, 0.0, 0.0, 0.0, 0.0, 1.695422262241123E9, 0.0, 2023-09-22 17:37:42.241
106.0, -147019.82850072725, 56916.16915657153, -7561.103410852363, 8994.185506604375, 87615.37374441311, 48217.33960119958, -187500.02235174447, 67883.18668403468, 72108.22517969909, 72655.26177349828, 5889.818774440143, 13340.705733383385, 84349.58271379265, 38292.82978687642, 13046.10974146244, 17391.02064264067, 0.092, 1.02, 0.022, 192.0, 0.0, 0.0, 0.0, 0.0, 0.0, 0.0, 0.0, 0.0, 0.0, 1.695422262241137E9, 0.0, 2023-09-22 17:37:42.241
108.0, -147031.0490764438, 56925.06515086474, -7593.848716479388, 9040.163044948942, 87711.12861765965, 48214.322115698116, -187500.02235174447, 67916.33432106189, 71864.36764769169, 72643.95179080388, 5888.991759895296, 13342.806797362186, 84355.17064990647, 38305.61498470485, 13058.961994524241, 17399.24608460022, 0.092, 1.02, 0.022, 192.0, 0.0, 0.0, 0.0, 0.0, 0.0, 0.0, 0.0, 0.0, 0.0, 1.69542226224114E9, 0.0, 2023-09-22 17:37:42.241
110.0, -146991.2406195689, 56932.55298525727, -7580.303559339472, 8989.893971668957, 87634.7303551114, 48207.795406317164, -187500.02235174447, 67907.99712038007, 72116.80824956993, 72632.30653194267, 5862.750811904766, 13308.005131245272, 84324.3028908137, 38272.221478488624, 13024.29443887406, 17384.80685768209, 0.092, 1.02, 0.022, 192.0, 0.0, 0.0, 0.0, 0.0, 0.0, 0.0, 0.0, 0.0, 0.0, 1.695422262241144E9, 0.0, 2023-09-22 17:37:42.241
112.0, -147055.63599534464, 56902.46753722043, -7594.720434513144, 9034.798626279668, 87685.69233246951, 48219.26185122274, -187500.02235174447, 67914.99321639458, 71864.54646164733, 72639.30262795718, 5878.620550468034, 13341.599803161598, 84348.7556992478, 38306.57610971643, 13056.369192167425, 17390.57360775156, 0.092, 1.016, 0.024, 192.0, 1.0, 112.0, 15.5, 96.0, 0.0, 96.0, 0.0, 0.0, 0.0, 1.695422262241147E9, 0.0, 2023-09-22 17:37:42.241
114.0, -146966.27372101235, 56943.93002318502, -7571.11699236834, 9004.243791609262, 87638.57485515773, 48222.32404021312, -187500.02235174447, 67930.72884449111, 72118.01524377051, 72639.28027621272, 5869.1881143078945, 13306.976951000328, 84325.68869896993, 38272.60145814437, 13018.460633571225, 17380.87295065796, 0.092, 1.016, 0.024, 192.0, 0.0, 0.0, 0.0, 0.0, 0.0, 0.0, 0.0, 0.0, 0.0, 1.69542226224115E9, 0.0, 2023-09-22 17:37:42.241
116.0, -147058.58642561274, 56891.939865581975, -7591.211210633661, 9025.567355819627, 87670.33668402872, 48222.54755765767, -187500.02235174447, 67904.42084126722, 71881.17615952207, 72644.37647394853, 5883.604989481568, 13339.677553138443, 84346.87815271356, 38310.73353418512, 13055.989212511686, 17385.07507861556, 0.092, 1.016, 0.024, 192.0, 0.0, 0.0, 0.0, 0.0, 0.0, 0.0, 0.0, 0.0, 0.0, 1.695422262241154E9, 0.0, 2023-09-22 17:37:42.241
118.0, -146942.35735444515, 56947.998040675884, -7569.418259789737, 9004.199088120353, 87644.22984650491, 48216.624345377015, -187500.02235174447, 67921.89990543126, 72121.61387462782, 72629.40080516349, 5867.578788707112, 13296.337520639601, 84324.7052222139, 38261.5820481279, 13013.319732346503, 17370.568796464064, 0.092, 1.016, 0.024, 192.0, 0.0, 0.0, 0.0, 0.0, 0.0, 0.0, 0.0, 0.0, 0.0, 1.695422262241157E9, 0.0, 2023-09-22 17:37:42.241
120.0, -147101.9264581116, 56859.8204087997, -7562.01983237503, 9013.49741381376, 87629.50004690887, 48227.19672050438, -187500.02235174447, 67881.64441366725, 71890.60859568222, 72634.8993342995, 5883.090899359096, 13338.671724637954, 84356.53410631826, 38305.88320563832, 13069.82494232952, 17378.369555278965, 0.092, 1.016, 0.024, 192.0, 0.0, 0.0, 0.0, 0.0, 0.0, 0.0, 0.0, 0.0, 0.0, 1.695422262301336E9, 0.0, 2023-09-22 17:37:42.301
122.0, -146952.86267433915, 56949.69677325449, -7558.667070706734, 9026.12614943101, 87670.2919805398, 48213.405694175446, -187500.02235174447, 67943.04465568598, 72079.59259505184, 72632.97708427634, 5877.279445800716, 13304.182982943414, 84340.84318171063, 38262.81139407294, 13035.425607612802, 17382.34816579201, 0.094, 1.014, 0.024, 192.0, 1.0, 120.0, 15.5, 88.0, 0.0, 96.0, 0.0, 0.0, 0.0, 1.695422262301346E9, 0.0, 2023-09-22 17:37:42.301
124.0, -147121.50658625443, 56849.82917902818, -7556.633061961301, 9010.9269632014, 87639.55833191375, 48217.87604306651, -187500.02235174447, 67876.39175372027, 71903.50555223293, 72635.01109302176, 5881.146297591484, 13339.789311860719, 84349.82858298166, 38301.47991198062, 13071.143695252384, 17371.01583135317, 0.094, 1.014, 0.024, 192.0, 0.0, 0.0, 0.0, 0.0, 0.0, 0.0, 0.0, 0.0, 0.0, 1.69542226230135E9, 0.0, 2023-09-22 17:37:42.301
126.0, -146935.87534855312, 56958.16808440305, -7573.553332513969, 9033.032838467698, 87705.8983094571, 48199.279391679695, -187500.02235174447, 67950.01839995604, 72053.9551441616, 72629.22199120784, 5872.697338187378, 13298.639750318498, 84320.2572250673, 38251.18848695618, 13021.902802217342, 17369.96529936377, 0.094, 1.014, 0.024, 192.0, 0.0, 0.0, 0.0, 0.0, 0.0, 0.0, 0.0, 0.0, 0.0, 1.695422262301353E9, 0.0, 2023-09-22 17:37:42.301
128.0, -147139.14211262966, 56839.27915564527, -7552.319175281427, 9011.64221902397, 87616.31251768024, 48228.560176916144, -187500.02235174447, 67860.65612562372, 71931.02054965742, 72647.03633153872, 5889.215277339849, 13354.563814945677, 84346.49817305781, 38318.4448860222, 13079.235026745204, 17372.91572963187, 0.094, 1.014, 0.024, 192.0, 0.0, 0.0, 0.0, 0.0, 0.0, 0.0, 0.0, 0.0, 0.0, 1.695422262301356E9, 0.0, 2023-09-22 17:37:42.301
130.0, -146948.43702893698, 56956.73757275791, -7581.935236684709, 9046.466236885339, 87695.81767270777, 48207.527185383704, -187500.02235174447, 67946.91150747675, 72022.03685307942, 72641.0460640247, 5880.654559213467, 13310.530878368721, 84323.6546902245, 38264.86775456283, 13030.217651154715, 17382.9516628923, 0.094, 1.014, 0.024, 192.0, 0.0, 0.0, 0.0, 0.0, 0.0, 0.0, 0.0, 0.0, 0.0, 1.695422262301359E9, 0.0, 2023-09-22 17:37:42.301
132.0, -147139.76796147443, 56833.914736976, -7568.211265589151, 9002.16507937492, 87587.88109873308, 48222.18992974638, -187500.02235174447, 67851.89424179724, 71960.30133489387, 72641.87307856955, 5877.994701623285, 13348.081809053638, 84333.17653336246, 38304.72091492664, 13062.471218403723, 17368.713601674273, 0.098, 1.012, 0.024, 192.0, 1.5, 8.0, 15.5, 80.0, 0.0, 96.0, 0.0, 0.0, 0.0, 1.695422262301362E9, 0.0, 2023-09-22 17:37:42.301
134.0, -146933.17078747402, 56955.73174425742, -7607.6620945527675, 9049.416667153439, 87702.92552744455, 48198.13945271247, -187500.02235174447, 67939.06604517293, 72003.66371913717, 72624.28225568323, 5869.545742219179, 13298.170363684936, 84312.03178310774, 38247.50044912106, 13010.90574394533, 17366.90311037339, 0.098, 1.012, 0.024, 192.0, 0.0, 0.0, 0.0, 0.0, 0.0, 0.0, 0.0, 0.0, 0.0, 1.695422262360305E9, 0.0, 2023-09-22 17:37:42.360
136.0, -147107.69320818107, 56833.288888131254, -7568.345376055882, 8990.095137369053, 87577.39813058355, 48225.45328443686, -187500.02235174447, 67846.95450627262, 72019.77932688945, 72624.77399406124, 5865.321262517126, 13323.807814575173, 84313.7975709197, 38288.82882461892, 13039.963011737229, 17353.648525911394, 0.098, 1.012, 0.024, 192.0, 0.0, 0.0, 0.0, 0.0, 0.0, 0.0, 0.0, 0.0, 0.0, 1.695422262360316E9, 0.0, 2023-09-22 17:37:42.360
138.0, -146927.47109263792, 56954.94943320149, -7591.926466456231, 9056.591577123592, 87704.44544606752, 48201.46986263632, -187500.02235174447, 67963.00476348457, 71982.16134097116, 72633.0441395097, 5877.100631845073, 13310.10619522407, 84319.94430064491, 38262.297303950465, 13026.104930174939, 17367.43955224032, 0.098, 1.012, 0.024, 192.0, 0.0, 0.0, 0.0, 0.0, 0.0, 0.0, 0.0, 0.0, 0.0, 1.695422262360319E9, 0.0, 2023-09-22 17:37:42.360
140.0, -147093.34338824076, 56846.856397015625, -7540.428047231204, 8998.030006650688, 87559.29321757474, 48225.94502281488, -187500.02235174447, 67865.14882625925, 72050.6023824933, 72635.9498662889, 5872.742041676288, 13332.837919335117, 84323.83350418013, 38290.32639149742, 13050.423628142313, 17351.86038635497, 0.098, 1.012, 0.024, 192.0, 0.0, 0.0, 0.0, 0.0, 0.0, 0.0, 0.0, 0.0, 0.0, 1.695422262360322E9, 0.0, 2023-09-22 17:37:42.360
142.0, -146943.63140387912, 56952.15546514458, -7579.45419305017, 9068.572112151636, 87693.98482966243, 48203.50387138175, -187500.02235174447, 67938.37314109482, 71938.3742735832, 72640.42021517995, 5888.589428495101, 13323.003151774783, 84330.36021356109, 38271.953257555164, 13041.14765419336, 17372.423991253854, 0.10200000000000001, 1.008, 0.026000000000000002, 192.0, 1.5, 24.0, 15.5, 64.0, 0.0, 104.0, 0.0, 0.0, 0.0, 1.695422262360326E9, 0.0, 2023-09-22 17:37:42.360
144.0, -147065.04607976033, 56862.18969371196, -7532.806102371944, 9001.896858441456, 87547.69266220245, 48220.62530763452, -187500.02235174447, 67846.7086370836, 72075.56928104989, 72626.22685745083, 5869.456335241358, 13322.35495118558, 84313.88697789753, 38277.63060064681, 13047.026162985107, 17349.49110144271, 0.10200000000000001, 1.008, 0.026000000000000002, 192.0, 0.0, 0.0, 0.0, 0.0, 0.0, 0.0, 0.0, 0.0, 0.0, 1.695422262360329E9, 0.0, 2023-09-22 17:37:42.360
146.0, -146962.51862794385, 56941.583090017215, -7569.060631878452, 9070.293196474695, 87689.13450111562, 48206.29783943866, -187500.02235174447, 67915.06027162794, 71916.4248605281, 72642.34246520311, 5888.142393605995, 13328.546384399699, 84332.41657405098, 38277.92117332473, 13054.53634912209, 17375.285014544133, 0.10200000000000001, 1.008, 0.026000000000000002, 192.0, 0.0, 0.0, 0.0, 0.0, 0.0, 0.0, 0.0, 0.0, 0.0, 1.695422262360332E9, 0.0, 2023-09-22 17:37:42.360
148.0, -147075.39493744314, 56869.498714148845, -7523.10544527834, 9006.21074512133, 87545.09985984562, 48224.29099372518, -187500.02235174447, 67835.21984043358, 72088.15331317822, 72659.17332877795, 5882.889733658998, 13334.469596680356, 84324.57111174717, 38290.39344673079, 13054.53634912209, 17359.72820040324, 0.10200000000000001, 1.008, 0.026000000000000002, 192.0, 0.0, 0.0, 0.0, 0.0, 0.0, 0.0, 0.0, 0.0, 0.0, 1.695422262360335E9, 0.0, 2023-09-22 17:37:42.360
150.0, -146998.3931777946, 56925.55688924276, -7580.9517599286755, 9068.102725518076, 87664.41347174806, 48201.49221438077, -187500.02235174447, 67911.57339949292, 71890.18391253757, 72629.55726737466, 5883.850858670576, 13315.515317382255, 84319.16198958897, 38264.77834758501, 13047.115569962927, 17370.25587204169, 0.10200000000000001, 1.008, 0.026000000000000002, 192.0, 0.0, 0.0, 0.0, 0.0, 0.0, 0.0, 0.0, 0.0, 0.0, 1.695422262420697E9, 0.0, 2023-09-22 17:37:42.420
152.0, -147053.73609706594, 56875.77955434079, -7545.613651944835, 9009.004713178243, 87542.2611882998, 48217.69722911087, -187500.02235174447, 67868.81451234991, 72112.24849370104, 72635.45812791087, 5873.502000987769, 13318.465747650356, 84310.24364355131, 38272.28853372199, 13040.767674537621, 17353.179139277832, 0.10200000000000001, 1.012, 0.026000000000000002, 192.0, 1.5, 24.0, 15.5, 80.0, 0.0, 104.0, 0.0, 0.0, 0.0, 1.695422262420708E9, 0.0, 2023-09-22 17:37:42.420
154.0, -147007.62444825465, 56901.61817093113, -7602.007103205575, 9057.060963757154, 87649.92954134101, 48187.54472584066, -187500.02235174447, 67923.15160312076, 71893.15669455013, 72612.07820321062, 5874.6419399549895, 13310.10619522407, 84306.66736443846, 38258.85513530435, 13032.922212233809, 17355.19079627881, 0.10200000000000001, 1.012, 0.026000000000000002, 192.0, 0.0, 0.0, 0.0, 0.0, 0.0, 0.0, 0.0, 0.0, 0.0, 1.695422262420711E9, 0.0, 2023-09-22 17:37:42.420
156.0, -147014.48643380243, 56879.13231600908, -7550.598090958369, 8996.64419849446, 87540.47304874338, 48205.06849349362, -187500.02235174447, 67873.21780600761, 72153.30864826545, 72597.2813483812, 5862.884922371498, 13290.816639759141, 84297.27963176723, 38243.991225241574, 13013.275028857593, 17335.744778602693, 0.10200000000000001, 1.012, 0.026000000000000002, 192.0, 0.0, 0.0, 0.0, 0.0, 0.0, 0.0, 0.0, 0.0, 0.0, 1.695422262420714E9, 0.0, 2023-09-22 17:37:42.420
158.0, -147041.86732076018, 56873.85730431764, -7597.603809547879, 9037.771408292223, 87616.1784072135, 48181.24153390426, -187500.02235174447, 67892.14973356125, 71894.25193002843, 72593.32508961261, 5879.179344079416, 13309.726215568331, 84322.22417857936, 38258.56456262643, 13032.586936066979, 17342.025618794636, 0.10200000000000001, 1.012, 0.026000000000000002, 192.0, 0.0, 0.0, 0.0, 0.0, 0.0, 0.0, 0.0, 0.0, 0.0, 1.695422262420717E9, 0.0, 2023-09-22 17:37:42.420
160.0, -146972.82278213772, 56893.95152258295, -7575.944969170687, 8995.325445571596, 87546.2174470684, 48178.805193758635, -187500.02235174447, 67894.76488766252, 72160.0365233465, 72568.96168815633, 5857.3863932354925, 13273.784610484197, 84293.43513172092, 38217.81733248441, 12993.896066414842, 17328.14518548789, 0.10200000000000001, 1.012, 0.026000000000000002, 192.0, 0.0, 0.0, 0.0, 0.0, 0.0, 0.0, 0.0, 0.0, 0.0, 1.69542226242072E9, 0.0, 2023-09-22 17:37:42.420
162.0, -147038.6486695586, 56852.220815684894, -7601.448309594191, 9017.140748159974, 87598.74404653837, 48171.11619366601, -187500.02235174447, 67880.83975086687, 71919.08471811828, 72563.26199332024, 5866.975291606819, 13305.926419010928, 84315.22808256485, 38248.61803634382, 13030.86585174392, 17335.633019880417, 0.1, 1.008, 0.026000000000000002, 192.0, 1.5, 16.0, 15.5, 64.0, 0.0, 104.0, 0.0, 0.0, 0.0, 1.695422262420724E9, 0.0, 2023-09-22 17:37:42.420
164.0, -146951.432162694, 56890.621112659115, -7562.712736453144, 8989.44693677985, 87561.70720597592, 48175.20656290133, -187500.02235174447, 67881.46559971162, 72164.64098270428, 72554.20953681583, 5860.269768270227, 13287.195657157381, 84302.53229171423, 38220.432486585676, 13014.705540502733, 17333.397845434887, 0.1, 1.008, 0.026000000000000002, 192.0, 0.0, 0.0, 0.0, 0.0, 0.0, 0.0, 0.0, 0.0, 0.0, 1.695422262480877E9, 0.0, 2023-09-22 17:37:42.480
166.0, -147052.03736448733, 56822.940030448444, -7604.622257306845, 8997.493564783761, 87586.51764232131, 48153.078335890576, -187500.02235174447, 67862.4666169246, 71929.07594788981, 72540.39615874246, 5860.135657803495, 13321.72910234083, 84321.21835007887, 38246.74048980958, 13055.653936344856, 17331.38618843391, 0.1, 1.008, 0.026000000000000002, 192.0, 0.0, 0.0, 0.0, 0.0, 0.0, 0.0, 0.0, 0.0, 0.0, 1.69542226248089E9, 0.0, 2023-09-22 17:37:42.480
168.0, -146893.60819978814, 56897.21487727343, -7588.663111765756, 8984.931884399877, 87579.2756771178, 48156.9675394258, -187500.02235174447, 67897.15652431925, 72170.36302928484, 72515.65277763043, 5832.307735956638, 13279.193732642381, 84283.91328858296, 38190.928183904674, 13012.470366057201, 17317.639865593894, 0.1, 1.008, 0.026000000000000002, 192.0, 0.0, 0.0, 0.0, 0.0, 0.0, 0.0, 0.0, 0.0, 0.0, 1.695422262480893E9, 0.0, 2023-09-22 17:37:42.480
170.0, -147054.47370463298, 56805.9080011735, -7585.511515797558, 8990.005730391233, 87554.80051693923, 48172.01026344422, -187500.02235174447, 67827.64259906323, 71957.93204998161, 72535.21055402882, 5855.285329256693, 13352.798027133707, 84324.34759430261, 38261.00090277206, 13086.834619860008, 17335.320095458042, 0.1, 1.008, 0.026000000000000002, 192.0, 0.0, 0.0, 0.0, 0.0, 0.0, 0.0, 0.0, 0.0, 0.0, 1.695422262480896E9, 0.0, 2023-09-22 17:37:42.480
172.0, -146885.22629561738, 56906.82612738921, -7585.265646608549, 9004.668474753915, 87599.45930236093, 48162.6672342619, -187500.02235174447, 67880.99621307805, 72139.38351146979, 72532.48364120527, 5851.977271077308, 13327.652314621488, 84300.54298645772, 38211.335326592365, 13049.462503130735, 17336.638848380906, 0.094, 1.008, 0.028, 192.0, 1.0, 120.0, 15.5, 64.0, 0.0, 112.0, 0.0, 0.0, 0.0, 1.6954222624809E9, 0.0, 2023-09-22 17:37:42.480
174.0, -147062.09564949223, 56806.645608740524, -7586.562047786957, 8991.480945525283, 87550.91131340401, 48171.42911808838, -187500.02235174447, 67814.87975297925, 71976.30518392386, 72548.24162104627, 5869.769259663733, 13386.593864750132, 84326.24749258131, 38269.24869647607, 13109.253419548682, 17338.695208870795, 0.094, 1.008, 0.028, 192.0, 0.0, 0.0, 0.0, 0.0, 0.0, 0.0, 0.0, 0.0, 0.0, 1.695422262480903E9, 0.0, 2023-09-22 17:37:42.480
176.0, -146871.03293788826, 56922.65116246357, -7609.561992831468, 9015.956105703845, 87624.26973870632, 48154.10651613552, -187500.02235174447, 67898.40822200873, 72104.64890058624, 72541.62550468749, 5857.051117068662, 13351.5016259553, 84301.45940798038, 38212.92230044869, 13065.48870390519, 17333.599011134986, 0.094, 1.008, 0.028, 192.0, 0.0, 0.0, 0.0, 0.0, 0.0, 0.0, 0.0, 0.0, 0.0, 1.695422262480906E9, 0.0, 2023-09-22 17:37:42.480
178.0, -147056.48536163394, 56805.72918721786, -7594.7427862576, 8976.751145929235, 87536.33797601915, 48178.69343503636, -187500.02235174447, 67799.52410453846, 72007.97760581704, 72546.74405416776, 5853.4524862113585, 13396.875667199572, 84310.24364355131, 38260.352702182856, 13101.765585156154, 17327.42992966532, 0.094, 1.008, 0.028, 192.0, 0.0, 0.0, 0.0, 0.0, 0.0, 0.0, 0.0, 0.0, 0.0, 1.695422262480909E9, 0.0, 2023-09-22 17:37:42.480
180.0, -146874.3186443232, 56916.750301927364, -7628.203347707195, 9019.64414353897, 87641.45823019245, 48155.62643475848, -187500.02235174447, 67881.08562005588, 72058.24667909702, 72557.20467057284, 5859.532160703202, 13378.234312323846, 84306.01916384925, 38230.222550657105, 13077.066907533039, 17339.47751992673, 0.094, 1.008, 0.028, 192.0, 0.0, 0.0, 0.0, 0.0, 0.0, 0.0, 0.0, 0.0, 0.0, 1.695422262541308E9, 0.0, 2023-09-22 17:37:42.541
182.0, -147056.08303023374, 56793.0557481117, -7593.714606012655, 8961.104924810521, 87515.77437112026, 48166.51173430822, -187500.02235174447, 67781.28508106293, 72032.36335901778, 72536.86458311851, 5833.693544112867, 13387.733803717352, 84297.23492827833, 38248.752146810555, 13091.6402449179, 17304.42998462081, 0.098, 1.01, 0.028, 192.0, 1.5, 8.0, 15.5, 72.0, 0.0, 112.0, 0.0, 0.0, 0.0, 1.695422262541317E9, 0.0, 2023-09-22 17:37:42.541
184.0, -146873.44692628944, 56915.05156934876, -7622.593059848912, 9023.868623241022, 87646.12974478361, 48141.72364970728, -187500.02235174447, 67866.84755883785, 72022.3497775018, 72556.13178683899, 5854.659480411945, 13384.336338560146, 84308.25433829479, 38232.100097191345, 13081.693718635288, 17319.629170850418, 0.098, 1.01, 0.028, 192.0, 0.0, 0.0, 0.0, 0.0, 0.0, 0.0, 0.0, 0.0, 0.0, 1.695422262541321E9, 0.0, 2023-09-22 17:37:42.541
186.0, -147026.6457827861, 56805.393911051025, -7591.412376333759, 8959.316785254096, 87513.74036237483, 48143.57884449707, -187500.02235174447, 67777.90996765018, 72069.06492341339, 72542.96660935481, 5841.91898607242, 13400.407242823512, 84301.03472483573, 38248.34981541036, 13096.512925209157, 17297.61270256194, 0.098, 1.01, 0.028, 192.0, 0.0, 0.0, 0.0, 0.0, 0.0, 0.0, 0.0, 0.0, 0.0, 1.695422262541324E9, 0.0, 2023-09-22 17:37:42.541
188.0, -146847.47419923238, 56911.29647628027, -7617.765083046566, 9020.717027272824, 87643.55929417125, 48121.830597142056, -187500.02235174447, 67866.53463441547, 72017.56650418836, 72533.26595226121, 5845.4729134408135, 13375.730916944853, 84297.01141083377, 38210.12833239178, 13073.44592493128, 17301.904237497358, 0.098, 1.01, 0.028, 192.0, 0.0, 0.0, 0.0, 0.0, 0.0, 0.0, 0.0, 0.0, 0.0, 1.695422262541327E9, 0.0, 2023-09-22 17:37:42.541
190.0, -146997.4991080164, 56804.656303484, -7564.187951587195, 8956.187541030353, 87497.87062381157, 48142.640071229944, -187500.02235174447, 67768.36577276776, 72114.95305478014, 72538.49626046375, 5840.801398849654, 13402.240085868847, 84300.99002134682, 38242.67247231871, 13101.11738456695, 17287.979100701705, 0.098, 1.01, 0.028, 192.0, 0.0, 0.0, 0.0, 0.0, 0.0, 0.0, 0.0, 0.0, 0.0, 1.69542226254133E9, 0.0, 2023-09-22 17:37:42.541
192.0, -146859.43238251595, 56898.69009240748, -7609.405530620281, 9026.21555640883, 87633.8809888221, 48119.930698863354, -187500.02235174447, 67852.69890459764, 71984.46357065006, 72538.02687383018, 5854.234797267294, 13391.60065550812, 84311.11536158506, 38223.025288942496, 13096.35646299797, 17304.742909043183, 0.108, 1.004, 0.024, 192.0, 1.5, 48.0, 15.5, 48.0, 0.0, 96.0, 0.0, 0.0, 0.0, 1.695422262541333E9, 0.0, 2023-09-22 17:37:42.541
194.0, -146965.40200297858, 56815.452196055914, -7570.200570845673, 8956.232244519264, 87494.65197261, 48135.666326959894, -187500.02235174447, 67776.72532519404, 72147.2736772625, 72532.05895806062, 5841.315488972126, 13394.707547987407, 84303.31460277017, 38233.66471930322, 13102.97257935674, 17280.535969798086, 0.108, 1.004, 0.024, 192.0, 0.0, 0.0, 0.0, 0.0, 0.0, 0.0, 0.0, 0.0, 0.0, 1.69542226260166E9, 0.0, 2023-09-22 17:37:42.601
196.0, -146847.8094753992, 56891.06814754822, -7635.042981510518, 9019.197108649863, 87629.18712248649, 48104.485643444736, -187500.02235174447, 67881.17502703369, 71973.95825075606, 72530.22611501529, 5845.316451229626, 13386.303292072213, 84302.3981812475, 38218.57729179589, 13095.529448453122, 17295.62339730542, 0.108, 1.004, 0.024, 192.0, 0.0, 0.0, 0.0, 0.0, 0.0, 0.0, 0.0, 0.0, 0.0, 1.695422262601681E9, 0.0, 2023-09-22 17:37:42.601
198.0, -146913.5683075867, 56826.20338513892, -7580.102393639374, 8945.682221136358, 87490.67336209696, 48129.89957689042, -187500.02235174447, 67817.3607966138, 72193.7429539851, 72524.615827157, 5817.0638462381185, 13376.021489622772, 84277.52068966875, 38217.772628995495, 13079.25737848966, 17274.635109261886, 0.108, 1.004, 0.024, 192.0, 0.0, 0.0, 0.0, 0.0, 0.0, 0.0, 0.0, 0.0, 0.0, 1.695422262601685E9, 0.0, 2023-09-22 17:37:42.601
200.0, -146881.09122289316, 56866.503580391836, -7620.55905110348, 9017.11839641552, 87616.91601478052, 48122.0094110977, -187500.02235174447, 67864.38886694776, 71950.04188418887, 72553.0695978486, 5850.926739087909, 13407.582152793664, 84316.0550971097, 38251.79198405647, 13115.221335318249, 17311.314321913043, 0.108, 1.004, 0.024, 192.0, 0.0, 0.0, 0.0, 0.0, 0.0, 0.0, 0.0, 0.0, 0.0, 1.695422262601688E9, 0.0, 2023-09-22 17:37:42.601
202.0, -146917.8374907777, 56834.38412360956, -7571.16169585725, 8956.76868638619, 87509.58293790615, 48142.595367741036, -187500.02235174447, 67820.69120653764, 72175.81685493194, 72540.64202793146, 5826.809206820632, 13381.385908292044, 84288.76361712976, 38234.84936175935, 13090.075622806029, 17300.3843188744, 0.106, 1.01, 0.024, 192.0, 1.5, 40.0, 15.5, 72.0, 0.0, 96.0, 0.0, 0.0, 0.0, 1.695422262601692E9, 0.0, 2023-09-22 17:37:42.601
204.0, -146927.2252234489, 56845.58234758167, -7625.409379650281, 9019.085349927587, 87598.85580526064, 48127.37382976697, -187500.02235174447, 67860.05262852342, 71905.8748371452, 72554.7236269383, 5853.966576333831, 13414.779414508273, 84320.27957681175, 38268.15346099776, 13124.027922633639, 17331.229726222722, 0.106, 1.01, 0.024, 192.0, 0.0, 0.0, 0.0, 0.0, 0.0, 0.0, 0.0, 0.0, 0.0, 1.695422262601695E9, 0.0, 2023-09-22 17:37:42.601
206.0, -146896.6256852896, 56849.091571461155, -7598.229658392627, 8971.297320282141, 87514.6567838975, 48130.860701902, -187500.02235174447, 67839.10904396881, 72166.45147400517, 72539.88206861998, 5819.209613705828, 13372.847541910118, 84273.56443090015, 38233.150629180745, 13074.585863898501, 17311.560191102053, 0.106, 1.01, 0.024, 192.0, 0.0, 0.0, 0.0, 0.0, 0.0, 0.0, 0.0, 0.0, 0.0, 1.695422262601699E9, 0.0, 2023-09-22 17:37:42.601
208.0, -146936.76941833133, 56835.90404223252, -7629.142120974318, 9009.563506789626, 87571.98900842536, 48122.07646633106, -187500.02235174447, 67836.91857301218, 71912.80387792634, 72542.31840876561, 5830.407837677937, 13396.898018944028, 84291.6469921645, 38257.3799201703, 13099.373948499437, 17324.121871485935, 0.106, 1.01, 0.024, 192.0, 0.0, 0.0, 0.0, 0.0, 0.0, 0.0, 0.0, 0.0, 0.0, 1.695422262601702E9, 0.0, 2023-09-22 17:37:42.601
210.0, -146864.79680118524, 56863.75431582383, -7587.545524542991, 8970.716174926303, 87508.37594370556, 48126.926794877865, -187500.02235174447, 67826.54736358492, 72170.96652638513, 72532.617751672, 5821.243622451261, 13364.219768550369, 84272.64800937749, 38222.28768137547, 13066.650994616866, 17318.355121416465, 0.106, 1.01, 0.024, 192.0, 0.0, 0.0, 0.0, 0.0, 0.0, 0.0, 0.0, 0.0, 0.0, 1.69542226266111E9, 0.0, 2023-09-22 17:37:42.661
212.0, -146951.96860456094, 56816.12274838958, -7608.824385264443, 8995.951294416343, 87552.00654888232, 48119.729533163256, -187500.02235174447, 67811.83991573333, 71916.67072971711, 72536.5740104406, 5839.080314526595, 13397.479164299866, 84304.02985859274, 38261.44793766116, 13112.963809128263, 17330.536822144608, 0.10400000000000001, 1.014, 0.022, 192.0, 1.5, 32.0, 15.5, 88.0, 0.0, 88.0, 0.0, 0.0, 0.0, 1.695422262661119E9, 0.0, 2023-09-22 17:37:42.661
214.0, -146794.41115789546, 56889.61528415862, -7605.561030573968, 8971.073802837587, 87544.33990053415, 48099.165928264374, -187500.02235174447, 67849.36849467379, 72175.4815787651, 72510.57893163907, 5805.083311210074, 13335.341314714113, 84258.16407897045, 38196.69493397414, 13048.501378119157, 17309.81675503454, 0.10400000000000001, 1.014, 0.022, 192.0, 0.0, 0.0, 0.0, 0.0, 0.0, 0.0, 0.0, 0.0, 0.0, 1.695422262661122E9, 0.0, 2023-09-22 17:37:42.661
216.0, -146934.75776133034, 56814.22285011088, -7587.5902280319015, 8989.268122824207, 87533.0075660953, 48129.229024556764, -187500.02235174447, 67792.28213933494, 71963.1847099286, 72528.68384464787, 5828.373828932504, 13393.634664253554, 84294.06098056567, 38260.687978349684, 13107.554686970077, 17308.31918815603, 0.10400000000000001, 1.014, 0.022, 192.0, 0.0, 0.0, 0.0, 0.0, 0.0, 0.0, 0.0, 0.0, 0.0, 1.695422262661126E9, 0.0, 2023-09-22 17:37:42.661
218.0, -146786.5433438472, 56907.92136286752, -7588.104318154374, 8996.420681049905, 87550.19605758144, 48124.11047507649, -187500.02235174447, 67833.38699738825, 72167.70317169467, 72537.44572847435, 5835.079352269096, 13363.571567961166, 84276.80543384618, 38218.37612609579, 13068.05915451755, 17307.872153266926, 0.10400000000000001, 1.014, 0.022, 192.0, 0.0, 0.0, 0.0, 0.0, 0.0, 0.0, 0.0, 0.0, 0.0, 1.695422262661129E9, 0.0, 2023-09-22 17:37:42.661
220.0, -146934.04250550776, 56818.335571090654, -7606.320989885448, 8981.556770987127, 87506.4536936824, 48123.775198909665, -187500.02235174447, 67776.41240077167, 71992.10786725377, 72541.35728375403, 5832.039515023174, 13393.321739831179, 84281.65576239297, 38250.38382415579, 13093.07075656304, 17296.584522316996, 0.10400000000000001, 1.014, 0.022, 192.0, 0.0, 0.0, 0.0, 0.0, 0.0, 0.0, 0.0, 0.0, 0.0, 1.695422262661132E9, 0.0, 2023-09-22 17:37:42.661
222.0, -146752.41223006396, 56922.38294153011, -7609.986675976119, 8997.292399083663, 87559.02499664128, 48115.594460439024, -187500.02235174447, 67849.52495688498, 72161.22116580262, 72538.04922557465, 5827.502110898747, 13349.914652098973, 84259.68399759341, 38203.9145474332, 13047.450846129757, 17298.149144428866, 0.098, 1.016, 0.022, 192.0, 1.5, 8.0, 15.5, 96.0, 0.0, 88.0, 0.0, 0.0, 0.0, 1.695422262661135E9, 0.0, 2023-09-22 17:37:42.661
224.0, -146946.51477891384, 56807.562030263194, -7589.378367588326, 8980.170962830898, 87484.01254224927, 48140.51665550669, -187500.02235174447, 67774.60190947079, 72021.81333563487, 72554.58951647158, 5844.891768084975, 13404.385853336556, 84286.28257349522, 38266.83470807489, 13099.68687292181, 17299.95963572975, 0.098, 1.016, 0.022, 192.0, 0.0, 0.0, 0.0, 0.0, 0.0, 0.0, 0.0, 0.0, 0.0, 1.695422262721448E9, 0.0, 2023-09-22 17:37:42.721
226.0, -146741.88455842552, 56930.474273022926, -7608.645571308801, 9016.380788848495, 87567.47395604539, 48120.60125119701, -187500.02235174447, 67864.9700123036, 72129.57109565391, 72542.02783608768, 5834.654669124445, 13355.659050423987, 84263.01440751724, 38211.42473357019, 13048.099046718962, 17304.117060198434, 0.098, 1.016, 0.022, 192.0, 0.0, 0.0, 0.0, 0.0, 0.0, 0.0, 0.0, 0.0, 0.0, 1.695422262721471E9, 0.0, 2023-09-22 17:37:42.721
228.0, -146916.5857930882, 56815.63101001156, -7598.766100259555, 8978.472230252293, 87464.29830363969, 48127.44088500034, -187500.02235174447, 67780.36865954025, 72054.46923428407, 72541.13376630947, 5832.933584801386, 13390.08073688516, 84276.55956465716, 38255.748242825066, 13089.15920128336, 17292.538856570587, 0.098, 1.016, 0.022, 192.0, 0.0, 0.0, 0.0, 0.0, 0.0, 0.0, 0.0, 0.0, 0.0, 1.695422262721474E9, 0.0, 2023-09-22 17:37:42.721
230.0, -146721.49976748225, 56936.330430070215, -7610.523117843047, 9028.294268643174, 87574.53710729326, 48113.158120293396, -187500.02235174447, 67873.70954438562, 72101.65376682923, 72538.69742616385, 5834.766427846722, 13357.849521380607, 84264.46727090684, 38214.218701627105, 13050.87066303142, 17289.94605421377, 0.098, 1.016, 0.022, 192.0, 0.0, 0.0, 0.0, 0.0, 0.0, 0.0, 0.0, 0.0, 0.0, 1.695422262721477E9, 0.0, 2023-09-22 17:37:42.721
232.0, -146916.4740343659, 56813.68640824395, -7564.366765542837, 8977.667567451903, 87449.27793136572, 48137.6109287275, -187500.02235174447, 67767.49405473401, 72089.4720661011, 72556.04237986117, 5849.362116976037, 13404.698777758931, 84286.1931665174, 38268.801661586964, 13102.570247956544, 17286.70505126775, 0.10200000000000001, 1.014, 0.026000000000000002, 192.0, 1.5, 24.0, 15.5, 88.0, 0.0, 104.0, 0.0, 0.0, 0.0, 1.69542226272148E9, 0.0, 2023-09-22 17:37:42.721
234.0, -146721.6785814379, 56929.35668580016, -7607.975018975141, 9032.384637878495, 87577.8228137282, 48098.89770733091, -187500.02235174447, 67856.7669220885, 72063.05230415492, 72540.32910350908, 5845.785837863188, 13361.135227815537, 84270.47989016533, 38213.592852782356, 13059.677250346811, 17293.38822285989, 0.10200000000000001, 1.014, 0.026000000000000002, 192.0, 0.0, 0.0, 0.0, 0.0, 0.0, 0.0, 0.0, 0.0, 0.0, 1.695422262721483E9, 0.0, 2023-09-22 17:37:42.721
236.0, -146894.1669933995, 56810.89244018703, -7548.54173046848, 8977.421698262895, 87424.26632932023, 48133.006469369706, -187500.02235174447, 67744.85173760078, 72122.64205487276, 72543.16777505491, 5840.779047105199, 13388.40435605101, 84276.9395443129, 38253.04368174597, 13095.015358330651, 17281.497094809663, 0.10200000000000001, 1.014, 0.026000000000000002, 192.0, 0.0, 0.0, 0.0, 0.0, 0.0, 0.0, 0.0, 0.0, 0.0, 1.695422262721486E9, 0.0, 2023-09-22 17:37:42.721
238.0, -146724.27138379472, 56918.56079322825, -7607.684446297222, 9040.230100182307, 87564.165897866, 48093.39917819491, -187500.02235174447, 67839.26550617999, 72028.80943164938, 72534.24942901725, 5842.701297128356, 13357.648355680509, 84270.54694539869, 38209.05544865793, 13068.841465573487, 17284.648690777864, 0.10200000000000001, 1.014, 0.026000000000000002, 192.0, 0.0, 0.0, 0.0, 0.0, 0.0, 0.0, 0.0, 0.0, 0.0, 1.69542226272149E9, 0.0, 2023-09-22 17:37:42.721
240.0, -146854.93968188044, 56825.331667105165, -7560.477562007614, 8976.080593595576, 87423.75223919777, 48120.33303026355, -187500.02235174447, 67757.7486941515, 72159.54478496847, 72543.19012679937, 5836.465160425325, 13379.687175713441, 84270.16696574294, 38238.38093738329, 13091.774355384632, 17267.549606269553, 0.10200000000000001, 1.014, 0.026000000000000002, 192.0, 0.0, 0.0, 0.0, 0.0, 0.0, 0.0, 0.0, 0.0, 0.0, 1.695422262781302E9, 0.0, 2023-09-22 17:37:42.781
242.0, -146724.51725298373, 56912.10113908067, -7611.193670176705, 9040.118341460031, 87560.67902573098, 48098.60713465299, -187500.02235174447, 67847.5580033729, 72025.56842870337, 72539.23386803077, 5841.270785483216, 13364.666803439475, 84268.04355001969, 38215.44804757214, 13074.518808665134, 17280.200693631257, 0.10400000000000001, 1.018, 0.028, 192.0, 1.5, 32.0, 15.5, 104.0, 0.0, 112.0, 0.0, 0.0, 0.0, 1.695422262781323E9, 0.0, 2023-09-22 17:37:42.781
244.0, -146817.36639945107, 56839.77089402329, -7569.798239445477, 8974.493619739249, 87419.34894554007, 48122.54585296463, -187500.02235174447, 67774.13252283723, 72207.33281461392, 72541.29022852067, 5832.486549912281, 13373.02635586576, 84256.57710511412, 38232.21185591362, 13075.234064487704, 17264.80034170155, 0.10400000000000001, 1.018, 0.028, 192.0, 0.0, 0.0, 0.0, 0.0, 0.0, 0.0, 0.0, 0.0, 0.0, 1.695422262781327E9, 0.0, 2023-09-22 17:37:42.781
246.0, -146725.90306113995, 56896.209048772944, -7634.215966965672, 9030.440036110884, 87544.9657493789, 48090.31463746007, -187500.02235174447, 67826.83793626285, 72008.80462036189, 72535.88110636247, 5836.845140081065, 13365.650280195508, 84257.71704408134, 38223.6734895317, 13072.797724342076, 17278.434905819286, 0.10400000000000001, 1.018, 0.028, 192.0, 0.0, 0.0, 0.0, 0.0, 0.0, 0.0, 0.0, 0.0, 0.0, 1.69542226278133E9, 0.0, 2023-09-22 17:37:42.781
248.0, -146768.72900351632, 56846.27525165978, -7578.627178505323, 8964.748259156735, 87408.03896284569, 48110.29709700312, -187500.02235174447, 67763.38133375422, 72231.4503468812, 72516.03275728617, 5811.207689190828, 13341.197471761403, 84232.25840714674, 38210.26244285851, 13047.853177529953, 17245.868414147906, 0.10400000000000001, 1.018, 0.028, 192.0, 0.0, 0.0, 0.0, 0.0, 0.0, 0.0, 0.0, 0.0, 0.0, 1.695422262781333E9, 0.0, 2023-09-22 17:37:42.781
250.0, -146738.15181710146, 56874.79607758475, -7625.297620928004, 9029.456559354849, 87519.2612432553, 48090.716968860266, -187500.02235174447, 67814.47742157905, 71986.0952479953, 72533.8694493615, 5845.91994832992, 13372.512265743288, 84266.50127965228, 38235.83283851539, 13077.402183699869, 17263.50394052314, 0.10400000000000001, 1.018, 0.028, 192.0, 0.0, 0.0, 0.0, 0.0, 0.0, 0.0, 0.0, 0.0, 0.0, 1.695422262781336E9, 0.0, 2023-09-22 17:37:42.781
252.0, -146735.84958742256, 56854.29952791924, -7586.830268720421, 8972.571369716094, 87419.55011124017, 48095.36613170697, -187500.02235174447, 67772.83612165882, 72232.83615503742, 72521.44187944435, 5825.021067264208, 13340.683381638932, 84236.99697697128, 38206.75321897903, 13047.584956596489, 17236.726550665684, 0.10400000000000001, 1.022, 0.026000000000000002, 192.0, 1.5, 32.0, 15.5, 120.0, 0.0, 104.0, 0.0, 0.0, 0.0, 1.69542226278134E9, 0.0, 2023-09-22 17:37:42.781
254.0, -146756.70376499937, 56851.21498718441, -7618.703856313688, 9018.325390616106, 87500.396370935, 48086.29132345812, -187500.02235174447, 67789.28700557792, 71971.41015188815, 72523.47588818979, 5841.829579094599, 13361.045820837715, 84262.81324181714, 38224.58991105436, 13074.116477264939, 17232.725588408182, 0.10400000000000001, 1.022, 0.026000000000000002, 192.0, 0.0, 0.0, 0.0, 0.0, 0.0, 0.0, 0.0, 0.0, 0.0, 1.695422262781343E9, 0.0, 2023-09-22 17:37:42.781
0.0, -146715.1295203125, 56862.54732162325, -7576.168486615239, 8973.82306740559, 87425.07099212063, 48099.0541695421, -187500.02235174447, 67770.89151989121, 72223.47077411065, 72516.25627473072, 5826.4515789093475, 13334.089617024616, 84242.24963691826, 38193.99037289505, 13046.690886818276, 17211.31261722, 0.10400000000000001, 1.022, 0.026000000000000002, 192.0, 0.0, 0.0, 0.0, 0.0, 0.0, 0.0, 0.0, 0.0, 0.0, 1.695422262841548E9, 0.0, 2023-09-22 17:37:42.841
