%OpenBCI Raw EXG Data
%Number of channels = 16
%Sample Rate = 125 Hz
%Board = OpenBCI_GUI$BoardCytonSerialDaisy
Sample Index, EXG Channel 0, EXG Channel 1, EXG Channel 2, EXG Channel 3, EXG Channel 4, EXG Channel 5, EXG Channel 6, EXG Channel 7, EXG Channel 8, EXG Channel 9, EXG Channel 10, EXG Channel 11, EXG Channel 12, EXG Channel 13, EXG Channel 14, EXG Channel 15, Accel Channel 0, Accel Channel 1, Accel Channel 2, Other, Other, Other, Other, Other, Other, Other, Analog Channel 0, Analog Channel 1, Analog Channel 2, Timestamp, Other, Timestamp (Formatted)
0.0, 15692.645691948617, 9843.171816250304, -28005.68527051035, -41390.870975359794, -26826.49664002617, 29671.180805108645, -187500.02235174447, -38807.83633087115, 0.0, 0.0, 0.0, 0.0, 0.0, 0.0, 0.0, 0.0, 0.0, 0.0, 0.0, 192.0, 0.0, 0.0, 0.0, 0.0, 0.0, 0.0, 0.0, 0.0, 0.0, 1.695333543509415E9, 0.0, 2023-09-21 16:59:03.509
224.0, 15703.106308353701, 9853.028935555094, -28000.96905243028, -41385.931239835176, -26815.946616643265, 29693.13021816376, -187500.02235174447, -38792.503034174806, -16912.134517685714, -28312.485314903894, -43444.7057181246, -50811.68422838262, -12107.1576603839, -26806.134200827386, -31790.90849052769, -40777.51675576172, 0.026000000000000002, 1.008, 0.10400000000000001, 192.0, 0.0, 104.0, 15.5, 64.0, 1.5, 32.0, 0.0, 0.0, 0.0, 1.695333543509435E9, 0.0, 2023-09-21 16:59:03.509
226.0, 15691.751622170405, 9838.746170848151, -28027.478221354275, -41393.01674282751, -26838.92420994332, 29682.088456402835, -187500.02235174447, -38809.624470427574, -16903.462040837054, -28328.355053467163, -43470.65609343721, -50826.548138445396, -12118.266477378187, -26836.867849453432, -31808.454609925106, -40793.721770491815, 0.026000000000000002, 1.008, 0.10400000000000001, 192.0, 0.0, 0.0, 0.0, 0.0, 0.0, 0.0, 0.0, 0.0, 0.0, 1.695333543509448E9, 0.0, 2023-09-21 16:59:03.509
228.0, 15700.781726930349, 9842.121284260904, -28023.901942241424, -41398.11294056332, -26820.573427745516, 29685.709439004593, -187500.02235174447, -38800.52731043426, -16944.253974467993, -28325.538733665795, -43473.18184056066, -50841.859083397285, -12074.568816968062, -26861.45476835427, -31819.85399959731, -40799.48852056128, 0.026000000000000002, 1.008, 0.10400000000000001, 192.0, 0.0, 0.0, 0.0, 0.0, 0.0, 0.0, 0.0, 0.0, 0.0, 1.695333543509458E9, 0.0, 2023-09-21 16:59:03.509
230.0, 15706.615532233183, 9857.4769327017, -28018.246950894234, -41382.8690508448, -26814.002014875656, 29705.602491569818, -187500.02235174447, -38791.25133648531, -16930.060616738872, -28318.117954506633, -43457.401508975214, -50816.22163250705, -12070.321985521554, -26816.818334677024, -31802.86667381128, -40775.326284805094, 0.026000000000000002, 1.008, 0.10400000000000001, 192.0, 0.0, 0.0, 0.0, 0.0, 0.0, 0.0, 0.0, 0.0, 0.0, 1.695333543509467E9, 0.0, 2023-09-21 16:59:03.509
232.0, 15700.647616463617, 9845.541101162566, -28000.96905243028, -41375.04594028544, -26810.35868052944, 29703.993165969037, -187500.02235174447, -38788.502071917304, -16908.491183339498, -28323.236503986896, -43446.002119303004, -50809.96314405956, -12096.54058176763, -26815.387823031884, -31794.86474929628, -40779.21548834032, 0.026000000000000002, 1.008, 0.10400000000000001, 192.0, 0.0, 0.0, 0.0, 0.0, 0.0, 0.0, 0.0, 0.0, 0.0, 1.695333543509477E9, 0.0, 2023-09-21 16:59:03.509
234.0, 15685.224912789454, 9824.329295674479, -28040.64339883845, -41397.93412660767, -26826.02725339261, 29706.764782281494, -187500.02235174447, -38800.79553136772, -16946.913832058173, -28323.281207475808, -43477.89805864073, -50834.930042616135, -12086.325834551553, -26845.27210536863, -31810.39921169272, -40784.51285177623, 0.028, 1.004, 0.108, 192.0, 0.0, 112.0, 15.5, 48.0, 1.5, 48.0, 0.0, 0.0, 0.0, 1.695333543509487E9, 0.0, 2023-09-21 16:59:03.509
236.0, 15685.716651167471, 9818.428435138278, -28044.17497446239, -41415.18967332717, -26824.26146558064, 29694.694840275628, -187500.02235174447, -38799.0073918113, -16919.756462544974, -28350.259763033362, -43482.301352298426, -50853.23612132503, -12098.284017835143, -26892.456637913783, -31813.707269872102, -40792.89475594697, 0.028, 1.004, 0.108, 192.0, 0.0, 0.0, 0.0, 0.0, 0.0, 0.0, 0.0, 0.0, 0.0, 1.695333543509497E9, 0.0, 2023-09-21 16:59:03.509
238.0, 15694.43383150504, 9832.152406233836, -28029.042843466144, -41409.422923257705, -26822.763898702135, 29724.26619819, -187500.02235174447, -38791.76542660778, -16936.676733097644, -28289.21714892592, -43482.569573231885, -50845.59182472132, -12122.133329168955, -26810.35868052944, -31815.406002450705, -40785.29516283216, 0.028, 1.004, 0.108, 192.0, 0.0, 0.0, 0.0, 0.0, 0.0, 0.0, 0.0, 0.0, 0.0, 1.695333543509624E9, 0.0, 2023-09-21 16:59:03.509
0.0, 7990.838049750096, 4906.811405040194, -13956.0939617269, -20676.592967104076, -13321.21501221836, 15040.667657931765, -93750.01117587223, -19339.243392854143, -8462.415154268165, -14146.262603552654, -21727.303770459148, -25419.096698653306, -6043.129389659094, -13448.217624213414, -15900.852191549802, -20391.250597387625, 0.028, 1.005, 0.095, 192.0, 0.0, 112.0, 15.5, 56.0, 1.0, 72.0, 0.0, 0.0, 0.0, 1.695333543662198E9, 0.0, 2023-09-21 16:59:03.662
2.0, 15980.334994832874, 9812.684036813263, -27911.67383333133, -41349.54259986193, -26638.719634857138, 30090.074847945554, -187500.02235174447, -38679.02322757521, -16838.15024353865, -28279.941174976968, -43457.93795084214, -50581.215391303944, -11909.88116382136, -26657.40569322177, -31668.018599512412, -40551.16063966282, 0.028, 1.005, 0.095, 192.0, 0.0, 0.0, 0.0, 0.0, 0.0, 0.0, 0.0, 0.0, 0.0, 1.695333543662225E9, 0.0, 2023-09-21 16:59:03.662
4.0, 15979.910311688223, 9813.55575484702, -27904.364812894444, -41344.669919570675, -26635.769204589036, 30053.909725416866, -187500.02235174447, -38683.85120437756, -16835.512737692923, -28276.968392964412, -43455.00987231849, -50576.49917322388, -11907.578934142462, -26656.668085654746, -31667.683323345584, -40548.43372683928, 0.028, 1.005, 0.095, 192.0, 0.0, 0.0, 0.0, 0.0, 0.0, 0.0, 0.0, 0.0, 0.0, 1.695333543662235E9, 0.0, 2023-09-21 16:59:03.662
6.0, 15972.511884273516, 9804.70446404272, -27909.550417608076, -41346.16748644918, -26642.31826571444, 30075.926193705345, -187500.02235174447, -38685.885213122994, -16849.214357044024, -28287.2278436694, -43464.688177667646, -50587.518583240344, -11920.051207548524, -26652.823585608436, -31669.44911115755, -40556.793279265556, 0.028, 1.005, 0.095, 192.0, 0.0, 0.0, 0.0, 0.0, 0.0, 0.0, 0.0, 0.0, 0.0, 1.695333543662245E9, 0.0, 2023-09-21 16:59:03.662
8.0, 15971.081372628376, 9802.201068663726, -27897.748696535673, -41335.39394562173, -26632.729367343112, 30058.268315585654, -187500.02235174447, -38677.99504733027, -16842.44177847407, -28279.74000927687, -43457.73678514204, -50584.61285646116, -11913.368035956388, -26647.883850083814, -31661.380131409187, -40543.78456399257, 0.022, 1.01, 0.074, 192.0, 0.0, 88.0, 15.5, 72.0, 1.0, 40.0, 0.0, 0.0, 0.0, 1.695333543662254E9, 0.0, 2023-09-21 16:59:03.662
10.0, 15964.666421969703, 9797.149574416826, -27899.201559925266, -41339.59607357932, -26634.383396432808, 30087.124417677453, -187500.02235174447, -38679.1796897864, -16848.968487855018, -28283.763323278825, -43465.13521255675, -50588.52441174083, -11911.69165512224, -26646.1404140163, -31658.429701141085, -40541.32587210248, 0.022, 1.01, 0.074, 192.0, 0.0, 0.0, 0.0, 0.0, 0.0, 0.0, 0.0, 0.0, 0.0, 1.695333543662264E9, 0.0, 2023-09-21 16:59:03.662
12.0, 15952.68588694166, 9786.443088822734, -27905.61651058394, -41351.93423651865, -26637.110309256354, 30071.835824470025, -187500.02235174447, -38688.120387568524, -16855.249328046957, -28294.089829217177, -43473.338302771845, -50598.090958367706, -11914.530326668064, -26657.763321133058, -31657.155651707133, -40551.25004664064, 0.022, 1.01, 0.074, 192.0, 0.0, 0.0, 0.0, 0.0, 0.0, 0.0, 0.0, 0.0, 0.0, 1.695333543662274E9, 0.0, 2023-09-21 16:59:03.662
14.0, 15948.886090384256, 9785.034928922048, -27918.647577601383, -41357.34335867684, -26643.59231514839, 30092.600595069005, -187500.02235174447, -38688.74623641327, -16867.498084008468, -28306.584454367694, -43488.76100644601, -50608.48451953942, -11928.723684397184, -26668.313344515962, -31667.50450938994, -40565.532811347584, 0.022, 1.01, 0.074, 192.0, 0.0, 0.0, 0.0, 0.0, 0.0, 0.0, 0.0, 0.0, 0.0, 1.695333543662283E9, 0.0, 2023-09-21 16:59:03.662
16.0, 15953.870529397791, 9784.654949266309, -27916.658272344863, -41358.796222066434, -26639.94898080218, 30069.779463980136, -187500.02235174447, -38688.120387568524, -16860.412581016135, -28300.37066940912, -43480.535564486454, -50603.29891482579, -11924.253335506122, -26669.073303827445, -31670.857271058238, -40557.03914845457, 0.022, 1.01, 0.074, 192.0, 0.0, 0.0, 0.0, 0.0, 0.0, 0.0, 0.0, 0.0, 0.0, 1.695333543722397E9, 0.0, 2023-09-21 16:59:03.722
18.0, 15968.376811549284, 9796.903705227818, -27919.407536912866, -41356.80691680991, -26635.523335400027, 30074.070998915555, -187500.02235174447, -38679.62672467551, -16853.23767104598, -28299.36484090863, -43475.97580861757, -50601.220202591445, -11920.40883545981, -26667.66514392676, -31665.93988727807, -40556.390947865366, 0.014, 1.008, 0.07200000000000001, 192.0, 0.0, 56.0, 15.5, 64.0, 1.0, 32.0, 0.0, 0.0, 0.0, 1.695333543722448E9, 0.0, 2023-09-21 16:59:03.722
20.0, 15965.962823148111, 9791.092251669437, -27918.71463283475, -41366.08289075886, -26641.51360291405, 30047.964161391756, -187500.02235174447, -38688.120387568524, -16847.202700043046, -28295.341526906675, -43471.63957019324, -50599.78969094631, -11917.368998213888, -26669.27446952754, -31670.253773957942, -40559.05080545555, 0.014, 1.008, 0.07200000000000001, 192.0, 0.0, 0.0, 0.0, 0.0, 0.0, 0.0, 0.0, 0.0, 0.0, 1.695333543722458E9, 0.0, 2023-09-21 16:59:03.722
22.0, 15965.426381281184, 9790.600513291422, -27927.47651666123, -41374.174222251684, -26649.42612045123, 30055.72021671775, -187500.02235174447, -38694.42357950492, -16849.281412277393, -28302.628195599103, -43472.24306729354, -50602.22603109194, -11928.388408230354, -26677.90224288729, -31672.198375725555, -40571.52307886161, 0.014, 1.008, 0.07200000000000001, 192.0, 0.0, 0.0, 0.0, 0.0, 0.0, 0.0, 0.0, 0.0, 0.0, 1.695333543722467E9, 0.0, 2023-09-21 16:59:03.722
24.0, 15971.39429705075, 9796.344911616436, -27913.32786242102, -41363.7136058466, -26637.51264065655, 30033.390824006896, -187500.02235174447, -38690.3332102696, -16851.650697189652, -28302.80700955475, -43471.99719810453, -50598.80621419027, -11921.146443026835, -26681.746742933603, -31681.69786711906, -40572.90888701784, 0.014, 1.008, 0.07200000000000001, 192.0, 0.0, 0.0, 0.0, 0.0, 0.0, 0.0, 0.0, 0.0, 0.0, 1.695333543722476E9, 0.0, 2023-09-21 16:59:03.722
26.0, 15976.378736064284, 9802.044606452539, -27909.75158330817, -41351.35309116281, -26637.55734414546, 30059.698827230794, -187500.02235174447, -38682.30893401014, -16844.989877341974, -28298.73899206388, -43464.21879103408, -50589.262019307855, -11916.139652268846, -26676.09175158641, -31669.18089022409, -40564.05759621353, 0.014, 1.008, 0.07200000000000001, 192.0, 0.0, 0.0, 0.0, 0.0, 0.0, 0.0, 0.0, 0.0, 0.0, 1.695333543722486E9, 0.0, 2023-09-21 16:59:03.722
28.0, 15977.943358176157, 9801.642275052343, -27904.990661739193, -41349.47554462857, -26639.054911023966, 30063.431568554828, -187500.02235174447, -38688.07568407961, -16833.99281906996, -28283.986840723377, -43449.31017748239, -50572.90054236657, -11907.936562053748, -26663.79829213599, -31668.443282657063, -40553.61933155291, 0.012, 1.012, 0.068, 192.0, 0.0, 48.0, 15.5, 80.0, 1.0, 16.0, 0.0, 0.0, 0.0, 1.695333543722495E9, 0.0, 2023-09-21 16:59:03.722
30.0, 15963.34766904684, 9788.633559779353, -27917.552342123076, -41364.94295179164, -26651.482480941115, 30069.33242909103, -187500.02235174447, -38700.45855050785, -16846.71096166503, -28301.644718843072, -43460.329587498854, -50590.02197861934, -11920.677056393273, -26681.120894088854, -31676.55696589434, -40571.74659630616, 0.012, 1.012, 0.068, 192.0, 0.0, 0.0, 0.0, 0.0, 0.0, 0.0, 0.0, 0.0, 0.0, 1.695333543781762E9, 0.0, 2023-09-21 16:59:03.781
32.0, 15966.074581870387, 9790.086423168948, -27916.1888857113, -41365.792318080945, -26641.960637803157, 30063.453920299286, -187500.02235174447, -38698.31278304014, -16844.945173853062, -28302.538788621285, -43461.08954681034, -50594.00058913238, -11918.307771481012, -26678.70690568768, -31681.027314785402, -40570.38313989439, 0.012, 1.012, 0.068, 192.0, 0.0, 0.0, 0.0, 0.0, 0.0, 0.0, 0.0, 0.0, 0.0, 1.695333543781789E9, 0.0, 2023-09-21 16:59:03.781
34.0, 15955.859834654313, 9781.950388187217, -27930.114022506958, -41374.21892574059, -26652.398902463785, 30053.28387657212, -187500.02235174447, -38706.42646627742, -16862.29012755038, -28314.340509693684, -43475.864049895295, -50603.947115414994, -11918.799509859027, -26687.8487691699, -31679.395637440164, -40579.70381733225, 0.012, 1.012, 0.068, 192.0, 0.0, 0.0, 0.0, 0.0, 0.0, 0.0, 0.0, 0.0, 0.0, 1.695333543781799E9, 0.0, 2023-09-21 16:59:03.781
36.0, 15970.947262161644, 9797.283684883558, -27904.81184778355, -41352.5600853634, -26633.668140610236, 30068.05837965708, -187500.02235174447, -38689.97558235831, -16852.790636156875, -28303.36580316613, -43465.69400616813, -50593.441795521, -11920.967629071192, -26679.55627197698, -31679.26152697343, -40562.00123572365, 0.012, 1.012, 0.068, 192.0, 0.0, 0.0, 0.0, 0.0, 0.0, 0.0, 0.0, 0.0, 0.0, 1.69533354378181E9, 0.0, 2023-09-21 16:59:03.781
38.0, 15971.528407517482, 9795.875524982874, -27903.917778005336, -41358.05861449941, -26636.70797785616, 30072.864004714967, -187500.02235174447, -38695.71998068333, -16840.51952845091, -28298.247253685866, -43456.39568047472, -50586.15512682857, -11907.668341120285, -26671.57669920644, -31662.430663398587, -40556.74857577665, 0.01, 1.016, 0.07, 192.0, 0.0, 40.0, 15.5, 96.0, 1.0, 24.0, 0.0, 0.0, 0.0, 1.695333543781819E9, 0.0, 2023-09-21 16:59:03.781
40.0, 15973.562416262916, 9796.814298249996, -27908.56694085204, -41358.77387032197, -26634.56221038845, 30082.318792619564, -187500.02235174447, -38689.57325095812, -16847.068589576316, -28303.0305269993, -43463.12355555577, -50592.1900978315, -11913.54684991203, -26671.509643973073, -31667.1245297342, -40566.18101193679, 0.01, 1.016, 0.07, 192.0, 0.0, 0.0, 0.0, 0.0, 0.0, 0.0, 0.0, 0.0, 0.0, 1.695333543781863E9, 0.0, 2023-09-21 16:59:03.781
42.0, 15969.87437842779, 9788.70061501272, -27908.030498985114, -41366.37346343678, -26636.730329600614, 30075.970897194256, -187500.02235174447, -38693.19423355988, -16840.586583684275, -28302.695250832472, -43458.0050060755, -50591.11721409765, -11909.255314976612, -26669.922670116746, -31657.379169151685, -40566.851564270444, 0.01, 1.016, 0.07, 192.0, 0.0, 0.0, 0.0, 0.0, 0.0, 0.0, 0.0, 0.0, 0.0, 1.695333543781876E9, 0.0, 2023-09-21 16:59:03.781
44.0, 15972.154256362232, 9790.354644102412, -27918.155839223367, -41370.262666972005, -26642.36296920335, 30080.485949574228, -187500.02235174447, -38691.830777148105, -16846.845072131764, -28309.467829402427, -43464.956398601105, -50598.40388279008, -11917.078425535969, -26674.147149818797, -31668.018599512412, -40575.90402077485, 0.01, 1.016, 0.07, 192.0, 0.0, 0.0, 0.0, 0.0, 0.0, 0.0, 0.0, 0.0, 0.0, 1.695333543781892E9, 0.0, 2023-09-21 16:59:03.781
46.0, 15976.311680830919, 9792.6121702924, -27916.32299617803, -41361.65724535671, -26635.813908077947, 30056.48017602923, -187500.02235174447, -38689.99793410277, -16843.738179652475, -28307.165599723532, -43460.21782877658, -50595.989894388906, -11917.301942980523, -26676.650545197794, -31668.085654745777, -40574.2276399407, 0.01, 1.016, 0.07, 192.0, 0.0, 0.0, 0.0, 0.0, 0.0, 0.0, 0.0, 0.0, 0.0, 1.695333543841593E9, 0.0, 2023-09-21 16:59:03.841
48.0, 15977.518675031504, 9792.79098424804, -27919.116964234945, -41353.29769293043, -26636.0374255225, 30082.162330408377, -187500.02235174447, -38683.582983444096, -16841.36889474021, -28300.705945575948, -43460.66486366569, -50592.36891178715, -11912.362207455899, -26663.61947818035, -31666.40927391163, -40561.88947700137, 0.014, 1.014, 0.07, 192.0, 0.0, 56.0, 15.5, 88.0, 1.0, 24.0, 0.0, 0.0, 0.0, 1.695333543841638E9, 0.0, 2023-09-21 16:59:03.841
50.0, 15974.657651741225, 9788.07476616797, -27917.641749100894, -41358.39389066624, -26638.09378601239, 30075.166234393866, -187500.02235174447, -38694.71415218284, -16842.307668007335, -28300.30361417575, -43460.37429098777, -50592.123042598134, -11916.609038902407, -26665.832300881422, -31666.40927391163, -40559.18491592228, 0.014, 1.014, 0.07, 192.0, 0.0, 0.0, 0.0, 0.0, 0.0, 0.0, 0.0, 0.0, 0.0, 1.695333543841648E9, 0.0, 2023-09-21 16:59:03.841
52.0, 15965.180512092176, 9779.044661408027, -27934.24909523119, -41376.99054205305, -26658.165652533255, 30093.04762995811, -187500.02235174447, -38709.68982096789, -16851.114255322726, -28308.193779968475, -43470.43257599266, -50600.527298513334, -11930.288306509055, -26669.252117783086, -31679.440340929075, -40574.6746748298, 0.014, 1.014, 0.07, 192.0, 0.0, 0.0, 0.0, 0.0, 0.0, 0.0, 0.0, 0.0, 0.0, 1.695333543841658E9, 0.0, 2023-09-21 16:59:03.841
54.0, 15971.617814495305, 9784.565542288488, -27922.179153225323, -41375.291809474445, -26641.088919769398, 30062.8951266879, -187500.02235174447, -38697.03873360619, -16851.76245591193, -28308.9313875355, -43474.813517905895, -50606.2940485828, -11927.941373341248, -26675.108274830374, -31689.073942789313, -40577.490994631175, 0.014, 1.014, 0.07, 192.0, 0.0, 0.0, 0.0, 0.0, 0.0, 0.0, 0.0, 0.0, 0.0, 1.695333543841667E9, 0.0, 2023-09-21 16:59:03.841
56.0, 15962.185378335165, 9776.630673006854, -27929.421118428843, -41379.67275138769, -26639.32313195743, 30088.39846711141, -187500.02235174447, -38695.58587021659, -16848.253232032446, -28304.63985260008, -43471.90779112671, -50603.96946715945, -11914.597381901429, -26662.904222357778, -31676.087579260777, -40568.57264859351, 0.014, 1.014, 0.07, 192.0, 0.0, 0.0, 0.0, 0.0, 0.0, 0.0, 0.0, 0.0, 0.0, 1.695333543841676E9, 0.0, 2023-09-21 16:59:03.841
58.0, 15962.319488801897, 9774.015518905582, -27923.296740448088, -41375.11299551881, -26632.215277220643, 30059.207088852774, -187500.02235174447, -38694.42357950492, -16862.3795345282, -28317.916788806535, -43486.23525932256, -50618.36399058867, -11924.923887839781, -26675.242385297108, -31677.47338741701, -40575.61344809693, 0.018000000000000002, 1.014, 0.07200000000000001, 192.0, 0.0, 72.0, 15.5, 88.0, 1.0, 32.0, 0.0, 0.0, 0.0, 1.695333543841686E9, 0.0, 2023-09-21 16:59:03.841
60.0, 15957.402105021729, 9772.69676598272, -27932.505659163675, -41375.56003040791, -26641.491251169595, 30089.38194386744, -187500.02235174447, -38701.17380633042, -16859.80908391584, -28317.112126006145, -43483.485994754556, -50615.05593240928, -11919.000675559126, -26670.101484072387, -31667.34804717875, -40568.21502068222, 0.018000000000000002, 1.014, 0.07200000000000001, 192.0, 0.0, 0.0, 0.0, 0.0, 0.0, 0.0, 0.0, 0.0, 0.0, 1.695333543901924E9, 0.0, 2023-09-21 16:59:03.901
62.0, 15956.128055587777, 9776.585969517942, -27924.794307326592, -41371.62612338378, -26642.050044780975, 30056.435472540317, -187500.02235174447, -38698.89392839598, -16859.67497344911, -28318.073251017722, -43486.637590722756, -50616.888775454616, -11926.041475062548, -26680.56210047747, -31675.55113739385, -40571.545430606064, 0.018000000000000002, 1.014, 0.07200000000000001, 192.0, 0.0, 0.0, 0.0, 0.0, 0.0, 0.0, 0.0, 0.0, 0.0, 1.695333543901975E9, 0.0, 2023-09-21 16:59:03.901
64.0, 15967.39333479325, 9785.928998700261, -27923.00616777017, -41357.79039356594, -26633.51167839905, 30081.111798418977, -187500.02235174447, -38683.27005902172, -16858.04329610387, -28310.473657902916, -43477.763948174, -50609.91503118456, -11919.78298661506, -26671.57669920644, -31666.275163444898, -40564.81755552501, 0.018000000000000002, 1.014, 0.07200000000000001, 192.0, 0.0, 0.0, 0.0, 0.0, 0.0, 0.0, 0.0, 0.0, 0.0, 1.695333543901986E9, 0.0, 2023-09-21 16:59:03.901
66.0, 15958.564395733405, 9778.865847452385, -27920.793345069094, -41360.673768600675, -26637.60204763437, 30071.835824470025, -187500.02235174447, -38689.46149223584, -16859.138531582183, -28308.88668404659, -43478.166279574194, -50604.5953160042, -11923.292210494545, -26666.815777637457, -31664.017637254914, -40564.39287238036, 0.018000000000000002, 1.014, 0.07200000000000001, 192.0, 0.0, 0.0, 0.0, 0.0, 0.0, 0.0, 0.0, 0.0, 0.0, 1.695333543902E9, 0.0, 2023-09-21 16:59:03.902
68.0, 15970.008488894522, 9795.808469749507, -27910.355080408466, -41341.18304743565, -26626.202657962163, 30089.67251654536, -187500.02235174447, -38672.630628661, -16853.28237453489, -28297.88962577458, -43469.426747492165, -50591.45249026448, -11918.35247496992, -26659.819681622947, -31658.49675637445, -40554.53575307557, 0.02, 1.012, 0.07, 192.0, 0.0, 80.0, 15.5, 80.0, 1.0, 24.0, 0.0, 0.0, 0.0, 1.69533354390201E9, 0.0, 2023-09-21 16:59:03.902
70.0, 15967.482741771073, 9793.394481348334, -27902.934301249305, -41337.830285767355, -26625.867381795335, 30090.544234579116, -187500.02235174447, -38677.61506767453, -16851.47188323401, -28289.46301811493, -43462.989445089035, -50580.455431992465, -11911.535192911053, -26650.476652440626, -31658.02736974089, -40543.89632271485, 0.02, 1.012, 0.07, 192.0, 0.0, 0.0, 0.0, 0.0, 0.0, 0.0, 0.0, 0.0, 0.0, 1.695333543902019E9, 0.0, 2023-09-21 16:59:03.902
72.0, 15966.052230125933, 9792.053376681015, -27905.90708326186, -41337.8079340229, -26626.80615506246, 30100.133132950443, -187500.02235174447, -38677.05627406314, -16854.131740824192, -28296.101486218155, -43466.901000368714, -50584.590504716696, -11912.719835367185, -26650.968390818645, -31653.691131316562, -40544.700985515236, 0.02, 1.012, 0.07, 192.0, 0.0, 0.0, 0.0, 0.0, 0.0, 0.0, 0.0, 0.0, 0.0, 1.695333543902028E9, 0.0, 2023-09-21 16:59:03.902
74.0, 15961.358363790318, 9786.241923122636, -27905.929435006314, -41336.80210552241, -26626.515582384538, 30094.38873462543, -187500.02235174447, -38676.60923917404, -16851.337772767278, -28296.526169362805, -43465.67165442368, -50585.68574019501, -11909.88116382136, -26652.153033274775, -31657.178003451587, -40537.079040655975, 0.02, 1.012, 0.07, 192.0, 0.0, 0.0, 0.0, 0.0, 0.0, 0.0, 0.0, 0.0, 0.0, 1.695333543902037E9, 0.0, 2023-09-21 16:59:03.902
76.0, 15957.335049788362, 9780.430469564257, -27908.544589107587, -41345.18400969315, -26631.857649309357, 30106.883359775948, -187500.02235174447, -38681.66073342094, -16858.825607159808, -28305.109239233643, -43473.74063417204, -50594.33586529921, -11916.027893546569, -26657.271582755042, -31654.853422028238, -40544.25395062613, 0.02, 1.012, 0.07, 192.0, 0.0, 0.0, 0.0, 0.0, 0.0, 0.0, 0.0, 0.0, 0.0, 1.695333543962132E9, 0.0, 2023-09-21 16:59:03.962
78.0, 15960.330183545375, 9781.592760275933, -27904.454219872263, -41350.347262662326, -26627.208486462652, 30099.172007938865, -187500.02235174447, -38682.19717528787, -16858.020944359418, -28298.26960543032, -43471.37134925978, -50591.43013852002, -11914.440919690243, -26654.11998678684, -31661.60364885374, -40546.4220698383, 0.016, 1.016, 0.074, 192.0, 0.0, 64.0, 15.5, 96.0, 1.0, 40.0, 0.0, 0.0, 0.0, 1.695333543962151E9, 0.0, 2023-09-21 16:59:03.962
80.0, 15954.474026498083, 9778.821143963474, -27906.89056001789, -41358.25978019951, -26631.187096975696, 30090.119551434465, -187500.02235174447, -38685.97462010082, -16859.85378740475, -28300.907111276047, -43476.22167780658, -50593.30768505427, -11911.289323722045, -26659.394998478296, -31653.512317360917, -40553.21700015271, 0.016, 1.016, 0.074, 192.0, 0.0, 0.0, 0.0, 0.0, 0.0, 0.0, 0.0, 0.0, 0.0, 1.695333543962161E9, 0.0, 2023-09-21 16:59:03.962
82.0, 15951.791817163446, 9774.820181705974, -27916.971196767237, -41355.644626098234, -26635.813908077947, 30078.831920484536, -187500.02235174447, -38687.56159395714, -16862.401886272655, -28301.30944267624, -43482.18959357615, -50596.325170555734, -11909.948219054726, -26658.456225211172, -31656.865079029216, -40550.24421814016, 0.016, 1.016, 0.074, 192.0, 0.0, 0.0, 0.0, 0.0, 0.0, 0.0, 0.0, 0.0, 0.0, 1.69533354396217E9, 0.0, 2023-09-21 16:59:03.962
84.0, 15954.094046842343, 9779.111716641393, -27909.14808620788, -41345.11695445979, -26633.51167839905, 30086.47621708825, -187500.02235174447, -38684.700570666864, -16860.591394971776, -28296.66027982954, -43475.12644232827, -50589.686702452505, -11918.35247496992, -26654.812890864956, -31653.15468944963, -40542.13053490288, 0.016, 1.016, 0.074, 192.0, 0.0, 0.0, 0.0, 0.0, 0.0, 0.0, 0.0, 0.0, 0.0, 1.695333543962196E9, 0.0, 2023-09-21 16:59:03.962
86.0, 15950.473064240583, 9774.998995661617, -27921.62035961394, -41348.22384693907, -26634.875134810824, 30092.019449713167, -187500.02235174447, -38687.762759657235, -16864.36883978472, -28303.499913632862, -43479.19445981913, -50594.87230716614, -11921.638181404851, -26652.354198974874, -31660.396654653152, -40545.617407037906, 0.016, 1.016, 0.074, 192.0, 0.0, 0.0, 0.0, 0.0, 0.0, 0.0, 0.0, 0.0, 0.0, 1.695333543962206E9, 0.0, 2023-09-21 16:59:03.962
88.0, 15959.436113767162, 9785.928998700261, -27915.697147333285, -41340.51249510199, -26626.783803318, 30084.822187998558, -187500.02235174447, -38681.9289543544, -16855.96458386953, -28302.382326410097, -43469.73967191454, -50587.809155918265, -11915.223230746178, -26655.282277498518, -31653.825241783292, -40541.03529942457, 0.02, 1.016, 0.074, 192.0, 0.0, 80.0, 15.5, 96.0, 1.0, 40.0, 0.0, 0.0, 0.0, 1.695333543962215E9, 0.0, 2023-09-21 16:59:03.962
90.0, 15960.330183545375, 9789.997016191128, -27915.71949907774, -41343.57468409237, -26620.45825963715, 30099.015545727678, -187500.02235174447, -38672.630628661, -16847.13564480968, -28290.93823324898, -43462.229485777556, -50579.22608604743, -11907.35541669791, -26638.920800557233, -31653.579372594282, -40536.810819722516, 0.02, 1.016, 0.074, 192.0, 0.0, 0.0, 0.0, 0.0, 0.0, 0.0, 0.0, 0.0, 0.0, 1.695333544022385E9, 0.0, 2023-09-21 16:59:04.022
92.0, 15952.372962519285, 9783.26914111008, -27925.755432338174, -41359.82440231137, -26625.152125972763, 30082.899937975402, -187500.02235174447, -38683.85120437756, -16864.10061885126, -28307.54557937927, -43473.58417196085, -50593.6429612211, -11920.766463371094, -26648.353236717372, -31657.669741829606, -40553.21700015271, 0.02, 1.016, 0.074, 192.0, 0.0, 0.0, 0.0, 0.0, 0.0, 0.0, 0.0, 0.0, 0.0, 1.695333544022409E9, 0.0, 2023-09-21 16:59:04.022
94.0, 15961.49247425705, 9793.953274959717, -27922.357967180964, -41352.649492341225, -26618.17838170271, 30111.554874367106, -187500.02235174447, -38674.619933917515, -16852.09773207876, -28289.64183207057, -43459.301407253915, -50580.321321525735, -11910.21643998819, -26640.351312202372, -31655.233401683978, -40545.84092448246, 0.02, 1.016, 0.074, 192.0, 0.0, 0.0, 0.0, 0.0, 0.0, 0.0, 0.0, 0.0, 0.0, 1.695333544022418E9, 0.0, 2023-09-21 16:59:04.022
96.0, 15956.709200943615, 9789.79585049103, -27922.737946836707, -41352.358919663304, -26620.502963126062, 30092.24296715772, -187500.02235174447, -38680.74431189827, -16853.885871635186, -28295.11800946212, -43463.615293933784, -50581.930647126515, -11909.143556254336, -26646.31922797194, -31657.73679706297, -40549.50661057313, 0.02, 1.016, 0.074, 192.0, 0.0, 0.0, 0.0, 0.0, 0.0, 0.0, 0.0, 0.0, 0.0, 1.695333544022427E9, 0.0, 2023-09-21 16:59:04.022
98.0, 15950.763636918502, 9781.79392597603, -27927.320054450043, -41348.89439927273, -26632.103518498367, 30117.209865714296, -187500.02235174447, -38683.20300378835, -16859.04912460436, -28300.996518253865, -43466.342206757334, -50585.01518786135, -11919.492413937141, -26644.151108759776, -31661.290724431365, -40549.41720359531, 0.024, 1.012, 0.078, 192.0, 0.0, 96.0, 15.5, 80.0, 1.0, 56.0, 0.0, 0.0, 0.0, 1.695333544022437E9, 0.0, 2023-09-21 16:59:04.022
100.0, 15961.805398679424, 9790.734623758153, -27906.868208273438, -41331.86236999778, -26614.46799212313, 30093.315850891573, -187500.02235174447, -38669.61314315953, -16851.80715940084, -28295.766210051326, -43458.42968922015, -50580.746004670385, -11909.367073698888, -26647.03448379451, -31654.60755283923, -40536.676709255786, 0.024, 1.012, 0.078, 192.0, 0.0, 0.0, 0.0, 0.0, 0.0, 0.0, 0.0, 0.0, 0.0, 1.695333544022446E9, 0.0, 2023-09-21 16:59:04.022
102.0, 15959.570224233894, 9788.186524890247, -27904.43186812781, -41337.45030611161, -26619.60889334785, 30112.918330778877, -187500.02235174447, -38669.79195711517, -16848.029714587894, -28288.770114036815, -43455.41220371869, -50574.35340575617, -11902.59449512893, -26635.65744586676, -31645.93507599057, -40526.77488646208, 0.024, 1.012, 0.078, 192.0, 0.0, 0.0, 0.0, 0.0, 0.0, 0.0, 0.0, 0.0, 0.0, 1.695333544022455E9, 0.0, 2023-09-21 16:59:04.022
104.0, 15946.092122327344, 9772.942635171728, -27910.645653086383, -41353.543562119434, -26627.543762629484, 30091.728877035246, -187500.02235174447, -38687.3827800015, -16860.65845020514, -28308.439649157484, -43471.43840449314, -50590.24549606389, -11914.21740224569, -26652.66712339725, -31650.74070104846, -40543.9186744593, 0.024, 1.012, 0.078, 192.0, 0.0, 0.0, 0.0, 0.0, 0.0, 0.0, 0.0, 0.0, 0.0, 1.695333544022464E9, 0.0, 2023-09-21 16:59:04.022
106.0, 15950.338953773851, 9779.022309663571, -27922.04504275859, -41353.6106173528, -26629.577771374916, 30108.71620282128, -187500.02235174447, -38683.33711425509, -16858.62444145971, -28304.50574213335, -43471.661921937695, -50589.418481519046, -11909.702349865718, -26651.70599838567, -31652.461785371517, -40546.28795937156, 0.024, 1.012, 0.078, 192.0, 0.0, 0.0, 0.0, 0.0, 0.0, 0.0, 0.0, 0.0, 0.0, 1.69533354408179E9, 0.0, 2023-09-21 16:59:04.081
108.0, 15957.9161951442, 9786.17486788927, -27916.166533966847, -41352.023643496475, -26628.41548066324, 30081.2012053968, -187500.02235174447, -38685.684047422896, -16852.388304756678, -28295.0286024843, -43464.41995673418, -50581.39420525959, -11907.780099842561, -26648.33088497292, -31654.875773772692, -40544.16454364831, 0.026000000000000002, 1.01, 0.076, 192.0, 0.0, 104.0, 15.5, 72.0, 1.0, 48.0, 0.0, 0.0, 0.0, 1.695333544081813E9, 0.0, 2023-09-21 16:59:04.081
110.0, 15956.128055587777, 9782.978568432161, -27931.1422027519, -41352.60478885231, -26639.233724979607, 30103.7541155522, -187500.02235174447, -38688.4333119909, -16859.138531582183, -28299.543654864272, -43470.812555648394, -50586.53510648431, -11915.044416790535, -26646.587448905404, -31662.989457009968, -40554.51340133112, 0.026000000000000002, 1.01, 0.076, 192.0, 0.0, 0.0, 0.0, 0.0, 0.0, 0.0, 0.0, 0.0, 0.0, 1.695333544081823E9, 0.0, 2023-09-21 16:59:04.081
112.0, 15963.638241724759, 9788.119469656882, -27926.537743394107, -41345.42987888216, -26644.08405352641, 30088.890205489424, -187500.02235174447, -38692.81425390414, -16852.81298790133, -28286.400829124552, -43463.81645963388, -50574.643978434084, -11909.076501020969, -26636.730329600614, -31672.533651892383, -40547.67376752779, 0.026000000000000002, 1.01, 0.076, 192.0, 0.0, 0.0, 0.0, 0.0, 0.0, 0.0, 0.0, 0.0, 0.0, 1.695333544081833E9, 0.0, 2023-09-21 16:59:04.081
114.0, 15953.289384041953, 9775.915417184284, -27946.453147703785, -41355.24229469804, -26656.80219612148, 30116.025223258166, -187500.02235174447, -38700.61501271904, -16857.976240870506, -28297.956681007945, -43472.75715741601, -50580.79070815929, -11921.079387793468, -26636.8867918118, -31676.512262405427, -40559.49784034465, 0.026000000000000002, 1.01, 0.076, 192.0, 0.0, 0.0, 0.0, 0.0, 0.0, 0.0, 0.0, 0.0, 0.0, 1.695333544081842E9, 0.0, 2023-09-21 16:59:04.081
116.0, 15958.363230033307, 9781.07867015346, -27937.311284221567, -41352.9624167636, -26648.040312294997, 30093.941699736322, -187500.02235174447, -38694.66944869393, -16861.28429904989, -28299.722468819913, -43475.17114581718, -50581.28244653731, -11929.014257075103, -26645.156937260264, -31684.26831773142, -40561.97888397919, 0.026000000000000002, 1.01, 0.076, 192.0, 0.0, 0.0, 0.0, 0.0, 0.0, 0.0, 0.0, 0.0, 0.0, 1.695333544081851E9, 0.0, 2023-09-21 16:59:04.081
118.0, 15964.06292486941, 9788.07476616797, -27938.38416795542, -41354.728204575564, -26644.620495393337, 30102.502417862706, -187500.02235174447, -38685.03584683369, -16852.29889777886, -28289.9771082374, -43465.3587300013, -50571.514734210345, -11921.369960471387, -26636.08212901141, -31672.667762359117, -40552.72526177469, 0.026000000000000002, 1.016, 0.076, 192.0, 0.0, 104.0, 15.5, 96.0, 1.0, 48.0, 0.0, 0.0, 0.0, 1.69533354408186E9, 0.0, 2023-09-21 16:59:04.081
120.0, 15967.147465604243, 9789.460574324201, -27928.884676561916, -41349.11791671728, -26639.211373235154, 30099.350821894506, -187500.02235174447, -38681.616029932025, -16856.76924666992, -28288.300727403253, -43465.20226779011, -50574.77808890082, -11923.023989561081, -26633.89165805479, -31676.489910660974, -40554.31223563102, 0.026000000000000002, 1.016, 0.076, 192.0, 0.0, 0.0, 0.0, 0.0, 0.0, 0.0, 0.0, 0.0, 0.0, 1.695333544141473E9, 0.0, 2023-09-21 16:59:04.141
122.0, 15956.195110821141, 9778.12823988536, -27938.38416795542, -41357.43276565466, -26647.14624251679, 30114.371194168474, -187500.02235174447, -38687.002800345756, -16858.28916529288, -28296.302651918253, -43467.21392479109, -50581.304798281766, -11923.40396921682, -26635.65744586676, -31664.88935528867, -40552.41233735232, 0.026000000000000002, 1.016, 0.076, 192.0, 0.0, 0.0, 0.0, 0.0, 0.0, 0.0, 0.0, 0.0, 0.0, 1.695333544141502E9, 0.0, 2023-09-21 16:59:04.141
124.0, 15948.48375898406, 9770.394536303824, -27937.646560388395, -41362.081928501364, -26643.525259915026, 30098.23323467174, -187500.02235174447, -38682.28658226569, -16865.464075263033, -28304.751611322357, -43477.89805864073, -50595.29699031079, -11922.219326760689, -26648.50969892856, -31671.25960245843, -40549.819534995506, 0.026000000000000002, 1.016, 0.076, 192.0, 0.0, 0.0, 0.0, 0.0, 0.0, 0.0, 0.0, 0.0, 0.0, 1.695333544141512E9, 0.0, 2023-09-21 16:59:04.141
126.0, 15943.856947881814, 9765.812428690486, -27948.66597040486, -41365.09941400283, -26648.219126250642, 30101.496589362217, -187500.02235174447, -38681.32545725411, -16875.72352596802, -28314.407564927053, -43489.81153843541, -50604.55061251529, -11931.02591407608, -26655.57285017644, -31667.258640200933, -40554.17812516429, 0.026000000000000002, 1.016, 0.076, 192.0, 0.0, 0.0, 0.0, 0.0, 0.0, 0.0, 0.0, 0.0, 0.0, 1.695333544141521E9, 0.0, 2023-09-21 16:59:04.141
128.0, 15954.898709642734, 9777.144763129327, -27937.423042943843, -41352.9624167636, -26636.976198789624, 30095.215749170275, -187500.02235174447, -38679.53731769769, -16865.732296196496, -28304.371631666618, -43481.384930775755, -50594.20175483248, -11922.934582583259, -26649.582582662417, -31670.812567569326, -40545.572703549, 0.028, 1.012, 0.08, 192.0, 0.0, 112.0, 15.5, 80.0, 1.0, 64.0, 0.0, 0.0, 0.0, 1.69533354414156E9, 0.0, 2023-09-21 16:59:04.141
130.0, 15955.323392787384, 9774.440202050233, -27929.845801573494, -41351.0625184849, -26637.356178445363, 30094.589900325525, -187500.02235174447, -38676.67629440741, -16865.687592707585, -28301.93529152099, -43476.7134161846, -50588.61381871865, -11914.2621057346, -26646.118062271842, -31658.54145986336, -40543.35988084792, 0.028, 1.012, 0.08, 192.0, 0.0, 0.0, 0.0, 0.0, 0.0, 0.0, 0.0, 0.0, 0.0, 1.69533354414157E9, 0.0, 2023-09-21 16:59:04.141
132.0, 15956.82095966589, 9772.137972371338, -27927.43181317232, -41348.447364383625, -26629.17543997472, 30092.42178111336, -187500.02235174447, -38676.83275661859, -16862.357182783744, -28306.472695645418, -43475.439366750645, -50592.34656004269, -11909.92586731027, -26645.425158193728, -31658.74262556346, -40537.79429647855, 0.028, 1.012, 0.08, 192.0, 0.0, 0.0, 0.0, 0.0, 0.0, 0.0, 0.0, 0.0, 0.0, 1.695333544141579E9, 0.0, 2023-09-21 16:59:04.141
134.0, 15949.355477017818, 9765.097172867916, -27929.75639459567, -41356.80691680991, -26635.970370289135, 30093.204092169297, -187500.02235174447, -38691.674314936914, -16866.335793296792, -28314.94400679398, -43480.334398786355, -50598.15801360107, -11915.916134824292, -26654.634076909315, -31651.254791170933, -40546.28795937156, 0.028, 1.012, 0.08, 192.0, 0.0, 0.0, 0.0, 0.0, 0.0, 0.0, 0.0, 0.0, 0.0, 1.695333544141589E9, 0.0, 2023-09-21 16:59:04.141
136.0, 15951.009506107512, 9768.293472325024, -27932.505659163675, -41350.414317895695, -26626.046195750976, 30088.95726072279, -187500.02235174447, -38683.96296309984, -16869.822665431817, -28317.1344777506, -43483.64245696574, -50599.543821757296, -11913.92682956777, -26654.74583563159, -31655.523974361895, -40547.65141578334, 0.028, 1.012, 0.08, 192.0, 0.0, 0.0, 0.0, 0.0, 0.0, 0.0, 0.0, 0.0, 0.0, 1.69533354420184E9, 0.0, 2023-09-21 16:59:04.201
138.0, 15952.372962519285, 9776.831838706952, -27932.81858358605, -41344.22288468157, -26624.392166661284, 30069.779463980136, -187500.02235174447, -38679.82789037561, -16869.15211309816, -28311.59124512568, -43485.27413431098, -50594.87230716614, -11913.032759789558, -26657.629210666324, -31649.13137544768, -40540.40945057982, 0.026000000000000002, 1.006, 0.076, 192.0, 0.0, 104.0, 15.5, 56.0, 1.0, 48.0, 0.0, 0.0, 0.0, 1.695333544201866E9, 0.0, 2023-09-21 16:59:04.201
140.0, 15963.951166147133, 9790.93578945825, -27926.00130152718, -41325.98386120604, -26621.933474771202, 30096.601557326503, -187500.02235174447, -38663.108785523036, -16857.90918563714, -28297.442590885472, -43473.22654404957, -50580.746004670385, -11907.869506820382, -26642.072396525433, -31654.138166205666, -40530.73114523067, 0.026000000000000002, 1.006, 0.076, 192.0, 0.0, 0.0, 0.0, 0.0, 0.0, 0.0, 0.0, 0.0, 0.0, 1.695333544201876E9, 0.0, 2023-09-21 16:59:04.201
142.0, 15967.259224326519, 9793.908571470807, -27930.404595184875, -41329.917768230174, -26636.79738483398, 30110.77256331117, -187500.02235174447, -38671.51304143823, -16862.401886272655, -28293.709849561437, -43473.29359928294, -50576.543876712785, -11916.318466224488, -26640.08309126891, -31656.350988906743, -40533.25689235412, 0.026000000000000002, 1.006, 0.076, 192.0, 0.0, 0.0, 0.0, 0.0, 0.0, 0.0, 0.0, 0.0, 0.0, 1.695333544201886E9, 0.0, 2023-09-21 16:59:04.201
144.0, 15976.40108780874, 9803.028083208572, -27934.80788884257, -41329.2025124076, -26631.477669653617, 30115.645243602426, -187500.02235174447, -38667.53443092518, -16847.80619714334, -28276.431951097486, -43460.776622387966, -50562.283463750304, -11906.684864364252, -26628.996626019078, -31660.754282564438, -40526.64077599535, 0.026000000000000002, 1.006, 0.076, 192.0, 0.0, 0.0, 0.0, 0.0, 0.0, 0.0, 0.0, 0.0, 0.0, 1.695333544201895E9, 0.0, 2023-09-21 16:59:04.201
146.0, 15963.705296958125, 9790.399347591323, -27943.078034291037, -41349.073213228374, -26640.485422669106, 30096.132170692945, -187500.02235174447, -38681.191346787375, -16851.829511145297, -28288.770114036815, -43470.25376203701, -50571.89471386608, -11909.948219054726, -26643.681722126214, -31661.111910475724, -40539.00129067914, 0.026000000000000002, 1.006, 0.076, 192.0, 0.0, 0.0, 0.0, 0.0, 0.0, 0.0, 0.0, 0.0, 0.0, 1.695333544201904E9, 0.0, 2023-09-21 16:59:04.201
148.0, 15955.055171853921, 9784.69965275522, -27951.05760706158, -41360.38319592276, -26645.827489593925, 30103.19532194082, -187500.02235174447, -38684.78997764468, -16867.85571191975, -28299.007212997345, -43483.687160454654, -50583.96465587195, -11922.196975016233, -26651.683646641213, -31674.813529826824, -40557.64264555486, 0.028, 1.006, 0.078, 192.0, 0.0, 112.0, 15.5, 56.0, 1.0, 56.0, 0.0, 0.0, 0.0, 1.695333544201953E9, 0.0, 2023-09-21 16:59:04.201
150.0, 15952.127093330277, 9781.123373642371, -27944.15091802489, -41362.32779769037, -26640.217201735642, 30084.352801364996, -187500.02235174447, -38682.241878776775, -16864.05591536235, -28299.856579286647, -43478.70272144112, -50584.85872565016, -11921.369960471387, -26658.143300788797, -31668.666800101615, -40552.72526177469, 0.028, 1.006, 0.078, 192.0, 0.0, 0.0, 0.0, 0.0, 0.0, 0.0, 0.0, 0.0, 0.0, 1.695333544262079E9, 0.0, 2023-09-21 16:59:04.262
152.0, 15954.272860797986, 9785.996053933628, -27953.33748499602, -41364.182992480164, -26640.865402324845, 30099.417877127875, -187500.02235174447, -38676.13985254048, -16869.040354375884, -28305.51157063384, -43483.8659744103, -50592.03363562032, -11922.822823860983, -26655.237574009607, -31669.739683835473, -40556.994444965654, 0.028, 1.006, 0.078, 192.0, 0.0, 0.0, 0.0, 0.0, 0.0, 0.0, 0.0, 0.0, 0.0, 1.695333544262104E9, 0.0, 2023-09-21 16:59:04.262
154.0, 15949.690753184648, 9781.369242831379, -27953.13631929592, -41372.87782107328, -26640.93245755821, 30088.174949666853, -187500.02235174447, -38680.565497942625, -16866.089924107782, -28305.176294467008, -43482.45781450961, -50594.53703099931, -11919.738283126151, -26657.316286243953, -31671.013733269425, -40557.150907176845, 0.028, 1.006, 0.078, 192.0, 0.0, 0.0, 0.0, 0.0, 0.0, 0.0, 0.0, 0.0, 0.0, 1.695333544262114E9, 0.0, 2023-09-21 16:59:04.262
156.0, 15952.328259030373, 9782.866809709885, -27953.181022784833, -41367.468698915094, -26634.338692943897, 30121.05436576061, -187500.02235174447, -38675.044617062165, -16864.681764207096, -28309.35607068015, -43486.279962811466, -50600.37083630214, -11915.98319005766, -26657.80802462197, -31673.74064609297, -40558.93904673327, 0.028, 1.006, 0.078, 192.0, 0.0, 0.0, 0.0, 0.0, 0.0, 0.0, 0.0, 0.0, 0.0, 1.695333544262124E9, 0.0, 2023-09-21 16:59:04.262
158.0, 15956.239814310053, 9781.79392597603, -27934.964351053757, -41360.897286045234, -26628.393128918786, 30118.036880259144, -187500.02235174447, -38676.31866649612, -16860.189063571583, -28305.84684680067, -43485.40824477771, -50596.7945571893, -11903.801489329517, -26652.64477165279, -31668.242116956964, -40550.53479081807, 0.026000000000000002, 1.014, 0.076, 192.0, 0.0, 104.0, 15.5, 88.0, 1.0, 48.0, 0.0, 0.0, 0.0, 1.695333544262133E9, 0.0, 2023-09-21 16:59:04.262
160.0, 15959.525520744983, 9782.442126565235, -27939.367644711456, -41366.10524250332, -26638.205544734665, 30141.77443287068, -187500.02235174447, -38686.42165498992, -16862.51364499493, -28302.717602576926, -43487.93399190116, -50599.29795256829, -11912.69748362273, -26648.710864628658, -31671.304305947342, -40562.15769793483, 0.026000000000000002, 1.014, 0.076, 192.0, 0.0, 0.0, 0.0, 0.0, 0.0, 0.0, 0.0, 0.0, 0.0, 1.695333544262143E9, 0.0, 2023-09-21 16:59:04.262
162.0, 15946.405046749718, 9756.491751252623, -27943.234496502224, -41371.49201291705, -26638.65257962377, 30106.637490586938, -187500.02235174447, -38697.642230706486, -16867.85571191975, -28327.952722066966, -43492.38198904777, -50609.57975501773, -11904.650855618818, -26668.93919336071, -31676.489910660974, -40573.020645740115, 0.026000000000000002, 1.014, 0.076, 192.0, 0.0, 0.0, 0.0, 0.0, 0.0, 0.0, 0.0, 0.0, 0.0, 1.695333544262153E9, 0.0, 2023-09-21 16:59:04.262
164.0, 15957.312698043908, 9762.817294933475, -27946.654313403884, -41370.8661640723, -26645.425158193728, 30130.620912387483, -187500.02235174447, -38690.80259690316, -16862.51364499493, -28336.51344019335, -43485.27413431098, -50610.13854862911, -11914.195050501234, -26669.14035906081, -31672.55600363684, -40572.37244515091, 0.026000000000000002, 1.014, 0.076, 192.0, 0.0, 0.0, 0.0, 0.0, 0.0, 0.0, 0.0, 0.0, 0.0, 1.695333544262162E9, 0.0, 2023-09-21 16:59:04.262
166.0, 15973.897692429746, 9777.524742785066, -27941.803984857084, -41354.97407376458, -26636.529163900515, 30112.471295889773, -187500.02235174447, -38676.20690777384, -16847.873252376707, -28320.733108607903, -43476.86987839579, -50602.404845047575, -11913.368035956388, -26662.837167124413, -31680.98261129649, -40565.10812820293, 0.026000000000000002, 1.014, 0.076, 192.0, 0.0, 0.0, 0.0, 0.0, 0.0, 0.0, 0.0, 0.0, 0.0, 1.69533354432175E9, 0.0, 2023-09-21 16:59:04.321
168.0, 15962.453599268629, 9771.847399693419, -27957.316095509064, -41363.534791890954, -26651.549536174483, 30134.711281622804, -187500.02235174447, -38682.28658226569, -16849.057894832837, -28322.185971997496, -43479.485032497054, -50600.035560135315, -11915.223230746178, -26653.404730964274, -31675.46173041603, -40558.38025312188, 0.026000000000000002, 1.014, 0.076, 192.0, 0.0, 104.0, 15.5, 88.0, 1.0, 48.0, 0.0, 0.0, 0.0, 1.695333544321774E9, 0.0, 2023-09-21 16:59:04.321
170.0, 15969.293233071952, 9781.592760275933, -27954.902107107893, -41361.79135582344, -26653.114158286353, 30139.740424125248, -187500.02235174447, -38689.237974791286, -16851.985973356484, -28313.871123060126, -43480.42380576418, -50592.03363562032, -11920.900573837826, -26657.00336182158, -31687.241099743977, -40561.487145601175, 0.026000000000000002, 1.014, 0.076, 192.0, 0.0, 0.0, 0.0, 0.0, 0.0, 0.0, 0.0, 0.0, 0.0, 1.695333544321816E9, 0.0, 2023-09-21 16:59:04.321
172.0, 15971.751924962036, 9786.264274867091, -27956.846708875502, -41364.607675624815, -26659.75262638958, 30155.78897664416, -187500.02235174447, -38693.26128879324, -16852.410656501135, -28305.22099795592, -43476.758119673505, -50582.04240584879, -11924.722722139684, -26655.863422854356, -31683.396599697662, -40568.14796544886, 0.026000000000000002, 1.014, 0.076, 192.0, 0.0, 0.0, 0.0, 0.0, 0.0, 0.0, 0.0, 0.0, 0.0, 1.695333544321826E9, 0.0, 2023-09-21 16:59:04.321
174.0, 15978.613910509815, 9794.534420315555, -27946.14022328141, -41360.13732673375, -26648.822623350934, 30117.567493625582, -187500.02235174447, -38686.9804486013, -16847.76149365443, -28293.73220130589, -43467.88447712475, -50574.06283307825, -11922.912230838803, -26654.835242609413, -31687.777541610903, -40565.97984623669, 0.026000000000000002, 1.014, 0.076, 192.0, 0.0, 0.0, 0.0, 0.0, 0.0, 0.0, 0.0, 0.0, 0.0, 1.695333544321835E9, 0.0, 2023-09-21 16:59:04.321
176.0, 15979.105648887831, 9796.769594761086, -27946.475499448243, -41364.115937246796, -26645.13458551581, 30107.129228964954, -187500.02235174447, -38687.13691081249, -16845.57102269781, -28293.37457339461, -43465.26932302348, -50576.409766246055, -11914.463271434697, -26654.857594353867, -31674.56766063782, -40564.325817147, 0.026000000000000002, 1.014, 0.076, 192.0, 0.0, 0.0, 0.0, 0.0, 0.0, 0.0, 0.0, 0.0, 0.0, 1.695333544321845E9, 0.0, 2023-09-21 16:59:04.321
178.0, 15965.135808603265, 9782.755050987607, -27949.113005293966, -41380.32095197689, -26652.153033274775, 30115.24291220223, -187500.02235174447, -38702.80548367566, -16847.29210702087, -28294.961547250936, -43472.287770782445, -50584.43404250551, -11916.251410991123, -26656.60103042138, -31679.88737581818, -40568.08091021549, 0.018000000000000002, 1.006, 0.07200000000000001, 192.0, 0.0, 72.0, 15.5, 56.0, 1.0, 32.0, 0.0, 0.0, 0.0, 1.695333544321855E9, 0.0, 2023-09-21 16:59:04.321
180.0, 15963.437076024662, 9782.12920214286, -27948.01776981566, -41379.493937432046, -26655.058760053966, 30116.807534314103, -187500.02235174447, -38702.09022785309, -16859.160883326636, -28302.18116071, -43482.72603544308, -50597.308647311766, -11919.335951725954, -26667.374571248838, -31680.73674210748, -40579.100320231955, 0.018000000000000002, 1.006, 0.07200000000000001, 192.0, 0.0, 0.0, 0.0, 0.0, 0.0, 0.0, 0.0, 0.0, 0.0, 1.695333544382079E9, 0.0, 2023-09-21 16:59:04.382
182.0, 15970.477875528084, 9785.683129511253, -27930.80692658507, -41364.04888201343, -26643.972294804134, 30124.787107084645, -187500.02235174447, -38689.19327130238, -16847.00153434295, -28291.541730349272, -43477.473375496076, -50590.84899316418, -11920.07355929298, -26659.059722311464, -31683.687172375583, -40569.62318058291, 0.018000000000000002, 1.006, 0.07200000000000001, 192.0, 0.0, 0.0, 0.0, 0.0, 0.0, 0.0, 0.0, 0.0, 0.0, 1.695333544382104E9, 0.0, 2023-09-21 16:59:04.382
184.0, 15965.560491747916, 9778.061184651993, -27929.555228895573, -41365.47939365857, -26645.64867563828, 30119.37798492646, -187500.02235174447, -38695.09413183858, -16847.314458765326, -28288.83716927018, -43475.88640163975, -50584.791670416795, -11913.010408045104, -26657.13747228831, -31674.947640293558, -40566.024549725604, 0.018000000000000002, 1.006, 0.07200000000000001, 192.0, 0.0, 0.0, 0.0, 0.0, 0.0, 0.0, 0.0, 0.0, 0.0, 1.695333544382114E9, 0.0, 2023-09-21 16:59:04.382
186.0, 15970.366116805806, 9781.212780620192, -27933.690301619805, -41364.49591690253, -26649.046140795486, 30129.078642020067, -187500.02235174447, -38703.006649375755, -16844.699304664053, -28283.293936645263, -43472.712453927095, -50581.215391303944, -11908.093024264936, -26653.404730964274, -31679.954431051545, -40564.99636948066, 0.018000000000000002, 1.006, 0.07200000000000001, 192.0, 0.0, 0.0, 0.0, 0.0, 0.0, 0.0, 0.0, 0.0, 0.0, 1.695333544382124E9, 0.0, 2023-09-21 16:59:04.382
188.0, 15971.349593561841, 9779.603455019409, -27927.409461427866, -41363.355977935316, -26651.08014954092, 30124.429479173363, -187500.02235174447, -38701.531434241704, -16835.75860688193, -28283.606861067638, -43472.66775043819, -50583.71878668294, -11907.869506820382, -26657.40569322177, -31681.854329330246, -40572.30538991754, 0.02, 1.014, 0.07200000000000001, 192.0, 0.0, 80.0, 15.5, 88.0, 1.0, 32.0, 0.0, 0.0, 0.0, 1.695333544382134E9, 0.0, 2023-09-21 16:59:04.382
190.0, 15966.365154548306, 9774.12727762786, -27937.51244992166, -41368.04984427093, -26660.378475234327, 30136.030034545667, -187500.02235174447, -38705.532396499206, -16841.36889474021, -28286.199663424453, -43477.07104409588, -50589.32907454122, -11912.429262689266, -26653.9411728312, -31686.83876834378, -40576.08283473049, 0.02, 1.014, 0.07200000000000001, 192.0, 0.0, 0.0, 0.0, 0.0, 0.0, 0.0, 0.0, 0.0, 0.0, 1.695333544382144E9, 0.0, 2023-09-21 16:59:04.382
192.0, 15967.818017937901, 9772.249731093614, -27939.21118250027, -41367.20047798163, -26660.244364767597, 30112.67246158987, -187500.02235174447, -38706.292355810685, -16843.782883141386, -28284.25506165684, -43480.49086099755, -50587.3397692847, -11913.390387700843, -26657.9421350887, -31685.40825669864, -40575.65815158584, 0.02, 1.014, 0.07200000000000001, 192.0, 0.0, 0.0, 0.0, 0.0, 0.0, 0.0, 0.0, 0.0, 0.0, 1.695333544382186E9, 0.0, 2023-09-21 16:59:04.382
194.0, 15976.199922108643, 9777.547094529522, -27945.849650603494, -41366.909905303706, -26659.104425800375, 30126.44113617434, -187500.02235174447, -38701.59848947507, -16839.312534250323, -28279.091808687666, -43474.947628372625, -50576.00743484586, -11910.64112313284, -26653.963524575654, -31678.0768845173, -40569.91375326082, 0.02, 1.014, 0.07200000000000001, 192.0, 0.0, 0.0, 0.0, 0.0, 0.0, 0.0, 0.0, 0.0, 0.0, 1.695333544382196E9, 0.0, 2023-09-21 16:59:04.382
196.0, 15975.708183730625, 9774.551960772511, -27948.844784360503, -41376.58821065286, -26662.1442630463, 30100.04372597262, -187500.02235174447, -38709.600413990076, -16843.492310463465, -28283.986840723377, -43476.24402955104, -50575.426289490024, -11916.78785285805, -26667.79925439349, -31677.942774050567, -40577.33453241998, 0.02, 1.014, 0.07200000000000001, 192.0, 0.0, 0.0, 0.0, 0.0, 0.0, 0.0, 0.0, 0.0, 0.0, 1.695333544442264E9, 0.0, 2023-09-21 16:59:04.442
198.0, 15994.528352561994, 9796.344911616436, -27941.49106043471, -41364.85354481382, -26645.71573087165, 30117.254569203207, -187500.02235174447, -38685.885213122994, -16838.932554594583, -28270.55344230574, -43468.5103259695, -50566.060908563246, -11920.855870348916, -26661.51841420155, -31670.74551233596, -40567.94679974876, 0.02, 1.006, 0.074, 192.0, 0.0, 80.0, 15.5, 56.0, 1.0, 40.0, 0.0, 0.0, 0.0, 1.695333544442308E9, 0.0, 2023-09-21 16:59:04.442
200.0, 15997.098803174355, 9798.736548273153, -27931.499830663186, -41363.355977935316, -26636.327998200417, 30099.708449805792, -187500.02235174447, -38690.42261724742, -16825.633266643676, -28260.49515730085, -43453.31113973989, -50555.55558866925, -11905.053187019013, -26657.60685892187, -31660.508413375428, -40555.13925017587, 0.02, 1.006, 0.074, 192.0, 0.0, 0.0, 0.0, 0.0, 0.0, 0.0, 0.0, 0.0, 0.0, 1.695333544442319E9, 0.0, 2023-09-21 16:59:04.442
202.0, 15992.516695561017, 9795.517897071588, -27940.708749378773, -41365.54644889193, -26639.859573824357, 30126.01645302969, -187500.02235174447, -38690.10969282505, -16835.959772582028, -28267.044218426254, -43460.03901482094, -50561.12117303863, -11910.596419643929, -26661.585469434915, -31657.69209357406, -40559.34137813347, 0.02, 1.006, 0.074, 192.0, 0.0, 0.0, 0.0, 0.0, 0.0, 0.0, 0.0, 0.0, 0.0, 1.695333544442329E9, 0.0, 2023-09-21 16:59:04.442
204.0, 15991.153239149242, 9792.500411570121, -27932.01392078566, -41363.28892270195, -26637.803213334468, 30093.89699624741, -187500.02235174447, -38691.674314936914, -16836.786787126875, -28266.865404470613, -43461.246009021525, -50562.372870728126, -11912.652780133818, -26669.497986972096, -31663.794119810358, -40558.40260486634, 0.02, 1.006, 0.074, 192.0, 0.0, 0.0, 0.0, 0.0, 0.0, 0.0, 0.0, 0.0, 0.0, 1.695333544442339E9, 0.0, 2023-09-21 16:59:04.442
206.0, 15980.714974488614, 9785.169039388782, -27945.15674652538, -41362.61837036829, -26648.621457650836, 30110.370231910973, -187500.02235174447, -38692.63543994849, -16837.971429583005, -28267.20068063744, -43463.190610789134, -50559.489495693386, -11912.853945833916, -26660.400826978785, -31666.342218678263, -40556.81563101002, 0.02, 1.006, 0.074, 192.0, 0.0, 0.0, 0.0, 0.0, 0.0, 0.0, 0.0, 0.0, 0.0, 1.695333544442349E9, 0.0, 2023-09-21 16:59:04.442
208.0, 15988.247512370053, 9791.136955158348, -27930.67281611834, -41353.6106173528, -26640.12779475782, 30089.985440967735, -187500.02235174447, -38684.141777055476, -16841.033618573383, -28271.380456850584, -43465.090509067835, -50561.523504438825, -11916.877259835872, -26665.340562503407, -31673.673590859606, -40556.592113565464, 0.026000000000000002, 1.01, 0.068, 192.0, 0.0, 104.0, 15.5, 72.0, 1.0, 16.0, 0.0, 0.0, 0.0, 1.695333544442358E9, 0.0, 2023-09-21 16:59:04.442
210.0, 15982.659576256227, 9786.308978356003, -27939.881734833925, -41359.39971916672, -26646.162765760753, 30125.703528607315, -187500.02235174447, -38686.95809685685, -16838.03848481637, -28271.40280859504, -43465.112860812296, -50562.6857951505, -11910.64112313284, -26660.84786186789, -31664.442320399565, -40550.288921629064, 0.026000000000000002, 1.01, 0.068, 192.0, 0.0, 0.0, 0.0, 0.0, 0.0, 0.0, 0.0, 0.0, 0.0, 1.695333544502656E9, 0.0, 2023-09-21 16:59:04.502
212.0, 15986.437021069172, 9789.661740024298, -27933.712653364262, -41360.13732673375, -26639.32313195743, 30106.995118498224, -187500.02235174447, -38688.120387568524, -16840.94421159556, -28274.956735963435, -43469.493802725534, -50569.078394064716, -11910.417605688288, -26668.84978638289, -31668.97972452399, -40553.39581410835, 0.026000000000000002, 1.01, 0.068, 192.0, 0.0, 0.0, 0.0, 0.0, 0.0, 0.0, 0.0, 0.0, 0.0, 1.695333544502682E9, 0.0, 2023-09-21 16:59:04.502
214.0, 15981.609044266826, 9787.739490001142, -27940.038197045113, -41366.75344309252, -26648.688512884204, 30131.939665310347, -187500.02235174447, -38692.41192250394, -16835.780958626387, -28272.319230117708, -43465.82811663486, -50566.17266728552, -11901.16398348379, -26661.160786290264, -31664.21880295501, -40555.45217459824, 0.026000000000000002, 1.01, 0.068, 192.0, 0.0, 0.0, 0.0, 0.0, 0.0, 0.0, 0.0, 0.0, 0.0, 1.695333544502722E9, 0.0, 2023-09-21 16:59:04.502
216.0, 15981.117305888809, 9787.60537953441, -27936.66308363236, -41369.4133006827, -26646.74391111659, 30101.54129285113, -187500.02235174447, -38701.062047608146, -16837.166766782615, -28275.31436387472, -43466.565724201886, -50566.86557136364, -11913.815070845494, -26666.927536359733, -31672.75716933694, -40563.11882294641, 0.026000000000000002, 1.01, 0.068, 192.0, 0.0, 0.0, 0.0, 0.0, 0.0, 0.0, 0.0, 0.0, 0.0, 1.695333544502732E9, 0.0, 2023-09-21 16:59:04.502
218.0, 15985.744116991058, 9789.549981302021, -27929.823449829037, -41364.674730858176, -26638.630227879315, 30103.19532194082, -187500.02235174447, -38688.94740211337, -16835.04335105936, -28272.60980279563, -43463.414128233686, -50560.22710326041, -11906.796623086528, -26665.80994913697, -31665.13522447768, -40564.147003191356, 0.024, 1.012, 0.074, 192.0, 0.0, 96.0, 15.5, 80.0, 1.0, 40.0, 0.0, 0.0, 0.0, 1.695333544502741E9, 0.0, 2023-09-21 16:59:04.502
220.0, 15982.056079155933, 9782.643292265331, -27936.73013886573, -41367.871030315284, -26635.344521444385, 30092.91351949138, -187500.02235174447, -38691.00376260326, -16837.14441503816, -28272.721561517905, -43467.37038700228, -50564.09395505118, -11904.829669574461, -26660.93726884571, -31664.64348609966, -40560.59307582296, 0.024, 1.012, 0.074, 192.0, 0.0, 0.0, 0.0, 0.0, 0.0, 0.0, 0.0, 0.0, 0.0, 1.695333544502751E9, 0.0, 2023-09-21 16:59:04.502
222.0, 15980.759677977525, 9777.79296371853, -27942.027502301637, -41373.32485596238, -26644.66519888225, 30107.330394665052, -187500.02235174447, -38696.591698717086, -16842.86646161872, -28279.96352672142, -43473.003026605016, -50574.91219936755, -11913.256277234112, -26666.748722404092, -31662.87769828769, -40565.041072969565, 0.024, 1.012, 0.074, 192.0, 0.0, 0.0, 0.0, 0.0, 0.0, 0.0, 0.0, 0.0, 0.0, 1.695333544502761E9, 0.0, 2023-09-21 16:59:04.502
224.0, 15974.300023829941, 9770.059260136994, -27945.76024362567, -41375.783547852465, -26642.586486647906, 30104.715240563783, -187500.02235174447, -38692.76955041523, -16846.10746456474, -28283.8750820011, -43474.45588999461, -50585.26105705036, -11921.682884893762, -26671.04025733951, -31672.019561769914, -40569.13144220489, 0.024, 1.012, 0.074, 192.0, 0.0, 0.0, 0.0, 0.0, 0.0, 0.0, 0.0, 0.0, 0.0, 1.695333544502772E9, 0.0, 2023-09-21 16:59:04.502
226.0, 15988.538085047972, 9777.949425929717, -27937.28893247711, -41366.2617047145, -26636.17153598923, 30102.256548673697, -187500.02235174447, -38686.39930324547, -16830.52829867939, -28285.75262853535, -43460.128421798756, -50576.32035926823, -11906.126070752869, -26669.65444918328, -31656.12747146219, -40554.24518039765, 0.024, 1.012, 0.074, 192.0, 0.0, 0.0, 0.0, 0.0, 0.0, 0.0, 0.0, 0.0, 0.0, 1.695333544561998E9, 0.0, 2023-09-21 16:59:04.561
228.0, 15991.175590893698, 9783.447955065723, -27938.875906333436, -41362.19368722364, -26638.160841245754, 30101.809513784592, -187500.02235174447, -38691.048466092165, -16828.4719381895, -28284.165654679022, -43460.17312528767, -50572.76643189984, -11911.73635861115, -26664.155920047277, -31664.352913421742, -40561.08481420098, 0.028, 1.012, 0.07, 192.0, 0.0, 112.0, 15.5, 80.0, 1.0, 24.0, 0.0, 0.0, 0.0, 1.695333544562019E9, 0.0, 2023-09-21 16:59:04.562
230.0, 15991.98025369409, 9782.576237031966, -27931.969217296748, -41355.152887720214, -26637.870268567833, 30097.652089315903, -187500.02235174447, -38694.065951593635, -16823.53220266488, -28272.11806441761, -43452.17120077267, -50561.61291141664, -11899.331140438455, -26658.65739091127, -31656.663913329117, -40555.2733606426, 0.028, 1.012, 0.07, 192.0, 0.0, 0.0, 0.0, 0.0, 0.0, 0.0, 0.0, 0.0, 0.0, 1.695333544562033E9, 0.0, 2023-09-21 16:59:04.562
232.0, 15985.028861168488, 9776.384803817846, -27938.76414761116, -41358.885629044256, -26639.636056379804, 30104.223502185763, -187500.02235174447, -38692.85895739305, -16832.271734746904, -28286.378477380094, -43462.65416892221, -50576.745042412884, -11907.713044609196, -26666.212280537165, -31665.582259366784, -40560.83894501197, 0.028, 1.012, 0.07, 192.0, 0.0, 0.0, 0.0, 0.0, 0.0, 0.0, 0.0, 0.0, 0.0, 1.695333544562043E9, 0.0, 2023-09-21 16:59:04.562
234.0, 15991.68968101617, 9776.45185905121, -27933.06445277506, -41359.31031218891, -26635.27746621102, 30088.510225833685, -187500.02235174447, -38685.63934393398, -16830.371836468203, -28286.400829124552, -43463.347073000325, -50579.78487965881, -11911.602248144418, -26666.435797981718, -31656.328637162285, -40553.574628063994, 0.028, 1.012, 0.07, 192.0, 0.0, 0.0, 0.0, 0.0, 0.0, 0.0, 0.0, 0.0, 0.0, 1.695333544562052E9, 0.0, 2023-09-21 16:59:04.562
236.0, 15995.601236295848, 9777.591798018431, -27937.177173754833, -41371.53671640596, -26640.99951279158, 30090.588938068027, -187500.02235174447, -38691.00376260326, -16828.85191784524, -28291.765247793825, -43464.21879103408, -50583.316455282744, -11908.294189965032, -26670.61557419486, -31666.342218678263, -40558.24614265515, 0.028, 1.012, 0.07, 192.0, 0.0, 0.0, 0.0, 0.0, 0.0, 0.0, 0.0, 0.0, 0.0, 1.695333544562093E9, 0.0, 2023-09-21 16:59:04.562
238.0, 15988.44867807015, 9768.516989769578, -27936.86424933246, -41383.76312062301, -26644.732254115614, 30082.542310064116, -187500.02235174447, -38697.75398942876, -16833.411673714123, -28296.21324494043, -43465.64930267922, -50586.468051250944, -11912.473966178175, -26678.885719643324, -31664.822300055304, -40565.93514274778, 0.03, 1.014, 0.07, 192.0, 0.0, 120.0, 15.5, 88.0, 1.0, 24.0, 0.0, 0.0, 0.0, 1.695333544562102E9, 0.0, 2023-09-21 16:59:04.562
240.0, 15984.313605345918, 9766.08064962395, -27947.660141904373, -41391.42976897118, -26650.633114651813, 30102.34595565152, -187500.02235174447, -38703.23016682031, -16848.230880287992, -28309.266663702332, -43480.64732320873, -50599.36500780166, -11923.761597128105, -26688.51932150356, -31673.226555970497, -40578.94385802077, 0.03, 1.014, 0.07, 192.0, 0.0, 0.0, 0.0, 0.0, 0.0, 0.0, 0.0, 0.0, 0.0, 1.69533354462185E9, 0.0, 2023-09-21 16:59:04.621
242.0, 15986.437021069172, 9767.175885102259, -27937.33363596602, -41391.921507349194, -26647.99560880609, 30093.09233344702, -187500.02235174447, -38699.98916387429, -16838.5749266833, -28304.21516945543, -43469.44909923662, -50592.905353654074, -11915.245582490634, -26692.721449461158, -31671.483119902983, -40575.188764952276, 0.03, 1.014, 0.07, 192.0, 0.0, 0.0, 0.0, 0.0, 0.0, 0.0, 0.0, 0.0, 0.0, 1.695333544621874E9, 0.0, 2023-09-21 16:59:04.621
244.0, 15994.21542813962, 9776.02717590656, -27932.729176608227, -41379.29277173195, -26638.429062179217, 30111.666633089382, -187500.02235174447, -38685.79580614517, -16832.428196958088, -28299.36484090863, -43465.93987535714, -50589.79846117478, -11907.713044609196, -26681.210301066676, -31668.756207079437, -40566.31512240352, 0.03, 1.014, 0.07, 192.0, 0.0, 0.0, 0.0, 0.0, 0.0, 0.0, 0.0, 0.0, 0.0, 1.695333544621887E9, 0.0, 2023-09-21 16:59:04.621
246.0, 15986.861704213823, 9768.137010113836, -27930.38224344042, -41381.013856055004, -26643.45820468166, 30104.24585393022, -187500.02235174447, -38694.44593124938, -16830.796519612853, -28294.872140273113, -43462.4082997332, -50586.95978962896, -11901.990998028637, -26682.95373713419, -31663.50354713244, -40562.35886363493, 0.03, 1.014, 0.07, 192.0, 0.0, 0.0, 0.0, 0.0, 0.0, 0.0, 0.0, 0.0, 0.0, 1.695333544621897E9, 0.0, 2023-09-21 16:59:04.621
248.0, 15990.706204260136, 9772.786172960541, -27931.52218240764, -41376.31998971939, -26651.70599838567, 30124.273016962175, -187500.02235174447, -38699.43037026291, -16835.266868503913, -28299.94598626447, -43465.91752361268, -50588.01032161836, -11911.423434188777, -26679.46686499916, -31667.906840790136, -40567.05272997054, 0.028, 1.014, 0.066, 192.0, 0.0, 112.0, 15.5, 88.0, 1.0, 8.0, 0.0, 0.0, 0.0, 1.695333544621906E9, 0.0, 2023-09-21 16:59:04.621
250.0, 15988.605140281337, 9770.103963625905, -27934.584371398018, -41373.36955945129, -26651.638943152302, 30108.53738886564, -187500.02235174447, -38709.13102735651, -16832.696417891555, -28299.208378697444, -43462.83298287785, -50580.34367327019, -11914.753844112616, -26682.014963867066, -31671.46076815853, -40569.48907011617, 0.028, 1.014, 0.066, 192.0, 0.0, 0.0, 0.0, 0.0, 0.0, 0.0, 0.0, 0.0, 0.0, 1.695333544621915E9, 0.0, 2023-09-21 16:59:04.621
252.0, 16000.40686135374, 9785.772536489074, -27921.866228802948, -41355.935198776155, -26635.500983655573, 30126.239970474242, -187500.02235174447, -38688.835643391096, -16821.5205456639, -28292.815779783225, -43452.26060775049, -50571.60414118817, -11907.73539635365, -26673.99068760761, -31666.36457042272, -40563.90113400235, 0.028, 1.014, 0.066, 192.0, 0.0, 0.0, 0.0, 0.0, 0.0, 0.0, 0.0, 0.0, 0.0, 1.695333544621924E9, 0.0, 2023-09-21 16:59:04.621
254.0, 15989.275692614996, 9771.489771782133, -27930.53870565161, -41363.84771631333, -26636.46210866715, 30110.01260399969, -187500.02235174447, -38696.63640220599, -16820.537068907866, -28288.345430892165, -43453.44525020662, -50572.25234177737, -11903.533268396053, -26672.448417240194, -31660.1731372086, -40556.569761821, 0.028, 1.014, 0.066, 192.0, 0.0, 0.0, 0.0, 0.0, 0.0, 0.0, 0.0, 0.0, 0.0, 1.695333544621933E9, 0.0, 2023-09-21 16:59:04.621
0.0, 16000.317454375918, 9777.345928829423, -27929.555228895573, -41356.002254009516, -26621.195867204176, 30121.926083794366, -187500.02235174447, -38677.19038452988, -16818.3689496957, -28294.64862282856, -43455.725128141064, -50580.746004670385, -11898.370015426877, -26673.43189399623, -31658.720273819006, -40553.84284899746, 0.028, 1.014, 0.066, 192.0, 0.0, 0.0, 0.0, 0.0, 0.0, 0.0, 0.0, 0.0, 0.0, 1.695333544681948E9, 0.0, 2023-09-21 16:59:04.681
2.0, 15992.315529860918, 9770.439239792733, -27927.588275383507, -41366.79814658143, -26623.40868990525, 30112.605406356506, -187500.02235174447, -38682.9794863438, -16817.541935150854, -28292.480503616396, -43452.66293915069, -50579.896638381084, -11893.251465946612, -26669.14035906081, -31653.087634216266, -40547.38319484988, 0.022, 1.018, 0.064, 192.0, 0.0, 88.0, 15.5, 104.0, 1.0, 0.0, 0.0, 0.0, 0.0, 1.695333544681972E9, 0.0, 2023-09-21 16:59:04.681
4.0, 15999.803364253446, 9781.70451899821, -27928.974083539735, -41366.52992564797, -26623.65455909426, 30117.679252347858, -187500.02235174447, -38677.078625807604, -16822.436967186568, -28295.185064695488, -43458.98848283154, -50583.316455282744, -11899.331140438455, -26676.85171089789, -31660.35195116424, -40558.35790137743, 0.022, 1.018, 0.064, 192.0, 0.0, 0.0, 0.0, 0.0, 0.0, 0.0, 0.0, 0.0, 0.0, 1.695333544681982E9, 0.0, 2023-09-21 16:59:04.681
6.0, 15998.439907841672, 9779.379937574857, -27923.497906148186, -41372.58724839536, -26624.12394572782, 30116.11463023599, -187500.02235174447, -38682.9794863438, -16814.636208371667, -28283.763323278825, -43452.75234612851, -50574.800440645275, -11893.944370024727, -26670.36970500585, -31658.608515096726, -40550.78066000708, 0.022, 1.018, 0.064, 192.0, 0.0, 0.0, 0.0, 0.0, 0.0, 0.0, 0.0, 0.0, 0.0, 1.695333544681991E9, 0.0, 2023-09-21 16:59:04.681
8.0, 15993.701338017147, 9773.657890994298, -27938.56298191106, -41381.99733281104, -26635.322169699928, 30122.9095605504, -187500.02235174447, -38687.628649190505, -16821.60995264172, -28290.93823324898, -43464.97875034556, -50581.81888840424, -11902.97447478467, -26676.538786475514, -31664.71054133303, -40561.3753868789, 0.022, 1.018, 0.064, 192.0, 0.0, 0.0, 0.0, 0.0, 0.0, 0.0, 0.0, 0.0, 0.0, 1.695333544682E9, 0.0, 2023-09-21 16:59:04.682
10.0, 15999.713957275626, 9778.93290268575, -27927.38710968341, -41374.06246352941, -26629.354253930363, 30106.704545820303, -187500.02235174447, -38685.43817823388, -16820.939400308063, -28290.491198359872, -43462.162430544195, -50581.81888840424, -11897.83357355995, -26674.46007424117, -31669.44911115755, -40561.24127641216, 0.022, 1.018, 0.064, 192.0, 0.0, 0.0, 0.0, 0.0, 0.0, 0.0, 0.0, 0.0, 0.0, 1.69533354468201E9, 0.0, 2023-09-21 16:59:04.682
12.0, 16009.526373091505, 9789.348815601923, -27918.602874112476, -41359.08679474435, -26615.719689812624, 30096.66861255987, -187500.02235174447, -38670.35075072655, -16807.930685035073, -28276.83428249768, -43451.29948273891, -50569.05604232026, -11896.805393315006, -26660.244364767597, -31653.55702084983, -40551.09358442946, 0.032, 1.022, 0.056, 192.0, 0.5, 0.0, 15.5, 120.0, 0.5, 96.0, 0.0, 0.0, 0.0, 1.695333544682019E9, 0.0, 2023-09-21 16:59:04.682
14.0, 16003.02201545501, 9780.877504453363, -27921.28508344711, -41363.08775700185, -26630.114213241843, 30103.642356829925, -187500.02235174447, -38678.84441361957, -16811.75283333693, -28280.768189521816, -43451.85827635029, -50569.50307720937, -11897.766518326584, -26657.092768799397, -31655.613381339717, -40550.579494306985, 0.032, 1.022, 0.056, 192.0, 0.0, 0.0, 0.0, 0.0, 0.0, 0.0, 0.0, 0.0, 0.0, 1.695333544742336E9, 0.0, 2023-09-21 16:59:04.742
16.0, 15993.231951383586, 9772.98733866064, -27933.0421010306, -41372.27432397298, -26642.36296920335, 30114.52765637966, -187500.02235174447, -38696.14466382798, -16820.42531018559, -28288.278375658796, -43459.10024155382, -50572.52056271083, -11906.461346919697, -26666.949888104187, -31658.78732905237, -40562.247104912654, 0.032, 1.022, 0.056, 192.0, 0.0, 0.0, 0.0, 0.0, 0.0, 0.0, 0.0, 0.0, 0.0, 1.695333544742358E9, 0.0, 2023-09-21 16:59:04.742
18.0, 15991.577922293893, 9772.249731093614, -27937.445394688297, -41372.788414095456, -26640.641884880293, 30109.632624343947, -187500.02235174447, -38693.88713763799, -16830.148319023647, -28299.32013741972, -43467.83977363584, -50582.78001341582, -11912.205745244712, -26674.348315518895, -31675.1264542492, -40571.545430606064, 0.032, 1.022, 0.056, 192.0, 0.0, 0.0, 0.0, 0.0, 0.0, 0.0, 0.0, 0.0, 0.0, 1.695333544742367E9, 0.0, 2023-09-21 16:59:04.742
20.0, 15999.98217820909, 9783.716175999187, -27929.510525406662, -41361.18785872315, -26633.422271421226, 30113.521827879173, -187500.02235174447, -38686.131082312, -16816.647865372644, -28287.429009369494, -43454.38402347374, -50570.73242315441, -11897.855925304404, -26663.731236902626, -31663.570602365806, -40555.83215425398, 0.032, 1.022, 0.056, 192.0, 0.0, 0.0, 0.0, 0.0, 0.0, 0.0, 0.0, 0.0, 0.0, 1.695333544742376E9, 0.0, 2023-09-21 16:59:04.742
22.0, 15999.423384597707, 9782.55388528751, -27932.43860393031, -41365.6135041253, -26632.93053304321, 30124.228313473264, -187500.02235174447, -38686.84633813457, -16813.965656038006, -28289.88770125958, -43453.26643625098, -50573.749908655875, -11894.033777002547, -26662.94892584669, -31665.64931460015, -40556.34624437645, 0.026000000000000002, 1.022, 0.06, 192.0, 0.0, 104.0, 15.5, 120.0, 0.5, 112.0, 0.0, 0.0, 0.0, 1.695333544742414E9, 0.0, 2023-09-21 16:59:04.742
24.0, 15999.289274130973, 9782.308016098503, -27924.749603837685, -41365.8146698254, -26631.388262675795, 30120.719089593782, -187500.02235174447, -38683.80650088865, -16812.065757759305, -28289.731239048393, -43450.78539261644, -50572.565266199745, -11892.73737582414, -26666.48050147063, -31658.429701141085, -40556.592113565464, 0.026000000000000002, 1.022, 0.06, 192.0, 0.0, 0.0, 0.0, 0.0, 0.0, 0.0, 0.0, 0.0, 0.0, 1.695333544742423E9, 0.0, 2023-09-21 16:59:04.742
26.0, 15986.347614091352, 9770.260425837092, -27935.27727547613, -41376.92348681969, -26639.94898080218, 30130.330339709562, -187500.02235174447, -38691.696666681375, -16819.732406107476, -28298.94015776398, -43458.54144794243, -50581.036577348306, -11896.470117148176, -26664.312382258464, -31665.850480300247, -40562.64943631285, 0.026000000000000002, 1.022, 0.06, 192.0, 0.0, 0.0, 0.0, 0.0, 0.0, 0.0, 0.0, 0.0, 0.0, 1.695333544742432E9, 0.0, 2023-09-21 16:59:04.742
28.0, 15991.823791482902, 9776.429507306757, -27918.692281090294, -41368.295713459935, -26624.012187005545, 30111.688984833836, -187500.02235174447, -38677.19038452988, -16824.09099627626, -28299.230730441897, -43462.47535496657, -50579.91899012554, -11908.294189965032, -26673.253080040584, -31658.31794241881, -40561.86712525691, 0.026000000000000002, 1.022, 0.06, 192.0, 0.0, 0.0, 0.0, 0.0, 0.0, 0.0, 0.0, 0.0, 0.0, 1.695333544742441E9, 0.0, 2023-09-21 16:59:04.742
30.0, 16001.9267799767, 9784.587894032944, -27911.651481586872, -41362.081928501364, -26615.89850376827, 30106.48102837575, -187500.02235174447, -38667.66854139192, -16817.430176428577, -28296.861445529634, -43455.50161069651, -50575.62745519012, -11895.911323536793, -26670.012077094565, -31651.1206807042, -40551.78648850757, 0.026000000000000002, 1.022, 0.06, 192.0, 0.0, 0.0, 0.0, 0.0, 0.0, 0.0, 0.0, 0.0, 0.0, 1.695333544802546E9, 0.0, 2023-09-21 16:59:04.802
32.0, 15999.043404941965, 9776.585969517942, -27907.359946651453, -41372.02845478398, -26624.83920155039, 30105.654013830903, -187500.02235174447, -38680.18551828689, -16810.545839136343, -28289.64183207057, -43446.67267163666, -50566.95497834146, -11893.318521179977, -26663.03833282451, -31643.766956778403, -40546.44442158275, 0.028, 1.02, 0.07, 192.0, 0.0, 112.0, 15.5, 112.0, 1.0, 24.0, 0.0, 0.0, 0.0, 1.695333544802573E9, 0.0, 2023-09-21 16:59:04.802
34.0, 16007.26884690152, 9784.967873688684, -27914.110173476958, -41361.85841105681, -26624.146297472274, 30116.986348269744, -187500.02235174447, -38681.77249214322, -16817.206658984025, -28292.771076294313, -43450.36070947179, -50569.81600163174, -11899.64406486083, -26664.80412063648, -31653.825241783292, -40555.85450599844, 0.028, 1.02, 0.07, 192.0, 0.0, 0.0, 0.0, 0.0, 0.0, 0.0, 0.0, 0.0, 0.0, 1.695333544802584E9, 0.0, 2023-09-21 16:59:04.802
36.0, 15995.042442684466, 9772.607359004898, -27929.33171145102, -41368.7651000935, -26641.37949244732, 30098.09912420501, -187500.02235174447, -38692.56838471513, -16820.80528984133, -28296.704983318446, -43449.712508882585, -50566.619702174634, -11907.087195764447, -26672.13549281782, -31655.16634645061, -40559.676654300296, 0.028, 1.02, 0.07, 192.0, 0.0, 0.0, 0.0, 0.0, 0.0, 0.0, 0.0, 0.0, 0.0, 1.695333544802594E9, 0.0, 2023-09-21 16:59:04.802
38.0, 16002.574980565905, 9781.928036442761, -27933.399728941888, -41361.165506978694, -26637.065605767442, 30112.58305461205, -187500.02235174447, -38683.11359681054, -16824.068644531806, -28298.426067641507, -43455.81453511889, -50567.178495786015, -11913.993884801137, -26670.32500151694, -31669.40440766864, -40561.50949734563, 0.028, 1.02, 0.07, 192.0, 0.0, 0.0, 0.0, 0.0, 0.0, 0.0, 0.0, 0.0, 0.0, 1.695333544802603E9, 0.0, 2023-09-21 16:59:04.802
40.0, 16014.376701638306, 9794.668530782286, -27913.90900777686, -41353.65532084171, -26621.777012560015, 30094.232272414243, -187500.02235174447, -38674.99991357326, -16811.171687981092, -28282.198701166955, -43441.30825296739, -50549.72178336642, -11899.554657883009, -26658.009190322067, -31653.84759352775, -40545.77386924909, 0.028, 1.02, 0.07, 192.0, 0.0, 0.0, 0.0, 0.0, 0.0, 0.0, 0.0, 0.0, 0.0, 1.695333544802612E9, 0.0, 2023-09-21 16:59:04.802
42.0, 15999.244570642064, 9781.659815509298, -27930.426946929332, -41364.63002736927, -26633.444623165684, 30116.1593337249, -187500.02235174447, -38680.90077410946, -16818.681874118076, -28286.289070402276, -43448.99725306001, -50555.60029215817, -11895.665454347785, -26657.9421350887, -31656.194526695555, -40547.45025008324, 0.026000000000000002, 1.018, 0.068, 192.0, 0.0, 104.0, 15.5, 104.0, 1.0, 16.0, 0.0, 0.0, 0.0, 1.695333544802621E9, 0.0, 2023-09-21 16:59:04.802
44.0, 15992.717861261113, 9773.88140843885, -27924.883714304415, -41369.1674314937, -26635.99272203359, 30100.66957481737, -187500.02235174447, -38688.388608501984, -16826.61674339971, -28292.771076294313, -43456.418032219175, -50564.451582962465, -11910.819937088483, -26668.71567591616, -31657.0215412404, -40549.86423848441, 0.026000000000000002, 1.018, 0.068, 192.0, 0.0, 0.0, 0.0, 0.0, 0.0, 0.0, 0.0, 0.0, 0.0, 1.695333544802676E9, 0.0, 2023-09-21 16:59:04.802
46.0, 16008.609951568837, 9783.850286465919, -27920.10044099098, -41359.198553466624, -26627.342596929386, 30116.628720358458, -187500.02235174447, -38676.60923917404, -16824.56038290982, -28296.257948429342, -43454.674596151664, -50564.78685912929, -11904.203820729712, -26665.65348692578, -31658.720273819006, -40550.37832860689, 0.026000000000000002, 1.018, 0.068, 192.0, 0.0, 0.0, 0.0, 0.0, 0.0, 0.0, 0.0, 0.0, 0.0, 1.695333544862511E9, 0.0, 2023-09-21 16:59:04.862
48.0, 16007.470012601616, 9775.490734039633, -27916.90414153387, -41362.90894304621, -26624.8839050393, 30108.403278398906, -187500.02235174447, -38681.79484388767, -16818.3689496957, -28297.375535652107, -43449.62310190476, -50563.333995739704, -11896.000730514614, -26662.300725257486, -31653.244096427454, -40545.818572738004, 0.026000000000000002, 1.018, 0.068, 192.0, 0.0, 0.0, 0.0, 0.0, 0.0, 0.0, 0.0, 0.0, 0.0, 1.695333544862535E9, 0.0, 2023-09-21 16:59:04.862
50.0, 16022.64684708677, 9777.41298406279, -27920.748641580183, -41358.6621115997, -26623.27457943852, 30133.928970566867, -187500.02235174447, -38666.26038149123, -16821.27467647489, -28300.88475953159, -43451.90297983921, -50566.262074263344, -11894.704329336206, -26658.65739091127, -31651.098328959746, -40543.29282561455, 0.026000000000000002, 1.018, 0.068, 192.0, 0.0, 0.0, 0.0, 0.0, 0.0, 0.0, 0.0, 0.0, 0.0, 1.695333544862545E9, 0.0, 2023-09-21 16:59:04.862
52.0, 16027.117195977831, 9777.211818362692, -27917.75350782317, -41358.95268427762, -26617.9325125137, 30125.301197207118, -187500.02235174447, -38674.195250772864, -16816.312589205812, -28294.492160617374, -43449.51134318249, -50561.67996665001, -11888.289378677533, -26657.696265899693, -31653.087634216266, -40538.30838660102, 0.026000000000000002, 1.018, 0.068, 192.0, 0.0, 104.0, 15.5, 104.0, 1.0, 16.0, 0.0, 0.0, 0.0, 1.695333544862555E9, 0.0, 2023-09-21 16:59:04.862
54.0, 16030.447605901672, 9781.816277720485, -27922.402670669875, -41359.55618137791, -26624.615684105836, 30145.037787561156, -187500.02235174447, -38673.39058797248, -16826.259115488425, -28302.15880896554, -43461.58128518835, -50569.32426325372, -11895.397233414322, -26663.61947818035, -31655.16634645061, -40548.903113472836, 0.026000000000000002, 1.018, 0.068, 192.0, 0.0, 0.0, 0.0, 0.0, 0.0, 0.0, 0.0, 0.0, 0.0, 1.695333544862564E9, 0.0, 2023-09-21 16:59:04.862
56.0, 16035.65556235976, 9785.906646955806, -27909.036327485603, -41351.889533029746, -26616.27848342401, 30130.643264131937, -187500.02235174447, -38674.776396128706, -16819.687702618565, -28288.03250646979, -43450.36070947179, -50557.76841137033, -11891.709195579195, -26651.549536174483, -31652.662951071616, -40540.40945057982, 0.026000000000000002, 1.018, 0.068, 192.0, 0.0, 0.0, 0.0, 0.0, 0.0, 0.0, 0.0, 0.0, 0.0, 1.695333544862573E9, 0.0, 2023-09-21 16:59:04.862
58.0, 16029.039446000988, 9778.910550941295, -27922.357967180964, -41351.598960351825, -26627.387300418297, 30158.851165634536, -187500.02235174447, -38673.301180994655, -16826.415577699612, -28288.725410547904, -43455.21103801859, -50557.96957707043, -11894.346701424922, -26647.347408216883, -31643.69990154504, -40539.35891859042, 0.026000000000000002, 1.018, 0.068, 192.0, 0.0, 0.0, 0.0, 0.0, 0.0, 0.0, 0.0, 0.0, 0.0, 1.695333544862584E9, 0.0, 2023-09-21 16:59:04.862
60.0, 16031.922821035723, 9779.446992808222, -27924.459031159764, -41350.391966151234, -26628.84016380789, 30146.647113161936, -187500.02235174447, -38676.83275661859, -16830.304781234834, -28296.012079240332, -43461.49187821053, -50564.608045173656, -11903.332102695955, -26658.679742655724, -31660.441358142063, -40547.427898338785, 0.026000000000000002, 1.018, 0.068, 192.0, 0.0, 0.0, 0.0, 0.0, 0.0, 0.0, 0.0, 0.0, 0.0, 1.69533354492274E9, 0.0, 2023-09-21 16:59:04.922
62.0, 16028.972390767622, 9775.915417184284, -27932.95269405278, -41358.25978019951, -26632.50584989856, 30169.49059599526, -187500.02235174447, -38679.35850374204, -16834.99864757045, -28298.381364152596, -43462.45300322211, -50564.09395505118, -11914.463271434697, -26661.831338623924, -31650.02544522589, -40546.15384890483, 0.028, 1.006, 0.074, 192.0, 0.0, 112.0, 15.5, 56.0, 1.0, 40.0, 0.0, 0.0, 0.0, 1.69533354492277E9, 0.0, 2023-09-21 16:59:04.922
64.0, 16039.477710661617, 9783.872638210374, -27931.56688589655, -41360.338492433846, -26627.1861347182, 30147.898810851435, -187500.02235174447, -38680.38668398699, -16830.058912045828, -28295.58739609568, -43457.60267467531, -50563.04342306178, -11905.611980630396, -26657.875079855334, -31659.79315755286, -40547.67376752779, 0.028, 1.006, 0.074, 192.0, 0.0, 0.0, 0.0, 0.0, 0.0, 0.0, 0.0, 0.0, 0.0, 1.695333544922781E9, 0.0, 2023-09-21 16:59:04.922
66.0, 16054.542786424494, 9798.848306995429, -27922.15680148087, -41352.582437107856, -26621.106460226354, 30140.858011348013, -187500.02235174447, -38667.10974778053, -16813.250400215435, -28283.40569536754, -43440.12361051126, -50546.77135309832, -11894.950198525215, -26650.633114651813, -31652.97587549399, -40542.6222732809, 0.028, 1.006, 0.074, 192.0, 0.0, 0.0, 0.0, 0.0, 0.0, 0.0, 0.0, 0.0, 0.0, 1.69533354492282E9, 0.0, 2023-09-21 16:59:04.922
68.0, 16040.774111840024, 9787.828896978963, -27933.2432667307, -41370.15090824973, -26633.198753976674, 30143.42846196037, -187500.02235174447, -38680.65490492045, -16819.531240407377, -28286.333773891187, -43443.4540204351, -50548.96182405494, -11902.482736406653, -26656.690437399204, -31659.524936619397, -40548.63489253937, 0.028, 1.006, 0.074, 192.0, 0.0, 0.0, 0.0, 0.0, 0.0, 0.0, 0.0, 0.0, 0.0, 1.695333544922829E9, 0.0, 2023-09-21 16:59:04.922
70.0, 16036.974315282621, 9785.280798111058, -27931.276313218634, -41370.08385301636, -26632.50584989856, 30122.48487740575, -187500.02235174447, -38674.776396128706, -16826.907316077628, -28292.346393149663, -43453.64641590672, -50555.82380960272, -11907.26600972009, -26665.966411348156, -31662.810643054327, -40555.63098855389, 0.028, 1.006, 0.074, 192.0, 0.0, 0.0, 0.0, 0.0, 0.0, 0.0, 0.0, 0.0, 0.0, 1.695333544922838E9, 0.0, 2023-09-21 16:59:04.922
72.0, 16040.46118741765, 9789.348815601923, -27926.33657769401, -41360.249085456024, -26625.55445737296, 30124.92121755138, -187500.02235174447, -38672.31770423862, -16827.935496322574, -28288.993631481368, -43451.388889716734, -50556.181437514, -11905.030835274558, -26659.104425800375, -31666.006942511434, -40546.936159960766, 0.026000000000000002, 1.01, 0.084, 192.0, 0.0, 104.0, 15.5, 72.0, 1.0, 80.0, 0.0, 0.0, 0.0, 1.695333544922848E9, 0.0, 2023-09-21 16:59:04.922
74.0, 16032.816890813934, 9780.139896886338, -27926.090708505002, -41365.18882098065, -26627.521410885027, 30106.168103953376, -187500.02235174447, -38677.99504733027, -16829.18719401207, -28292.592262338672, -43453.33349148434, -50559.087164293196, -11903.64502711833, -26663.910050858267, -31656.194526695555, -40544.34335760395, 0.026000000000000002, 1.01, 0.084, 192.0, 0.0, 0.0, 0.0, 0.0, 0.0, 0.0, 0.0, 0.0, 0.0, 1.695333544922858E9, 0.0, 2023-09-21 16:59:04.922
76.0, 16038.293068205485, 9783.738527743642, -27919.340481679497, -41362.350149434824, -26623.94513177218, 30119.109763992998, -187500.02235174447, -38673.591753672576, -16831.601182413244, -28298.180198452497, -43457.26739850848, -50564.518638195834, -11908.316541709488, -26664.22297528064, -31657.625038340695, -40543.35988084792, 0.026000000000000002, 1.01, 0.084, 192.0, 0.0, 0.0, 0.0, 0.0, 0.0, 0.0, 0.0, 0.0, 0.0, 1.695333544983014E9, 0.0, 2023-09-21 16:59:04.983
78.0, 16039.812986828447, 9782.196257376225, -27913.394917654387, -41361.14315523424, -26621.26292243754, 30095.126342192456, -187500.02235174447, -38673.03296006119, -16824.023941042895, -28291.49702686036, -43452.28295949494, -50557.38843171459, -11899.308788694, -26665.765245648057, -31647.58910508026, -40541.10235465793, 0.026000000000000002, 1.01, 0.084, 192.0, 0.0, 0.0, 0.0, 0.0, 0.0, 0.0, 0.0, 0.0, 0.0, 1.695333544983031E9, 0.0, 2023-09-21 16:59:04.983
80.0, 16047.569042154437, 9792.142783658837, -27914.57956011052, -41351.241332440535, -26610.824657776913, 30106.458676631293, -187500.02235174447, -38654.88334356348, -16824.918010821108, -28291.854654771647, -43456.19451477462, -50559.556550926754, -11893.474983391165, -26660.579640934426, -31649.533706847873, -40539.29186335705, 0.026000000000000002, 1.01, 0.084, 192.0, 0.0, 0.0, 0.0, 0.0, 0.0, 0.0, 0.0, 0.0, 0.0, 1.695333544983042E9, 0.0, 2023-09-21 16:59:04.983
82.0, 16038.382475183307, 9781.928036442761, -27918.20054271228, -41354.23646619755, -26616.6808148242, 30102.614176584982, -187500.02235174447, -38666.05921579114, -16819.24066772946, -28285.618518068615, -43450.65128214971, -50553.36511771264, -11885.517762365076, -26657.60685892187, -31641.59883756624, -40531.73697373116, 0.024, 1.006, 0.082, 192.0, 0.0, 96.0, 15.5, 56.0, 1.0, 72.0, 0.0, 0.0, 0.0, 1.695333544983051E9, 0.0, 2023-09-21 16:59:04.983
84.0, 16033.330980936407, 9772.920283427273, -27937.847726088494, -41361.90311454572, -26631.45531790916, 30117.38867966994, -187500.02235174447, -38674.44111996188, -16833.881060347685, -28301.689422331983, -43470.410224248204, -50572.74408015538, -11900.471079405675, -26660.601992678883, -31657.178003451587, -40544.05278492603, 0.024, 1.006, 0.082, 192.0, 0.0, 0.0, 0.0, 0.0, 0.0, 0.0, 0.0, 0.0, 0.0, 1.695333544983061E9, 0.0, 2023-09-21 16:59:04.983
86.0, 16035.096768748375, 9774.954292172706, -27937.57950515503, -41368.63098962677, -26634.159878988252, 30086.29740313261, -187500.02235174447, -38683.001838088254, -16836.786787126875, -28305.64568110057, -43474.254724294515, -50576.52152496833, -11907.914210309293, -26667.955716604676, -31666.40927391163, -40553.32875887499, 0.024, 1.006, 0.082, 192.0, 0.0, 0.0, 0.0, 0.0, 0.0, 0.0, 0.0, 0.0, 0.0, 1.69533354498307E9, 0.0, 2023-09-21 16:59:04.983
88.0, 16048.418408443738, 9788.36533884589, -27937.08776677701, -41360.13732673375, -26625.59916086187, 30101.362478895484, -187500.02235174447, -38675.02226531771, -16828.516641678412, -28289.21714892592, -43463.30236951141, -50562.19405677248, -11901.432204417253, -26660.601992678883, -31664.576430866295, -40547.584360549976, 0.024, 1.006, 0.082, 192.0, 0.0, 0.0, 0.0, 0.0, 0.0, 0.0, 0.0, 0.0, 0.0, 1.695333544983096E9, 0.0, 2023-09-21 16:59:04.983
90.0, 16049.670106133237, 9786.89012371184, -27926.314225949554, -41361.92546629017, -26618.200733447164, 30083.65989728688, -187500.02235174447, -38679.69377990887, -16820.782938096876, -28287.339602391676, -43459.54727644292, -50558.304853237256, -11893.005596757603, -26661.429007223727, -31659.703750575038, -40548.72429951719, 0.024, 1.006, 0.082, 192.0, 0.0, 0.0, 0.0, 0.0, 0.0, 0.0, 0.0, 0.0, 0.0, 1.695333545043282E9, 0.0, 2023-09-21 16:59:05.043
92.0, 16040.08120776191, 9776.921245684773, -27938.76414761116, -41372.631951884265, -26623.788669560992, 30105.63166208645, -187500.02235174447, -38677.771529885715, -16826.23676374397, -28295.810913540237, -43460.86602936578, -50563.95984458445, -11899.68876834974, -26668.603917193883, -31654.58520109477, -40549.12663091739, 0.022, 1.012, 0.076, 192.0, 0.0, 88.0, 15.5, 80.0, 1.0, 48.0, 0.0, 0.0, 0.0, 1.695333545043306E9, 0.0, 2023-09-21 16:59:05.043
94.0, 16041.824643829423, 9778.061184651993, -27933.533839408617, -41372.60960013981, -26618.73717531409, 30086.34210662152, -187500.02235174447, -38676.519832196216, -16830.70711263503, -28299.230730441897, -43465.04580557893, -50569.078394064716, -11902.572143384474, -26677.857539398377, -31656.775672051393, -40551.22769489619, 0.022, 1.012, 0.076, 192.0, 0.0, 0.0, 0.0, 0.0, 0.0, 0.0, 0.0, 0.0, 0.0, 1.695333545043316E9, 0.0, 2023-09-21 16:59:05.043
96.0, 16039.455358917161, 9775.691899739732, -27934.4949644202, -41371.29084721695, -26621.687605582192, 30118.43921165934, -187500.02235174447, -38671.42363446041, -16834.082226047783, -28296.88379727409, -43467.191573046635, -50566.686757407995, -11901.58866662844, -26675.957641119676, -31648.416119625108, -40551.74178501866, 0.022, 1.012, 0.076, 192.0, 0.0, 0.0, 0.0, 0.0, 0.0, 0.0, 0.0, 0.0, 0.0, 1.695333545043325E9, 0.0, 2023-09-21 16:59:05.043
98.0, 16037.51075714955, 9775.557789273, -27932.52801090813, -41369.703873360624, -26621.84406779338, 30097.562682338084, -187500.02235174447, -38680.45373922035, -16839.401941228145, -28300.996518253865, -43473.24889579402, -50570.2853882653, -11902.102756750914, -26676.203510308686, -31652.685302816073, -40552.92642747479, 0.022, 1.012, 0.076, 192.0, 0.0, 0.0, 0.0, 0.0, 0.0, 0.0, 0.0, 0.0, 0.0, 1.695333545043334E9, 0.0, 2023-09-21 16:59:05.043
100.0, 16046.786731098502, 9782.889161454339, -27930.00226378468, -41357.835097054856, -26621.620550348827, 30123.557761139604, -187500.02235174447, -38667.51207918073, -16832.56230742482, -28288.859521014634, -43463.771756144975, -50557.56724567023, -11894.279646191555, -26668.961545105165, -31645.97977947948, -40543.31517735901, 0.022, 1.012, 0.076, 192.0, 0.0, 0.0, 0.0, 0.0, 0.0, 0.0, 0.0, 0.0, 0.0, 1.695333545043343E9, 0.0, 2023-09-21 16:59:05.043
102.0, 16046.026771787021, 9784.006748677106, -27921.32978693602, -41350.88370452925, -26618.31249216944, 30109.699679577316, -187500.02235174447, -38668.09322453657, -16828.024903300393, -28288.859521014634, -43459.36846248728, -50553.94626306847, -11895.978378770158, -26667.173405548743, -31647.25382891343, -40536.90022670034, 0.022, 1.008, 0.076, 192.0, 0.0, 88.0, 15.5, 64.0, 1.0, 48.0, 0.0, 0.0, 0.0, 1.695333545043352E9, 0.0, 2023-09-21 16:59:05.043
104.0, 16050.161844511253, 9790.22053363568, -27924.99547302669, -41339.7078323016, -26620.860591037344, 30113.499476134715, -187500.02235174447, -38664.44989019035, -16829.03073180088, -28285.037372712777, -43457.44621246412, -50547.397201943066, -11895.129012480857, -26663.75358864708, -31642.202334666534, -40534.64270051035, 0.022, 1.008, 0.076, 192.0, 0.0, 0.0, 0.0, 0.0, 0.0, 0.0, 0.0, 0.0, 0.0, 1.695333545043362E9, 0.0, 2023-09-21 16:59:05.043
106.0, 16046.809082842958, 9785.12433589987, -27925.107231748967, -41342.21122768059, -26622.31345442694, 30113.901807534912, -187500.02235174447, -38665.522773924204, -16826.28146723288, -28281.17052092201, -43455.94864558562, -50545.54200715328, -11889.339910666933, -26662.56894619095, -31647.812622524816, -40529.34533707444, 0.022, 1.008, 0.076, 192.0, 0.0, 0.0, 0.0, 0.0, 0.0, 0.0, 0.0, 0.0, 0.0, 1.695333545103652E9, 0.0, 2023-09-21 16:59:05.103
108.0, 16044.238632230597, 9783.447955065723, -27925.911894549357, -41346.927445760666, -26625.040367250487, 30117.209865714296, -187500.02235174447, -38662.125308767, -16832.04821730235, -28288.770114036815, -43458.27322700897, -50549.27474847731, -11900.515782894587, -26662.054856068477, -31641.196506166045, -40531.64756675334, 0.022, 1.008, 0.076, 192.0, 0.0, 0.0, 0.0, 0.0, 0.0, 0.0, 0.0, 0.0, 0.0, 1.695333545103668E9, 0.0, 2023-09-21 16:59:05.103
110.0, 16051.704114878668, 9793.930923215261, -27920.65923460236, -41341.69713755812, -26619.16185845874, 30104.67053707487, -187500.02235174447, -38662.90761982294, -16834.059874303326, -28285.55146283525, -43458.4073374757, -50547.19603624297, -11900.78400382805, -26663.57477469144, -31653.579372594282, -40533.525113287586, 0.022, 1.008, 0.076, 192.0, 0.0, 0.0, 0.0, 0.0, 0.0, 0.0, 0.0, 0.0, 0.0, 1.695333545103714E9, 0.0, 2023-09-21 16:59:05.103
112.0, 16058.387286470806, 9793.528591815066, -27919.206371212767, -41343.060593969894, -26620.0335764925, 30124.809458829102, -187500.02235174447, -38662.46058493383, -16818.23483922897, -28273.727390018394, -43444.750421613506, -50531.90744303554, -11889.697538578217, -26655.08111179842, -31640.1683259211, -40526.84194169545, 0.018000000000000002, 1.01, 0.07200000000000001, 192.0, 0.0, 72.0, 15.5, 72.0, 1.0, 32.0, 0.0, 0.0, 0.0, 1.695333545103723E9, 0.0, 2023-09-21 16:59:05.103
114.0, 16054.31926897994, 9787.918303956783, -27927.65533061687, -41349.09556497283, -26619.675948581214, 30123.557761139604, -187500.02235174447, -38664.27107623471, -16822.593429397755, -28280.03058195479, -43451.23242750555, -50540.5799198842, -11896.693634592728, -26657.204527521673, -31649.69016905906, -40533.368651076395, 0.018000000000000002, 1.01, 0.07200000000000001, 192.0, 0.0, 0.0, 0.0, 0.0, 0.0, 0.0, 0.0, 0.0, 0.0, 1.695333545103734E9, 0.0, 2023-09-21 16:59:05.103
116.0, 16050.340658466896, 9782.017443420584, -27929.063490517558, -41358.304483688415, -26624.481573639107, 30117.612197114493, -187500.02235174447, -38666.439195446874, -16828.203717256038, -28291.40761988254, -43460.86602936578, -50553.16395201254, -11902.527439895564, -26664.37943749183, -31651.612419082216, -40539.671843012795, 0.018000000000000002, 1.01, 0.07200000000000001, 192.0, 0.0, 0.0, 0.0, 0.0, 0.0, 0.0, 0.0, 0.0, 0.0, 1.695333545103743E9, 0.0, 2023-09-21 16:59:05.103
118.0, 16040.595297884382, 9770.640405492832, -27936.95365631028, -41370.73205360556, -26634.249285966074, 30106.48102837575, -187500.02235174447, -38679.40320723096, -16828.22606900049, -28298.22490194141, -43458.519096197975, -50559.44479220448, -11902.348625939921, -26669.788559650013, -31656.26158192892, -40544.34335760395, 0.018000000000000002, 1.01, 0.07200000000000001, 192.0, 0.0, 0.0, 0.0, 0.0, 0.0, 0.0, 0.0, 0.0, 0.0, 1.695333545103752E9, 0.0, 2023-09-21 16:59:05.103
120.0, 16045.199757242175, 9774.082574138949, -27931.924513807837, -41365.23352446956, -26627.968445774135, 30092.62294681346, -187500.02235174447, -38670.909544337934, -16838.172595283104, -28305.288053189284, -43464.241142778534, -50566.32912949671, -11910.484660921653, -26676.71760043116, -31659.055549985835, -40548.1208024169, 0.018000000000000002, 1.01, 0.07200000000000001, 192.0, 0.0, 0.0, 0.0, 0.0, 0.0, 0.0, 0.0, 0.0, 0.0, 1.695333545163026E9, 0.0, 2023-09-21 16:59:05.163
122.0, 16052.329963723418, 9784.878466710863, -27927.610627127964, -41355.46581214259, -26618.871285780824, 30093.651127058405, -187500.02235174447, -38663.39935820095, -16832.539955680368, -28296.280300173796, -43459.0555380649, -50558.59542591518, -11905.83549807495, -26666.569908448448, -31654.138166205666, -40540.856485468925, 0.02, 1.014, 0.074, 192.0, 0.0, 80.0, 15.5, 88.0, 1.0, 40.0, 0.0, 0.0, 0.0, 1.695333545163046E9, 0.0, 2023-09-21 16:59:05.163
124.0, 16050.720638122635, 9783.291492854536, -27924.660196859862, -41357.94685577713, -26616.27848342401, 30101.630699828947, -187500.02235174447, -38666.14862276895, -16823.643961387155, -28287.876044258603, -43453.98169207355, -50550.191169999984, -11894.570218869474, -26662.971277591143, -31645.622151568194, -40537.570779033995, 0.02, 1.014, 0.074, 192.0, 0.0, 0.0, 0.0, 0.0, 0.0, 0.0, 0.0, 0.0, 0.0, 1.695333545163059E9, 0.0, 2023-09-21 16:59:05.163
126.0, 16036.192004226687, 9768.65110023631, -27942.67570289084, -41373.6154286403, -26630.874172553322, 30108.068002232078, -187500.02235174447, -38673.94938158386, -16842.86646161872, -28302.762306065837, -43473.137137071746, -50568.47489696442, -11909.50118416562, -26665.631135181327, -31662.005980253936, -40552.85937224142, 0.02, 1.014, 0.074, 192.0, 0.0, 0.0, 0.0, 0.0, 0.0, 0.0, 0.0, 0.0, 0.0, 1.69533354516307E9, 0.0, 2023-09-21 16:59:05.163
128.0, 16044.46214967515, 9772.182675860247, -27932.61741788595, -41368.51923090449, -26626.247361451075, 30089.158426422888, -187500.02235174447, -38669.18846001488, -16833.09874929175, -28297.800218796758, -43469.04676783643, -50565.34565274068, -11901.07457650597, -26666.972239848645, -31659.54728836385, -40547.159677405325, 0.02, 1.014, 0.074, 192.0, 0.0, 0.0, 0.0, 0.0, 0.0, 0.0, 0.0, 0.0, 0.0, 1.695333545163079E9, 0.0, 2023-09-21 16:59:05.163
130.0, 16047.993725299088, 9778.955254430206, -27934.450260931288, -41361.2102104676, -26627.02967250701, 30100.781333539646, -187500.02235174447, -38665.187497757375, -16834.305743492336, -28299.767172308824, -43471.99719810453, -50568.29608300878, -11902.616846873385, -26664.915879358756, -31663.190622710066, -40548.50078207264, 0.02, 1.014, 0.074, 192.0, 0.0, 0.0, 0.0, 0.0, 0.0, 0.0, 0.0, 0.0, 0.0, 1.695333545163118E9, 0.0, 2023-09-21 16:59:05.163
132.0, 16049.312478221951, 9778.195295118725, -27930.76222309616, -41360.338492433846, -26627.722576585125, 30089.963089223278, -187500.02235174447, -38668.78612861468, -16834.216336514513, -28295.341526906675, -43465.42578523466, -50560.22710326041, -11898.370015426877, -26658.947963589188, -31657.35681740723, -40544.25395062613, 0.022, 1.012, 0.074, 192.0, 0.0, 88.0, 15.5, 80.0, 1.0, 40.0, 0.0, 0.0, 0.0, 1.695333545163127E9, 0.0, 2023-09-21 16:59:05.163
134.0, 16049.625402644326, 9775.244864850625, -27935.500792920688, -41361.254913956516, -26629.667178352738, 30111.666633089382, -187500.02235174447, -38669.456680948344, -16834.596316170253, -28295.497989117863, -43467.99623584703, -50560.16004802705, -11899.532306138553, -26652.734178630613, -31662.251849442942, -40545.326834359985, 0.022, 1.012, 0.074, 192.0, 0.0, 0.0, 0.0, 0.0, 0.0, 0.0, 0.0, 0.0, 0.0, 1.695333545163136E9, 0.0, 2023-09-21 16:59:05.163
136.0, 16049.670106133237, 9773.344966571924, -27928.124717250434, -41362.03722501245, -26627.722576585125, 30099.261414916687, -187500.02235174447, -38675.35754148454, -16832.607010913733, -28295.632099584593, -43468.08564282485, -50561.76937362783, -11900.046396261025, -26659.931440345223, -31659.726102319495, -40546.39971809384, 0.022, 1.012, 0.074, 192.0, 0.0, 0.0, 0.0, 0.0, 0.0, 0.0, 0.0, 0.0, 0.0, 1.695333545222804E9, 0.0, 2023-09-21 16:59:05.222
138.0, 16046.60791714286, 9774.395498561324, -27933.4444324308, -41357.16454472119, -26633.086995254398, 30118.77448782617, -187500.02235174447, -38676.89981185196, -16835.602144670742, -28298.381364152596, -43470.99136960404, -50567.13379229711, -11902.706253851207, -26655.237574009607, -31661.35777966473, -40545.72916576018, 0.022, 1.012, 0.074, 192.0, 0.0, 0.0, 0.0, 0.0, 0.0, 0.0, 0.0, 0.0, 0.0, 1.695333545222827E9, 0.0, 2023-09-21 16:59:05.222
140.0, 16040.327076950918, 9769.07578338096, -27929.823449829037, -41357.47746914357, -26633.35521618786, 30104.8046475416, -187500.02235174447, -38676.92216359641, -16843.402903485647, -28300.728297320402, -43475.39466326174, -50568.63135917561, -11903.890896307337, -26660.445530467696, -31663.481195387983, -40545.86327622691, 0.022, 1.012, 0.074, 192.0, 0.0, 0.0, 0.0, 0.0, 0.0, 0.0, 0.0, 0.0, 0.0, 1.695333545222842E9, 0.0, 2023-09-21 16:59:05.222
142.0, 16039.701228106169, 9767.801733947008, -27940.48523193422, -41352.53773361895, -26638.09378601239, 30123.066022761588, -187500.02235174447, -38670.730730382296, -16837.926726094094, -28295.83326528469, -43473.338302771845, -50565.25624576286, -11904.762614341094, -26654.1423385313, -31660.41900639761, -40537.90605520082, 0.022, 1.016, 0.07200000000000001, 192.0, 0.0, 88.0, 15.5, 96.0, 1.0, 32.0, 0.0, 0.0, 0.0, 1.695333545222852E9, 0.0, 2023-09-21 16:59:05.222
144.0, 16051.525300923027, 9775.669547995276, -27928.012958528157, -41342.54650384742, -26625.9344370287, 30102.43536262934, -187500.02235174447, -38663.868744834515, -16837.09971154925, -28297.397887396564, -43471.79603240443, -50564.36217598464, -11906.751919597617, -26661.56311769046, -31662.922401776603, -40536.14026738886, 0.022, 1.016, 0.07200000000000001, 192.0, 0.0, 0.0, 0.0, 0.0, 0.0, 0.0, 0.0, 0.0, 0.0, 1.695333545222861E9, 0.0, 2023-09-21 16:59:05.222
146.0, 16052.776998612524, 9774.440202050233, -27933.645598130894, -41348.760288806, -26628.527239385516, 30129.145697253432, -187500.02235174447, -38662.72880586729, -16826.773205610898, -28291.049991971257, -43462.45300322211, -50555.28736773579, -11898.079442748958, -26650.36489371835, -31650.472480114997, -40529.85942719691, 0.022, 1.016, 0.07200000000000001, 192.0, 0.0, 0.0, 0.0, 0.0, 0.0, 0.0, 0.0, 0.0, 0.0, 1.69533354522287E9, 0.0, 2023-09-21 16:59:05.222
148.0, 16063.192911528697, 9784.677301010764, -27920.547475880085, -41343.88760851474, -26615.02678573451, 30113.25360694571, -187500.02235174447, -38657.990236042766, -16821.498193919444, -28291.340564649174, -43456.97682583056, -50554.750925868866, -11892.580913612952, -26654.410559464763, -31653.825241783292, -40528.49597078514, 0.022, 1.016, 0.07200000000000001, 192.0, 0.0, 0.0, 0.0, 0.0, 0.0, 0.0, 0.0, 0.0, 0.0, 1.695333545222879E9, 0.0, 2023-09-21 16:59:05.222
150.0, 16052.128798023321, 9778.21764686318, -27933.645598130894, -41354.459983642104, -26627.543762629484, 30136.410014201407, -187500.02235174447, -38670.95424782685, -16825.14152826566, -28287.518416347317, -43458.384985731245, -50553.32041422372, -11901.11927999488, -26652.756530375067, -31648.416119625108, -40536.40848832232, 0.022, 1.016, 0.07200000000000001, 192.0, 0.0, 0.0, 0.0, 0.0, 0.0, 0.0, 0.0, 0.0, 0.0, 1.695333545283096E9, 0.0, 2023-09-21 16:59:05.283
152.0, 16051.949984067678, 9779.603455019409, -27931.1422027519, -41355.734033076056, -26623.90042828327, 30123.20013322832, -187500.02235174447, -38673.83762286158, -16823.062816031317, -28284.411523868028, -43457.1556397862, -50552.53810316779, -11895.866620047882, -26652.778882119524, -31654.048759227844, -40539.78360173507, 0.026000000000000002, 1.018, 0.066, 192.0, 0.0, 104.0, 15.5, 104.0, 1.0, 8.0, 0.0, 0.0, 0.0, 1.695333545283156E9, 0.0, 2023-09-21 16:59:05.283
154.0, 16046.40675144276, 9777.16711487378, -27940.082900534024, -41358.21507671059, -26630.762413831046, 30141.72972938177, -187500.02235174447, -38671.26717224922, -16831.847051602253, -28287.384305880583, -43463.92821835616, -50554.37094621312, -11900.78400382805, -26651.70599838567, -31657.669741829606, -40543.56104654802, 0.026000000000000002, 1.018, 0.066, 192.0, 0.0, 0.0, 0.0, 0.0, 0.0, 0.0, 0.0, 0.0, 0.0, 1.695333545283166E9, 0.0, 2023-09-21 16:59:05.283
156.0, 16046.69732412068, 9775.088402639438, -27941.714577879262, -41358.95268427762, -26629.287198696995, 30137.25938049071, -187500.02235174447, -38671.960076327334, -16832.13762428017, -28283.718619789914, -43461.71539565508, -50550.23587348889, -11898.682939849252, -26650.096672784886, -31660.12843371969, -40538.57660753449, 0.026000000000000002, 1.018, 0.066, 192.0, 0.0, 0.0, 0.0, 0.0, 0.0, 0.0, 0.0, 0.0, 0.0, 1.695333545283175E9, 0.0, 2023-09-21 16:59:05.283
158.0, 16051.681763134215, 9772.674414238265, -27954.63388617443, -41369.86033557181, -26640.641884880293, 30128.341034453042, -187500.02235174447, -38681.23605027629, -16835.266868503913, -28293.665146072526, -43471.728977171064, -50561.21058001645, -11906.170774241778, -26657.00336182158, -31664.46467214402, -40548.25491288363, 0.026000000000000002, 1.018, 0.066, 192.0, 0.0, 0.0, 0.0, 0.0, 0.0, 0.0, 0.0, 0.0, 0.0, 1.695333545283184E9, 0.0, 2023-09-21 16:59:05.283
160.0, 16047.256117732064, 9774.21668460568, -27956.466729219763, -41366.52992564797, -26637.244419723087, 30113.521827879173, -187500.02235174447, -38681.0795880651, -16830.70711263503, -28298.06843973022, -43480.17793657517, -50573.459335977954, -11909.188259743245, -26663.015981080054, -31685.07298053181, -40560.79424152306, 0.026000000000000002, 1.018, 0.066, 192.0, 0.0, 0.0, 0.0, 0.0, 0.0, 0.0, 0.0, 0.0, 0.0, 1.695333545283194E9, 0.0, 2023-09-21 16:59:05.283
162.0, 16048.776036355024, 9786.644254522831, -27934.182039997824, -41338.83611426784, -26619.810059047948, 30129.369214697985, -187500.02235174447, -38661.72297736681, -16837.23382201598, -28279.337677876676, -43469.73967191454, -50553.67804213501, -11898.884105549349, -26636.64092262279, -31657.088596473768, -40532.00519466462, 0.03, 1.01, 0.068, 192.0, 0.0, 120.0, 15.5, 72.0, 1.0, 16.0, 0.0, 0.0, 0.0, 1.695333545283203E9, 0.0, 2023-09-21 16:59:05.283
164.0, 16041.17644324022, 9779.715213741687, -27940.976970312237, -41335.14807643271, -26624.347463172373, 30161.06398833561, -187500.02235174447, -38665.00868380174, -16838.172595283104, -28266.954811448435, -43466.18574454615, -50544.53617865279, -11889.004634500103, -26620.2347421926, -31653.40055863864, -40522.97508990468, 0.03, 1.01, 0.068, 192.0, 0.0, 0.0, 0.0, 0.0, 0.0, 0.0, 0.0, 0.0, 0.0, 1.695333545283213E9, 0.0, 2023-09-21 16:59:05.283
166.0, 16052.17350151223, 9788.32063535698, -27937.735967366218, -41329.18016066315, -26623.431041649706, 30146.49065095075, -187500.02235174447, -38662.63939888947, -16847.89560412116, -28271.0228289393, -43475.39466326174, -50550.03470778879, -11907.467175420186, -26623.676910838716, -31652.685302816073, -40528.898302185335, 0.03, 1.01, 0.068, 192.0, 0.0, 0.0, 0.0, 0.0, 0.0, 0.0, 0.0, 0.0, 0.0, 1.695333545343299E9, 0.0, 2023-09-21 16:59:05.343
168.0, 16056.107408536365, 9788.342987101434, -27927.67768236133, -41319.74772450301, -26615.540875856983, 30154.134947554467, -187500.02235174447, -38650.88238130598, -16835.71390339302, -28260.092825900654, -43462.721224155575, -50540.31169895073, -11891.977416512658, -26612.97042524462, -31653.042930727355, -40516.314270056995, 0.03, 1.01, 0.068, 192.0, 0.0, 0.0, 0.0, 0.0, 0.0, 0.0, 0.0, 0.0, 0.0, 1.695333545343319E9, 0.0, 2023-09-21 16:59:05.343
170.0, 16064.913995851755, 9794.824992993474, -27926.068356760545, -41324.93332921664, -26619.54183811448, 30162.49449998075, -187500.02235174447, -38651.619988873004, -16832.651714402644, -28263.825567224692, -43459.23435202055, -50541.317527451225, -11892.647968846319, -26617.9325125137, -31643.901067245137, -40515.21903457869, 0.03, 1.01, 0.068, 192.0, 0.0, 0.0, 0.0, 0.0, 0.0, 0.0, 0.0, 0.0, 0.0, 1.695333545343328E9, 0.0, 2023-09-21 16:59:05.343
172.0, 16054.65454514677, 9783.000920176617, -27931.410423685364, -41337.38325087825, -26626.001492262065, 30176.374933287494, -187500.02235174447, -38657.38673894248, -16832.51760393591, -28265.747817247848, -43458.74261364253, -50542.926853052006, -11892.804431057506, -26618.960692758643, -31644.526916089886, -40516.247214823634, 0.028, 1.01, 0.066, 192.0, 0.0, 112.0, 15.5, 72.0, 1.0, 8.0, 0.0, 0.0, 0.0, 1.695333545343338E9, 0.0, 2023-09-21 16:59:05.343
174.0, 16064.645774918292, 9788.298283612525, -27926.04600501609, -41336.288015399936, -26615.89850376827, 30148.1670317849, -187500.02235174447, -38651.977616784294, -16830.729464379485, -28270.464035327917, -43460.84367762133, -50547.732478109894, -11892.580913612952, -26631.65648360926, -31646.02448296839, -40519.13058985837, 0.028, 1.01, 0.066, 192.0, 0.0, 0.0, 0.0, 0.0, 0.0, 0.0, 0.0, 0.0, 0.0, 1.695333545343375E9, 0.0, 2023-09-21 16:59:05.343
176.0, 16052.50877767906, 9775.110754383893, -27938.406519699874, -41353.02947199696, -26626.672044595725, 30155.274886521685, -187500.02235174447, -38667.8250036031, -16835.17746152609, -28269.189985893965, -43462.02832007746, -50548.49243742138, -11890.792774056528, -26631.477669653617, -31643.92341898959, -40520.1140666144, 0.028, 1.01, 0.066, 192.0, 0.0, 0.0, 0.0, 0.0, 0.0, 0.0, 0.0, 0.0, 0.0, 1.695333545343385E9, 0.0, 2023-09-21 16:59:05.343
178.0, 16059.638984160303, 9780.162248630792, -27935.880772576427, -41352.291864429935, -26623.45339339416, 30136.588828157048, -187500.02235174447, -38668.4285007034, -16844.028752330392, -28281.9751837224, -43471.08077658186, -50563.35634748416, -11896.738338081639, -26650.476652440626, -31645.465689357006, -40535.31325284401, 0.028, 1.01, 0.066, 192.0, 0.0, 0.0, 0.0, 0.0, 0.0, 0.0, 0.0, 0.0, 0.0, 1.695333545343395E9, 0.0, 2023-09-21 16:59:05.343
180.0, 16066.970356341644, 9791.293417369536, -27928.258827717167, -41340.93717824664, -26615.049137478967, 30145.06013930561, -187500.02235174447, -38655.30802670813, -16830.796519612853, -28270.285221372276, -43457.401508975214, -50549.833542088694, -11896.425413659264, -26639.904277313268, -31638.201372409032, -40522.43864803775, 0.028, 1.01, 0.066, 192.0, 0.0, 0.0, 0.0, 0.0, 0.0, 0.0, 0.0, 0.0, 0.0, 1.695333545403552E9, 0.0, 2023-09-21 16:59:05.403
182.0, 16060.957737083167, 9785.683129511253, -27924.101403248478, -41340.66895731318, -26618.156029958252, 30135.985331056756, -187500.02235174447, -38658.23610523178, -16833.344618480758, -28269.70407601644, -43459.703738654105, -50547.97834729891, -11892.960893268693, -26640.93245755821, -31635.563866563305, -40520.382287547865, 0.022, 1.01, 0.066, 192.0, 0.0, 88.0, 15.5, 72.0, 1.0, 8.0, 0.0, 0.0, 0.0, 1.695333545403576E9, 0.0, 2023-09-21 16:59:05.403
184.0, 16069.429048231728, 9792.098080169926, -27925.42015617134, -41329.98482346354, -26616.971387502123, 30152.167994042396, -187500.02235174447, -38648.26722720471, -16826.214411999514, -28266.373666092597, -43452.66293915069, -50542.41276292953, -11888.311730421989, -26632.908181298757, -31637.10613693072, -40514.52613050058, 0.022, 1.01, 0.066, 192.0, 0.0, 0.0, 0.0, 0.0, 0.0, 0.0, 0.0, 0.0, 0.0, 1.695333545403586E9, 0.0, 2023-09-21 16:59:05.403
186.0, 16063.729353395625, 9787.784193490052, -27928.52704865063, -41334.0081374655, -26627.78963181849, 30122.52958089466, -187500.02235174447, -38663.75698611224, -16832.629362658186, -28269.391151594064, -43457.02152931947, -50544.71499260843, -11895.196067714223, -26638.809041834957, -31643.677549800585, -40520.248177081136, 0.022, 1.01, 0.066, 192.0, 0.0, 0.0, 0.0, 0.0, 0.0, 0.0, 0.0, 0.0, 0.0, 1.695333545403596E9, 0.0, 2023-09-21 16:59:05.403
188.0, 16084.650586205791, 9806.291437899046, -27917.57469386753, -41318.71954425806, -26616.725518313113, 30126.82111583008, -187500.02235174447, -38648.826020816094, -16828.583696911777, -28262.93149744648, -43450.78539261644, -50537.58478612719, -11890.837477545438, -26632.12587024282, -31645.510392845918, -40517.387153790856, 0.022, 1.01, 0.066, 192.0, 0.0, 0.0, 0.0, 0.0, 0.0, 0.0, 0.0, 0.0, 0.0, 1.695333545403605E9, 0.0, 2023-09-21 16:59:05.403
190.0, 16071.284243021519, 9793.75210925962, -27922.849705558983, -41327.39202110672, -26628.41548066324, 30127.536371652648, -187500.02235174447, -38667.31091348063, -16816.51375490591, -28252.20266010793, -43439.60952038879, -50527.10181797765, -11879.751012295606, -26625.17447771722, -31644.236343411965, -40512.80504617751, 0.022, 1.01, 0.066, 192.0, 0.0, 0.0, 0.0, 0.0, 0.0, 0.0, 0.0, 0.0, 0.0, 1.695333545403614E9, 0.0, 2023-09-21 16:59:05.403
192.0, 16070.412524987762, 9796.434318594256, -27927.543571894596, -41326.27443388396, -26626.761451573548, 30154.671389421394, -187500.02235174447, -38661.85708783354, -16837.367932482714, -28268.810006238225, -43457.87089560877, -50543.128018752104, -11898.817050315984, -26637.155012745265, -31653.31115166082, -40530.865255697405, 0.026000000000000002, 1.014, 0.068, 192.0, 0.0, 104.0, 15.5, 88.0, 1.0, 16.0, 0.0, 0.0, 0.0, 1.695333545403623E9, 0.0, 2023-09-21 16:59:05.403
194.0, 16068.8926063648, 9796.031987194061, -27922.693243347796, -41327.9061112292, -26622.06758523793, 30127.49166816374, -187500.02235174447, -38661.81238434462, -16825.70032187704, -28262.48446255737, -43450.85244784981, -50536.08721924868, -11881.270930918567, -26633.60108537687, -31652.484137115975, -40521.812799193, 0.026000000000000002, 1.014, 0.068, 192.0, 0.0, 0.0, 0.0, 0.0, 0.0, 0.0, 0.0, 0.0, 0.0, 1.695333545403633E9, 0.0, 2023-09-21 16:59:05.403
196.0, 16065.092809807398, 9792.276894125569, -27933.265618475154, -41337.8079340229, -26622.425213149218, 30129.972711798277, -187500.02235174447, -38656.78324184218, -16833.38932196967, -28261.21041312342, -43455.74747988552, -50537.71889659392, -11893.609093857896, -26634.31634119944, -31648.907858003124, -40524.986746905655, 0.026000000000000002, 1.014, 0.068, 192.0, 0.0, 0.0, 0.0, 0.0, 0.0, 0.0, 0.0, 0.0, 0.0, 1.695333545462901E9, 0.0, 2023-09-21 16:59:05.462
198.0, 16066.813894130457, 9787.717138256687, -27929.935208551313, -41340.87012301327, -26616.79257354648, 30114.795877313125, -187500.02235174447, -38647.46256440432, -16829.81304285682, -28267.759474248825, -43456.26157000799, -50543.5303501523, -11889.228151944657, -26640.99951279158, -31653.26644817191, -40522.37159280439, 0.026000000000000002, 1.014, 0.068, 192.0, 0.0, 0.0, 0.0, 0.0, 0.0, 0.0, 0.0, 0.0, 0.0, 1.695333545462922E9, 0.0, 2023-09-21 16:59:05.462
200.0, 16066.568024941449, 9787.091289411937, -27936.819545843548, -41342.27828291396, -26617.664291580237, 30137.147621768432, -187500.02235174447, -38642.14284922396, -16835.356275481736, -28272.900375473546, -43461.044843321426, -50548.89476882157, -11892.938541524238, -26646.207469249664, -31649.8689830147, -40525.3667265614, 0.026000000000000002, 1.014, 0.068, 192.0, 0.0, 0.0, 0.0, 0.0, 0.0, 0.0, 0.0, 0.0, 0.0, 1.695333545462932E9, 0.0, 2023-09-21 16:59:05.462
202.0, 16060.398943471784, 9780.475173053166, -27941.938095323814, -41349.31908241738, -26622.581675360405, 30128.519848408683, -187500.02235174447, -38653.162259240424, -16839.178423783593, -28271.268698128308, -43465.17991604566, -50551.08523977819, -11895.285474692044, -26640.485422669106, -31652.238267926965, -40524.58441550546, 0.028, 1.012, 0.066, 192.0, 0.0, 112.0, 15.5, 80.0, 1.0, 8.0, 0.0, 0.0, 0.0, 1.695333545462941E9, 0.0, 2023-09-21 16:59:05.462
204.0, 16060.220129516141, 9781.972739931673, -27947.05664480408, -41351.64366384073, -26627.32024518493, 30132.52081066618, -187500.02235174447, -38656.4256139309, -16846.062761075827, -28278.10833193163, -43473.964151616594, -50557.254321247856, -11903.01917827358, -26647.615629150347, -31652.484137115975, -40530.574683019484, 0.028, 1.012, 0.066, 192.0, 0.0, 0.0, 0.0, 0.0, 0.0, 0.0, 0.0, 0.0, 0.0, 1.695333545462951E9, 0.0, 2023-09-21 16:59:05.462
206.0, 16058.834321359913, 9782.12920214286, -27947.704845393284, -41349.85552428431, -26628.057852751954, 30100.62487132846, -187500.02235174447, -38660.27011397721, -16842.33001975179, -28271.134587661578, -43468.666788180686, -50552.493399678875, -11902.773309084572, -26644.955771560166, -31657.803852296336, -40526.171389361785, 0.028, 1.012, 0.066, 192.0, 0.0, 0.0, 0.0, 0.0, 0.0, 0.0, 0.0, 0.0, 0.0, 1.69533354546296E9, 0.0, 2023-09-21 16:59:05.462
208.0, 16060.063667304954, 9784.610245777398, -27947.77190062665, -41346.41335563819, -26622.89459978278, 30092.10885669099, -187500.02235174447, -38657.923180809405, -16843.224089530002, -28271.089884172667, -43470.79020390394, -50551.64403338957, -11896.984207270647, -26642.31826571444, -31655.769843550905, -40529.21122660771, 0.028, 1.012, 0.066, 192.0, 0.0, 0.0, 0.0, 0.0, 0.0, 0.0, 0.0, 0.0, 0.0, 1.695333545462969E9, 0.0, 2023-09-21 16:59:05.462
210.0, 16054.878062591322, 9775.758954973096, -27947.19075527081, -41348.40266089472, -26627.58846611839, 30085.179815909843, -187500.02235174447, -38669.456680948344, -16847.694438421066, -28273.950907462946, -43475.104090583816, -50554.23683574639, -11909.657646376807, -26642.206506992163, -31662.005980253936, -40536.36378483341, 0.028, 1.012, 0.066, 192.0, 0.0, 0.0, 0.0, 0.0, 0.0, 0.0, 0.0, 0.0, 0.0, 1.695333545522698E9, 0.0, 2023-09-21 16:59:05.522
212.0, 16058.767266126546, 9783.000920176617, -27943.10038603549, -41338.031451467454, -26626.9849690181, 30087.929080477847, -187500.02235174447, -38661.275942477696, -16848.00736284344, -28271.894546973057, -43473.3606545163, -50549.140638010584, -11905.634332374852, -26642.921762814734, -31659.055549985835, -40535.603825521925, 0.02, 1.018, 0.068, 192.0, 0.0, 80.0, 15.5, 104.0, 1.0, 16.0, 0.0, 0.0, 0.0, 1.695333545522714E9, 0.0, 2023-09-21 16:59:05.522
214.0, 16055.146283524786, 9781.033966664549, -27943.27919999113, -41334.43282061015, -26629.957751030655, 30103.217673685274, -187500.02235174447, -38670.35075072655, -16842.732351151986, -28267.26773587081, -43470.36552075929, -50546.346669953666, -11899.062919504991, -26631.343559186884, -31661.760111064927, -40529.30063358553, 0.02, 1.018, 0.068, 192.0, 0.0, 0.0, 0.0, 0.0, 0.0, 0.0, 0.0, 0.0, 0.0, 1.695333545522723E9, 0.0, 2023-09-21 16:59:05.522
216.0, 16065.785713885512, 9788.946484201728, -27933.42208068634, -41329.26956764097, -26621.821716048922, 30096.24392941522, -187500.02235174447, -38668.629666403496, -16839.312534250323, -28263.199718379943, -43465.716357912584, -50541.56339664023, -11894.190239213734, -26631.164745231243, -31658.384997652174, -40526.08198238397, 0.02, 1.018, 0.068, 192.0, 0.0, 0.0, 0.0, 0.0, 0.0, 0.0, 0.0, 0.0, 0.0, 1.695333545522732E9, 0.0, 2023-09-21 16:59:05.522
218.0, 16057.917899837244, 9780.36341433089, -27946.654313403884, -41343.99936723702, -26625.777974817513, 30100.87074051747, -187500.02235174447, -38673.100015294556, -16833.478728947488, -28263.803215480235, -43466.74453815753, -50544.67028911952, -11890.144573467323, -26628.437832407693, -31661.98362850948, -40530.68644174176, 0.02, 1.018, 0.068, 192.0, 0.0, 0.0, 0.0, 0.0, 0.0, 0.0, 0.0, 0.0, 0.0, 1.695333545522771E9, 0.0, 2023-09-21 16:59:05.522
220.0, 16059.437818460205, 9785.325501599968, -27936.126641765433, -41345.027547481965, -26618.55836135845, 30082.743475764215, -187500.02235174447, -38671.71420713833, -16838.016133071917, -28265.63605852557, -43471.30429402641, -50548.55949265474, -11888.758765311095, -26633.9363615437, -31660.93309652008, -40538.621311023395, 0.02, 1.018, 0.068, 192.0, 0.0, 0.0, 0.0, 0.0, 0.0, 0.0, 0.0, 0.0, 0.0, 1.695333545522784E9, 0.0, 2023-09-21 16:59:05.522
222.0, 16038.896565305778, 9766.527684513056, -27950.25294426119, -41361.79135582344, -26632.818774320935, 30102.837694029535, -187500.02235174447, -38684.968791600324, -16835.155109781637, -28269.391151594064, -43470.94666611513, -50551.241701989384, -11881.583855340941, -26633.60108537687, -31663.525898876895, -40542.71168025872, 0.016, 1.014, 0.07, 192.0, 0.0, 64.0, 15.5, 88.0, 1.0, 24.0, 0.0, 0.0, 0.0, 1.695333545522793E9, 0.0, 2023-09-21 16:59:05.522
224.0, 16039.812986828447, 9765.991242646127, -27947.794252371106, -41361.165506978694, -26631.03063476451, 30083.749304264704, -187500.02235174447, -38680.766663642724, -16854.556423968843, -28285.283241901787, -43490.258573324514, -50569.10074580917, -11901.968646284182, -26650.476652440626, -31673.07009375931, -40556.390947865366, 0.016, 1.014, 0.07, 192.0, 0.0, 0.0, 0.0, 0.0, 0.0, 0.0, 0.0, 0.0, 0.0, 1.695333545522802E9, 0.0, 2023-09-21 16:59:05.522
226.0, 16051.994687556587, 9777.033004407049, -27946.989589570712, -41351.15192546272, -26620.927646270713, 30105.43049638635, -187500.02235174447, -38663.68993087887, -16846.95683085404, -28271.291049872765, -43482.2119453206, -50561.523504438825, -11896.917152037282, -26633.55638188796, -31667.638619856672, -40544.79039249306, 0.016, 1.014, 0.07, 192.0, 0.0, 0.0, 0.0, 0.0, 0.0, 0.0, 0.0, 0.0, 0.0, 1.695333545583091E9, 0.0, 2023-09-21 16:59:05.583
228.0, 16048.239594488097, 9765.03011763455, -27935.970179554246, -41348.112088216796, -26611.070526965923, 30089.828978756548, -187500.02235174447, -38659.13017500999, -16833.09874929175, -28273.950907462946, -43466.431613735156, -50551.666385134034, -11880.689785562729, -26629.331902185906, -31650.718349304003, -40526.4172585508, 0.016, 1.014, 0.07, 192.0, 0.0, 0.0, 0.0, 0.0, 0.0, 0.0, 0.0, 0.0, 0.0, 1.695333545583113E9, 0.0, 2023-09-21 16:59:05.583
230.0, 16047.099655520877, 9765.633614734843, -27948.15188028239, -41358.37153892178, -26620.07827998141, 30099.350821894506, -187500.02235174447, -38669.255515248246, -16843.04527557436, -28288.770114036815, -43478.6133144633, -50565.59152192969, -11893.854963046904, -26638.540820901493, -31660.910744775625, -40543.80691573703, 0.016, 1.014, 0.07, 192.0, 0.0, 0.0, 0.0, 0.0, 0.0, 0.0, 0.0, 0.0, 0.0, 1.695333545583123E9, 0.0, 2023-09-21 16:59:05.583
232.0, 16036.639039115793, 9752.334326783935, -27953.96333384077, -41367.13342274826, -26630.829469064414, 30087.14676942191, -187500.02235174447, -38677.54801244116, -16839.267830761415, -28287.943099491968, -43475.08173883936, -50563.423402717526, -11892.335044423944, -26645.71573087165, -31656.865079029216, -40544.65628202633, 0.018000000000000002, 1.014, 0.076, 192.0, 0.0, 72.0, 15.5, 88.0, 1.0, 48.0, 0.0, 0.0, 0.0, 1.695333545583145E9, 0.0, 2023-09-21 16:59:05.583
234.0, 16036.594335626882, 9751.97669887265, -27964.803929901595, -41366.73109134807, -26640.060739524455, 30109.52086562167, -187500.02235174447, -38674.44111996188, -16855.56225246933, -28301.1306287206, -43489.09628261284, -50576.09684182368, -11911.26697197759, -26656.51162344356, -31670.87962280269, -40555.474526342696, 0.018000000000000002, 1.014, 0.076, 192.0, 0.0, 0.0, 0.0, 0.0, 0.0, 0.0, 0.0, 0.0, 0.0, 1.695333545583155E9, 0.0, 2023-09-21 16:59:05.583
236.0, 16045.378571197818, 9757.274062308557, -27953.896278607404, -41353.99059700854, -26633.265809210043, 30089.024315956154, -187500.02235174447, -38668.540259425674, -16850.220185544513, -28297.17436995201, -43480.624971464276, -50571.42532723252, -11908.316541709488, -26653.69530364219, -31670.45493965804, -40547.51730531661, 0.018000000000000002, 1.014, 0.076, 192.0, 0.0, 0.0, 0.0, 0.0, 0.0, 0.0, 0.0, 0.0, 0.0, 1.695333545583165E9, 0.0, 2023-09-21 16:59:05.583
238.0, 16049.848920088878, 9764.136047856337, -27950.275296005642, -41343.79820153692, -26627.16378297374, 30115.980519769255, -187500.02235174447, -38660.38187269949, -16844.274621519402, -28289.239500670374, -43473.964151616594, -50560.69648989398, -11905.433166674753, -26642.18415524771, -31667.41510241212, -40533.033374909566, 0.018000000000000002, 1.014, 0.076, 192.0, 0.0, 0.0, 0.0, 0.0, 0.0, 0.0, 0.0, 0.0, 0.0, 1.69533354558324E9, 0.0, 2023-09-21 16:59:05.583
240.0, 16044.685667119702, 9759.062201864983, -27946.363740725967, -41351.57660860737, -26629.26484695254, 30092.757057280192, -187500.02235174447, -38672.049483305156, -16846.062761075827, -28291.45232337145, -43479.0603493524, -50563.19988527297, -11905.053187019013, -26648.956733817668, -31666.11870123371, -40535.29090109956, 0.018000000000000002, 1.014, 0.076, 192.0, 0.0, 0.0, 0.0, 0.0, 0.0, 0.0, 0.0, 0.0, 0.0, 1.695333545643345E9, 0.0, 2023-09-21 16:59:05.643
242.0, 16050.430065444716, 9763.063164122483, -27949.2471157607, -41358.34918717732, -26633.13169874331, 30102.48006611825, -187500.02235174447, -38669.41197745943, -16847.403865743145, -28292.413448383028, -43485.095320355336, -50567.42436497502, -11903.376806184866, -26652.13068153032, -31668.622096612704, -40547.31613961651, 0.024, 1.008, 0.08, 192.0, 0.0, 96.0, 15.5, 64.0, 1.0, 64.0, 0.0, 0.0, 0.0, 1.695333545643375E9, 0.0, 2023-09-21 16:59:05.643
