%OpenBCI Raw EXG Data
%Number of channels = 16
%Sample Rate = 125 Hz
%Board = OpenBCI_GUI$BoardCytonSerialDaisy
Sample Index, EXG Channel 0, EXG Channel 1, EXG Channel 2, EXG Channel 3, EXG Channel 4, EXG Channel 5, EXG Channel 6, EXG Channel 7, EXG Channel 8, EXG Channel 9, EXG Channel 10, EXG Channel 11, EXG Channel 12, EXG Channel 13, EXG Channel 14, EXG Channel 15, Accel Channel 0, Accel Channel 1, Accel Channel 2, Other, Other, Other, Other, Other, Other, Other, Analog Channel 0, Analog Channel 1, Analog Channel 2, Timestamp, Other, Timestamp (Formatted)
0.0, 16205.148840564352, 9714.693989121199, -27941.848688345992, -41379.94097232115, -26513.68397637415, 30247.520535888736, -187500.02235174447, -38628.44122987285, 0.0, 0.0, 0.0, 0.0, 0.0, 0.0, 0.0, 0.0, 0.0, 0.0, 0.0, 192.0, 0.0, 0.0, 0.0, 0.0, 0.0, 0.0, 0.0, 0.0, 0.0, 1.695333561047897E9, 0.0, 2023-09-21 16:59:21.047
224.0, 16205.35000626445, 9713.710512365165, -27946.00611281468, -41387.36175148031, -26519.137802021243, 30229.54973334667, -187500.02235174447, -38641.51700037921, -16730.481890497435, -28151.776272270235, -43491.08558786936, -50390.4432523779, -11797.47424095562, -26412.140001313688, -31586.121807828167, -40414.61383278535, 0.012, 0.507, 0.035, 192.0, 0.0, 96.0, 15.5, 88.0, 1.0, 24.0, 0.0, 0.0, 0.0, 1.695333561047915E9, 0.0, 2023-09-21 16:59:21.047
226.0, 16215.20712556924, 9722.762968869563, -27946.58725817052, -41382.645533400246, -26519.786002610446, 30248.615771367047, -187500.02235174447, -38640.84644804555, -16717.83080313573, -28137.918190707947, -43476.22167780658, -50378.03803420521, -11787.304197228455, -26399.913597096634, -31582.63493569314, -40407.17070188173, 0.012, 0.507, 0.035, 192.0, 0.0, 0.0, 0.0, 0.0, 0.0, 0.0, 0.0, 0.0, 0.0, 1.695333561047948E9, 0.0, 2023-09-21 16:59:21.047
228.0, 16220.146861093863, 9728.395608472301, -27941.826336601538, -41383.38314096727, -26518.713118876592, 30215.378727362007, -187500.02235174447, -38648.40133767144, -16726.726797428943, -28144.444900088896, -43480.93789588665, -50382.754252285275, -11796.982502577604, -26411.73766991349, -31591.1062468417, -40416.2902136195, 0.012, 0.507, 0.035, 192.0, 0.0, 0.0, 0.0, 0.0, 0.0, 0.0, 0.0, 0.0, 0.0, 1.695333561047959E9, 0.0, 2023-09-21 16:59:21.047
230.0, 16218.828108171001, 9730.809596873474, -27946.38609247042, -41381.05855954392, -26518.221380498577, 30228.342739146083, -187500.02235174447, -38634.74442180925, -16722.882297382628, -28136.174754640433, -43474.72411092807, -50371.712490524355, -11796.446060710676, -26394.973861572013, -31584.043095593825, -40408.6906205047, 0.012, 0.507, 0.035, 192.0, 0.0, 0.0, 0.0, 0.0, 0.0, 0.0, 0.0, 0.0, 0.0, 1.695333561047969E9, 0.0, 2023-09-21 16:59:21.047
232.0, 16218.604590726447, 9729.49084395061, -27935.05375803158, -41373.45896642911, -26507.492543160028, 30220.385518119994, -187500.02235174447, -38627.41304962791, -16728.090253840717, -28135.32538835113, -43477.98746561855, -50369.32085386763, -11800.558781690454, -26395.867931350225, -31579.99742984741, -40401.91804193474, 0.012, 0.507, 0.035, 192.0, 0.0, 0.0, 0.0, 0.0, 0.0, 0.0, 0.0, 0.0, 0.0, 1.695333561047979E9, 0.0, 2023-09-21 16:59:21.047
234.0, 16217.531706992593, 9736.375181242845, -27937.847726088494, -41367.826326826376, -26504.989147781034, 30249.867469056546, -187500.02235174447, -38612.347973865035, -16734.5499079883, -28133.80546972817, -43480.468509253085, -50369.52201956773, -11803.889191614295, -26396.471428450517, -31566.988714574425, -40395.27957383151, 0.019000000000000003, 0.7595000000000001, 0.0555, 192.0, 0.0, 104.0, 15.5, 80.0, 1.0, 48.0, 0.0, 0.0, 0.0, 1.695333561047988E9, 0.0, 2023-09-21 16:59:21.047
236.0, 16209.865058644422, 9729.557899183977, -27929.018787028646, -41368.9662657936, -26499.24474945602, 30255.03072202572, -187500.02235174447, -38609.86693023049, -16733.87935565464, -28130.497411548786, -43477.42867200717, -50368.7397085118, -11799.62000842333, -26393.677460393606, -31562.250144749898, -40386.54004174948, 0.019000000000000003, 0.7595000000000001, 0.0555, 192.0, 0.0, 0.0, 0.0, 0.0, 0.0, 0.0, 0.0, 0.0, 0.0, 1.695333561047998E9, 0.0, 2023-09-21 16:59:21.047
238.0, 16213.910724390833, 9731.88248060733, -27929.309359706567, -41367.20047798163, -26496.71900233257, 30265.31252447516, -187500.02235174447, -38603.474331316276, -16737.880317912142, -28137.828783730125, -43481.07200635338, -50372.65126379148, -11800.961113090649, -26395.443248205574, -31558.070368536755, -40387.836442927895, 0.019000000000000003, 0.7595000000000001, 0.0555, 192.0, 0.0, 0.0, 0.0, 0.0, 0.0, 0.0, 0.0, 0.0, 0.0, 1.695333561048008E9, 0.0, 2023-09-21 16:59:21.048
0.0, 8046.628003910542, 4829.273203524734, -14088.036309246578, -20690.22753122181, -13201.454365426824, 15761.846692782246, -93750.01117587223, -19274.691554867215, -8362.212283875024, -14061.527140322583, -21735.037474040684, -25179.441294603505, -5894.825565198132, -13196.335815946559, -15777.179989478587, -20187.782667610965, 0.026000000000000002, 1.01, 0.084, 192.0, 0.0, 104.0, 15.5, 72.0, 1.0, 80.0, 0.0, 0.0, 0.0, 1.695333561207222E9, 0.0, 2023-09-21 16:59:21.207
2.0, 16092.250179320596, 9657.875854715807, -28178.643069105517, -41384.38896946776, -26405.61329193274, 31551.43190043353, -187500.02235174447, -38546.38797597742, -16605.870915159096, -28061.0728932706, -43138.687984786986, -50233.109323157, -11646.287041459924, -26495.891987787723, -31502.2357108874, -40288.348828357324, 0.026000000000000002, 1.01, 0.084, 192.0, 0.0, 0.0, 0.0, 0.0, 0.0, 0.0, 0.0, 0.0, 0.0, 1.695333561207246E9, 0.0, 2023-09-21 16:59:21.207
4.0, 16083.376536771839, 9645.560043520933, -28177.503130138295, -41395.69895216214, -26409.234274534498, 31541.53007763983, -187500.02235174447, -38553.62994118094, -16610.184801838972, -28069.141873018965, -43141.52665633281, -50241.357116861, -11658.289928232423, -26503.938615791634, -31501.833379487205, -40289.35465685781, 0.026000000000000002, 1.01, 0.084, 192.0, 0.0, 0.0, 0.0, 0.0, 0.0, 0.0, 0.0, 0.0, 0.0, 1.695333561207257E9, 0.0, 2023-09-21 16:59:21.207
6.0, 16081.9460251267, 9641.134398118782, -28184.38746743053, -41401.48805397607, -26415.246893792977, 31557.712740625473, -187500.02235174447, -38552.981740591735, -16617.873801931597, -28081.055352813644, -43150.82498202622, -50251.549512332625, -11661.754448622996, -26513.9074938187, -31507.398963856576, -40298.25065115102, 0.026000000000000002, 1.01, 0.084, 192.0, 0.0, 0.0, 0.0, 0.0, 0.0, 0.0, 0.0, 0.0, 0.0, 1.695333561207266E9, 0.0, 2023-09-21 16:59:21.207
8.0, 16110.66801675177, 9667.487104831589, -28161.81220553067, -41380.72328337709, -26393.431591204597, 31524.498048364887, -187500.02235174447, -38531.21114149227, -16602.94283663545, -28073.388704465477, -43137.704508030954, -50242.34059361704, -11654.087800274827, -26514.33217696335, -31507.756591767862, -40290.986334203044, 0.03, 1.01, 0.088, 192.0, 0.0, 120.0, 15.5, 72.0, 1.0, 96.0, 0.0, 0.0, 0.0, 1.69533356120731E9, 0.0, 2023-09-21 16:59:21.207
10.0, 16107.941103928222, 9667.5318083205, -28173.3010021807, -41387.0711788024, -26403.60163493176, 31557.355112714187, -187500.02235174447, -38529.87003682495, -16586.13432480506, -28054.523832145194, -43117.789103721276, -50220.99467766222, -11636.899308788696, -26497.791886066425, -31488.869367703126, -40275.22835436206, 0.03, 1.01, 0.088, 192.0, 0.0, 0.0, 0.0, 0.0, 0.0, 0.0, 0.0, 0.0, 0.0, 1.69533356120732E9, 0.0, 2023-09-21 16:59:21.207
12.0, 16105.482412038138, 9664.53667456349, -28171.28934517972, -41392.16737653821, -26406.70852741105, 31548.883801565626, -187500.02235174447, -38537.62609215094, -16599.00892961132, -28065.386779950477, -43128.696755015466, -50232.3046603566, -11652.031439784938, -26511.694671117624, -31504.94027196649, -40288.01355219049, 0.03, 1.01, 0.088, 192.0, 0.0, 0.0, 0.0, 0.0, 0.0, 0.0, 0.0, 0.0, 0.0, 1.69533356120733E9, 0.0, 2023-09-21 16:59:21.207
14.0, 16110.936237685233, 9671.711584533643, -28171.132882968534, -41387.7193793916, -26401.187646530587, 31551.87893532264, -187500.02235174447, -38530.20531299178, -16594.158601064515, -28059.64238162546, -43122.01358342333, -50226.94024168733, -11645.549433892898, -26506.687880359637, -31500.3358126087, -40284.30316261091, 0.03, 1.01, 0.088, 192.0, 0.0, 0.0, 0.0, 0.0, 0.0, 0.0, 0.0, 0.0, 0.0, 1.69533356120734E9, 0.0, 2023-09-21 16:59:21.207
16.0, 16105.70592948269, 9666.10129667536, -28170.57408935715, -41388.94872533664, -26399.84654186327, 31531.04710949029, -187500.02235174447, -38539.77185961865, -16592.370461508093, -28059.1729949919, -43121.63360376759, -50226.69437249832, -11640.721457090553, -26505.547941392415, -31505.968452211437, -40286.22541263407, 0.03, 1.01, 0.088, 192.0, 0.0, 0.0, 0.0, 0.0, 0.0, 0.0, 0.0, 0.0, 0.0, 1.695333561267522E9, 0.0, 2023-09-21 16:59:21.267
18.0, 16116.591229032425, 9676.316043891436, -28162.57216484215, -41373.74953910703, -26389.765905113927, 31536.702100837483, -187500.02235174447, -38526.360812945466, -16593.376290008582, -28053.383893177976, -43123.645260768564, -50220.72645672876, -11640.564994879365, -26500.943482034625, -31502.07924867621, -40286.09130216733, 0.024, 1.008, 0.084, 192.0, 0.0, 96.0, 15.5, 64.0, 1.0, 80.0, 0.0, 0.0, 0.0, 1.695333561267545E9, 0.0, 2023-09-21 16:59:21.267
20.0, 16108.164621372774, 9667.084773431394, -28157.565374084163, -41375.940010063656, -26393.94568132707, 31538.065557249258, -187500.02235174447, -38535.18975200531, -16593.979787108874, -28051.014608265712, -43125.36634509163, -50219.96649741728, -11634.865300043262, -26491.980432508044, -31501.29693762028, -40279.49753755302, 0.024, 1.008, 0.084, 192.0, 0.0, 0.0, 0.0, 0.0, 0.0, 0.0, 0.0, 0.0, 0.0, 1.695333561267555E9, 0.0, 2023-09-21 16:59:21.267
22.0, 16114.154888886796, 9667.978843209607, -28147.551792568185, -41374.62125714079, -26390.704678381047, 31530.376557156633, -187500.02235174447, -38534.094516527, -16594.96326386491, -28054.83675656757, -43126.61804278112, -50222.58165151854, -11642.464893158067, -26495.400249409708, -31493.317364849732, -40280.88334570925, 0.024, 1.008, 0.084, 192.0, 0.0, 0.0, 0.0, 0.0, 0.0, 0.0, 0.0, 0.0, 0.0, 1.695333561267564E9, 0.0, 2023-09-21 16:59:21.267
24.0, 16114.110185397887, 9668.515285076533, -28139.37105409754, -41372.81076583991, -26389.900015580657, 31526.844981532693, -187500.02235174447, -38533.73688861572, -16586.603711438624, -28048.578268120084, -43118.280842099295, -50218.535985772134, -11633.814768053862, -26482.704458559092, -31492.870329960628, -40277.32941834086, 0.024, 1.008, 0.084, 192.0, 0.0, 0.0, 0.0, 0.0, 0.0, 0.0, 0.0, 0.0, 0.0, 1.695333561267573E9, 0.0, 2023-09-21 16:59:21.267
26.0, 16105.884743438333, 9662.10033441786, -28141.114490165055, -41378.018722297995, -26392.60457665975, 31529.638949589607, -187500.02235174447, -38537.78255436213, -16589.308272517716, -28052.065140255112, -43117.096199643165, -50219.67592473936, -11634.418265154156, -26486.906586516692, -31484.08609438969, -40278.1564328857, 0.024, 1.008, 0.084, 192.0, 0.0, 0.0, 0.0, 0.0, 0.0, 0.0, 0.0, 0.0, 0.0, 1.695333561267582E9, 0.0, 2023-09-21 16:59:21.267
28.0, 16098.531019512538, 9656.355936092847, -28150.345760625096, -41387.78643462496, -26397.276091250907, 31531.71766182395, -187500.02235174447, -38552.17707779135, -16597.511362732814, -28058.860070569524, -43126.43922882548, -50227.767256232175, -11638.888614045218, -26495.44495289862, -31495.932518951002, -40288.773511501975, 0.022, 1.008, 0.09, 192.0, 0.0, 88.0, 15.5, 64.0, 1.0, 104.0, 0.0, 0.0, 0.0, 1.695333561267592E9, 0.0, 2023-09-21 16:59:21.267
30.0, 16096.161734600275, 9650.164502878726, -28157.76653978426, -41397.37533299629, -26400.919425597123, 31520.318272151744, -187500.02235174447, -38561.385996506935, -16607.05555761523, -28071.108826531035, -43139.85027549866, -50239.63603253794, -11641.459064657578, -26511.62761588426, -31504.403830099563, -40303.77153203148, 0.022, 1.008, 0.09, 192.0, 0.0, 0.0, 0.0, 0.0, 0.0, 0.0, 0.0, 0.0, 0.0, 1.695333561326921E9, 0.0, 2023-09-21 16:59:21.326
32.0, 16101.146173613808, 9653.472561058112, -28160.20287992989, -41402.851510387845, -26402.79697213137, 31532.924656024537, -187500.02235174447, -38560.11194707298, -16603.121650591096, -28067.97958230729, -43137.25747314185, -50239.099590671016, -11640.296773945902, -26505.972624537066, -31510.215283657944, -40303.92799424267, 0.022, 1.008, 0.09, 192.0, 0.0, 0.0, 0.0, 0.0, 0.0, 0.0, 0.0, 0.0, 0.0, 1.695333561326947E9, 0.0, 2023-09-21 16:59:21.326
34.0, 16100.743842213613, 9653.96429943613, -28166.841348033115, -41407.07599008989, -26406.015623332933, 31526.33089141022, -187500.02235174447, -38558.234400538735, -16602.227580812883, -28069.544204419162, -43137.95037721996, -50239.81484649359, -11638.30746868938, -26513.661624629694, -31510.08117319121, -40304.8667675098, 0.022, 1.008, 0.09, 192.0, 0.0, 0.0, 0.0, 0.0, 0.0, 0.0, 0.0, 0.0, 0.0, 1.695333561326957E9, 0.0, 2023-09-21 16:59:21.326
36.0, 16108.61165626188, 9663.575549551912, -28171.132882968534, -41399.565803952915, -26407.46848672253, 31539.451365405486, -187500.02235174447, -38550.120717301455, -16604.976845380887, -28065.99027705077, -43138.82209525372, -50239.12194241547, -11643.649535614197, -26509.548903649917, -31520.921769252036, -40306.252575666025, 0.022, 1.008, 0.09, 192.0, 0.0, 0.0, 0.0, 0.0, 0.0, 0.0, 0.0, 0.0, 0.0, 1.695333561326967E9, 0.0, 2023-09-21 16:59:21.326
38.0, 16110.444499307216, 9665.67661353071, -28168.56243235617, -41398.8728998748, -26409.8824751237, 31523.91690300905, -187500.02235174447, -38555.30632201509, -16596.77375516579, -28057.675428113394, -43130.90957771654, -50229.53304404415, -11632.406608153178, -26503.692746602625, -31516.451420360976, -40299.681162796165, 0.024, 1.006, 0.09, 192.0, 0.0, 96.0, 15.5, 56.0, 1.0, 104.0, 0.0, 0.0, 0.0, 1.695333561326976E9, 0.0, 2023-09-21 16:59:21.326
40.0, 16116.300656354506, 9672.33743337839, -28160.873432263546, -41391.519175949004, -26407.26732102243, 31545.57574338624, -187500.02235174447, -38546.34327248851, -16592.169295807995, -28055.30614320113, -43128.65205152656, -50227.72255274327, -11646.756428093486, -26496.271967443463, -31515.691461049493, -40296.4625115946, 0.024, 1.006, 0.09, 192.0, 0.0, 0.0, 0.0, 0.0, 0.0, 0.0, 0.0, 0.0, 0.0, 1.695333561326986E9, 0.0, 2023-09-21 16:59:21.326
42.0, 16118.468775566671, 9672.225674656114, -28154.883164749524, -41385.43950145716, -26403.80280063186, 31530.376557156633, -187500.02235174447, -38546.2985689996, -16588.8165341397, -28055.32849494559, -43121.36538283413, -50223.31925908557, -11639.134483234226, -26500.58585412334, -31505.499065577875, -40286.739502756536, 0.024, 1.006, 0.09, 192.0, 0.0, 0.0, 0.0, 0.0, 0.0, 0.0, 0.0, 0.0, 0.0, 1.695333561326995E9, 0.0, 2023-09-21 16:59:21.326
44.0, 16115.183069131741, 9670.795163010975, -28156.358379883575, -41375.20240249663, -26403.579283187304, 31556.841022591714, -187500.02235174447, -38536.977891561735, -16585.754345149322, -28054.36736993401, -43117.096199643165, -50219.60886950599, -11633.881823287229, -26494.86380754278, -31503.733277765907, -40277.73174974105, 0.024, 1.006, 0.09, 192.0, 0.0, 0.0, 0.0, 0.0, 0.0, 0.0, 0.0, 0.0, 0.0, 1.695333561327004E9, 0.0, 2023-09-21 16:59:21.327
46.0, 16113.171412130763, 9668.448229843169, -28148.401158857487, -41365.792318080945, -26402.618158175726, 31545.799260830794, -187500.02235174447, -38529.73592635822, -16589.285920773258, -28056.714303101817, -43120.650127011555, -50220.86056719549, -11636.072294243848, -26493.880330786746, -31497.474789318418, -40270.44508104862, 0.024, 1.006, 0.09, 192.0, 0.0, 0.0, 0.0, 0.0, 0.0, 0.0, 0.0, 0.0, 0.0, 1.695333561388066E9, 0.0, 2023-09-21 16:59:21.388
48.0, 16111.249162107608, 9668.314119376435, -28153.13972868201, -41369.45800417161, -26405.36742274373, 31572.44254022152, -187500.02235174447, -38528.99831879119, -16597.444307499445, -28052.93685828887, -43123.377039835104, -50218.98302066124, -11637.994544267005, -26481.832740525337, -31490.74691423737, -40264.14188911222, 0.026000000000000002, 1.008, 0.09, 192.0, 0.0, 104.0, 15.5, 64.0, 1.0, 104.0, 0.0, 0.0, 0.0, 1.695333561388086E9, 0.0, 2023-09-21 16:59:21.388
50.0, 16111.785603974535, 9669.05172694346, -28138.633446530515, -41378.152832764725, -26396.98551857299, 31548.48147016543, -187500.02235174447, -38536.1955805058, -16597.04197609925, -28054.814404823115, -43126.48393231439, -50223.56512827458, -11641.392009424211, -26490.415810396174, -31491.462170059942, -40273.55197352791, 0.026000000000000002, 1.008, 0.09, 192.0, 0.0, 0.0, 0.0, 0.0, 0.0, 0.0, 0.0, 0.0, 0.0, 1.695333561388096E9, 0.0, 2023-09-21 16:59:21.388
52.0, 16112.970246430667, 9669.632872299298, -28135.303036606674, -41384.746597379046, -26391.956376070546, 31570.63204892064, -187500.02235174447, -38532.12756301493, -16589.844714384642, -28052.623933866496, -43118.21378686593, -50220.12295962846, -11630.193785452102, -26488.895891773212, -31483.16967286702, -40274.423691561664, 0.026000000000000002, 1.008, 0.09, 192.0, 0.0, 0.0, 0.0, 0.0, 0.0, 0.0, 0.0, 0.0, 0.0, 1.695333561388136E9, 0.0, 2023-09-21 16:59:21.388
54.0, 16107.80699346149, 9665.251930386059, -28136.487679062808, -41395.922469606696, -26393.610405160238, 31550.090795766213, -187500.02235174447, -38542.498772442195, -16594.53858072026, -28063.30806771613, -43123.645260768564, -50228.63897426593, -11633.59125060931, -26501.971662279568, -31492.28918460479, -40287.87944172376, 0.026000000000000002, 1.008, 0.09, 192.0, 0.0, 0.0, 0.0, 0.0, 0.0, 0.0, 0.0, 0.0, 0.0, 1.695333561388146E9, 0.0, 2023-09-21 16:59:21.388
56.0, 16105.638874249325, 9664.179046652203, -28146.545964067696, -41396.123635306794, -26394.12449528271, 31566.094644796212, -187500.02235174447, -38535.994414805704, -16593.197476052937, -28062.056370026636, -43122.5276735458, -50228.88484345494, -11629.098549973793, -26498.082458744346, -31492.758571238348, -40288.840566735336, 0.026000000000000002, 1.008, 0.09, 192.0, 0.0, 0.0, 0.0, 0.0, 0.0, 0.0, 0.0, 0.0, 0.0, 1.695333561388155E9, 0.0, 2023-09-21 16:59:21.388
58.0, 16109.729243484646, 9663.128514662805, -28139.080481419624, -41391.161548037715, -26385.45201843405, 31538.803164816283, -187500.02235174447, -38535.32386247205, -16585.799048638233, -28060.40234093694, -43117.520882787816, -50230.06948591107, -11633.054808742381, -26498.77536282246, -31496.603071284662, -40284.437273077645, 0.024, 1.008, 0.096, 192.0, 0.0, 96.0, 15.5, 64.0, 1.5, 0.0, 0.0, 0.0, 0.0, 1.695333561388164E9, 0.0, 2023-09-21 16:59:21.388
60.0, 16119.631066278347, 9665.408392597246, -28144.15432741098, -41388.14406253625, -26384.98263180049, 31560.551412171295, -187500.02235174447, -38527.05371702358, -16582.915673603497, -28058.16716649141, -43112.69290598547, -50229.13071264395, -11622.795358037396, -26491.421638896663, -31486.365972324133, -40278.849336963816, 0.024, 1.008, 0.096, 192.0, 0.0, 0.0, 0.0, 0.0, 0.0, 0.0, 0.0, 0.0, 0.0, 1.695333561446951E9, 0.0, 2023-09-21 16:59:21.446
62.0, 16120.61454303438, 9656.892377959774, -28150.30105713619, -41394.179033539185, -26396.002041816955, 31548.883801565626, -187500.02235174447, -38540.71063288577, -16591.319929518693, -28061.765797348715, -43123.041763668276, -50235.322145858074, -11627.958611006572, -26498.57419712236, -31495.440780572986, -40282.22445037657, 0.024, 1.008, 0.096, 192.0, 0.0, 0.0, 0.0, 0.0, 0.0, 0.0, 0.0, 0.0, 0.0, 1.695333561446972E9, 0.0, 2023-09-21 16:59:21.446
64.0, 16123.676732024758, 9657.026488426505, -28160.71697005236, -41392.837928871864, -26404.473352965517, 31564.597077917708, -187500.02235174447, -38541.738813130716, -16601.95935987942, -28068.739541618772, -43135.93872021898, -50239.05488718211, -11634.865300043262, -26502.776325079958, -31501.65456553156, -40287.92414521267, 0.024, 1.008, 0.096, 192.0, 0.0, 0.0, 0.0, 0.0, 0.0, 0.0, 0.0, 0.0, 0.0, 1.695333561446982E9, 0.0, 2023-09-21 16:59:21.446
66.0, 16124.481394825149, 9658.4793518161, -28152.357417626074, -41376.85643158632, -26403.825152376314, 31544.704025352483, -187500.02235174447, -38536.44144969481, -16593.24217954185, -28062.190480493366, -43131.53542656129, -50233.26578536818, -11630.05967498537, -26496.22726395455, -31504.470885332932, -40276.23418286254, 0.024, 1.008, 0.096, 192.0, 0.0, 0.0, 0.0, 0.0, 0.0, 0.0, 0.0, 0.0, 0.0, 1.695333561446992E9, 0.0, 2023-09-21 16:59:21.446
68.0, 16116.300656354506, 9659.90986346124, -28150.61398155856, -41362.260742457, -26408.89899836767, 31555.611676646673, -187500.02235174447, -38534.027461293634, -16595.007967353817, -28061.74344560426, -43132.34008936168, -50233.355192346, -11632.428959897634, -26487.82300803936, -31501.431048087008, -40267.87463043626, 0.018000000000000002, 1.008, 0.092, 192.0, 0.0, 72.0, 15.5, 64.0, 1.0, 112.0, 0.0, 0.0, 0.0, 1.695333561447001E9, 0.0, 2023-09-21 16:59:21.447
70.0, 16129.57759256096, 9679.624102070822, -28125.37886206852, -41335.505704344, -26391.55404467035, 31552.72830161194, -187500.02235174447, -38519.789400075606, -16589.12945856207, -28050.053483254134, -43125.07577241371, -50224.41449456388, -11628.495052873499, -26474.65783055518, -31497.60889978515, -40253.5024587515, 0.018000000000000002, 1.008, 0.092, 192.0, 0.0, 0.0, 0.0, 0.0, 0.0, 0.0, 0.0, 0.0, 0.0, 1.695333561447011E9, 0.0, 2023-09-21 16:59:21.447
72.0, 16134.539679830037, 9686.709605063154, -28099.249672800266, -41320.910015214686, -26383.060381777334, 31582.322011270764, -187500.02235174447, -38507.74180981419, -16572.27624324277, -28024.46073585281, -43099.3712662901, -50197.25712505068, -11607.283247385412, -26450.22737386553, -31457.71103593243, -40219.01371705696, 0.018000000000000002, 1.008, 0.092, 192.0, 0.0, 0.0, 0.0, 0.0, 0.0, 0.0, 0.0, 0.0, 0.0, 1.695333561447049E9, 0.0, 2023-09-21 16:59:21.447
74.0, 16124.324932613961, 9674.080869445905, -28099.964928622834, -41338.165561934184, -26387.50837892394, 31591.016839863878, -187500.02235174447, -38523.38803093291, -16581.529865447268, -28034.697834813338, -43101.29351631326, -50203.49326175371, -11613.832308510819, -26454.653019267684, -31455.140585320067, -40224.91457759316, 0.018000000000000002, 1.008, 0.092, 192.0, 0.0, 0.0, 0.0, 0.0, 0.0, 0.0, 0.0, 0.0, 0.0, 1.695333561447059E9, 0.0, 2023-09-21 16:59:21.447
76.0, 16120.256915123096, 9671.86804674483, -28100.50137048976, -41356.42693715417, -26378.813550330826, 31578.119883313168, -187500.02235174447, -38522.024574521136, -16584.48029571537, -28043.526773873185, -43104.37805704809, -50207.851851922496, -11621.476605114533, -26469.47222584155, -31447.965675349915, -40243.82415340235, 0.018000000000000002, 1.008, 0.092, 192.0, 0.0, 0.0, 0.0, 0.0, 0.0, 0.0, 0.0, 0.0, 0.0, 1.695333561507291E9, 0.0, 2023-09-21 16:59:21.507
78.0, 16120.815708734479, 9673.566779323433, -28107.877446160015, -41370.57559139438, -26374.41025667313, 31568.173357030555, -187500.02235174447, -38520.057621009066, -16586.246083527338, -28043.41501515091, -43109.92128967301, -50210.95874440179, -11620.135500447215, -26476.33421138933, -31453.866535886114, -40256.743461697515, 0.014, 1.012, 0.088, 192.0, 0.0, 56.0, 15.5, 80.0, 1.0, 96.0, 0.0, 0.0, 0.0, 1.69533356150732E9, 0.0, 2023-09-21 16:59:21.507
80.0, 16111.80795571899, 9664.24610188557, -28119.500353276773, -41386.199460768636, -26380.73580035398, 31562.831290105736, -187500.02235174447, -38527.03136527912, -16583.42976372597, -28042.722111072795, -43111.06122864023, -50213.931526414344, -11611.619485809742, -26478.90466200169, -31457.643980699064, -40266.37706355775, 0.014, 1.012, 0.088, 192.0, 0.0, 0.0, 0.0, 0.0, 0.0, 0.0, 0.0, 0.0, 0.0, 1.69533356150733E9, 0.0, 2023-09-21 16:59:21.507
82.0, 16108.969284173167, 9659.5298838055, -28138.789908741703, -41398.44821673015, -26389.94471906957, 31571.839043121225, -187500.02235174447, -38534.2956822271, -16594.315063275702, -28058.860070569524, -43124.27110961331, -50232.729343501254, -11623.868241771252, -26485.297260915908, -31481.582699010694, -40286.27011612298, 0.014, 1.012, 0.088, 192.0, 0.0, 0.0, 0.0, 0.0, 0.0, 0.0, 0.0, 0.0, 0.0, 1.69533356150734E9, 0.0, 2023-09-21 16:59:21.507
84.0, 16105.348301571406, 9656.043011670472, -28142.85792623257, -41400.14694930875, -26397.454905206552, 31566.63108666314, -187500.02235174447, -38535.636786894414, -16587.877760872576, -28058.03305602468, -43118.34789733266, -50226.8061312206, -11618.816747524352, -26487.711249317083, -31482.275603088812, -40286.40422658971, 0.014, 1.012, 0.088, 192.0, 0.0, 0.0, 0.0, 0.0, 0.0, 0.0, 0.0, 0.0, 0.0, 1.695333561507349E9, 0.0, 2023-09-21 16:59:21.507
86.0, 16104.677749237748, 9656.043011670472, -28145.18250765592, -41398.69408591915, -26399.935948841092, 31573.761293144384, -187500.02235174447, -38533.02163279315, -16596.170258065493, -28062.816329338115, -43128.51794105982, -50236.88676796994, -11630.841986041307, -26484.53730160443, -31498.122989907624, -40292.30508712591, 0.014, 1.012, 0.088, 192.0, 0.0, 0.0, 0.0, 0.0, 0.0, 0.0, 0.0, 0.0, 0.0, 1.695333561507359E9, 0.0, 2023-09-21 16:59:21.507
88.0, 16115.741862743123, 9664.268453630026, -28129.04454815919, -41388.90402184773, -26391.17406501461, 31553.95764755698, -187500.02235174447, -38525.936129800815, -16586.648414927535, -28057.384855435474, -43115.17394962, -50231.09766615602, -11620.604887080775, -26473.115560187765, -31490.881024704104, -40280.4586625646, 0.016, 1.008, 0.08600000000000001, 192.0, 0.0, 64.0, 15.5, 64.0, 1.0, 88.0, 0.0, 0.0, 0.0, 1.695333561507368E9, 0.0, 2023-09-21 16:59:21.507
90.0, 16114.66897900927, 9657.540578548978, -28143.841402988604, -41397.26357427402, -26406.932044855603, 31577.985772846434, -187500.02235174447, -38536.597911906, -16591.00700509632, -28061.87755607099, -43118.9290426885, -50234.85275922451, -11624.672904571642, -26433.105937612767, -31490.433989815, -40280.57042128687, 0.016, 1.008, 0.08600000000000001, 192.0, 0.0, 0.0, 0.0, 0.0, 0.0, 0.0, 0.0, 0.0, 0.0, 1.69533356156757E9, 0.0, 2023-09-21 16:59:21.567
92.0, 16117.9546854442, 9660.043973927972, -28132.531420294217, -41384.70189389013, -26398.21486451803, 31552.169508000556, -187500.02235174447, -38531.345251959, -16587.654243428024, -28063.464529927318, -43117.40912406554, -50235.92564295836, -11618.973209735539, -26415.51511472644, -31494.010268927846, -40280.27984860895, 0.016, 1.008, 0.08600000000000001, 192.0, 0.0, 0.0, 0.0, 0.0, 0.0, 0.0, 0.0, 0.0, 0.0, 1.695333561567593E9, 0.0, 2023-09-21 16:59:21.567
94.0, 16118.245258122119, 9671.219846155625, -28121.690824233392, -41361.724300590075, -26388.827131846803, 31580.466816480974, -187500.02235174447, -38514.894368039895, -16603.300464546737, -28049.74055883176, -43121.58890027868, -50224.10157014151, -11629.500881373988, -26389.40827720264, -31479.95102166546, -40260.43149953264, 0.016, 1.008, 0.08600000000000001, 192.0, 0.0, 0.0, 0.0, 0.0, 0.0, 0.0, 0.0, 0.0, 0.0, 1.695333561567632E9, 0.0, 2023-09-21 16:59:21.567
96.0, 16112.992598175122, 9665.67661353071, -28119.746222465783, -41349.69906207312, -26389.56473941383, 31571.794339632317, -187500.02235174447, -38511.51925462714, -16599.634778456068, -28038.855259282027, -43124.40522008005, -50216.94901191581, -11629.702047074086, -26375.03610551788, -31464.3271522912, -40247.98157787104, 0.016, 1.008, 0.08600000000000001, 192.0, 0.0, 0.0, 0.0, 0.0, 0.0, 0.0, 0.0, 0.0, 0.0, 1.695333561567642E9, 0.0, 2023-09-21 16:59:21.567
98.0, 16116.278304610052, 9669.163485665738, -28107.028079870714, -41328.57666356285, -26377.83007357479, 31594.995450376926, -187500.02235174447, -38493.99548697418, -16602.316987790702, -28039.659922082417, -43125.25458636935, -50212.188090346826, -11626.05871272787, -26360.820396044302, -31455.83348939818, -40229.92136835115, 0.02, 1.008, 0.08, 192.0, 0.0, 80.0, 15.5, 64.0, 1.0, 64.0, 0.0, 0.0, 0.0, 1.695333561567651E9, 0.0, 2023-09-21 16:59:21.567
100.0, 16109.304560339995, 9660.826284983908, -28100.031983856203, -41338.54554158993, -26380.333468953788, 31578.29869726881, -187500.02235174447, -38508.34530691449, -16594.76209816481, -28034.16139294641, -43115.53157753129, -50204.45438676529, -11616.223945167536, -26355.768901797404, -31439.963750834915, -40221.450057202586, 0.02, 1.008, 0.08, 192.0, 0.0, 0.0, 0.0, 0.0, 0.0, 0.0, 0.0, 0.0, 0.0, 1.695333561567661E9, 0.0, 2023-09-21 16:59:21.567
102.0, 16121.709778512692, 9670.348128121868, -28089.124332562013, -41332.84584675382, -26365.31309667982, 31587.909947384593, -187500.02235174447, -38501.93035625581, -16600.819420912198, -28040.218715693798, -43116.470350798416, -50209.1482531009, -11619.643762069198, -26364.866061790715, -31438.577942678687, -40239.264397533465, 0.02, 1.008, 0.08, 192.0, 0.0, 0.0, 0.0, 0.0, 0.0, 0.0, 0.0, 0.0, 0.0, 1.69533356156767E9, 0.0, 2023-09-21 16:59:21.567
104.0, 16119.765176745079, 9662.793238495975, -28089.437256984387, -41348.71558531709, -26365.31309667982, 31563.166566272568, -187500.02235174447, -38506.75833305816, -16584.592054437646, -28030.115727200002, -43101.829958180184, -50199.89463089641, -11602.991712449993, -26359.59105009926, -31434.68873914346, -40234.77169689795, 0.02, 1.008, 0.08, 192.0, 0.0, 0.0, 0.0, 0.0, 0.0, 0.0, 0.0, 0.0, 0.0, 1.69533356156768E9, 0.0, 2023-09-21 16:59:21.567
106.0, 16115.227772620652, 9658.032316926994, -28110.336138050097, -41366.79814658143, -26381.763980598927, 31589.519272985373, -187500.02235174447, -38520.72817334273, -16583.116839303595, -28037.44709938134, -43103.796911692254, -50209.61763973447, -11604.891610728695, -26363.63671584567, -31447.40688173853, -40250.797897672404, 0.02, 1.008, 0.08, 192.0, 0.0, 0.0, 0.0, 0.0, 0.0, 0.0, 0.0, 0.0, 0.0, 1.69533356162692E9, 0.0, 2023-09-21 16:59:21.626
108.0, 16112.724377241657, 9656.95943319314, -28117.064013131145, -41377.4152251977, -26384.64735563366, 31553.979999301435, -187500.02235174447, -38526.71844085675, -16586.559007949712, -28042.051558739135, -43107.239080338375, -50217.37369506046, -11613.139404432703, -26373.56089038383, -31468.194004081968, -40268.075796136356, 0.018000000000000002, 1.008, 0.09, 192.0, 0.0, 72.0, 15.5, 64.0, 1.0, 104.0, 0.0, 0.0, 0.0, 1.695333561626939E9, 0.0, 2023-09-21 16:59:21.626
110.0, 16116.054787165498, 9660.088677416883, -28125.490620790795, -41381.4161874552, -26384.803817844848, 31560.037322048825, -187500.02235174447, -38518.940033786304, -16581.61927242509, -28043.862050040014, -43109.183682105984, -50220.435884050836, -11601.382386849213, -26373.873814806204, -31468.46222501543, -40270.176860115156, 0.018000000000000002, 1.008, 0.09, 192.0, 0.0, 0.0, 0.0, 0.0, 0.0, 0.0, 0.0, 0.0, 0.0, 1.695333561626949E9, 0.0, 2023-09-21 16:59:21.626
112.0, 16106.465888794171, 9648.331659833391, -28122.38372831151, -41394.35784749482, -26384.557948655838, 31549.509650410375, -187500.02235174447, -38529.557112402574, -16576.6124816671, -28041.157488960922, -43111.03887689577, -50221.26289859568, -11607.596171807787, -26375.192567729067, -31471.90439366155, -40271.227392104556, 0.018000000000000002, 1.008, 0.09, 192.0, 0.0, 0.0, 0.0, 0.0, 0.0, 0.0, 0.0, 0.0, 0.0, 1.695333561626958E9, 0.0, 2023-09-21 16:59:21.626
114.0, 16096.586417744926, 9640.508549274035, -28136.621789529538, -41402.851510387845, -26392.358707470743, 31556.036359791324, -187500.02235174447, -38536.57556016154, -16592.817496397198, -28054.50148040074, -43131.02133643882, -50239.50192207121, -11603.86343048375, -26379.640564875674, -31477.067646630723, -40285.66661902268, 0.018000000000000002, 1.008, 0.09, 192.0, 0.0, 0.0, 0.0, 0.0, 0.0, 0.0, 0.0, 0.0, 0.0, 1.695333561626968E9, 0.0, 2023-09-21 16:59:21.626
116.0, 16105.258894593586, 9646.163540621226, -28130.1397836375, -41391.47447246009, -26386.74841961246, 31522.642853575097, -187500.02235174447, -38532.66400488186, -16590.403507996023, -28044.89023028496, -43132.76477250633, -50235.098628413514, -11605.20453515107, -26372.800931072346, -31480.3310013212, -40280.369255586775, 0.018000000000000002, 1.008, 0.09, 192.0, 0.0, 0.0, 0.0, 0.0, 0.0, 0.0, 0.0, 0.0, 0.0, 1.695333561627004E9, 0.0, 2023-09-21 16:59:21.627
118.0, 16100.52032476906, 9641.760246963531, -28141.0921384206, -41394.35784749482, -26405.233312277, 31541.708891595474, -187500.02235174447, -38539.32482472954, -16597.868990644096, -28045.0690442406, -43136.47516208591, -50236.39502959193, -11612.222982910036, -26367.257698447433, -31477.626440242107, -40282.11269165429, 0.02, 1.012, 0.092, 192.0, 0.0, 80.0, 15.5, 80.0, 1.0, 112.0, 0.0, 0.0, 0.0, 1.695333561627013E9, 0.0, 2023-09-21 16:59:21.627
120.0, 16115.205420876197, 9650.700944745653, -28132.933751694414, -41381.12561477728, -26398.483085451495, 31539.630179361127, -187500.02235174447, -38529.62416763594, -16601.91465639051, -28042.45389013933, -43136.25164464136, -50234.495131313226, -11620.873108014239, -26362.340314667264, -31485.04721940127, -40273.44021480563, 0.02, 1.012, 0.092, 192.0, 0.0, 0.0, 0.0, 0.0, 0.0, 0.0, 0.0, 0.0, 0.0, 1.695333561686663E9, 0.0, 2023-09-21 16:59:21.686
122.0, 16120.301618612006, 9655.215997125626, -28125.22239985733, -41369.68152161616, -26398.728954640505, 31557.131595269635, -187500.02235174447, -38522.62807162143, -16593.08571733066, -28034.183744690865, -43126.90861545904, -50221.687581740334, -11617.229773668025, -26350.69505580605, -31466.18234708099, -40257.25755181999, 0.02, 1.012, 0.092, 192.0, 0.0, 0.0, 0.0, 0.0, 0.0, 0.0, 0.0, 0.0, 0.0, 1.695333561686686E9, 0.0, 2023-09-21 16:59:21.686
124.0, 16132.550374573515, 9665.29663387497, -28113.934768907402, -41357.388062165744, -26388.491855679975, 31570.29677275381, -187500.02235174447, -38514.402629661876, -16586.201380038427, -28024.863067253005, -43118.43730431048, -50208.76827344517, -11617.20742192357, -26337.418119599595, -31462.628419712597, -40245.00879585848, 0.02, 1.012, 0.092, 192.0, 0.0, 0.0, 0.0, 0.0, 0.0, 0.0, 0.0, 0.0, 0.0, 1.695333561686697E9, 0.0, 2023-09-21 16:59:21.686
126.0, 16129.734054772147, 9656.177122137204, -28112.83953342909, -41362.48425990156, -26387.30721322384, 31579.34922925821, -187500.02235174447, -38516.92837678533, -16587.877760872576, -28027.21000042081, -43117.72204848791, -50205.393160032414, -11615.106357944771, -26339.16155566711, -31447.78686139427, -40247.46748774857, 0.02, 1.012, 0.092, 192.0, 0.0, 0.0, 0.0, 0.0, 0.0, 0.0, 0.0, 0.0, 0.0, 1.695333561686706E9, 0.0, 2023-09-21 16:59:21.686
128.0, 16144.061522967999, 9661.429782084202, -28102.133047835, -41357.45511739911, -26375.572547384807, 31583.73017117145, -187500.02235174447, -38503.629088834416, -16575.249025255325, -28021.97969221827, -43102.746379702854, -50200.60988671898, -11602.321160116335, -26335.942904465548, -31443.830602625683, -40237.029223087935, 0.02, 1.008, 0.09, 192.0, 0.0, 80.0, 15.5, 64.0, 1.0, 104.0, 0.0, 0.0, 0.0, 1.695333561686716E9, 0.0, 2023-09-21 16:59:21.686
130.0, 16151.325839915973, 9660.289843116982, -28099.540245478183, -41368.63098962677, -26369.0234862594, 31580.48916822543, -187500.02235174447, -38507.831216792016, -16579.317042746192, -28027.254703909723, -43102.679324469485, -50205.03553212113, -11605.070424684338, -26344.078939447278, -31438.108556045125, -40242.17012431266, 0.02, 1.008, 0.09, 192.0, 0.0, 0.0, 0.0, 0.0, 0.0, 0.0, 0.0, 0.0, 0.0, 1.695333561686725E9, 0.0, 2023-09-21 16:59:21.686
132.0, 16149.38123814836, 9658.591110538377, -28105.619919970028, -41379.38217870977, -26368.39763741465, 31585.741828172428, -187500.02235174447, -38509.66405983735, -16573.304423487716, -28023.58901781905, -43096.398484277546, -50200.36401752997, -11598.789584492397, -26344.704788292027, -31441.103689802134, -40243.332415024335, 0.02, 1.008, 0.09, 192.0, 0.0, 0.0, 0.0, 0.0, 0.0, 0.0, 0.0, 0.0, 0.0, 1.695333561686735E9, 0.0, 2023-09-21 16:59:21.686
134.0, 16147.391932891838, 9659.90986346124, -28110.090268861088, -41385.148928779236, -26367.50356763644, 31565.357037229187, -187500.02235174447, -38515.25199595118, -16578.780600879265, -28031.479183611773, -43102.36640004712, -50205.393160032414, -11595.146250146181, -26359.948678010547, -31448.770338150305, -40255.31295005238, 0.02, 1.008, 0.09, 192.0, 0.0, 0.0, 0.0, 0.0, 0.0, 0.0, 0.0, 0.0, 0.0, 1.695333561686744E9, 0.0, 2023-09-21 16:59:21.686
136.0, 16146.72138055818, 9658.546407049467, -28123.970702167837, -41391.653286415734, -26374.298497950855, 31586.72530492846, -187500.02235174447, -38519.632937864415, -16579.04882181273, -28032.73088130127, -43109.27308908381, -50209.997619390204, -11602.321160116335, -26357.06530297581, -31461.153204578546, -40264.790089701426, 0.02, 1.008, 0.09, 192.0, 0.0, 0.0, 0.0, 0.0, 0.0, 0.0, 0.0, 0.0, 0.0, 1.69533356174696E9, 0.0, 2023-09-21 16:59:21.746
138.0, 16148.174243947775, 9663.776715252008, -28117.913379420446, -41389.418111970204, -26372.152730483143, 31562.406606961085, -187500.02235174447, -38518.82827506403, -16580.23346426886, -28028.126421943478, -43113.98930716387, -50207.02483737765, -11602.321160116335, -26357.959372754023, -31464.796538924762, -40266.24295309102, 0.02, 1.006, 0.094, 192.0, 0.0, 80.0, 15.5, 56.0, 1.0, 120.0, 0.0, 0.0, 0.0, 1.695333561747067E9, 0.0, 2023-09-21 16:59:21.747
140.0, 16138.607697320904, 9657.04884017096, -28130.363301082052, -41393.687295161166, -26378.299460208353, 31585.674772939063, -187500.02235174447, -38522.06927801004, -16579.406449724014, -28028.372291132488, -43117.8785106991, -50208.45534902279, -11601.20357289357, -26347.58816332676, -31472.28437331729, -40266.041787390925, 0.02, 1.006, 0.094, 192.0, 0.0, 0.0, 0.0, 0.0, 0.0, 0.0, 0.0, 0.0, 0.0, 1.695333561747078E9, 0.0, 2023-09-21 16:59:21.747
142.0, 16134.271458896574, 9655.10423840335, -28122.1378591225, -41395.11780680631, -26381.205186987543, 31571.861394865682, -187500.02235174447, -38529.80298159158, -16586.13432480506, -28032.239142923256, -43123.444095068466, -50214.55737525909, -11601.114165915747, -26352.282029662376, -31476.642963486072, -40271.38385431574, 0.02, 1.006, 0.094, 192.0, 0.0, 0.0, 0.0, 0.0, 0.0, 0.0, 0.0, 0.0, 0.0, 1.69533356174709E9, 0.0, 2023-09-21 16:59:21.747
144.0, 16132.550374573515, 9653.33845059138, -28127.591684769595, -41391.38506548227, -26385.45201843405, 31589.273403796364, -187500.02235174447, -38527.00901353467, -16588.391850995045, -28033.49084061275, -43123.08646715718, -50215.8537764375, -11605.137479917703, -26344.257753402922, -31474.497196018365, -40270.71330198208, 0.02, 1.006, 0.094, 192.0, 0.0, 0.0, 0.0, 0.0, 0.0, 0.0, 0.0, 0.0, 0.0, 1.695333561747101E9, 0.0, 2023-09-21 16:59:21.747
146.0, 16142.675714811769, 9658.680517516199, -28113.0854026181, -41379.829213598874, -26375.79606482936, 31572.57665068825, -187500.02235174447, -38521.734001843215, -16582.915673603497, -28027.813497521103, -43115.3751153201, -50209.97526764575, -11599.393081592689, -26340.59206731225, -31466.27175405881, -40259.29156056542, 0.02, 1.006, 0.094, 192.0, 0.0, 0.0, 0.0, 0.0, 0.0, 0.0, 0.0, 0.0, 0.0, 1.695333561747123E9, 0.0, 2023-09-21 16:59:21.747
148.0, 16149.224775937175, 9662.525017562511, -28128.351644081074, -41385.05952180142, -26384.200320744556, 31596.67183121107, -187500.02235174447, -38526.360812945466, -16584.837923626652, -28027.74644228774, -43113.00583040784, -50210.087026368026, -11602.097642671783, -26339.02744520038, -31461.46612900092, -40258.93393265414, 0.024, 1.01, 0.09, 192.0, 0.0, 96.0, 15.5, 72.0, 1.0, 104.0, 0.0, 0.0, 0.0, 1.695333561747132E9, 0.0, 2023-09-21 16:59:21.747
150.0, 16154.119807972886, 9668.649395543265, -28123.210742856354, -41379.5162891765, -26382.859216077235, 31568.843909364216, -187500.02235174447, -38528.461876924266, -16578.7135456459, -28022.15850617391, -43109.38484780608, -50203.582668731535, -11600.264799626446, -26344.1683464251, -31465.154166836044, -40257.88340066474, 0.024, 1.01, 0.09, 192.0, 0.0, 0.0, 0.0, 0.0, 0.0, 0.0, 0.0, 0.0, 0.0, 1.695333561807234E9, 0.0, 2023-09-21 16:59:21.807
152.0, 16171.017726781098, 9682.216904427636, -28115.164114852443, -41365.501745403024, -26377.718314852515, 31579.39393274712, -187500.02235174447, -38516.079010496025, -16569.526978674767, -28012.457849080307, -43100.66766746851, -50194.10552908248, -11599.258971125957, -26334.02065444239, -31455.922896376003, -40249.99323487202, 0.024, 1.01, 0.09, 192.0, 0.0, 0.0, 0.0, 0.0, 0.0, 0.0, 0.0, 0.0, 0.0, 1.695333561807258E9, 0.0, 2023-09-21 16:59:21.807
154.0, 16162.412305165804, 9674.05851770145, -28117.220475342332, -41376.25293448602, -26386.010812045435, 31576.376447245653, -187500.02235174447, -38520.59406287599, -16567.828246096164, -28011.183799646355, -43098.38778953407, -50191.57978195904, -11597.24731412498, -26332.88071547517, -31456.168765565013, -40244.0476708469, 0.024, 1.01, 0.09, 192.0, 0.0, 0.0, 0.0, 0.0, 0.0, 0.0, 0.0, 0.0, 0.0, 1.695333561807268E9, 0.0, 2023-09-21 16:59:21.807
156.0, 16160.9147382873, 9675.5337328355, -28126.42939405792, -41380.5668211659, -26386.860178334737, 31591.68739219754, -187500.02235174447, -38517.66598435235, -16574.444362454935, -28017.68815728285, -43105.42858903749, -50202.26391580867, -11608.490241586, -26333.573619553285, -31466.98700988138, -40253.5024587515, 0.024, 1.01, 0.09, 192.0, 0.0, 0.0, 0.0, 0.0, 0.0, 0.0, 0.0, 0.0, 0.0, 1.695333561807277E9, 0.0, 2023-09-21 16:59:21.807
158.0, 16161.495883643138, 9682.351014894368, -28116.818143942135, -41372.87782107328, -26372.040971760867, 31576.30939201229, -187500.02235174447, -38512.77095231664, -16577.104220045116, -28009.44036357884, -43103.48398726988, -50196.54186922811, -11605.673921784632, -26326.130488649665, -31470.920916905514, -40250.68613895013, 0.018000000000000002, 1.012, 0.094, 192.0, 0.0, 72.0, 15.5, 80.0, 1.0, 120.0, 0.0, 0.0, 0.0, 1.695333561807287E9, 0.0, 2023-09-21 16:59:21.807
160.0, 16152.555185861014, 9674.125572934816, -28133.04551041669, -41379.359826965316, -26377.248928218953, 31612.653328496617, -187500.02235174447, -38517.50952214116, -16576.008984566808, -28008.07690716707, -43107.68611522748, -50195.401930260894, -11598.29784611438, -26320.095517646732, -31463.008399368337, -40251.379043028246, 0.018000000000000002, 1.012, 0.094, 192.0, 0.0, 0.0, 0.0, 0.0, 0.0, 0.0, 0.0, 0.0, 0.0, 1.695333561807325E9, 0.0, 2023-09-21 16:59:21.807
162.0, 16150.923508515778, 9674.147924679271, -28119.52270502123, -41380.07508278789, -26370.990439771467, 31611.78161046286, -187500.02235174447, -38515.40845816237, -16584.23442652636, -28012.144924657932, -43113.60932750814, -50200.229907063236, -11609.607828808765, -26332.03134918587, -31468.886908160082, -40255.51411575248, 0.018000000000000002, 1.012, 0.094, 192.0, 0.0, 0.0, 0.0, 0.0, 0.0, 0.0, 0.0, 0.0, 0.0, 1.695333561807334E9, 0.0, 2023-09-21 16:59:21.807
164.0, 16166.882654056866, 9687.447212630179, -28110.023213627723, -41374.64360888524, -26364.08375073478, 31621.214046622998, -187500.02235174447, -38505.84191153549, -16580.300519502227, -28008.792162989637, -43109.76482746182, -50197.32418028405, -11602.522325816433, -26326.2645991164, -31460.706169689438, -40255.08943260783, 0.018000000000000002, 1.012, 0.094, 192.0, 0.0, 0.0, 0.0, 0.0, 0.0, 0.0, 0.0, 0.0, 0.0, 1.695333561807344E9, 0.0, 2023-09-21 16:59:21.807
166.0, 16159.841854553444, 9680.004081726562, -28112.213684584345, -41381.170318266195, -26364.50843387943, 31601.4104010356, -187500.02235174447, -38514.894368039895, -16571.628042653567, -28005.752325743717, -43103.55104250325, -50195.49133723872, -11593.693386756586, -26328.34331135074, -31462.18138482349, -40255.424708774655, 0.018000000000000002, 1.012, 0.094, 192.0, 0.0, 0.0, 0.0, 0.0, 0.0, 0.0, 0.0, 0.0, 0.0, 1.695333561867558E9, 0.0, 2023-09-21 16:59:21.867
168.0, 16157.025534752076, 9679.646453815276, -28118.494524776284, -41384.65719040122, -26364.75430306844, 31597.320031800275, -187500.02235174447, -38518.20242621928, -16577.752420634322, -28010.647357779428, -43110.56949026221, -50197.97238087325, -11590.027700665916, -26336.077014932278, -31457.93455337698, -40255.692929708115, 0.02, 1.002, 0.10200000000000001, 192.0, 0.0, 80.0, 15.5, 40.0, 1.5, 24.0, 0.0, 0.0, 0.0, 1.695333561867581E9, 0.0, 2023-09-21 16:59:21.867
170.0, 16147.43663638075, 9668.001194954062, -28131.860867960557, -41391.85445211583, -26373.762056083928, 31598.996412634424, -187500.02235174447, -38529.6912228693, -16586.536656205255, -28023.611369563507, -43122.77354273481, -50209.17060484536, -11596.442651324589, -26346.537631337364, -31468.529280248797, -40268.0534443919, 0.02, 1.002, 0.10200000000000001, 192.0, 0.0, 0.0, 0.0, 0.0, 0.0, 0.0, 0.0, 0.0, 0.0, 1.695333561867592E9, 0.0, 2023-09-21 16:59:21.867
172.0, 16148.129540458864, 9669.319947876924, -28130.18448712641, -41388.25582125853, -26372.465654905518, 31597.05181086681, -187500.02235174447, -38522.60571987697, -16586.961339349906, -28022.471430596284, -43119.82311246671, -50204.02970362064, -11593.335758845302, -26347.342294137754, -31459.298009788756, -40260.14092685472, 0.02, 1.002, 0.10200000000000001, 192.0, 0.0, 0.0, 0.0, 0.0, 0.0, 0.0, 0.0, 0.0, 0.0, 1.695333561867603E9, 0.0, 2023-09-21 16:59:21.867
174.0, 16149.425941637272, 9675.220808413125, -28135.548905795684, -41391.49682420454, -26371.70569559404, 31595.598947477218, -187500.02235174447, -38521.84576056549, -16592.83984814165, -28025.578323075573, -43124.96401369143, -50205.951953643795, -11589.938293688094, -26350.44918661704, -31468.194004081968, -40259.179801843144, 0.02, 1.002, 0.10200000000000001, 192.0, 0.0, 0.0, 0.0, 0.0, 0.0, 0.0, 0.0, 0.0, 0.0, 1.695333561867613E9, 0.0, 2023-09-21 16:59:21.867
176.0, 16155.215043451197, 9684.988520740095, -28128.195181869887, -41391.27330675999, -26368.129416481188, 31598.236453322945, -187500.02235174447, -38519.45412390878, -16587.09544981664, -28019.230427650265, -43115.48687404238, -50196.944200628306, -11600.421261837633, -26350.44918661704, -31456.951076620946, -40254.3518250408, 0.02, 1.002, 0.10200000000000001, 192.0, 0.0, 0.0, 0.0, 0.0, 0.0, 0.0, 0.0, 0.0, 0.0, 1.695333561867622E9, 0.0, 2023-09-21 16:59:21.867
178.0, 16145.67084856878, 9680.093488704382, -28134.565429039652, -41396.63772542927, -26373.225614216997, 31605.813694693294, -187500.02235174447, -38519.565882631054, -16594.739746420353, -28023.49961084123, -43116.872682198606, -50199.045264607106, -11600.823593237828, -26347.40934937112, -31460.929687133994, -40252.94366514011, 0.02, 1.008, 0.1, 192.0, 0.0, 80.0, 15.5, 64.0, 1.5, 16.0, 0.0, 0.0, 0.0, 1.695333561867631E9, 0.0, 2023-09-21 16:59:21.867
180.0, 16149.805921293011, 9682.909808505752, -28128.53045803672, -41393.30731550542, -26376.533672396385, 31593.855511409703, -187500.02235174447, -38517.57657737453, -16595.94674062094, -28022.471430596284, -43115.30806008674, -50197.860622150976, -11607.238543896503, -26348.348122638243, -31458.001608610346, -40253.21188607358, 0.02, 1.008, 0.1, 192.0, 0.0, 0.0, 0.0, 0.0, 0.0, 0.0, 0.0, 0.0, 0.0, 1.69533356192784E9, 0.0, 2023-09-21 16:59:21.927
182.0, 16161.071200498487, 9689.123593464326, -28126.250580102278, -41389.46281545911, -26368.93407928158, 31589.07223809627, -187500.02235174447, -38508.79234180359, -16590.090583573652, -28021.465602095795, -43112.78231296329, -50195.42428200535, -11607.909096230162, -26342.044930701846, -31467.41169302603, -40252.31781629536, 0.02, 1.008, 0.1, 192.0, 0.0, 0.0, 0.0, 0.0, 0.0, 0.0, 0.0, 0.0, 0.0, 1.695333561927893E9, 0.0, 2023-09-21 16:59:21.927
184.0, 16155.77383706258, 9681.166372438238, -28131.1903156269, -41397.665905674214, -26373.002096772445, 31577.471682723964, -187500.02235174447, -38519.230606464225, -16590.24704578484, -28023.92429398588, -43113.98930716387, -50199.55935472958, -11604.735148517508, -26347.722273793494, -31467.724617448406, -40256.609351230785, 0.02, 1.008, 0.1, 192.0, 0.0, 0.0, 0.0, 0.0, 0.0, 0.0, 0.0, 0.0, 0.0, 1.695333561927902E9, 0.0, 2023-09-21 16:59:21.927
186.0, 16162.702877843723, 9691.5375818655, -28138.074652919135, -41403.745580166054, -26377.204224730045, 31586.21121480599, -187500.02235174447, -38519.856455308975, -16591.25287428533, -28017.48699158275, -43119.48783629988, -50203.89559315391, -11604.042244439393, -26347.63286681567, -31477.84995768666, -40266.39941530221, 0.02, 1.008, 0.1, 192.0, 0.0, 0.0, 0.0, 0.0, 0.0, 0.0, 0.0, 0.0, 0.0, 1.695333561927912E9, 0.0, 2023-09-21 16:59:21.927
188.0, 16145.402627635316, 9665.095468174872, -28143.193202399398, -41411.09930409185, -26377.45009391905, 31582.836101393237, -187500.02235174447, -38523.81271407756, -16595.298540031738, -28023.991349219246, -43128.137961404085, -50213.864471180976, -11605.003369450971, -26353.466672118506, -31482.119140877625, -40273.39551131672, 0.022, 1.012, 0.1, 192.0, 0.0, 88.0, 15.5, 80.0, 1.5, 16.0, 0.0, 0.0, 0.0, 1.695333561927921E9, 0.0, 2023-09-21 16:59:21.927
190.0, 16151.303488171518, 9664.782543752497, -28131.391481327, -41402.15860630973, -26369.2246519595, 31607.78064820536, -187500.02235174447, -38516.570748874045, -16592.66103418601, -28037.938837759357, -43121.90182470105, -50218.8042067056, -11604.15400316167, -26349.68922730556, -31478.2299373424, -40262.621970489265, 0.022, 1.012, 0.1, 192.0, 0.0, 0.0, 0.0, 0.0, 0.0, 0.0, 0.0, 0.0, 0.0, 1.695333561927931E9, 0.0, 2023-09-21 16:59:21.927
192.0, 16150.923508515778, 9659.574587294412, -28126.89878069148, -41398.2694027745, -26366.96712576951, 31584.043095593825, -187500.02235174447, -38517.17424597433, -16586.33549050516, -28045.516079129706, -43121.38773457858, -50223.22985210775, -11599.907171715162, -26350.31507615031, -31473.580774495695, -40261.16910709967, 0.022, 1.012, 0.1, 192.0, 0.0, 0.0, 0.0, 0.0, 0.0, 0.0, 0.0, 0.0, 0.0, 1.695333561927941E9, 0.0, 2023-09-21 16:59:21.927
194.0, 16144.732075301657, 9655.953604692651, -28143.170850654944, -41398.850548130344, -26375.013753773423, 31612.1615901186, -187500.02235174447, -38519.74469658669, -16590.47056322939, -28047.08070124158, -43128.696755015466, -50225.91206144239, -11601.695311271586, -26345.241230158954, -31471.94909715046, -40259.85035417681, 0.022, 1.012, 0.1, 192.0, 0.0, 0.0, 0.0, 0.0, 0.0, 0.0, 0.0, 0.0, 0.0, 1.695333561927952E9, 0.0, 2023-09-21 16:59:21.927
196.0, 16139.166490932286, 9655.372459336813, -28141.114490165055, -41394.51430970601, -26373.538538639372, 31596.090685855233, -187500.02235174447, -38516.973080274234, -16585.84375212714, -28044.2196779513, -43127.713278259434, -50221.66522999588, -11602.768195005441, -26343.40838711362, -31471.32324830571, -40253.92714189615, 0.022, 1.012, 0.1, 192.0, 0.0, 0.0, 0.0, 0.0, 0.0, 0.0, 0.0, 0.0, 0.0, 1.695333561987263E9, 0.0, 2023-09-21 16:59:21.987
198.0, 16138.652400809813, 9653.159636635737, -28152.75974902627, -41405.913699378216, -26379.729971853492, 31619.895293700138, -187500.02235174447, -38522.87394081044, -16596.52788597678, -28048.824137309093, -43141.549008077265, -50226.11322714249, -11608.646703797187, -26343.78836676936, -31470.831509927695, -40262.95724665609, 0.03, 1.012, 0.096, 192.0, 0.0, 120.0, 15.5, 80.0, 1.5, 0.0, 0.0, 0.0, 0.0, 1.695333561987284E9, 0.0, 2023-09-21 16:59:21.987
200.0, 16149.180072448264, 9661.027450684005, -28135.48185056232, -41402.069199331905, -26370.521053137905, 31586.993525861923, -187500.02235174447, -38519.67764135333, -16589.218865539893, -28043.727939573284, -43132.0271649393, -50220.011200906185, -11608.490241586, -26345.889430748157, -31472.820815184215, -40263.56074375639, 0.03, 1.012, 0.096, 192.0, 0.0, 0.0, 0.0, 0.0, 0.0, 0.0, 0.0, 0.0, 0.0, 1.695333561987294E9, 0.0, 2023-09-21 16:59:21.987
202.0, 16147.727209058668, 9665.162523408238, -28140.958027953868, -41407.455969745635, -26381.965146299022, 31616.475476798474, -187500.02235174447, -38527.52310365714, -16592.728089419375, -28043.102090728535, -43132.27303412832, -50218.31246832758, -11607.909096230162, -26342.290799890852, -31470.920916905514, -40267.62876124725, 0.03, 1.012, 0.096, 192.0, 0.0, 0.0, 0.0, 0.0, 0.0, 0.0, 0.0, 0.0, 0.0, 1.695333561987331E9, 0.0, 2023-09-21 16:59:21.987
204.0, 16156.9137760298, 9675.690195046687, -28123.12133587853, -41399.94578360865, -26377.807721830337, 31584.33366827174, -187500.02235174447, -38524.952653044784, -16594.493877231347, -28040.330474416078, -43125.07577241371, -50212.27749732465, -11601.20357289357, -26347.20818367102, -31476.330039063698, -40268.276961836455, 0.03, 1.012, 0.096, 192.0, 0.0, 0.0, 0.0, 0.0, 0.0, 0.0, 0.0, 0.0, 0.0, 1.69533356198734E9, 0.0, 2023-09-21 16:59:21.987
206.0, 16160.713572587201, 9681.278131160514, -28127.926960936424, -41397.889423118766, -26380.445227676064, 31593.16260733159, -187500.02235174447, -38524.68443211132, -16587.81070563921, -28032.97675049028, -43114.704562986444, -50202.35332278649, -11605.137479917703, -26341.217916157, -31463.23191681289, -40261.236162333036, 0.03, 1.012, 0.096, 192.0, 0.0, 0.0, 0.0, 0.0, 0.0, 0.0, 0.0, 0.0, 0.0, 1.695333561987349E9, 0.0, 2023-09-21 16:59:21.987
208.0, 16151.504653871616, 9670.526942077511, -28137.538211052208, -41409.51233023552, -26390.302346980854, 31563.077159294746, -187500.02235174447, -38542.34231023101, -16596.036147598763, -28037.156526703424, -43116.023315909304, -50207.06954086656, -11608.91492473065, -26353.511375607417, -31475.704190218952, -40272.07675839386, 0.032, 1.016, 0.092, 192.0, 0.5, 0.0, 15.5, 96.0, 1.0, 112.0, 0.0, 0.0, 0.0, 1.695333561987359E9, 0.0, 2023-09-21 16:59:21.987
210.0, 16168.268462213096, 9682.507477105555, -28129.84921095958, -41399.275231274994, -26379.014716030924, 31561.73605462743, -187500.02235174447, -38529.981795547224, -16591.744612663344, -28039.391701148954, -43105.406237293035, -50206.39898853291, -11605.316293873346, -26351.007980228424, -31479.638097243085, -40276.21183111809, 0.032, 1.016, 0.092, 192.0, 0.0, 0.0, 0.0, 0.0, 0.0, 0.0, 0.0, 0.0, 0.0, 1.695333562047018E9, 0.0, 2023-09-21 16:59:22.047
212.0, 16168.603738379925, 9684.429727128712, -28127.837553958605, -41394.82723412839, -26382.16631199912, 31544.48050790793, -187500.02235174447, -38529.914740313856, -16571.493932186833, -28028.282884154665, -43086.16138531702, -50194.3961017604, -11592.57579953382, -26339.83210800077, -31475.503024518854, -40266.77939495795, 0.032, 1.016, 0.092, 192.0, 0.0, 0.0, 0.0, 0.0, 0.0, 0.0, 0.0, 0.0, 0.0, 1.695333562047044E9, 0.0, 2023-09-21 16:59:22.047
214.0, 16186.48513394417, 9703.294599448991, -28117.98043465381, -41381.036207799465, -26376.131340996188, 31543.586438129718, -187500.02235174447, -38516.88367329641, -16566.7106588734, -28022.516134085196, -43079.612324191614, -50188.763462157665, -11590.810011721851, -26331.137279407656, -31472.50789076184, -40261.81730768887, 0.032, 1.016, 0.092, 192.0, 0.0, 0.0, 0.0, 0.0, 0.0, 0.0, 0.0, 0.0, 0.0, 1.695333562047055E9, 0.0, 2023-09-21 16:59:22.047
216.0, 16172.984680293166, 9689.168296953238, -28138.029949430223, -41396.19069054016, -26388.22363474651, 31554.53879291282, -187500.02235174447, -38532.373432203945, -16567.247100740326, -28022.82905850757, -43083.21095504892, -50190.864526136465, -11589.871238454729, -26325.906971205113, -31478.364047809133, -40264.566572256874, 0.032, 1.016, 0.092, 192.0, 0.0, 0.0, 0.0, 0.0, 0.0, 0.0, 0.0, 0.0, 0.0, 1.695333562047064E9, 0.0, 2023-09-21 16:59:22.047
218.0, 16158.836026052955, 9676.316043891436, -28139.840440731103, -41403.34324876586, -26398.505437195952, 31574.588307689228, -187500.02235174447, -38534.58625490502, -16571.918615331488, -28031.590942334053, -43095.52676624379, -50201.59336347501, -11593.045186167383, -26334.31122712031, -31484.22020485642, -40272.36733107178, 0.032, 1.012, 0.09, 192.0, 0.5, 0.0, 15.5, 80.0, 1.0, 104.0, 0.0, 0.0, 0.0, 1.695333562047074E9, 0.0, 2023-09-21 16:59:22.047
220.0, 16141.513424100092, 9659.14990414976, -28148.892897235502, -41416.19550182766, -26404.272187265422, 31569.24624076441, -187500.02235174447, -38554.56871444806, -16588.056574828217, -28050.1205384875, -43114.369286819616, -50219.83238695054, -11615.687503300609, -26345.487099347964, -31498.86059747465, -40284.77254924447, 0.032, 1.012, 0.09, 192.0, 0.0, 0.0, 0.0, 0.0, 0.0, 0.0, 0.0, 0.0, 0.0, 1.695333562047083E9, 0.0, 2023-09-21 16:59:22.047
222.0, 16152.756351561113, 9668.180008909703, -28141.38271109852, -41402.31506852091, -26386.45784693454, 31545.06165326377, -187500.02235174447, -38537.044946795104, -16597.80193541073, -28051.349884432544, -43120.56072003373, -50222.35813407399, -11608.11026193026, -26345.35298888123, -31490.14341713708, -40285.063121922394, 0.032, 1.012, 0.09, 192.0, 0.0, 0.0, 0.0, 0.0, 0.0, 0.0, 0.0, 0.0, 0.0, 1.695333562047093E9, 0.0, 2023-09-21 16:59:22.047
224.0, 16146.38610439135, 9658.993441938574, -28146.81418500116, -41410.65226920274, -26385.89905332316, 31549.129670754635, -187500.02235174447, -38536.352042716986, -16587.877760872576, -28043.996160506747, -43114.369286819616, -50217.08312238254, -11598.72252925903, -26333.30539861982, -31485.04721940127, -40269.953342670604, 0.032, 1.012, 0.09, 192.0, 0.0, 0.0, 0.0, 0.0, 0.0, 0.0, 0.0, 0.0, 0.0, 1.695333562047129E9, 0.0, 2023-09-21 16:59:22.047
226.0, 16143.368618889883, 9654.210168625137, -28151.798624014693, -41415.03321111599, -26385.675535878603, 31542.535906140318, -187500.02235174447, -38532.75341185968, -16592.348109763636, -28054.70264610084, -43122.41591482353, -50227.72255274327, -11598.968398448038, -26344.235401658465, -31483.84022520068, -40275.72009274007, 0.032, 1.012, 0.09, 192.0, 0.0, 0.0, 0.0, 0.0, 0.0, 0.0, 0.0, 0.0, 0.0, 1.695333562107263E9, 0.0, 2023-09-21 16:59:22.107
228.0, 16148.777741048068, 9661.429782084202, -28148.557621068674, -41407.07599008989, -26373.583242128283, 31548.213249231965, -187500.02235174447, -38514.24616745069, -16594.829153398176, -28055.88728855697, -43123.33233634619, -50230.74003824473, -11601.538849060398, -26342.670779546595, -31488.243518858377, -40266.68998798013, 0.032, 1.004, 0.096, 192.0, 0.5, 0.0, 15.5, 48.0, 1.5, 0.0, 0.0, 0.0, 0.0, 1.695333562107281E9, 0.0, 2023-09-21 16:59:22.107
230.0, 16145.112054957397, 9658.591110538377, -28144.601362300084, -41408.68531569068, -26375.84076831827, 31550.023740532848, -187500.02235174447, -38519.67764135333, -16594.76209816481, -28050.54522163215, -43120.40425782255, -50227.499035298715, -11602.075290927327, -26335.36175910971, -31473.625477984606, -40257.05638611989, 0.032, 1.004, 0.096, 192.0, 0.0, 0.0, 0.0, 0.0, 0.0, 0.0, 0.0, 0.0, 0.0, 1.695333562107291E9, 0.0, 2023-09-21 16:59:22.107
232.0, 16143.77095029008, 9656.71356400413, -28156.80541477268, -41410.89813839175, -26384.960280056035, 31569.134482042133, -187500.02235174447, -38525.60085363399, -16602.875781402086, -28051.84162281056, -43125.85808346964, -50230.2035963778, -11606.43388109611, -26337.39576785514, -31484.555481023253, -40262.264342577975, 0.032, 1.004, 0.096, 192.0, 0.0, 0.0, 0.0, 0.0, 0.0, 0.0, 0.0, 0.0, 0.0, 1.695333562107301E9, 0.0, 2023-09-21 16:59:22.107
234.0, 16157.226700452175, 9667.777677509508, -28143.260257632766, -41398.40351324124, -26374.209090973032, 31546.648627120096, -187500.02235174447, -38514.38027791742, -16596.930217376976, -28046.07487274109, -43117.69969674345, -50222.35813407399, -11602.477622327522, -26336.635808543662, -31484.309611834244, -40262.890191422724, 0.032, 1.004, 0.096, 192.0, 0.0, 0.0, 0.0, 0.0, 0.0, 0.0, 0.0, 0.0, 0.0, 1.695333562107312E9, 0.0, 2023-09-21 16:59:22.107
236.0, 16153.024572494576, 9666.034241441994, -28149.2952286357, -41403.745580166054, -26374.298497950855, 31560.998447060403, -187500.02235174447, -38517.57657737453, -16590.783487651766, -28041.023378494192, -43110.83771119567, -50215.0044101482, -11598.968398448038, -26322.665968259094, -31479.10165537616, -40259.045691376414, 0.032, 1.004, 0.096, 192.0, 0.0, 0.0, 0.0, 0.0, 0.0, 0.0, 0.0, 0.0, 0.0, 1.695333562107321E9, 0.0, 2023-09-21 16:59:22.107
238.0, 16150.34236315994, 9665.408392597246, -28148.2446966463, -41409.065295346416, -26381.808684087835, 31537.372653171144, -187500.02235174447, -38525.53379840062, -16602.249932557337, -28048.153584975433, -43120.091333400174, -50224.81682596407, -11601.24827638248, -26337.909857977615, -31489.539920036786, -40275.22835436206, 0.024, 1.006, 0.088, 192.0, 0.0, 96.0, 15.5, 56.0, 1.0, 96.0, 0.0, 0.0, 0.0, 1.695333562107331E9, 0.0, 2023-09-21 16:59:22.107
240.0, 16161.317069687495, 9674.43849735719, -28142.52265006574, -41400.43752198667, -26377.561852641327, 31565.24527850691, -187500.02235174447, -38515.296699440085, -16587.497781216836, -28036.664788325405, -43111.50826352934, -50216.32316307106, -11599.124860659225, -26322.688320003548, -31490.344582837177, -40268.835755447835, 0.024, 1.006, 0.088, 192.0, 0.0, 0.0, 0.0, 0.0, 0.0, 0.0, 0.0, 0.0, 0.0, 1.695333562167481E9, 0.0, 2023-09-21 16:59:22.167
242.0, 16160.177130720274, 9668.917616476729, -28138.231115130322, -41406.76306566752, -26381.004021287445, 31547.207420731476, -187500.02235174447, -38529.87003682495, -16583.89915035953, -28034.720186557795, -43107.48494952738, -50216.434921793334, -11594.565104790343, -26320.564904280294, -31486.72360023542, -40268.92516242566, 0.024, 1.006, 0.088, 192.0, 0.0, 0.0, 0.0, 0.0, 0.0, 0.0, 0.0, 0.0, 0.0, 1.695333562167508E9, 0.0, 2023-09-21 16:59:22.167
244.0, 16157.226700452175, 9667.86708448733, -28142.455594832372, -41408.372391268305, -26385.8767015787, 31567.547508185806, -187500.02235174447, -38530.16060950287, -16581.70867940291, -28039.346997660043, -43106.54617626026, -50220.7041049843, -11595.615636779743, -26326.175192138577, -31494.189082883488, -40276.815328218385, 0.024, 1.006, 0.088, 192.0, 0.0, 0.0, 0.0, 0.0, 0.0, 0.0, 0.0, 0.0, 0.0, 1.69533356216752E9, 0.0, 2023-09-21 16:59:22.167
246.0, 16149.649459081826, 9663.955529207651, -28144.109623922068, -41415.61435647182, -26390.257643491943, 31541.083042750724, -187500.02235174447, -38544.599836420995, -16586.42489748298, -28044.242029695753, -43110.524786773305, -50223.587480019036, -11594.475697812522, -26331.40550034112, -31496.111332906647, -40281.509194554, 0.024, 1.006, 0.088, 192.0, 0.0, 0.0, 0.0, 0.0, 0.0, 0.0, 0.0, 0.0, 0.0, 1.695333562167568E9, 0.0, 2023-09-21 16:59:22.167
248.0, 16152.219909694186, 9670.169314166227, -28145.204859400375, -41409.60173721334, -26391.732858625994, 31558.137423770124, -187500.02235174447, -38540.80003986359, -16590.60467369612, -28038.989369748757, -43114.25752809734, -50220.86056719549, -11590.407680321656, -26325.906971205113, -31497.161864896047, -40283.18557538815, 0.024, 1.008, 0.088, 192.0, 0.0, 96.0, 15.5, 64.0, 1.0, 96.0, 0.0, 0.0, 0.0, 1.695333562167578E9, 0.0, 2023-09-21 16:59:22.167
250.0, 16145.71555205769, 9654.925424447707, -28134.341911595096, -41411.70280119214, -26386.636660890184, 31532.634083346617, -187500.02235174447, -38544.48807769872, -16590.224694040382, -28049.226468709287, -43113.05053389675, -50224.190977119324, -11597.62729378072, -26328.11979390619, -31496.692478262485, -40283.453796321606, 0.024, 1.008, 0.088, 192.0, 0.0, 0.0, 0.0, 0.0, 0.0, 0.0, 0.0, 0.0, 0.0, 1.695333562167588E9, 0.0, 2023-09-21 16:59:22.167
252.0, 16145.894366013334, 9656.668860515221, -28142.366187854554, -41414.54147273797, -26391.934024326092, 31548.95085679899, -187500.02235174447, -38540.77768811914, -16590.023528340284, -28060.782320592683, -43114.011658908326, -50229.443637066324, -11597.828459480817, -26331.22668638548, -31492.66916426053, -40285.331342855854, 0.024, 1.008, 0.088, 192.0, 0.0, 0.0, 0.0, 0.0, 0.0, 0.0, 0.0, 0.0, 0.0, 1.695333562167597E9, 0.0, 2023-09-21 16:59:22.167
254.0, 16155.103284728919, 9663.530846063, -28128.10577489207, -41404.14791156625, -26379.68526836458, 31525.28035942082, -187500.02235174447, -38535.61443514996, -16582.870970114585, -28050.008779765223, -43106.7249902159, -50222.51459628518, -11589.848886710273, -26324.476459559974, -31493.51853054983, -40277.441177063134, 0.024, 1.008, 0.088, 192.0, 0.0, 0.0, 0.0, 0.0, 0.0, 0.0, 0.0, 0.0, 0.0, 1.695333562167607E9, 0.0, 2023-09-21 16:59:22.167
0.0, 16144.419150879283, 9655.10423840335, -28145.18250765592, -41413.64740295975, -26393.118666782222, 31553.48826092342, -187500.02235174447, -38549.11488880097, -16591.766964407798, -28054.009742022725, -43112.67055424101, -50226.04617190912, -11597.448479825078, -26323.761203737406, -31490.881024704104, -40283.945534699626, 0.024, 1.008, 0.088, 192.0, 0.0, 0.0, 0.0, 0.0, 0.0, 0.0, 0.0, 0.0, 0.0, 1.695333562227774E9, 0.0, 2023-09-21 16:59:22.227
2.0, 16159.171302219786, 9669.923444977218, -28133.00080692778, -41401.06337083142, -26377.807721830337, 31530.689481579007, -187500.02235174447, -38531.09938276999, -16586.26843527179, -28040.30812267162, -43104.13218785908, -50214.199747347804, -11592.553447789365, -26323.247113614932, -31493.451475316466, -40275.22835436206, 0.028, 1.008, 0.078, 192.0, 0.0, 112.0, 15.5, 64.0, 1.0, 56.0, 0.0, 0.0, 0.0, 1.695333562227795E9, 0.0, 2023-09-21 16:59:22.227
4.0, 16164.423962166782, 9673.320910134426, -28131.61499877155, -41402.002144098544, -26376.958355541035, 31542.222981717943, -187500.02235174447, -38526.58433039002, -16584.23442652636, -28044.733768073773, -43106.43441753798, -50214.64678223691, -11591.972302433527, -26319.156744379612, -31489.42816131451, -40276.189479373636, 0.028, 1.008, 0.078, 192.0, 0.0, 0.0, 0.0, 0.0, 0.0, 0.0, 0.0, 0.0, 0.0, 1.695333562227805E9, 0.0, 2023-09-21 16:59:22.227
6.0, 16160.065371997998, 9666.995366453573, -28131.346777838087, -41403.45500748813, -26375.326678195797, 31539.943103783502, -187500.02235174447, -38531.50171417018, -16580.434629968957, -28039.346997660043, -43100.28768781277, -50212.5010147692, -11587.032566908905, -26311.512447775895, -31487.304745591257, -40268.32166532537, 0.028, 1.008, 0.078, 192.0, 0.0, 0.0, 0.0, 0.0, 0.0, 0.0, 0.0, 0.0, 0.0, 1.695333562227815E9, 0.0, 2023-09-21 16:59:22.227
8.0, 16147.570746847481, 9652.24321511307, -28143.394368099496, -41413.96032738213, -26385.74259111197, 31553.845888834705, -187500.02235174447, -38537.96136831777, -16588.257740528315, -28054.233259467277, -43113.00583040784, -50225.50973004219, -11593.156944889659, -26323.9623694375, -31486.90241419106, -40275.94361018462, 0.028, 1.008, 0.078, 192.0, 0.0, 0.0, 0.0, 0.0, 0.0, 0.0, 0.0, 0.0, 0.0, 1.695333562227824E9, 0.0, 2023-09-21 16:59:22.227
10.0, 16142.966287489688, 9649.024563911506, -28144.824879744636, -41414.6755832047, -26385.966108556524, 31545.03930151931, -187500.02235174447, -38537.20140900629, -16596.214961554404, -28062.45870142683, -43122.125342145606, -50238.45139008181, -11598.253142625468, -26332.567791052796, -31496.3348503512, -40280.27984860895, 0.028, 1.008, 0.078, 192.0, 0.0, 0.0, 0.0, 0.0, 0.0, 0.0, 0.0, 0.0, 0.0, 1.695333562227833E9, 0.0, 2023-09-21 16:59:22.227
12.0, 16144.620316579381, 9650.6785930012, -28140.689807020404, -41408.17122556821, -26384.22267248901, 31542.267685206854, -187500.02235174447, -38528.81950483555, -16590.895246374042, -28057.54131764666, -43118.16908337702, -50233.26578536818, -11588.686595998597, -26325.325825849275, -31489.539920036786, -40270.10980488179, 0.026000000000000002, 1.008, 0.076, 192.0, 0.0, 104.0, 15.5, 64.0, 1.0, 48.0, 0.0, 0.0, 0.0, 1.69533356222787E9, 0.0, 2023-09-21 16:59:22.227
14.0, 16138.540642087537, 9642.900185930752, -28145.987170456312, -41414.586176226876, -26388.715373124527, 31548.52617365434, -187500.02235174447, -38543.3481387315, -16602.987540124363, -28065.632649139483, -43129.881397471596, -50242.69822152832, -11609.183145664114, -26324.051776415323, -31498.726487007916, -40278.96109568609, 0.026000000000000002, 1.008, 0.076, 192.0, 0.0, 0.0, 0.0, 0.0, 0.0, 0.0, 0.0, 0.0, 0.0, 1.695333562287194E9, 0.0, 2023-09-21 16:59:22.287
16.0, 16151.839930038444, 9653.092581402372, -28134.788946484205, -41404.594946455356, -26376.578375885296, 31534.109298480667, -187500.02235174447, -38535.25680723868, -16599.031281355772, -28060.51409965922, -43128.003850937355, -50240.57480580507, -11596.330892602313, -26325.07995666027, -31494.189082883488, -40278.759929985994, 0.026000000000000002, 1.008, 0.076, 192.0, 0.0, 0.0, 0.0, 0.0, 0.0, 0.0, 0.0, 0.0, 0.0, 1.695333562287216E9, 0.0, 2023-09-21 16:59:22.287
18.0, 16145.20146193522, 9650.566834278921, -28144.064920433157, -41412.26159480352, -26380.422875931607, 31545.128708497134, -187500.02235174447, -38537.67079563985, -16591.766964407798, -28054.590887378563, -43122.90765320154, -50236.149160402914, -11595.414471079644, -26315.088726888745, -31489.226995614412, -40274.580153772855, 0.026000000000000002, 1.008, 0.076, 192.0, 0.0, 0.0, 0.0, 0.0, 0.0, 0.0, 0.0, 0.0, 0.0, 1.695333562287225E9, 0.0, 2023-09-21 16:59:22.287
20.0, 16158.34428767494, 9658.121723904816, -28138.633446530515, -41405.53371972248, -26376.42191367411, 31530.778888556826, -187500.02235174447, -38531.38995544791, -16591.342281263147, -28053.473300155798, -43122.818246223724, -50234.24926212421, -11597.135555402703, -26319.380261824164, -31485.985992668393, -40275.51892703997, 0.026000000000000002, 1.008, 0.076, 192.0, 0.0, 0.0, 0.0, 0.0, 0.0, 0.0, 0.0, 0.0, 0.0, 1.695333562287235E9, 0.0, 2023-09-21 16:59:22.287
22.0, 16157.204348707719, 9654.657203514244, -28145.204859400375, -41412.30629829244, -26389.31887022482, 31546.29099920881, -187500.02235174447, -38541.67175789735, -16585.84375212714, -28050.36640767651, -43112.402333307546, -50227.67784925435, -11595.995616435483, -26313.92643617707, -31488.42233281402, -40271.070929893365, 0.028, 1.01, 0.082, 192.0, 0.0, 112.0, 15.5, 72.0, 1.0, 72.0, 0.0, 0.0, 0.0, 1.695333562287244E9, 0.0, 2023-09-21 16:59:22.287
24.0, 16167.48615115716, 9665.274282130515, -28137.404100585474, -41406.78541741198, -26386.480198678997, 31522.888722764103, -187500.02235174447, -38542.72228988675, -16590.314101018204, -28055.283791456677, -43112.98347866339, -50229.108360899496, -11601.047110682382, -26327.91862820609, -31496.401905584564, -40279.43048231965, 0.028, 1.01, 0.082, 192.0, 0.0, 0.0, 0.0, 0.0, 0.0, 0.0, 0.0, 0.0, 0.0, 1.695333562287254E9, 0.0, 2023-09-21 16:59:22.287
26.0, 16175.756296605623, 9675.019642713029, -28133.961931939357, -41397.4200364852, -26379.618213131216, 31532.56702811325, -187500.02235174447, -38524.79619083359, -16576.031336311262, -28043.705587828827, -43095.72793194389, -50217.06077063808, -11596.06267166885, -26313.389994310142, -31491.66333576004, -40267.852278691804, 0.028, 1.01, 0.082, 192.0, 0.0, 0.0, 0.0, 0.0, 0.0, 0.0, 0.0, 0.0, 0.0, 1.695333562287264E9, 0.0, 2023-09-21 16:59:22.287
28.0, 16170.302470958528, 9676.941892736184, -28130.787984226703, -41394.20138528364, -26379.1264747532, 31518.396022128585, -187500.02235174447, -38523.94682454429, -16579.51820844629, -28044.711416329315, -43097.4713680114, -50213.730360714246, -11589.848886710273, -26316.1616106226, -31485.51660603483, -40264.2536478345, 0.028, 1.01, 0.082, 192.0, 0.0, 0.0, 0.0, 0.0, 0.0, 0.0, 0.0, 0.0, 0.0, 1.695333562287273E9, 0.0, 2023-09-21 16:59:22.287
30.0, 16163.976927277678, 9669.789334510486, -28136.018292429246, -41393.128501549785, -26384.40148644465, 31548.928505054537, -187500.02235174447, -38525.73496410072, -16586.357842249614, -28042.275076183687, -43101.561737246724, -50210.89168916842, -11601.225924638025, -26309.187866352546, -31488.31057409174, -40261.34792105531, 0.028, 1.01, 0.082, 192.0, 0.0, 0.0, 0.0, 0.0, 0.0, 0.0, 0.0, 0.0, 0.0, 1.695333562347034E9, 0.0, 2023-09-21 16:59:22.347
32.0, 16159.439523153249, 9664.111991418838, -28130.09508014859, -41391.20625152663, -26385.40731494514, 31528.074327477734, -187500.02235174447, -38528.90891181337, -16591.342281263147, -28049.762910576217, -43108.557833261235, -50216.166700859874, -11599.974226948527, -26321.54838103633, -31490.255175859354, -40262.95724665609, 0.032, 1.01, 0.08, 192.0, 0.5, 0.0, 15.5, 72.0, 1.0, 64.0, 0.0, 0.0, 0.0, 1.695333562347059E9, 0.0, 2023-09-21 16:59:22.347
34.0, 16163.10520924392, 9669.319947876924, -28126.071766146633, -41383.74076887855, -26381.78633234338, 31545.44163291951, -187500.02235174447, -38524.43856292231, -16591.85637138562, -28045.583134363074, -43109.54131001727, -50213.39508454742, -11597.560238547354, -26312.339462320742, -31488.198815369466, -40260.36444429927, 0.032, 1.01, 0.08, 192.0, 0.0, 0.0, 0.0, 0.0, 0.0, 0.0, 0.0, 0.0, 0.0, 1.695333562347119E9, 0.0, 2023-09-21 16:59:22.347
36.0, 16166.837950567957, 9676.472506102624, -28110.291434561186, -41372.72135886209, -26373.896166550658, 31519.71477505145, -187500.02235174447, -38516.32487968503, -16583.027432325773, -28028.864029510503, -43100.28768781277, -50200.76634893016, -11585.177372119115, -26309.187866352546, -31476.17357685251, -40245.88051389224, 0.032, 1.01, 0.08, 192.0, 0.0, 0.0, 0.0, 0.0, 0.0, 0.0, 0.0, 0.0, 0.0, 1.695333562347128E9, 0.0, 2023-09-21 16:59:22.347
38.0, 16173.454066926726, 9681.30048290497, -28113.353623551564, -41374.33068446287, -26373.426779917096, 31538.691406094007, -187500.02235174447, -38511.69806858279, -16582.669804414487, -28030.62981732247, -43105.18271984848, -50203.67207570936, -11586.965511675538, -26306.013918639892, -31478.833434442695, -40247.042804603916, 0.032, 1.01, 0.08, 192.0, 0.0, 0.0, 0.0, 0.0, 0.0, 0.0, 0.0, 0.0, 0.0, 1.695333562347138E9, 0.0, 2023-09-21 16:59:22.347
40.0, 16161.071200498487, 9658.926386705207, -28122.27196958923, -41391.653286415734, -26377.204224730045, 31531.315330423753, -187500.02235174447, -38522.493961154694, -16578.84765611263, -28033.401433634932, -43104.24394658136, -50207.6506862224, -11582.71868022903, -26305.142200606133, -31475.883004174593, -40249.16622032717, 0.032, 1.01, 0.08, 192.0, 0.0, 0.0, 0.0, 0.0, 0.0, 0.0, 0.0, 0.0, 0.0, 1.695333562347147E9, 0.0, 2023-09-21 16:59:22.347
42.0, 16143.8603572679, 9644.151883620249, -28140.063958175655, -41407.34421102336, -26386.010812045435, 31556.617505147162, -187500.02235174447, -38528.238359479714, -16594.7173946759, -28054.27796295619, -43124.38286833559, -50231.410590578394, -11593.335758845302, -26317.167439123088, -31486.678896746507, -40262.84548793382, 0.024, 1.012, 0.08, 192.0, 0.0, 96.0, 15.5, 80.0, 1.0, 64.0, 0.0, 0.0, 0.0, 1.695333562347157E9, 0.0, 2023-09-21 16:59:22.347
44.0, 16142.541604345037, 9642.453151041645, -28140.689807020404, -41408.372391268305, -26385.161445756134, 31519.938292496005, -187500.02235174447, -38535.25680723868, -16599.970054622896, -28065.967925306315, -43132.00481319485, -50243.4581808398, -11594.319235601335, -26328.455070073018, -31499.821722486227, -40271.920296182674, 0.024, 1.012, 0.08, 192.0, 0.0, 0.0, 0.0, 0.0, 0.0, 0.0, 0.0, 0.0, 0.0, 1.695333562407287E9, 0.0, 2023-09-21 16:59:22.407
46.0, 16146.497863113627, 9644.19658710916, -28141.24860063179, -41405.57842321139, -26379.729971853492, 31532.589379857705, -187500.02235174447, -38526.629033878926, -16597.220790054893, -28059.955306047836, -43127.95914744844, -50239.07723892656, -11592.77696523392, -26324.118831648688, -31498.19004514099, -40267.584057758344, 0.024, 1.012, 0.08, 192.0, 0.0, 0.0, 0.0, 0.0, 0.0, 0.0, 0.0, 0.0, 0.0, 1.695333562407313E9, 0.0, 2023-09-21 16:59:22.407
48.0, 16143.10039795642, 9635.76997944951, -28144.646065788995, -41409.065295346416, -26379.908785809137, 31522.70990880846, -187500.02235174447, -38532.97692930423, -16600.551199978734, -28060.715265359315, -43129.79199049377, -50243.145256417425, -11591.860543711251, -26326.10813690521, -31502.213359142945, -40266.5558775134, 0.024, 1.012, 0.08, 192.0, 0.0, 0.0, 0.0, 0.0, 0.0, 0.0, 0.0, 0.0, 0.0, 1.695333562407322E9, 0.0, 2023-09-21 16:59:22.407
50.0, 16145.983772991154, 9639.010982395528, -28149.943429224903, -41406.98658311208, -26383.194492244067, 31535.226885703432, -187500.02235174447, -38531.524065914644, -16606.988502381864, -28067.711361373826, -43137.16806616403, -50249.917834987384, -11595.548581546376, -26330.53378230736, -31504.18031265501, -40274.17782237266, 0.024, 1.012, 0.08, 192.0, 0.0, 0.0, 0.0, 0.0, 0.0, 0.0, 0.0, 0.0, 0.0, 1.695333562407332E9, 0.0, 2023-09-21 16:59:22.407
52.0, 16148.017781736587, 9643.436627797679, -28138.052301174677, -41404.170263310705, -26376.04193401837, 31524.028661731325, -187500.02235174447, -38534.183923504825, -16594.7173946759, -28059.307105458633, -43128.830865482196, -50242.49705582822, -11589.066575654339, -26327.49394506144, -31506.102562678167, -40272.81436596088, 0.03, 1.01, 0.08, 192.0, 0.0, 120.0, 15.5, 72.0, 1.0, 64.0, 0.0, 0.0, 0.0, 1.695333562407341E9, 0.0, 2023-09-21 16:59:22.407
54.0, 16153.605717850414, 9649.493950545067, -28138.52168780824, -41402.31506852091, -26380.400524187153, 31529.214266444957, -187500.02235174447, -38535.59208340551, -16598.785412166766, -28059.50827115873, -43125.746324747364, -50240.12777091596, -11591.145287888681, -26325.325825849275, -31498.748838752374, -40273.61902876128, 0.03, 1.01, 0.08, 192.0, 0.0, 0.0, 0.0, 0.0, 0.0, 0.0, 0.0, 0.0, 0.0, 1.695333562407381E9, 0.0, 2023-09-21 16:59:22.407
56.0, 16164.602776122425, 9661.139209406283, -28126.876428947024, -41388.47933870308, -26371.102198493743, 31529.460135633963, -187500.02235174447, -38526.80784783457, -16593.175124308484, -28049.584096620572, -43115.50922578684, -50228.72838124375, -11589.67007275463, -26311.69126173154, -31497.474789318418, -40264.54422051242, 0.03, 1.01, 0.08, 192.0, 0.0, 0.0, 0.0, 0.0, 0.0, 0.0, 0.0, 0.0, 0.0, 1.695333562407391E9, 0.0, 2023-09-21 16:59:22.407
58.0, 16168.648441868836, 9665.564854808434, -28122.227266100323, -41387.42880671368, -26372.622117116705, 31545.73220559743, -187500.02235174447, -38525.10911525597, -16589.42003123999, -28044.577305862585, -43107.7755222053, -50216.92666017135, -11586.585532019799, -26302.102363360213, -31484.399018812066, -40260.00681638799, 0.03, 1.01, 0.08, 192.0, 0.0, 0.0, 0.0, 0.0, 0.0, 0.0, 0.0, 0.0, 0.0, 1.6953335624074E9, 0.0, 2023-09-21 16:59:22.407
60.0, 16174.012860538109, 9667.86708448733, -28115.924074163926, -41385.84183285735, -26365.961297269023, 31537.752632826883, -187500.02235174447, -38521.041097765104, -16580.591092180144, -28038.765852304205, -43099.03599012327, -50209.036494378626, -11581.265816839436, -26301.521218004375, -31486.0306961573, -40255.46941226356, 0.03, 1.01, 0.08, 192.0, 0.0, 0.0, 0.0, 0.0, 0.0, 0.0, 0.0, 0.0, 0.0, 1.695333562467546E9, 0.0, 2023-09-21 16:59:22.467
62.0, 16164.28985170005, 9658.568758793923, -28127.725795236325, -41400.884556875775, -26381.004021287445, 31540.47954565043, -187500.02235174447, -38532.14991475939, -16587.050746327728, -28046.678369841382, -43104.33335355918, -50214.13269211444, -11578.471848782523, -26313.412346054596, -31480.1298356211, -40262.48786002253, 0.032, 1.006, 0.09, 192.0, 0.5, 0.0, 15.5, 56.0, 1.0, 104.0, 0.0, 0.0, 0.0, 1.695333562467574E9, 0.0, 2023-09-21 16:59:22.467
64.0, 16159.081895241965, 9653.561968035934, -28136.733548251814, -41404.773760411, -26378.545329397362, 31532.90230428008, -187500.02235174447, -38532.48519092622, -16596.729051676877, -28054.50148040074, -43114.25752809734, -50225.91206144239, -11600.980055449016, -26317.547418778828, -31495.95487069546, -40271.003874660004, 0.032, 1.006, 0.09, 192.0, 0.0, 0.0, 0.0, 0.0, 0.0, 0.0, 0.0, 0.0, 0.0, 1.695333562467585E9, 0.0, 2023-09-21 16:59:22.467
66.0, 16150.677639326768, 9644.688325487175, -28146.43420534542, -41408.26063254603, -26386.614309145727, 31525.503876865376, -187500.02235174447, -38542.856400353485, -16597.42195575499, -28057.071931013103, -43115.755094975844, -50228.41545682138, -11594.81097397935, -26320.989587424945, -31496.80423698476, -40271.74148222703, 0.032, 1.006, 0.09, 192.0, 0.0, 0.0, 0.0, 0.0, 0.0, 0.0, 0.0, 0.0, 0.0, 1.695333562467594E9, 0.0, 2023-09-21 16:59:22.467
68.0, 16153.359848661406, 9648.5775290224, -28141.986208198814, -41398.33645800787, -26385.764942856425, 31532.879952535626, -187500.02235174447, -38537.760202617676, -16602.96518837991, -28064.98444855028, -43124.91931020252, -50235.83623598054, -11602.768195005441, -26323.64944501513, -31508.09186793469, -40274.848374706315, 0.032, 1.006, 0.09, 192.0, 0.0, 0.0, 0.0, 0.0, 0.0, 0.0, 0.0, 0.0, 0.0, 1.695333562467604E9, 0.0, 2023-09-21 16:59:22.467
70.0, 16144.888537512845, 9637.71458121712, -28145.96481871186, -41399.76696965301, -26391.822265603816, 31525.436821632007, -187500.02235174447, -38539.146010773904, -16599.120688333594, -28062.726922360293, -43121.52184504531, -50231.79057023413, -11596.196782135581, -26321.280160102866, -31503.688574276995, -40265.9523804131, 0.032, 1.006, 0.09, 192.0, 0.0, 0.0, 0.0, 0.0, 0.0, 0.0, 0.0, 0.0, 0.0, 1.695333562467613E9, 0.0, 2023-09-21 16:59:22.467
72.0, 16147.280174169562, 9641.044991140961, -28145.540135567207, -41394.62606842829, -26390.101181280756, 31526.353243154677, -187500.02235174447, -38534.72036537175, -16602.47345000189, -28064.582117150083, -43124.44992356896, -50234.56218654659, -11600.130689159714, -26320.609607769205, -31510.75172552487, -40265.52769726845, 0.024, 1.008, 0.082, 192.0, 0.0, 96.0, 15.5, 64.0, 1.0, 72.0, 0.0, 0.0, 0.0, 1.695333562467623E9, 0.0, 2023-09-21 16:59:22.467
74.0, 16160.065371997998, 9654.925424447707, -28130.698577248884, -41383.65136190073, -26377.964184041524, 31493.339716594186, -187500.02235174447, -38526.852551323485, -16599.05363310023, -28057.206041479832, -43120.87364445611, -50227.700200998814, -11592.15111638917, -26318.843819957237, -31504.403830099563, -40259.44802277661, 0.024, 1.008, 0.082, 192.0, 0.0, 0.0, 0.0, 0.0, 0.0, 0.0, 0.0, 0.0, 0.0, 1.695333562528075E9, 0.0, 2023-09-21 16:59:22.528
76.0, 16154.142159717341, 9647.90697668874, -28132.79964122768, -41387.76408288051, -26377.628907874696, 31514.775039526827, -187500.02235174447, -38527.56780714605, -16586.827228883176, -28043.258552939722, -43113.00583040784, -50217.910136927385, -11582.897494184674, -26301.96825289348, -31498.882949219103, -40253.5024587515, 0.024, 1.008, 0.082, 192.0, 0.0, 0.0, 0.0, 0.0, 0.0, 0.0, 0.0, 0.0, 0.0, 1.695333562528152E9, 0.0, 2023-09-21 16:59:22.528
78.0, 16149.269479426084, 9638.899223673252, -28129.201010370376, -41396.3695044958, -26378.165349741623, 31499.128818408113, -187500.02235174447, -38535.167400260856, -16595.90203713203, -28056.043750768156, -43124.27110961331, -50229.42128532187, -11584.95385467456, -26319.849648457726, -31499.218225385932, -40266.77939495795, 0.024, 1.008, 0.082, 192.0, 0.0, 0.0, 0.0, 0.0, 0.0, 0.0, 0.0, 0.0, 0.0, 1.695333562528161E9, 0.0, 2023-09-21 16:59:22.528
80.0, 16147.05665672501, 9637.111084116827, -28127.725795236325, -41401.935088865175, -26376.98070728549, 31517.457248861465, -187500.02235174447, -38531.92639731483, -16596.75140342133, -28061.2740589707, -43125.25458636935, -50233.26578536818, -11580.550561016866, -26318.68735774605, -31502.14630390958, -40272.07675839386, 0.024, 1.008, 0.082, 192.0, 0.0, 0.0, 0.0, 0.0, 0.0, 0.0, 0.0, 0.0, 0.0, 1.695333562528171E9, 0.0, 2023-09-21 16:59:22.528
82.0, 16132.550374573515, 9619.006171108029, -28131.771460982738, -41419.50356000705, -26388.55891091334, 31511.824609258725, -187500.02235174447, -38549.87484811245, -16598.338377277658, -28066.571422406607, -43124.40522008005, -50238.540797059635, -11587.233732609002, -26326.35400609422, -31500.738144008894, -40276.658866007194, 0.024, 1.012, 0.084, 192.0, 0.0, 96.0, 15.5, 80.0, 1.0, 80.0, 0.0, 0.0, 0.0, 1.695333562528181E9, 0.0, 2023-09-21 16:59:22.528
84.0, 16148.733037559157, 9630.897299158252, -28130.27389410423, -41415.770818683006, -26380.55698639834, 31526.912036766058, -187500.02235174447, -38533.15574325988, -16602.607560468623, -28076.94263183387, -43129.032031182294, -50250.968366976784, -11593.380462334211, -26333.707730020014, -31510.95289122497, -40284.30316261091, 0.024, 1.012, 0.084, 192.0, 0.0, 0.0, 0.0, 0.0, 0.0, 0.0, 0.0, 0.0, 0.0, 1.695333562528191E9, 0.0, 2023-09-21 16:59:22.528
86.0, 16166.05563951202, 9645.872967943307, -28110.492600261285, -41398.29175451896, -26364.12845422369, 31503.19683589898, -187500.02235174447, -38518.26948145265, -16583.206246281417, -28063.59864039405, -43108.58018500569, -50238.89842497092, -11576.951930159561, -26324.901142704624, -31495.57489103972, -40266.175897857654, 0.024, 1.012, 0.084, 192.0, 0.0, 0.0, 0.0, 0.0, 0.0, 0.0, 0.0, 0.0, 0.0, 1.6953335625282E9, 0.0, 2023-09-21 16:59:22.528
88.0, 16162.032325510065, 9641.737895219076, -28121.51201027775, -41397.6212021853, -26369.872852548702, 31534.533981625318, -187500.02235174447, -38523.92447279984, -16573.75145837682, -28060.69291361486, -43100.53355700178, -50230.4047620779, -11572.883912668696, -26314.77580246637, -31483.974335667415, -40254.709452952084, 0.024, 1.012, 0.084, 192.0, 0.0, 0.0, 0.0, 0.0, 0.0, 0.0, 0.0, 0.0, 0.0, 1.69533356252821E9, 0.0, 2023-09-21 16:59:22.528
90.0, 16164.222796466685, 9646.007078410039, -28119.254484087764, -41394.380199239284, -26369.26935544841, 31521.279397163322, -187500.02235174447, -38526.58433039002, -16585.508475960312, -28063.218660738312, -43109.65306873954, -50234.29396561313, -11577.913055171139, -26321.12369789168, -31490.41163807054, -40258.86687742077, 0.024, 1.012, 0.084, 192.0, 0.0, 0.0, 0.0, 0.0, 0.0, 0.0, 0.0, 0.0, 0.0, 1.69533356258724E9, 0.0, 2023-09-21 16:59:22.587
92.0, 16160.959441776211, 9648.398715066758, -28134.833649973116, -41391.161548037715, -26377.874777063702, 31543.72054859645, -187500.02235174447, -38526.38316468992, -16586.313138760703, -28054.121500745, -43108.37901930559, -50223.20750036329, -11587.4348983091, -26309.903122175114, -31485.337792079186, -40253.41305177368, 0.022, 1.006, 0.08600000000000001, 192.0, 0.0, 88.0, 15.5, 56.0, 1.0, 88.0, 0.0, 0.0, 0.0, 1.695333562587256E9, 0.0, 2023-09-21 16:59:22.587
94.0, 16157.00318300762, 9647.348183077358, -28134.81129822866, -41386.35592297983, -26381.65222187665, 31521.257045418864, -187500.02235174447, -38535.32386247205, -16593.197476052937, -28051.50634664373, -43111.5753187627, -50221.195843362315, -11590.072404154827, -26310.596026253228, -31491.931556693504, -40252.74249944001, 0.022, 1.006, 0.08600000000000001, 192.0, 0.0, 0.0, 0.0, 0.0, 0.0, 0.0, 0.0, 0.0, 0.0, 1.695333562587265E9, 0.0, 2023-09-21 16:59:22.587
96.0, 16168.179055235274, 9658.38994483828, -28128.575161525627, -41378.08577753136, -26378.478274163997, 31531.181219957023, -187500.02235174447, -38523.18686523281, -16596.840810399153, -28052.132195488477, -43113.25169959685, -50218.93831717233, -11594.989787934994, -26307.690299474038, -31493.876158461117, -40253.01072037348, 0.022, 1.006, 0.08600000000000001, 192.0, 0.0, 0.0, 0.0, 0.0, 0.0, 0.0, 0.0, 0.0, 0.0, 1.695333562587275E9, 0.0, 2023-09-21 16:59:22.587
98.0, 16167.441447668249, 9655.640680270277, -28120.305016077164, -41382.354960722325, -26373.627945617194, 31515.155019182566, -187500.02235174447, -38525.69026061181, -16586.13432480506, -28042.02920699468, -43103.95337390344, -50206.443692021814, -11586.160848875148, -26301.789438937838, -31489.919899692526, -40243.77944991344, 0.022, 1.006, 0.08600000000000001, 192.0, 0.0, 0.0, 0.0, 0.0, 0.0, 0.0, 0.0, 0.0, 0.0, 1.695333562587309E9, 0.0, 2023-09-21 16:59:22.587
100.0, 16165.362735433906, 9651.997345924061, -28124.350681823576, -41392.54735619394, -26374.03027701739, 31536.947970026493, -187500.02235174447, -38522.40455417688, -16593.95743536442, -28050.299352443144, -43110.21186235093, -50214.11034036998, -11586.250255852969, -26301.700031960016, -31485.02486765681, -40252.429575017646, 0.022, 1.006, 0.08600000000000001, 192.0, 0.0, 0.0, 0.0, 0.0, 0.0, 0.0, 0.0, 0.0, 0.0, 1.69533356258732E9, 0.0, 2023-09-21 16:59:22.587
102.0, 16162.904043543822, 9647.772866222009, -28119.56740851014, -41398.40351324124, -26371.482178149487, 31533.192876958, -187500.02235174447, -38526.271405967644, -16593.555103964223, -28050.478166398785, -43111.37415306261, -50216.5019770267, -11580.930540672605, -26301.83414242675, -31489.539920036786, -40255.17883958564, 0.028, 1.002, 0.09, 192.0, 0.0, 112.0, 15.5, 40.0, 1.0, 104.0, 0.0, 0.0, 0.0, 1.69533356258733E9, 0.0, 2023-09-21 16:59:22.587
104.0, 16162.255842954619, 9645.202415609649, -28122.629597500516, -41400.392818497756, -26375.84076831827, 31540.054862505778, -187500.02235174447, -38531.38995544791, -16595.007967353817, -28055.015570523214, -43114.03401065279, -50219.67592473936, -11584.462116296545, -26305.455125028508, -31486.164806624034, -40262.53256351144, 0.028, 1.002, 0.09, 192.0, 0.0, 0.0, 0.0, 0.0, 0.0, 0.0, 0.0, 0.0, 0.0, 1.695333562647054E9, 0.0, 2023-09-21 16:59:22.647
106.0, 16160.333592931462, 9641.648488241255, -28125.42356555743, -41404.662001688725, -26373.583242128283, 31538.66905434955, -187500.02235174447, -38528.01484203516, -16604.23923781386, -28060.961134548324, -43126.036897425285, -50228.88484345494, -11591.972302433527, -26304.762220950393, -31498.055934674256, -40267.67346473616, 0.028, 1.002, 0.09, 192.0, 0.0, 0.0, 0.0, 0.0, 0.0, 0.0, 0.0, 0.0, 0.0, 1.695333562647077E9, 0.0, 2023-09-21 16:59:22.647
108.0, 16168.737848846657, 9647.415238310723, -28127.65874000296, -41403.45500748813, -26370.386942671175, 31540.211324716965, -187500.02235174447, -38523.075106510536, -16595.34324352065, -28055.68612285687, -43119.733705488885, -50223.52042478567, -11582.048127895372, -26301.4094592821, -31488.847015958672, -40261.03499663294, 0.028, 1.002, 0.09, 192.0, 0.0, 0.0, 0.0, 0.0, 0.0, 0.0, 0.0, 0.0, 0.0, 1.695333562647087E9, 0.0, 2023-09-21 16:59:22.647
110.0, 16175.689241372258, 9653.24904361356, -28127.748146980783, -41400.30341151993, -26364.039047245868, 31529.23661818941, -187500.02235174447, -38517.80009481908, -16594.7173946759, -28050.58992512106, -43118.23613861038, -50222.58165151854, -11580.215284850035, -26298.615491225184, -31494.211434627945, -40258.50924950949, 0.028, 1.002, 0.09, 192.0, 0.0, 0.0, 0.0, 0.0, 0.0, 0.0, 0.0, 0.0, 0.0, 1.695333562647096E9, 0.0, 2023-09-21 16:59:22.647
112.0, 16177.723250117691, 9652.91376744673, -28131.212667371354, -41397.95647835213, -26371.70569559404, 31529.795411800795, -187500.02235174447, -38519.11884774195, -16589.487086473357, -28043.660884339915, -43116.15742637604, -50218.22306134976, -11573.085078368793, -26296.648537713118, -31489.74108573688, -40256.09526110831, 0.028, 1.002, 0.096, 192.0, 0.0, 112.0, 15.5, 40.0, 1.5, 0.0, 0.0, 0.0, 0.0, 1.695333562647106E9, 0.0, 2023-09-21 16:59:22.647
114.0, 16174.05756402702, 9648.085790644383, -28133.738414494805, -41399.47639697509, -26377.31598345232, 31531.91882752405, -187500.02235174447, -38528.797153091095, -16588.548313206233, -28042.006855250223, -43118.75022873285, -50220.771160217664, -11586.049090152872, -26294.659232456594, -31500.268757375332, -40259.2021535876, 0.028, 1.002, 0.096, 192.0, 0.0, 0.0, 0.0, 0.0, 0.0, 0.0, 0.0, 0.0, 0.0, 1.695333562647116E9, 0.0, 2023-09-21 16:59:22.647
116.0, 16163.842816810944, 9638.698057973153, -28131.14561213799, -41397.39768474075, -26380.825207331804, 31528.834286789217, -187500.02235174447, -38526.137295500914, -16595.209133053915, -28055.060274012125, -43122.90765320154, -50228.393105076924, -11589.379500076711, -26305.008090139403, -31499.352335852665, -40259.962112899084, 0.028, 1.002, 0.096, 192.0, 0.0, 0.0, 0.0, 0.0, 0.0, 0.0, 0.0, 0.0, 0.0, 1.695333562647125E9, 0.0, 2023-09-21 16:59:22.647
118.0, 16162.948747032733, 9642.319040574914, -28136.554734296173, -41394.84958587284, -26383.46271317753, 31540.993635772902, -187500.02235174447, -38526.629033878926, -16600.10416508963, -28057.83189032458, -43126.14865614756, -50232.237605123235, -11592.86637221174, -26300.40363078161, -31505.029678944313, -40256.65405471969, 0.028, 1.002, 0.096, 192.0, 0.0, 0.0, 0.0, 0.0, 0.0, 0.0, 0.0, 0.0, 0.0, 1.695333562647135E9, 0.0, 2023-09-21 16:59:22.647
120.0, 16177.745601862145, 9651.460904057134, -28120.95321666637, -41385.573611923886, -26374.49966365095, 31512.584568570208, -187500.02235174447, -38524.34915594449, -16588.972996350883, -28043.79499480665, -43114.30223158625, -50220.145311372915, -11582.897494184674, -26295.26272955689, -31497.832417229703, -40250.61908371676, 0.028, 1.002, 0.096, 192.0, 0.0, 0.0, 0.0, 0.0, 0.0, 0.0, 0.0, 0.0, 0.0, 1.695333562707255E9, 0.0, 2023-09-21 16:59:22.707
122.0, 16174.705764616225, 9647.325831332902, -28126.161173124456, -41392.03326607147, -26382.702753866048, 31535.76332757036, -187500.02235174447, -38532.5969496485, -16583.943853848443, -28043.12444247299, -43112.49174028537, -50219.27359333916, -11582.428107551112, -26293.720459189473, -31495.217263128434, -40251.13317383923, 0.028, 1.004, 0.094, 192.0, 0.0, 112.0, 15.5, 48.0, 1.0, 120.0, 0.0, 0.0, 0.0, 1.695333562707276E9, 0.0, 2023-09-21 16:59:22.707
124.0, 16173.074087270987, 9643.660145242233, -28116.013481141745, -41392.61441142731, -26375.058457262334, 31519.692423306995, -187500.02235174447, -38531.27819672563, -16586.693118416442, -28047.728901830782, -43115.7774467203, -50224.99563991972, -11579.231808094002, -26302.281177315854, -31491.931556693504, -40252.831906417836, 0.028, 1.004, 0.094, 192.0, 0.0, 0.0, 0.0, 0.0, 0.0, 0.0, 0.0, 0.0, 0.0, 1.695333562707286E9, 0.0, 2023-09-21 16:59:22.707
126.0, 16177.790305351056, 9648.130494133293, -28110.336138050097, -41393.06144631642, -26367.481215891985, 31537.372653171144, -187500.02235174447, -38521.175208231834, -16587.09544981664, -28053.719169344804, -43117.69969674345, -50232.41641907888, -11581.265816839436, -26303.1081918607, -31488.08705664719, -40251.53550523943, 0.028, 1.004, 0.094, 192.0, 0.0, 0.0, 0.0, 0.0, 0.0, 0.0, 0.0, 0.0, 0.0, 1.695333562707296E9, 0.0, 2023-09-21 16:59:22.707
128.0, 16170.48128491417, 9638.720409717609, -28113.241864829288, -41403.879690632784, -26372.845634561258, 31527.314368166255, -187500.02235174447, -38530.741754858704, -16575.964281077897, -28052.84745131105, -43107.06026638273, -50227.87901495445, -11565.083153853793, -26306.259787828898, -31477.157053608546, -40249.121516838255, 0.028, 1.004, 0.094, 192.0, 0.0, 0.0, 0.0, 0.0, 0.0, 0.0, 0.0, 0.0, 0.0, 1.695333562707305E9, 0.0, 2023-09-21 16:59:22.707
130.0, 16168.424924424282, 9634.51828176001, -28121.26614108874, -41404.39378075526, -26373.247965961455, 31550.87310682215, -187500.02235174447, -38529.95944380277, -16593.4656969864, -28070.17005326391, -43124.40522008005, -50244.46400934029, -11583.858619196251, -26316.943921678536, -31487.192986868977, -40265.34888331281, 0.028, 1.004, 0.094, 192.0, 0.0, 0.0, 0.0, 0.0, 0.0, 0.0, 0.0, 0.0, 0.0, 1.695333562707314E9, 0.0, 2023-09-21 16:59:22.707
132.0, 16172.515293659604, 9640.463845785123, -28121.42260329993, -41400.9739638536, -26370.2751839489, 31521.212341929957, -187500.02235174447, -38529.93709205832, -16587.85540912812, -28066.571422406607, -43118.10202814365, -50236.998526692216, -11580.930540672605, -26314.68639548855, -31483.594356011672, -40259.69389196562, 0.03, 1.008, 0.09, 192.0, 0.0, 120.0, 15.5, 64.0, 1.0, 104.0, 0.0, 0.0, 0.0, 1.695333562707324E9, 0.0, 2023-09-21 16:59:22.707
134.0, 16179.332575718472, 9652.757305235542, -28128.172830125433, -41394.51430970601, -26369.626983359693, 31547.073310264746, -187500.02235174447, -38517.2413012077, -16593.219827797395, -28057.02722752419, -43123.309984601736, -50230.94120394483, -11581.109354628248, -26307.243264584933, -31491.529225293307, -40257.659883220185, 0.03, 1.008, 0.09, 192.0, 0.0, 0.0, 0.0, 0.0, 0.0, 0.0, 0.0, 0.0, 0.0, 1.695333562767478E9, 0.0, 2023-09-21 16:59:22.767
136.0, 16182.864151342412, 9659.19460763867, -28115.454687530364, -41385.70772239062, -26362.988515256468, 31531.76236531286, -187500.02235174447, -38511.38514416041, -16587.85540912812, -28040.64339883845, -43114.3245833307, -50216.61373574898, -11574.962624903039, -26300.20246508151, -31487.46120780244, -40246.193438314614, 0.03, 1.008, 0.09, 192.0, 0.0, 0.0, 0.0, 0.0, 0.0, 0.0, 0.0, 0.0, 0.0, 1.6953335627675E9, 0.0, 2023-09-21 16:59:22.767
138.0, 16180.673680385791, 9657.585282037888, -28122.09315563359, -41385.148928779236, -26366.96712576951, 31549.710816110473, -187500.02235174447, -38511.20633020477, -16588.391850995045, -28043.437366895363, -43114.03401065279, -50217.37369506046, -11580.14822961667, -26296.760296435394, -31481.627402499606, -40243.44417374661, 0.03, 1.008, 0.09, 192.0, 0.0, 0.0, 0.0, 0.0, 0.0, 0.0, 0.0, 0.0, 0.0, 1.695333562767511E9, 0.0, 2023-09-21 16:59:22.767
140.0, 16165.832122067468, 9642.699020230653, -28123.680129489916, -41394.871937617296, -26372.957393283534, 31528.05197573328, -187500.02235174447, -38524.34915594449, -16590.314101018204, -28047.594791364052, -43116.023315909304, -50221.21819510677, -11579.790601705385, -26300.44833427052, -31481.493292032876, -40243.82415340235, 0.03, 1.008, 0.09, 192.0, 0.0, 0.0, 0.0, 0.0, 0.0, 0.0, 0.0, 0.0, 0.0, 1.69533356276752E9, 0.0, 2023-09-21 16:59:22.767
142.0, 16162.14408423234, 9640.150921362749, -28132.307902849665, -41398.44821673015, -26378.388867186175, 31543.698196851994, -187500.02235174447, -38520.974042531736, -16606.76498493731, -28063.59864039405, -43134.083525429196, -50235.880939469454, -11591.905247200162, -26314.664043744095, -31491.66333576004, -40255.87174366376, 0.026000000000000002, 1.004, 0.08600000000000001, 192.0, 0.0, 104.0, 15.5, 48.0, 1.0, 88.0, 0.0, 0.0, 0.0, 1.69533356276756E9, 0.0, 2023-09-21 16:59:22.767
144.0, 16182.528875175582, 9658.501703560556, -28114.202989840865, -41383.74076887855, -26361.40154140014, 31513.031603459312, -187500.02235174447, -38507.51829236964, -16592.23635104136, -28045.180802962877, -43117.29736534326, -50218.62539274996, -11576.773116203918, -26303.24230232743, -31488.80231246976, -40240.56079871188, 0.026000000000000002, 1.004, 0.08600000000000001, 192.0, 0.0, 0.0, 0.0, 0.0, 0.0, 0.0, 0.0, 0.0, 0.0, 1.695333562767569E9, 0.0, 2023-09-21 16:59:22.767
146.0, 16173.208197737718, 9648.935156933685, -28117.689861975894, -41391.83210037138, -26370.90103279365, 31543.47467940744, -187500.02235174447, -38510.133446470914, -16595.678519687477, -28052.758044333226, -43120.158388633536, -50224.66036375289, -11582.919845929127, -26299.375450536663, -31478.006419897847, -40242.1477725682, 0.026000000000000002, 1.004, 0.08600000000000001, 192.0, 0.0, 0.0, 0.0, 0.0, 0.0, 0.0, 0.0, 0.0, 0.0, 1.695333562767579E9, 0.0, 2023-09-21 16:59:22.767
148.0, 16168.9166628023, 9642.967241164117, -28110.202027583367, -41392.5697079384, -26367.727085080995, 31522.173466941535, -187500.02235174447, -38514.22381570623, -16590.98465335186, -28058.07775951359, -43119.55489153325, -50230.024782422166, -11582.830438951307, -26305.365718050685, -31479.258117587346, -40240.873723134246, 0.026000000000000002, 1.004, 0.08600000000000001, 192.0, 0.0, 0.0, 0.0, 0.0, 0.0, 0.0, 0.0, 0.0, 0.0, 1.695333562767588E9, 0.0, 2023-09-21 16:59:22.767
150.0, 16170.928319803277, 9645.895319687763, -28109.665585716437, -41389.14989103674, -26369.35876242623, 31543.541734640807, -187500.02235174447, -38508.56882435904, -16593.197476052937, -28063.59864039405, -43123.08646715718, -50236.12680865846, -11576.81781969283, -26305.902159917612, -31478.90048967606, -40244.8970371362, 0.026000000000000002, 1.004, 0.08600000000000001, 192.0, 0.0, 0.0, 0.0, 0.0, 0.0, 0.0, 0.0, 0.0, 0.0, 1.695333562827789E9, 0.0, 2023-09-21 16:59:22.827
152.0, 16183.132372275875, 9657.518226804523, -28100.36726002303, -41379.203364754125, -26362.519128622906, 31535.517458381353, -187500.02235174447, -38507.831216792016, -16583.47446721488, -28049.897021042947, -43113.13994087457, -50225.040343408626, -11572.302767312858, -26292.088781844235, -31478.31934432022, -40234.72699340904, 0.026000000000000002, 1.006, 0.094, 192.0, 0.0, 104.0, 15.5, 56.0, 1.0, 120.0, 0.0, 0.0, 0.0, 1.69533356282781E9, 0.0, 2023-09-21 16:59:22.827
154.0, 16191.581331679981, 9665.34133736388, -28101.17192282342, -41373.36955945129, -26359.07695997679, 31542.20062997349, -187500.02235174447, -38500.74571379968, -16576.344260733636, -28035.010759235713, -43105.29447857076, -50211.51753801317, -11560.568101473822, -26286.992584108422, -31465.780015680793, -40229.139057295215, 0.026000000000000002, 1.006, 0.094, 192.0, 0.0, 0.0, 0.0, 0.0, 0.0, 0.0, 0.0, 0.0, 0.0, 1.695333562827821E9, 0.0, 2023-09-21 16:59:22.827
156.0, 16178.505561173626, 9649.6280610118, -28112.101925862065, -41386.89236484675, -26365.827186802293, 31534.869257792147, -187500.02235174447, -38515.83314130702, -16579.22763576837, -28042.632704094973, -43111.66472574052, -50217.53015727165, -11564.993746875973, -26292.446409755517, -31474.921879163016, -40237.655071932684, 0.026000000000000002, 1.006, 0.094, 192.0, 0.0, 0.0, 0.0, 0.0, 0.0, 0.0, 0.0, 0.0, 0.0, 1.695333562827831E9, 0.0, 2023-09-21 16:59:22.827
158.0, 16171.755334348123, 9643.660145242233, -28129.201010370376, -41396.14598705125, -26374.298497950855, 31531.583551357216, -187500.02235174447, -38518.157722730364, -16588.74947890633, -28054.70264610084, -43121.208920622936, -50226.04617190912, -11567.184217832591, -26301.54356974883, -31483.66141124504, -40247.936874382125, 0.026000000000000002, 1.006, 0.094, 192.0, 0.0, 0.0, 0.0, 0.0, 0.0, 0.0, 0.0, 0.0, 0.0, 1.69533356282784E9, 0.0, 2023-09-21 16:59:22.827
160.0, 16174.035212282564, 9647.14701737726, -28126.9881876693, -41395.90011786224, -26370.476349648998, 31535.42805140353, -187500.02235174447, -38513.79913256158, -16598.159563322017, -28059.26240196972, -43128.20501663745, -50231.4552940673, -11582.249293595469, -26305.34336630623, -31500.447571330977, -40254.865915163275, 0.026000000000000002, 1.006, 0.094, 192.0, 0.0, 0.0, 0.0, 0.0, 0.0, 0.0, 0.0, 0.0, 0.0, 1.695333562827849E9, 0.0, 2023-09-21 16:59:22.827
162.0, 16175.063392527509, 9651.90793894624, -28125.84824870208, -41394.022571327994, -26368.621154859207, 31524.69921406498, -187500.02235174447, -38513.061524994555, -16587.788353894754, -28049.204116964833, -43116.604461265146, -50222.76046547419, -11576.482543525999, -26301.431811026552, -31486.187158368488, -40252.139002339725, 0.028, 1.01, 0.084, 192.0, 0.0, 112.0, 15.5, 72.0, 1.0, 80.0, 0.0, 0.0, 0.0, 1.695333562827859E9, 0.0, 2023-09-21 16:59:22.827
164.0, 16170.190712236252, 9645.828264454398, -28133.04551041669, -41402.002144098544, -26376.578375885296, 31538.71375783846, -187500.02235174447, -38521.68929835431, -16594.560932464712, -28047.035997752668, -43120.76188573383, -50220.83821545103, -11580.595264505777, -26300.068354614777, -31494.054972416758, -40254.59769422981, 0.028, 1.01, 0.084, 192.0, 0.0, 0.0, 0.0, 0.0, 0.0, 0.0, 0.0, 0.0, 0.0, 1.695333562887368E9, 0.0, 2023-09-21 16:59:22.887
166.0, 16182.998261809144, 9658.05466867145, -28124.842420201592, -41389.30635324793, -26368.01765775891, 31519.021870973334, -187500.02235174447, -38513.709725583765, -16596.23731329886, -28050.58992512106, -43121.85712121214, -50223.63218350794, -11579.254159838458, -26305.030441883857, -31496.603071284662, -40259.31391230988, 0.028, 1.01, 0.084, 192.0, 0.0, 0.0, 0.0, 0.0, 0.0, 0.0, 0.0, 0.0, 0.0, 1.69533356288739E9, 0.0, 2023-09-21 16:59:22.887
168.0, 16184.518180432104, 9659.216959383126, -28123.23309460081, -41391.653286415734, -26373.583242128283, 31539.451365405486, -187500.02235174447, -38521.4434291653, -16580.90401660252, -28032.283846412167, -43106.613231493626, -50206.35428504399, -11570.04524112287, -26286.120866074667, -31493.116199149634, -40245.34407202531, 0.028, 1.01, 0.084, 192.0, 0.0, 0.0, 0.0, 0.0, 0.0, 0.0, 0.0, 0.0, 0.0, 1.695333562887401E9, 0.0, 2023-09-21 16:59:22.887
170.0, 16182.260654242118, 9654.344279091869, -28128.66456850345, -41398.62703068579, -26378.344163697264, 31522.329929152722, -187500.02235174447, -38526.494923412196, -16590.582321951668, -28049.60644836503, -43118.39260082157, -50220.68175323984, -11581.444630795078, -26302.035308126844, -31500.939309708992, -40262.689025722626, 0.028, 1.01, 0.084, 192.0, 0.0, 0.0, 0.0, 0.0, 0.0, 0.0, 0.0, 0.0, 0.0, 1.695333562887411E9, 0.0, 2023-09-21 16:59:22.887
172.0, 16180.517218174604, 9654.456037814145, -28130.94444643789, -41397.35298125184, -26378.768846841915, 31530.085984478712, -187500.02235174447, -38518.180074474825, -16585.08379281566, -28048.242991953255, -43113.788141463774, -50218.87126193896, -11577.57777900431, -26294.77099117887, -31507.22014990093, -40256.58699948633, 0.028, 1.008, 0.08, 192.0, 0.0, 112.0, 15.5, 64.0, 1.0, 64.0, 0.0, 0.0, 0.0, 1.695333562887421E9, 0.0, 2023-09-21 16:59:22.887
174.0, 16183.333537975972, 9651.751476735053, -28121.802582955672, -41397.665905674214, -26376.60072762975, 31510.639966802595, -187500.02235174447, -38521.734001843215, -16591.05170858523, -28051.819271066102, -43117.83380721019, -50223.721590485766, -11583.81391570734, -26298.9060639031, -31500.80519924226, -40257.21284833108, 0.028, 1.008, 0.08, 192.0, 0.0, 0.0, 0.0, 0.0, 0.0, 0.0, 0.0, 0.0, 0.0, 1.695333562887431E9, 0.0, 2023-09-21 16:59:22.887
176.0, 16176.605662894925, 9649.985688923083, -28130.363301082052, -41401.800978398445, -26383.663878877625, 31537.082080493223, -187500.02235174447, -38525.33263270052, -16591.67755742998, -28051.282829199175, -43111.82118795171, -50221.46406429578, -11582.271645339924, -26292.871092900168, -31499.754667252862, -40256.050557619405, 0.028, 1.008, 0.08, 192.0, 0.0, 0.0, 0.0, 0.0, 0.0, 0.0, 0.0, 0.0, 0.0, 1.69533356288744E9, 0.0, 2023-09-21 16:59:22.887
178.0, 16187.982700822677, 9663.061459429438, -28124.149516123478, -41393.95551609463, -26374.49966365095, 31521.391155885598, -187500.02235174447, -38519.565882631054, -16599.18774356696, -28054.233259467277, -43120.426609567, -50224.615660263975, -11589.29009309889, -26306.505657017908, -31502.593338798684, -40264.991255401525, 0.028, 1.008, 0.08, 192.0, 0.0, 0.0, 0.0, 0.0, 0.0, 0.0, 0.0, 0.0, 0.0, 1.69533356288745E9, 0.0, 2023-09-21 16:59:22.887
180.0, 16188.429735711783, 9661.407430339746, -28121.89198993349, -41390.62510617079, -26368.665858348115, 31538.892571794102, -187500.02235174447, -38508.70293482577, -16574.600824666122, -28034.474317368786, -43095.30324879924, -50202.107453597484, -11564.278491053403, -26284.936223618537, -31483.99668741187, -40241.18664755662, 0.028, 1.008, 0.08, 192.0, 0.0, 0.0, 0.0, 0.0, 0.0, 0.0, 0.0, 0.0, 0.0, 1.69533356294689E9, 0.0, 2023-09-21 16:59:22.946
182.0, 16178.863189084912, 9647.750514477553, -28130.966798182348, -41408.841777901864, -26379.908785809137, 31515.89262674959, -187500.02235174447, -38526.003185034184, -16594.04684234224, -28061.050541526147, -43115.19630136446, -50226.98494517624, -11581.824610450818, -26306.30449131781, -31494.345545094675, -40262.21963908907, 0.03, 1.006, 0.08, 192.0, 0.0, 120.0, 15.5, 56.0, 1.0, 64.0, 0.0, 0.0, 0.0, 1.695333562946911E9, 0.0, 2023-09-21 16:59:22.946
184.0, 16202.131355062886, 9670.281072888503, -28116.57227475313, -41386.981771824576, -26364.21786120151, 31522.374632641633, -187500.02235174447, -38499.56107134355, -16583.742688148344, -28046.41014890792, -43102.411103536026, -50214.55737525909, -11572.325119057312, -26296.06739235728, -31491.953908437958, -40249.881476149734, 0.03, 1.006, 0.08, 192.0, 0.0, 0.0, 0.0, 0.0, 0.0, 0.0, 0.0, 0.0, 0.0, 1.695333562946953E9, 0.0, 2023-09-21 16:59:22.946
186.0, 16186.932168833277, 9654.366630836324, -28119.41094629895, -41396.280097517985, -26371.07984674929, 31511.176408669522, -187500.02235174447, -38513.53091162812, -16570.28693798625, -28033.73670980176, -43095.03502786577, -50207.20365133329, -11568.413563777634, -26285.472665485464, -31482.2308995999, -40239.554970211386, 0.03, 1.006, 0.08, 192.0, 0.0, 0.0, 0.0, 0.0, 0.0, 0.0, 0.0, 0.0, 0.0, 1.695333562946962E9, 0.0, 2023-09-21 16:59:22.946
188.0, 16175.353965205428, 9644.353049320347, -28136.107699407068, -41407.947708123655, -26384.46854167802, 31532.254103690877, -187500.02235174447, -38525.46674316725, -16589.487086473357, -28047.997122764245, -43118.57141477721, -50226.96259343179, -11580.43880229459, -26293.698107445016, -31493.674992761018, -40259.53742975443, 0.03, 1.006, 0.08, 192.0, 0.0, 0.0, 0.0, 0.0, 0.0, 0.0, 0.0, 0.0, 0.0, 1.695333562946972E9, 0.0, 2023-09-21 16:59:22.946
190.0, 16171.844741325946, 9642.14022661927, -28130.609170271062, -41409.60173721334, -26380.333468953788, 31502.95096670997, -187500.02235174447, -38532.5969496485, -16592.90690337502, -28049.382930920474, -43122.70648750145, -50230.56122428909, -11580.014119149939, -26301.655328471104, -31502.727449265418, -40262.286694322436, 0.03, 1.006, 0.08, 192.0, 0.0, 0.0, 0.0, 0.0, 0.0, 0.0, 0.0, 0.0, 0.0, 1.695333562946981E9, 0.0, 2023-09-21 16:59:22.946
192.0, 16177.946767562244, 9651.14797963476, -28129.558638281662, -41405.913699378216, -26376.131340996188, 31517.680766306017, -187500.02235174447, -38527.52310365714, -16588.928292861976, -28045.292561685153, -43119.3760775776, -50227.02964866515, -11576.571950503821, -26300.20246508151, -31495.865463717637, -40262.59961874481, 0.03, 1.008, 0.074, 192.0, 0.0, 120.0, 15.5, 64.0, 1.0, 40.0, 0.0, 0.0, 0.0, 1.695333562946991E9, 0.0, 2023-09-21 16:59:22.946
194.0, 16185.926340332788, 9657.76409599353, -28123.12133587853, -41400.68339117568, -26368.867024048213, 31496.93834745149, -187500.02235174447, -38523.410382677364, -16575.159618277507, -28029.40047137743, -43107.86492918312, -50214.17739560335, -11564.837284664785, -26290.702973688007, -31493.965565438935, -40251.42374651715, 0.03, 1.008, 0.074, 192.0, 0.0, 0.0, 0.0, 0.0, 0.0, 0.0, 0.0, 0.0, 0.0, 1.695333563007281E9, 0.0, 2023-09-21 16:59:23.007
196.0, 16184.853456598934, 9656.758267493042, -28134.23015287282, -41410.42875175819, -26383.46271317753, 31507.86835049014, -187500.02235174447, -38527.254882723675, -16574.489065943846, -28027.768794032192, -43111.15063561805, -50216.591384004525, -11561.350412529757, -26291.127656832658, -31496.245443373376, -40256.92227565316, 0.03, 1.008, 0.074, 192.0, 0.0, 0.0, 0.0, 0.0, 0.0, 0.0, 0.0, 0.0, 0.0, 1.695333563007329E9, 0.0, 2023-09-21 16:59:23.007
198.0, 16201.460802729227, 9664.402564096757, -28124.060109145656, -41408.39474301276, -26375.84076831827, 31494.926690450513, -187500.02235174447, -38526.696089112294, -16567.068286784684, -28020.057442195113, -43110.07775188419, -50214.065636881074, -11569.307633555847, -26291.462932999486, -31499.24057713039, -40257.07873786434, 0.03, 1.008, 0.074, 192.0, 0.0, 0.0, 0.0, 0.0, 0.0, 0.0, 0.0, 0.0, 0.0, 1.695333563007339E9, 0.0, 2023-09-21 16:59:23.007
200.0, 16185.747526377147, 9656.154770392748, -28125.065937646144, -41402.51623422101, -26379.50645440894, 31520.251216918376, -187500.02235174447, -38520.10232449798, -16571.493932186833, -28019.74451777274, -43114.34693507516, -50211.4504827798, -11564.926691642606, -26287.976060864457, -31489.85284445916, -40254.709452952084, 0.03, 1.008, 0.074, 192.0, 0.0, 0.0, 0.0, 0.0, 0.0, 0.0, 0.0, 0.0, 0.0, 1.695333563007348E9, 0.0, 2023-09-21 16:59:23.007
202.0, 16184.62993915438, 9657.786447737986, -28123.14368762299, -41399.834024886375, -26378.053591019347, 31512.070478447735, -187500.02235174447, -38524.77383908914, -16592.012833596807, -28016.794087504637, -43120.381906078095, -50207.158947844386, -11576.169619103626, -26287.26080504189, -31489.98695492589, -40248.227447060046, 0.032, 1.01, 0.076, 192.0, 0.5, 0.0, 15.5, 72.0, 1.0, 48.0, 0.0, 0.0, 0.0, 1.695333563007358E9, 0.0, 2023-09-21 16:59:23.007
204.0, 16192.765974136111, 9668.716450776632, -28118.293359076186, -41392.18972828266, -26373.896166550658, 31517.546655839284, -187500.02235174447, -38519.11884774195, -16585.106144560115, -28002.176046630866, -43113.56462401922, -50196.452462250294, -11569.173523089114, -26285.651479441105, -31482.499120533364, -40243.84650514681, 0.032, 1.01, 0.076, 192.0, 0.0, 0.0, 0.0, 0.0, 0.0, 0.0, 0.0, 0.0, 0.0, 1.695333563007368E9, 0.0, 2023-09-21 16:59:23.007
206.0, 16200.477325973194, 9675.466677602135, -28113.063050873647, -41383.47254794509, -26366.78831181387, 31519.33479539571, -187500.02235174447, -38508.41236214786, -16576.165446777995, -27990.284918580644, -43099.818301179206, -50185.41070048937, -11561.372764274212, -26278.2530520264, -31474.74306520737, -40233.65410967518, 0.032, 1.01, 0.076, 192.0, 0.0, 0.0, 0.0, 0.0, 0.0, 0.0, 0.0, 0.0, 0.0, 1.695333563007406E9, 0.0, 2023-09-21 16:59:23.007
208.0, 16199.650311428346, 9677.590093325389, -28109.486771760796, -41377.90696357572, -26365.380151913185, 31537.752632826883, -187500.02235174447, -38498.443484120784, -16586.737821905353, -27997.54923552862, -43105.42858903749, -50187.98115110173, -11570.76049694544, -26281.985793350435, -31467.99283838187, -40233.2964817639, 0.032, 1.01, 0.076, 192.0, 0.0, 0.0, 0.0, 0.0, 0.0, 0.0, 0.0, 0.0, 0.0, 1.695333563007416E9, 0.0, 2023-09-21 16:59:23.007
210.0, 16191.15664853533, 9663.732011763097, -28115.119411363532, -41387.451158458134, -26369.872852548702, 31551.163679500067, -187500.02235174447, -38506.221891191235, -16581.351051491627, -27995.045840149625, -43098.834824423175, -50182.97436034374, -11560.076363095804, -26272.732171145937, -31467.344637792667, -40222.47823744753, 0.032, 1.01, 0.076, 192.0, 0.0, 0.0, 0.0, 0.0, 0.0, 0.0, 0.0, 0.0, 0.0, 1.695333563067548E9, 0.0, 2023-09-21 16:59:23.067
212.0, 16200.857305628933, 9675.734898535598, -28103.42944901341, -41380.92444907719, -26365.424855402096, 31532.164696713055, -187500.02235174447, -38500.00810623266, -16588.481257972868, -28000.276148352164, -43105.42858903749, -50187.98115110173, -11565.843113165274, -26283.1033805732, -31467.858727915136, -40228.781429383926, 0.026000000000000002, 1.008, 0.078, 192.0, 0.0, 104.0, 15.5, 64.0, 1.0, 56.0, 0.0, 0.0, 0.0, 1.695333563067568E9, 0.0, 2023-09-21 16:59:23.067
214.0, 16197.996282338654, 9669.72227927712, -28108.07861186011, -41389.95455383713, -26370.431646160087, 31539.47371714994, -187500.02235174447, -38505.90896676886, -16579.920539846487, -27992.67655523736, -43095.61617322161, -50180.0462818201, -11561.328060785301, -26274.185034535534, -31468.37281803761, -40221.04772580239, 0.026000000000000002, 1.008, 0.078, 192.0, 0.0, 0.0, 0.0, 0.0, 0.0, 0.0, 0.0, 0.0, 0.0, 1.695333563067578E9, 0.0, 2023-09-21 16:59:23.067
216.0, 16195.604645681937, 9667.308290875948, -28114.1359346075, -41398.492920219054, -26377.89712880816, 31532.05293799078, -187500.02235174447, -38515.18494071781, -16587.609539939112, -28008.30042461162, -43104.91449891502, -50195.73720642772, -11571.878084168207, -26288.356040520197, -31473.044332628768, -40236.20220854309, 0.026000000000000002, 1.008, 0.078, 192.0, 0.0, 0.0, 0.0, 0.0, 0.0, 0.0, 0.0, 0.0, 0.0, 1.695333563067588E9, 0.0, 2023-09-21 16:59:23.067
218.0, 16206.333483020484, 9676.472506102624, -28114.962949152345, -41389.95455383713, -26369.0234862594, 31533.10346998018, -187500.02235174447, -38505.70780106876, -16584.18972303745, -28009.0603839231, -43101.94171690247, -50194.95489537178, -11567.452438766055, -26286.925528875057, -31478.006419897847, -40234.90580736468, 0.026000000000000002, 1.008, 0.078, 192.0, 0.0, 0.0, 0.0, 0.0, 0.0, 0.0, 0.0, 0.0, 0.0, 1.695333563067597E9, 0.0, 2023-09-21 16:59:23.067
220.0, 16220.012750627131, 9688.341282408392, -28093.594681453073, -41380.253896743525, -26354.494852363452, 31507.756591767862, -187500.02235174447, -38504.1878824458, -16567.448266440424, -27994.464694793787, -43084.932039371975, -50177.83345911902, -11550.778037402397, -26279.504749715896, -31461.711998189927, -40221.91944383615, 0.026000000000000002, 1.008, 0.078, 192.0, 0.0, 0.0, 0.0, 0.0, 0.0, 0.0, 0.0, 0.0, 0.0, 1.695333563067606E9, 0.0, 2023-09-21 16:59:23.067
222.0, 16216.838802914477, 9686.508439363055, -28100.61312921204, -41382.69023688915, -26363.70377107904, 31529.460135633963, -187500.02235174447, -38507.58534760301, -16568.521150174278, -27997.59393901753, -43085.133205072074, -50180.11333705346, -11550.71098216903, -26279.750618904905, -31463.678951701993, -40229.38492648422, 0.03, 1.004, 0.08600000000000001, 192.0, 0.0, 120.0, 15.5, 48.0, 1.0, 88.0, 0.0, 0.0, 0.0, 1.695333563067616E9, 0.0, 2023-09-21 16:59:23.067
224.0, 16222.672608217314, 9691.291712676491, -28093.99701285327, -41377.90696357572, -26359.769864054902, 31504.292071377287, -187500.02235174447, -38507.25007143618, -16560.966260548386, -27985.121665611467, -43078.38297824657, -50168.95981657026, -11545.48067396649, -26275.816711880772, -31460.41559701152, -40224.22167351504, 0.03, 1.004, 0.08600000000000001, 192.0, 0.0, 0.0, 0.0, 0.0, 0.0, 0.0, 0.0, 0.0, 0.0, 1.695333563127088E9, 0.0, 2023-09-21 16:59:23.127
226.0, 16217.598762225958, 9684.809706784452, -28107.251597315266, -41389.66398115921, -26369.917556037613, 31515.71381279395, -187500.02235174447, -38515.654327351374, -16564.810760594697, -27994.196473860324, -43086.273144039296, -50179.50983995317, -11544.452493721545, -26282.365773006175, -31466.74114069237, -40230.43545847362, 0.03, 1.004, 0.08600000000000001, 192.0, 0.0, 0.0, 0.0, 0.0, 0.0, 0.0, 0.0, 0.0, 0.0, 1.695333563127112E9, 0.0, 2023-09-21 16:59:23.127
228.0, 16226.092425118975, 9691.403471398768, -28098.46736174433, -41379.829213598874, -26357.087654720268, 31487.349449080164, -187500.02235174447, -38508.725286570225, -16564.47548442787, -27993.771790715673, -43084.57441146069, -50178.81693587505, -11552.767342658919, -26288.736020175937, -31464.617724969117, -40226.412144471666, 0.03, 1.004, 0.08600000000000001, 192.0, 0.0, 0.0, 0.0, 0.0, 0.0, 0.0, 0.0, 0.0, 0.0, 1.69533356312715E9, 0.0, 2023-09-21 16:59:23.127
230.0, 16221.622076227914, 9691.045843487484, -28110.783172939206, -41383.65136190073, -26363.234384445477, 31515.602054071675, -187500.02235174447, -38507.63005109192, -16558.865196569586, -27987.893281923927, -43081.847498637144, -50174.726566639736, -11544.161921043626, -26279.370639249166, -31461.3767220231, -40221.74062988051, 0.03, 1.004, 0.08600000000000001, 192.0, 0.0, 0.0, 0.0, 0.0, 0.0, 0.0, 0.0, 0.0, 0.0, 1.695333563127159E9, 0.0, 2023-09-21 16:59:23.127
232.0, 16226.15948035234, 9695.002102256072, -28104.770553680726, -41381.19267001065, -26362.943811767556, 31479.146358865066, -187500.02235174447, -38516.86132155196, -16567.649432140523, -27989.994345902724, -43089.469443496404, -50179.01810157515, -11551.537996713878, -26286.992584108422, -31473.357257051142, -40229.116705550754, 0.03, 1.008, 0.088, 192.0, 0.0, 120.0, 15.5, 64.0, 1.0, 96.0, 0.0, 0.0, 0.0, 1.695333563127169E9, 0.0, 2023-09-21 16:59:23.127
234.0, 16219.833936671488, 9692.20813419916, -28112.41485028444, -41383.696065389646, -26370.297535693353, 31511.355222625167, -187500.02235174447, -38514.58144361752, -16568.498798429824, -27988.96616565778, -43088.03893185126, -50177.52053469665, -11553.169674059114, -26279.124770060156, -31471.4797105169, -40232.46946721905, 0.03, 1.008, 0.088, 192.0, 0.0, 0.0, 0.0, 0.0, 0.0, 0.0, 0.0, 0.0, 0.0, 1.695333563127178E9, 0.0, 2023-09-21 16:59:23.127
236.0, 16209.440375499771, 9680.786392782496, -28114.046527629678, -41390.602754426334, -26373.404428172642, 31494.434952072497, -187500.02235174447, -38516.52604538513, -16578.490028201348, -27992.430686048352, -43096.756112188836, -50182.43791847681, -11558.802313661852, -26285.115037574178, -31478.721675720415, -40234.59288294231, 0.03, 1.008, 0.088, 192.0, 0.0, 0.0, 0.0, 0.0, 0.0, 0.0, 0.0, 0.0, 0.0, 1.695333563127188E9, 0.0, 2023-09-21 16:59:23.127
238.0, 16217.688169203779, 9692.67752083272, -28118.136896865, -41379.13630952076, -26365.51426237992, 31511.15405692507, -187500.02235174447, -38498.309373654054, -16580.434629968957, -27986.23925283423, -43097.31490580022, -50180.76153764267, -11558.511740983933, -26279.616508438172, -31476.195928596968, -40227.61913867225, 0.03, 1.008, 0.088, 192.0, 0.0, 0.0, 0.0, 0.0, 0.0, 0.0, 0.0, 0.0, 0.0, 1.695333563127197E9, 0.0, 2023-09-21 16:59:23.127
240.0, 16221.599724483458, 9697.527849379523, -28108.391536282485, -41372.989579795554, -26356.12652970869, 31493.09384740518, -187500.02235174447, -38490.776835772616, -16574.690231643945, -27979.131398097445, -43092.93396388697, -50172.893723594396, -11550.643926935665, -26273.29096475732, -31471.591469239174, -40219.706621135076, 0.03, 1.008, 0.088, 192.0, 0.0, 0.0, 0.0, 0.0, 0.0, 0.0, 0.0, 0.0, 0.0, 1.695333563188457E9, 0.0, 2023-09-21 16:59:23.188
242.0, 16222.180869839296, 9699.15952672476, -28111.364318295044, -41374.93418156316, -26357.26646867591, 31526.912036766058, -187500.02235174447, -38487.84875724897, -16574.489065943846, -27975.711581195785, -43092.28576329777, -50168.84805784799, -11551.739162413975, -26263.880880341636, -31462.337847034676, -40214.49866467699, 0.026000000000000002, 1.01, 0.08600000000000001, 192.0, 0.0, 104.0, 15.5, 72.0, 1.0, 88.0, 0.0, 0.0, 0.0, 1.695333563188491E9, 0.0, 2023-09-21 16:59:23.188
244.0, 16224.706616962745, 9702.735805837608, -28103.94353913588, -41374.531850162966, -26352.013808728912, 31513.724507537427, -187500.02235174447, -38489.21221366074, -16565.660126884, -27972.895261394413, -43086.36255101711, -50166.255255491174, -11542.776112887397, -26267.43480771003, -31466.18234708099, -40214.20809199907, 0.026000000000000002, 1.01, 0.08600000000000001, 192.0, 0.0, 0.0, 0.0, 0.0, 0.0, 0.0, 0.0, 0.0, 0.0, 1.695333563188501E9, 0.0, 2023-09-21 16:59:23.188
