%OpenBCI Raw EXG Data
%Number of channels = 16
%Sample Rate = 125 Hz
%Board = OpenBCI_GUI$BoardCytonSerialDaisy
Sample Index, EXG Channel 0, EXG Channel 1, EXG Channel 2, EXG Channel 3, EXG Channel 4, EXG Channel 5, EXG Channel 6, EXG Channel 7, EXG Channel 8, EXG Channel 9, EXG Channel 10, EXG Channel 11, EXG Channel 12, EXG Channel 13, EXG Channel 14, EXG Channel 15, Accel Channel 0, Accel Channel 1, Accel Channel 2, Other, Other, Other, Other, Other, Other, Other, Analog Channel 0, Analog Channel 1, Analog Channel 2, Timestamp, Other, Timestamp (Formatted)
208.0, 18018.054129845397, 9376.489743767946, -28010.625006034974, -41254.97236907153, -25083.73112484588, 31684.715352620526, -187500.02235174447, -38134.378270432746, -15995.958864207134, -27021.00152027625, -43584.80645237046, -48092.728625861244, -10152.363497300566, -23465.531881515013, -30942.302160537503, -38668.74142512577, 0.0, 0.0, 0.0, 192.0, 0.0, 0.0, 0.0, 0.0, 0.0, 0.0, 0.0, 0.0, 0.0, 1.695333680879398E9, 0.0, 2023-09-21 17:01:20.879
210.0, 18026.346627038318, 9378.501400768924, -28004.701793754317, -41248.15508701266, -25077.874967798587, 31695.533596936897, -187500.02235174447, -38128.52211338546, -15992.919026961212, -27027.97526454631, -43585.14172853729, -48095.65670438489, -10150.016564132759, -23470.60572750637, -30946.5042884951, -38671.3789309715, 0.0, 0.0, 0.0, 192.0, 0.0, 0.0, 0.0, 0.0, 0.0, 0.0, 0.0, 0.0, 0.0, 1.695333680879417E9, 0.0, 2023-09-21 17:01:20.879
212.0, 18026.860717160787, 9377.584979246258, -27998.57741577356, -41243.57297939932, -25077.78556082077, 31687.71048637754, -187500.02235174447, -38135.07117451086, -15993.50017231705, -27027.952912801855, -43584.225307014625, -48093.8015095951, -10145.657973963973, -23478.02650666553, -30939.26232329158, -38667.13209952499, 0.0, 0.0, 0.0, 192.0, 0.0, 0.0, 0.0, 0.0, 0.0, 0.0, 0.0, 0.0, 0.0, 1.695333680879428E9, 0.0, 2023-09-21 17:01:20.879
214.0, 18040.405874300704, 9391.152488130629, -27996.29753783912, -41237.40389792966, -25071.77294156229, 31700.830960372805, -187500.02235174447, -38130.13143898624, -15993.254303128042, -27024.82366857811, -43577.56448716694, -48088.03475952563, -10144.316869296656, -23468.884643183308, -30938.278846535548, -38664.762814612724, 0.064, 1.006, 0.09, 192.0, 1.0, 0.0, 15.5, 56.0, 1.0, 104.0, 0.0, 0.0, 0.0, 1.695333680879438E9, 0.0, 2023-09-21 17:01:20.879
216.0, 18043.57982201336, 9395.131098643673, -27991.96129941479, -41235.414592673136, -25068.621345594092, 31690.057419545345, -187500.02235174447, -38131.13726748672, -15989.812134481925, -27018.140496985972, -43566.79094633948, -48075.406023908385, -10136.516110481753, -23463.542576258493, -30929.82988713144, -38659.97954129929, 0.064, 1.006, 0.09, 192.0, 0.0, 0.0, 0.0, 0.0, 0.0, 0.0, 0.0, 0.0, 0.0, 1.695333680879449E9, 0.0, 2023-09-21 17:01:20.879
218.0, 18053.995734929533, 9411.917258729609, -27996.811627961593, -41229.26786294793, -25066.117950215095, 31710.46456223304, -187500.02235174447, -38119.603767347784, -15991.153239149242, -27014.184238217385, -43567.26033297305, -48070.153363961384, -10140.405314016976, -23453.439587764693, -30929.06992781996, -38656.738538353275, 0.064, 1.006, 0.09, 192.0, 0.0, 0.0, 0.0, 0.0, 0.0, 0.0, 0.0, 0.0, 0.0, 1.695333680879458E9, 0.0, 2023-09-21 17:01:20.879
220.0, 18060.6118512883, 9420.209755922528, -27989.68142148035, -41223.031726244895, -25065.559156603715, 31698.03699231589, -187500.02235174447, -38117.56975860235, -15985.408840824228, -27000.750839799744, -43553.91634153323, -48052.98722421971, -10134.213880802856, -23444.16361381574, -30923.772564384053, -38646.456735903834, 0.064, 1.006, 0.09, 192.0, 0.0, 0.0, 0.0, 0.0, 0.0, 0.0, 0.0, 0.0, 0.0, 1.695333680879468E9, 0.0, 2023-09-21 17:01:20.879
222.0, 18065.082200179364, 9431.095055472262, -28001.706659997304, -41224.17166521212, -25076.064476497708, 31724.054422861867, -187500.02235174447, -38114.26170042297, -15990.952073449145, -26994.49235135226, -43556.21857121212, -48050.595587562995, -10152.162331600468, -23435.580543944903, -30929.427555731247, -38647.19434347085, 0.064, 1.006, 0.09, 192.0, 0.0, 0.0, 0.0, 0.0, 0.0, 0.0, 0.0, 0.0, 0.0, 1.695333680879478E9, 0.0, 2023-09-21 17:01:20.879
224.0, 18066.155083913218, 9423.517814101913, -27989.92729066936, -41220.14835121016, -25066.63204033757, 31695.824169614814, -187500.02235174447, -38109.5454823429, -15985.565303035415, -26989.57496757209, -43553.35754792184, -48049.07566894003, -10154.419857790454, -23437.458090479147, -30930.45573597619, -38647.41786091541, 0.066, 1.006, 0.09, 192.0, 1.0, 8.0, 15.5, 56.0, 1.0, 104.0, 0.0, 0.0, 0.0, 1.695333680879487E9, 0.0, 2023-09-21 17:01:20.879
0.0, 9097.092938076608, 4702.091777574036, -13967.783924077026, -20604.84386740254, -12485.483287034427, 15918.644180136227, -93750.01117587223, -19050.212985302565, -7995.4872125968, -13501.615941717142, -21777.17051233894, -24025.688949309464, -5075.835296611225, -11719.198431873136, -15458.824093201649, -19320.40087227832, 0.07200000000000001, 1.008, 0.08600000000000001, 192.0, 1.0, 32.0, 15.5, 64.0, 1.0, 88.0, 0.0, 0.0, 0.0, 1.695333681001457E9, 0.0, 2023-09-21 17:01:21.001
2.0, 18196.666919787756, 9407.6704272831, -27923.43085091482, -41203.76452252442, -24966.18330075542, 31813.640214638737, -187500.02235174447, -38100.4930258385, -15930.021218063977, -26955.734426466755, -43584.80645237046, -47954.326624193985, -10013.737978188752, -23258.420617392138, -30901.577282139933, -38568.73972043273, 0.07200000000000001, 1.008, 0.08600000000000001, 192.0, 0.0, 0.0, 0.0, 0.0, 0.0, 0.0, 0.0, 0.0, 0.0, 1.695333681055522E9, 0.0, 2023-09-21 17:01:21.055
4.0, 18194.36469010886, 9406.821060993798, -27930.181077740323, -41206.960821981535, -24972.039457802708, 31830.694595658137, -187500.02235174447, -38102.68349679512, -15930.378845975263, -26954.415673543892, -43584.67234190373, -47953.18668522676, -10012.486280499254, -23256.923050513633, -30895.7434768371, -38570.43845301133, 0.07200000000000001, 1.008, 0.08600000000000001, 192.0, 0.0, 0.0, 0.0, 0.0, 0.0, 0.0, 0.0, 0.0, 0.0, 1.695333681055543E9, 0.0, 2023-09-21 17:01:21.055
6.0, 18202.03133845703, 9414.130081430683, -27921.15097298038, -41202.04343820136, -24965.37863795503, 31815.093078028334, -187500.02235174447, -38101.05181944988, -15922.175755760165, -26944.7597199392, -43575.66458888824, -47946.43645840126, -10008.351207775022, -23256.766588302446, -30901.599633884387, -38565.364607019976, 0.07200000000000001, 1.008, 0.08600000000000001, 192.0, 0.0, 0.0, 0.0, 0.0, 0.0, 0.0, 0.0, 0.0, 0.0, 1.695333681055553E9, 0.0, 2023-09-21 17:01:21.055
8.0, 18192.39773659679, 9405.211735393017, -27923.252036959177, -41205.35149638075, -24970.005449057277, 31829.599360179825, -187500.02235174447, -38100.604784560775, -15928.05426455191, -26949.8112141861, -43580.581972668406, -47947.956377024224, -10011.815728165595, -23258.621783092236, -30890.468465145645, -38570.594915222515, 0.078, 1.008, 0.082, 192.0, 1.0, 56.0, 15.5, 64.0, 1.0, 72.0, 0.0, 0.0, 0.0, 1.695333681055563E9, 0.0, 2023-09-21 17:01:21.055
10.0, 18193.738841264112, 9405.703473771033, -27915.451278144275, -41198.556566066334, -24960.863585575054, 31827.47594445657, -187500.02235174447, -38090.30063036688, -15927.495470940528, -26947.151356595918, -43581.09606279088, -47947.55404562403, -10008.440614752844, -23255.64900107968, -30889.060305244962, -38563.30824653009, 0.078, 1.008, 0.082, 192.0, 0.0, 0.0, 0.0, 0.0, 0.0, 0.0, 0.0, 0.0, 0.0, 1.695333681055573E9, 0.0, 2023-09-21 17:01:21.055
12.0, 18206.300521647994, 9418.779244277388, -27905.61651058394, -41182.46331005851, -24949.33008543612, 31823.698499643626, -187500.02235174447, -38070.96637141304, -15920.700540626114, -26945.698493206324, -43575.418719699235, -47943.77660081108, -9998.583495448052, -23256.163091202154, -30877.079770216915, -38550.43364172383, 0.078, 1.008, 0.082, 192.0, 0.0, 0.0, 0.0, 0.0, 0.0, 0.0, 0.0, 0.0, 0.0, 1.695333681055583E9, 0.0, 2023-09-21 17:01:21.055
14.0, 18186.31806210495, 9397.634494022668, -27921.642711358396, -41198.64597304416, -24965.13276876602, 31837.087194572356, -187500.02235174447, -38084.22095587504, -15926.646104651227, -26950.8617461755, -43581.90072559127, -47950.057441003024, -10004.529059473165, -23248.250573664973, -30876.565680094445, -38550.098365557, 0.078, 1.008, 0.082, 192.0, 0.0, 0.0, 0.0, 0.0, 0.0, 0.0, 0.0, 0.0, 0.0, 1.695333681055592E9, 0.0, 2023-09-21 17:01:21.055
16.0, 18190.855466229375, 9402.395415591647, -27919.85457180197, -41190.48758631797, -24963.03170478722, 31821.999767065023, -187500.02235174447, -38078.5883162723, -15935.028008821966, -26963.04344690364, -43591.60138268487, -47960.87568531939, -10006.875992640971, -23265.997858762486, -30882.131264463816, -38555.46278422628, 0.078, 1.008, 0.082, 192.0, 0.0, 0.0, 0.0, 0.0, 0.0, 0.0, 0.0, 0.0, 0.0, 1.695333681115867E9, 0.0, 2023-09-21 17:01:21.115
18.0, 18193.336509863915, 9403.334188858771, -27921.933284036313, -41192.81216774132, -24959.03074252972, 31818.959929819102, -187500.02235174447, -38076.80017671587, -15927.361360473797, -26957.85784219001, -43584.89585934828, -47955.53361839457, -10014.833213667062, -23253.659695823157, -30881.326601663426, -38548.6007986785, 0.068, 1.008, 0.08600000000000001, 192.0, 1.0, 16.0, 15.5, 64.0, 1.0, 88.0, 0.0, 0.0, 0.0, 1.695333681115893E9, 0.0, 2023-09-21 17:01:21.115
20.0, 18186.139248149306, 9396.785127733365, -27918.80403981257, -41201.23877540097, -24962.539966409204, 31822.20093276512, -187500.02235174447, -38083.6398105192, -15924.925020328168, -26957.924897423378, -43580.49256569059, -47954.99717652764, -10008.977056619771, -23259.35939065926, -30877.526805106023, -38550.52304870165, 0.068, 1.008, 0.08600000000000001, 192.0, 0.0, 0.0, 0.0, 0.0, 0.0, 0.0, 0.0, 0.0, 0.0, 1.695333681115904E9, 0.0, 2023-09-21 17:01:21.115
22.0, 18189.223788884137, 9400.62962777968, -27927.72238585024, -41206.93847023707, -24965.42334144394, 31827.520647945483, -187500.02235174447, -38088.73600825501, -15932.703427398614, -26967.402037072425, -43588.44978671668, -47965.74836561065, -10018.051864868625, -23268.478902397026, -30888.7920843115, -38562.570638963065, 0.068, 1.008, 0.08600000000000001, 192.0, 0.0, 0.0, 0.0, 0.0, 0.0, 0.0, 0.0, 0.0, 0.0, 1.695333681115913E9, 0.0, 2023-09-21 17:01:21.115
24.0, 18188.6426435283, 9401.568401046801, -27923.363795681453, -41204.32331613581, -24961.66824837545, 31810.62272913727, -187500.02235174447, -38089.406560588664, -15924.72385462807, -26967.267926605695, -43585.544059937485, -47964.675481876795, -10015.637876467452, -23274.625632122235, -30890.893148290295, -38563.77763316365, 0.068, 1.008, 0.08600000000000001, 192.0, 0.0, 0.0, 0.0, 0.0, 0.0, 0.0, 0.0, 0.0, 0.0, 1.695333681115957E9, 0.0, 2023-09-21 17:01:21.115
26.0, 18198.32094887745, 9414.957095975531, -27921.70976659176, -41200.590574811766, -24952.23581221531, 31817.887046085245, -187500.02235174447, -38077.09074939379, -15930.401197719719, -26958.34958056803, -43581.31958023543, -47957.00883352862, -10011.659265954408, -23257.28067842492, -30889.037953500505, -38557.608551693986, 0.068, 1.008, 0.08600000000000001, 192.0, 0.0, 0.0, 0.0, 0.0, 0.0, 0.0, 0.0, 0.0, 0.0, 1.69533368111597E9, 0.0, 2023-09-21 17:01:21.115
28.0, 18186.295710360493, 9401.14371790215, -27917.597045611987, -41210.89472900567, -24958.18137624042, 31799.75978133199, -187500.02235174447, -38090.07711292233, -15923.226287749565, -26950.817042686587, -43577.363321466844, -47953.49960964914, -10005.400777506922, -23256.87834702472, -30883.092389475394, -38558.27910402764, 0.06, 1.008, 0.08600000000000001, 192.0, 0.5, 112.0, 15.5, 64.0, 1.0, 88.0, 0.0, 0.0, 0.0, 1.695333681115984E9, 0.0, 2023-09-21 17:01:21.115
30.0, 18172.92936717622, 9391.733633486467, -27926.87301956094, -41215.342726152274, -24962.22704198683, 31824.905493844213, -187500.02235174447, -38088.490139066, -15940.213613535598, -26965.72565623828, -43595.53528970901, -47967.26828423361, -10018.878879413473, -23260.16405345965, -30892.144845979794, -38567.040987854125, 0.06, 1.008, 0.08600000000000001, 192.0, 0.0, 0.0, 0.0, 0.0, 0.0, 0.0, 0.0, 0.0, 0.0, 1.695333681115994E9, 0.0, 2023-09-21 17:01:21.115
32.0, 18166.514416517548, 9382.100031626229, -27930.784574840614, -41220.41657214363, -24967.23383274482, 31814.467229183585, -187500.02235174447, -38095.48623508051, -15953.758770675513, -26973.638173775456, -43606.21942355864, -47974.01851105911, -10023.12571085998, -23274.044486766397, -30893.664764602756, -38573.120662345966, 0.06, 1.008, 0.08600000000000001, 192.0, 0.0, 0.0, 0.0, 0.0, 0.0, 0.0, 0.0, 0.0, 0.0, 1.695333681174707E9, 0.0, 2023-09-21 17:01:21.174
34.0, 18181.06540215795, 9393.633531765166, -27928.839973073005, -41205.46325510302, -24959.589536141102, 31827.72181364558, -187500.02235174447, -38081.49404305149, -15951.34478227434, -26974.845167976044, -43606.241775303104, -47975.0243395596, -10023.259821326712, -23270.8928907982, -30895.58701462591, -38571.019598367166, 0.06, 1.008, 0.08600000000000001, 192.0, 0.0, 0.0, 0.0, 0.0, 0.0, 0.0, 0.0, 0.0, 0.0, 1.695333681174736E9, 0.0, 2023-09-21 17:01:21.174
36.0, 18178.673765501233, 9395.332264343771, -27920.994510769193, -41200.41176085613, -24958.717818107347, 31815.29424372843, -187500.02235174447, -38084.6903425086, -15943.409912992707, -26961.23295560276, -43593.098949563384, -47960.94274055275, -10015.50376600072, -23260.56638485985, -30881.30424991897, -38553.272313269656, 0.06, 1.008, 0.08600000000000001, 192.0, 0.0, 0.0, 0.0, 0.0, 0.0, 0.0, 0.0, 0.0, 0.0, 1.695333681174747E9, 0.0, 2023-09-21 17:01:21.174
38.0, 18177.153846878275, 9395.689892255055, -27930.605760884973, -41194.33208636428, -24963.210518742864, 31839.478831229073, -187500.02235174447, -38079.52708953942, -15945.9133083717, -26963.46813004829, -43600.47502523363, -47963.893170820855, -10019.817652680595, -23256.69953306908, -30885.327563920924, -38554.56871444806, 0.06, 1.012, 0.09, 192.0, 0.5, 112.0, 15.5, 80.0, 1.0, 104.0, 0.0, 0.0, 0.0, 1.695333681174756E9, 0.0, 2023-09-21 17:01:21.174
40.0, 18192.509495319067, 9412.230183151984, -27908.90221701887, -41173.29909483184, -24950.7382453368, 31815.897740828725, -187500.02235174447, -38069.737025468, -15935.25152626652, -26952.739292709746, -43588.829766372415, -47952.04674625954, -10010.564030476098, -23251.201003933074, -30883.807645297966, -38541.649406152894, 0.06, 1.012, 0.09, 192.0, 0.0, 0.0, 0.0, 0.0, 0.0, 0.0, 0.0, 0.0, 0.0, 1.695333681174767E9, 0.0, 2023-09-21 17:01:21.174
42.0, 18194.588207553414, 9410.687912784566, -27915.76420256665, -41176.85302220023, -24957.287306462207, 31848.77715692248, -187500.02235174447, -38070.7875574574, -15931.809357620403, -26947.017246129188, -43580.7384348796, -47945.654147345325, -10005.467832740287, -23239.242820649484, -30870.620116069334, -38536.083821783526, 0.06, 1.012, 0.09, 192.0, 0.0, 0.0, 0.0, 0.0, 0.0, 0.0, 0.0, 0.0, 0.0, 1.695333681174776E9, 0.0, 2023-09-21 17:01:21.174
44.0, 18193.82824824193, 9404.76470050391, -27911.38326065341, -41182.30684784733, -24961.690600119902, 31843.90447663122, -187500.02235174447, -38081.40463607367, -15930.177680275165, -26950.817042686587, -43577.00569355556, -47949.47629564718, -10008.775890919673, -23242.752044528967, -30872.698828303677, -38540.621225907955, 0.06, 1.012, 0.09, 192.0, 0.0, 0.0, 0.0, 0.0, 0.0, 0.0, 0.0, 0.0, 0.0, 1.695333681174786E9, 0.0, 2023-09-21 17:01:21.174
46.0, 18201.807821012477, 9412.543107574356, -27907.359946651453, -41180.317542590805, -24955.722684350334, 31857.516689004504, -187500.02235174447, -38073.7379877255, -15925.886145339746, -26947.978371140765, -43573.13884176479, -47947.0176037571, -10005.423129251378, -23243.199079418075, -30874.73283704911, -38541.91762708636, 0.06, 1.012, 0.09, 192.0, 0.0, 0.0, 0.0, 0.0, 0.0, 0.0, 0.0, 0.0, 0.0, 1.695333681234936E9, 0.0, 2023-09-21 17:01:21.234
48.0, 18191.5930737964, 9401.389587091158, -27913.014937998647, -41194.6226590422, -24964.641030388004, 31858.634276227272, -187500.02235174447, -38091.26175537846, -15931.474081453573, -26956.963772411797, -43580.939600579695, -47955.19834222774, -10010.094643842536, -23247.244745164484, -30883.38296215331, -38551.70769115778, 0.06, 1.01, 0.082, 192.0, 0.5, 112.0, 15.5, 72.0, 1.0, 72.0, 0.0, 0.0, 0.0, 1.695333681234961E9, 0.0, 2023-09-21 17:01:21.234
50.0, 18195.526980820534, 9404.541183059357, -27915.607740355463, -41192.61100204122, -24963.255222231775, 31862.9705146516, -187500.02235174447, -38087.90899371016, -15934.759787888503, -26961.23295560276, -43585.745225637584, -47958.19347598475, -10009.64760895343, -23252.40799813366, -30886.713372077153, -38559.977836606246, 0.06, 1.01, 0.082, 192.0, 0.0, 0.0, 0.0, 0.0, 0.0, 0.0, 0.0, 0.0, 0.0, 1.695333681234973E9, 0.0, 2023-09-21 17:01:21.234
52.0, 18188.68734701721, 9399.19911613454, -27910.37743215292, -41197.796606754855, -24954.716855849845, 31844.440918498152, -187500.02235174447, -38089.3395053553, -15930.088273297344, -26964.33984808205, -43582.95125758067, -47960.5180574081, -10003.187954805846, -23259.26998368144, -30886.154578465772, -38557.16151680488, 0.06, 1.01, 0.082, 192.0, 0.0, 0.0, 0.0, 0.0, 0.0, 0.0, 0.0, 0.0, 0.0, 1.695333681234985E9, 0.0, 2023-09-21 17:01:21.234
54.0, 18185.02166092654, 9398.90854345662, -27920.994510769193, -41202.33401087928, -24958.60605938507, 31845.20087780963, -187500.02235174447, -38086.970220443036, -15940.0124478355, -26971.179481885374, -43592.80837688546, -47968.11765052291, -10010.07229209808, -23257.548899358382, -30877.39269463929, -38558.994359850214, 0.06, 1.01, 0.082, 192.0, 0.0, 0.0, 0.0, 0.0, 0.0, 0.0, 0.0, 0.0, 0.0, 1.695333681234995E9, 0.0, 2023-09-21 17:01:21.234
56.0, 18191.436611585214, 9404.697645270544, -27917.462935145253, -41198.713028277525, -24953.442806415893, 31835.656682927216, -187500.02235174447, -38084.466825064046, -15932.234040765054, -26964.7645312267, -43590.52849895102, -47965.1225167659, -10007.300675785622, -23258.21945169204, -30885.126398220826, -38556.98270284924, 0.06, 1.01, 0.082, 192.0, 0.0, 0.0, 0.0, 0.0, 0.0, 0.0, 0.0, 0.0, 0.0, 1.695333681235005E9, 0.0, 2023-09-21 17:01:21.235
58.0, 18191.190742396207, 9405.703473771033, -27926.224818971732, -41199.6741532891, -24957.17554773993, 31844.48562198706, -187500.02235174447, -38078.856537205764, -15932.636372165249, -26960.80827245811, -43594.842385630895, -47961.68034811978, -10003.724396672773, -23256.565422602347, -30885.796950554486, -38558.927304616846, 0.066, 1.01, 0.08600000000000001, 192.0, 1.0, 8.0, 15.5, 72.0, 1.0, 88.0, 0.0, 0.0, 0.0, 1.695333681235014E9, 0.0, 2023-09-21 17:01:21.235
60.0, 18182.16063763626, 9397.187459133562, -27927.878848061428, -41200.165891667115, -24959.880108819023, 31846.676092943682, -187500.02235174447, -38083.77392098593, -15935.050360566422, -26958.014304401197, -43594.75297865307, -47956.7182608507, -10007.613600207997, -23248.69760855408, -30889.082656989416, -38555.574542948554, 0.066, 1.01, 0.08600000000000001, 192.0, 0.0, 0.0, 0.0, 0.0, 0.0, 0.0, 0.0, 0.0, 0.0, 1.695333681235024E9, 0.0, 2023-09-21 17:01:21.235
62.0, 18182.98765218111, 9393.901752698632, -27936.95365631028, -41202.91515623512, -24965.98213505532, 31837.9142091172, -187500.02235174447, -38085.62911577572, -15945.667439182693, -26966.731484738768, -43605.07948459143, -47964.69783362125, -10016.151966589925, -23259.158224959163, -30892.92715703573, -38563.73292967474, 0.066, 1.01, 0.08600000000000001, 192.0, 0.0, 0.0, 0.0, 0.0, 0.0, 0.0, 0.0, 0.0, 0.0, 1.695333681295259E9, 0.0, 2023-09-21 17:01:21.295
64.0, 18193.135344163817, 9407.156337160628, -27926.068356760545, -41185.72666474899, -24954.18041398292, 31831.700424158626, -187500.02235174447, -38072.12866212471, -15938.470177468083, -26959.489519535247, -43597.01050484306, -47963.49083942066, -10013.3132950441, -23251.446873122084, -30898.20216872718, -38551.662987668875, 0.066, 1.01, 0.08600000000000001, 192.0, 0.0, 0.0, 0.0, 0.0, 0.0, 0.0, 0.0, 0.0, 0.0, 1.695333681295291E9, 0.0, 2023-09-21 17:01:21.295
66.0, 18190.31902436245, 9407.759834260922, -27915.607740355463, -41180.58576352427, -24952.682847104414, 31836.886028872257, -187500.02235174447, -38070.45228129057, -15930.781177375458, -26949.52064150818, -43587.06397856045, -47953.544313138045, -10001.623332693975, -23240.516870083437, -30880.879566774318, -38537.06729853956, 0.066, 1.01, 0.08600000000000001, 192.0, 0.0, 0.0, 0.0, 0.0, 0.0, 0.0, 0.0, 0.0, 0.0, 1.695333681295347E9, 0.0, 2023-09-21 17:01:21.295
68.0, 18182.898245203287, 9402.216601636006, -27925.66602536035, -41186.15134789364, -24958.293134962696, 31860.802395439438, -187500.02235174447, -38070.3852260572, -15940.280668768964, -26954.527432266168, -43596.22819378712, -47958.72991785168, -10004.327893773067, -23236.87353573722, -30879.896090018286, -38536.419097950355, 0.07, 1.01, 0.082, 192.0, 1.0, 24.0, 15.5, 72.0, 1.0, 72.0, 0.0, 0.0, 0.0, 1.695333681295366E9, 0.0, 2023-09-21 17:01:21.295
70.0, 18187.435649327716, 9403.513002814414, -27918.021728756637, -41187.11247290522, -24954.493338405293, 31851.034683112466, -187500.02235174447, -38066.831298688805, -15943.521671714983, -26961.05414164712, -43600.38561825581, -47960.83098183048, -10018.431844524366, -23244.808405018855, -30877.079770216915, -38539.704804385285, 0.07, 1.01, 0.082, 192.0, 0.0, 0.0, 0.0, 0.0, 0.0, 0.0, 0.0, 0.0, 0.0, 1.695333681295386E9, 0.0, 2023-09-21 17:01:21.295
72.0, 18193.06828893045, 9410.732616273477, -27917.01590025615, -41185.30198160434, -24953.621620371538, 31864.758654208024, -187500.02235174447, -38061.936266653094, -15933.686904154649, -26948.827737430067, -43589.612077428355, -47951.44324915925, -10008.485318241754, -23234.28073338041, -30875.82807252742, -38531.1440862589, 0.07, 1.01, 0.082, 192.0, 0.0, 0.0, 0.0, 0.0, 0.0, 0.0, 0.0, 0.0, 0.0, 1.695333681295405E9, 0.0, 2023-09-21 17:01:21.295
74.0, 18199.46088784467, 9414.53241283088, -27906.95761525126, -41181.3233710913, -24948.570126124636, 31846.676092943682, -187500.02235174447, -38057.398862528666, -15937.464348967595, -26955.756778211213, -43591.981362340615, -47956.897074806344, -10010.586382220554, -23238.192288660084, -30876.118645205337, -38539.81656310756, 0.07, 1.01, 0.082, 192.0, 0.0, 0.0, 0.0, 0.0, 0.0, 0.0, 0.0, 0.0, 0.0, 1.695333681295424E9, 0.0, 2023-09-21 17:01:21.295
76.0, 18211.843754272908, 9426.378837392193, -27906.309414662053, -41174.371978565694, -24950.022989514233, 31870.771273466504, -187500.02235174447, -38054.00139737146, -15924.992075561533, -26945.363217039492, -43580.20199301267, -47948.58222586897, -10002.249181538724, -23225.16122164264, -30869.971915480128, -38530.00414729168, 0.07, 1.01, 0.082, 192.0, 0.0, 0.0, 0.0, 0.0, 0.0, 0.0, 0.0, 0.0, 0.0, 1.695333681355541E9, 0.0, 2023-09-21 17:01:21.355
78.0, 18203.46185010217, 9418.57807857729, -27906.398821639876, -41182.19508912505, -24957.689637862404, 31849.87239240079, -187500.02235174447, -38074.56500227034, -15916.409005690695, -26937.741272180236, -43567.77442309552, -47940.96028100971, -9997.488259969743, -23224.73653849799, -30868.116720690337, -38530.25001648069, 0.066, 1.014, 0.08600000000000001, 192.0, 1.0, 8.0, 15.5, 88.0, 1.0, 88.0, 0.0, 0.0, 0.0, 1.695333681355565E9, 0.0, 2023-09-21 17:01:21.355
80.0, 18198.008024455074, 9416.477014598491, -27914.825429299526, -41188.25241187244, -24961.60119314208, 31856.153232592733, -187500.02235174447, -38080.130586639716, -15930.803529119914, -26958.260173590206, -43583.55475468097, -47953.25374046013, -10012.061597354603, -23244.02609396292, -30882.913575519753, -38550.254827768185, 0.066, 1.014, 0.08600000000000001, 192.0, 0.0, 0.0, 0.0, 0.0, 0.0, 0.0, 0.0, 0.0, 0.0, 1.695333681355576E9, 0.0, 2023-09-21 17:01:21.355
82.0, 18199.952626222686, 9419.270982655404, -27905.147123950377, -41182.060978658315, -24947.854870302068, 31819.67518564167, -187500.02235174447, -38073.29095283639, -15921.259334237497, -26951.129967108962, -43573.42941444271, -47943.888359533354, -10000.416338493389, -23248.585849831805, -30876.543328349988, -38542.20819976428, 0.066, 1.014, 0.08600000000000001, 192.0, 0.0, 0.0, 0.0, 0.0, 0.0, 0.0, 0.0, 0.0, 0.0, 1.695333681355586E9, 0.0, 2023-09-21 17:01:21.355
84.0, 18188.352070850382, 9406.351674360238, -27915.09365023299, -41186.79954848284, -24953.532213393715, 31848.039549355457, -187500.02235174447, -38071.97219991353, -15925.729683128558, -26954.840356688543, -43578.95029532317, -47947.28582469056, -10001.824498394073, -23243.154375929164, -30877.169177194737, -38542.565827675564, 0.066, 1.014, 0.08600000000000001, 192.0, 0.0, 0.0, 0.0, 0.0, 0.0, 0.0, 0.0, 0.0, 0.0, 1.695333681355595E9, 0.0, 2023-09-21 17:01:21.355
86.0, 18186.630986527325, 9403.691816770055, -27911.070336231034, -41186.55367929384, -24950.89470754799, 31821.30686298691, -187500.02235174447, -38076.19667961558, -15934.759787888503, -26964.67512424888, -43589.589725683894, -47956.53944689506, -10003.858507139506, -23253.16795744514, -30885.662840087756, -38546.45503121079, 0.066, 1.014, 0.08600000000000001, 192.0, 0.0, 0.0, 0.0, 0.0, 0.0, 0.0, 0.0, 0.0, 0.0, 1.695333681355605E9, 0.0, 2023-09-21 17:01:21.355
88.0, 18190.56489355146, 9406.977523204985, -27911.22679844222, -41182.6197722697, -24952.772254082236, 31847.078424343876, -187500.02235174447, -38076.10727263776, -15928.121319785276, -26963.04344690364, -43581.40898721325, -47950.616234614405, -10003.88085888396, -23246.753006786468, -30876.92330800573, -38539.838914852015, 0.064, 1.012, 0.09, 192.0, 1.0, 0.0, 15.5, 80.0, 1.0, 104.0, 0.0, 0.0, 0.0, 1.69533368135565E9, 0.0, 2023-09-21 17:01:21.355
90.0, 18193.31415811946, 9409.346808117249, -27905.28123441711, -41175.847193699745, -24949.866527303046, 31829.10762180181, -187500.02235174447, -38075.213202859544, -15932.412854720695, -26965.77035972719, -43583.15242328077, -47951.510304392614, -10009.22292580878, -23255.112559212754, -30883.114741219848, -38542.834048609024, 0.064, 1.012, 0.09, 192.0, 0.0, 0.0, 0.0, 0.0, 0.0, 0.0, 0.0, 0.0, 0.0, 1.69533368135566E9, 0.0, 2023-09-21 17:01:21.355
92.0, 18191.436611585214, 9411.559630818323, -27911.24915018668, -41174.2155163545, -24951.453501159373, 31846.139651076755, -187500.02235174447, -38072.978028414014, -15930.445901208628, -26954.281563077162, -43579.732606379104, -47941.78729555456, -10001.93625711635, -23241.45564335056, -30874.285802160004, -38534.40744094938, 0.064, 1.012, 0.09, 192.0, 0.0, 0.0, 0.0, 0.0, 0.0, 0.0, 0.0, 0.0, 0.0, 1.69533368141577E9, 0.0, 2023-09-21 17:01:21.415
94.0, 18186.65333827178, 9407.066930182807, -27904.945958250282, -41174.796661710345, -24947.676056346423, 31834.06970907089, -187500.02235174447, -38074.49794703698, -15932.72577914307, -26953.543955510137, -43582.66068490275, -47942.88253103287, -10001.712739671795, -23245.210736419052, -30880.387828396302, -38532.86517058196, 0.064, 1.012, 0.09, 192.0, 0.0, 0.0, 0.0, 0.0, 0.0, 0.0, 0.0, 0.0, 0.0, 1.695333681415794E9, 0.0, 2023-09-21 17:01:21.415
96.0, 18184.708736504166, 9404.42942433708, -27914.065469988047, -41182.64212401416, -24952.012294770753, 31856.957895393123, -187500.02235174447, -38072.10631038026, -15938.671343168182, -26958.595449757035, -43589.14269079479, -47951.2197317147, -10005.087853084548, -23247.065931208843, -30877.25858417256, -38538.98954856271, 0.064, 1.012, 0.09, 192.0, 0.0, 0.0, 0.0, 0.0, 0.0, 0.0, 0.0, 0.0, 0.0, 1.695333681415805E9, 0.0, 2023-09-21 17:01:21.415
98.0, 18181.378326580325, 9394.840525965754, -27910.958577508758, -41186.598382782744, -24950.157099980963, 31852.59930522434, -187500.02235174447, -38071.86044119125, -15931.317619242385, -26964.943345182342, -43580.40315871277, -47952.069098004, -9998.583495448052, -23250.0387132214, -30876.364514394347, -38531.90404557038, 0.064, 1.012, 0.082, 192.0, 1.0, 0.0, 15.5, 80.0, 1.0, 72.0, 0.0, 0.0, 0.0, 1.695333681415814E9, 0.0, 2023-09-21 17:01:21.415
100.0, 18187.860332472366, 9399.310874856816, -27913.86430428795, -41185.279629859884, -24950.492376147795, 31865.853889686336, -187500.02235174447, -38067.72536846702, -15941.085331569355, -26975.739237754256, -43590.88612686231, -47964.451964432235, -10006.630123451963, -23251.49157661099, -30874.77754053802, -38541.96233057527, 0.064, 1.012, 0.082, 192.0, 0.0, 0.0, 0.0, 0.0, 0.0, 0.0, 0.0, 0.0, 0.0, 1.695333681415825E9, 0.0, 2023-09-21 17:01:21.415
102.0, 18188.530884806023, 9401.456642324525, -27906.04119372859, -41184.27380135939, -24949.620658114036, 31853.15809883572, -187500.02235174447, -38069.82643244582, -15927.093139540333, -26956.650847989426, -43576.26808598854, -47949.47629564718, -9991.654454666908, -23243.869631751735, -30869.86015675785, -38530.272368225145, 0.064, 1.012, 0.082, 192.0, 0.0, 0.0, 0.0, 0.0, 0.0, 0.0, 0.0, 0.0, 0.0, 1.695333681415834E9, 0.0, 2023-09-21 17:01:21.415
104.0, 18184.46286731516, 9399.132060901173, -27912.411440898355, -41192.38748459667, -24958.002562284775, 31863.328142562885, -187500.02235174447, -38073.46976679203, -15938.738398401547, -26966.28444984966, -43590.21557452864, -47963.2226184872, -10004.93139087336, -23248.563498087347, -30877.973839995127, -38547.170287033354, 0.064, 1.012, 0.082, 192.0, 0.0, 0.0, 0.0, 0.0, 0.0, 0.0, 0.0, 0.0, 0.0, 1.695333681415844E9, 0.0, 2023-09-21 17:01:21.415
106.0, 18181.043050413497, 9397.165107389106, -27909.461010630253, -41194.35443810874, -24960.103626263575, 31856.287343059463, -187500.02235174447, -38077.85070870527, -15931.362322731296, -26962.596412014536, -43584.15825178126, -47959.37811844089, -10005.087853084548, -23246.283620152906, -30882.913575519753, -38544.84570561, 0.064, 1.012, 0.082, 192.0, 0.0, 0.0, 0.0, 0.0, 0.0, 0.0, 0.0, 0.0, 0.0, 1.695333681474625E9, 0.0, 2023-09-21 17:01:21.474
108.0, 18188.374422594836, 9402.887153969665, -27907.695222818285, -41186.66543801611, -24958.918983807445, 31855.572087236895, -187500.02235174447, -38072.95567666956, -15929.551831430415, -26970.24070861825, -43584.515879692546, -47963.80376384303, -10004.640818195441, -23252.855033022766, -30879.851386529375, -38549.29370275661, 0.068, 1.012, 0.082, 192.0, 1.0, 16.0, 15.5, 80.0, 1.0, 72.0, 0.0, 0.0, 0.0, 1.695333681474648E9, 0.0, 2023-09-21 17:01:21.474
110.0, 18191.97305345214, 9403.982389447974, -27904.990661739193, -41182.46331005851, -24953.733379093814, 31859.081311116377, -187500.02235174447, -38068.19475510058, -15923.986247061044, -26962.57406027008, -43576.737472622095, -47955.712432350214, -9999.142289059435, -23242.729692784513, -30877.4373981282, -38536.217932250256, 0.068, 1.012, 0.082, 192.0, 0.0, 0.0, 0.0, 0.0, 0.0, 0.0, 0.0, 0.0, 0.0, 1.695333681474686E9, 0.0, 2023-09-21 17:01:21.474
112.0, 18191.280149374026, 9401.233124879971, -27901.548493093076, -41181.52453679139, -24949.33008543612, 31860.847098928345, -187500.02235174447, -38065.31138006585, -15921.81812784888, -26960.472996291282, -43577.87741158932, -47954.952473038735, -9993.420242478876, -23244.11550094074, -30868.854328257363, -38530.85351358098, 0.068, 1.012, 0.082, 192.0, 0.0, 0.0, 0.0, 0.0, 0.0, 0.0, 0.0, 0.0, 0.0, 1.695333681474695E9, 0.0, 2023-09-21 17:01:21.474
114.0, 18178.40554456777, 9388.202057862527, -27918.75933632366, -41194.30973461983, -24959.254259974274, 31870.771273466504, -187500.02235174447, -38077.314266838344, -15932.703427398614, -26968.98901092875, -43592.897783863285, -47968.67644413429, -10002.338588516544, -23244.003742218465, -30878.6890958177, -38538.162534017865, 0.068, 1.012, 0.082, 192.0, 0.0, 0.0, 0.0, 0.0, 0.0, 0.0, 0.0, 0.0, 0.0, 1.695333681474705E9, 0.0, 2023-09-21 17:01:21.474
116.0, 18183.010003925563, 9395.444023066048, -27909.170437952333, -41181.5692402803, -24949.75476858077, 31846.229058054574, -187500.02235174447, -38067.21127834455, -15933.955125088112, -26963.132853881463, -43593.367170496844, -47965.41308944382, -9998.874068125971, -23252.69857081158, -30877.571508594934, -38533.71453687126, 0.068, 1.012, 0.082, 192.0, 0.0, 0.0, 0.0, 0.0, 0.0, 0.0, 0.0, 0.0, 0.0, 1.695333681474714E9, 0.0, 2023-09-21 17:01:21.474
118.0, 18179.679594001722, 9394.393491076647, -27913.260807187657, -41182.15038563614, -24953.062826760153, 31863.663418729717, -187500.02235174447, -38071.100481879774, -15938.29136351244, -26963.021095159187, -43597.234022287616, -47966.3742144554, -10003.634989694952, -23245.54601258588, -30878.39852313978, -38531.30054847009, 0.064, 1.014, 0.082, 192.0, 1.0, 0.0, 15.5, 88.0, 1.0, 72.0, 0.0, 0.0, 0.0, 1.695333681474724E9, 0.0, 2023-09-21 17:01:21.474
120.0, 18185.133419648817, 9401.501345813436, -27906.488228617698, -41172.96381866501, -24949.821823814134, 31857.404930282228, -187500.02235174447, -38070.25111559047, -15936.525575700472, -26951.062911875597, -43593.56833619694, -47952.694946848744, -9991.676806411364, -23241.612105561748, -30871.69299980319, -38523.835065822015, 0.064, 1.014, 0.082, 192.0, 0.0, 0.0, 0.0, 0.0, 0.0, 0.0, 0.0, 0.0, 0.0, 1.695333681474733E9, 0.0, 2023-09-21 17:01:21.474
122.0, 18187.70387026118, 9403.334188858771, -27903.314280905044, -41173.27674308739, -24945.88791679, 31872.93939267867, -187500.02235174447, -38066.89835392217, -15932.859889609801, -26940.021150114677, -43591.93665885171, -47944.804781056024, -10002.115071071992, -23233.23020139101, -30867.423816612223, -38518.381240174924, 0.064, 1.014, 0.082, 192.0, 0.0, 0.0, 0.0, 0.0, 0.0, 0.0, 0.0, 0.0, 0.0, 1.695333681534979E9, 0.0, 2023-09-21 17:01:21.534
124.0, 18183.300576603484, 9393.991159676452, -27900.229740170213, -41186.263106615916, -24947.430187157417, 31859.818918683402, -187500.02235174447, -38076.44254880459, -15928.367188974285, -26939.37294952547, -43588.29332450549, -47941.34026066545, -9998.203515792313, -23235.86770723673, -30858.90780197475, -38520.839932065006, 0.064, 1.014, 0.082, 192.0, 0.0, 0.0, 0.0, 0.0, 0.0, 0.0, 0.0, 0.0, 0.0, 1.695333681534999E9, 0.0, 2023-09-21 17:01:21.534
126.0, 18182.49591380309, 9393.566476531802, -27912.344385664986, -41202.95985972403, -24952.07935000412, 31867.664380987215, -187500.02235174447, -38083.99743843048, -15936.480872211561, -26950.10178686402, -43594.551812952974, -47951.2197317147, -10003.746748417228, -23242.975561973522, -30867.490871845588, -38542.45406895329, 0.064, 1.014, 0.082, 192.0, 0.0, 0.0, 0.0, 0.0, 0.0, 0.0, 0.0, 0.0, 0.0, 1.69533368153501E9, 0.0, 2023-09-21 17:01:21.535
128.0, 18187.994442939096, 9396.583962033268, -27906.89056001789, -41205.08327544729, -24945.954972023366, 31833.756784648514, -187500.02235174447, -38078.364798827744, -15927.92015408518, -26946.838432173543, -43587.779234383015, -47947.68815609076, -9998.091757070037, -23251.49157661099, -30865.479214844614, -38549.02548182315, 0.064, 1.016, 0.094, 192.0, 1.0, 0.0, 15.5, 96.0, 1.0, 120.0, 0.0, 0.0, 0.0, 1.695333681535022E9, 0.0, 2023-09-21 17:01:21.535
130.0, 18188.776753995033, 9398.327398100782, -27917.462935145253, -41206.51378709242, -24949.240678458296, 31851.057034856924, -187500.02235174447, -38073.02273190293, -15929.842404108334, -26946.056121117606, -43590.26027801756, -47948.98455726916, -10002.070367583081, -23249.70343705457, -30865.322752633427, -38554.54636270361, 0.064, 1.016, 0.094, 192.0, 0.0, 0.0, 0.0, 0.0, 0.0, 0.0, 0.0, 0.0, 0.0, 1.695333681535033E9, 0.0, 2023-09-21 17:01:21.535
132.0, 18195.37051860935, 9400.00377893493, -27910.42213564183, -41199.78591201138, -24946.536117379204, 31831.76747939199, -187500.02235174447, -38072.95567666956, -15918.979456303055, -26930.476955232258, -43582.01248431355, -47935.70762106271, -9991.140364544435, -23240.941553228087, -30866.038008455995, -38541.649406152894, 0.064, 1.016, 0.094, 192.0, 0.0, 0.0, 0.0, 0.0, 0.0, 0.0, 0.0, 0.0, 0.0, 1.695333681535073E9, 0.0, 2023-09-21 17:01:21.535
134.0, 18200.26555064506, 9403.736520258966, -27912.634958342907, -41195.002638697944, -24945.262067945252, 31854.16392733621, -187500.02235174447, -38063.00915038695, -15920.409967948195, -26929.605237198502, -43579.754958123565, -47933.271280917084, -9995.208382035302, -23234.28073338041, -30868.362589879347, -38538.184885762326, 0.064, 1.016, 0.094, 192.0, 0.0, 0.0, 0.0, 0.0, 0.0, 0.0, 0.0, 0.0, 0.0, 1.695333681535082E9, 0.0, 2023-09-21 17:01:21.535
136.0, 18200.310254133972, 9397.09805215574, -27904.320109405533, -41195.91906022061, -24940.50114637627, 31843.032758597466, -187500.02235174447, -38066.63013298871, -15919.784119103448, -26937.361292524492, -43579.06205404545, -47936.221711185186, -9994.001387834714, -23239.77926251641, -30869.346066635382, -38532.775763604135, 0.064, 1.016, 0.094, 192.0, 0.0, 0.0, 0.0, 0.0, 0.0, 0.0, 0.0, 0.0, 0.0, 1.69533368159542E9, 0.0, 2023-09-21 17:01:21.595
138.0, 18188.955567950674, 9389.14083112965, -27912.27733043162, -41203.78687426888, -24953.21928897134, 31873.45348280114, -187500.02235174447, -38074.65440924816, -15921.751072615514, -26939.976446625766, -43580.87254534633, -47939.283900175564, -9991.185068033346, -23236.51590782594, -30867.893203245785, -38528.26071122417, 0.064, 1.006, 0.094, 192.0, 1.0, 0.0, 15.5, 56.0, 1.0, 120.0, 0.0, 0.0, 0.0, 1.695333681595445E9, 0.0, 2023-09-21 17:01:21.595
140.0, 18191.391908096302, 9390.124307885684, -27903.649557071873, -41192.45453983004, -24943.339817922097, 31846.094947587844, -187500.02235174447, -38071.81573770234, -15923.427453449662, -26940.267019303683, -43583.800623869975, -47942.48019963267, -9998.292922770133, -23247.468262609036, -30873.279973659515, -38526.561978645565, 0.064, 1.006, 0.094, 192.0, 0.0, 0.0, 0.0, 0.0, 0.0, 0.0, 0.0, 0.0, 0.0, 1.695333681595456E9, 0.0, 2023-09-21 17:01:21.595
142.0, 18181.51243704706, 9383.776412460376, -27917.462935145253, -41195.33791486477, -24952.056998259664, 31866.323276319898, -187500.02235174447, -38078.34244708329, -15934.022180321477, -26943.016283871686, -43592.540155951996, -47945.92236827879, -10002.27153328318, -23236.046521192377, -30867.334409634404, -38527.1431240014, 0.064, 1.006, 0.094, 192.0, 0.0, 0.0, 0.0, 0.0, 0.0, 0.0, 0.0, 0.0, 0.0, 1.695333681595465E9, 0.0, 2023-09-21 17:01:21.595
144.0, 18188.486181317116, 9392.828868964776, -27908.611644340952, -41187.82772872779, -24943.496280133284, 31841.24461904104, -187500.02235174447, -38077.51543253844, -15937.196128034131, -26947.643094973933, -43596.40700774277, -47948.00108051313, -10004.55141121762, -23240.673332294624, -30874.375209137823, -38529.46770542475, 0.064, 1.006, 0.094, 192.0, 0.0, 0.0, 0.0, 0.0, 0.0, 0.0, 0.0, 0.0, 0.0, 1.695333681595474E9, 0.0, 2023-09-21 17:01:21.595
146.0, 18195.45992558717, 9399.802613234831, -27911.651481586872, -41182.86564145871, -24941.46227138785, 31864.289267574462, -187500.02235174447, -38070.22876384601, -15931.25056400902, -26939.931743136854, -43591.064940817945, -47938.07690597497, -9998.65055068142, -23232.000855445964, -30865.434511355703, -38521.35402218748, 0.064, 1.006, 0.094, 192.0, 0.0, 0.0, 0.0, 0.0, 0.0, 0.0, 0.0, 0.0, 0.0, 1.695333681595483E9, 0.0, 2023-09-21 17:01:21.595
148.0, 18190.810762740464, 9398.327398100782, -27912.65731008736, -41187.380693838684, -24941.26110568775, 31861.607058239828, -187500.02235174447, -38078.00717091646, -15930.021218063977, -26939.305894292105, -43590.662609417755, -47937.115780963395, -9997.331797758556, -23227.44109957708, -30864.87571774432, -38521.175208231834, 0.066, 1.006, 0.094, 192.0, 1.0, 8.0, 15.5, 56.0, 1.0, 120.0, 0.0, 0.0, 0.0, 1.695333681595492E9, 0.0, 2023-09-21 17:01:21.595
150.0, 18195.951663965185, 9401.300180113338, -27915.741850822196, -41193.393313097156, -24944.524460378227, 31869.45252054364, -187500.02235174447, -38078.498909294474, -15937.173776289676, -26946.100824606518, -43594.73062690862, -47943.37426941088, -10002.718568172284, -23237.07470143732, -30867.647334056775, -38532.5969496485, 0.066, 1.006, 0.094, 192.0, 0.0, 0.0, 0.0, 0.0, 0.0, 0.0, 0.0, 0.0, 0.0, 1.695333681595502E9, 0.0, 2023-09-21 17:01:21.595
152.0, 18210.815574027965, 9412.38664536317, -27902.19669368228, -41187.29128686086, -24931.873373016522, 31852.845174413345, -187500.02235174447, -38073.335656325304, -15922.712197627092, -26931.81805989958, -43579.039702300994, -47931.594900082935, -9990.760384888696, -23231.620875790224, -30868.00496196806, -38526.80784783457, 0.066, 1.006, 0.094, 192.0, 0.0, 0.0, 0.0, 0.0, 0.0, 0.0, 0.0, 0.0, 0.0, 1.695333681656507E9, 0.0, 2023-09-21 17:01:21.656
154.0, 18204.73589953612, 9403.513002814414, -27905.258882672657, -41192.38748459667, -24941.79754755468, 31864.49043327456, -187500.02235174447, -38075.70494123756, -15924.701502883614, -26933.583847711547, -43581.87837384682, -47930.544368093535, -9991.207419777802, -23232.85022173527, -30863.69107528819, -38532.82046709305, 0.066, 1.006, 0.094, 192.0, 0.0, 0.0, 0.0, 0.0, 0.0, 0.0, 0.0, 0.0, 0.0, 1.695333681656609E9, 0.0, 2023-09-21 17:01:21.656
156.0, 18200.757289023077, 9400.62962777968, -27906.66704257334, -41194.66736253111, -24936.231963185306, 31854.9685901366, -187500.02235174447, -38068.172403356126, -15923.270991238474, -26931.505135477204, -43583.4876994476, -47931.37138263838, -9997.376501247467, -23234.92893396961, -30868.183775923706, -38530.33942345851, 0.066, 1.006, 0.094, 192.0, 0.0, 0.0, 0.0, 0.0, 0.0, 0.0, 0.0, 0.0, 0.0, 1.695333681656619E9, 0.0, 2023-09-21 17:01:21.656
158.0, 18198.052727943985, 9403.960037703519, -27910.690356575295, -41199.09300793326, -24939.182393453408, 31863.8198809409, -187500.02235174447, -38066.94305741108, -15926.266124995485, -26928.778222653655, -43590.48379546211, -47934.50062686213, -9994.850754124016, -23229.631570533704, -30865.143938677782, -38530.31707171405, 0.062, 1.004, 0.08600000000000001, 192.0, 0.5, 120.0, 15.5, 48.0, 1.0, 88.0, 0.0, 0.0, 0.0, 1.695333681656628E9, 0.0, 2023-09-21 17:01:21.656
160.0, 18186.385117338315, 9392.605351520224, -27917.462935145253, -41198.51186257743, -24939.160041708954, 31877.812072969926, -187500.02235174447, -38069.3346940678, -15937.933735601157, -26936.57898146856, -43598.061036832456, -47941.3626124099, -10002.718568172284, -23232.470242079526, -30874.665781815744, -38531.43465893682, 0.062, 1.004, 0.08600000000000001, 192.0, 0.0, 0.0, 0.0, 0.0, 0.0, 0.0, 0.0, 0.0, 0.0, 1.695333681656638E9, 0.0, 2023-09-21 17:01:21.656
162.0, 18192.6436057858, 9398.729729500978, -27908.74575480768, -41189.258240372925, -24933.952085250865, 31863.484604774072, -187500.02235174447, -38062.04802537537, -15934.29040125494, -26938.255362302705, -43595.28942052, -47937.78633329706, -9997.152983802913, -23232.5820008018, -30863.936944477195, -38523.835065822015, 0.062, 1.004, 0.08600000000000001, 192.0, 0.0, 0.0, 0.0, 0.0, 0.0, 0.0, 0.0, 0.0, 0.0, 1.695333681656647E9, 0.0, 2023-09-21 17:01:21.656
164.0, 18199.729108778134, 9398.841488223254, -27909.595121096983, -41185.994885682456, -24934.108547462052, 31872.715875234113, -187500.02235174447, -38057.08593810629, -15922.399273204717, -26929.56053370959, -43588.67330416123, -47930.72318204918, -9989.374576732467, -23224.580076286802, -30858.01373219654, -38510.133446470914, 0.062, 1.004, 0.08600000000000001, 192.0, 0.0, 0.0, 0.0, 0.0, 0.0, 0.0, 0.0, 0.0, 0.0, 1.695333681656657E9, 0.0, 2023-09-21 17:01:21.656
166.0, 18209.005082727086, 9411.492575584958, -27896.25112965717, -41172.829708198275, -24926.911285747443, 31857.337875048863, -187500.02235174447, -38054.29197004938, -15922.399273204717, -26927.772394153166, -43587.376902982825, -47928.95739423721, -9990.894495355427, -23226.055291420853, -30856.426758340214, -38506.065428980044, 0.062, 1.004, 0.08600000000000001, 192.0, 0.0, 0.0, 0.0, 0.0, 0.0, 0.0, 0.0, 0.0, 0.0, 1.695333681656666E9, 0.0, 2023-09-21 17:01:21.656
168.0, 18206.7475565371, 9410.039712195363, -27901.213216926244, -41172.65089424264, -24932.70038756137, 31872.69352348966, -187500.02235174447, -38060.282237563406, -15916.63252313525, -26924.509039462693, -43581.34193197989, -47925.805798269015, -9987.295864498123, -23217.11459363873, -30853.476328072113, -38498.51053935415, 0.058, 1.01, 0.088, 192.0, 0.5, 104.0, 15.5, 72.0, 1.0, 96.0, 0.0, 0.0, 0.0, 1.695333681715825E9, 0.0, 2023-09-21 17:01:21.715
170.0, 18211.731995550632, 9418.868651255209, -27891.646670299375, -41163.71019646051, -24929.83936427109, 31869.854851943834, -187500.02235174447, -38062.070377119824, -15912.609209133294, -26921.178629538852, -43575.128147021314, -47920.9107662333, -9981.21619000628, -23221.11555589623, -30850.90587745975, -38496.27536490862, 0.058, 1.01, 0.088, 192.0, 0.0, 0.0, 0.0, 0.0, 0.0, 0.0, 0.0, 0.0, 0.0, 1.695333681715846E9, 0.0, 2023-09-21 17:01:21.715
172.0, 18208.490992604613, 9416.85699425423, -27899.08980120299, -41166.30299881733, -24935.851983529566, 31905.617643072328, -187500.02235174447, -38066.1830980996, -15911.044587021423, -26916.775335881157, -43571.842440586384, -47917.267431887085, -9985.418317963877, -23210.16320111313, -30852.76107224954, -38492.63203056241, 0.058, 1.01, 0.088, 192.0, 0.0, 0.0, 0.0, 0.0, 0.0, 0.0, 0.0, 0.0, 0.0, 1.695333681715857E9, 0.0, 2023-09-21 17:01:21.715
174.0, 18216.93995200872, 9425.037732724873, -27893.658327300353, -41163.10669936022, -24929.191163681888, 31876.381561324786, -187500.02235174447, -38066.87600217772, -15911.29045621043, -26916.283597503138, -43569.96489405214, -47915.032257441555, -9986.357091231, -23220.914390196132, -30856.784386251496, -38495.873033508426, 0.058, 1.01, 0.088, 192.0, 0.0, 0.0, 0.0, 0.0, 0.0, 0.0, 0.0, 0.0, 0.0, 1.695333681715867E9, 0.0, 2023-09-21 17:01:21.715
176.0, 18207.351053637394, 9417.39343612116, -27907.650519329374, -41180.69752224655, -24941.909306276957, 31894.911157478233, -187500.02235174447, -38083.50570005247, -15914.397348689718, -26920.41867022737, -43572.20006849767, -47917.423894098276, -9986.759422631196, -23219.238009361987, -30862.797005509976, -38509.19467320379, 0.058, 1.01, 0.088, 192.0, 0.0, 0.0, 0.0, 0.0, 0.0, 0.0, 0.0, 0.0, 0.0, 1.695333681715909E9, 0.0, 2023-09-21 17:01:21.715
178.0, 18228.60756261439, 9434.58192760729, -27891.51255983264, -41167.71115871801, -24925.994864224776, 31851.839345912857, -187500.02235174447, -38075.41436855964, -15915.649046379216, -26926.23012378575, -43574.05526328746, -47921.20133891122, -9989.195762776824, -23227.329340854805, -30873.34702889288, -38522.80688557707, 0.056, 1.006, 0.08600000000000001, 192.0, 0.5, 96.0, 15.5, 56.0, 1.0, 88.0, 0.0, 0.0, 0.0, 1.695333681715919E9, 0.0, 2023-09-21 17:01:21.715
180.0, 18215.956475252686, 9424.367180391215, -27907.739926307193, -41181.70335074703, -24940.098814976074, 31890.30669812044, -187500.02235174447, -38082.92455469663, -15901.455688650096, -26909.265149744173, -43558.61020786884, -47906.96327769319, -9977.349338215512, -23204.530561510393, -30858.125490918817, -38513.39680116139, 0.056, 1.006, 0.08600000000000001, 192.0, 0.0, 0.0, 0.0, 0.0, 0.0, 0.0, 0.0, 0.0, 0.0, 1.695333681715929E9, 0.0, 2023-09-21 17:01:21.715
182.0, 18212.827231028943, 9419.29333439986, -27908.14225770739, -41192.968629952506, -24939.27180043123, 31870.59245951086, -187500.02235174447, -38089.67478152213, -15916.677226624159, -26929.113498820487, -43575.21755399914, -47923.92825173477, -9992.54852444512, -23231.464413579037, -30873.905822504265, -38536.15087701689, 0.056, 1.006, 0.08600000000000001, 192.0, 0.0, 0.0, 0.0, 0.0, 0.0, 0.0, 0.0, 0.0, 0.0, 1.695333681775653E9, 0.0, 2023-09-21 17:01:21.775
184.0, 18205.048823958496, 9411.894906985153, -27925.911894549357, -41207.161987681626, -24951.453501159373, 31890.910195220735, -187500.02235174447, -38094.100426924284, -15919.404139447706, -26933.919123878375, -43577.855059844864, -47929.53853959305, -9993.93433260135, -23226.949361199066, -30876.67743881672, -38544.935112587824, 0.056, 1.006, 0.08600000000000001, 192.0, 0.0, 0.0, 0.0, 0.0, 0.0, 0.0, 0.0, 0.0, 0.0, 1.695333681775678E9, 0.0, 2023-09-21 17:01:21.775
186.0, 18209.630931571835, 9419.24863091095, -27922.00033926968, -41205.39619986966, -24942.401044654973, 31854.476851758584, -187500.02235174447, -38080.73408374001, -15924.813261605892, -26934.924952378864, -43586.97457158263, -47937.65222283032, -9997.957646603305, -23237.275867137418, -30887.49568313309, -38549.0478335676, 0.056, 1.006, 0.08600000000000001, 192.0, 0.0, 0.0, 0.0, 0.0, 0.0, 0.0, 0.0, 0.0, 0.0, 1.695333681775687E9, 0.0, 2023-09-21 17:01:21.775
188.0, 18204.89236174731, 9415.091206442263, -27929.309359706567, -41212.615813328724, -24953.17458548243, 31888.11622716382, -187500.02235174447, -38082.72338899653, -15918.778290602959, -26928.66646393138, -43583.91238259225, -47931.77371403858, -9991.185068033346, -23227.709320510545, -30880.186662696204, -38537.69314738431, 0.06, 1.004, 0.09, 192.0, 0.5, 112.0, 15.5, 48.0, 1.0, 104.0, 0.0, 0.0, 0.0, 1.695333681775697E9, 0.0, 2023-09-21 17:01:21.775
190.0, 18206.099355947896, 9412.073720940796, -27925.509563149164, -41210.55945283883, -24947.631352857516, 31859.77421519449, -187500.02235174447, -38084.600935530776, -15928.098968040822, -26937.651865202413, -43594.417702486244, -47942.1672752103, -10005.177260062368, -23241.679160795113, -30892.144845979794, -38546.45503121079, 0.06, 1.004, 0.09, 192.0, 0.0, 0.0, 0.0, 0.0, 0.0, 0.0, 0.0, 0.0, 0.0, 1.695333681775706E9, 0.0, 2023-09-21 17:01:21.775
192.0, 18203.26068440207, 9405.502308070936, -27931.52218240764, -41210.13476969418, -24950.827652314623, 31872.201785111643, -187500.02235174447, -38083.14807214118, -15931.33997098684, -26939.127080336464, -43597.34578100989, -47942.8154757995, -10000.371635004478, -23241.299181139373, -30887.78625581101, -38541.98468231972, 0.06, 1.004, 0.09, 192.0, 0.0, 0.0, 0.0, 0.0, 0.0, 0.0, 0.0, 0.0, 0.0, 1.695333681775715E9, 0.0, 2023-09-21 17:01:21.775
194.0, 18207.5969228264, 9414.219488408506, -27915.272464188634, -41197.170757910106, -24937.193088196887, 31851.191145323653, -187500.02235174447, -38083.46099656355, -15921.706369126603, -26929.538181965137, -43588.31567624994, -47934.38886813985, -9990.335701744045, -23237.74525377098, -30883.49472087559, -38530.02649903614, 0.06, 1.004, 0.09, 192.0, 0.0, 0.0, 0.0, 0.0, 0.0, 0.0, 0.0, 0.0, 0.0, 1.695333681775725E9, 0.0, 2023-09-21 17:01:21.775
196.0, 18207.351053637394, 9414.957095975531, -27914.445449643787, -41192.25337412994, -24940.992884754287, 31862.478776273583, -187500.02235174447, -38085.69617100908, -15924.947372072624, -26928.867629631477, -43590.304981506466, -47932.82424602798, -9992.235600022746, -23231.330303112307, -30873.123511448328, -38531.613472892466, 0.06, 1.004, 0.09, 192.0, 0.0, 0.0, 0.0, 0.0, 0.0, 0.0, 0.0, 0.0, 0.0, 1.695333681775775E9, 0.0, 2023-09-21 17:01:21.775
198.0, 18210.569704838956, 9418.220450666005, -27906.488228617698, -41182.552717036335, -24935.7849282962, 31849.67122670069, -187500.02235174447, -38082.29870585188, -15926.444938951128, -26926.364234252484, -43589.07563556143, -47927.81745526999, -9996.236562280246, -23225.250628620463, -30877.21388068365, -38526.830199579024, 0.064, 1.004, 0.088, 192.0, 1.0, 0.0, 15.5, 48.0, 1.0, 96.0, 0.0, 0.0, 0.0, 1.695333681835937E9, 0.0, 2023-09-21 17:01:21.835
200.0, 18217.36463515337, 9418.063988454818, -27900.117981447936, -41173.27674308739, -24936.276666674217, 31864.803357696936, -187500.02235174447, -38075.59318251529, -15916.409005690695, -26923.011472584185, -43576.603362155365, -47918.47442608767, -9985.820649364072, -23217.047538405364, -30866.507395089557, -38516.1907692183, 0.064, 1.004, 0.088, 192.0, 0.0, 0.0, 0.0, 0.0, 0.0, 0.0, 0.0, 0.0, 0.0, 1.695333681835959E9, 0.0, 2023-09-21 17:01:21.835
202.0, 18214.682425818733, 9415.24766865345, -27903.873074516425, -41176.62950475568, -24941.08229173211, 31874.325200834897, -187500.02235174447, -38079.72825523952, -15923.047473793922, -26933.606199456, -43582.28070524701, -47927.258661658605, -9988.50285869871, -23223.574247786313, -30873.704656804166, -38519.11884774195, 0.064, 1.004, 0.088, 192.0, 0.0, 0.0, 0.0, 0.0, 0.0, 0.0, 0.0, 0.0, 0.0, 1.69533368183597E9, 0.0, 2023-09-21 17:01:21.835
204.0, 18213.22956242914, 9416.879345998686, -27905.325937906022, -41178.06001640082, -24942.669265588436, 31885.478721318093, -187500.02235174447, -38073.98385691451, -15923.382749960752, -26930.52165872117, -43579.55379242347, -47925.023487213075, -9999.812841393095, -23223.55189604186, -30869.837805013398, -38517.86715005245, 0.064, 1.004, 0.088, 192.0, 0.0, 0.0, 0.0, 0.0, 0.0, 0.0, 0.0, 0.0, 0.0, 1.695333681835983E9, 0.0, 2023-09-21 17:01:21.835
206.0, 18214.570667096457, 9421.39439837866, -27904.141295449892, -41175.62367625519, -24936.857812030055, 31889.9267184647, -187500.02235174447, -38066.831298688805, -15918.107738269298, -26922.542085950627, -43574.68111213221, -47918.22855689866, -9995.36484424649, -23216.22052386052, -30872.09533120338, -38508.747638314686, 0.064, 1.004, 0.088, 192.0, 0.0, 0.0, 0.0, 0.0, 0.0, 0.0, 0.0, 0.0, 0.0, 1.695333681835992E9, 0.0, 2023-09-21 17:01:21.835
208.0, 18215.64355083031, 9420.120348944707, -27902.263748915644, -41171.84623144224, -24935.226134684817, 31894.374715611306, -187500.02235174447, -38059.90225790766, -15922.645142393727, -26923.413803984382, -43577.98917031159, -47916.507472575606, -9998.69525417033, -23212.68894823658, -30867.267354401036, -38506.914795269346, 0.064, 1.008, 0.08600000000000001, 192.0, 1.0, 0.0, 15.5, 64.0, 1.0, 88.0, 0.0, 0.0, 0.0, 1.695333681836002E9, 0.0, 2023-09-21 17:01:21.836
210.0, 18216.6493793308, 9416.924049487598, -27909.282196674612, -41171.801527953336, -24929.83936427109, 31896.07344818991, -187500.02235174447, -38059.52227825192, -15919.784119103448, -26923.011472584185, -43573.98820805409, -47916.61923129788, -9993.979036090259, -23202.54125625387, -30869.72604629112, -38499.292850410086, 0.064, 1.008, 0.08600000000000001, 192.0, 0.0, 0.0, 0.0, 0.0, 0.0, 0.0, 0.0, 0.0, 0.0, 1.695333681836011E9, 0.0, 2023-09-21 17:01:21.836
212.0, 18213.18485894023, 9416.812290765321, -27908.790458296593, -41172.44972854254, -24933.527402106214, 31893.234776644087, -187500.02235174447, -38064.57377249882, -15922.332217971352, -26925.961902852287, -43577.83270810041, -47919.81553075499, -9995.36484424649, -23203.614139987727, -30869.368418379836, -38504.545510357086, 0.064, 1.008, 0.08600000000000001, 192.0, 0.0, 0.0, 0.0, 0.0, 0.0, 0.0, 0.0, 0.0, 0.0, 1.695333681896255E9, 0.0, 2023-09-21 17:01:21.896
214.0, 18215.196515941207, 9422.802558279343, -27911.47266763123, -41173.85788844322, -24935.427300384916, 31894.93350922269, -187500.02235174447, -38069.44645279008, -15923.226287749565, -26918.876399859953, -43577.20685925566, -47916.41806559778, -9995.78952739114, -23200.954282397543, -30881.326601663426, -38509.48524588171, 0.064, 1.008, 0.08600000000000001, 192.0, 0.0, 0.0, 0.0, 0.0, 0.0, 0.0, 0.0, 0.0, 0.0, 1.695333681896284E9, 0.0, 2023-09-21 17:01:21.896
216.0, 18205.831135014432, 9408.76566276141, -27921.553304380574, -41190.26406887342, -24946.491413890293, 31879.399046826253, -187500.02235174447, -38088.087807665805, -15927.942505829635, -26927.14654530842, -43586.81810937144, -47923.52592033457, -10000.103414071014, -23212.89011393668, -30884.522901120534, -38526.24905422319, 0.064, 1.008, 0.08600000000000001, 192.0, 0.0, 0.0, 0.0, 0.0, 0.0, 0.0, 0.0, 0.0, 0.0, 1.695333681896294E9, 0.0, 2023-09-21 17:01:21.896
218.0, 18217.856373531387, 9422.891965257164, -27919.29577819059, -41189.5711647953, -24942.713969077347, 31879.711971248624, -187500.02235174447, -38085.58441228681, -15920.767595859481, -26924.263170273683, -43582.99596106958, -47922.520091834085, -9996.974169847272, -23213.895942437168, -30891.362534923857, -38534.36273746046, 0.06, 1.012, 0.08, 192.0, 0.5, 112.0, 15.5, 80.0, 1.0, 64.0, 0.0, 0.0, 0.0, 1.695333681896332E9, 0.0, 2023-09-21 17:01:21.896
220.0, 18205.16058268077, 9405.189383648561, -27911.986757753704, -41192.968629952506, -24940.970533009833, 31855.907363403723, -187500.02235174447, -38088.31132511036, -15919.046511536422, -26926.453641230302, -43583.97943782562, -47922.58714706745, -9989.463983710288, -23223.30602685285, -30888.367401166848, -38540.420060207856, 0.06, 1.012, 0.08, 192.0, 0.0, 0.0, 0.0, 0.0, 0.0, 0.0, 0.0, 0.0, 0.0, 1.695333681896342E9, 0.0, 2023-09-21 17:01:21.896
222.0, 18211.55318159499, 9408.631552294679, -27914.71367057725, -41193.34860960825, -24942.17752721042, 31867.01618039801, -187500.02235174447, -38084.95856344206, -15923.71802612758, -26942.882173404956, -43585.67817040422, -47926.58810932495, -9998.98582684825, -23227.664617021637, -30883.5394243645, -38537.62609215094, 0.06, 1.012, 0.08, 192.0, 0.0, 0.0, 0.0, 0.0, 0.0, 0.0, 0.0, 0.0, 0.0, 1.695333681896352E9, 0.0, 2023-09-21 17:01:21.896
224.0, 18208.6474548158, 9406.15050866014, -27908.99162399669, -41195.09204567576, -24940.232925442808, 31861.338837306364, -187500.02235174447, -38090.77001700044, -15921.907534826702, -26943.23980131624, -43582.39246396929, -47925.62698431337, -9994.336664001545, -23232.336131612796, -30881.259546430058, -38538.96719681826, 0.06, 1.012, 0.08, 192.0, 0.0, 0.0, 0.0, 0.0, 0.0, 0.0, 0.0, 0.0, 0.0, 1.695333681896361E9, 0.0, 2023-09-21 17:01:21.896
226.0, 18218.37046365386, 9412.632514552179, -27911.316205420044, -41191.985153196474, -24939.182393453408, 31876.269802602506, -187500.02235174447, -38083.30453435237, -15922.220459249076, -26947.151356595918, -43583.71121689215, -47926.006963969114, -9995.655416924408, -23232.447890335072, -30881.840691785896, -38538.587217162516, 0.06, 1.012, 0.08, 192.0, 0.0, 0.0, 0.0, 0.0, 0.0, 0.0, 0.0, 0.0, 0.0, 1.695333681896371E9, 0.0, 2023-09-21 17:01:21.896
228.0, 18226.528850380048, 9422.735503045977, -27894.060658700546, -41180.5187082909, -24926.9336374919, 31853.046340113444, -187500.02235174447, -38076.10727263776, -15897.745299070515, -26924.486687718236, -43559.616036369334, -47902.85055671341, -9975.941178314826, -23227.754023999456, -30870.217784669137, -38517.95655703027, 0.066, 1.01, 0.08, 192.0, 1.0, 8.0, 15.5, 72.0, 1.0, 64.0, 0.0, 0.0, 0.0, 1.695333681956605E9, 0.0, 2023-09-21 17:01:21.956
230.0, 18222.59494335591, 9419.874479755697, -27913.0372897431, -41189.682923517576, -24939.785890553703, 31875.375732824297, -187500.02235174447, -38081.62815351822, -15913.324464955864, -26938.210658813794, -43574.77051911003, -47915.83692024195, -9994.873105868472, -23232.984332202, -30879.560813851454, -38532.44048743731, 0.066, 1.01, 0.08, 192.0, 0.0, 0.0, 0.0, 0.0, 0.0, 0.0, 0.0, 0.0, 0.0, 1.695333681956626E9, 0.0, 2023-09-21 17:01:21.956
232.0, 18221.79028055552, 9418.95805823303, -27897.793400024584, -41182.73153099198, -24931.918076505433, 31861.383540795272, -187500.02235174447, -38077.13545288271, -15905.613113118783, -26928.308836020093, -43564.44401317168, -47905.53276604805, -9987.653492409408, -23229.206887389053, -30874.44226437119, -38519.87880705343, 0.066, 1.01, 0.08, 192.0, 0.0, 0.0, 0.0, 0.0, 0.0, 0.0, 0.0, 0.0, 0.0, 1.695333681956636E9, 0.0, 2023-09-21 17:01:21.956
234.0, 18212.067271717464, 9409.391511606158, -27913.841952543495, -41189.86173747322, -24941.46227138785, 31899.06858194692, -187500.02235174447, -38077.64954300517, -15919.895877825724, -26941.161089081896, -43575.73164412161, -47916.373362108876, -9997.667073925386, -23231.12913741221, -30872.140034692293, -38527.9924902907, 0.066, 1.01, 0.08, 192.0, 0.0, 0.0, 0.0, 0.0, 0.0, 0.0, 0.0, 0.0, 0.0, 1.695333681956645E9, 0.0, 2023-09-21 17:01:21.956
236.0, 18212.827231028943, 9410.263229639915, -27902.17434193782, -41184.45261531504, -24930.39815788247, 31872.91704093421, -187500.02235174447, -38065.91487716614, -15921.572258659871, -26943.128042593962, -43576.96099006665, -47919.14497842133, -9997.778832647662, -23236.06887293683, -30873.659953315255, -38523.343327443996, 0.066, 1.01, 0.08, 192.0, 0.0, 0.0, 0.0, 0.0, 0.0, 0.0, 0.0, 0.0, 0.0, 1.695333681956654E9, 0.0, 2023-09-21 17:01:21.956
238.0, 18221.387949155327, 9423.741331546466, -27888.517426075632, -41168.918152918595, -24922.485640345294, 31901.437866859185, -187500.02235174447, -38046.67002519012, -15911.871601566269, -26935.416690756883, -43565.22632422762, -47910.00311493911, -9988.569913932075, -23218.276884350405, -30859.064264185938, -38505.439580135295, 0.056, 1.016, 0.082, 192.0, 0.5, 96.0, 15.5, 96.0, 1.0, 72.0, 0.0, 0.0, 0.0, 1.695333681956664E9, 0.0, 2023-09-21 17:01:21.956
240.0, 18221.589114855422, 9418.220450666005, -27884.784684751594, -41167.107661617716, -24919.401099610463, 31883.288250361475, -187500.02235174447, -38050.425118258616, -15911.558677143894, -26935.03671110114, -43564.91339980524, -47911.6571440288, -9987.83230636505, -23209.15737261264, -30858.885450230297, -38500.65630682186, 0.056, 1.016, 0.082, 192.0, 0.0, 0.0, 0.0, 0.0, 0.0, 0.0, 0.0, 0.0, 0.0, 1.695333681956701E9, 0.0, 2023-09-21 17:01:21.956
242.0, 18217.02935898654, 9413.168956419106, -27898.75452503616, -41171.801527953336, -24926.9336374919, 31900.49909359206, -187500.02235174447, -38055.96835088353, -15911.67043586617, -26935.506097734702, -43567.640312628784, -47913.86996672988, -9982.445535951321, -23201.222503331006, -30851.889354215786, -38498.64464982088, 0.056, 1.016, 0.082, 192.0, 0.0, 0.0, 0.0, 0.0, 0.0, 0.0, 0.0, 0.0, 0.0, 1.695333682016071E9, 0.0, 2023-09-21 17:01:22.016
244.0, 18218.683388076235, 9412.274886640893, -27892.47368484422, -41169.208725596516, -24920.719852533326, 31878.54968053695, -187500.02235174447, -38055.364853783234, -15912.09511901082, -26938.590638469537, -43570.81426034144, -47918.72029527668, -9981.707928384296, -23207.74921271196, -30859.176022908217, -38498.24231842069, 0.056, 1.016, 0.082, 192.0, 0.0, 0.0, 0.0, 0.0, 0.0, 0.0, 0.0, 0.0, 0.0, 1.695333682016095E9, 0.0, 2023-09-21 17:01:22.016
246.0, 18213.16250719577, 9407.603372049734, -27898.061620958048, -41176.20482161103, -24929.012349726243, 31889.21146264213, -187500.02235174447, -38061.735100952996, -15919.024159791967, -26944.871478661476, -43578.346798222876, -47925.62698431337, -9989.68750115484, -23215.013529659933, -30858.572525807922, -38506.57951910252, 0.056, 1.016, 0.082, 192.0, 0.0, 0.0, 0.0, 0.0, 0.0, 0.0, 0.0, 0.0, 0.0, 1.695333682016104E9, 0.0, 2023-09-21 17:01:22.016
248.0, 18217.968132253663, 9412.364293618715, -27896.56405407954, -41175.355455321725, -24929.057053215154, 31882.483587561084, -187500.02235174447, -38064.37260679872, -15920.611133648294, -26945.787900184143, -43578.01152205605, -47926.14107443584, -9990.82744012206, -23220.981445429497, -30868.608459068357, -38511.67571683833, 0.058, 1.016, 0.08600000000000001, 192.0, 0.5, 104.0, 15.5, 96.0, 1.0, 88.0, 0.0, 0.0, 0.0, 1.695333682016113E9, 0.0, 2023-09-21 17:01:22.016
250.0, 18222.79610905601, 9418.8239477663, -27892.33957437749, -41171.91328667561, -24927.246561914275, 31880.36017183783, -187500.02235174447, -38060.39399628568, -15904.473174151562, -26930.56636221008, -43561.80650732595, -47910.18192889475, -9977.572855660064, -23215.080584893298, -30858.751339763563, -38501.41626613334, 0.058, 1.016, 0.08600000000000001, 192.0, 0.0, 0.0, 0.0, 0.0, 0.0, 0.0, 0.0, 0.0, 0.0, 1.695333682016123E9, 0.0, 2023-09-21 17:01:22.016
252.0, 18216.716434564165, 9410.598505806745, -27902.107286704457, -41184.74318799296, -24938.02010274173, 31881.0754276604, -187500.02235174447, -38072.95567666956, -15915.693749868125, -26941.608123971004, -43575.08344353241, -47920.77665576657, -9986.714719142285, -23214.231218603996, -30869.21195616865, -38513.37444941693, 0.058, 1.016, 0.08600000000000001, 192.0, 0.0, 0.0, 0.0, 0.0, 0.0, 0.0, 0.0, 0.0, 0.0, 1.695333682016132E9, 0.0, 2023-09-21 17:01:22.016
254.0, 18221.7008735777, 9414.018322708407, -27897.681641302308, -41183.24562111445, -24939.852945787068, 31871.039494399967, -187500.02235174447, -38074.40854005916, -15915.470232423573, -26943.75389143871, -43573.69763537617, -47920.66489704429, -9987.83230636505, -23222.054329163355, -30871.380075380814, -38520.92933904283, 0.058, 1.016, 0.08600000000000001, 192.0, 0.0, 0.0, 0.0, 0.0, 0.0, 0.0, 0.0, 0.0, 0.0, 1.695333682016142E9, 0.0, 2023-09-21 17:01:22.016
0.0, 18227.735844580635, 9420.299162900348, -27898.553359336063, -41182.50801354743, -24932.45451837236, 31867.10558737583, -187500.02235174447, -38074.56500227034, -15908.697653853615, -26938.478879747257, -43565.203972483156, -47914.3617051079, -9983.496067940721, -23223.30602685285, -30876.476273116623, -38521.465780909755, 0.058, 1.016, 0.08600000000000001, 192.0, 0.0, 0.0, 0.0, 0.0, 0.0, 0.0, 0.0, 0.0, 0.0, 1.695333682016151E9, 0.0, 2023-09-21 17:01:22.016
2.0, 18224.56189686798, 9415.180613420083, -27897.681641302308, -41185.771368237896, -24934.55558235116, 31872.000619411545, -187500.02235174447, -38079.01299941695, -15906.9542177861, -26934.455565745302, -43563.460536415645, -47907.56677479348, -9974.264797480679, -23226.055291420853, -30868.362589879347, -38521.175208231834, 0.06, 1.014, 0.082, 192.0, 0.5, 112.0, 15.5, 88.0, 1.0, 72.0, 0.0, 0.0, 0.0, 1.695333682075818E9, 0.0, 2023-09-21 17:01:22.075
4.0, 18223.354902667394, 9412.833680252275, -27897.18990292429, -41190.733455506976, -24930.152288693465, 31874.30284909044, -187500.02235174447, -38077.113101138246, -15915.134956256743, -26940.825812915067, -43570.68014987471, -47915.4122370973, -9992.794393634129, -23226.65878852115, -30874.129339948817, -38528.595987390996, 0.06, 1.014, 0.082, 192.0, 0.0, 0.0, 0.0, 0.0, 0.0, 0.0, 0.0, 0.0, 0.0, 1.695333682075843E9, 0.0, 2023-09-21 17:01:22.075
6.0, 18221.723225322155, 9409.749139517444, -27894.641804056384, -41192.43218808558, -24927.783003781202, 31858.36605529381, -187500.02235174447, -38071.927496424614, -15913.279761466953, -26945.497327506226, -43572.5353446645, -47920.39667611083, -9987.653492409408, -23228.849259477767, -30867.96025847915, -38529.62416763594, 0.06, 1.014, 0.082, 192.0, 0.0, 0.0, 0.0, 0.0, 0.0, 0.0, 0.0, 0.0, 0.0, 1.695333682075888E9, 0.0, 2023-09-21 17:01:22.075
8.0, 18221.924391022254, 9413.012494207918, -27902.62137682693, -41194.53325206438, -24932.678035816913, 31879.30963984843, -187500.02235174447, -38068.19475510058, -15913.726796356059, -26944.80442342811, -43574.12231852082, -47924.35293487942, -9989.21811452128, -23224.69183500908, -30869.949563735674, -38525.73496410072, 0.06, 1.014, 0.082, 192.0, 0.0, 0.0, 0.0, 0.0, 0.0, 0.0, 0.0, 0.0, 0.0, 1.695333682075898E9, 0.0, 2023-09-21 17:01:22.075
10.0, 18219.800975299, 9409.793843006355, -27897.815751769038, -41189.21353688402, -24924.74316653528, 31872.045322900456, -187500.02235174447, -38060.59516198577, -15912.788023088935, -26948.80538568561, -43575.619885399334, -47927.77275178108, -9989.553390688108, -23230.30212286736, -30871.983572481106, -38525.53379840062, 0.06, 1.014, 0.082, 192.0, 0.0, 0.0, 0.0, 0.0, 0.0, 0.0, 0.0, 0.0, 0.0, 1.695333682075907E9, 0.0, 2023-09-21 17:01:22.075
12.0, 18211.575533339445, 9402.440119080558, -27912.210275198257, -41199.07065618881, -24935.069672473634, 31899.672079047214, -187500.02235174447, -38067.747720211475, -15918.66653188068, -26959.37776081297, -43580.447862201676, -47931.93017624976, -9992.88380061195, -23229.989198444986, -30874.10698820436, -38523.81271407756, 0.06, 1.01, 0.078, 192.0, 0.5, 112.0, 15.5, 72.0, 1.0, 56.0, 0.0, 0.0, 0.0, 1.695333682075917E9, 0.0, 2023-09-21 17:01:22.075
14.0, 18208.22277167115, 9402.306008613827, -27901.548493093076, -41191.00167644044, -24929.101756704065, 31883.26589861702, -187500.02235174447, -38063.74675795397, -15914.620866134272, -26953.342789810038, -43578.99499881208, -47927.39277212534, -9988.636969165442, -23233.20784964655, -30871.402427125267, -38518.180074474825, 0.06, 1.01, 0.078, 192.0, 0.0, 0.0, 0.0, 0.0, 0.0, 0.0, 0.0, 0.0, 0.0, 1.695333682075927E9, 0.0, 2023-09-21 17:01:22.075
16.0, 18200.93610297872, 9399.19911613454, -27912.836124043006, -41197.3272201213, -24934.577934095614, 31903.74009653808, -187500.02235174447, -38063.702054465066, -15921.974590060066, -26961.47882479177, -43589.09798730588, -47938.61334784191, -9995.655416924408, -23230.637399034193, -30877.30328766147, -38521.801057076584, 0.06, 1.01, 0.078, 192.0, 0.0, 0.0, 0.0, 0.0, 0.0, 0.0, 0.0, 0.0, 0.0, 1.695333682135953E9, 0.0, 2023-09-21 17:01:22.135
18.0, 18198.343300621906, 9394.840525965754, -27903.291929160587, -41198.26599338841, -24932.722739305824, 31880.44957881565, -187500.02235174447, -38071.27929583541, -15921.348741215319, -26966.239746360752, -43592.42839722972, -47944.78242931157, -9993.777870390162, -23239.332227627307, -30881.30424991897, -38525.86907456745, 0.06, 1.01, 0.078, 192.0, 0.0, 0.0, 0.0, 0.0, 0.0, 0.0, 0.0, 0.0, 0.0, 1.69533368213598E9, 0.0, 2023-09-21 17:01:22.135
20.0, 18206.7475565371, 9401.188421391062, -27902.464914615743, -41191.8733944742, -24927.000692725265, 31900.70025929216, -187500.02235174447, -38061.39982478617, -15913.212706233588, -26959.15424336842, -43584.18060352571, -47941.1167432209, -9983.898399340917, -23233.900753724665, -30871.804758525464, -38517.844798308, 0.06, 1.01, 0.078, 192.0, 0.0, 0.0, 0.0, 0.0, 0.0, 0.0, 0.0, 0.0, 0.0, 1.69533368213599E9, 0.0, 2023-09-21 17:01:22.135
22.0, 18185.60280628238, 9381.116554870196, -27922.782650325615, -41213.75575229595, -24947.07255924613, 31887.378619596795, -187500.02235174447, -38085.69617100908, -15929.77534887497, -26974.241670875752, -43599.804472899974, -47956.986481784166, -9992.459117467299, -23247.200041675573, -30876.342162649893, -38532.28402522612, 0.06, 1.012, 0.08, 192.0, 0.5, 112.0, 15.5, 80.0, 1.0, 64.0, 0.0, 0.0, 0.0, 1.695333682135999E9, 0.0, 2023-09-21 17:01:22.135
24.0, 18209.765042038565, 9403.758872003422, -27905.683565817308, -41192.409836341125, -24932.65568407246, 31895.98404121209, -187500.02235174447, -38069.24528708998, -15926.780215117959, -26969.547804540136, -43598.08338857692, -47951.934987537265, -9994.180201790357, -23248.384684131706, -30883.5394243645, -38529.0430222801, 0.06, 1.012, 0.08, 192.0, 0.0, 0.0, 0.0, 0.0, 0.0, 0.0, 0.0, 0.0, 0.0, 1.695333682136009E9, 0.0, 2023-09-21 17:01:22.136
26.0, 18212.424899628746, 9405.94934296004, -27902.95665299376, -41193.70623751953, -24937.483660874805, 31873.7217037346, -187500.02235174447, -38076.73312148251, -15920.879354581757, -26959.176595112873, -43586.035798315505, -47938.74745830864, -9990.782736633151, -23242.93085848461, -30877.39269463929, -38524.61737687795, 0.06, 1.012, 0.08, 192.0, 0.0, 0.0, 0.0, 0.0, 0.0, 0.0, 0.0, 0.0, 0.0, 1.695333682136019E9, 0.0, 2023-09-21 17:01:22.136
28.0, 18222.751405567098, 9413.124252930194, -27906.95761525126, -41189.414702584116, -24937.84128878609, 31891.26782313202, -187500.02235174447, -38072.575697013825, -15913.257409722497, -26954.125100865975, -43577.87741158932, -47932.82424602798, -9986.960588331292, -23244.897811996678, -30875.24692717158, -38525.39968793389, 0.06, 1.012, 0.08, 192.0, 0.0, 0.0, 0.0, 0.0, 0.0, 0.0, 0.0, 0.0, 0.0, 1.695333682136062E9, 0.0, 2023-09-21 17:01:22.136
30.0, 18229.814556814978, 9417.080511698785, -27893.81478951154, -41183.312676347814, -24929.12410844852, 31865.049226885945, -187500.02235174447, -38072.62040050273, -15901.120412483266, -26947.129004851464, -43565.09221376088, -47924.263527901596, -9978.01989054917, -23242.8861549957, -30875.96218299415, -38519.789400075606, 0.06, 1.012, 0.08, 192.0, 0.0, 0.0, 0.0, 0.0, 0.0, 0.0, 0.0, 0.0, 0.0, 1.695333682136071E9, 0.0, 2023-09-21 17:01:22.136
32.0, 18228.249934703104, 9416.566421576312, -27898.4863041027, -41186.68778976057, -24936.880163774513, 31890.373753353808, -187500.02235174447, -38077.046045904885, -15903.176772973155, -26946.726673451267, -43565.1816207387, -47923.0118302121, -9977.103469026502, -23237.49938458197, -30869.68134280221, -38522.784533832615, 0.056, 1.012, 0.078, 192.0, 0.5, 96.0, 15.5, 80.0, 1.0, 56.0, 0.0, 0.0, 0.0, 1.695333682196278E9, 0.0, 2023-09-21 17:01:22.196
34.0, 18224.360731167882, 9413.593639563756, -27898.799228525073, -41192.00750494093, -24938.60124809757, 31881.321296849408, -187500.02235174447, -38082.20929887406, -15911.357511443795, -26951.9122781649, -43571.39540569728, -47927.8621587589, -9987.564085431586, -23243.042617206887, -30878.53263360651, -38531.97110080375, 0.056, 1.012, 0.078, 192.0, 0.0, 0.0, 0.0, 0.0, 0.0, 0.0, 0.0, 0.0, 0.0, 1.695333682196301E9, 0.0, 2023-09-21 17:01:22.196
36.0, 18228.585210869936, 9419.136872188672, -27900.252091914666, -41189.81703398431, -24937.37190215253, 31883.31060210593, -187500.02235174447, -38075.861403448755, -15909.77053758747, -26946.95019089582, -43567.39444343978, -47922.38598136735, -9985.26185575269, -23235.06304443634, -30875.716313805144, -38530.36177520297, 0.056, 1.012, 0.078, 192.0, 0.0, 0.0, 0.0, 0.0, 0.0, 0.0, 0.0, 0.0, 0.0, 1.695333682196312E9, 0.0, 2023-09-21 17:01:22.196
38.0, 18219.800975299, 9408.788014505866, -27899.51448434764, -41194.39914159765, -24939.629428342516, 31872.8723374453, -187500.02235174447, -38079.16946162814, -15902.215647961575, -26943.776243183165, -43562.678225359705, -47918.42972259876, -9981.059727795093, -23236.292390381383, -30878.01854348404, -38526.74079260121, 0.056, 1.012, 0.078, 192.0, 0.0, 0.0, 0.0, 0.0, 0.0, 0.0, 0.0, 0.0, 0.0, 1.695333682196321E9, 0.0, 2023-09-21 17:01:22.196
40.0, 18213.74365255161, 9400.875496968687, -27909.125734463425, -41202.758694023934, -24946.714931334845, 31887.98211669709, -187500.02235174447, -38082.231650618516, -15914.218534734075, -26954.57213575508, -43575.977513310616, -47929.73970529315, -9990.089832555037, -23246.529489341916, -30881.52776736352, -38534.65331013838, 0.056, 1.012, 0.078, 192.0, 0.0, 0.0, 0.0, 0.0, 0.0, 0.0, 0.0, 0.0, 0.0, 1.695333682196331E9, 0.0, 2023-09-21 17:01:22.196
42.0, 18216.02353048605, 9402.57422954729, -27904.118943705435, -41195.427321842595, -24935.69552131838, 31876.761540980526, -187500.02235174447, -38075.70494123756, -15912.81037483339, -26954.81800494409, -43577.20685925566, -47932.019583227586, -9981.551466173109, -23249.65873356566, -30885.88635753231, -38530.20531299178, 0.052000000000000005, 1.008, 0.08600000000000001, 192.0, 0.5, 80.0, 15.5, 64.0, 1.0, 88.0, 0.0, 0.0, 0.0, 1.69533368219634E9, 0.0, 2023-09-21 17:01:22.196
44.0, 18198.03037619953, 9389.967845674497, -27911.785592053606, -41202.49047309047, -24943.920963277935, 31890.686677776182, -187500.02235174447, -38080.15293838417, -15914.084424267343, -26956.360275311505, -43584.091196547895, -47935.10412396242, -9991.095661055526, -23245.434253863605, -30875.649258571775, -38527.21017923477, 0.052000000000000005, 1.008, 0.08600000000000001, 192.0, 0.0, 0.0, 0.0, 0.0, 0.0, 0.0, 0.0, 0.0, 0.0, 1.69533368219635E9, 0.0, 2023-09-21 17:01:22.196
46.0, 18203.417146613258, 9401.747215002444, -27904.23070242771, -41188.05124617234, -24928.006521225754, 31878.1249973923, -187500.02235174447, -38067.54655451138, -15923.695674383125, -26960.71886548029, -43596.3399525094, -47940.96028100971, -9998.292922770133, -23253.212660934052, -30886.400447654778, -38527.545455401596, 0.052000000000000005, 1.008, 0.08600000000000001, 192.0, 0.0, 0.0, 0.0, 0.0, 0.0, 0.0, 0.0, 0.0, 0.0, 1.69533368225655E9, 0.0, 2023-09-21 17:01:22.256
48.0, 18197.11395467686, 9398.997950434441, -27898.195731424777, -41185.19022288206, -24925.369015380027, 31888.764427753023, -187500.02235174447, -38066.764243455444, -15911.648084121714, -26946.749025195724, -43583.241830258594, -47925.314059890996, -9979.36099521649, -23241.254477650462, -30863.355799121357, -38508.68058308132, 0.052000000000000005, 1.008, 0.08600000000000001, 192.0, 0.0, 0.0, 0.0, 0.0, 0.0, 0.0, 0.0, 0.0, 0.0, 1.69533368225658E9, 0.0, 2023-09-21 17:01:22.256
50.0, 18184.999309182087, 9389.945493930041, -27907.069373973536, -41198.73538002198, -24930.711082304846, 31896.207558656643, -187500.02235174447, -38079.05770290586, -15917.638351635738, -26956.360275311505, -43588.96387683915, -47936.33346990746, -9988.97224533227, -23244.875460252224, -30873.503491104068, -38518.11301924146, 0.052000000000000005, 1.008, 0.08600000000000001, 192.0, 0.0, 0.0, 0.0, 0.0, 0.0, 0.0, 0.0, 0.0, 0.0, 1.695333682256637E9, 0.0, 2023-09-21 17:01:22.256
52.0, 18173.175236365227, 9383.441136293548, -27914.95953976626, -41205.15033068065, -24933.013311983745, 31881.231889871586, -187500.02235174447, -38086.5902407873, -15927.786043618447, -26966.731484738768, -43599.24567928859, -47948.090487490954, -9992.012082578192, -23255.917222013144, -30877.21388068365, -38527.00901353467, 0.054, 1.016, 0.084, 192.0, 0.5, 88.0, 15.5, 96.0, 1.0, 80.0, 0.0, 0.0, 0.0, 1.695333682256648E9, 0.0, 2023-09-21 17:01:22.256
54.0, 18168.950756663176, 9379.6636914806, -27924.14610673739, -41210.20182492755, -24936.1872596964, 31884.674058517703, -187500.02235174447, -38087.48431056551, -15928.925982585668, -26968.743141739746, -43602.41962700125, -47951.71147009271, -9993.107318056504, -23257.45949238056, -30886.132226721315, -38530.42883043633, 0.054, 1.016, 0.084, 192.0, 0.0, 0.0, 0.0, 0.0, 0.0, 0.0, 0.0, 0.0, 0.0, 1.695333682256658E9, 0.0, 2023-09-21 17:01:22.256
56.0, 18167.006154895564, 9385.631607250167, -27918.33465317901, -41207.8772435042, -24935.18143119591, 31870.01131415502, -187500.02235174447, -38081.91872619614, -15933.44103496564, -26971.805330730123, -43605.682981691716, -47953.544313138045, -9998.136460558946, -23265.237899451007, -30887.048648243985, -38538.54251367361, 0.054, 1.016, 0.084, 192.0, 0.0, 0.0, 0.0, 0.0, 0.0, 0.0, 0.0, 0.0, 0.0, 1.695333682256667E9, 0.0, 2023-09-21 17:01:22.256
58.0, 18170.64948924178, 9387.330339828772, -27924.01199627066, -41209.06188596033, -24937.729530063814, 31888.719724264116, -187500.02235174447, -38080.82349071783, -15932.032875064955, -26967.491444050247, -43603.42545550173, -47948.96220552471, -9997.175335547368, -23256.341905157795, -30888.657973844765, -38536.15087701689, 0.054, 1.016, 0.084, 192.0, 0.0, 0.0, 0.0, 0.0, 0.0, 0.0, 0.0, 0.0, 0.0, 1.695333682256677E9, 0.0, 2023-09-21 17:01:22.256
60.0, 18176.080963144417, 9388.738499729456, -27918.20054271228, -41204.70329579154, -24935.31554166264, 31871.598288011348, -187500.02235174447, -38078.856537205764, -15925.640276150738, -26967.066760905596, -43595.80351064247, -47947.71050783521, -9991.900323855916, -23258.286506925408, -30888.233290700115, -38535.01093804967, 0.054, 1.016, 0.084, 192.0, 0.0, 0.0, 0.0, 0.0, 0.0, 0.0, 0.0, 0.0, 0.0, 1.695333682256686E9, 0.0, 2023-09-21 17:01:22.256
62.0, 18181.221864369138, 9393.678235254078, -27916.725327578228, -41202.66928704611, -24937.394253896982, 31887.468026574617, -187500.02235174447, -38074.475595292526, -15918.510069669495, -26962.685818992355, -43590.39438848429, -47946.078830489976, -9988.838134865538, -23251.111596955252, -30890.759037823565, -38532.68635662632, 0.062, 1.012, 0.08, 192.0, 0.5, 120.0, 15.5, 80.0, 1.0, 64.0, 0.0, 0.0, 0.0, 1.695333682316023E9, 0.0, 2023-09-21 17:01:22.316
64.0, 18176.97503292263, 9385.117517127695, -27911.00328099767, -41209.5759760828, -24943.809204555655, 31867.619677498304, -187500.02235174447, -38085.40559833117, -15918.465366180584, -26964.92099343789, -43591.86960361834, -47948.55987412451, -9994.783698890651, -23256.87834702472, -30893.888282047308, -38540.10713578548, 0.062, 1.012, 0.08, 192.0, 0.0, 0.0, 0.0, 0.0, 0.0, 0.0, 0.0, 0.0, 0.0, 1.695333682316045E9, 0.0, 2023-09-21 17:01:22.316
66.0, 18173.152884620773, 9388.135002629162, -27915.16070546636, -41209.44186561607, -24945.932620278913, 31883.31060210593, -187500.02235174447, -38080.599973273274, -15918.107738269298, -26964.25044110423, -43589.3885599838, -47946.3694031679, -9999.589323948541, -23253.45853012306, -30896.145808237292, -38540.48711544122, 0.062, 1.012, 0.08, 192.0, 0.0, 0.0, 0.0, 0.0, 0.0, 0.0, 0.0, 0.0, 0.0, 1.695333682316056E9, 0.0, 2023-09-21 17:01:22.316
68.0, 18159.74183794759, 9382.055328137318, -27918.960502023758, -41216.7285343085, -24951.16292848145, 31868.871375187802, -187500.02235174447, -38088.646601277185, -15931.25056400902, -26974.599298787034, -43601.81612990095, -47955.086583505465, -10007.323027530078, -23263.60622210577, -30897.062229759962, -38546.52208644415, 0.062, 1.012, 0.08, 192.0, 0.0, 0.0, 0.0, 0.0, 0.0, 0.0, 0.0, 0.0, 0.0, 1.695333682316066E9, 0.0, 2023-09-21 17:01:22.316
70.0, 18168.481370029614, 9388.559685773813, -27908.499885618676, -41202.64693530166, -24940.41173939845, 31890.79843649846, -187500.02235174447, -38075.213202859544, -15920.141747014732, -26970.128949895974, -43592.07076931844, -47948.76103982461, -9997.622370436475, -23257.92887901412, -30890.64727910129, -38535.83795259451, 0.062, 1.012, 0.08, 192.0, 0.0, 0.0, 0.0, 0.0, 0.0, 0.0, 0.0, 0.0, 0.0, 1.695333682316075E9, 0.0, 2023-09-21 17:01:22.316
72.0, 18155.092675100885, 9375.394508289637, -27904.565978594543, -41205.127978936194, -24938.064806230643, 31878.773197981503, -187500.02235174447, -38081.047008162386, -15921.639313893238, -26971.67122026339, -43592.02606582952, -47948.448115402236, -9992.347358745023, -23260.812254048855, -30882.82416854193, -38527.52310365714, 0.066, 1.01, 0.082, 192.0, 1.0, 8.0, 15.5, 72.0, 1.0, 72.0, 0.0, 0.0, 0.0, 1.695333682316116E9, 0.0, 2023-09-21 17:01:22.316
74.0, 18141.793387149977, 9365.04565060683, -27921.218028213745, -41209.10658944924, -24943.60803885556, 31894.88880573378, -187500.02235174447, -38085.852633220275, -15933.083407054355, -26985.01521170321, -43605.50416773608, -47960.7192231082, -9999.388158248445, -23262.779207560925, -30881.751284808077, -38534.027461293634, 0.066, 1.01, 0.082, 192.0, 0.0, 0.0, 0.0, 0.0, 0.0, 0.0, 0.0, 0.0, 0.0, 1.695333682316126E9, 0.0, 2023-09-21 17:01:22.316
76.0, 18131.690398656177, 9357.960147614498, -27920.1898479688, -41212.83933077328, -24944.680922589414, 31871.397122311253, -187500.02235174447, -38095.66504903616, -15941.040628080444, -26990.312575139116, -43615.2942318075, -47969.570513912506, -10001.355111760511, -23272.301050698883, -30888.881491289318, -38540.80003986359, 0.066, 1.01, 0.082, 192.0, 0.0, 0.0, 0.0, 0.0, 0.0, 0.0, 0.0, 0.0, 0.0, 1.695333682375769E9, 0.0, 2023-09-21 17:01:22.375
78.0, 18142.530994717003, 9370.074793109274, -27922.38031892542, -41204.077446946794, -24936.16490795194, 31868.178471109688, -187500.02235174447, -38089.67478152213, -15946.047418838432, -26990.893720494954, -43620.077505120935, -47969.39169995686, -10005.490184484743, -23271.89871929869, -30889.82026455644, -38541.06826079706, 0.066, 1.01, 0.082, 192.0, 0.0, 0.0, 0.0, 0.0, 0.0, 0.0, 0.0, 0.0, 0.0, 1.695333682375796E9, 0.0, 2023-09-21 17:01:22.375
80.0, 18152.96925937763, 9381.362424059203, -27914.356042665964, -41198.087179432776, -24924.117317690532, 31847.8160319109, -187500.02235174447, -38084.600935530776, -15930.378845975263, -26973.235842375263, -43604.006600857574, -47951.040917759055, -9985.664187152886, -23266.75781807397, -30889.462636645156, -38526.494923412196, 0.066, 1.01, 0.082, 192.0, 0.0, 0.0, 0.0, 0.0, 0.0, 0.0, 0.0, 0.0, 0.0, 1.695333682375806E9, 0.0, 2023-09-21 17:01:22.375
82.0, 18151.762265177043, 9380.066022880796, -27924.81665907105, -41201.79756901236, -24926.620713069526, 31866.59149725336, -187500.02235174447, -38084.176252386125, -15931.407026220206, -26974.15226389793, -43604.699504935685, -47950.884455547864, -9979.696271383318, -23261.192233704598, -30890.669630845743, -38530.406478691875, 0.066, 1.014, 0.082, 192.0, 1.0, 8.0, 15.5, 88.0, 1.0, 72.0, 0.0, 0.0, 0.0, 1.695333682375816E9, 0.0, 2023-09-21 17:01:22.375
84.0, 18143.73798891759, 9368.644281464134, -27929.018787028646, -41216.54972035286, -24935.650817829468, 31857.516689004504, -187500.02235174447, -38099.95658397157, -15938.358418745807, -26985.216377403307, -43611.67324920574, -47960.38394694137, -9995.566009946586, -23272.27869895443, -30902.203130984683, -38540.397708463395, 0.066, 1.014, 0.082, 192.0, 0.0, 0.0, 0.0, 0.0, 0.0, 0.0, 0.0, 0.0, 0.0, 1.695333682375826E9, 0.0, 2023-09-21 17:01:22.375
86.0, 18149.750608176066, 9378.076717624273, -27929.28700796211, -41218.36021165374, -24942.848079544077, 31863.194032096155, -187500.02235174447, -38097.5425955704, -15944.39338974874, -26989.709078038824, -43615.338935296415, -47964.742537110156, -9996.795355891629, -23276.637289123213, -30909.668613632755, -38552.82527838055, 0.066, 1.014, 0.082, 192.0, 0.0, 0.0, 0.0, 0.0, 0.0, 0.0, 0.0, 0.0, 0.0, 1.695333682375836E9, 0.0, 2023-09-21 17:01:22.375
88.0, 18155.807930923456, 9387.933836929064, -27921.307435191567, -41215.29802266336, -24950.55943138116, 31854.40979652522, -187500.02235174447, -38099.39779036019, -15937.129072800766, -26978.019115688698, -43606.35353402538, -47954.25956896062, -9996.437727980343, -23274.08919025531, -30910.227407244136, -38552.75822314718, 0.066, 1.014, 0.082, 192.0, 0.0, 0.0, 0.0, 0.0, 0.0, 0.0, 0.0, 0.0, 0.0, 1.695333682375846E9, 0.0, 2023-09-21 17:01:22.375
90.0, 18182.11593414735, 9411.425520351591, -27899.89446400338, -41193.192147397065, -24935.449652129373, 31852.77811917998, -187500.02235174447, -38071.793385957884, -15922.91336332719, -26960.852975947022, -43586.460481460155, -47933.74066755065, -9989.463983710288, -23264.65675409517, -30895.542311137, -38538.96719681826, 0.066, 1.014, 0.082, 192.0, 0.0, 0.0, 0.0, 0.0, 0.0, 0.0, 0.0, 0.0, 0.0, 1.695333682375855E9, 0.0, 2023-09-21 17:01:22.375
92.0, 18178.07026840094, 9407.066930182807, -27898.46395235824, -41195.136749164674, -24941.730492321312, 31867.485567031574, -187500.02235174447, -38071.01107490195, -15915.716101612581, -26953.18632759885, -43578.10092903387, -47925.82815001347, -9989.061652310093, -23252.162128944652, -30886.78042731052, -38526.76314434566, 0.068, 1.012, 0.08600000000000001, 192.0, 1.0, 16.0, 15.5, 80.0, 1.0, 88.0, 0.0, 0.0, 0.0, 1.695333682436775E9, 0.0, 2023-09-21 17:01:22.436
94.0, 18163.675744971722, 9390.683101497067, -27906.175304195323, -41201.52934807889, -24954.806262827668, 31887.959764952633, -187500.02235174447, -38078.43185406111, -15929.328313985863, -26961.6129352585, -43589.030932072514, -47935.32764140698, -10002.383292005456, -23261.37104766024, -30883.58412785341, -38530.22766473623, 0.068, 1.012, 0.08600000000000001, 192.0, 0.0, 0.0, 0.0, 0.0, 0.0, 0.0, 0.0, 0.0, 0.0, 1.6953336824368E9, 0.0, 2023-09-21 17:01:22.436
96.0, 18169.576605507926, 9398.66267426761, -27902.733135549206, -41195.80730149833, -24944.12212897803, 31885.03168642899, -187500.02235174447, -38066.406615544154, -15931.451729709117, -26961.63528700296, -43593.63539143031, -47938.43453388626, -10007.703007185819, -23267.540129129902, -30888.032125000016, -38527.43369667932, 0.068, 1.012, 0.08600000000000001, 192.0, 0.0, 0.0, 0.0, 0.0, 0.0, 0.0, 0.0, 0.0, 0.0, 1.69533368243681E9, 0.0, 2023-09-21 17:01:22.436
98.0, 18168.324907818427, 9395.846354466243, -27900.497961103676, -41194.86852823121, -24939.741187064792, 31879.35434333734, -187500.02235174447, -38065.26667657694, -15926.064959295389, -26956.561441011603, -43591.422568729235, -47934.72414430668, -9999.07523382607, -23262.533338371915, -30873.59289808189, -38518.090667497, 0.068, 1.012, 0.08600000000000001, 192.0, 0.0, 0.0, 0.0, 0.0, 0.0, 0.0, 0.0, 0.0, 0.0, 1.69533368243682E9, 0.0, 2023-09-21 17:01:22.436
100.0, 18161.14999784827, 9392.493592797946, -27905.504751861663, -41196.00846719843, -24939.294152175684, 31884.83052072889, -187500.02235174447, -38071.2345923465, -15931.921116342679, -26959.914202679898, -43599.44684498869, -47942.368440910395, -9999.768137904184, -23264.120312228242, -30880.521938863032, -38521.95751928777, 0.068, 1.012, 0.08600000000000001, 192.0, 0.0, 0.0, 0.0, 0.0, 0.0, 0.0, 0.0, 0.0, 0.0, 1.695333682436833E9, 0.0, 2023-09-21 17:01:22.436
102.0, 18158.44543676918, 9388.760851473911, -27900.632071570406, -41195.24850788695, -24934.622637584525, 31879.399046826253, -187500.02235174447, -38069.848784190275, -15927.383712218252, -26963.87046144849, -43597.90457462127, -47944.58126361147, -9991.229771522258, -23269.238861708505, -30874.799892282474, -38521.108152998466, 0.064, 1.012, 0.08, 192.0, 1.0, 0.0, 15.5, 80.0, 1.0, 64.0, 0.0, 0.0, 0.0, 1.695333682436843E9, 0.0, 2023-09-21 17:01:22.436
104.0, 18163.69809671618, 9391.465412553003, -27895.491170345686, -41186.57603103829, -24923.066785701132, 31891.871320232312, -187500.02235174447, -38057.30945555084, -15918.48771792504, -26960.540051524647, -43589.54502219499, -47941.20615019872, -9981.864390595483, -23259.11352147025, -30869.4354736132, -38510.267556937644, 0.064, 1.012, 0.08, 192.0, 0.0, 0.0, 0.0, 0.0, 0.0, 0.0, 0.0, 0.0, 0.0, 1.695333682436853E9, 0.0, 2023-09-21 17:01:22.436
106.0, 18143.849747639866, 9370.052441364818, -27906.979966995714, -41200.63527830068, -24933.75091955077, 31881.83538697188, -187500.02235174447, -38081.024656417925, -15926.355531973308, -26973.794635986644, -43599.78212115552, -47953.49960964914, -9985.418317963877, -23263.717980828045, -30868.362589879347, -38516.54839712958, 0.064, 1.012, 0.08, 192.0, 0.0, 0.0, 0.0, 0.0, 0.0, 0.0, 0.0, 0.0, 0.0, 1.695333682496064E9, 0.0, 2023-09-21 17:01:22.496
108.0, 18143.82739589541, 9370.43242102056, -27911.60677809796, -41196.50020557645, -24930.331102649106, 31890.84313998737, -187500.02235174447, -38085.62911577572, -15930.021218063977, -26978.980240700275, -43605.95120262518, -47958.4169934293, -9980.120954527969, -23266.154320973674, -30878.91261326225, -38521.55518788758, 0.064, 1.012, 0.08, 192.0, 0.0, 0.0, 0.0, 0.0, 0.0, 0.0, 0.0, 0.0, 0.0, 1.695333682496094E9, 0.0, 2023-09-21 17:01:22.496
110.0, 18135.7807678915, 9364.263339550895, -27909.840990285993, -41200.322353878306, -24925.45842235785, 31869.63133449928, -187500.02235174447, -38095.73210426952, -15935.698561155627, -26986.222205903796, -43613.662554462266, -47964.83194408798, -9987.02764356466, -23268.32244018584, -30881.885395274807, -38523.902121055384, 0.064, 1.012, 0.08, 192.0, 0.0, 0.0, 0.0, 0.0, 0.0, 0.0, 0.0, 0.0, 0.0, 1.695333682496104E9, 0.0, 2023-09-21 17:01:22.496
112.0, 18141.771035405523, 9370.655938465112, -27910.66800483084, -41197.39427535466, -24919.334044377094, 31888.809131241935, -187500.02235174447, -38090.70296176708, -15934.156290788209, -26986.602185559535, -43612.29909805049, -47964.09433652095, -9977.68461438234, -23264.008553505966, -30886.512206377058, -38524.99735653369, 0.062, 1.01, 0.082, 192.0, 0.5, 120.0, 15.5, 72.0, 1.0, 72.0, 0.0, 0.0, 0.0, 1.695333682496114E9, 0.0, 2023-09-21 17:01:22.496
114.0, 18135.73606440259, 9367.303176796815, -27905.929435006314, -41206.02204871441, -24919.915189732932, 31870.9724391666, -187500.02235174447, -38094.90508972467, -15933.57514543237, -26980.991897701253, -43608.05226660398, -47958.55110389604, -9970.286186967634, -23264.209719206065, -30887.696848833188, -38526.76314434566, 0.062, 1.01, 0.082, 192.0, 0.0, 0.0, 0.0, 0.0, 0.0, 0.0, 0.0, 0.0, 0.0, 1.695333682496155E9, 0.0, 2023-09-21 17:01:22.496
116.0, 18127.64473290977, 9359.413011004091, -27925.777784082627, -41222.8305605448, -24938.42243414193, 31885.970459696113, -187500.02235174447, -38103.957546229074, -15944.77336940448, -26992.905377495932, -43616.098894607894, -47969.86108659043, -9980.098602783513, -23274.80444607788, -30898.380982682826, -38547.170287033354, 0.062, 1.01, 0.082, 192.0, 0.0, 0.0, 0.0, 0.0, 0.0, 0.0, 0.0, 0.0, 0.0, 1.695333682496165E9, 0.0, 2023-09-21 17:01:22.496
118.0, 18132.8303376234, 9365.336223284748, -27917.82056305654, -41220.41657214363, -24935.539059107192, 31853.851002913834, -187500.02235174447, -38097.43083684812, -15956.06100035441, -27004.34947065705, -43625.15135111229, -47980.187592528775, -9993.576704690064, -23292.954062575587, -30906.06998277545, -38559.17317380586, 0.062, 1.01, 0.082, 192.0, 0.0, 0.0, 0.0, 0.0, 0.0, 0.0, 0.0, 0.0, 0.0, 1.695333682496174E9, 0.0, 2023-09-21 17:01:22.496
120.0, 18159.7865414365, 9393.700586998533, -27897.882807002403, -41192.9239264636, -24925.525477591214, 31878.661439259227, -187500.02235174447, -38067.97123765603, -15928.523651185473, -26979.33786861156, -43596.71993216514, -47951.800877070535, -9975.538846914631, -23271.85401580978, -30886.266337188048, -38534.452144438284, 0.062, 1.01, 0.082, 192.0, 0.0, 0.0, 0.0, 0.0, 0.0, 0.0, 0.0, 0.0, 0.0, 1.695333682496184E9, 0.0, 2023-09-21 17:01:22.496
122.0, 18151.91872738823, 9387.28563633986, -27894.15006567837, -41196.41079859863, -24938.914172519944, 31882.64004977227, -187500.02235174447, -38074.050912147875, -15927.786043618447, -26972.587641786056, -43591.17669954022, -47943.910711277815, -9982.087908040037, -23267.495425640995, -30880.454883629667, -38525.98083328972, 0.064, 1.006, 0.082, 192.0, 1.0, 0.0, 15.5, 56.0, 1.0, 72.0, 0.0, 0.0, 0.0, 1.695333682555888E9, 0.0, 2023-09-21 17:01:22.555
124.0, 18158.31132630245, 9397.075700411284, -27894.55239707856, -41190.75580725144, -24937.349550408075, 31899.582672069395, -187500.02235174447, -38063.79146144289, -15927.20489826261, -26970.844205718542, -43590.237926273105, -47943.08369673297, -9987.36291973149, -23267.026039007433, -30875.96218299415, -38520.48230415372, 0.064, 1.006, 0.082, 192.0, 0.0, 0.0, 0.0, 0.0, 0.0, 0.0, 0.0, 0.0, 0.0, 1.695333682555913E9, 0.0, 2023-09-21 17:01:22.555
126.0, 18161.507625759557, 9397.030996922374, -27888.740943520184, -41191.38165609618, -24932.767442794735, 31879.175529381697, -187500.02235174447, -38065.17726959912, -15926.310828484397, -26970.553633040625, -43590.34968499538, -47943.93306302227, -9991.766213389184, -23273.68685885511, -30873.749360293077, -38519.5435308866, 0.064, 1.006, 0.082, 192.0, 0.0, 0.0, 0.0, 0.0, 0.0, 0.0, 0.0, 0.0, 0.0, 1.695333682555923E9, 0.0, 2023-09-21 17:01:22.555
128.0, 18166.849692684376, 9400.316703357305, -27885.99167895218, -41184.87729845969, -24925.056090957652, 31902.443695359674, -187500.02235174447, -38050.7827461699, -15920.901706326213, -26965.032752160165, -43585.700522148676, -47937.272243174586, -9984.345434230023, -23269.060047752864, -30860.785348508998, -38507.98767900321, 0.064, 1.006, 0.082, 192.0, 0.0, 0.0, 0.0, 0.0, 0.0, 0.0, 0.0, 0.0, 0.0, 1.695333682555933E9, 0.0, 2023-09-21 17:01:22.555
130.0, 18155.807930923456, 9390.437232308059, -27889.65736504285, -41192.78981599687, -24932.633332328005, 31893.50299757755, -187500.02235174447, -38065.44549053258, -15927.160194773698, -26974.129912153472, -43593.88126061932, -47946.86114154591, -9983.920751085372, -23273.105713499273, -30865.367456122334, -38509.82052204854, 0.064, 1.006, 0.082, 192.0, 0.0, 0.0, 0.0, 0.0, 0.0, 0.0, 0.0, 0.0, 0.0, 1.695333682555942E9, 0.0, 2023-09-21 17:01:22.555
132.0, 18151.136416332294, 9389.85608695222, -27894.66415580084, -41194.19797589755, -24941.216402198843, 31911.831428030902, -187500.02235174447, -38065.087862621294, -15927.29430524043, -26972.878214463977, -43593.21070828566, -47945.363574667404, -9991.341530244534, -23266.199024462585, -30859.041912441484, -38509.84287379299, 0.062, 1.006, 0.082, 192.0, 0.5, 120.0, 15.5, 56.0, 1.0, 72.0, 0.0, 0.0, 0.0, 1.695333682555952E9, 0.0, 2023-09-21 17:01:22.555
134.0, 18151.15876807675, 9389.587866018757, -27889.880882487403, -41188.11830140571, -24935.583762596103, 31895.291137133976, -187500.02235174447, -38065.19962134357, -15932.994000076533, -26976.163920898907, -43601.48085373412, -47952.73965033766, -9992.459117467299, -23268.255384952474, -30867.91555499024, -38512.368620916444, 0.062, 1.006, 0.082, 192.0, 0.0, 0.0, 0.0, 0.0, 0.0, 0.0, 0.0, 0.0, 0.0, 1.695333682555961E9, 0.0, 2023-09-21 17:01:22.555
136.0, 18153.885680900297, 9394.974636432486, -27882.750676006162, -41176.22717335548, -24933.817974784135, 31909.618605329826, -187500.02235174447, -38058.382339284704, -15926.266124995485, -26968.05023766163, -43593.70244666367, -47944.469504889195, -9984.188972018836, -23257.683009825112, -30863.176985165715, -38501.97505974473, 0.062, 1.006, 0.082, 192.0, 0.0, 0.0, 0.0, 0.0, 0.0, 0.0, 0.0, 0.0, 0.0, 1.695333682616181E9, 0.0, 2023-09-21 17:01:22.616
138.0, 18151.941079132688, 9394.438194565559, -27877.542719548073, -41171.801527953336, -24927.93946599239, 31907.40578262875, -187500.02235174447, -38065.11021436575, -15924.522688927973, -26965.30097309363, -43589.27680126153, -47940.334432164964, -9981.372652217467, -23253.212660934052, -30872.318848647938, -38495.64951606387, 0.062, 1.006, 0.082, 192.0, 0.0, 0.0, 0.0, 0.0, 0.0, 0.0, 0.0, 0.0, 0.0, 1.695333682616208E9, 0.0, 2023-09-21 17:01:22.616
140.0, 18146.464901741136, 9387.620912506689, -27878.883824215394, -41171.6674174866, -24923.066785701132, 31915.765335055035, -187500.02235174447, -38070.608743501754, -15918.040683035933, -26965.077455649076, -43583.0853680474, -47936.89226351884, -9969.459172422788, -23247.512966097947, -30867.5355753345, -38489.301620638566, 0.062, 1.006, 0.082, 192.0, 0.0, 0.0, 0.0, 0.0, 0.0, 0.0, 0.0, 0.0, 0.0, 1.695333682616219E9, 0.0, 2023-09-21 17:01:22.616
142.0, 18134.149090546263, 9377.987310646453, -27895.088838945492, -41189.615868284214, -24927.537134592192, 31909.46214311864, -187500.02235174447, -38080.264697106446, -15933.731607643558, -26982.33300236857, -43601.32439152293, -47955.846542816944, -9980.07625103906, -23255.514890612947, -30884.947584265185, -38506.37835340242, 0.07, 1.01, 0.082, 192.0, 1.0, 24.0, 15.5, 72.0, 1.0, 72.0, 0.0, 0.0, 0.0, 1.695333682616229E9, 0.0, 2023-09-21 17:01:22.616
144.0, 18140.988724349587, 9382.301197326327, -27897.52517909112, -41196.00846719843, -24921.45746010035, 31895.335840622884, -187500.02235174447, -38078.5883162723, -15937.173776289676, -26985.886929736964, -43609.661592204764, -47963.0214527871, -9977.662262637885, -23265.170844217642, -30885.796950554486, -38520.86228380946, 0.07, 1.01, 0.082, 192.0, 0.0, 0.0, 0.0, 0.0, 0.0, 0.0, 0.0, 0.0, 0.0, 1.695333682616239E9, 0.0, 2023-09-21 17:01:22.616
146.0, 18137.25598302555, 9379.775450202877, -27909.036327485603, -41208.16781618212, -24929.995826482278, 31899.582672069395, -187500.02235174447, -38084.10919715276, -15938.157253045709, -26985.126970425485, -43612.947298639694, -47963.468487676204, -9982.154963273402, -23262.823911049833, -30893.418895413746, -38530.607644391974, 0.07, 1.01, 0.082, 192.0, 0.0, 0.0, 0.0, 0.0, 0.0, 0.0, 0.0, 0.0, 0.0, 1.695333682616248E9, 0.0, 2023-09-21 17:01:22.616
148.0, 18137.50185221456, 9374.388679789148, -27914.825429299526, -41219.053115731855, -24937.84128878609, 31882.84121547237, -187500.02235174447, -38091.172348400636, -15935.072712310877, -26981.8189122461, -43612.41085677277, -47962.6191213869, -9981.842038851028, -23275.65381236718, -30898.045706515994, -38539.61539740746, 0.07, 1.01, 0.082, 192.0, 0.0, 0.0, 0.0, 0.0, 0.0, 0.0, 0.0, 0.0, 0.0, 1.695333682616257E9, 0.0, 2023-09-21 17:01:22.616
150.0, 18134.350256246362, 9371.058269865307, -27925.688377104805, -41226.71976408002, -24944.16683246694, 31886.953936452144, -187500.02235174447, -38090.43474083361, -15944.326334515374, -26994.268833907707, -43622.29032782201, -47976.43249946029, -9992.414413978388, -23285.198007249597, -30914.362479968368, -38555.06045282608, 0.07, 1.01, 0.082, 192.0, 0.0, 0.0, 0.0, 0.0, 0.0, 0.0, 0.0, 0.0, 0.0, 1.695333682616266E9, 0.0, 2023-09-21 17:01:22.616
152.0, 18139.781730149, 9376.556799001313, -27914.110173476958, -41219.947185510064, -24941.8869545325, 31865.988000153066, -187500.02235174447, -38080.2870488509, -15942.135863558755, -26994.04531646315, -43618.691696964706, -47975.04669130405, -9992.526172700665, -23293.42344920915, -30905.4441339307, -38551.43947022432, 0.066, 1.014, 0.09, 192.0, 1.0, 8.0, 15.5, 88.0, 1.0, 104.0, 0.0, 0.0, 0.0, 1.695333682676354E9, 0.0, 2023-09-21 17:01:22.676
154.0, 18145.146148818272, 9382.636473493156, -27910.489190875196, -41209.79949352735, -24941.730492321312, 31881.12013114931, -187500.02235174447, -38067.4347957891, -15933.910421599201, -26986.333964626072, -43612.85789166187, -47967.55885691153, -9995.633065179953, -23282.962832804067, -30896.503436148578, -38541.35883347497, 0.066, 1.014, 0.09, 192.0, 0.0, 0.0, 0.0, 0.0, 0.0, 0.0, 0.0, 0.0, 0.0, 1.695333682676377E9, 0.0, 2023-09-21 17:01:22.676
156.0, 18149.124759331316, 9383.016453148897, -27898.933338991803, -41200.9258509786, -24939.40591089796, 31873.29702058995, -187500.02235174447, -38064.79728994337, -15934.20099427712, -26983.562348313615, -43608.45459800418, -47961.30036846404, -9993.487297712243, -23278.872463568743, -30884.45584588717, -38531.38995544791, 0.066, 1.014, 0.09, 192.0, 0.0, 0.0, 0.0, 0.0, 0.0, 0.0, 0.0, 0.0, 0.0, 1.695333682676387E9, 0.0, 2023-09-21 17:01:22.676
158.0, 18144.67676218471, 9383.642301993645, -27906.868208273438, -41201.641106801166, -24945.284419689706, 31902.51075059304, -187500.02235174447, -38066.71953996653, -15937.330238500863, -26978.644964533447, -43609.527481738034, -47958.32758645149, -9996.728300658262, -23269.104751241775, -30882.511244119556, -38526.40551643437, 0.066, 1.014, 0.09, 192.0, 0.0, 0.0, 0.0, 0.0, 0.0, 0.0, 0.0, 0.0, 0.0, 1.695333682676426E9, 0.0, 2023-09-21 17:01:22.676
160.0, 18146.420198252225, 9384.424613049581, -27903.403687882867, -41203.63041205769, -24947.45253890187, 31892.944203966166, -187500.02235174447, -38068.84295568978, -15937.263183267498, -26980.880138978977, -43610.48860674961, -47960.607464385925, -9997.108280314003, -23274.290355955407, -30882.243023186093, -38529.512408913666, 0.066, 1.014, 0.09, 192.0, 0.0, 0.0, 0.0, 0.0, 0.0, 0.0, 0.0, 0.0, 0.0, 1.695333682676435E9, 0.0, 2023-09-21 17:01:22.676
162.0, 18147.783654664, 9387.263284595405, -27909.75158330817, -41202.46812134601, -24956.639105873004, 31913.12782920931, -187500.02235174447, -38070.51933652393, -15934.178642532665, -26978.644964533447, -43608.141673581806, -47958.32758645149, -9996.728300658262, -23267.674239596636, -30888.389752911302, -38527.38899319041, 0.068, 1.004, 0.094, 192.0, 1.0, 16.0, 15.5, 48.0, 1.0, 120.0, 0.0, 0.0, 0.0, 1.695333682676446E9, 0.0, 2023-09-21 17:01:22.676
164.0, 18146.241384296583, 9384.536371771857, -27901.928472748816, -41199.2271184, -24952.951068037877, 31895.894634234268, -187500.02235174447, -38075.81669995984, -15927.00373256251, -26978.980240700275, -43602.48668223461, -47956.003005028135, -9992.749690145218, -23271.921071043143, -30893.955337280673, -38527.21017923477, 0.068, 1.004, 0.094, 192.0, 0.0, 0.0, 0.0, 0.0, 0.0, 0.0, 0.0, 0.0, 0.0, 1.695333682676456E9, 0.0, 2023-09-21 17:01:22.676
166.0, 18151.605802965856, 9386.86095319521, -27907.494057118187, -41195.270859631404, -24949.46419590285, 31914.156009454255, -187500.02235174447, -38074.386188314704, -15928.76952037448, -26984.05408669163, -43602.62079270134, -47959.80280158554, -9992.392062233934, -23264.88027153972, -30898.470389660644, -38527.21017923477, 0.068, 1.004, 0.094, 192.0, 0.0, 0.0, 0.0, 0.0, 0.0, 0.0, 0.0, 0.0, 0.0, 1.695333682736659E9, 0.0, 2023-09-21 17:01:22.736
168.0, 18150.465863998637, 9387.844429951243, -27899.492132603187, -41187.76067349442, -24940.210573698354, 31896.945166223668, -187500.02235174447, -38068.15005161167, -15921.728720871059, -26978.19792964434, -43594.01537108605, -47952.33731893746, -9982.512591184688, -23260.61108834876, -30892.994212269095, -38518.22477796373, 0.068, 1.004, 0.094, 192.0, 0.0, 0.0, 0.0, 0.0, 0.0, 0.0, 0.0, 0.0, 0.0, 1.695333682736684E9, 0.0, 2023-09-21 17:01:22.736
170.0, 18139.178233048708, 9380.356595558715, -27914.557208366063, -41194.66736253111, -24952.392274426496, 31929.243436961588, -187500.02235174447, -38074.65440924816, -15933.48573845455, -26986.132798925973, -43603.648972946285, -47959.132249251874, -9983.272550496167, -23255.89487026869, -30890.937851779207, -38518.56005413056, 0.068, 1.004, 0.094, 192.0, 0.0, 0.0, 0.0, 0.0, 0.0, 0.0, 0.0, 0.0, 0.0, 1.695333682736695E9, 0.0, 2023-09-21 17:01:22.736
172.0, 18141.83809063889, 9383.32937757127, -27897.681641302308, -41188.96766769501, -24941.015236498744, 31907.294023906474, -187500.02235174447, -38073.91680168114, -15941.599421691826, -26989.95494722783, -43608.409894515265, -47964.675481876795, -10004.283190284157, -23260.678143582125, -30895.20703497017, -38521.77870533213, 0.066, 1.004, 0.094, 192.0, 1.0, 8.0, 15.5, 48.0, 1.0, 120.0, 0.0, 0.0, 0.0, 1.695333682736704E9, 0.0, 2023-09-21 17:01:22.736
174.0, 18139.178233048708, 9380.155429858618, -27903.42603962732, -41190.934621207074, -24942.333989421608, 31920.74977406857, -187500.02235174447, -38070.049949890374, -15940.995924591534, -26989.32909838308, -43604.09600783539, -47961.07685101949, -9994.940161101838, -23252.74327430049, -30885.104046476372, -38517.554225630076, 0.066, 1.004, 0.094, 192.0, 0.0, 0.0, 0.0, 0.0, 0.0, 0.0, 0.0, 0.0, 0.0, 1.695333682736714E9, 0.0, 2023-09-21 17:01:22.736
176.0, 18141.145186560774, 9377.830848435266, -27898.88863550289, -41192.566298552316, -24938.22126844183, 31900.968480225623, -187500.02235174447, -38071.949848169075, -15945.86860488279, -26993.66533680741, -43606.77821717003, -47963.49083942066, -9997.73412915875, -23262.734504072014, -30887.11570347735, -38522.225740221234, 0.066, 1.004, 0.094, 192.0, 0.0, 0.0, 0.0, 0.0, 0.0, 0.0, 0.0, 0.0, 0.0, 1.695333682736724E9, 0.0, 2023-09-21 17:01:22.736
178.0, 18156.00909662355, 9392.873572453687, -27891.199635410267, -41179.758748979424, -24928.78883228169, 31909.84212277438, -187500.02235174447, -38056.12481309471, -15928.43424420765, -26978.376743599983, -43590.662609417755, -47948.090487490954, -9982.82551560706, -23252.9891434895, -30871.648296314277, -38509.12761797042, 0.066, 1.004, 0.094, 192.0, 0.0, 0.0, 0.0, 0.0, 0.0, 0.0, 0.0, 0.0, 0.0, 1.695333682736734E9, 0.0, 2023-09-21 17:01:22.736
180.0, 18151.40463726576, 9387.531505528868, -27893.479513344708, -41189.52646130639, -24935.874335274024, 31902.06371570393, -187500.02235174447, -38065.62430448822, -15931.362322731296, -26979.315516867104, -43595.892917620295, -47951.800877070535, -9990.939198844339, -23250.373989388227, -30874.73283704911, -38517.2413012077, 0.066, 1.004, 0.094, 192.0, 0.0, 0.0, 0.0, 0.0, 0.0, 0.0, 0.0, 0.0, 0.0, 1.695333682736799E9, 0.0, 2023-09-21 17:01:22.736
182.0, 18150.26469829854, 9387.106822384218, -27895.66998430133, -41193.14744390815, -24939.987056253798, 31913.731326309604, -187500.02235174447, -38062.517412008936, -15934.335104743852, -26981.885967479466, -43599.893879877796, -47956.628853872884, -9992.481469211754, -23253.771454545433, -30871.558889336455, -38521.13050474293, 0.062, 1.006, 0.09, 192.0, 0.5, 120.0, 15.5, 56.0, 1.0, 104.0, 0.0, 0.0, 0.0, 1.695333682796109E9, 0.0, 2023-09-21 17:01:22.796
184.0, 18145.235555796095, 9381.407127548115, -27892.585443566495, -41198.690676533064, -24940.12116672053, 31901.50492209255, -187500.02235174447, -38069.15588011216, -15934.692732655138, -26979.9190139674, -43600.3409147669, -47954.55014163854, -9989.173411032369, -23258.71119007006, -30877.30328766147, -38518.56005413056, 0.062, 1.006, 0.09, 192.0, 0.0, 0.0, 0.0, 0.0, 0.0, 0.0, 0.0, 0.0, 0.0, 1.69533368279613E9, 0.0, 2023-09-21 17:01:22.796
186.0, 18161.373515292828, 9398.036825422863, -27879.3308591045, -41184.787891481865, -24921.189239166884, 31896.40872435674, -187500.02235174447, -38050.98391187, -15924.947372072624, -26971.62651677448, -43593.61303968585, -47948.4704671467, -9976.54467541512, -23261.03577149341, -30866.73091253411, -38511.20633020477, 0.062, 1.006, 0.09, 192.0, 0.0, 0.0, 0.0, 0.0, 0.0, 0.0, 0.0, 0.0, 0.0, 1.69533368279614E9, 0.0, 2023-09-21 17:01:22.796
188.0, 18156.478483257113, 9390.750156730433, -27884.382353351397, -41190.19701364005, -24933.70621606186, 31905.729401794604, -187500.02235174447, -38064.79728994337, -15916.744281857525, -26965.010400415707, -43586.795757626984, -47941.25085368763, -9963.088925253025, -23253.50323361197, -30863.512261332544, -38505.50663536866, 0.062, 1.006, 0.09, 192.0, 0.0, 0.0, 0.0, 0.0, 0.0, 0.0, 0.0, 0.0, 0.0, 1.69533368279615E9, 0.0, 2023-09-21 17:01:22.796
190.0, 18145.392018007282, 9379.753098458421, -27894.440638356285, -41201.66345854562, -24948.972457524833, 31915.161837954744, -187500.02235174447, -38069.982894657005, -15932.412854720695, -26976.879176721475, -43601.30203977848, -47953.45490616023, -9988.145230787424, -23263.65092559468, -30869.68134280221, -38520.66111810936, 0.062, 1.006, 0.09, 192.0, 0.0, 0.0, 0.0, 0.0, 0.0, 0.0, 0.0, 0.0, 0.0, 1.69533368279616E9, 0.0, 2023-09-21 17:01:22.796
192.0, 18154.556233233958, 9390.57134277479, -27890.66319354334, -41193.3709613527, -24940.478794631817, 31903.583634326893, -187500.02235174447, -38059.18700208509, -15925.77438661747, -26969.748970240234, -43600.542080467, -47950.906807292326, -9984.390137718932, -23258.152396458674, -30878.510281862058, -38514.17911221732, 0.066, 1.01, 0.08600000000000001, 192.0, 1.0, 8.0, 15.5, 72.0, 1.0, 88.0, 0.0, 0.0, 0.0, 1.695333682796169E9, 0.0, 2023-09-21 17:01:22.796
194.0, 18151.35993377685, 9386.302159583827, -27893.971251722727, -41197.46133058803, -24940.724663820823, 31899.537968580484, -187500.02235174447, -38060.81867943033, -15926.19906976212, -26964.831586460066, -43603.73837992411, -47947.55404562403, -9981.21619000628, -23253.41382663415, -30873.905822504265, -38514.15676047287, 0.066, 1.01, 0.08600000000000001, 192.0, 0.0, 0.0, 0.0, 0.0, 0.0, 0.0, 0.0, 0.0, 0.0, 1.695333682796179E9, 0.0, 2023-09-21 17:01:22.796
196.0, 18149.907070387253, 9383.374081060181, -27896.452295357263, -41200.74703702296, -24942.043416743687, 31918.402840900762, -187500.02235174447, -38060.97514164152, -15919.180622003154, -26955.510909022203, -43597.97162985464, -47940.468542631694, -9977.282282982145, -23244.27196315193, -30875.895127760785, -38510.4910743822, 0.066, 1.01, 0.08600000000000001, 192.0, 0.0, 0.0, 0.0, 0.0, 0.0, 0.0, 0.0, 0.0, 0.0, 1.695333682855906E9, 0.0, 2023-09-21 17:01:22.855
198.0, 18147.895413386275, 9377.830848435266, -27893.412458111343, -41207.25139465945, -24946.9384487794, 31918.93928276769, -187500.02235174447, -38067.233630089, -15930.021218063977, -26966.418560316393, -43608.38754277081, -47951.57735962598, -9985.731242386251, -23254.620820834738, -30879.829034784918, -38523.00805127717, 0.066, 1.01, 0.08600000000000001, 192.0, 0.0, 0.0, 0.0, 0.0, 0.0, 0.0, 0.0, 0.0, 0.0, 1.695333682855953E9, 0.0, 2023-09-21 17:01:22.855
200.0, 18150.421160509726, 9378.054365879818, -27897.99456572468, -41207.25139465945, -24943.831556300112, 31930.40572767326, -187500.02235174447, -38068.172403356126, -15926.064959295389, -26964.38455157096, -43602.30786827897, -47948.649281102334, -9981.864390595483, -23249.949306243576, -30879.44905512918, -38517.17424597433, 0.066, 1.01, 0.08600000000000001, 192.0, 0.0, 0.0, 0.0, 0.0, 0.0, 0.0, 0.0, 0.0, 0.0, 1.695333682855963E9, 0.0, 2023-09-21 17:01:22.855
202.0, 18162.289936815494, 9386.413918306103, -27894.23947265619, -41203.13867367967, -24933.63916082849, 31900.141465680776, -187500.02235174447, -38064.66317947664, -15925.617924406282, -26961.6129352585, -43601.16792931175, -47944.603615355925, -9980.478582439255, -23256.386608646706, -30876.67743881672, -38521.93516754331, 0.062, 1.014, 0.09, 192.0, 0.5, 120.0, 15.5, 88.0, 1.0, 104.0, 0.0, 0.0, 0.0, 1.695333682856004E9, 0.0, 2023-09-21 17:01:22.856
204.0, 18158.177215835716, 9375.461563523002, -27902.844894271482, -41211.364115639226, -24937.304846919164, 31915.161837954744, -187500.02235174447, -38071.54751676888, -15912.497450411018, -26949.699455463822, -43591.04258907349, -47933.62890882837, -9969.369765444966, -23244.964867230043, -30869.279011402014, -38514.42498140633, 0.062, 1.014, 0.09, 192.0, 0.0, 0.0, 0.0, 0.0, 0.0, 0.0, 0.0, 0.0, 0.0, 1.695333682856015E9, 0.0, 2023-09-21 17:01:22.856
206.0, 18154.712695445145, 9372.108801854707, -27904.700089061273, -41220.19305469907, -24941.372864410027, 31894.620584800316, -187500.02235174447, -38082.94690644108, -15931.71995064258, -26965.837414960555, -43607.44876950369, -47948.00108051313, -9985.395966219421, -23263.27094593894, -30884.053514486972, -38533.87099908245, 0.062, 1.014, 0.09, 192.0, 0.0, 0.0, 0.0, 0.0, 0.0, 0.0, 0.0, 0.0, 0.0, 1.695333682856025E9, 0.0, 2023-09-21 17:01:22.856
208.0, 18159.11598910284, 9380.066022880796, -27902.308452404555, -41214.359249396235, -24938.087157975096, 31908.41161112924, -187500.02235174447, -38070.117005123735, -15924.612095905793, -26960.405941057914, -43599.82682464443, -47941.58612985446, -9987.049995309115, -23256.721884813534, -30881.01367724105, -38527.05371702358, 0.062, 1.014, 0.09, 192.0, 0.0, 0.0, 0.0, 0.0, 0.0, 0.0, 0.0, 0.0, 0.0, 1.695333682856036E9, 0.0, 2023-09-21 17:01:22.856
210.0, 18165.55329150597, 9387.173877617584, -27890.350269120965, -41207.00552547044, -24935.11437596254, 31892.430113843697, -187500.02235174447, -38070.45228129057, -15919.985284803544, -26951.5099467647, -43592.94248735219, -47931.885472760856, -9978.936312071839, -23256.498367368982, -30873.68230505971, -38519.52117914214, 0.062, 1.014, 0.09, 192.0, 0.0, 0.0, 0.0, 0.0, 0.0, 0.0, 0.0, 0.0, 0.0, 1.695333682856045E9, 0.0, 2023-09-21 17:01:22.856
212.0, 18164.92744266122, 9387.442098551048, -27896.80992326855, -41208.01135397093, -24934.577934095614, 31906.958747739645, -187500.02235174447, -38068.82060394533, -15920.544078414927, -26954.37097005498, -43595.06590307545, -47933.070115216986, -9978.22105624927, -23255.447835379582, -30875.49279636059, -38521.93516754331, 0.066, 1.012, 0.088, 192.0, 1.0, 8.0, 15.5, 80.0, 1.0, 96.0, 0.0, 0.0, 0.0, 1.695333682916242E9, 0.0, 2023-09-21 17:01:22.916
214.0, 18168.302556073973, 9386.391566561648, -27883.84591148447, -41205.06092370283, -24932.119242205532, 31878.30381134794, -187500.02235174447, -38070.5863917573, -15916.140784757232, -26949.878269419467, -43586.86281286035, -47929.784408782056, -9974.667128880874, -23251.804501033366, -30869.994267224585, -38517.330708185524, 0.066, 1.012, 0.088, 192.0, 0.0, 0.0, 0.0, 0.0, 0.0, 0.0, 0.0, 0.0, 0.0, 1.695333682916265E9, 0.0, 2023-09-21 17:01:22.916
216.0, 18163.20635833816, 9378.702566469023, -27895.446466856774, -41210.023010971905, -24945.284419689706, 31909.193922185175, -187500.02235174447, -38075.079092392814, -15920.566430159382, -26959.221298601784, -43593.30011526348, -47938.27807167507, -9977.572855660064, -23248.474091109525, -30874.464616115645, -38524.17034198884, 0.066, 1.012, 0.088, 192.0, 0.0, 0.0, 0.0, 0.0, 0.0, 0.0, 0.0, 0.0, 0.0, 1.695333682916274E9, 0.0, 2023-09-21 17:01:22.916
218.0, 18162.625212982322, 9380.557761258813, -27890.32791737651, -41206.759656281436, -24943.205707455363, 31891.513692321027, -187500.02235174447, -38080.264697106446, -15922.287514482441, -26958.215470101295, -43593.322467007936, -47938.188664697256, -9980.657396394898, -23256.051332479878, -30881.326601663426, -38523.85741756647, 0.066, 1.012, 0.088, 192.0, 0.0, 0.0, 0.0, 0.0, 0.0, 0.0, 0.0, 0.0, 0.0, 1.695333682916283E9, 0.0, 2023-09-21 17:01:22.916
220.0, 18168.906053174265, 9388.626741007178, -27896.966385479736, -41201.88697599018, -24938.869469031033, 31910.110343707842, -187500.02235174447, -38069.424101045624, -15919.20297374761, -26956.695551478333, -43593.14365305229, -47935.506455362614, -9975.807067848094, -23250.061064965852, -30877.593860339388, -38523.85741756647, 0.066, 1.012, 0.088, 192.0, 0.0, 0.0, 0.0, 0.0, 0.0, 0.0, 0.0, 0.0, 0.0, 1.695333682916292E9, 0.0, 2023-09-21 17:01:22.916
222.0, 18166.894396173288, 9391.040729408352, -27886.550472563562, -41196.187281154074, -24929.258218915253, 31899.739134280582, -187500.02235174447, -38070.94401966858, -15912.698616111114, -26946.927839151365, -43585.5887634264, -47928.08567620345, -9971.11320151248, -23242.774396273424, -30873.52584284852, -38510.46872263774, 0.068, 1.008, 0.084, 192.0, 1.0, 16.0, 15.5, 64.0, 1.0, 80.0, 0.0, 0.0, 0.0, 1.695333682916354E9, 0.0, 2023-09-21 17:01:22.916
224.0, 18160.032410625507, 9386.637435750656, -27894.75356277866, -41201.75286552344, -24935.762576551748, 31922.426154902718, -187500.02235174447, -38077.00134241597, -15918.219496991576, -26952.5604787541, -43591.80254838497, -47931.0137547271, -9975.628253892453, -23237.588791559792, -30869.346066635382, -38513.843836050495, 0.068, 1.008, 0.084, 192.0, 0.0, 0.0, 0.0, 0.0, 0.0, 0.0, 0.0, 0.0, 0.0, 1.695333682916364E9, 0.0, 2023-09-21 17:01:22.916
226.0, 18164.30159381647, 9395.108746899217, -27887.645708041873, -41196.43315034308, -24921.36805312253, 31898.621547057814, -187500.02235174447, -38071.659275491154, -15916.72193011307, -26947.821908929578, -43588.829766372415, -47929.225615170675, -9966.821666577061, -23239.086358438297, -30874.174043437728, -38511.49690288269, 0.068, 1.008, 0.084, 192.0, 0.0, 0.0, 0.0, 0.0, 0.0, 0.0, 0.0, 0.0, 0.0, 1.695333682976446E9, 0.0, 2023-09-21 17:01:22.976
228.0, 18157.64077396879, 9390.124307885684, -27905.504751861663, -41203.85392950224, -24933.281532917208, 31928.572884627927, -187500.02235174447, -38074.67676099262, -15916.654874879703, -26947.978371140765, -43590.12616755083, -47928.08567620345, -9965.301747954101, -23229.31864611133, -30870.977743980617, -38510.15579821537, 0.068, 1.008, 0.084, 192.0, 0.0, 0.0, 0.0, 0.0, 0.0, 0.0, 0.0, 0.0, 0.0, 1.695333682976476E9, 0.0, 2023-09-21 17:01:22.976
230.0, 18162.558157748957, 9394.281732354371, -27902.554321593565, -41203.026914957394, -24929.302922404164, 31917.620529844826, -187500.02235174447, -38077.49308079399, -15923.852136594312, -26953.365141554492, -43598.95510661067, -47934.612385584405, -9977.058765537593, -23237.186460159595, -30883.137092964305, -38519.09649599749, 0.068, 1.008, 0.084, 192.0, 0.0, 0.0, 0.0, 0.0, 0.0, 0.0, 0.0, 0.0, 0.0, 1.695333682976486E9, 0.0, 2023-09-21 17:01:22.976
232.0, 18159.428913525215, 9389.498459040935, -27905.147123950377, -41207.653726059645, -24932.87920151701, 31932.8867713078, -187500.02235174447, -38078.029522660916, -15920.275857481463, -26951.599353742524, -43593.166004796745, -47930.1643884378, -9972.588416646531, -23234.28073338041, -30876.699790561175, -38517.0401355076, 0.064, 1.008, 0.084, 192.0, 1.0, 0.0, 15.5, 64.0, 1.0, 80.0, 0.0, 0.0, 0.0, 1.695333682976496E9, 0.0, 2023-09-21 17:01:22.976
234.0, 18170.113047374853, 9402.23895338046, -27893.881844744905, -41202.53517657938, -24923.312654890142, 31917.374660655816, -187500.02235174447, -38073.827394703316, -15914.330293456353, -26941.496365248724, -43588.87446986133, -47923.414161612294, -9967.648681121907, -23232.02320719042, -30876.92330800573, -38512.502731383174, 0.064, 1.008, 0.084, 192.0, 0.0, 0.0, 0.0, 0.0, 0.0, 0.0, 0.0, 0.0, 0.0, 1.695333682976506E9, 0.0, 2023-09-21 17:01:22.976
236.0, 18170.090695630395, 9398.640322523157, -27904.65538557236, -41214.49335986297, -24930.39815788247, 31907.539893095483, -187500.02235174447, -38084.71269425305, -15917.504241169006, -26942.993932127232, -43592.3389902519, -47925.33641163545, -9973.996576547215, -23238.37110261573, -30872.005924225563, -38522.56101638806, 0.064, 1.008, 0.084, 192.0, 0.0, 0.0, 0.0, 0.0, 0.0, 0.0, 0.0, 0.0, 0.0, 1.695333682976515E9, 0.0, 2023-09-21 17:01:22.976
238.0, 18180.797181224487, 9403.110671414217, -27910.779763553117, -41218.65078433166, -24936.276666674217, 31883.15413989474, -187500.02235174447, -38091.664086778655, -15911.558677143894, -26950.414711286394, -43598.15044381028, -47934.34416465094, -9973.191913746825, -23254.330248156817, -30895.72112509264, -38538.83308635153, 0.064, 1.008, 0.084, 192.0, 0.0, 0.0, 0.0, 0.0, 0.0, 0.0, 0.0, 0.0, 0.0, 1.695333682976524E9, 0.0, 2023-09-21 17:01:22.976
240.0, 18176.952681178176, 9411.939610474064, -27883.309469617543, -41190.55464155134, -24916.40596585345, 31889.41262834223, -187500.02235174447, -38065.95958065505, -15913.615037633783, -26933.561495967093, -43584.20295527017, -47914.76403650809, -9972.499009668709, -23241.58975381729, -30873.615249826344, -38519.27530995313, 0.064, 1.008, 0.084, 192.0, 0.0, 0.0, 0.0, 0.0, 0.0, 0.0, 0.0, 0.0, 0.0, 1.695333682976534E9, 0.0, 2023-09-21 17:01:22.976
242.0, 18188.195608639195, 9425.596526336256, -27879.263803871134, -41181.18926062456, -24911.846209984567, 31900.856721503347, -187500.02235174447, -38057.24240031748, -15915.492584168029, -26916.395356225417, -43576.111623777346, -47899.721312489666, -9965.413506676377, -23221.87551520771, -30861.38884560929, -38500.14221669939, 0.066, 1.01, 0.084, 192.0, 1.0, 8.0, 15.5, 72.0, 1.0, 80.0, 0.0, 0.0, 0.0, 1.69533368303666E9, 0.0, 2023-09-21 17:01:23.036
244.0, 18177.6902887452, 9412.967790719007, -27889.299737131565, -41192.141615407665, -24925.0337392132, 31909.64095707428, -187500.02235174447, -38067.27833357792, -15913.905610311702, -26913.51198119068, -43578.61501915634, -47900.81654796798, -9964.675899109352, -23224.535372797895, -30856.73968276259, -38502.24328067819, 0.066, 1.01, 0.084, 192.0, 0.0, 0.0, 0.0, 0.0, 0.0, 0.0, 0.0, 0.0, 0.0, 1.695333683036714E9, 0.0, 2023-09-21 17:01:23.036
246.0, 18174.829265454922, 9406.016398193407, -27891.490208088188, -41195.51672882041, -24925.860753758046, 31913.88778852079, -187500.02235174447, -38068.01594114494, -15917.750110358014, -26926.386585996937, -43584.15825178126, -47911.72419926217, -9967.693384610819, -23231.486765323494, -30866.52974683401, -38505.305469668565, 0.066, 1.01, 0.084, 192.0, 0.0, 0.0, 0.0, 0.0, 0.0, 0.0, 0.0, 0.0, 0.0, 1.695333683036725E9, 0.0, 2023-09-21 17:01:23.036
