%OpenBCI Raw EXG Data
%Number of channels = 16
%Sample Rate = 125 Hz
%Board = OpenBCI_GUI$BoardCytonSerialDaisy
Sample Index, EXG Channel 0, EXG Channel 1, EXG Channel 2, EXG Channel 3, EXG Channel 4, EXG Channel 5, EXG Channel 6, EXG Channel 7, EXG Channel 8, EXG Channel 9, EXG Channel 10, EXG Channel 11, EXG Channel 12, EXG Channel 13, EXG Channel 14, EXG Channel 15, Accel Channel 0, Accel Channel 1, Accel Channel 2, Other, Other, Other, Other, Other, Other, Other, Analog Channel 0, Analog Channel 1, Analog Channel 2, Timestamp, Other, Timestamp (Formatted)
12.0, 13240.748732179252, 10399.193811320521, -26093.381773636553, -41876.90965854045, -28100.724887934317, 30108.068002232078, -179439.71508022727, -39184.21735575407, -18316.025235179095, -29955.047959691045, -43017.07214320566, -52832.28192714238, -13986.894665586313, -25666.93284117375, -31903.851855260356, -41946.91532217447, 0.0, 0.0, 0.0, 192.0, 0.0, 0.0, 0.0, 0.0, 0.0, 0.0, 0.0, 0.0, 0.0, 1.695333522675686E9, 0.0, 2023-09-21 16:58:42.675
14.0, 13267.615529014533, 10424.54068953284, -26071.097084414614, -41861.26343742174, -28085.36923949352, 30102.636528329436, -179431.93667315683, -39169.80048058039, -18295.886313424864, -29935.423128059287, -42999.79424474171, -52809.30433384232, -13973.10363925739, -25649.252611309603, -31883.131788150287, -41934.04071736822, 0.0, 0.0, 0.0, 192.0, 0.0, 0.0, 0.0, 0.0, 0.0, 0.0, 0.0, 0.0, 0.0, 1.695333522675705E9, 0.0, 2023-09-21 16:58:42.675
16.0, 13268.084915648094, 10423.601916265718, -26079.4566368409, -41875.836774806594, -28088.900815117457, 30095.57337708156, -179487.03372323918, -39175.455471927584, -18287.638519720855, -29929.365805311896, -42993.915735949966, -52806.73388322996, -13970.130857244832, -25647.3527130309, -31887.803302741446, -41935.895912158005, 0.0, 0.0, 0.0, 192.0, 0.0, 0.0, 0.0, 0.0, 0.0, 0.0, 0.0, 0.0, 0.0, 1.695333522675734E9, 0.0, 2023-09-21 16:58:42.675
18.0, 13255.791456197674, 10411.48727077094, -26095.68400331545, -41898.76966461774, -28105.2846438032, 30116.271092447176, -179417.8997776389, -39193.11335004728, -18290.767763944597, -29935.601942014928, -42997.87199471855, -52812.41122632161, -13972.38838343482, -25648.35854153139, -31888.74207600857, -41949.195200108916, 0.011, 0.506, 0.056, 192.0, 0.0, 88.0, 15.5, 80.0, 1.5, 64.0, 0.0, 0.0, 0.0, 1.695333522675744E9, 0.0, 2023-09-21 16:58:42.675
20.0, 13258.428962043401, 10410.861421926193, -26103.037727241248, -41897.383856461514, -28099.47319024482, 30109.54321736613, -179468.1017956855, -39184.820852854355, -18296.109830869416, -29946.219020631197, -43004.19753839941, -52824.905851472126, -13986.000595808102, -25665.994067906628, -31908.769239040525, -41959.58876128063, 0.011, 0.506, 0.056, 192.0, 0.0, 0.0, 0.0, 0.0, 0.0, 0.0, 0.0, 0.0, 0.0, 1.695333522675755E9, 0.0, 2023-09-21 16:58:42.675
22.0, 13243.90032814745, 10392.778860661849, -26111.2631692008, -41912.136007802015, -28109.017385127234, 30120.45086866032, -179404.6451931769, -39192.55455643589, -18300.021386149096, -29952.030474189578, -43007.99733495681, -52827.565709062306, -13985.10652602989, -25667.156358618304, -31900.432038358696, -41960.03579616974, 0.011, 0.506, 0.056, 192.0, 0.0, 0.0, 0.0, 0.0, 0.0, 0.0, 0.0, 0.0, 0.0, 1.695333522675764E9, 0.0, 2023-09-21 16:58:42.675
24.0, 13249.175339838905, 10396.601008963706, -26120.896771061038, -41909.02911532272, -28106.51398974824, 30117.76865932568, -179436.31761507006, -39181.825719097345, -18312.314845599514, -29960.099453937943, -43018.32384089516, -52839.90387200164, -13995.29892150151, -25680.79092273604, -31914.714803065635, -41967.23305788435, 0.011, 0.506, 0.056, 192.0, 0.0, 0.0, 0.0, 0.0, 0.0, 0.0, 0.0, 0.0, 0.0, 1.695333522675774E9, 0.0, 2023-09-21 16:58:42.675
26.0, 13256.417305042423, 10399.909067143091, -26110.63732035605, -41900.669562896444, -28102.580082724107, 30112.87362728997, -179406.3439257555, -39174.24847772699, -18298.948502415242, -29955.338532368965, -43008.82434950166, -52832.21487190901, -13987.878142342346, -25675.27004185558, -31908.45631461815, -41961.08632815914, 0.011, 0.506, 0.056, 192.0, 0.0, 0.0, 0.0, 0.0, 0.0, 0.0, 0.0, 0.0, 0.0, 1.695333522675784E9, 0.0, 2023-09-21 16:58:42.675
28.0, 13257.221967842814, 10402.68068345555, -26109.296215688733, -41891.05831278066, -28097.84151289958, 30113.030089501157, -179466.47011834028, -39167.36414043476, -18287.347947042937, -29944.07325316349, -42997.69318076291, -52820.88253747017, -13978.803334093493, -25664.720018472675, -31905.394125627772, -41947.20589485239, 0.0175, 0.756, 0.082, 192.0, 0.0, 96.0, 15.5, 56.0, 1.5, 48.0, 0.0, 0.0, 0.0, 1.695333522675793E9, 0.0, 2023-09-21 16:58:42.675
0.0, 7706.255639345127, 4921.4965011473305, -13995.81301162398, -20681.778571817707, -13424.636533813064, 14666.141827838639, -93750.01117587223, -19443.961315627257, -9145.305650866705, -14972.830113509908, -21499.941825859765, -26411.871780380225, -6988.407014418485, -12827.800253367455, -15949.064904339899, -20973.91587184857, 0.016, 1.012, 0.10200000000000001, 192.0, 0.0, 64.0, 15.5, 80.0, 1.5, 24.0, 0.0, 0.0, 0.0, 1.695333522848356E9, 0.0, 2023-09-21 16:58:42.848
2.0, 15397.37914769401, 9827.078560242482, -27998.01862216218, -41372.34137920635, -26855.73272177371, 29322.69475730595, -187500.02235174447, -38900.32784942721, -16969.936128847137, -28521.652939516658, -43395.01779020045, -51034.91110025777, -12331.993857859834, -26956.67319973388, -31846.229058054574, -40905.435789279436, 0.016, 1.012, 0.10200000000000001, 192.0, 0.0, 0.0, 0.0, 0.0, 0.0, 0.0, 0.0, 0.0, 0.0, 1.695333522848378E9, 0.0, 2023-09-21 16:58:42.848
4.0, 15402.654159385464, 9833.739380090163, -27994.419991304876, -41365.032358769466, -26845.49562281318, 29334.943513267463, -187500.02235174447, -38888.79434928827, -16980.575559207864, -28534.907523978654, -43410.082865963326, -51047.91981553076, -12335.547785228227, -26966.843243461044, -31852.0181598685, -40909.79437944823, 0.016, 1.012, 0.10200000000000001, 192.0, 0.0, 0.0, 0.0, 0.0, 0.0, 0.0, 0.0, 0.0, 0.0, 1.69533352284839E9, 0.0, 2023-09-21 16:58:42.848
6.0, 15397.915589560938, 9827.615002109409, -27994.24117734923, -41373.52602166248, -26843.573372790026, 29316.19039966946, -187500.02235174447, -38896.88568078109, -16971.21017828109, -28524.044576173375, -43399.46578734706, -51040.40962939378, -12317.264058263787, -26962.886984692454, -31845.15617432072, -40898.84202466512, 0.016, 1.012, 0.10200000000000001, 192.0, 0.0, 0.0, 0.0, 0.0, 0.0, 0.0, 0.0, 0.0, 0.0, 1.695333522848399E9, 0.0, 2023-09-21 16:58:42.848
8.0, 15389.265464456734, 9817.579068848976, -28008.523942056174, -41388.926373592185, -26857.23028865222, 29316.480972347377, -187500.02235174447, -38911.39196293258, -16987.638710455743, -28541.993026970988, -43416.94485151111, -51055.54176039002, -12334.743122427837, -26976.409790087917, -31850.095909845342, -40918.444504552426, 0.016, 1.012, 0.106, 192.0, 0.0, 64.0, 15.5, 80.0, 1.5, 40.0, 0.0, 0.0, 0.0, 1.695333522848437E9, 0.0, 2023-09-21 16:58:42.848
10.0, 15397.960293049848, 9826.452711397733, -28003.29363385363, -41386.37827472428, -26853.251678139175, 29290.64235575704, -187500.02235174447, -38911.637832121596, -16986.051736599416, -28543.51294559395, -43417.63775558922, -51059.47566741415, -12340.196948074932, -26981.86361573501, -31864.155157107733, -40929.262748868794, 0.016, 1.012, 0.106, 192.0, 0.0, 0.0, 0.0, 0.0, 0.0, 0.0, 0.0, 0.0, 0.0, 1.695333522848447E9, 0.0, 2023-09-21 16:58:42.848
12.0, 15409.136165277501, 9838.097970258948, -27997.54923552862, -41380.611524654814, -26852.715236272245, 29279.690000973944, -187500.02235174447, -38908.24036696439, -16976.507541716997, -28538.483803091505, -43407.46771186205, -51052.72544058865, -12333.133796827055, -26977.840301733057, -31857.0696541154, -40927.251091867816, 0.016, 1.012, 0.106, 192.0, 0.0, 0.0, 0.0, 0.0, 0.0, 0.0, 0.0, 0.0, 0.0, 1.695333522848457E9, 0.0, 2023-09-21 16:58:42.848
14.0, 15418.546249693187, 9845.719915118209, -27987.647412734917, -41367.513402404, -26845.89795421338, 29289.59182376764, -187500.02235174447, -38898.58441335969, -16969.3549834913, -28527.531448308404, -43394.88367973372, -51044.23177769563, -12323.835471133647, -26968.251403361726, -31859.193069838653, -40919.11505688608, 0.016, 1.012, 0.106, 192.0, 0.0, 0.0, 0.0, 0.0, 0.0, 0.0, 0.0, 0.0, 0.0, 1.695333522848467E9, 0.0, 2023-09-21 16:58:42.848
16.0, 15418.546249693187, 9849.318545975513, -27979.779598686648, -41360.830230811865, -26849.206012392762, 29313.955225223926, -187500.02235174447, -38899.0314482488, -16963.69999214411, -28520.31183484934, -43384.914801706655, -51033.43588512372, -12318.068721064177, -26962.372894569984, -31844.17269756469, -40912.94597541642, 0.016, 1.012, 0.106, 192.0, 0.0, 0.0, 0.0, 0.0, 0.0, 0.0, 0.0, 0.0, 0.0, 1.695333522908061E9, 0.0, 2023-09-21 16:58:42.908
18.0, 15415.148784535979, 9843.350630205945, -27984.182892344346, -41364.115937246796, -26854.54807931758, 29313.597597312644, -187500.02235174447, -38904.619384362624, -16952.79234084992, -28517.562570281338, -43377.00228416947, -51026.75271353158, -12316.369988485574, -26962.507005036714, -31845.40204350973, -40907.82742593616, 0.012, 1.014, 0.098, 192.0, 0.0, 48.0, 15.5, 88.0, 1.5, 8.0, 0.0, 0.0, 0.0, 1.695333522908082E9, 0.0, 2023-09-21 16:58:42.908
20.0, 15412.488926945798, 9842.389505194367, -27986.88745342344, -41365.859373314306, -26858.07965494152, 29306.04270768675, -187500.02235174447, -38904.66408785154, -16962.22477701006, -28526.145640152175, -43388.02169418594, -51033.45823686817, -12320.125081554066, -26975.13574065396, -31848.799508666936, -40916.209330106896, 0.012, 1.014, 0.098, 192.0, 0.0, 0.0, 0.0, 0.0, 0.0, 0.0, 0.0, 0.0, 0.0, 1.695333522908092E9, 0.0, 2023-09-21 16:58:42.908
22.0, 15418.05451131517, 9846.256356985135, -27986.82039819007, -41364.3618064358, -26853.184622905806, 29309.4178210995, -187500.02235174447, -38900.35020117166, -16960.97307932056, -28521.541180794382, -43383.77486273943, -51028.026762965535, -12328.529337469261, -26968.34081033955, -31850.1182615898, -40910.64374573753, 0.012, 1.014, 0.098, 192.0, 0.0, 0.0, 0.0, 0.0, 0.0, 0.0, 0.0, 0.0, 0.0, 1.695333522908101E9, 0.0, 2023-09-21 16:58:42.908
24.0, 15420.177927038423, 9846.435170940778, -27985.367534800476, -41361.120803489786, -26842.96987568973, 29312.010623456317, -187500.02235174447, -38887.05091322076, -16960.861320598284, -28520.356538338252, -43385.16067089566, -51030.93248974472, -12320.616819932082, -26973.794635986644, -31842.362206263806, -40910.17435910396, 0.012, 1.014, 0.098, 192.0, 0.0, 0.0, 0.0, 0.0, 0.0, 0.0, 0.0, 0.0, 0.0, 1.695333522908111E9, 0.0, 2023-09-21 16:58:42.908
26.0, 15412.377168223522, 9840.75782784913, -27989.97199415827, -41363.691254102145, -26841.517012300137, 29342.543106382265, -187500.02235174447, -38884.16753818602, -16962.850625854808, -28522.97169243952, -43387.37349359674, -51036.60983283637, -12318.985142586846, -26967.469092305793, -31837.690691672648, -40906.91100441349, 0.012, 1.014, 0.098, 192.0, 0.0, 0.0, 0.0, 0.0, 0.0, 0.0, 0.0, 0.0, 0.0, 1.69533352290812E9, 0.0, 2023-09-21 16:58:42.908
28.0, 15396.015691282237, 9826.787987564563, -27989.30144182461, -41373.79424259594, -26842.58989603399, 29336.95517026844, -187500.02235174447, -38890.98482024489, -16966.046925311915, -28523.97752094001, -43393.38611285521, -51037.30273691449, -12314.313627995685, -26972.52058655269, -31830.15815379121, -40901.7030479554, 0.012, 1.016, 0.10200000000000001, 192.0, 0.0, 48.0, 15.5, 96.0, 1.5, 24.0, 0.0, 0.0, 0.0, 1.695333522908129E9, 0.0, 2023-09-21 16:58:42.908
30.0, 15399.86019132855, 9829.246679454647, -27999.315023340587, -41375.76119610801, -26843.707483256756, 29343.5265831383, -187500.02235174447, -38887.63205857659, -16981.223759797067, -28538.84143100279, -43413.569738098355, -51055.2511877121, -12330.943325870434, -26984.098790180542, -31842.585723708362, -40914.51059752829, 0.012, 1.016, 0.10200000000000001, 192.0, 0.0, 0.0, 0.0, 0.0, 0.0, 0.0, 0.0, 0.0, 0.0, 1.695333522968461E9, 0.0, 2023-09-21 16:58:42.968
32.0, 15402.520048918732, 9832.37592367839, -27994.93408142735, -41377.66109438671, -26840.13120414391, 29320.951321238437, -187500.02235174447, -38886.06743646472, -16969.802018380407, -28530.236009387496, -43403.31028739337, -51044.54470211801, -12314.492441951328, -26982.310650624117, -31838.651816684225, -40911.157835859995, 0.012, 1.016, 0.10200000000000001, 192.0, 0.0, 0.0, 0.0, 0.0, 0.0, 0.0, 0.0, 0.0, 0.0, 1.695333522968487E9, 0.0, 2023-09-21 16:58:42.968
34.0, 15408.309150732655, 9838.299135959047, -27999.87381695197, -41374.77771935198, -26839.59476227698, 29346.81228957323, -187500.02235174447, -38877.95375322745, -16974.205312038102, -28532.202962899562, -43409.76994154095, -51047.025745752544, -12331.233898548353, -26981.170711656894, -31845.245581298543, -40914.91292892849, 0.012, 1.016, 0.10200000000000001, 192.0, 0.0, 0.0, 0.0, 0.0, 0.0, 0.0, 0.0, 0.0, 0.0, 1.695333522968497E9, 0.0, 2023-09-21 16:58:42.968
36.0, 15404.107022775057, 9831.928888789284, -27995.470523294276, -41377.79520485344, -26844.60155303497, 29328.774431797796, -187500.02235174447, -38889.666067322025, -16966.762181134483, -28525.139811651687, -43401.29863039239, -51041.05782998298, -12317.420520474974, -26979.203758144828, -31842.563371963905, -40908.40857129199, 0.012, 1.016, 0.10200000000000001, 192.0, 0.0, 0.0, 0.0, 0.0, 0.0, 0.0, 0.0, 0.0, 0.0, 1.695333522968507E9, 0.0, 2023-09-21 16:58:42.968
38.0, 15394.227551725811, 9818.696656071741, -28011.49672406873, -41383.49489968955, -26847.328465858518, 29347.19226922897, -187500.02235174447, -38888.99551498837, -16975.255844027502, -28530.101898920766, -43411.625136330746, -51051.518446388065, -12322.33790425514, -26980.500159323237, -31852.97928488008, -40917.93041442995, 0.006, 1.01, 0.10400000000000001, 192.0, 0.0, 24.0, 15.5, 72.0, 1.5, 32.0, 0.0, 0.0, 0.0, 1.695333522968517E9, 0.0, 2023-09-21 16:58:42.968
40.0, 15381.911740530937, 9803.385711119856, -28006.691099010837, -41394.26844051701, -26853.206974650264, 29313.03880370126, -187500.02235174447, -38899.523186626815, -16982.944844120128, -28552.632457331714, -43415.69315382161, -51063.320167460464, -12337.179462573466, -26995.38642113047, -31853.314561046907, -40922.04313540973, 0.006, 1.01, 0.10400000000000001, 192.0, 0.0, 0.0, 0.0, 0.0, 0.0, 0.0, 0.0, 0.0, 0.0, 1.695333522968527E9, 0.0, 2023-09-21 16:58:42.968
42.0, 15389.354871434554, 9812.706388557719, -28009.954453701313, -41387.49586194705, -26845.763843746645, 29334.89880977855, -187500.02235174447, -38888.50377661035, -16985.425887754667, -28555.091149221797, -43416.94485151111, -51066.36000470639, -12331.837395648647, -26990.938423983866, -31852.97928488008, -40923.741867988334, 0.006, 1.01, 0.10400000000000001, 192.0, 0.0, 0.0, 0.0, 0.0, 0.0, 0.0, 0.0, 0.0, 0.0, 1.695333522968537E9, 0.0, 2023-09-21 16:58:42.968
44.0, 15397.133278505002, 9821.267106684101, -28004.34416584303, -41384.85835610132, -26843.327503601016, 29322.85121951714, -187500.02235174447, -38892.191814445476, -16972.461875970588, -28544.02703571642, -43406.081903705825, -51055.87703655685, -12323.969581600379, -26989.95494722783, -31848.73245343357, -40914.06356263919, 0.006, 1.01, 0.10400000000000001, 192.0, 0.0, 0.0, 0.0, 0.0, 0.0, 0.0, 0.0, 0.0, 0.0, 1.695333522968546E9, 0.0, 2023-09-21 16:58:42.968
46.0, 15398.586141894597, 9823.077597984982, -28016.794087504637, -41391.74269339356, -26856.872660740933, 29337.29044643527, -187500.02235174447, -38896.88568078109, -16974.6076434383, -28544.11644269424, -43407.37830488424, -51053.77597257805, -12326.33886651264, -26991.988955973266, -31849.604171467327, -40921.506693542804, 0.006, 1.01, 0.10400000000000001, 192.0, 0.0, 0.0, 0.0, 0.0, 0.0, 0.0, 0.0, 0.0, 0.0, 1.695333523028742E9, 0.0, 2023-09-21 16:58:43.028
48.0, 15397.446202927376, 9819.23309793867, -28013.01664269169, -41393.28496376097, -26861.231250909717, 29330.875495776596, -187500.02235174447, -38901.17721571651, -16977.69218417313, -28546.12809969522, -43410.574604341346, -51057.24049296862, -12330.58569795915, -26992.68186005138, -31863.283439073974, -40924.99356567783, 0.01, 1.014, 0.096, 192.0, 0.0, 40.0, 15.5, 88.0, 1.5, 0.0, 0.0, 0.0, 0.0, 1.695333523028766E9, 0.0, 2023-09-21 16:58:43.028
50.0, 15415.975799080827, 9834.633449868375, -27997.660994250895, -41378.264591487, -26846.94848620278, 29350.03094077479, -187500.02235174447, -38886.98385798739, -16966.873939856763, -28542.976503727023, -43401.410389114666, -51052.568978377465, -12331.032732848256, -26990.916072239408, -31856.35439829283, -40923.831274966156, 0.01, 1.014, 0.096, 192.0, 0.0, 0.0, 0.0, 0.0, 0.0, 0.0, 0.0, 0.0, 0.0, 1.695333523028777E9, 0.0, 2023-09-21 16:58:43.028
52.0, 15407.415080954443, 9826.296249186546, -27997.68334599535, -41380.83504209937, -26852.424663594327, 29351.439100675478, -187500.02235174447, -38899.72435232691, -16960.458989198087, -28532.113555921744, -43389.027522686425, -51040.879016027335, -12313.777186128758, -26977.594432544047, -31848.06190109991, -40912.74480971632, 0.01, 1.014, 0.096, 192.0, 0.0, 0.0, 0.0, 0.0, 0.0, 0.0, 0.0, 0.0, 0.0, 1.695333523028841E9, 0.0, 2023-09-21 16:58:43.028
54.0, 15404.978740808814, 9827.257374198125, -28006.266415866186, -41385.66301890171, -26860.247774153686, 29349.919182052516, -187500.02235174447, -38903.300631439764, -16969.511445702487, -28541.680102548613, -43399.39873211369, -51048.05392599749, -12325.44479673443, -26991.541921084157, -31852.509898246517, -40926.53583604525, 0.01, 1.014, 0.096, 192.0, 0.0, 0.0, 0.0, 0.0, 0.0, 0.0, 0.0, 0.0, 0.0, 1.695333523028851E9, 0.0, 2023-09-21 16:58:43.028
56.0, 15412.041892056692, 9831.861833555917, -28008.121610655977, -41386.73590263556, -26853.251678139175, 29323.924103250996, -187500.02235174447, -38901.02075350532, -16973.221835282067, -28540.69662579258, -43404.629040316235, -51049.43973415372, -12321.712055410393, -26992.994784473754, -31864.602191996837, -40928.994527935334, 0.01, 1.014, 0.096, 192.0, 0.0, 0.0, 0.0, 0.0, 0.0, 0.0, 0.0, 0.0, 0.0, 1.695333523028862E9, 0.0, 2023-09-21 16:58:43.028
58.0, 15412.086595545603, 9834.275821957091, -28003.49479955373, -41381.304428732925, -26852.51407057215, 29309.976614710882, -187500.02235174447, -38895.38811390258, -16961.084838042836, -28533.298198377874, -43399.19756641359, -51044.187074206726, -12309.1056715376, -26985.05991519212, -31850.408834267717, -40920.76908597578, 0.008, 1.014, 0.098, 192.0, 0.0, 32.0, 15.5, 88.0, 1.5, 8.0, 0.0, 0.0, 0.0, 1.695333523028871E9, 0.0, 2023-09-21 16:58:43.028
60.0, 15400.91072331795, 9825.223365452692, -28004.92531119887, -41379.560992665414, -26852.558774061057, 29299.806570983717, -187500.02235174447, -38898.85263429316, -16969.22087302457, -28536.02511120142, -43406.64069731721, -51049.551492875995, -12319.38747398704, -26984.076438436085, -31855.92971514818, -40919.8079609642, 0.008, 1.014, 0.098, 192.0, 0.0, 0.0, 0.0, 0.0, 0.0, 0.0, 0.0, 0.0, 0.0, 1.695333523088966E9, 0.0, 2023-09-21 16:58:43.088
62.0, 15396.99916803827, 9819.903650272328, -28003.695965253828, -41379.18101300967, -26855.59861130698, 29307.5179228208, -187500.02235174447, -38900.014925004834, -16975.322899260867, -28539.891962992187, -43411.78159854193, -51051.47374289915, -12328.082302580155, -26988.636194304967, -31851.816994168403, -40917.952766174414, 0.008, 1.014, 0.098, 192.0, 0.0, 0.0, 0.0, 0.0, 0.0, 0.0, 0.0, 0.0, 0.0, 1.695333523088994E9, 0.0, 2023-09-21 16:58:43.088
64.0, 15398.653197127964, 9817.109682215416, -28004.12064839848, -41377.83990834235, -26858.280820641616, 29314.804591513228, -187500.02235174447, -38903.166520973034, -16979.32386151837, -28540.763681025946, -43414.01677298746, -51053.06071675548, -12327.881136880058, -26989.083229194075, -31861.02591288399, -40918.936242930446, 0.008, 1.014, 0.098, 192.0, 0.0, 0.0, 0.0, 0.0, 0.0, 0.0, 0.0, 0.0, 0.0, 1.695333523089004E9, 0.0, 2023-09-21 16:58:43.089
66.0, 15401.00013029577, 9816.729702559674, -28003.1595233869, -41375.47062343009, -26859.063131697552, 29299.158370394514, -187500.02235174447, -38905.28993669629, -16974.473532971566, -28540.115480436743, -43409.1440926962, -51050.043231254014, -12320.236840276342, -26988.882063493977, -31854.566258736406, -40916.701068484916, 0.008, 1.014, 0.098, 192.0, 0.0, 0.0, 0.0, 0.0, 0.0, 0.0, 0.0, 0.0, 0.0, 1.695333523089014E9, 0.0, 2023-09-21 16:58:43.089
68.0, 15418.85917411556, 9829.224327710192, -27992.363630814987, -41369.32389370488, -26850.837689738, 29320.593693327155, -187500.02235174447, -38890.6271923336, -16966.203387523103, -28535.06398618984, -43402.86325250426, -51047.450428897195, -12321.332075754652, -26984.590528558558, -31859.908325661225, -40917.97511791887, 0.01, 1.018, 0.098, 192.0, 0.0, 40.0, 15.5, 104.0, 1.5, 8.0, 0.0, 0.0, 0.0, 1.695333523089028E9, 0.0, 2023-09-21 16:58:43.089
70.0, 15416.467537458842, 9824.798682308041, -27993.01183140419, -41373.50366991803, -26855.062169440054, 29305.908597220016, -187500.02235174447, -38891.65537257855, -16952.72528561655, -28525.296273862874, -43390.65920003167, -51036.58748109192, -12304.0541772907, -26972.989973186253, -31847.83838365536, -40907.268632324776, 0.01, 1.018, 0.098, 192.0, 0.0, 0.0, 0.0, 0.0, 0.0, 0.0, 0.0, 0.0, 0.0, 1.695333523089043E9, 0.0, 2023-09-21 16:58:43.089
72.0, 15420.781424138717, 9828.486720143166, -27999.1585611294, -41376.61056239731, -26862.706466043768, 29312.65882404552, -187500.02235174447, -38892.61649759013, -16965.622242167265, -28533.253494888962, -43403.39969437119, -51047.182207963735, -12316.0570640632, -26978.086170922063, -31862.903459418234, -40917.7068969854, 0.01, 1.018, 0.098, 192.0, 0.0, 0.0, 0.0, 0.0, 0.0, 0.0, 0.0, 0.0, 0.0, 1.695333523089056E9, 0.0, 2023-09-21 16:58:43.089
74.0, 15417.495717703787, 9822.809377051519, -28002.77954373116, -41381.70676013312, -26866.193338178797, 29303.5169605633, -187500.02235174447, -38899.14320697108, -16959.520215930967, -28528.35846285325, -43397.96822046855, -51041.81778929446, -12321.600296688117, -26978.644964533447, -31851.97345637959, -40916.72342022937, 0.01, 1.018, 0.098, 192.0, 0.0, 0.0, 0.0, 0.0, 0.0, 0.0, 0.0, 0.0, 0.0, 1.695333523089118E9, 0.0, 2023-09-21 16:58:43.089
76.0, 15426.168194552445, 9835.415760924312, -28005.417049576885, -41378.443405442646, -26867.333277146015, 29316.972710725393, -187500.02235174447, -38893.91289876853, -16970.89725385872, -28533.23114314451, -43408.63000257373, -51049.66325159827, -12319.745101898325, -26977.035638932663, -31860.15419485023, -40923.272481354776, 0.01, 1.018, 0.098, 192.0, 0.0, 0.0, 0.0, 0.0, 0.0, 0.0, 0.0, 0.0, 0.0, 1.695333523148418E9, 0.0, 2023-09-21 16:58:43.148
78.0, 15421.519031705742, 9824.75397881913, -28007.182837388857, -41392.972039338594, -26878.620908095945, 29287.35664932211, -187500.02235174447, -38913.783599589304, -16963.11884678827, -28529.230180887007, -43403.19852867109, -51047.875112041846, -12322.807290888702, -26978.153226155428, -31864.222212341097, -40925.68646975595, 0.008, 1.018, 0.094, 192.0, 0.0, 32.0, 15.5, 104.0, 1.0, 120.0, 0.0, 0.0, 0.0, 1.695333523148442E9, 0.0, 2023-09-21 16:58:43.148
80.0, 15424.000075340282, 9830.23015621068, -28001.349032086022, -41380.3656554658, -26867.55679459057, 29304.008698941318, -187500.02235174447, -38894.762265057834, -16963.767047377474, -28536.56155306835, -43403.82437751584, -51054.312414444976, -12324.0589885782, -26978.823778489088, -31863.05992162942, -40926.91581570099, 0.008, 1.018, 0.094, 192.0, 0.0, 0.0, 0.0, 0.0, 0.0, 0.0, 0.0, 0.0, 0.0, 1.695333523148453E9, 0.0, 2023-09-21 16:58:43.148
82.0, 15415.372301980533, 9822.5188043736, -28003.96418618729, -41391.67563816019, -26873.927041760333, 29287.826035955673, -187500.02235174447, -38910.855521065656, -16980.08382082985, -28541.523640337426, -43413.16740669816, -51058.76041159158, -12333.469072993885, -26986.848054748545, -31858.276648315987, -40929.44156282444, 0.008, 1.018, 0.094, 192.0, 0.0, 0.0, 0.0, 0.0, 0.0, 0.0, 0.0, 0.0, 0.0, 1.695333523148463E9, 0.0, 2023-09-21 16:58:43.148
84.0, 15417.42866247042, 9821.043589239549, -28010.73676475725, -41390.602754426334, -26870.283707414117, 29303.114629163105, -187500.02235174447, -38902.69713433947, -16975.568768449877, -28541.054253703864, -43410.999287485996, -51057.1510859908, -12333.178500315966, -26984.724639025288, -31865.093930374856, -40931.98966169234, 0.008, 1.018, 0.094, 192.0, 0.0, 0.0, 0.0, 0.0, 0.0, 0.0, 0.0, 0.0, 0.0, 1.695333523148472E9, 0.0, 2023-09-21 16:58:43.148
86.0, 15425.698807918885, 9829.4701968992, -28000.43261056335, -41374.42009144069, -26858.370227619438, 29288.65305050052, -187500.02235174447, -38894.002305746355, -16970.49492245852, -28541.27777114842, -43409.50172060749, -51053.08306849993, -12329.15518631401, -26987.004516959732, -31864.423378041196, -40924.27830985526, 0.008, 1.018, 0.094, 192.0, 0.0, 0.0, 0.0, 0.0, 0.0, 0.0, 0.0, 0.0, 0.0, 1.695333523148482E9, 0.0, 2023-09-21 16:58:43.148
88.0, 15416.065206058647, 9818.94252526075, -28010.40148859042, -41382.24320200005, -26864.204032922273, 29337.871591791107, -187500.02235174447, -38904.149997729066, -16969.89142535823, -28535.734538523502, -43406.64069731721, -51047.472780641656, -12323.410787988996, -26980.410752345415, -31857.74020644906, -40917.103399885105, 0.01, 1.012, 0.1, 192.0, 0.0, 40.0, 15.5, 80.0, 1.5, 16.0, 0.0, 0.0, 0.0, 1.695333523148492E9, 0.0, 2023-09-21 16:58:43.148
90.0, 15418.389787482, 9817.333199659968, -27999.851465207514, -41382.42201595569, -26851.0388554381, 29329.33322540918, -187500.02235174447, -38897.93621277049, -16969.533797446944, -28541.36717812624, -43403.66791530466, -51053.08306849993, -12321.600296688117, -26992.19012167336, -31858.231944827075, -40916.254033595804, 0.01, 1.012, 0.1, 192.0, 0.0, 0.0, 0.0, 0.0, 0.0, 0.0, 0.0, 0.0, 0.0, 1.695333523208171E9, 0.0, 2023-09-21 16:58:43.208
92.0, 15406.722176876328, 9808.571315833487, -28014.469506081285, -41395.60954518432, -26863.98051547772, 29352.780205342795, -187500.02235174447, -38908.01684951983, -16977.40161149521, -28554.778224799422, -43415.13436021023, -51066.02472853956, -12324.01428508929, -26994.939386241364, -31861.741168706558, -40928.14516164603, 0.01, 1.012, 0.1, 192.0, 0.0, 0.0, 0.0, 0.0, 0.0, 0.0, 0.0, 0.0, 0.0, 1.695333523208202E9, 0.0, 2023-09-21 16:58:43.208
94.0, 15408.53266817721, 9810.89589725684, -28010.53559905715, -41394.89428936175, -26861.36536137645, 29332.66363533302, -187500.02235174447, -38907.52511114182, -16980.642614441233, -28552.297181164886, -43413.368572398256, -51064.951844805706, -12330.652753192515, -26997.263967664716, -31869.139596121266, -40931.76614424779, 0.01, 1.012, 0.1, 192.0, 0.0, 0.0, 0.0, 0.0, 0.0, 0.0, 0.0, 0.0, 0.0, 1.695333523208244E9, 0.0, 2023-09-21 16:58:43.208
96.0, 15415.305246747166, 9821.37886540638, -28003.651261764917, -41384.21015551212, -26857.856137496965, 29362.704379880954, -187500.02235174447, -38890.98482024489, -16974.272367271467, -28545.435195617105, -43407.69122930661, -51054.89355980082, -12313.732482639847, -26985.68576403687, -31857.24846807104, -40922.37841157656, 0.01, 1.012, 0.1, 192.0, 0.0, 0.0, 0.0, 0.0, 0.0, 0.0, 0.0, 0.0, 0.0, 1.695333523208254E9, 0.0, 2023-09-21 16:58:43.208
98.0, 15414.254714757768, 9822.541156118055, -28001.21492161929, -41386.065350301906, -26855.464500840248, 29354.545993154767, -187500.02235174447, -38899.14320697108, -16981.089649330337, -28547.960942740556, -43411.08869446382, -51056.45818191268, -12339.034657363256, -26991.87719725099, -31855.281514558974, -40923.65246101051, 0.01, 1.01, 0.10400000000000001, 192.0, 0.0, 40.0, 15.5, 72.0, 1.5, 32.0, 0.0, 0.0, 0.0, 1.695333523208263E9, 0.0, 2023-09-21 16:58:43.208
100.0, 15415.52876419172, 9824.396350907846, -28003.897130953927, -41388.009952069515, -26859.152538675375, 29372.762664885842, -187500.02235174447, -38901.065456994234, -16977.915701617683, -28535.533372823404, -43407.758284539974, -51048.54566437551, -12321.801462388214, -26985.19402565885, -31849.73828193406, -40919.696202241925, 0.01, 1.01, 0.10400000000000001, 192.0, 0.0, 0.0, 0.0, 0.0, 0.0, 0.0, 0.0, 0.0, 0.0, 1.695333523208274E9, 0.0, 2023-09-21 16:58:43.208
102.0, 15413.695921146384, 9818.450786882733, -28003.606558276006, -41394.4696062171, -26858.549041575083, 29362.302048480757, -187500.02235174447, -38904.12764598461, -16990.58914072384, -28548.184460185108, -43420.20820620158, -51062.67196687126, -12331.591526459639, -26993.799447274145, -31861.271782072996, -40931.363812847594, 0.01, 1.01, 0.10400000000000001, 192.0, 0.0, 0.0, 0.0, 0.0, 0.0, 0.0, 0.0, 0.0, 0.0, 1.695333523208283E9, 0.0, 2023-09-21 16:58:43.208
104.0, 15415.037025813703, 9821.13299621737, -28008.83686647855, -41387.13823403576, -26857.40910260786, 29358.591658901176, -187500.02235174447, -38894.96343075793, -16975.814637638883, -28543.110614193753, -43411.267508419456, -51054.69239410072, -12318.314590253185, -26988.993822216253, -31853.247505813542, -40922.62428076557, 0.01, 1.01, 0.10400000000000001, 192.0, 0.0, 0.0, 0.0, 0.0, 0.0, 0.0, 0.0, 0.0, 0.0, 1.695333523208293E9, 0.0, 2023-09-21 16:58:43.208
106.0, 15412.846554857082, 9820.507147372622, -28011.362613602, -41387.38410322477, -26865.65689631187, 29361.698551380465, -187500.02235174447, -38900.864291294136, -16981.760201663998, -28541.948323482076, -43416.74368581101, -51055.40764992328, -12328.596392702628, -26985.149322169942, -31863.30579081843, -40921.88667319855, 0.01, 1.01, 0.10400000000000001, 192.0, 0.0, 0.0, 0.0, 0.0, 0.0, 0.0, 0.0, 0.0, 0.0, 1.695333523268382E9, 0.0, 2023-09-21 16:58:43.268
108.0, 15428.917459120448, 9835.505167902133, -28007.227540877768, -41373.77189085149, -26865.83571026751, 29354.233068732392, -187500.02235174447, -38900.439608149485, -16978.563902206886, -28533.856991989254, -43411.468674119555, -51047.249263197096, -12325.690665923437, -26977.303859866126, -31862.322314062396, -40921.596100520626, 0.01, 1.006, 0.108, 192.0, 0.0, 40.0, 15.5, 56.0, 1.5, 48.0, 0.0, 0.0, 0.0, 1.695333523268405E9, 0.0, 2023-09-21 16:58:43.268
110.0, 15423.597743940085, 9830.453673655233, -28007.78633448915, -41377.459928686614, -26874.619945838447, 29359.932763568493, -187500.02235174447, -38906.452227407965, -16975.79228589443, -28527.151468652664, -43406.75245603949, -51041.370754405354, -12326.562383957194, -26969.547804540136, -31868.871375187802, -40919.271519097274, 0.01, 1.006, 0.108, 192.0, 0.0, 0.0, 0.0, 0.0, 0.0, 0.0, 0.0, 0.0, 0.0, 1.695333523268416E9, 0.0, 2023-09-21 16:58:43.268
112.0, 15421.451976472375, 9828.263202698614, -28006.311119355098, -41383.13727177826, -26870.663687069857, 29372.114464296636, -187500.02235174447, -38904.26175645134, -16973.400649237712, -28531.845334988277, -43407.847691517796, -51042.80126605049, -12332.39618926003, -26977.527377310682, -31862.88110767378, -40924.23360636635, 0.01, 1.006, 0.108, 192.0, 0.0, 0.0, 0.0, 0.0, 0.0, 0.0, 0.0, 0.0, 0.0, 1.695333523268426E9, 0.0, 2023-09-21 16:58:43.268
114.0, 15412.086595545603, 9820.216574694703, -28015.542389815142, -41392.88263236077, -26870.708390558768, 29372.181519530004, -187500.02235174447, -38906.65339310806, -16979.435620240645, -28542.84239326029, -43418.397714900704, -51053.73126908914, -12332.418541004485, -26984.05408669163, -31872.201785111643, -40932.839027981645, 0.01, 1.006, 0.108, 192.0, 0.0, 0.0, 0.0, 0.0, 0.0, 0.0, 0.0, 0.0, 0.0, 1.695333523268435E9, 0.0, 2023-09-21 16:58:43.268
116.0, 15411.080767045114, 9816.573240348487, -28015.944721215335, -41394.4696062171, -26870.663687069857, 29368.068798550226, -187500.02235174447, -38900.79723606077, -16985.202370310115, -28548.095053207286, -43423.96329927007, -51056.72640284615, -12330.719808425882, -26989.44085710536, -31872.179433367186, -40936.750583261324, 0.01, 1.006, 0.108, 192.0, 0.0, 0.0, 0.0, 0.0, 0.0, 0.0, 0.0, 0.0, 0.0, 1.695333523268475E9, 0.0, 2023-09-21 16:58:43.268
118.0, 15410.410214711454, 9814.762749047608, -28021.77852651817, -41394.29079226146, -26871.22248068124, 29380.116388811635, -187500.02235174447, -38896.79627380327, -16985.962329621594, -28549.011474729956, -43424.36563067027, -51058.24632146911, -12337.827663162669, -26985.90928148142, -31881.12013114931, -40931.14029540304, 0.018000000000000002, 1.006, 0.114, 192.0, 0.0, 72.0, 15.5, 56.0, 1.5, 72.0, 0.0, 0.0, 0.0, 1.695333523268484E9, 0.0, 2023-09-21 16:58:43.268
120.0, 15415.215839769346, 9818.137862460359, -28009.619177534485, -41389.50751894803, -26866.930945745822, 29376.830682376705, -187500.02235174447, -38892.99647724587, -16982.229588297556, -28545.591657828292, -43417.749514311494, -51055.20648422319, -12319.901564109512, -26985.01521170321, -31871.419474055707, -40925.03826916674, 0.018000000000000002, 1.006, 0.114, 192.0, 0.0, 0.0, 0.0, 0.0, 0.0, 0.0, 0.0, 0.0, 0.0, 1.695333523328632E9, 0.0, 2023-09-21 16:58:43.328
122.0, 15405.42577569792, 9807.543135588543, -28017.01760494919, -41399.565803952915, -26878.35268716248, 29376.316592254236, -187500.02235174447, -38902.540672128285, -16986.901102888718, -28551.671332320137, -43418.55417711189, -51059.74388834761, -12333.267907293786, -26983.875272735986, -31872.626468256294, -40926.692298256436, 0.018000000000000002, 1.006, 0.114, 192.0, 0.0, 0.0, 0.0, 0.0, 0.0, 0.0, 0.0, 0.0, 0.0, 1.695333523328655E9, 0.0, 2023-09-21 16:58:43.328
124.0, 15400.731909362306, 9803.139841930848, -28021.890285240446, -41407.947708123655, -26885.460541899272, 29351.95319079795, -187500.02235174447, -38909.64852686507, -16998.568713494387, -28563.942440026098, -43435.63090987574, -51074.54074317703, -12353.406829048017, -26998.82858977659, -31882.036552671976, -40936.4600105834, 0.018000000000000002, 1.006, 0.114, 192.0, 0.0, 0.0, 0.0, 0.0, 0.0, 0.0, 0.0, 0.0, 0.0, 1.695333523328673E9, 0.0, 2023-09-21 16:58:43.328
126.0, 15409.180868766412, 9812.549926346532, -28015.765907259694, -41389.52987069248, -26870.32841090303, 29363.95607757045, -187500.02235174447, -38896.03631449179, -16998.23343732756, -28552.610105587257, -43434.043936019414, -51068.01403379608, -12344.890814410546, -26989.8208367611, -31882.193014883163, -40928.16751339049, 0.018000000000000002, 1.006, 0.114, 192.0, 0.0, 0.0, 0.0, 0.0, 0.0, 0.0, 0.0, 0.0, 0.0, 1.695333523328692E9, 0.0, 2023-09-21 16:58:43.328
128.0, 15418.635656671007, 9819.076635727482, -28003.24893036472, -41376.99054205305, -26860.426588109327, 29357.4293681895, -187500.02235174447, -38892.70590456795, -16980.5085039745, -28544.250553160975, -43418.35301141179, -51050.44556265421, -12321.935572854945, -26982.176540157383, -31861.137671606266, -40909.39204804803, 0.012, 1.01, 0.11, 192.0, 0.0, 48.0, 15.5, 72.0, 1.5, 56.0, 0.0, 0.0, 0.0, 1.69533352332871E9, 0.0, 2023-09-21 16:58:43.328
130.0, 15419.932057849415, 9824.597516607942, -28006.713450755295, -41376.23058274157, -26865.388675378406, 29380.518720211832, -187500.02235174447, -38892.14711095657, -16983.16836156468, -28542.350654882273, -43416.564871855364, -51048.25509169759, -12327.165881057488, -26974.10756040902, -31859.1707180942, -40908.319164314176, 0.012, 1.01, 0.11, 192.0, 0.0, 0.0, 0.0, 0.0, 0.0, 0.0, 0.0, 0.0, 0.0, 1.695333523328729E9, 0.0, 2023-09-21 16:58:43.328
132.0, 15420.982589838815, 9821.937659017762, -28004.25475886521, -41385.68537064617, -26870.17194869184, 29367.91233633904, -187500.02235174447, -38901.53484362779, -16985.22472205457, -28547.826832273822, -43418.889453278716, -51052.36781267737, -12334.765474172293, -26987.697421037847, -31863.998694896545, -40921.014955164785, 0.012, 1.01, 0.11, 192.0, 0.0, 0.0, 0.0, 0.0, 0.0, 0.0, 0.0, 0.0, 0.0, 1.695333523328747E9, 0.0, 2023-09-21 16:58:43.328
134.0, 15428.023389342236, 9826.385656164368, -28011.943758957837, -41386.08770204636, -26870.93190800332, 29374.90843235355, -187500.02235174447, -38896.95273601446, -16976.574596950366, -28541.16601242614, -43407.06538046186, -51041.88484452783, -12324.81894788968, -26983.785865758167, -31865.988000153066, -40923.13837088804, 0.012, 1.01, 0.11, 192.0, 0.0, 0.0, 0.0, 0.0, 0.0, 0.0, 0.0, 0.0, 0.0, 1.695333523328765E9, 0.0, 2023-09-21 16:58:43.328
136.0, 15433.67838068943, 9828.330257931979, -28004.29946235412, -41384.09839678984, -26867.623849823936, 29368.024095061315, -187500.02235174447, -38901.17721571651, -16974.942919605128, -28543.44589036058, -43404.53963333841, -51046.131675974335, -12326.540032212739, -26988.39032511596, -31873.006447912034, -40931.98966169234, 0.012, 1.01, 0.11, 192.0, 0.0, 0.0, 0.0, 0.0, 0.0, 0.0, 0.0, 0.0, 0.0, 1.695333523388916E9, 0.0, 2023-09-21 16:58:43.388
138.0, 15433.074883589135, 9830.073693999493, -28017.777564260672, -41385.23833575706, -26872.585937093012, 29398.042487864794, -187500.02235174447, -38900.79723606077, -16973.13242830425, -28542.6859310491, -43401.142168181206, -51045.081143984935, -12318.96279084239, -26978.868481978, -31871.955915922634, -40928.011051179295, 0.022, 1.014, 0.116, 192.0, 0.0, 88.0, 15.5, 88.0, 1.5, 80.0, 0.0, 0.0, 0.0, 1.695333523388968E9, 0.0, 2023-09-21 16:58:43.388
140.0, 15431.487909732808, 9827.972630020695, -28012.524904313676, -41386.44532995765, -26873.36824814895, 29378.931746355505, -187500.02235174447, -38903.65825935105, -16967.4550852126, -28543.13296593821, -43403.13147343772, -51042.93537651723, -12317.219354774876, -26987.429200104383, -31878.482625303583, -40927.11698140109, 0.022, 1.014, 0.116, 192.0, 0.0, 0.0, 0.0, 0.0, 0.0, 0.0, 0.0, 0.0, 0.0, 1.695333523388987E9, 0.0, 2023-09-21 16:58:43.388
142.0, 15437.791101669205, 9836.354534191434, -28011.004985690714, -41378.376350209284, -26866.372152134438, 29397.86367390915, -187500.02235174447, -38884.61457307513, -16974.294719015925, -28540.40605311466, -43407.26654616196, -51043.91885327326, -12322.024979832768, -26982.176540157383, -31877.40974156973, -40927.47460931237, 0.022, 1.014, 0.116, 192.0, 0.0, 0.0, 0.0, 0.0, 0.0, 0.0, 0.0, 0.0, 0.0, 1.695333523389007E9, 0.0, 2023-09-21 16:58:43.389
144.0, 15436.897031890992, 9828.821996309996, -28007.004023433212, -41381.75146362203, -26866.394503878895, 29389.95115637197, -187500.02235174447, -38890.67189582252, -16970.763143391985, -28530.30306462086, -43402.28210714842, -51037.392143892306, -12314.872421607068, -26973.77228424219, -31869.63133449928, -40914.868225439575, 0.022, 1.014, 0.116, 192.0, 0.0, 0.0, 0.0, 0.0, 0.0, 0.0, 0.0, 0.0, 0.0, 1.695333523389025E9, 0.0, 2023-09-21 16:58:43.389
146.0, 15417.205145025868, 9808.101929199926, -28030.227485922278, -41400.50457722003, -26882.107780230974, 29414.96275841746, -187500.02235174447, -38905.066419251736, -16979.614434196286, -28545.658713061657, -43418.37536315624, -51051.6972603437, -12316.571154185673, -26985.797522759145, -31874.481663046085, -40926.62524302307, 0.022, 1.014, 0.116, 192.0, 0.0, 0.0, 0.0, 0.0, 0.0, 0.0, 0.0, 0.0, 0.0, 1.695333523389044E9, 0.0, 2023-09-21 16:58:43.389
148.0, 15427.822223642139, 9818.696656071741, -28009.038032178647, -41385.88653634626, -26865.187509678308, 29374.14847304207, -187500.02235174447, -38892.30357316775, -16984.330652276356, -28549.45850961906, -43423.18098821414, -51058.31337670248, -12333.558479971705, -26997.8227612761, -31883.109436405834, -40928.659251768506, 0.022, 1.014, 0.11800000000000001, 192.0, 0.0, 88.0, 15.5, 88.0, 1.5, 88.0, 0.0, 0.0, 0.0, 1.695333523389062E9, 0.0, 2023-09-21 16:58:43.389
150.0, 15410.879601345016, 9800.234115151658, -28020.057442195113, -41391.49682420454, -26877.279803428628, 29397.05901110876, -187500.02235174447, -38899.2326139489, -16980.821428396874, -28544.965808983543, -43422.242214947015, -51055.94409179021, -12321.287372265742, -26991.519569339704, -31866.323276319898, -40920.880844698055, 0.022, 1.014, 0.11800000000000001, 192.0, 0.0, 0.0, 0.0, 0.0, 0.0, 0.0, 0.0, 0.0, 0.0, 1.695333523448407E9, 0.0, 2023-09-21 16:58:43.448
152.0, 15429.364494009555, 9814.315714158502, -27997.817456462082, -41373.36955945129, -26855.039817695597, 29378.417656233032, -187500.02235174447, -38887.0285614763, -16981.827256897363, -28542.864745004747, -43425.21499695957, -51055.698222601204, -12318.314590253185, -26999.43208687688, -31867.239697842564, -40918.802132463716, 0.022, 1.014, 0.11800000000000001, 192.0, 0.0, 0.0, 0.0, 0.0, 0.0, 0.0, 0.0, 0.0, 0.0, 1.695333523448432E9, 0.0, 2023-09-21 16:58:43.448
154.0, 15429.47625273183, 9812.907554257818, -27996.96809017278, -41378.19753625364, -26862.013561965654, 29396.12023784164, -187500.02235174447, -38890.64954407806, -16963.856454355297, -28525.855067474255, -43406.707752550574, -51034.665231068764, -12298.376834199053, -26982.802389002132, -31839.63529344026, -40904.027629378754, 0.022, 1.014, 0.11800000000000001, 192.0, 0.0, 0.0, 0.0, 0.0, 0.0, 0.0, 0.0, 0.0, 0.0, 1.695333523448453E9, 0.0, 2023-09-21 16:58:43.448
156.0, 15432.24786904429, 9810.918249001295, -27999.58324427405, -41385.95359157963, -26862.30413464357, 29396.29905179728, -187500.02235174447, -38892.88471852359, -16973.020669581972, -28535.958055968054, -43414.77673229894, -51043.740039317614, -12317.688741408438, -27002.382517144983, -31851.213497068107, -40915.225853350865, 0.022, 1.014, 0.11800000000000001, 192.0, 0.0, 0.0, 0.0, 0.0, 0.0, 0.0, 0.0, 0.0, 0.0, 1.695333523448471E9, 0.0, 2023-09-21 16:58:43.448
158.0, 15439.690999947907, 9817.824938037986, -28004.075944909568, -41386.91471659121, -26858.839614253, 29396.00847911936, -187500.02235174447, -38887.34148589867, -16958.69320138612, -28522.591712783782, -43398.86229024676, -51031.55833858947, -12302.891886579024, -27003.857732279033, -31839.948217862635, -40903.558242745195, 0.03, 1.012, 0.11800000000000001, 192.0, 0.0, 120.0, 15.5, 80.0, 1.5, 88.0, 0.0, 0.0, 0.0, 1.69533352344849E9, 0.0, 2023-09-21 16:58:43.448
160.0, 15421.608438683563, 9796.434318594256, -28029.668692310894, -41412.93214713719, -26880.386695907917, 29387.00072610387, -187500.02235174447, -38908.64269836458, -16982.430753997654, -28540.22723915902, -43420.83405504633, -51050.1996934652, -12322.762587399791, -27015.033604506687, -31861.22707858409, -40927.586368034645, 0.03, 1.012, 0.11800000000000001, 192.0, 0.0, 0.0, 0.0, 0.0, 0.0, 0.0, 0.0, 0.0, 0.0, 1.695333523448524E9, 0.0, 2023-09-21 16:58:43.448
162.0, 15423.016598584247, 9797.529554072566, -28030.115727200002, -41416.15079833875, -26876.251623183685, 29370.728656140407, -187500.02235174447, -38903.36768667313, -16982.274291786467, -28542.328303137816, -43421.884587035725, -51048.791533564516, -12324.126043811566, -27024.68955811138, -31862.00938964002, -40933.5095803153, 0.03, 1.012, 0.11800000000000001, 192.0, 0.0, 0.0, 0.0, 0.0, 0.0, 0.0, 0.0, 0.0, 0.0, 1.695333523448543E9, 0.0, 2023-09-21 16:58:43.448
164.0, 15432.091406833102, 9813.064016469005, -28025.600674820027, -41407.63478370128, -26861.03008520962, 29360.648019391065, -187500.02235174447, -38891.56596560073, -16980.441448741134, -28533.65582628916, -43418.91180502317, -51042.64480383931, -12323.209622288898, -27018.855752808544, -31866.703255975637, -40930.447391324924, 0.03, 1.012, 0.11800000000000001, 192.0, 0.0, 0.0, 0.0, 0.0, 0.0, 0.0, 0.0, 0.0, 0.0, 1.695333523448562E9, 0.0, 2023-09-21 16:58:43.448
166.0, 15422.077825317125, 9810.717083301197, -28021.97969221827, -41411.76985642551, -26863.51112884416, 29347.684007606986, -187500.02235174447, -38901.24427094988, -16971.813675381385, -28521.02709067191, -43410.46284561907, -51031.46893161165, -12316.928782096957, -27010.026813748696, -31854.745072692047, -40921.75256273181, 0.03, 1.012, 0.11800000000000001, 192.0, 0.0, 0.0, 0.0, 0.0, 0.0, 0.0, 0.0, 0.0, 0.0, 1.695333523508241E9, 0.0, 2023-09-21 16:58:43.508
168.0, 15403.704691374862, 9801.955199474716, -28035.748366802738, -41418.34126929537, -26874.865815027457, 29368.068798550226, -187500.02235174447, -38904.82055006272, -16987.236379055546, -28537.902657735667, -43427.6513371052, -51047.83040855294, -12325.064817078688, -27022.856715066042, -31868.513747276516, -40933.598987293124, 0.022, 1.004, 0.114, 192.0, 0.0, 88.0, 15.5, 48.0, 1.5, 72.0, 0.0, 0.0, 0.0, 1.695333523508268E9, 0.0, 2023-09-21 16:58:43.508
170.0, 15410.007883311258, 9810.80649027902, -28029.333416144065, -41407.67948719019, -26863.019390466143, 29343.66069360503, -187500.02235174447, -38897.80210230376, -16986.31995753288, -28535.46631759004, -43428.657165605684, -51046.46695214116, -12327.255288035309, -27023.035529021687, -31866.949125164647, -40926.93816744544, 0.022, 1.004, 0.114, 192.0, 0.0, 0.0, 0.0, 0.0, 0.0, 0.0, 0.0, 0.0, 0.0, 1.695333523508287E9, 0.0, 2023-09-21 16:58:43.508
172.0, 15414.724101391328, 9816.908516515317, -28031.07685221158, -41399.78932139747, -26863.287611399606, 29364.67133339302, -187500.02235174447, -38895.14224471358, -16979.905006874207, -28528.604332042258, -43423.62802310324, -51041.32605091645, -12321.130910054555, -27006.227017191293, -31863.350494307342, -40920.94789993142, 0.022, 1.004, 0.114, 192.0, 0.0, 0.0, 0.0, 0.0, 0.0, 0.0, 0.0, 0.0, 0.0, 1.695333523508306E9, 0.0, 2023-09-21 16:58:43.508
174.0, 15416.489889203298, 9819.143690960847, -28027.79114577665, -41392.5697079384, -26865.321620145038, 29352.5790396427, -187500.02235174447, -38897.288012181285, -16976.440486483632, -28527.196172141576, -43421.28108993544, -51038.75560030408, -12321.086206565644, -27007.47871488079, -31861.182375095177, -40920.4114580645, 0.022, 1.004, 0.114, 192.0, 0.0, 0.0, 0.0, 0.0, 0.0, 0.0, 0.0, 0.0, 0.0, 1.695333523508324E9, 0.0, 2023-09-21 16:58:43.508
176.0, 15420.71436890535, 9824.284592185568, -28027.075889954078, -41389.8204433704, -26867.51209110166, 29370.728656140407, -187500.02235174447, -38897.08684648119, -16974.6076434383, -28521.608236027747, -43418.01773524496, -51035.20167293569, -12321.980276343857, -26999.25327292124, -31863.05992162942, -40913.415362049986, 0.022, 1.004, 0.114, 192.0, 0.0, 0.0, 0.0, 0.0, 0.0, 0.0, 0.0, 0.0, 0.0, 1.695333523508343E9, 0.0, 2023-09-21 16:58:43.508
178.0, 15412.33246473461, 9811.678208312775, -28017.73286077176, -41393.59788818334, -26863.868756755444, 29362.01147580284, -187500.02235174447, -38898.629116848606, -16977.379259750756, -28526.79384074138, -43417.615403844764, -51036.63218458083, -12317.15229954151, -27004.550636357148, -31858.611924482815, -40917.170455118474, 0.024, 1.002, 0.12, 192.0, 0.0, 96.0, 15.5, 40.0, 1.5, 96.0, 0.0, 0.0, 0.0, 1.695333523508362E9, 0.0, 2023-09-21 16:58:43.508
180.0, 15419.060339815658, 9813.354589146924, -28019.83392475056, -41395.05075157294, -26866.841538768, 29371.80153987426, -187500.02235174447, -38892.661201079034, -16972.350117248312, -28535.823945501324, -43412.42979913113, -51038.8450072819, -12308.166898270476, -27005.15413345744, -31855.348569792342, -40914.33178357265, 0.024, 1.002, 0.12, 192.0, 0.0, 0.0, 0.0, 0.0, 0.0, 0.0, 0.0, 0.0, 0.0, 1.695333523568635E9, 0.0, 2023-09-21 16:58:43.568
182.0, 15427.375188753032, 9817.37790314888, -28010.625006034974, -41399.18582429717, -26863.086445699508, 29336.172859212504, -187500.02235174447, -38903.591204117685, -16962.4035909657, -28541.79186127089, -43406.97597348404, -51040.9460712607, -12318.024017575266, -27018.72164234181, -31857.74020644906, -40922.221949365376, 0.024, 1.002, 0.12, 192.0, 0.0, 0.0, 0.0, 0.0, 0.0, 0.0, 0.0, 0.0, 0.0, 1.695333523568693E9, 0.0, 2023-09-21 16:58:43.568
184.0, 15429.632714943018, 9820.864775283906, -28015.45298283732, -41404.21496679961, -26866.59566957899, 29359.03869379028, -187500.02235174447, -38908.01684951983, -16954.513425172976, -28538.036768202397, -43398.906993735676, -51033.838216523916, -12308.457470948395, -27013.8266103061, -31851.884049401768, -40922.7583912323, 0.024, 1.002, 0.12, 192.0, 0.0, 0.0, 0.0, 0.0, 0.0, 0.0, 0.0, 0.0, 0.0, 1.695333523568704E9, 0.0, 2023-09-21 16:58:43.568
186.0, 15434.90772663447, 9822.541156118055, -28008.0098519337, -41405.33255402238, -26861.03008520962, 29328.95324575344, -187500.02235174447, -38911.66018386605, -16953.3511344613, -28535.98040771251, -43396.47065359005, -51030.127826944336, -12312.48078495035, -27025.53892440068, -31858.857793671825, -40927.22874012336, 0.024, 1.002, 0.12, 192.0, 0.0, 0.0, 0.0, 0.0, 0.0, 0.0, 0.0, 0.0, 0.0, 1.695333523568713E9, 0.0, 2023-09-21 16:58:43.568
188.0, 15434.952430123381, 9824.686923585765, -28012.055517680114, -41405.086684833375, -26861.36536137645, 29342.744272082364, -187500.02235174447, -38903.36768667313, -16945.371561690758, -28534.304026878362, -43391.86619423225, -51028.585556576916, -12309.977389571357, -27019.906284797944, -31851.97345637959, -40924.300661599715, 0.018000000000000002, 1.002, 0.108, 192.0, 0.0, 72.0, 15.5, 40.0, 1.5, 48.0, 0.0, 0.0, 0.0, 1.695333523568723E9, 0.0, 2023-09-21 16:58:43.568
190.0, 15431.86788938855, 9823.994019507649, -28012.435497335853, -41402.60564119883, -26858.727855530724, 29324.639359073564, -187500.02235174447, -38901.89247153908, -16953.373486205757, -28534.371082111727, -43398.30349663538, -51032.564167089964, -12314.425386717963, -27021.515610398725, -31858.410758782717, -40922.62428076557, 0.018000000000000002, 1.002, 0.108, 192.0, 0.0, 0.0, 0.0, 0.0, 0.0, 0.0, 0.0, 0.0, 0.0, 1.695333523568733E9, 0.0, 2023-09-21 16:58:43.568
192.0, 15431.823185899639, 9824.128129974382, -28023.27609339668, -41398.60467894133, -26857.319695630038, 29351.215583230925, -187500.02235174447, -38896.46099763644, -16945.371561690758, -28524.513962806937, -43393.18494715512, -51025.90334724228, -12303.562438912682, -27009.78094455969, -31852.375787779783, -40912.16366436049, 0.018000000000000002, 1.002, 0.108, 192.0, 0.0, 0.0, 0.0, 0.0, 0.0, 0.0, 0.0, 0.0, 0.0, 1.695333523568743E9, 0.0, 2023-09-21 16:58:43.568
194.0, 15421.317866005644, 9814.98626649216, -28020.16920091739, -41403.0750278324, -26865.7910067786, 29343.928914538494, -187500.02235174447, -38909.02267802032, -16962.247128754512, -28534.102861178264, -43408.898223507196, -51037.883882270326, -12320.415654231985, -27015.01125276223, -31861.271782072996, -40920.52321678677, 0.018000000000000002, 1.002, 0.108, 192.0, 0.0, 0.0, 0.0, 0.0, 0.0, 0.0, 0.0, 0.0, 0.0, 1.695333523568752E9, 0.0, 2023-09-21 16:58:43.568
196.0, 15425.00590384077, 9820.283629928068, -28026.78531727616, -41396.056580073426, -26868.853195768977, 29359.843356590674, -187500.02235174447, -38904.59703261817, -16963.431771210646, -28534.236971644998, -43409.5464240964, -51037.19097819221, -12327.210584546398, -27014.92184578441, -31861.54000300646, -40920.34440283113, 0.018000000000000002, 1.002, 0.108, 192.0, 0.0, 0.0, 0.0, 0.0, 0.0, 0.0, 0.0, 0.0, 0.0, 1.695333523628782E9, 0.0, 2023-09-21 16:58:43.628
198.0, 15429.163328309456, 9827.771464320596, -28017.799916005126, -41383.539603178455, -26859.286649142105, 29350.388568686078, -187500.02235174447, -38893.242346434876, -16952.524119916456, -28525.050404673864, -43402.48327284852, -51024.91987048625, -12311.519659938773, -27003.656566578935, -31864.892764674758, -40909.079123625655, 0.014, 1.008, 0.106, 192.0, 0.0, 56.0, 15.5, 64.0, 1.5, 40.0, 0.0, 0.0, 0.0, 1.695333523628806E9, 0.0, 2023-09-21 16:58:43.628
200.0, 15428.984514353815, 9827.74911257614, -28021.622064306983, -41380.879745588274, -26861.857099754467, 29377.903566110563, -187500.02235174447, -38896.662163336536, -16958.961422319582, -28528.69373902008, -43406.30542115038, -51027.69148679871, -12317.44287221943, -27001.555502600135, -31851.437014512663, -40906.061638124185, 0.014, 1.008, 0.106, 192.0, 0.0, 0.0, 0.0, 0.0, 0.0, 0.0, 0.0, 0.0, 0.0, 1.695333523628817E9, 0.0, 2023-09-21 16:58:43.628
202.0, 15427.755168408772, 9825.402179408335, -28013.463677580796, -41382.82434735589, -26861.7900445211, 29360.08922577968, -187500.02235174447, -38901.66895409453, -16951.138311760227, -28527.240875630487, -43398.66112454666, -51027.19974842069, -12305.305874980197, -27003.500104367748, -31852.576953479882, -40902.26184156678, 0.014, 1.008, 0.106, 192.0, 0.0, 0.0, 0.0, 0.0, 0.0, 0.0, 0.0, 0.0, 0.0, 1.695333523628867E9, 0.0, 2023-09-21 16:58:43.628
204.0, 15436.695866190896, 9834.901670801839, -28003.673613509374, -41380.38800721026, -26857.274992141127, 29367.733522383398, -187500.02235174447, -38899.56789011573, -16955.16162576218, -28533.20879140005, -43400.24809840299, -51029.837254266415, -12313.441909961928, -27007.568121858614, -31848.82186041139, -40911.873091682566, 0.014, 1.008, 0.106, 192.0, 0.0, 0.0, 0.0, 0.0, 0.0, 0.0, 0.0, 0.0, 0.0, 1.695333523628877E9, 0.0, 2023-09-21 16:58:43.628
206.0, 15438.707523191873, 9835.415760924312, -27999.40443031841, -41386.91471659121, -26856.090349684997, 29356.915278067027, -187500.02235174447, -38900.79723606077, -16941.43765466662, -28522.412898828137, -43387.06056917436, -51018.57197506094, -12304.501212179806, -27001.421392133405, -31847.480755744073, -40909.88378642604, 0.014, 1.008, 0.106, 192.0, 0.0, 0.0, 0.0, 0.0, 0.0, 0.0, 0.0, 0.0, 0.0, 1.695333523628887E9, 0.0, 2023-09-21 16:58:43.628
208.0, 15432.739607422307, 9830.61013586642, -28004.031241420656, -41397.64355392975, -26857.945544474787, 29339.927952280996, -187500.02235174447, -38906.251061707866, -16949.193709992614, -28534.8851722342, -43395.93421172312, -51029.770199033046, -12308.591581415127, -27014.83243880659, -31849.44770925614, -40924.18890287744, 0.014, 1.01, 0.106, 192.0, 0.0, 56.0, 15.5, 72.0, 1.5, 40.0, 0.0, 0.0, 0.0, 1.695333523628896E9, 0.0, 2023-09-21 16:58:43.628
210.0, 15432.113758577558, 9832.822958567496, -28004.143000142933, -41395.47543471759, -26852.290553127594, 29342.61016161563, -187500.02235174447, -38902.07128549472, -16941.571765133354, -28526.63737853019, -43389.67572327563, -51025.992754220104, -12301.953113311902, -27010.563255615623, -31847.97249412209, -40916.58930976264, 0.014, 1.01, 0.106, 192.0, 0.0, 0.0, 0.0, 0.0, 0.0, 0.0, 0.0, 0.0, 0.0, 1.695333523689073E9, 0.0, 2023-09-21 16:58:43.689
212.0, 15428.67158993144, 9826.363304419912, -28008.50159031172, -41399.09641731935, -26854.88335548441, 29337.737481324373, -187500.02235174447, -38900.640773849584, -16947.472625669554, -28530.75009950997, -43391.10623492077, -51027.84794900989, -12304.68002613545, -27016.195895218363, -31843.748014420038, -40916.701068484916, 0.014, 1.01, 0.106, 192.0, 0.0, 0.0, 0.0, 0.0, 0.0, 0.0, 0.0, 0.0, 0.0, 1.695333523689099E9, 0.0, 2023-09-21 16:58:43.689
214.0, 15417.227496770323, 9814.852156025428, -28024.036052708158, -41408.30533603494, -26859.443111353292, 29344.867687805618, -187500.02235174447, -38902.87594829511, -16956.323916473855, -28543.714111294048, -43401.56685132586, -51039.6496700823, -12318.158128042, -27020.688595853877, -31853.649837213736, -40920.76908597578, 0.014, 1.01, 0.106, 192.0, 0.0, 0.0, 0.0, 0.0, 0.0, 0.0, 0.0, 0.0, 0.0, 1.695333523689109E9, 0.0, 2023-09-21 16:58:43.689
216.0, 15417.830993870617, 9812.66168506881, -28022.560837574107, -41405.46666448911, -26851.97762870522, 29339.257399947335, -187500.02235174447, -38892.41533189003, -16959.229643253046, -28548.162108440654, -43409.3452583963, -51045.03644049603, -12319.543936198228, -27026.991787790274, -31852.688712202158, -40920.38910632004, 0.014, 1.01, 0.106, 192.0, 0.0, 0.0, 0.0, 0.0, 0.0, 0.0, 0.0, 0.0, 0.0, 1.695333523689119E9, 0.0, 2023-09-21 16:58:43.689
218.0, 15415.215839769346, 9811.566449590498, -28031.367424889497, -41402.33742026537, -26854.101044428477, 29350.209754730437, -187500.02235174447, -38888.81670103272, -16956.614489151776, -28541.389529870696, -43408.42883687363, -51041.370754405354, -12306.378758714052, -27016.330005685093, -31852.264029057507, -40910.62139399307, 0.018000000000000002, 1.012, 0.10200000000000001, 192.0, 0.0, 72.0, 15.5, 80.0, 1.5, 24.0, 0.0, 0.0, 0.0, 1.695333523689128E9, 0.0, 2023-09-21 16:58:43.689
220.0, 15407.459784443354, 9806.693769299241, -28028.662863810405, -41403.38795225477, -26857.766730519146, 29344.53241163879, -187500.02235174447, -38894.87402378011, -16968.17034103517, -28550.352579397273, -43419.80587480139, -51049.707955087186, -12329.579869458661, -27022.05205226565, -31860.511822761517, -40916.29873708472, 0.018000000000000002, 1.012, 0.10200000000000001, 192.0, 0.0, 0.0, 0.0, 0.0, 0.0, 0.0, 0.0, 0.0, 0.0, 1.695333523689138E9, 0.0, 2023-09-21 16:58:43.689
222.0, 15403.883505330505, 9805.017388465094, -28032.17208768989, -41403.05267608794, -26857.274992141127, 29362.257344991845, -187500.02235174447, -38897.55623311475, -16966.337497989833, -28549.79378578589, -43420.94581376861, -51049.260920198074, -12322.650828677515, -27010.183275959884, -31859.148366349742, -40911.82838819366, 0.018000000000000002, 1.012, 0.10200000000000001, 192.0, 0.0, 0.0, 0.0, 0.0, 0.0, 0.0, 0.0, 0.0, 0.0, 1.695333523689148E9, 0.0, 2023-09-21 16:58:43.689
224.0, 15402.944732063383, 9803.095138441937, -28020.906808484415, -41399.00701034153, -26849.16130890385, 29345.538240139278, -187500.02235174447, -38896.595108103174, -16969.623204424763, -28551.470166620038, -43424.92442428165, -51054.46887665617, -12321.220317032376, -27014.83243880659, -31861.428244284183, -40912.54364401622, 0.018000000000000002, 1.012, 0.10200000000000001, 192.0, 0.0, 0.0, 0.0, 0.0, 0.0, 0.0, 0.0, 0.0, 0.0, 1.695333523689194E9, 0.0, 2023-09-21 16:58:43.689
226.0, 15398.943769805881, 9804.659760553808, -28030.87568651148, -41401.04101908696, -26854.481024084216, 29367.15237702756, -187500.02235174447, -38900.05962849374, -16973.646518426718, -28554.062968976854, -43427.51722663847, -51056.9499202907, -12317.465223963884, -27012.01611900522, -31858.25429657153, -40916.119923129074, 0.018000000000000002, 1.012, 0.10200000000000001, 192.0, 0.0, 0.0, 0.0, 0.0, 0.0, 0.0, 0.0, 0.0, 0.0, 1.695333523748416E9, 0.0, 2023-09-21 16:58:43.748
228.0, 15415.953447336371, 9824.441054396755, -28012.860180480504, -41387.89819334724, -26846.434396080305, 29342.632513360088, -187500.02235174447, -38893.9799540019, -16968.79618987992, -28542.350654882273, -43419.29178467891, -51044.49999862909, -12316.10176755211, -27009.53507537068, -31857.49433726005, -40913.92945217246, 0.016, 1.01, 0.10400000000000001, 192.0, 0.0, 64.0, 15.5, 72.0, 1.5, 32.0, 0.0, 0.0, 0.0, 1.69533352374843E9, 0.0, 2023-09-21 16:58:43.748
230.0, 15414.411176968953, 9824.37399916339, -28016.794087504637, -41387.9205450917, -26857.766730519146, 29372.203871274458, -187500.02235174447, -38899.63494534909, -16961.665983398674, -28530.146602409674, -43410.06051421887, -51027.22210016514, -12321.846165877125, -26995.364069386014, -31856.175584337187, -40915.31526032869, 0.016, 1.01, 0.10400000000000001, 192.0, 0.0, 0.0, 0.0, 0.0, 0.0, 0.0, 0.0, 0.0, 0.0, 1.695333523748441E9, 0.0, 2023-09-21 16:58:43.748
232.0, 15421.38492123901, 9830.319563188501, -28018.045785194136, -41387.85348985833, -26851.754111260667, 29356.468243177922, -187500.02235174447, -38901.66895409453, -16957.30739322989, -28528.02318668642, -43409.43466537412, -51026.03745770901, -12310.580886671649, -27000.39321188846, -31858.74603494955, -40916.276385340265, 0.016, 1.01, 0.10400000000000001, 192.0, 0.0, 0.0, 0.0, 0.0, 0.0, 0.0, 0.0, 0.0, 0.0, 1.695333523748452E9, 0.0, 2023-09-21 16:58:43.748
234.0, 15429.118624820547, 9836.779217336085, -28002.44426756433, -41382.4667194446, -26847.75314900317, 29375.266060264836, -187500.02235174447, -38890.716599311425, -16947.62908788074, -28518.41193657064, -43402.93030773763, -51020.404818106275, -12300.187325499932, -26995.34171764156, -31852.95693313562, -40915.53877777324, 0.016, 1.01, 0.10400000000000001, 192.0, 0.0, 0.0, 0.0, 0.0, 0.0, 0.0, 0.0, 0.0, 0.0, 1.695333523748462E9, 0.0, 2023-09-21 16:58:43.748
236.0, 15423.865964873548, 9821.825900295486, -28010.714413012793, -41395.11780680631, -26851.240021138197, 29367.57706017221, -187500.02235174447, -38901.28897443879, -16947.673791369652, -28530.16895415413, -43397.767054768454, -51023.48935884111, -12305.350578469108, -27000.549674099646, -31849.134784833765, -40912.633050994045, 0.016, 1.01, 0.10400000000000001, 192.0, 0.0, 0.0, 0.0, 0.0, 0.0, 0.0, 0.0, 0.0, 0.0, 1.695333523748471E9, 0.0, 2023-09-21 16:58:43.748
238.0, 15426.145842807991, 9825.044551497049, -28023.857238752516, -41396.39185624026, -26850.010675193153, 29399.00361287637, -187500.02235174447, -38900.77488431631, -16949.50663441499, -28536.27098039043, -43402.72914203753, -51031.06660021146, -12303.808308101692, -27006.897569524954, -31853.78394768047, -40921.171417375976, 0.024, 1.014, 0.098, 192.0, 0.0, 96.0, 15.5, 88.0, 1.5, 8.0, 0.0, 0.0, 0.0, 1.69533352374848E9, 0.0, 2023-09-21 16:58:43.748
240.0, 15412.153650778968, 9809.532440845065, -28025.55597133112, -41408.19357731266, -26852.670532783337, 29394.42150526303, -187500.02235174447, -38904.26175645134, -16948.00906753648, -28540.9871984705, -43405.254889160984, -51036.58748109192, -12298.309778965686, -27010.384441659982, -31856.30969480392, -40920.322051086674, 0.024, 1.014, 0.098, 192.0, 0.0, 0.0, 0.0, 0.0, 0.0, 0.0, 0.0, 0.0, 0.0, 1.695333523808181E9, 0.0, 2023-09-21 16:58:43.808
242.0, 15425.67645617443, 9825.022199752593, -28026.137116686958, -41399.36463825282, -26850.79298624909, 29406.290281568803, -187500.02235174447, -38894.71756156893, -16958.49203568602, -28551.22429743103, -43414.68732532112, -51045.30466142949, -12323.656657178004, -27023.214342977328, -31858.67897971618, -40927.184036634455, 0.024, 1.014, 0.098, 192.0, 0.0, 0.0, 0.0, 0.0, 0.0, 0.0, 0.0, 0.0, 0.0, 1.695333523808216E9, 0.0, 2023-09-21 16:58:43.808
244.0, 15421.720197405839, 9820.529499117078, -28027.88055275447, -41407.07599008989, -26858.59374506399, 29374.57315618672, -187500.02235174447, -38902.965355272936, -16948.903137314694, -28541.79186127089, -43402.99736297099, -51033.19001593471, -12301.841354589624, -27018.743994086268, -31857.941372149155, -40918.62331850807, 0.024, 1.014, 0.098, 192.0, 0.0, 0.0, 0.0, 0.0, 0.0, 0.0, 0.0, 0.0, 0.0, 1.695333523808225E9, 0.0, 2023-09-21 16:58:43.808
246.0, 15412.824203112628, 9811.767615290597, -28040.30812267162, -41417.26838556152, -26871.73657080371, 29367.554708427753, -187500.02235174447, -38911.14609374358, -16958.447332197113, -28548.9891229855, -43413.63679333172, -51043.78474280653, -12316.973485585868, -27026.58945639008, -31865.87624143079, -40929.73213550236, 0.024, 1.014, 0.098, 192.0, 0.0, 0.0, 0.0, 0.0, 0.0, 0.0, 0.0, 0.0, 0.0, 1.695333523808278E9, 0.0, 2023-09-21 16:58:43.808
248.0, 15424.804738140672, 9821.870603784395, -28024.103107941522, -41404.773760411, -26862.102968943476, 29359.821004846217, -187500.02235174447, -38900.37255291612, -16956.033343795938, -28544.429367116616, -43411.178101441634, -51044.43294339573, -12313.687779150938, -27026.38829068998, -31870.92773567769, -40923.65246101051, 0.016, 1.018, 0.096, 192.0, 0.0, 64.0, 15.5, 104.0, 1.5, 0.0, 0.0, 0.0, 0.0, 1.695333523808288E9, 0.0, 2023-09-21 16:58:43.808
250.0, 15426.347008508088, 9823.41287415181, -28026.628855064973, -41405.556071466934, -26864.204032922273, 29371.108635796147, -187500.02235174447, -38901.89247153908, -16962.671811899163, -28547.17863168462, -43414.53086310993, -51045.72934457414, -12317.44287221943, -27022.38732843248, -31867.10558737583, -40926.133504645055, 0.016, 1.018, 0.096, 192.0, 0.0, 0.0, 0.0, 0.0, 0.0, 0.0, 0.0, 0.0, 0.0, 1.695333523808297E9, 0.0, 2023-09-21 16:58:43.808
252.0, 15432.806662655672, 9831.057170755526, -28015.609445048507, -41396.615373684814, -26856.17975666282, 29365.274830493312, -187500.02235174447, -38893.935250512994, -16946.042114024414, -28532.538239066394, -43399.62224955824, -51027.98205947663, -12310.983218071846, -27013.938369028376, -31864.378674552285, -40913.52712077226, 0.016, 1.018, 0.096, 192.0, 0.0, 0.0, 0.0, 0.0, 0.0, 0.0, 0.0, 0.0, 0.0, 1.695333523808307E9, 0.0, 2023-09-21 16:58:43.808
254.0, 15416.400482225477, 9814.5168798586, -28019.83392475056, -41402.80680689893, -26867.08740795701, 29386.687801681495, -187500.02235174447, -38902.808893061745, -16955.899233329204, -28539.109651936255, -43407.37830488424, -51032.40770487877, -12309.373892471063, -27013.983072517287, -31861.45059602864, -40919.04800165272, 0.016, 1.018, 0.096, 192.0, 0.0, 0.0, 0.0, 0.0, 0.0, 0.0, 0.0, 0.0, 0.0, 1.695333523808316E9, 0.0, 2023-09-21 16:58:43.808
0.0, 15424.089482318102, 9822.675266584787, -28010.155619401412, -41394.35784749482, -26858.50433808617, 29388.118313326635, -187500.02235174447, -38898.405599404054, -16956.033343795938, -28538.103823435766, -43405.23253741652, -51032.2959461565, -12306.937552325435, -27011.14440097146, -31861.58470649537, -40914.9576324174, 0.016, 1.018, 0.096, 192.0, 0.0, 0.0, 0.0, 0.0, 0.0, 0.0, 0.0, 0.0, 0.0, 1.695333523868553E9, 0.0, 2023-09-21 16:58:43.868
2.0, 15420.580258438618, 9818.94252526075, -28021.17502941788, -41402.8738621323, -26862.661762554857, 29379.714057411442, -187500.02235174447, -38904.46292215144, -16959.140236275227, -28545.45754736156, -43407.6465258177, -51034.01703047956, -12311.564363427684, -27020.39802317596, -31862.188203595666, -40925.2617866113, 0.018000000000000002, 1.01, 0.098, 192.0, 0.0, 72.0, 15.5, 72.0, 1.5, 8.0, 0.0, 0.0, 0.0, 1.69533352386858E9, 0.0, 2023-09-21 16:58:43.868
4.0, 15425.140014307502, 9822.787025307063, -28023.45490735232, -41395.7213039066, -26855.397445606883, 29400.076496610225, -187500.02235174447, -38899.83611104919, -16952.97115480556, -28533.70052977807, -43398.50466233548, -51023.17643441873, -12308.412767459486, -27012.843133550065, -31860.64593322825, -40917.68454524095, 0.018000000000000002, 1.01, 0.098, 192.0, 0.0, 0.0, 0.0, 0.0, 0.0, 0.0, 0.0, 0.0, 0.0, 1.695333523868591E9, 0.0, 2023-09-21 16:58:43.868
6.0, 15424.760034651761, 9820.75301656163, -28022.44907885183, -41397.174167296194, -26857.856137496965, 29383.469150479934, -187500.02235174447, -38908.620346620126, -16958.49203568602, -28544.384663627705, -43407.19949092859, -51030.57486183344, -12315.006532073801, -27026.432994178893, -31864.155157107733, -40929.03923142424, 0.018000000000000002, 1.01, 0.098, 192.0, 0.0, 0.0, 0.0, 0.0, 0.0, 0.0, 0.0, 0.0, 0.0, 1.6953335238686E9, 0.0, 2023-09-21 16:58:43.868
8.0, 15425.028255585225, 9820.797720050541, -28024.55014283063, -41400.48222547558, -26858.12435843043, 29397.886025653606, -187500.02235174447, -38909.06738150923, -16956.234509496036, -28537.813250757845, -43400.15869142517, -51024.20461466368, -12314.96182858489, -27020.934465042887, -31864.043398385456, -40926.78170523426, 0.018000000000000002, 1.01, 0.098, 192.0, 0.0, 0.0, 0.0, 0.0, 0.0, 0.0, 0.0, 0.0, 0.0, 1.695333523868609E9, 0.0, 2023-09-21 16:58:43.868
10.0, 15420.937886349904, 9812.4158158798, -28027.50057309873, -41400.68339117568, -26858.370227619438, 29388.453589493467, -187500.02235174447, -38906.31811694123, -16957.620317652265, -28545.54695433938, -43406.35012463929, -51030.08312345542, -12308.524526181762, -27027.97526454631, -31862.03174138448, -40928.68160351296, 0.018000000000000002, 1.01, 0.098, 192.0, 0.0, 0.0, 0.0, 0.0, 0.0, 0.0, 0.0, 0.0, 0.0, 1.695333523868619E9, 0.0, 2023-09-21 16:58:43.868
12.0, 15423.798909640183, 9815.65681882582, -28018.29165438314, -41392.88263236077, -26853.341085116994, 29426.943293445504, -187500.02235174447, -38891.65537257855, -16957.50855892999, -28545.12227119473, -43401.67861004813, -51028.585556576916, -12316.682912907949, -27017.425241163404, -31857.9190204047, -40914.37648706156, 0.016, 1.004, 0.106, 192.0, 0.0, 64.0, 15.5, 48.0, 1.5, 40.0, 0.0, 0.0, 0.0, 1.695333523868639E9, 0.0, 2023-09-21 16:58:43.868
14.0, 15434.1924708119, 9825.715103830707, -28009.127439156466, -41386.825309613385, -26841.874640211423, 29431.81597373676, -187500.02235174447, -38882.06647420722, -16953.21702399457, -28535.198096656575, -43399.57754606933, -51022.774103018535, -12314.24657276232, -27012.82078180561, -31846.38552026576, -40908.07329512516, 0.016, 1.004, 0.106, 192.0, 0.0, 0.0, 0.0, 0.0, 0.0, 0.0, 0.0, 0.0, 0.0, 1.695333523928769E9, 0.0, 2023-09-21 16:58:43.928
16.0, 15436.092369090602, 9828.643182354353, -28013.195456647332, -41390.24512651505, -26844.82507047952, 29447.573953577754, -187500.02235174447, -38884.16753818602, -16945.39391343521, -28531.51005882145, -43393.38611285521, -51017.320277371444, -12305.439985446928, -27002.851903778545, -31842.429261497175, -40903.73705670083, 0.016, 1.004, 0.106, 192.0, 0.0, 0.0, 0.0, 0.0, 0.0, 0.0, 0.0, 0.0, 0.0, 1.695333523928785E9, 0.0, 2023-09-21 16:58:43.928
18.0, 15428.313962020155, 9820.909478772817, -28008.0098519337, -41401.59981269835, -26850.21184089325, 29420.416584064555, -187500.02235174447, -38896.70686682545, -16943.29284945641, -28530.414823343137, -43390.703903520574, -51013.900460469784, -12297.750985354303, -27010.227979448795, -31844.709139431616, -40907.402742791506, 0.016, 1.004, 0.106, 192.0, 0.0, 0.0, 0.0, 0.0, 0.0, 0.0, 0.0, 0.0, 0.0, 1.695333523928795E9, 0.0, 2023-09-21 16:58:43.928
20.0, 15416.445185714387, 9811.812318779506, -28024.237218408256, -41415.770818683006, -26863.086445699508, 29431.43599408102, -187500.02235174447, -38904.17234947352, -16965.51048344499, -28548.564439840848, -43412.452150875586, -51032.631222323325, -12320.81798563218, -27024.711909855832, -31854.946238392145, -40929.46391456889, 0.016, 1.004, 0.106, 192.0, 0.0, 0.0, 0.0, 0.0, 0.0, 0.0, 0.0, 0.0, 0.0, 1.695333523928806E9, 0.0, 2023-09-21 16:58:43.928
22.0, 15430.415025998955, 9824.329295674479, -28008.993328689736, -41400.43752198667, -26846.70261701377, 29401.886987911104, -187500.02235174447, -38890.13545395559, -16967.253919512503, -28545.189326428095, -43413.48033112053, -51029.05494321048, -12314.62655241806, -27029.294017469172, -31856.68967445966, -40926.58053953416, 0.014, 0.996, 0.112, 192.0, 0.0, 56.0, 15.5, 16.0, 1.5, 64.0, 0.0, 0.0, 0.0, 1.695333523928816E9, 0.0, 2023-09-21 16:58:43.928
24.0, 15444.049590116692, 9836.734513847174, -28005.238235621244, -41386.24416425755, -26844.109814656953, 29413.33108107222, -187500.02235174447, -38876.79146251577, -16943.31520120087, -28520.602407527258, -43389.943944209095, -51005.96559118815, -12299.71793886637, -26999.141514198964, -31836.751918405524, -40899.87020491007, 0.014, 0.996, 0.112, 192.0, 0.0, 0.0, 0.0, 0.0, 0.0, 0.0, 0.0, 0.0, 0.0, 1.695333523928826E9, 0.0, 2023-09-21 16:58:43.928
26.0, 15437.522880735742, 9826.922098031295, -28011.384965346453, -41394.00021958354, -26854.145747917384, 29407.139647858105, -187500.02235174447, -38887.69911380996, -16949.171358248157, -28526.615026785737, -43395.93421172312, -51012.17937614672, -12309.172726770965, -27002.136647955973, -31849.24654355604, -40907.112170113585, 0.014, 0.996, 0.112, 192.0, 0.0, 0.0, 0.0, 0.0, 0.0, 0.0, 0.0, 0.0, 0.0, 1.695333523928839E9, 0.0, 2023-09-21 16:58:43.928
28.0, 15439.981572625826, 9834.588746379464, -28013.709546769805, -41390.02160907049, -26854.436320595305, 29427.5467905458, -187500.02235174447, -38885.329828897695, -16945.93035530214, -28528.671387275626, -43395.889508234206, -51013.22990813612, -12303.763604612781, -26999.163865943417, -31853.135747091266, -40906.553376502205, 0.014, 0.996, 0.112, 192.0, 0.0, 0.0, 0.0, 0.0, 0.0, 0.0, 0.0, 0.0, 0.0, 1.695333523928849E9, 0.0, 2023-09-21 16:58:43.928
30.0, 15440.24979355929, 9834.074656256993, -28009.93210195686, -41388.61344916981, -26857.096178185486, 29405.440915279498, -187500.02235174447, -38892.54944235676, -16950.467759426567, -28530.8842099767, -43397.3423716238, -51015.643896537294, -12306.691683136427, -27004.7741538017, -31858.947200649643, -40911.67192598247, 0.014, 0.996, 0.112, 192.0, 0.0, 0.0, 0.0, 0.0, 0.0, 0.0, 0.0, 0.0, 0.0, 1.69533352398902E9, 0.0, 2023-09-21 16:58:43.989
32.0, 15436.628810957529, 9831.75007483364, -28012.614311291494, -41376.43174844167, -26859.286649142105, 29424.596360277697, -187500.02235174447, -38885.754512042346, -16946.69031461362, -28528.000834941966, -43393.60963029977, -51010.07831216793, -12303.920066823968, -26995.90051125294, -31849.67122670069, -40904.184091589945, 0.014, 1.002, 0.112, 192.0, 0.0, 56.0, 15.5, 40.0, 1.5, 64.0, 0.0, 0.0, 0.0, 1.695333523989034E9, 0.0, 2023-09-21 16:58:43.989
34.0, 15428.872755631539, 9821.982362506671, -28013.418974091885, -41377.97401880909, -26867.26622191265, 29403.898644912082, -187500.02235174447, -38890.090750466676, -16948.67961987014, -28528.73844250899, -43395.330714622825, -51010.36888484584, -12309.440947704428, -26991.541921084157, -31850.855869156825, -40894.14815832951, 0.014, 1.002, 0.112, 192.0, 0.0, 0.0, 0.0, 0.0, 0.0, 0.0, 0.0, 0.0, 0.0, 1.695333523989068E9, 0.0, 2023-09-21 16:58:43.989
36.0, 15429.543307965198, 9822.295286929046, -28026.98648297626, -41384.09839678984, -26864.22638466673, 29403.764534445352, -187500.02235174447, -38881.619439318114, -16959.609622908785, -28539.064948447343, -43409.97110724105, -51023.981097219126, -12312.637247161538, -27000.72848805529, -31854.38744478076, -40903.267670067275, 0.014, 1.002, 0.112, 192.0, 0.0, 0.0, 0.0, 0.0, 0.0, 0.0, 0.0, 0.0, 0.0, 1.695333523989077E9, 0.0, 2023-09-21 16:58:43.989
38.0, 15430.951467865882, 9825.603345108431, -28011.83200023556, -41390.17807128168, -26858.236117152708, 29387.42540924852, -187500.02235174447, -38886.15684344254, -16953.082913527836, -28535.51102107895, -43402.05858970387, -51020.71774252865, -12308.77039537077, -27000.460267121827, -31855.035645369968, -40905.61460323508, 0.014, 1.002, 0.112, 192.0, 0.0, 0.0, 0.0, 0.0, 0.0, 0.0, 0.0, 0.0, 0.0, 1.695333523989086E9, 0.0, 2023-09-21 16:58:43.989
40.0, 15430.057398087669, 9825.156310219325, -28018.40341310542, -41397.017705085, -26859.554870075568, 29390.979336616914, -187500.02235174447, -38886.58152658719, -16961.84479735432, -28538.059119946854, -43404.94196473861, -51023.6458210523, -12303.853011590601, -27004.997671246252, -31854.87918315878, -40913.817693450175, 0.014, 1.002, 0.112, 192.0, 0.0, 0.0, 0.0, 0.0, 0.0, 0.0, 0.0, 0.0, 0.0, 1.695333523989096E9, 0.0, 2023-09-21 16:58:43.989
42.0, 15420.043816571691, 9817.936696760262, -28015.475334581773, -41403.879690632784, -26864.114625944454, 29385.48080748091, -187500.02235174447, -38894.8293202912, -16951.58534664933, -28536.94153272409, -43401.544499581396, -51023.93639373021, -12315.587677429638, -27006.495238124757, -31857.717854704602, -40915.225853350865, 0.012, 1.004, 0.12, 192.0, 0.0, 48.0, 15.5, 48.0, 1.5, 96.0, 0.0, 0.0, 0.0, 1.695333523989105E9, 0.0, 2023-09-21 16:58:43.989
44.0, 15424.156537551467, 9819.367208405401, -28019.699814283827, -41404.5725947109, -26866.059227712063, 29402.423429778035, -187500.02235174447, -38891.342448156174, -16962.381239221246, -28549.436157874607, -43413.502682864986, -51034.88874851332, -12322.851994377614, -27014.273645195204, -31860.891802417256, -40926.200559878416, 0.012, 1.004, 0.12, 192.0, 0.0, 0.0, 0.0, 0.0, 0.0, 0.0, 0.0, 0.0, 0.0, 1.695333524048625E9, 0.0, 2023-09-21 16:58:44.048
46.0, 15431.57731671063, 9826.765635820107, -28018.73868927225, -41404.1255598218, -26863.17585267733, 29413.48754328341, -187500.02235174447, -38891.11893071162, -16963.789399121928, -28543.736463038502, -43409.524072351946, -51031.62539382284, -12309.172726770965, -27009.691537581868, -31869.25135484354, -40925.23943486684, 0.012, 1.004, 0.12, 192.0, 0.0, 0.0, 0.0, 0.0, 0.0, 0.0, 0.0, 0.0, 0.0, 1.695333524048669E9, 0.0, 2023-09-21 16:58:44.048
48.0, 15439.311020292167, 9830.096045743949, -28021.82323000708, -41399.3199347639, -26864.136977688908, 29414.649833995085, -187500.02235174447, -38884.72633179741, -16953.574651905856, -28534.01345420044, -43402.527976337435, -51024.115207685856, -12315.230049518354, -27002.91895901191, -31864.93746816367, -40917.77395221877, 0.012, 1.004, 0.12, 192.0, 0.0, 0.0, 0.0, 0.0, 0.0, 0.0, 0.0, 0.0, 0.0, 1.695333524048679E9, 0.0, 2023-09-21 16:58:44.048
50.0, 15436.405293512977, 9826.296249186546, -28033.021453979192, -41400.3704667533, -26871.42364638134, 29428.262046368367, -187500.02235174447, -38897.37741915911, -16959.453160697598, -28537.03093970191, -43405.97014498355, -51027.37856237633, -12319.29806700922, -27003.187179945373, -31873.766407223513, -40922.065487154185, 0.012, 1.004, 0.12, 192.0, 0.0, 0.0, 0.0, 0.0, 0.0, 0.0, 0.0, 0.0, 0.0, 1.695333524048689E9, 0.0, 2023-09-21 16:58:44.048
52.0, 15438.327543536132, 9829.269031199103, -28035.524849358186, -41397.8223678854, -26872.630640581923, 29401.77522918883, -187500.02235174447, -38904.82055006272, -16956.145102518214, -28534.907523978654, -43403.287935648914, -51023.198786163186, -12316.48174720785, -27005.221188690804, -31872.69352348966, -40921.97608017636, 0.01, 1.002, 0.11800000000000001, 192.0, 0.0, 40.0, 15.5, 40.0, 1.5, 88.0, 0.0, 0.0, 0.0, 1.695333524048698E9, 0.0, 2023-09-21 16:58:44.048
54.0, 15445.904784906483, 9837.494473158655, -28024.88541899746, -41382.71258863361, -26865.880413756422, 29398.310708798257, -187500.02235174447, -38895.343410413676, -16951.40653269369, -28526.83854423029, -43395.598935556285, -51014.54866105899, -12307.25047674781, -27000.035583977176, -31873.78875896797, -40916.835178951646, 0.01, 1.002, 0.11800000000000001, 192.0, 0.0, 0.0, 0.0, 0.0, 0.0, 0.0, 0.0, 0.0, 0.0, 1.695333524048708E9, 0.0, 2023-09-21 16:58:44.048
56.0, 15448.229366329833, 9840.690772615764, -28015.050651437123, -41371.76023385051, -26860.806567765067, 29401.171732088536, -187500.02235174447, -38882.468805607416, -16946.869128569262, -28525.139811651687, -43390.5921447983, -51011.441768579694, -12308.032787803744, -26995.274662408196, -31861.49529951755, -40905.167568345976, 0.01, 1.002, 0.11800000000000001, 192.0, 0.0, 0.0, 0.0, 0.0, 0.0, 0.0, 0.0, 0.0, 0.0, 1.695333524048746E9, 0.0, 2023-09-21 16:58:44.048
58.0, 15437.701694691385, 9830.073693999493, -28025.2653986532, -41380.27624848798, -26867.288573657104, 29404.613900734654, -187500.02235174447, -38890.26956442232, -16952.188843749624, -28527.97848319751, -43394.30253437788, -51015.085102925914, -12308.546877926217, -26991.273700150694, -31862.21055534012, -40902.507710755795, 0.01, 1.002, 0.11800000000000001, 192.0, 0.0, 0.0, 0.0, 0.0, 0.0, 0.0, 0.0, 0.0, 0.0, 1.695333524048756E9, 0.0, 2023-09-21 16:58:44.048
60.0, 15447.58116574063, 9838.477949914688, -28010.557950801605, -41373.88364957376, -26855.55390781807, 29390.755819172362, -187500.02235174447, -38880.74772128436, -16951.026553037947, -28521.69764300557, -43393.00613319947, -51010.30182961248, -12306.646979647516, -26991.899548995443, -31859.12601460529, -40899.28905955423, 0.01, 1.002, 0.11800000000000001, 192.0, 0.0, 0.0, 0.0, 0.0, 0.0, 0.0, 0.0, 0.0, 0.0, 1.695333524108887E9, 0.0, 2023-09-21 16:58:44.108
62.0, 15442.619078471553, 9836.689810358264, -28012.659014780405, -41381.2150217551, -26858.325524130527, 29420.5953980202, -187500.02235174447, -38877.75258752735, -16945.79624483541, -28518.680157504103, -43387.88758371921, -51005.47385281013, -12301.550781911707, -26986.06574369261, -31855.080348858875, -40897.389161275525, 0.014, 1.01, 0.114, 192.0, 0.0, 56.0, 15.5, 72.0, 1.5, 72.0, 0.0, 0.0, 0.0, 1.695333524108907E9, 0.0, 2023-09-21 16:58:44.108
64.0, 15432.76195916676, 9828.777292821085, -28010.043860679136, -41393.53083294998, -26858.526689830625, 29400.523531499333, -187500.02235174447, -38886.31330565373, -16956.100399029303, -28531.621817543724, -43400.04693270289, -51018.370809360844, -12314.470090206873, -27001.48844736677, -31855.43797677016, -40909.36969630357, 0.014, 1.01, 0.114, 192.0, 0.0, 0.0, 0.0, 0.0, 0.0, 0.0, 0.0, 0.0, 0.0, 1.695333524108917E9, 0.0, 2023-09-21 16:58:44.108
66.0, 15427.2410782863, 9823.681095085276, -28013.620139791983, -41400.34811500885, -26856.582088063013, 29417.644967752098, -187500.02235174447, -38889.531956855295, -16956.83800659633, -28533.745233266978, -43401.72331353704, -51019.93543147272, -12311.05027330521, -27000.706136310833, -31851.414662768206, -40908.96736490338, 0.014, 1.01, 0.114, 192.0, 0.0, 0.0, 0.0, 0.0, 0.0, 0.0, 0.0, 0.0, 0.0, 1.695333524108927E9, 0.0, 2023-09-21 16:58:44.108
68.0, 15422.837784628606, 9820.529499117078, -28014.961244459304, -41400.66103943122, -26852.804643250067, 29392.20868256196, -187500.02235174447, -38887.49794810986, -16967.857416612795, -28546.530431095416, -43414.95554625458, -51033.77116129055, -12318.135776297544, -27010.317386426617, -31855.281514558974, -40916.52225452927, 0.014, 1.01, 0.114, 192.0, 0.0, 0.0, 0.0, 0.0, 0.0, 0.0, 0.0, 0.0, 0.0, 1.695333524108937E9, 0.0, 2023-09-21 16:58:44.108
70.0, 15420.62496192753, 9818.920173516295, -28020.97386371778, -41398.04588532995, -26854.659838039857, 29412.794639205295, -187500.02235174447, -38881.39592187356, -16962.470646199065, -28537.612085057746, -43410.44049387461, -51027.62443156534, -12306.021130802766, -26999.096810710053, -31846.743148177047, -40904.117036356576, 0.014, 1.01, 0.114, 192.0, 0.0, 0.0, 0.0, 0.0, 0.0, 0.0, 0.0, 0.0, 0.0, 1.695333524108946E9, 0.0, 2023-09-21 16:58:44.108
72.0, 15416.71340664785, 9813.734568802663, -28026.897075998437, -41399.36463825282, -26857.83378575251, 29391.739295928397, -187500.02235174447, -38889.26373592183, -16975.79228589443, -28550.26317241945, -43422.75630506949, -51039.02382123755, -12317.599334430615, -27010.406793404436, -31857.986075638066, -40912.074257382665, 0.014, 1.01, 0.112, 192.0, 0.0, 56.0, 15.5, 72.0, 1.5, 64.0, 0.0, 0.0, 0.0, 1.695333524108956E9, 0.0, 2023-09-21 16:58:44.108
74.0, 15414.81350836915, 9815.254487425624, -28030.160430688913, -41393.73199865007, -26859.51016658666, 29407.787848447308, -187500.02235174447, -38882.334695140686, -16970.02553582496, -28545.12227119473, -43420.67759283514, -51031.513635100564, -12308.502174437306, -27004.19300844586, -31855.8179564259, -40906.73219045785, 0.014, 1.01, 0.112, 192.0, 0.0, 0.0, 0.0, 0.0, 0.0, 0.0, 0.0, 0.0, 0.0, 1.695333524169184E9, 0.0, 2023-09-21 16:58:44.169
76.0, 15413.807679868662, 9813.4663478692, -28022.113802685002, -41389.060484058915, -26855.26333514015, 29372.09211255218, -187500.02235174447, -38887.60970683214, -16973.26653877098, -28549.234992174508, -43421.41520040217, -51035.42519038024, -12321.399130988018, -27008.417488147916, -31855.974418637088, -40905.41343753498, 0.014, 1.01, 0.112, 192.0, 0.0, 0.0, 0.0, 0.0, 0.0, 0.0, 0.0, 0.0, 0.0, 1.695333524169237E9, 0.0, 2023-09-21 16:58:44.169
78.0, 15419.216802026845, 9817.154385704325, -28020.996215462237, -41377.21405949761, -26849.11660541494, 29389.928804627518, -187500.02235174447, -38871.918782224515, -16971.478399214557, -28558.33215216782, -43424.052706247894, -51043.58357710643, -12309.418595959974, -27008.842171292566, -31854.678017458682, -40903.22296657836, 0.014, 1.01, 0.112, 192.0, 0.0, 0.0, 0.0, 0.0, 0.0, 0.0, 0.0, 0.0, 0.0, 1.695333524169247E9, 0.0, 2023-09-21 16:58:44.169
80.0, 15429.118624820547, 9824.485757885666, -28008.188665889345, -41374.598905396335, -26842.433433822804, 29391.515778483845, -187500.02235174447, -38871.27058163531, -16952.904099572195, -28537.232105402007, -43401.79036877041, -51024.115207685856, -12301.19315400042, -26995.364069386014, -31843.077462086378, -40881.899402368, 0.014, 1.01, 0.112, 192.0, 0.0, 0.0, 0.0, 0.0, 0.0, 0.0, 0.0, 0.0, 0.0, 1.695333524169256E9, 0.0, 2023-09-21 16:58:44.169
82.0, 15434.1924708119, 9826.631525353376, -28030.40629987792, -41398.60467894133, -26859.59957356448, 29404.613900734654, -187500.02235174447, -38888.81670103272, -16952.83704433883, -28542.01537871544, -43410.03816247442, -51031.781856034024, -12303.741252868325, -27003.790677045665, -31855.862659914812, -40901.5018822553, 0.012, 1.016, 0.10400000000000001, 192.0, 0.0, 48.0, 15.5, 96.0, 1.5, 32.0, 0.0, 0.0, 0.0, 1.695333524169265E9, 0.0, 2023-09-21 16:58:44.169
84.0, 15410.633732156008, 9814.695693814241, -28016.101183426523, -41396.95064985164, -26857.16323341885, 29402.311671055755, -187500.02235174447, -38888.25790742134, -16960.861320598284, -28540.31664613684, -43411.69219156411, -51029.61373682186, -12309.060968048689, -27011.59143586057, -31861.20472683963, -40907.29098406923, 0.012, 1.016, 0.10400000000000001, 192.0, 0.0, 0.0, 0.0, 0.0, 0.0, 0.0, 0.0, 0.0, 0.0, 1.695333524169275E9, 0.0, 2023-09-21 16:58:44.169
86.0, 15418.747415393284, 9825.938621275262, -28018.3140061276, -41392.88263236077, -26857.342047374495, 29401.439953022, -187500.02235174447, -38882.55821258524, -16981.894312130727, -28541.925971737623, -43418.08479047833, -51028.04911470999, -12319.856860620603, -27010.362089915525, -31856.30969480392, -40912.45423703841, 0.012, 1.016, 0.10400000000000001, 192.0, 0.0, 0.0, 0.0, 0.0, 0.0, 0.0, 0.0, 0.0, 0.0, 1.695333524169285E9, 0.0, 2023-09-21 16:58:44.169
88.0, 15418.166270037445, 9825.603345108431, -28020.482125339764, -41400.63868768677, -26861.07478869853, 29379.91522311154, -187500.02235174447, -38893.06353247923, -16973.646518426718, -28528.380814597705, -43414.7990840434, -51021.522405329044, -12312.592543672627, -27007.836342792078, -31863.104625118332, -40915.11409462859, 0.012, 1.016, 0.10400000000000001, 192.0, 0.0, 0.0, 0.0, 0.0, 0.0, 0.0, 0.0, 0.0, 0.0, 1.695333524169294E9, 0.0, 2023-09-21 16:58:44.169
90.0, 15434.01365685626, 9842.277746472091, -28007.45105832232, -41385.03717005696, -26843.59572453448, 29388.67710693802, -187500.02235174447, -38871.985837457876, -16959.16258801968, -28517.78608772589, -43400.94100248111, -51012.38054184682, -12302.95894181239, -27001.376688644494, -31848.955970878123, -40903.155911345, 0.012, 1.016, 0.10400000000000001, 192.0, 0.0, 0.0, 0.0, 0.0, 0.0, 0.0, 0.0, 0.0, 0.0, 1.695333524228536E9, 0.0, 2023-09-21 16:58:44.228
92.0, 15424.62592418503, 9830.431321910777, -28015.050651437123, -41394.08962656136, -26846.233230380207, 29391.15815057256, -187500.02235174447, -38875.2268404039, -16958.961422319582, -28524.715128507036, -43402.595031570796, -51016.38150410432, -12300.85787783359, -26997.666299064913, -31849.581819722873, -40902.28419331124, 0.014, 1.012, 0.106, 192.0, 0.0, 56.0, 15.5, 80.0, 1.5, 40.0, 0.0, 0.0, 0.0, 1.695333524228557E9, 0.0, 2023-09-21 16:58:44.228
94.0, 15410.276104244722, 9816.863813026406, -28026.606503320516, -41403.410303999226, -26854.771596762133, 29402.87046466714, -187500.02235174447, -38887.140320198574, -16967.388029979233, -28532.471183833026, -43415.33552591033, -51026.79741702049, -12297.125136509554, -27003.634214834477, -31850.811165667914, -40909.772027703766, 0.014, 1.012, 0.106, 192.0, 0.0, 0.0, 0.0, 0.0, 0.0, 0.0, 0.0, 0.0, 0.0, 1.695333524228568E9, 0.0, 2023-09-21 16:58:44.228
96.0, 15411.371339723033, 9819.523670616589, -28031.143907444944, -41401.376295253795, -26859.554870075568, 29395.896720397082, -187500.02235174447, -38894.158767957546, -16976.59694869482, -28536.718015279534, -43424.65620334819, -51034.039382224015, -12313.978351828857, -27005.601168346548, -31865.16098560822, -40920.27734759776, 0.014, 1.012, 0.106, 192.0, 0.0, 0.0, 0.0, 0.0, 0.0, 0.0, 0.0, 0.0, 0.0, 1.695333524228578E9, 0.0, 2023-09-21 16:58:44.228
98.0, 15422.346046250588, 9826.072731741993, -28024.438384108355, -41394.20138528364, -26857.632620052413, 29392.275737795324, -187500.02235174447, -38892.77295980132, -16969.77966663595, -28529.386643098194, -43418.956508512085, -51026.283326898025, -12313.553668684206, -27004.10360146804, -31861.87527917329, -40919.91971968648, 0.014, 1.012, 0.106, 192.0, 0.0, 0.0, 0.0, 0.0, 0.0, 0.0, 0.0, 0.0, 0.0, 1.695333524228617E9, 0.0, 2023-09-21 16:58:44.228
100.0, 15424.760034651761, 9827.793816065052, -28023.231389907767, -41387.451158458134, -26853.005808950165, 29407.96666240295, -187500.02235174447, -38880.725369539905, -16961.956556076595, -28521.988215683486, -43406.238365917015, -51018.70608552767, -12300.097918522111, -26993.48652285177, -31857.181412837675, -40906.9557079024, 0.014, 1.012, 0.106, 192.0, 0.0, 0.0, 0.0, 0.0, 0.0, 0.0, 0.0, 0.0, 0.0, 1.695333524228627E9, 0.0, 2023-09-21 16:58:44.228
102.0, 15430.750302165783, 9834.320525446, -28010.222674634777, -41378.10812927582, -26853.296381628083, 29402.6916507115, -187500.02235174447, -38876.34442762666, -16960.97307932056, -28527.68791051959, -43409.81464502987, -51025.232794908625, -12301.170802255965, -26993.352412385037, -31852.95693313562, -40907.738018958335, 0.014, 1.008, 0.108, 192.0, 0.0, 56.0, 15.5, 64.0, 1.5, 48.0, 0.0, 0.0, 0.0, 1.695333524228636E9, 0.0, 2023-09-21 16:58:44.228
104.0, 15433.38780801151, 9837.89680455885, -28013.083697925056, -41372.073158272884, -26857.520861330137, 29420.863618953663, -187500.02235174447, -38876.45618634894, -16954.848701339808, -28514.70154699106, -43397.49883383499, -51013.67694302523, -12306.021130802766, -26981.48363607927, -31853.15809883572, -40892.985867617834, 0.014, 1.008, 0.108, 192.0, 0.0, 0.0, 0.0, 0.0, 0.0, 0.0, 0.0, 0.0, 0.0, 1.695333524288446E9, 0.0, 2023-09-21 16:58:44.288
106.0, 15437.902860391481, 9846.099894773948, -28009.283901367653, -41370.64264662775, -26858.191413663797, 29415.00746190637, -187500.02235174447, -38870.95765721294, -16953.82052109486, -28512.332262078795, -43397.409426857164, -51009.87714646783, -12305.082357535644, -26982.936499468866, -31854.02981686948, -40890.683637938935, 0.014, 1.008, 0.108, 192.0, 0.0, 0.0, 0.0, 0.0, 0.0, 0.0, 0.0, 0.0, 0.0, 1.695333524288474E9, 0.0, 2023-09-21 16:58:44.288
108.0, 15428.202203297878, 9839.707295859731, -28017.419936349386, -41376.81172809741, -26865.36632363395, 29427.211514378967, -187500.02235174447, -38871.65056129105, -16961.84479735432, -28517.696680748068, -43403.86908100475, -51010.57005054594, -12303.584790657138, -26981.617746546002, -31862.344665806853, -40893.43290250694, 0.014, 1.008, 0.108, 192.0, 0.0, 0.0, 0.0, 0.0, 0.0, 0.0, 0.0, 0.0, 0.0, 1.695333524288485E9, 0.0, 2023-09-21 16:58:44.288
110.0, 15441.836767415616, 9851.956051821238, -28003.181875131355, -41370.262666972005, -26852.849346738978, 29422.987034676917, -187500.02235174447, -38871.158822913036, -16957.754428118995, -28512.82400045681, -43400.40456061418, -51006.345570843885, -12296.946322553913, -26979.42727558938, -31856.466157015107, -40890.28130653874, 0.014, 1.008, 0.108, 192.0, 0.0, 0.0, 0.0, 0.0, 0.0, 0.0, 0.0, 0.0, 0.0, 1.695333524288495E9, 0.0, 2023-09-21 16:58:44.288
112.0, 15434.72891267883, 9848.938566319772, -28014.894189225935, -41381.12561477728, -26861.007733465165, 29444.914095987573, -187500.02235174447, -38872.812852002724, -16959.78843686443, -28513.27103534592, -43403.31028739337, -51008.89366971179, -12295.851087075602, -26976.521548810193, -31857.11435760431, -40897.92560314245, 0.02, 1.006, 0.112, 192.0, 0.0, 80.0, 15.5, 56.0, 1.5, 64.0, 0.0, 0.0, 0.0, 1.695333524288504E9, 0.0, 2023-09-21 16:58:44.288
114.0, 15426.212898041356, 9837.338010947467, -28012.63666303595, -41393.37437073879, -26864.31579164455, 29409.888912426104, -187500.02235174447, -38884.48046260839, -16963.565881677376, -28520.82592497181, -43409.948755496596, -51016.76148376006, -12301.237857489332, -26991.38545887297, -31859.10366286083, -40909.0567718812, 0.02, 1.006, 0.112, 192.0, 0.0, 0.0, 0.0, 0.0, 0.0, 0.0, 0.0, 0.0, 0.0, 1.695333524288515E9, 0.0, 2023-09-21 16:58:44.288
116.0, 15428.492775975797, 9838.008563281128, -28020.12449742848, -41395.922469606696, -26859.420759608838, 29415.96858691795, -187500.02235174447, -38881.99941897386, -16971.567806192375, -28530.012491942944, -43417.81656954486, -51027.71383854316, -12304.970598813368, -26998.783886287678, -31866.68090423118, -40918.53391153025, 0.02, 1.006, 0.112, 192.0, 0.0, 0.0, 0.0, 0.0, 0.0, 0.0, 0.0, 0.0, 0.0, 1.695333524288524E9, 0.0, 2023-09-21 16:58:44.288
118.0, 15432.001999855282, 9840.847234826952, -28013.530732814164, -41390.64745791524, -26848.490756570194, 29390.33113602771, -187500.02235174447, -38870.667084535016, -16962.180073521147, -28520.602407527258, -43409.12174095175, -51018.594326805396, -12299.896752822013, -26998.292147909662, -31860.712988461615, -40913.19184460543, 0.02, 1.006, 0.112, 192.0, 0.0, 0.0, 0.0, 0.0, 0.0, 0.0, 0.0, 0.0, 0.0, 1.695333524288534E9, 0.0, 2023-09-21 16:58:44.288
120.0, 15435.310058034667, 9846.502226174143, -28012.480200824764, -41377.99637055354, -26842.835765223, 29412.01232814936, -187500.02235174447, -38856.20550587243, -16955.87688158475, -28509.091259132776, -43400.89629899219, -51007.77608248903, -12289.346729439108, -26980.500159323237, -31852.912229646714, -40898.81967292067, 0.02, 1.006, 0.112, 192.0, 0.0, 0.0, 0.0, 0.0, 0.0, 0.0, 0.0, 0.0, 0.0, 1.69533352434866E9, 0.0, 2023-09-21 16:58:44.348
122.0, 15408.890296088493, 9818.249621182636, -28037.491802870252, -41401.4209987427, -26865.053399211574, 29393.99682211838, -187500.02235174447, -38881.30651489574, -16972.283062014947, -28522.099974405766, -43418.531825367434, -51020.04719019499, -12297.86274407658, -26993.330060640583, -31858.29900006044, -40907.51450151378, 0.022, 1.01, 0.106, 192.0, 0.0, 88.0, 15.5, 72.0, 1.5, 40.0, 0.0, 0.0, 0.0, 1.695333524348685E9, 0.0, 2023-09-21 16:58:44.348
124.0, 15422.793081139695, 9832.04064751156, -28029.512230099706, -41382.53377467797, -26849.74245425969, 29405.32915655722, -187500.02235174447, -38861.18994488596, -16978.78741965144, -28532.493535577483, -43429.081848750335, -51033.59234733491, -12314.96182858489, -26999.409735132427, -31870.994790911056, -40911.940146915935, 0.022, 1.01, 0.106, 192.0, 0.0, 0.0, 0.0, 0.0, 0.0, 0.0, 0.0, 0.0, 0.0, 1.695333524348697E9, 0.0, 2023-09-21 16:58:44.348
126.0, 15422.81543288415, 9831.794778322552, -28027.813497521103, -41384.27721074548, -26846.277933869118, 29397.34958378668, -187500.02235174447, -38861.860497219626, -16968.304451501903, -28519.618930771227, -43419.850578290294, -51025.433960608716, -12297.90744756549, -26982.042429690653, -31857.69550296015, -40897.85854790909, 0.022, 1.01, 0.106, 192.0, 0.0, 0.0, 0.0, 0.0, 0.0, 0.0, 0.0, 0.0, 0.0, 1.695333524348707E9, 0.0, 2023-09-21 16:58:44.348
128.0, 15417.026331070225, 9829.559603877022, -28038.45292788183, -41392.90498410523, -26862.907631743867, 29429.089060913215, -187500.02235174447, -38865.68264552148, -16971.657213170198, -28523.083451161798, -43423.985651014526, -51029.52432984404, -12304.612970902082, -26986.24455764825, -31859.97538089459, -40903.826463678655, 0.022, 1.01, 0.106, 192.0, 0.0, 0.0, 0.0, 0.0, 0.0, 0.0, 0.0, 0.0, 0.0, 1.695333524348719E9, 0.0, 2023-09-21 16:58:44.348
130.0, 15429.67741843193, 9834.5216911461, -28035.41309063591, -41390.22277477059, -26855.576259562524, 29405.843246679695, -187500.02235174447, -38866.956694955436, -16972.59598643732, -28524.715128507036, -43422.97982251404, -51031.938318245215, -12301.1037470226, -26988.658546049424, -31866.36797980881, -40906.978059646855, 0.022, 1.01, 0.106, 192.0, 0.0, 0.0, 0.0, 0.0, 0.0, 0.0, 0.0, 0.0, 0.0, 1.695333524348733E9, 0.0, 2023-09-21 16:58:44.348
132.0, 15425.3411800076, 9830.163100977314, -28039.056424982122, -41396.056580073426, -26863.466425355247, 29413.219322349945, -187500.02235174447, -38870.91295372402, -16961.956556076595, -28520.31183484934, -43414.97789799904, -51025.545719331, -12303.607142401594, -26984.05408669163, -31864.51278501902, -40906.7545422023, 0.02, 1.014, 0.096, 192.0, 0.0, 80.0, 15.5, 88.0, 1.5, 0.0, 0.0, 0.0, 0.0, 1.695333524348748E9, 0.0, 2023-09-21 16:58:44.348
134.0, 15421.876659617026, 9823.167004962803, -28037.111823214513, -41400.05754233093, -26869.210823680263, 29392.074572095225, -187500.02235174447, -38884.59222133067, -16972.797152137417, -28533.678178033613, -43426.846674304805, -51038.24151018161, -12313.710130895393, -26996.883988008976, -31880.427227071195, -40918.578615019156, 0.02, 1.014, 0.096, 192.0, 0.0, 0.0, 0.0, 0.0, 0.0, 0.0, 0.0, 0.0, 0.0, 1.695333524409006E9, 0.0, 2023-09-21 16:58:44.409
136.0, 15428.649238186985, 9832.04064751156, -28029.422823121888, -41390.84862361534, -26862.594707321492, 29412.97345316094, -187500.02235174447, -38874.6233433036, -16965.085800300338, -28531.64416928818, -43419.67176433466, -51034.06173396847, -12304.165936012976, -26988.233862904774, -31874.280497345986, -40916.76812371828, 0.02, 1.014, 0.096, 192.0, 0.0, 0.0, 0.0, 0.0, 0.0, 0.0, 0.0, 0.0, 0.0, 1.695333524409031E9, 0.0, 2023-09-21 16:58:44.409
138.0, 15413.450051957376, 9822.764673562608, -28027.701738798827, -41395.989524840064, -26865.880413756422, 29403.831589678717, -187500.02235174447, -38883.29582015226, -16961.442465954122, -28523.55283779536, -43416.989555000015, -51029.39021937731, -12296.029901031245, -26984.523473325193, -31872.581764767383, -40912.364830060586, 0.02, 1.014, 0.096, 192.0, 0.0, 0.0, 0.0, 0.0, 0.0, 0.0, 0.0, 0.0, 0.0, 1.695333524409041E9, 0.0, 2023-09-21 16:58:44.409
140.0, 15408.152688521468, 9819.724836316685, -28036.687140069862, -41399.18582429717, -26873.65882082687, 29398.020136120336, -187500.02235174447, -38888.906108010546, -16978.943881862626, -28540.69662579258, -43435.04976451991, -51044.790571307014, -12300.254380733299, -26999.45443862134, -31873.654648501237, -40926.46878081188, 0.02, 1.014, 0.096, 192.0, 0.0, 0.0, 0.0, 0.0, 0.0, 0.0, 0.0, 0.0, 0.0, 1.695333524409051E9, 0.0, 2023-09-21 16:58:44.409
142.0, 15419.663836915952, 9829.000810265637, -28019.900979983926, -41387.83113811388, -26864.516957344647, 29381.90452836806, -187500.02235174447, -38887.34148589867, -16978.988585351537, -28529.833677987303, -43430.422953417656, -51037.05686772548, -12311.899639594512, -26988.569139071602, -31873.96757292361, -40922.1101906431, 0.018000000000000002, 1.018, 0.096, 192.0, 0.0, 72.0, 15.5, 104.0, 1.5, 0.0, 0.0, 0.0, 0.0, 1.695333524409092E9, 0.0, 2023-09-21 16:58:44.409
144.0, 15434.930078378926, 9841.629545882886, -28007.62987227796, -41374.889478074256, -26857.185585163308, 29378.90939461105, -187500.02235174447, -38874.019846203315, -16955.11692227327, -28511.371137067217, -43406.90891825067, -51017.05205643798, -12293.86178181908, -26979.181406400374, -31857.807261682425, -40907.313335813684, 0.018000000000000002, 1.018, 0.096, 192.0, 0.0, 0.0, 0.0, 0.0, 0.0, 0.0, 0.0, 0.0, 0.0, 1.695333524409103E9, 0.0, 2023-09-21 16:58:44.409
146.0, 15428.649238186985, 9832.934717289772, -28020.571532317586, -41382.39966421123, -26861.186547420806, 29393.14745582908, -187500.02235174447, -38879.83129976169, -16953.01585829447, -28514.32156733532, -43408.473540362545, -51020.18130066172, -12296.655749875994, -26975.76158949871, -31866.50209027554, -40909.10147537011, 0.018000000000000002, 1.018, 0.096, 192.0, 0.0, 0.0, 0.0, 0.0, 0.0, 0.0, 0.0, 0.0, 0.0, 1.695333524409112E9, 0.0, 2023-09-21 16:58:44.409
148.0, 15430.616191699051, 9834.968726035206, -28026.293578898145, -41380.52211767699, -26865.902765500876, 29405.664432724054, -187500.02235174447, -38877.3279043827, -16959.184939764134, -28511.996985911966, -43413.279165420434, -51017.90142272728, -12291.380738184542, -26981.014249445707, -31864.73630246357, -40911.24724283782, 0.018000000000000002, 1.018, 0.096, 192.0, 0.0, 0.0, 0.0, 0.0, 0.0, 0.0, 0.0, 0.0, 0.0, 1.695333524409122E9, 0.0, 2023-09-21 16:58:44.409
150.0, 15437.925212135937, 9844.132941261882, -28024.0137009637, -41370.64264662775, -26858.88431774191, 29410.04537463729, -187500.02235174447, -38865.772052499306, -16958.335573474833, -28502.944529407567, -43409.70288630759, -51010.257126123564, -12303.62949414605, -26973.70522900882, -31874.571070023903, -40903.960574145385, 0.018000000000000002, 1.018, 0.096, 192.0, 0.0, 0.0, 0.0, 0.0, 0.0, 0.0, 0.0, 0.0, 0.0, 1.695333524469291E9, 0.0, 2023-09-21 16:58:44.469
152.0, 15446.240061073311, 9850.123208775904, -28017.419936349386, -41369.74857684953, -26860.627753809425, 29414.269854339345, -187500.02235174447, -38865.146203654556, -16959.140236275227, -28504.039764885878, -43406.238365917015, -51007.37375108883, -12297.460412676384, -26978.57790930008, -31870.01131415502, -40903.267670067275, 0.014, 1.014, 0.092, 192.0, 0.0, 56.0, 15.5, 88.0, 1.0, 112.0, 0.0, 0.0, 0.0, 1.695333524469314E9, 0.0, 2023-09-21 16:58:44.469
154.0, 15449.3469535526, 9854.615909411421, -28018.515171827697, -41367.3122367039, -26858.996076464187, 29425.2445608669, -187500.02235174447, -38862.3745873421, -16955.07221878436, -28496.417820026618, -43399.59989781379, -50997.896611439784, -12302.824831345659, -26966.48561554976, -31869.318410076907, -40894.57284147416, 0.014, 1.014, 0.092, 192.0, 0.0, 0.0, 0.0, 0.0, 0.0, 0.0, 0.0, 0.0, 0.0, 1.695333524469325E9, 0.0, 2023-09-21 16:58:44.469
156.0, 15436.449997001888, 9839.193205737258, -28026.3159306426, -41384.25485900103, -26867.243870168197, 29414.53807527281, -187500.02235174447, -38883.76520678583, -16955.16162576218, -28502.49749451846, -43402.97501122654, -51001.69640799718, -12296.43223243144, -26972.744103997244, -31868.670209487704, -40901.34542004412, 0.014, 1.014, 0.092, 192.0, 0.0, 0.0, 0.0, 0.0, 0.0, 0.0, 0.0, 0.0, 0.0, 1.695333524469335E9, 0.0, 2023-09-21 16:58:44.469
158.0, 15421.653142172474, 9818.808414794019, -28036.39656739194, -41398.69408591915, -26870.954259747778, 29415.67801424003, -187500.02235174447, -38886.62623007611, -16966.449256712112, -28528.850201231267, -43422.68924983612, -51025.81394026446, -12311.586715172138, -26989.95494722783, -31879.86843345981, -40919.986774919846, 0.014, 1.014, 0.092, 192.0, 0.0, 0.0, 0.0, 0.0, 0.0, 0.0, 0.0, 0.0, 0.0, 1.695333524469344E9, 0.0, 2023-09-21 16:58:44.469
160.0, 15427.486947475309, 9826.89974628684, -28024.527791086173, -41388.34522823635, -26855.79977700708, 29391.62753720612, -187500.02235174447, -38881.21710791792, -16969.153817791204, -28534.326378622816, -43422.62219460275, -51029.077294954935, -12306.95990406989, -26996.34754614205, -31873.028799656488, -40917.7068969854, 0.014, 1.014, 0.092, 192.0, 0.0, 0.0, 0.0, 0.0, 0.0, 0.0, 0.0, 0.0, 0.0, 1.695333524469354E9, 0.0, 2023-09-21 16:58:44.469
162.0, 15417.85334561507, 9817.89199327135, -28026.718262042796, -41391.11684454881, -26859.420759608838, 29414.113392128158, -187500.02235174447, -38882.26763990732, -16967.34332649032, -28525.877419218712, -43419.716467823564, -51023.95874547467, -12302.556610412194, -26984.523473325193, -31866.569145508904, -40913.34830681662, 0.012, 1.012, 0.092, 192.0, 0.0, 48.0, 15.5, 80.0, 1.0, 112.0, 0.0, 0.0, 0.0, 1.695333524469364E9, 0.0, 2023-09-21 16:58:44.469
164.0, 15418.389787482, 9814.09219671395, -28021.800878262628, -41392.61441142731, -26862.37118987694, 29384.854958636162, -187500.02235174447, -38883.42993061899, -16976.909873117194, -28536.06981469033, -43430.490008651024, -51034.799341535494, -12304.255342990798, -27000.05793572163, -31869.340761821364, -40920.83614120915, 0.012, 1.012, 0.092, 192.0, 0.0, 0.0, 0.0, 0.0, 0.0, 0.0, 0.0, 0.0, 0.0, 1.695333524528673E9, 0.0, 2023-09-21 16:58:44.528
166.0, 15427.129319564025, 9821.37886540638, -28020.035090450656, -41386.89236484675, -26852.715236272245, 29400.300014054777, -187500.02235174447, -38871.18117465749, -16968.058582312893, -28521.36236683874, -43418.15184571169, -51023.690524541205, -12297.661578376483, -26988.09975243804, -31859.662456472215, -40907.93918465843, 0.012, 1.012, 0.092, 192.0, 0.0, 0.0, 0.0, 0.0, 0.0, 0.0, 0.0, 0.0, 0.0, 1.6953335245287E9, 0.0, 2023-09-21 16:58:44.528
168.0, 15425.810566641161, 9818.853118282928, -28019.945683472837, -41394.22373702809, -26854.637486295404, 29394.91324364105, -187500.02235174447, -38883.13935794108, -16964.16937877767, -28524.938645951588, -43422.01869750246, -51031.29011765601, -12301.371967956064, -26996.10167695304, -31859.21542158311, -40916.94693767392, 0.012, 1.012, 0.092, 192.0, 0.0, 0.0, 0.0, 0.0, 0.0, 0.0, 0.0, 0.0, 0.0, 1.69533352452871E9, 0.0, 2023-09-21 16:58:44.528
170.0, 15424.089482318102, 9823.815205552008, -28026.628855064973, -41388.81461486991, -26857.297343885584, 29409.464229281453, -187500.02235174447, -38876.0762066932, -16967.432733468144, -28519.194247626576, -43419.023563745446, -51024.584594319414, -12299.29325572172, -26985.708115781323, -31855.549735492437, -40909.30264107021, 0.012, 1.012, 0.092, 192.0, 0.0, 0.0, 0.0, 0.0, 0.0, 0.0, 0.0, 0.0, 0.0, 1.69533352452872E9, 0.0, 2023-09-21 16:58:44.528
172.0, 15429.923287620937, 9830.721894588696, -28023.92429398588, -41389.03813231446, -26857.520861330137, 29384.899662125074, -187500.02235174447, -38879.78659627278, -16969.578500935855, -28520.781221482903, -43419.47059863456, -51023.01997220755, -12297.706281865392, -26998.135685698475, -31869.363113565818, -40915.58348126215, 0.016, 1.01, 0.094, 192.0, 0.0, 64.0, 15.5, 72.0, 1.0, 120.0, 0.0, 0.0, 0.0, 1.69533352452873E9, 0.0, 2023-09-21 16:58:44.528
174.0, 15434.326581278632, 9834.991077779661, -28024.907770741913, -41387.76408288051, -26860.51599508715, 29410.358299059666, -187500.02235174447, -38871.918782224515, -16963.655288655198, -28508.68892773258, -43408.45118861809, -51010.3912365903, -12300.656712133494, -26982.176540157383, -31865.943296664158, -40905.72636195736, 0.016, 1.01, 0.094, 192.0, 0.0, 0.0, 0.0, 0.0, 0.0, 0.0, 0.0, 0.0, 0.0, 1.69533352452874E9, 0.0, 2023-09-21 16:58:44.528
176.0, 15431.264392288256, 9831.973592278195, -28029.333416144065, -41394.447254472645, -26860.717160787244, 29372.449740463468, -187500.02235174447, -38870.64473279056, -16973.69122191563, -28520.93768369409, -43420.58818585732, -51021.23183265112, -12315.028883818255, -26998.20274093184, -31879.846081715357, -40916.678716740455, 0.016, 1.01, 0.094, 192.0, 0.0, 0.0, 0.0, 0.0, 0.0, 0.0, 0.0, 0.0, 0.0, 1.695333524528749E9, 0.0, 2023-09-21 16:58:44.528
178.0, 15431.53261322172, 9834.454635912733, -28035.301331913633, -41395.989524840064, -26857.61026830796, 29389.95115637197, -187500.02235174447, -38867.56019205573, -16960.41428570918, -28512.68988999008, -43413.65914507618, -51013.78870174751, -12297.639226632027, -26988.166807671405, -31871.30771533343, -40908.18505384744, 0.016, 1.01, 0.094, 192.0, 0.0, 0.0, 0.0, 0.0, 0.0, 0.0, 0.0, 0.0, 0.0, 1.695333524528759E9, 0.0, 2023-09-21 16:58:44.528
180.0, 15429.67741843193, 9833.784083579074, -28029.132250443967, -41393.28496376097, -26853.45284383927, 29374.86372886464, -187500.02235174447, -38865.190907143464, -16966.717477645576, -28519.238951115483, -43420.11879922376, -51017.47673958263, -12303.897715079513, -26994.224130418796, -31875.666305502215, -40911.314298071185, 0.016, 1.01, 0.094, 192.0, 0.0, 0.0, 0.0, 0.0, 0.0, 0.0, 0.0, 0.0, 0.0, 1.695333524588343E9, 0.0, 2023-09-21 16:58:44.588
182.0, 15428.872755631539, 9827.771464320596, -28027.321759143088, -41393.59788818334, -26855.59861130698, 29384.832606891705, -187500.02235174447, -38868.96835195641, -16960.83896885383, -28519.618930771227, -43410.95458399708, -51012.782873247015, -12295.515810908773, -26987.96564197131, -31861.763520451015, -40907.78272244725, 0.022, 1.012, 0.098, 192.0, 0.0, 88.0, 15.5, 80.0, 1.5, 8.0, 0.0, 0.0, 0.0, 1.695333524588366E9, 0.0, 2023-09-21 16:58:44.588
184.0, 15425.899973618982, 9818.294324671546, -28025.69008179785, -41395.74365565105, -26855.330390373518, 29366.4818246939, -187500.02235174447, -38876.41148286003, -16973.221835282067, -28535.287503634394, -43424.85736904829, -51027.82559726544, -12302.62366564556, -26999.968528743808, -31872.559413022926, -40918.511559785795, 0.022, 1.012, 0.098, 192.0, 0.0, 0.0, 0.0, 0.0, 0.0, 0.0, 0.0, 0.0, 0.0, 1.695333524588377E9, 0.0, 2023-09-21 16:58:44.588
186.0, 15425.00590384077, 9816.819109537497, -28026.3159306426, -41393.84375737236, -26857.65497179687, 29377.747103899375, -187500.02235174447, -38873.863383992124, -16969.69025965813, -28534.25932338945, -43419.56000561238, -51027.22210016514, -12304.322398224163, -26996.414601375414, -31864.24456408555, -40912.29777482722, 0.022, 1.012, 0.098, 192.0, 0.0, 0.0, 0.0, 0.0, 0.0, 0.0, 0.0, 0.0, 0.0, 1.695333524588418E9, 0.0, 2023-09-21 16:58:44.588
188.0, 15444.58603198362, 9836.309830702523, -28003.897130953927, -41371.82728908388, -26842.098157655975, 29365.05131304876, -187500.02235174447, -38856.58548552817, -16960.34723047581, -28512.44402080107, -43409.524072351946, -51012.782873247015, -12293.705319607892, -26980.455455834326, -31860.891802417256, -40894.125806585056, 0.022, 1.012, 0.098, 192.0, 0.0, 0.0, 0.0, 0.0, 0.0, 0.0, 0.0, 0.0, 0.0, 1.695333524588428E9, 0.0, 2023-09-21 16:58:44.588
190.0, 15441.81441567116, 9833.784083579074, -28011.340261857542, -41381.23737349956, -26851.195317649286, 29367.08532179419, -187500.02235174447, -38870.085939179175, -16953.82052109486, -28501.35755555124, -43404.98666822752, -51002.54577428648, -12288.00562477179, -26972.27471736368, -31849.49241274505, -40892.56118447318, 0.022, 1.012, 0.098, 192.0, 0.0, 0.0, 0.0, 0.0, 0.0, 0.0, 0.0, 0.0, 0.0, 1.695333524588437E9, 0.0, 2023-09-21 16:58:44.588
192.0, 15441.233270315322, 9831.213632966714, -28023.11963118549, -41387.40645496923, -26849.898916470876, 29364.090188037182, -187500.02235174447, -38877.9761049719, -16955.16162576218, -28498.854160172246, -43408.65235431819, -51005.60796327686, -12290.91135155098, -26978.644964533447, -31862.45642452913, -40902.73122820035, 0.022, 1.004, 0.11, 192.0, 0.0, 88.0, 15.5, 48.0, 1.5, 56.0, 0.0, 0.0, 0.0, 1.695333524588447E9, 0.0, 2023-09-21 16:58:44.588
194.0, 15437.545232480197, 9827.793816065052, -28028.059366710113, -41396.01187658452, -26859.711332286755, 29368.29231599478, -187500.02235174447, -38883.96637248592, -16960.682506642643, -28504.35268930825, -43417.57070035586, -51013.05109418048, -12280.42838340144, -26988.90441523843, -31866.435035042174, -40912.09660912712, 0.022, 1.004, 0.11, 192.0, 0.0, 0.0, 0.0, 0.0, 0.0, 0.0, 0.0, 0.0, 0.0, 1.695333524648774E9, 0.0, 2023-09-21 16:58:44.648
196.0, 15443.043761616203, 9828.397313165346, -28030.40629987792, -41399.76696965301, -26859.957201475765, 29360.5809641577, -187500.02235174447, -38889.75547429985, -16956.07804728485, -28498.988270638976, -43411.245156675, -51007.57491678893, -12304.0541772907, -26987.563310571113, -31867.440863542663, -40911.783684704744, 0.022, 1.004, 0.11, 192.0, 0.0, 0.0, 0.0, 0.0, 0.0, 0.0, 0.0, 0.0, 0.0, 1.695333524648798E9, 0.0, 2023-09-21 16:58:44.648
198.0, 15453.303212321189, 9837.785045836574, -28026.628855064973, -41395.7213039066, -26854.861003739956, 29354.56834489922, -187500.02235174447, -38882.334695140686, -16957.26268974098, -28499.792933439367, -43412.6980200646, -51004.892707454295, -12298.756813854792, -26995.878159508487, -31867.530270520485, -40916.43284755145, 0.022, 1.004, 0.11, 192.0, 0.0, 0.0, 0.0, 0.0, 0.0, 0.0, 0.0, 0.0, 0.0, 1.695333524648809E9, 0.0, 2023-09-21 16:58:44.648
200.0, 15445.569508739653, 9829.872528299395, -28031.657997567418, -41402.80680689893, -26858.370227619438, 29372.203871274458, -187500.02235174447, -38884.279296908295, -16953.082913527836, -28496.64133747117, -43404.71844729405, -50999.2377161071, -12292.140697496021, -26986.870406493, -31860.0200843835, -40908.67679222546, 0.022, 1.004, 0.11, 192.0, 0.0, 0.0, 0.0, 0.0, 0.0, 0.0, 0.0, 0.0, 0.0, 1.695333524648819E9, 0.0, 2023-09-21 16:58:44.648
202.0, 15447.536462251719, 9826.340952675457, -28032.30619815662, -41409.065295346416, -26861.387713120905, 29364.738388626385, -187500.02235174447, -38887.54265159877, -16962.336535732335, -28507.526637020903, -43413.45797937608, -51005.7420737436, -12293.414746929973, -27001.779020044687, -31859.438939027663, -40916.61166150709, 0.022, 1.002, 0.116, 192.0, 0.0, 88.0, 15.5, 40.0, 1.5, 80.0, 0.0, 0.0, 0.0, 1.695333524648834E9, 0.0, 2023-09-21 16:58:44.648
204.0, 15450.95627915338, 9826.855042797928, -28038.229410437278, -41409.08764709087, -26861.655934054368, 29374.70726665345, -187500.02235174447, -38886.35800914264, -16957.597965907808, -28501.335203806786, -43410.73106655253, -51002.657533008765, -12293.682967863437, -27003.276586923195, -31867.574974009392, -40917.461027796395, 0.022, 1.002, 0.116, 192.0, 0.0, 0.0, 0.0, 0.0, 0.0, 0.0, 0.0, 0.0, 0.0, 1.695333524648845E9, 0.0, 2023-09-21 16:58:44.648
206.0, 15446.351819795587, 9818.048455482538, -28037.916486014903, -41413.64740295975, -26865.16515793385, 29366.23595550489, -187500.02235174447, -38894.53874761328, -16967.052753812404, -28508.420706799116, -43417.99538350051, -51007.4408063222, -12292.00658702929, -27016.262950451728, -31866.859718186824, -40918.5562632747, 0.022, 1.002, 0.116, 192.0, 0.0, 0.0, 0.0, 0.0, 0.0, 0.0, 0.0, 0.0, 0.0, 1.695333524648894E9, 0.0, 2023-09-21 16:58:44.648
208.0, 15452.073866376146, 9819.009580494116, -28035.97188424729, -41414.38501052678, -26862.92998348832, 29378.39530448858, -187500.02235174447, -38887.78852078778, -16962.627108410252, -28510.767639966925, -43414.10617996528, -51006.412626077254, -12296.968674298369, -27016.978206274296, -31870.279535088484, -40915.62818475106, 0.022, 1.002, 0.116, 192.0, 0.0, 0.0, 0.0, 0.0, 0.0, 0.0, 0.0, 0.0, 0.0, 1.695333524648903E9, 0.0, 2023-09-21 16:58:44.648
210.0, 15454.286689077222, 9819.23309793867, -28034.139041201957, -41417.26838556152, -26862.684114299314, 29360.066874035227, -187500.02235174447, -38893.7787883018, -16963.74469563302, -28504.129171863697, -43415.69315382161, -51004.177451631724, -12293.705319607892, -27017.380537674493, -31869.45252054364, -40915.71759172888, 0.022, 1.002, 0.116, 192.0, 0.0, 0.0, 0.0, 0.0, 0.0, 0.0, 0.0, 0.0, 0.0, 1.695333524708919E9, 0.0, 2023-09-21 16:58:44.708
212.0, 15459.941680424416, 9827.167967220303, -28030.78627953366, -41412.351001781346, -26859.577221820025, 29380.965755100937, -187500.02235174447, -38890.582488844695, -16957.48620718553, -28500.530541006392, -43411.245156675, -51000.198841118676, -12293.504153907796, -27011.457325393836, -31867.865546687313, -40916.16462661799, 0.02, 1.004, 0.114, 192.0, 0.0, 80.0, 15.5, 48.0, 1.5, 72.0, 0.0, 0.0, 0.0, 1.695333524708951E9, 0.0, 2023-09-21 16:58:44.708
214.0, 15464.255567104288, 9834.365228934912, -28025.55597133112, -41404.594946455356, -26850.144785659886, 29350.925010553005, -187500.02235174447, -38887.721465554416, -16953.59700365031, -28490.136979834675, -43405.321944394345, -50992.59924800388, -12281.925950279947, -27009.31155792613, -31862.16585185121, -40908.63208873655, 0.02, 1.004, 0.114, 192.0, 0.0, 0.0, 0.0, 0.0, 0.0, 0.0, 0.0, 0.0, 0.0, 1.695333524708963E9, 0.0, 2023-09-21 16:58:44.708
216.0, 15469.463523562375, 9839.193205737258, -28036.821250536592, -41401.55510920943, -26857.051474696575, 29374.617859675633, -187500.02235174447, -38882.26763990732, -16948.143178003214, -28485.823093154802, -43404.85255776079, -50990.74405321408, -12280.629549101539, -27002.49427586726, -31858.72368320509, -40907.49214976933, 0.02, 1.004, 0.114, 192.0, 0.0, 0.0, 0.0, 0.0, 0.0, 0.0, 0.0, 0.0, 0.0, 1.695333524708972E9, 0.0, 2023-09-21 16:58:44.708
218.0, 15473.755058497794, 9841.629545882886, -28017.55404681612, -41395.363675995315, -26854.8386519955, 29347.929876795995, -187500.02235174447, -38881.351218384654, -16945.237451224024, -28476.770636650403, -43394.146072166695, -50980.350492042366, -12293.325339952153, -27001.175522944395, -31856.10852910382, -40898.21617582037, 0.02, 1.004, 0.114, 192.0, 0.0, 0.0, 0.0, 0.0, 0.0, 0.0, 0.0, 0.0, 0.0, 1.695333524708981E9, 0.0, 2023-09-21 16:58:44.708
220.0, 15470.11172415158, 9841.89776681635, -28032.105032456522, -41402.851510387845, -26862.102968943476, 29357.2282024894, -187500.02235174447, -38885.128663197596, -16953.686410628132, -28482.425627997596, -43400.136339680714, -50987.413643290245, -12291.62660737355, -27005.57881660209, -31861.852927428834, -40907.447446280414, 0.02, 1.004, 0.114, 192.0, 0.0, 0.0, 0.0, 0.0, 0.0, 0.0, 0.0, 0.0, 0.0, 1.695333524708991E9, 0.0, 2023-09-21 16:58:44.708
222.0, 15471.139904396523, 9837.717990603209, -28027.388814376453, -41404.63964994426, -26860.806567765067, 29348.62278087411, -187500.02235174447, -38886.670933565016, -16951.83121583834, -28481.755075663936, -43396.87298499024, -50986.54192525648, -12293.593560885616, -27005.310595668627, -31864.468081530107, -40904.13938810103, 0.018000000000000002, 1.002, 0.116, 192.0, 0.0, 72.0, 15.5, 40.0, 1.5, 80.0, 0.0, 0.0, 0.0, 1.695333524709E9, 0.0, 2023-09-21 16:58:44.709
224.0, 15481.600520801607, 9850.458484942734, -28026.897075998437, -41394.71547540611, -26854.07869268402, 29364.80544385975, -187500.02235174447, -38875.31624738172, -16949.394875692713, -28485.376058265694, -43398.70582803558, -50987.61480899034, -12289.972578283856, -27002.762496800722, -31864.26691583001, -40907.1568736025, 0.018000000000000002, 1.002, 0.116, 192.0, 0.0, 0.0, 0.0, 0.0, 0.0, 0.0, 0.0, 0.0, 0.0, 1.695333524769207E9, 0.0, 2023-09-21 16:58:44.769
226.0, 15478.58303530014, 9849.340897719967, -28022.06909919609, -41393.93316435017, -26847.060244925055, 29345.560591883732, -187500.02235174447, -38874.10925318113, -16945.17039599066, -28474.915441860612, -43391.4415110876, -50978.51764899703, -12287.178610226943, -26996.660470564424, -31857.427282026685, -40895.71278044138, 0.018000000000000002, 1.002, 0.116, 192.0, 0.0, 0.0, 0.0, 0.0, 0.0, 0.0, 0.0, 0.0, 0.0, 1.695333524769239E9, 0.0, 2023-09-21 16:58:44.769
228.0, 15476.146695154512, 9849.609118653432, -28028.461698110306, -41396.280097517985, -26854.950410717778, 29370.974525329417, -187500.02235174447, -38876.21031715993, -16952.054733282894, -28487.298308288853, -43399.15286292468, -50987.95008515717, -12296.029901031245, -26999.119162454506, -31854.342741291854, -40899.423170020964, 0.018000000000000002, 1.002, 0.116, 192.0, 0.0, 0.0, 0.0, 0.0, 0.0, 0.0, 0.0, 0.0, 0.0, 1.695333524769285E9, 0.0, 2023-09-21 16:58:44.769
230.0, 15483.567474313675, 9855.241758256168, -28019.521000328186, -41395.83306262887, -26852.357608360962, 29359.262211234836, -187500.02235174447, -38877.17144217151, -16947.919660558662, -28477.329430261783, -43395.37541811173, -50982.67507346572, -12290.374909684053, -26996.861636264523, -31858.321351804898, -40899.199652576404, 0.018000000000000002, 1.002, 0.116, 192.0, 0.0, 0.0, 0.0, 0.0, 0.0, 0.0, 0.0, 0.0, 0.0, 1.695333524769295E9, 0.0, 2023-09-21 16:58:44.769
232.0, 15466.401334571998, 9835.28165045758, -28031.725052800783, -41410.49580699156, -26860.292477642593, 29380.026981833817, -187500.02235174447, -38882.334695140686, -16948.746675103506, -28496.529578748894, -43397.78940651291, -50992.33102707041, -12281.881246791036, -27003.29893866765, -31853.60513372483, -40902.26184156678, 0.022, 1.002, 0.12, 192.0, 0.0, 88.0, 15.5, 40.0, 1.5, 96.0, 0.0, 0.0, 0.0, 1.695333524769304E9, 0.0, 2023-09-21 16:58:44.769
234.0, 15481.48876207933, 9851.66547914332, -28025.623026564484, -41401.778626653984, -26846.233230380207, 29353.51781290982, -187500.02235174447, -38872.343465369166, -16951.29477397141, -28508.17483761011, -43403.33263913782, -51002.56812603094, -12290.28550270623, -27010.518552126712, -31866.50209027554, -40905.83812067963, 0.022, 1.002, 0.12, 192.0, 0.0, 0.0, 0.0, 0.0, 0.0, 0.0, 0.0, 0.0, 0.0, 1.695333524769314E9, 0.0, 2023-09-21 16:58:44.769
236.0, 15474.49266606482, 9847.597461652455, -28042.431538394874, -41408.14887382375, -26856.17975666282, 29371.399208474068, -187500.02235174447, -38873.17047991401, -16942.555241889386, -28496.171950837608, -43396.0459704454, -50991.28049508101, -12282.931778780436, -26998.38155488748, -31850.74411043455, -40895.645725208014, 0.022, 1.002, 0.12, 192.0, 0.0, 0.0, 0.0, 0.0, 0.0, 0.0, 0.0, 0.0, 0.0, 1.695333524769323E9, 0.0, 2023-09-21 16:58:44.769
238.0, 15477.510151566286, 9854.146522777859, -28034.92135225789, -41403.49971097705, -26854.726893273222, 29374.684914908998, -187500.02235174447, -38876.76911077131, -16952.948803061106, -28498.407125283138, -43405.97014498355, -50995.303809082965, -12289.838467817124, -27005.221188690804, -31866.30092457544, -40901.54658574422, 0.022, 1.002, 0.12, 192.0, 0.0, 0.0, 0.0, 0.0, 0.0, 0.0, 0.0, 0.0, 0.0, 1.695333524769332E9, 0.0, 2023-09-21 16:58:44.769
240.0, 15484.036860947235, 9860.829694369995, -28026.56179983161, -41401.75627490953, -26852.82699499452, 29374.05906606425, -187500.02235174447, -38877.149090427054, -16945.192747735113, -28490.20403506804, -43398.3929036132, -50986.3854630453, -12292.543028896216, -27001.376688644494, -31855.370921536796, -40901.14425434402, 0.022, 1.002, 0.12, 192.0, 0.0, 0.0, 0.0, 0.0, 0.0, 0.0, 0.0, 0.0, 0.0, 1.695333524829108E9, 0.0, 2023-09-21 16:58:44.829
242.0, 15477.554855055198, 9859.421534469311, -28033.334378401563, -41408.350039523844, -26853.721064772733, 29368.67229565052, -187500.02235174447, -38880.099520695156, -16941.392951177713, -28486.001907110443, -43395.06249368936, -50983.36797754383, -12286.798630571204, -27003.34364215656, -31856.846136670847, -40901.14425434402, 0.024, 1.008, 0.116, 192.0, 0.0, 96.0, 15.5, 64.0, 1.5, 80.0, 0.0, 0.0, 0.0, 1.695333524829148E9, 0.0, 2023-09-21 16:58:44.829
244.0, 15481.555817312697, 9866.462333972733, -28028.93108474387, -41409.892309891264, -26854.056340939565, 29375.176653287013, -187500.02235174447, -38879.674837550505, -16951.272422226957, -28492.30509904684, -43403.556156582374, -50989.04532063548, -12288.944398038913, -27011.189104460373, -31857.516689004504, -40907.08981836913, 0.024, 1.008, 0.116, 192.0, 0.0, 0.0, 0.0, 0.0, 0.0, 0.0, 0.0, 0.0, 0.0, 1.695333524829159E9, 0.0, 2023-09-21 16:58:44.829
