%OpenBCI Raw EXG Data
%Number of channels = 16
%Sample Rate = 125 Hz
%Board = OpenBCI_GUI$BoardCytonSerialDaisy
Sample Index, EXG Channel 0, EXG Channel 1, EXG Channel 2, EXG Channel 3, EXG Channel 4, EXG Channel 5, EXG Channel 6, EXG Channel 7, EXG Channel 8, EXG Channel 9, EXG Channel 10, EXG Channel 11, EXG Channel 12, EXG Channel 13, EXG Channel 14, EXG Channel 15, Accel Channel 0, Accel Channel 1, Accel Channel 2, Other, Other, Other, Other, Other, Other, Other, Analog Channel 0, Analog Channel 1, Analog Channel 2, Timestamp, Other, Timestamp (Formatted)
208.0, 13048.590785096978, 36845.35316769519, -42597.50754803509, -45164.00190162682, -23973.452922517412, -26174.272736820312, -187500.02235174447, 5562.723346081179, -12306.825793603159, -33436.93565570541, -44772.332283536474, -40555.966264720715, -20536.69339855831, -24591.031621817547, -47196.73659762581, -32493.982612369375, -0.11, 1.004, 0.09, 192.0, 126.0, 72.0, 15.5, 48.0, 1.0, 104.0, 0.0, 0.0, 0.0, 1.695760985930778E9, 0.0, 2023-09-26 15:43:05.930
210.0, 13050.848311286964, 36855.00912129988, -42615.344240110426, -45182.03975940225, -23991.334318081656, -26182.56523401323, -187500.02235174447, 5658.724088516723, -12330.518642725783, -33451.397234368, -44781.697664463245, -40562.76119503513, -20544.091825973013, -24600.240540533134, -47199.91054533846, -32489.400504756035, -0.11, 1.004, 0.09, 192.0, 0.0, 0.0, 0.0, 0.0, 0.0, 0.0, 0.0, 0.0, 0.0, 1.69576098593082E9, 0.0, 2023-09-26 15:43:05.930
212.0, 13041.259412915637, 36836.211304212964, -42609.130455151855, -45175.021311643286, -23973.16234983949, -26174.272736820312, -187500.02235174447, 5569.048889762032, -12332.865575893591, -33451.978379723834, -44789.40901630033, -40577.89332603137, -20537.341599147512, -24595.501970708607, -47204.9396878409, -32494.630812958578, -0.11, 1.004, 0.09, 192.0, 0.0, 0.0, 0.0, 0.0, 0.0, 0.0, 0.0, 0.0, 0.0, 1.695760985930852E9, 0.0, 2023-09-26 15:43:05.930
214.0, 13050.401276397859, 36853.15392651009, -42614.07019067647, -45187.113605393606, -23986.215768601392, -26194.031678918804, -187500.02235174447, 5651.862102968944, -12328.48463398035, -33441.785984252216, -44794.080530891486, -40566.49393635916, -20548.852747541994, -24589.131723538845, -47201.83279536162, -32499.63760371657, -0.11, 1.004, 0.09, 192.0, 0.0, 0.0, 0.0, 0.0, 0.0, 0.0, 0.0, 0.0, 0.0, 1.695760985930865E9, 0.0, 2023-09-26 15:43:05.930
216.0, 13048.791950797076, 36847.43187992953, -42615.05366743251, -45171.91441916399, -23992.630719260065, -26176.66437347703, -187500.02235174447, 5582.705805624224, -12327.568212457683, -33445.16109766497, -44795.44398730326, -40574.764081807625, -20546.461110885277, -24610.29882553802, -47212.47222572234, -32500.844597917152, -0.11, 1.004, 0.09, 192.0, 0.0, 0.0, 0.0, 0.0, 0.0, 0.0, 0.0, 0.0, 0.0, 1.695760985930889E9, 0.0, 2023-09-26 15:43:05.930
218.0, 13064.39346842688, 36869.24718251791, -42603.453112060204, -45171.735605208356, -23983.5112075223, -26178.27369907781, -187500.02235174447, 5664.133210674908, -12326.070645579177, -33433.2923213592, -44784.17870809778, -40558.961398477724, -20562.263794215178, -24592.976223585156, -47205.83375761912, -32488.10410357763, -0.112, 0.998, 0.094, 192.0, 126.0, 64.0, 15.5, 24.0, 1.0, 120.0, 0.0, 0.0, 0.0, 1.695760985930904E9, 0.0, 2023-09-26 15:43:05.930
220.0, 13054.648107844367, 36849.376481697145, -42602.64844925982, -45166.57235223918, -23979.80081794272, -26172.641059475074, -187500.02235174447, 5562.835104803456, -12327.858785135602, -33433.4934870593, -44782.39056854136, -40563.2752851576, -20551.467901643267, -24584.43785720323, -47204.02326631824, -32489.936946622962, -0.112, 0.998, 0.094, 192.0, 0.0, 0.0, 0.0, 0.0, 0.0, 0.0, 0.0, 0.0, 0.0, 1.695760985930914E9, 0.0, 2023-09-26 15:43:05.930
222.0, 13065.645166116377, 36875.32685700976, -42603.98955392713, -45174.306055820714, -23985.50051277882, -26170.94232689647, -187500.02235174447, 5632.885471926388, -12314.447738462417, -33426.81031546716, -44776.57911498298, -40554.625160053394, -20564.700134360806, -24577.933499566734, -47194.03203654671, -32486.204205298927, -0.112, 0.998, 0.094, 192.0, 0.0, 0.0, 0.0, 0.0, 0.0, 0.0, 0.0, 0.0, 0.0, 1.695760985930923E9, 0.0, 2023-09-26 15:43:05.930
224.0, 13060.705430591755, 36861.35701672519, -42607.61053652889, -45168.69576796243, -23980.27020457628, -26163.186271570477, -187500.02235174447, 5565.606721115914, -12311.854936105603, -33423.748126476785, -44783.19523134175, -40566.06925321451, -20561.995573281714, -24585.48838919263, -47198.79295811569, -32490.026353600784, -0.112, 0.998, 0.094, 192.0, 0.0, 0.0, 0.0, 0.0, 0.0, 0.0, 0.0, 0.0, 0.0, 1.695760985930932E9, 0.0, 2023-09-26 15:43:05.930
0.0, 6596.06684399448, 18346.222441938215, -21047.989552973457, -22585.051963931557, -12009.70405455876, -13078.318605222537, -93750.01117587223, 3850.6691277824793, -6158.017356159372, -16720.669474681556, -22395.218598272633, -20278.977784988616, -10280.617806985118, -12296.43223243144, -23599.888217435866, -16243.303268349562, -0.125, 0.996, 0.061, 192.0, 125.5, 88.0, 15.5, 8.0, 0.0, 112.0, 0.0, 0.0, 0.0, 1.695760986042333E9, 0.0, 2023-09-26 15:43:06.042
2.0, 13205.522382917688, 36710.48274165187, -42059.210486317934, -45124.528720918745, -24004.343033354646, -26131.737367121863, -187500.02235174447, 7703.99811315514, -12318.135776297544, -33474.91126953498, -44817.19223465827, -40725.8618743255, -20467.872377380416, -24454.88714634027, -47106.70377095983, -32509.00298464334, -0.125, 0.996, 0.061, 192.0, 0.0, 0.0, 0.0, 0.0, 0.0, 0.0, 0.0, 0.0, 0.0, 1.695760986102782E9, 0.0, 2023-09-26 15:43:06.102
4.0, 13203.063691027606, 36713.813151575705, -42061.28919855228, -45135.81635186868, -24006.93583571146, -26138.375835225088, -187500.02235174447, 7756.949395769763, -12321.712055410393, -33491.71978136537, -44796.74038848167, -40711.04266775163, -20468.028839591603, -24447.98045730358, -47097.07016909959, -32501.8727781621, -0.125, 0.996, 0.061, 192.0, 0.0, 0.0, 0.0, 0.0, 0.0, 0.0, 0.0, 0.0, 0.0, 1.695760986102823E9, 0.0, 2023-09-26 15:43:06.102
6.0, 13178.253254682215, 36689.60621233061, -42053.53314322628, -45145.02527058426, -24001.660824020008, -26142.913239349517, -187500.02235174447, 7696.577333995979, -12334.854881150113, -33495.36311571159, -44799.64611526085, -40723.62669987997, -20462.217386033226, -24438.190393232155, -47091.72810217478, -32503.95149039644, -0.125, 0.996, 0.061, 192.0, 0.0, 0.0, 0.0, 0.0, 0.0, 0.0, 0.0, 0.0, 0.0, 1.695760986102832E9, 0.0, 2023-09-26 15:43:06.102
8.0, 13176.42041163688, 36704.9618607714, -42070.00637888985, -45148.17686655246, -24009.662748535007, -26149.283486519278, -187500.02235174447, 7779.30114022507, -12327.702322924415, -33525.9626538709, -44804.65290601885, -40742.759793133715, -20469.168778558826, -24458.12814928629, -47096.55607897712, -32520.20120861545, -0.16, 0.994, -0.006, 192.0, 125.5, 0.0, 15.5, 8.0, 127.5, 104.0, 0.0, 0.0, 0.0, 1.695760986102885E9, 0.0, 2023-09-26 15:43:06.102
10.0, 13149.777132246154, 36670.65193303251, -42084.84793720817, -45159.86682890259, -24006.689966522452, -26143.337922494167, -187500.02235174447, 7722.281840119582, -12349.67408772398, -33507.23189201736, -44824.6800690508, -40755.32147351759, -20470.28636578159, -24486.023126366512, -47111.57645125109, -32522.928121438996, -0.16, 0.994, -0.006, 192.0, 0.0, 0.0, 0.0, 0.0, 0.0, 0.0, 0.0, 0.0, 0.0, 1.695760986102898E9, 0.0, 2023-09-26 15:43:06.102
12.0, 13144.479768810246, 36680.821976759675, -42100.47180658243, -45159.196276568924, -24008.813382245706, -26159.11825407961, -187500.02235174447, 7781.737480370699, -12370.394154834052, -33563.11125315562, -44818.91331898133, -40761.848182898546, -20478.15417982986, -24470.84629188136, -47100.17706157888, -32522.212865616428, -0.16, 0.994, -0.006, 192.0, 0.0, 0.0, 0.0, 0.0, 0.0, 0.0, 0.0, 0.0, 0.0, 1.69576098610291E9, 0.0, 2023-09-26 15:43:06.102
14.0, 13148.324268856559, 36664.97458994086, -42090.01119017735, -45155.68705268944, -24005.4159170885, -26155.877251133592, -187500.02235174447, 7694.699787461733, -12432.979039308912, -33519.100668323124, -44851.34570018598, -40775.192174338365, -20464.005525589648, -24488.995908379067, -47116.49383503125, -32537.412051846037, -0.16, 0.994, -0.006, 192.0, 0.0, 0.0, 0.0, 0.0, 0.0, 0.0, 0.0, 0.0, 0.0, 1.695760986102923E9, 0.0, 2023-09-26 15:43:06.102
16.0, 13172.106524957006, 36693.83069203266, -42079.01413190534, -45171.445032530435, -24002.241969375846, -26169.64592571806, -187500.02235174447, 7768.773468586621, -12291.201924228899, -33531.260017306806, -44794.05817914703, -40762.25051429874, -20501.467049296745, -24426.679244837673, -47098.09834934454, -32530.795935487266, -0.16, 0.994, -0.006, 192.0, 0.0, 0.0, 0.0, 0.0, 0.0, 0.0, 0.0, 0.0, 0.0, 1.695760986161648E9, 0.0, 2023-09-26 15:43:06.161
18.0, 13151.162940402382, 36671.14367141052, -42095.17444314652, -45147.819238641176, -24007.47227757839, -26146.087187062167, -187500.02235174447, 7688.240133314149, -12392.008291722334, -33507.76833388428, -44815.98524045769, -40751.02993858218, -20482.713935698743, -24500.328242817908, -47105.764997692706, -32512.266339333815, -0.182, 0.984, -0.03, 192.0, 125.0, 40.0, 15.0, 96.0, 127.5, 8.0, 0.0, 0.0, 0.0, 1.695760986161674E9, 0.0, 2023-09-26 15:43:06.161
20.0, 13180.779001805664, 36704.447770648934, -42108.47373109743, -45157.58695096814, -24011.674405535985, -26150.468128975408, -187500.02235174447, 7770.874532565419, -12338.63232596306, -33529.42717426147, -44806.083417663984, -40754.226238039286, -20483.943281643784, -24488.012431623036, -47110.88354717297, -32515.66380449102, -0.182, 0.984, -0.03, 192.0, 0.0, 0.0, 0.0, 0.0, 0.0, 0.0, 0.0, 0.0, 0.0, 1.695760986161684E9, 0.0, 2023-09-26 15:43:06.161
22.0, 13191.306673444114, 36687.54985184072, -42056.5282769833, -45139.25852051479, -23992.787181471253, -26135.0677770457, -187500.02235174447, 7710.100139391439, -12292.118345751565, -33503.096819293125, -44773.29340854805, -40748.03480482517, -20484.747944444174, -24503.815114952937, -47103.55217499163, -32517.362537069625, -0.182, 0.984, -0.03, 192.0, 0.0, 0.0, 0.0, 0.0, 0.0, 0.0, 0.0, 0.0, 0.0, 1.695760986161694E9, 0.0, 2023-09-26 15:43:06.161
24.0, 13165.803333020609, 36677.20099415791, -42095.2862018688, -45159.3080352912, -23999.7162222524, -26155.117291822113, -187500.02235174447, 7747.427552631802, -12376.071497925699, -33517.46899097788, -44794.415807058314, -40758.38366250797, -20470.46517973723, -24490.3817165353, -47099.394750522944, -32522.324624338704, -0.182, 0.984, -0.03, 192.0, 0.0, 0.0, 0.0, 0.0, 0.0, 0.0, 0.0, 0.0, 0.0, 1.695760986161703E9, 0.0, 2023-09-26 15:43:06.161
26.0, 13183.863542540497, 36668.21559288688, -42051.946169369956, -45136.73277339134, -23988.40623955801, -26152.211565042922, -187500.02235174447, 7725.858119232431, -12353.026849392278, -33521.04527009073, -44810.26319387713, -40772.040578370164, -20437.496356665655, -24467.13590230178, -47112.89520417395, -32543.558781571246, -0.182, 0.984, -0.03, 192.0, 0.0, 0.0, 0.0, 0.0, 0.0, 0.0, 0.0, 0.0, 0.0, 1.695760986161712E9, 0.0, 2023-09-26 15:43:06.161
28.0, 13202.437842182857, 36707.97934627287, -42043.81013438823, -45092.96805774785, -23993.36832682709, -26143.896716105548, -187500.02235174447, 7838.197986864804, -12331.993857859834, -33481.86266206058, -44786.70445522123, -40748.59359843655, -20506.518543543643, -24526.122155919333, -47105.94381164835, -32535.802726245252, -0.192, 0.982, -0.04, 192.0, 125.0, 0.0, 15.0, 88.0, 127.0, 96.0, 0.0, 0.0, 0.0, 1.69576098616172E9, 0.0, 2023-09-26 15:43:06.161
30.0, 13189.183257720859, 36688.48862510784, -42041.686718664976, -45097.147833961, -23986.104009879116, -26138.2193730139, -187500.02235174447, 7815.35450403148, -12263.709278548871, -33446.77042326575, -44769.113632334906, -40733.99790930723, -20500.81884870754, -24517.248513370578, -47101.987552879764, -32522.48108654989, -0.192, 0.982, -0.04, 192.0, 0.0, 0.0, 0.0, 0.0, 0.0, 0.0, 0.0, 0.0, 0.0, 1.695760986161765E9, 0.0, 2023-09-26 15:43:06.161
32.0, 13183.170638462381, 36695.93175601146, -42033.12600053859, -45105.082703242624, -23982.21480634389, -26144.56726843921, -187500.02235174447, 7866.070612200572, -12305.015302302278, -33515.92672061047, -44778.07668186149, -40755.54499096215, -20480.14348508638, -24520.869495972336, -47103.0157331247, -32534.863952978132, -0.192, 0.982, -0.04, 192.0, 0.0, 0.0, 0.0, 0.0, 0.0, 0.0, 0.0, 0.0, 0.0, 1.695760986221543E9, 0.0, 2023-09-26 15:43:06.221
34.0, 13158.851940495008, 36686.611078573595, -42040.971462842404, -45098.60069735059, -23983.533559266754, -26146.869498118103, -187500.02235174447, 7855.632347539944, -12313.285447750743, -33496.525406423265, -44778.903696406334, -40747.230142024775, -20463.603194189454, -24506.162048120743, -47102.32282904659, -32537.792031501776, -0.192, 0.982, -0.04, 192.0, 0.0, 0.0, 0.0, 0.0, 0.0, 0.0, 0.0, 0.0, 0.0, 1.695760986221563E9, 0.0, 2023-09-26 15:43:06.221
36.0, 13174.140533702439, 36713.88020680907, -42013.52352065129, -45078.90881048546, -23978.839692931142, -26149.216431285913, -187500.02235174447, 7877.760574550698, -12335.212509061397, -33469.05511248769, -44793.097054135455, -40750.15822054842, -20457.85879586444, -24474.802550649947, -47108.335448305064, -32547.425633362014, -0.192, 0.982, -0.04, 192.0, 0.0, 0.0, 0.0, 0.0, 0.0, 0.0, 0.0, 0.0, 0.0, 1.695760986221573E9, 0.0, 2023-09-26 15:43:06.221
38.0, 13173.5593883466, 36708.62754686207, -42015.35636369662, -45075.22077265034, -23982.63948948854, -26148.143547552056, -187500.02235174447, 7914.462138946312, -12266.369136139052, -33460.53909785022, -44759.92706536377, -40731.47216218378, -20435.75292059814, -24527.95499896467, -47104.289782558655, -32536.45092683446, -0.194, 0.998, -0.046, 192.0, 124.5, 120.0, 15.5, 24.0, 127.0, 72.0, 0.0, 0.0, 0.0, 1.695760986221582E9, 0.0, 2023-09-26 15:43:06.221
40.0, 13163.009364963695, 36699.59744210213, -42014.03761077376, -45075.98073196182, -23971.955355638907, -26140.342788737154, -187500.02235174447, 7913.3669034680015, -12336.263041050797, -33457.45455711539, -44792.58296401298, -40744.994967579245, -20473.4826652387, -24504.910350431248, -47113.14107336296, -32551.314836897236, -0.194, 0.998, -0.046, 192.0, 0.0, 0.0, 0.0, 0.0, 0.0, 0.0, 0.0, 0.0, 0.0, 1.695760986221591E9, 0.0, 2023-09-26 15:43:06.221
42.0, 13222.979095337283, 36733.86266635211, -41956.99595892381, -45044.129496113004, -23958.432550243444, -26134.285465989768, -187500.02235174447, 7957.824523189608, -12291.33603469563, -33442.88121973052, -44762.98925435415, -40724.163141746896, -20472.700354182765, -24512.599350523873, -47096.08669234356, -32534.998063444862, -0.194, 0.998, -0.046, 192.0, 0.0, 0.0, 0.0, 0.0, 0.0, 0.0, 0.0, 0.0, 0.0, 1.695760986221601E9, 0.0, 2023-09-26 15:43:06.221
44.0, 13217.078234801083, 36714.19313123145, -41971.72575851986, -45062.97201668883, -23965.02631485776, -26144.880192861583, -187500.02235174447, 7963.323052325613, -12200.811469651637, -33453.25242915779, -44742.00096631062, -40722.53146440166, -20462.44090347778, -24512.37583307932, -47081.5133549587, -32536.87560997911, -0.194, 0.998, -0.046, 192.0, 0.0, 0.0, 0.0, 0.0, 0.0, 0.0, 0.0, 0.0, 0.0, 1.69576098622161E9, 0.0, 2023-09-26 15:43:06.221
46.0, 13210.551525420133, 36707.800532317226, -41992.110549463105, -45087.35776988957, -23981.678364476964, -26162.292201792265, -187500.02235174447, 8013.837994794607, -12276.248607188298, -33514.87618862107, -44788.60435349993, -40756.93079911838, -20453.768426629118, -24521.00360643907, -47103.239250569255, -32561.26136317985, -0.194, 0.998, -0.046, 192.0, 0.0, 0.0, 0.0, 0.0, 0.0, 0.0, 0.0, 0.0, 0.0, 1.695760986281775E9, 0.0, 2023-09-26 15:43:06.281
48.0, 13219.648685413444, 36714.2154829759, -41979.57122082367, -45069.386967347506, -23976.425704529967, -26161.621649458608, -187500.02235174447, 8017.838957052107, -12291.671310862459, -33491.563319154186, -44796.025132659095, -40760.48472648677, -20464.877243623407, -24517.337920348396, -47108.067227371605, -32567.25163069387, -0.196, 1.004, -0.048, 192.0, 124.5, 112.0, 15.5, 48.0, 127.0, 64.0, 0.0, 0.0, 0.0, 1.69576098628184E9, 0.0, 2023-09-26 15:43:06.281
50.0, 13246.604889226544, 36743.63037867908, -41968.887086974035, -45055.0818508961, -23973.65408821751, -26156.95013486745, -187500.02235174447, 8101.881516204062, -12308.010436059289, -33435.99688243829, -44800.16020538333, -40748.43713622536, -20416.70923432222, -24543.824737527935, -47103.55217499163, -32566.849299293674, -0.196, 1.004, -0.048, 192.0, 0.0, 0.0, 0.0, 0.0, 0.0, 0.0, 0.0, 0.0, 0.0, 1.695760986281908E9, 0.0, 2023-09-26 15:43:06.281
52.0, 13242.447464757857, 36739.89763735505, -41941.59560699411, -45033.91474889693, -23961.539442722733, -26140.119271292602, -187500.02235174447, 8062.810666896185, -12238.60826952556, -33417.51198977375, -44777.33907429446, -40726.621833636986, -20477.595386218476, -24527.686778031206, -47089.42587249588, -32548.744386284878, -0.196, 1.004, -0.048, 192.0, 0.0, 0.0, 0.0, 0.0, 0.0, 0.0, 0.0, 0.0, 0.0, 1.695760986281928E9, 0.0, 2023-09-26 15:43:06.281
54.0, 13260.731191722298, 36749.08420432618, -41924.47417074134, -45041.22376933382, -23956.644410687022, -26140.36514048161, -187500.02235174447, 8116.410150100011, -12218.961086149346, -33432.28649285871, -44775.28271380457, -40726.398316192426, -20486.15610434486, -24526.055100685968, -47077.22182002328, -32543.089394937684, -0.196, 1.004, -0.048, 192.0, 0.0, 0.0, 0.0, 0.0, 0.0, 0.0, 0.0, 0.0, 0.0, 1.695760986281942E9, 0.0, 2023-09-26 15:43:06.281
56.0, 13247.610717727033, 36731.80630586223, -41926.955214375885, -45046.27526358071, -23964.825149157663, -26147.093015562656, -187500.02235174447, 8043.565814920165, -12217.172946592922, -33474.710103834885, -44780.40126328484, -40756.84139214056, -20465.927775612807, -24518.23199012661, -47082.92151485939, -32551.44894736397, -0.196, 1.004, -0.048, 192.0, 0.0, 0.0, 0.0, 0.0, 0.0, 0.0, 0.0, 0.0, 0.0, 1.695760986281952E9, 0.0, 2023-09-26 15:43:06.281
58.0, 13258.317203321125, 36745.70909091343, -41924.89885388599, -45043.57070250162, -23967.01562011428, -26150.825756886694, -187500.02235174447, 8114.599658799131, -12227.767673464738, -33433.314673103654, -44780.20009758474, -40735.94251107484, -20458.641106920375, -24522.702339017673, -47087.07893932807, -32549.571400829722, -0.194, 1.006, -0.046, 192.0, 124.5, 120.0, 15.5, 56.0, 127.0, 72.0, 0.0, 0.0, 0.0, 1.695760986281961E9, 0.0, 2023-09-26 15:43:06.281
60.0, 13231.09277857456, 36723.9161400695, -41919.735600916814, -45056.44530730788, -23974.637564973542, -26157.3748180121, -187500.02235174447, 8069.002100110305, -12251.66168828746, -33488.79170284173, -44805.09994090795, -40767.145546334454, -20445.207708502738, -24540.91901074875, -47103.37336103599, -32570.514985384347, -0.194, 1.006, -0.046, 192.0, 0.0, 0.0, 0.0, 0.0, 0.0, 0.0, 0.0, 0.0, 0.0, 1.69576098628197E9, 0.0, 2023-09-26 15:43:06.281
62.0, 13250.203520083847, 36757.04142535227, -41914.12531305854, -45044.64358623548, -23976.336297552145, -26150.445777230954, -187500.02235174447, 8143.61222310212, -12247.996002196789, -33445.205801153876, -44798.79674897155, -40753.0192438387, -20462.731476155695, -24507.57020802143, -47100.78055867917, -32566.20109870447, -0.194, 1.006, -0.046, 192.0, 0.0, 0.0, 0.0, 0.0, 0.0, 0.0, 0.0, 0.0, 0.0, 1.695760986341971E9, 0.0, 2023-09-26 15:43:06.341
64.0, 13247.923642149406, 36743.16099204552, -41891.97473430332, -45031.120780840014, -23969.87664340456, -26146.422463229, -187500.02235174447, 8076.400527525012, -12245.179682395421, -33446.50220233228, -44799.40024607185, -40755.410880495416, -20455.08717955198, -24518.813135482447, -47100.95937263482, -32564.502366125867, -0.194, 1.006, -0.046, 192.0, 0.0, 0.0, 0.0, 0.0, 0.0, 0.0, 0.0, 0.0, 0.0, 1.695760986341991E9, 0.0, 2023-09-26 15:43:06.341
66.0, 13258.227796343303, 36754.06864333971, -41885.31391445565, -45040.48616176679, -23968.289669548234, -26141.572134682196, -187500.02235174447, 8154.3857639295775, -12219.1846035939, -33456.78400478172, -44791.73359772368, -40750.15822054842, -20449.990981816172, -24533.65469380077, -47088.84472714004, -32557.97565674492, -0.194, 1.006, -0.046, 192.0, 0.0, 0.0, 0.0, 0.0, 0.0, 0.0, 0.0, 0.0, 0.0, 1.695760986342001E9, 0.0, 2023-09-26 15:43:06.342
68.0, 13251.857549173541, 36739.09297455466, -41868.080719480604, -45031.16548432893, -23963.08171309015, -26133.726672378383, -187500.02235174447, 8091.465603287888, -12255.595595311594, -33494.08906627764, -44803.69178100727, -40769.98421788028, -20447.733455626185, -24528.55849606496, -47088.97883760677, -32559.786148045798, -0.21, 1.004, -0.046, 192.0, 124.5, 56.0, 15.5, 48.0, 127.0, 72.0, 0.0, 0.0, 0.0, 1.69576098634201E9, 0.0, 2023-09-26 15:43:06.342
70.0, 13269.403668570956, 36763.14345158857, -41858.53652459819, -45028.46092324983, -23961.852367145108, -26129.524544420787, -187500.02235174447, 8150.720077838908, -12230.606345010561, -33430.5430567912, -44790.32543782299, -40739.9658250768, -20438.301019466046, -24513.00168192407, -47077.28887525664, -32551.136022941595, -0.21, 1.004, -0.046, 192.0, 0.0, 0.0, 0.0, 0.0, 0.0, 0.0, 0.0, 0.0, 0.0, 1.695760986342019E9, 0.0, 2023-09-26 15:43:06.342
72.0, 13256.551415509155, 36746.71491941392, -41861.95634149985, -45035.747591942265, -23967.17208232547, -26130.37391071009, -187500.02235174447, 8102.730882493363, -12229.84638569908, -33473.1007782341, -44804.988182185676, -40764.03865385517, -20439.06097877753, -24528.357330364863, -47089.02354109568, -32561.797805046775, -0.21, 1.004, -0.046, 192.0, 0.0, 0.0, 0.0, 0.0, 0.0, 0.0, 0.0, 0.0, 0.0, 1.695760986342057E9, 0.0, 2023-09-26 15:43:06.342
74.0, 13253.24335732977, 36753.442794494964, -41866.85137353556, -45042.944853656874, -23977.610346986097, -26134.71014913442, -187500.02235174447, 8161.337156455178, -12284.988139270323, -33463.35541765158, -44822.40019111636, -40767.27965680118, -20440.357379955934, -24520.13188840531, -47095.23732605426, -32562.133081213604, -0.21, 1.004, -0.046, 192.0, 0.0, 0.0, 0.0, 0.0, 0.0, 0.0, 0.0, 0.0, 0.0, 1.695760986342067E9, 0.0, 2023-09-26 15:43:06.342
76.0, 13264.396877812967, 36751.90052412755, -41829.5239602952, -45027.94683312736, -23961.047704344717, -26128.004625797825, -187500.02235174447, 8105.0778156611705, -12233.445016556385, -33460.53909785022, -44796.00278091464, -40759.41184275292, -20459.088141809483, -24510.252417356067, -47077.49004095674, -32548.856145007154, -0.21, 1.004, -0.046, 192.0, 0.0, 0.0, 0.0, 0.0, 0.0, 0.0, 0.0, 0.0, 0.0, 1.695760986402365E9, 0.0, 2023-09-26 15:43:06.402
78.0, 13282.412383843945, 36775.392207550074, -41817.43166654488, -45007.09265555056, -23962.70173343441, -26113.811268068705, -187500.02235174447, 8163.3041099672455, -12240.128188148521, -33444.60230405358, -44799.55670828304, -40748.50419145873, -20444.447749191255, -24512.353481334863, -47075.88071535596, -32543.62583680461, -0.214, 0.992, -0.034, 192.0, 124.5, 40.0, 15.5, 0.0, 127.0, 120.0, 0.0, 0.0, 0.0, 1.695760986402392E9, 0.0, 2023-09-26 15:43:06.402
80.0, 13267.012031914239, 36753.308684028234, -41830.73095449578, -45020.41429524592, -23962.478215989857, -26129.725710120885, -187500.02235174447, 8144.819217302706, -12232.95327817837, -33460.650856572494, -44801.5236617951, -40747.520714702696, -20439.48566192218, -24522.277655873022, -47079.25582876871, -32541.72593852591, -0.214, 0.992, -0.034, 192.0, 0.0, 0.0, 0.0, 0.0, 0.0, 0.0, 0.0, 0.0, 0.0, 1.695760986402403E9, 0.0, 2023-09-26 15:43:06.402
82.0, 13259.568901010622, 36749.35242525964, -41832.161466140926, -45027.231577304796, -23971.08363760515, -26135.69362589045, -187500.02235174447, 8188.203953290457, -12233.512071789752, -33469.27862993224, -44816.00759220214, -40762.675197443394, -20442.27962997909, -24526.010397197057, -47102.836919169065, -32549.683159551998, -0.214, 0.992, -0.034, 192.0, 0.0, 0.0, 0.0, 0.0, 0.0, 0.0, 0.0, 0.0, 0.0, 1.695760986402413E9, 0.0, 2023-09-26 15:43:06.402
84.0, 13273.158761639448, 36758.78486141979, -41819.68919273486, -45010.69128640786, -23964.154596824003, -26127.781108353272, -187500.02235174447, 8201.346779030178, -12277.634415344528, -33468.16104270948, -44827.94342374127, -40769.872459158, -20451.28738299458, -24522.344711106387, -47110.41416053941, -32544.564610071735, -0.214, 0.992, -0.034, 192.0, 0.0, 0.0, 0.0, 0.0, 0.0, 0.0, 0.0, 0.0, 0.0, 1.695760986402422E9, 0.0, 2023-09-26 15:43:06.402
86.0, 13277.115020408037, 36762.115271343624, -41813.45305603183, -45006.75737938373, -23962.657029945498, -26121.45556467242, -187500.02235174447, 8202.330255786212, -12214.915420402935, -33463.78010079623, -44802.93182169578, -40754.33799676156, -20437.116377009916, -24515.885056958803, -47097.159576077414, -32534.57338030021, -0.214, 0.992, -0.034, 192.0, 0.0, 0.0, 0.0, 0.0, 0.0, 0.0, 0.0, 0.0, 0.0, 1.695760986402431E9, 0.0, 2023-09-26 15:43:06.402
88.0, 13275.4833430628, 36763.0763963552, -41824.874797448494, -45010.19954802985, -23963.193471812425, -26120.44973617193, -187500.02235174447, 8235.120264902147, -12253.069848188145, -33424.61984451054, -44815.64996429085, -40747.1183833025, -20446.43705444778, -24532.42534785573, -47101.361704035015, -32532.941702954973, -0.21, 0.994, -0.028, 192.0, 124.5, 56.0, 15.5, 8.0, 127.5, 16.0, 0.0, 0.0, 0.0, 1.695760986402441E9, 0.0, 2023-09-26 15:43:06.402
90.0, 13270.72242149382, 36757.443756752466, -41810.70379146383, -45013.664068420425, -23957.471425231866, -26113.11836399059, -187500.02235174447, 8208.700502955973, -12270.437153629919, -33457.40985362647, -44818.35452536995, -40755.99202585126, -20432.131937996382, -24519.66250177175, -47092.30924753061, -32522.928121438996, -0.21, 0.994, -0.028, 192.0, 0.0, 0.0, 0.0, 0.0, 0.0, 0.0, 0.0, 0.0, 0.0, 1.69576098640245E9, 0.0, 2023-09-26 15:43:06.402
92.0, 13256.931395164895, 36758.494288741866, -41816.82816944458, -45018.53674871168, -23957.516128720777, -26116.426422169978, -187500.02235174447, 8252.487570343921, -12243.190377138899, -33469.56920261016, -44810.88904272188, -40752.66161592741, -20432.176641485294, -24527.99970245358, -47091.303419030126, -32524.224522617405, -0.21, 0.994, -0.028, 192.0, 0.0, 0.0, 0.0, 0.0, 0.0, 0.0, 0.0, 0.0, 0.0, 1.695760986461619E9, 0.0, 2023-09-26 15:43:06.461
94.0, 13241.24047055727, 36752.816945650215, -41820.78442821317, -45019.36376325652, -23967.775579425765, -26125.367119952098, -187500.02235174447, 8258.723707046951, -12315.632380918549, -33483.24847021681, -44842.15913321485, -40768.620761468504, -20429.315618195014, -24545.836394528913, -47101.45111101283, -32526.504400551847, -0.21, 0.994, -0.028, 192.0, 0.0, 0.0, 0.0, 0.0, 0.0, 0.0, 0.0, 0.0, 0.0, 1.695760986461676E9, 0.0, 2023-09-26 15:43:06.461
96.0, 13250.941127650873, 36766.116233601126, -41805.04880011664, -45022.56006271363, -23956.73381766484, -26108.938587777448, -187500.02235174447, 8329.64579220364, -12281.568322368661, -33435.10281266008, -44823.47307485021, -40749.28650251466, -20463.223214533715, -24552.720731821148, -47091.12460507448, -32510.791124199764, -0.21, 0.994, -0.028, 192.0, 0.0, 0.0, 0.0, 0.0, 0.0, 0.0, 0.0, 0.0, 0.0, 1.695760986461686E9, 0.0, 2023-09-26 15:43:06.461
98.0, 13246.023743870706, 36767.45733826844, -41799.75143668073, -45011.0265625747, -23952.554041451698, -26109.87736104457, -187500.02235174447, 8316.413559486098, -12289.726709094848, -33454.19120242491, -44833.39724938837, -40770.230087069285, -20459.691638909775, -24552.363103909865, -47092.197488808335, -32517.09431613616, -0.20800000000000002, 0.98, -0.022, 192.0, 124.5, 64.0, 15.0, 80.0, 127.5, 40.0, 0.0, 0.0, 0.0, 1.695760986461695E9, 0.0, 2023-09-26 15:43:06.461
100.0, 13224.029627326683, 36758.40488176404, -41809.630907729974, -45033.5794727301, -23955.996210097815, -26123.109593762114, -187500.02235174447, 8348.55536801283, -12296.499287664807, -33449.05030120019, -44827.85401676346, -40752.54985720514, -20454.170758029315, -24559.158034224278, -47094.38795976496, -32512.445153289456, -0.20800000000000002, 0.98, -0.022, 192.0, 0.0, 0.0, 0.0, 0.0, 0.0, 0.0, 0.0, 0.0, 0.0, 1.695760986461704E9, 0.0, 2023-09-26 15:43:06.461
102.0, 13220.699217402842, 36773.76053020484, -41781.49006146075, -44990.507661164724, -23946.295553004213, -26103.417706896988, -187500.02235174447, 8321.554460710819, -12277.612063600072, -33478.17462422545, -44827.25051966316, -40765.64797945595, -20442.838423590474, -24544.85291777288, -47090.05172134063, -32512.869836434107, -0.20800000000000002, 0.98, -0.022, 192.0, 0.0, 0.0, 0.0, 0.0, 0.0, 0.0, 0.0, 0.0, 0.0, 1.695760986461714E9, 0.0, 2023-09-26 15:43:06.461
104.0, 13228.030589584183, 36786.94805943347, -41781.17713703837, -44988.42894893038, -23943.680398902943, -26115.666462858495, -187500.02235174447, 8421.734979359506, -12280.026052001245, -33402.84924541107, -44822.82487426101, -40734.31083372961, -20438.256315977134, -24550.932592264726, -47081.647465425434, -32492.57445246869, -0.20800000000000002, 0.98, -0.022, 192.0, 0.0, 0.0, 0.0, 0.0, 0.0, 0.0, 0.0, 0.0, 0.0, 1.695760986461723E9, 0.0, 2023-09-26 15:43:06.461
106.0, 13198.70510085882, 36746.84902988065, -41794.364666267, -45010.49012070777, -23945.110910548083, -26129.1669165095, -187500.02235174447, 8380.764231772928, -12288.564418383172, -33467.937525264926, -44841.24271169218, -40776.71209296132, -20425.001731515138, -24580.302784478998, -47085.08963407155, -32513.18276085648, -0.20800000000000002, 0.98, -0.022, 192.0, 0.0, 0.0, 0.0, 0.0, 0.0, 0.0, 0.0, 0.0, 0.0, 1.695760986521507E9, 0.0, 2023-09-26 15:43:06.521
108.0, 13205.052996284128, 36769.3795882916, -41790.87779413197, -45010.11014105203, -23943.948619836407, -26123.31075946221, -187500.02235174447, 8482.732889978039, -12288.966749783367, -33531.125906840076, -44862.49922066918, -40784.06581688712, -20455.24364176317, -24581.44272344622, -47091.906916130414, -32518.882455692587, -0.216, 0.974, -0.016, 192.0, 124.5, 32.0, 15.0, 56.0, 127.5, 64.0, 0.0, 0.0, 0.0, 1.695760986521531E9, 0.0, 2023-09-26 15:43:06.521
110.0, 13186.36693791949, 36757.42140500801, -41784.70871266231, -44994.776844355685, -23946.20614602639, -26121.388509439053, -187500.02235174447, 8422.673752626628, -12314.447738462417, -33426.89972244498, -44857.22420897773, -40744.72674664578, -20423.705330336732, -24557.660467345773, -47089.828203896075, -32500.86694966161, -0.216, 0.974, -0.016, 192.0, 0.0, 0.0, 0.0, 0.0, 0.0, 0.0, 0.0, 0.0, 0.0, 1.695760986521542E9, 0.0, 2023-09-26 15:43:06.521
112.0, 13201.700234615832, 36773.738178460386, -41769.64363689943, -44997.59316415706, -23942.138128535527, -26122.416689684, -187500.02235174447, 8507.96800946808, -12299.136793510532, -33401.91047214394, -44855.86075256595, -40735.38371746346, -20406.919170250796, -24589.981089828147, -47095.907878387916, -32495.077847847686, -0.216, 0.974, -0.016, 192.0, 0.0, 0.0, 0.0, 0.0, 0.0, 0.0, 0.0, 0.0, 0.0, 1.695760986521552E9, 0.0, 2023-09-26 15:43:06.521
114.0, 13192.290150200148, 36762.71876844392, -41763.45220368531, -44992.3181524656, -23931.342235963613, -26105.809343553705, -187500.02235174447, 8465.566750236363, -12293.705319607892, -33439.30494061767, -44855.50312465467, -40746.53723794666, -20432.33310369648, -24559.00157201309, -47087.570677706084, -32491.456865245924, -0.216, 0.974, -0.016, 192.0, 0.0, 0.0, 0.0, 0.0, 0.0, 0.0, 0.0, 0.0, 0.0, 1.695760986521561E9, 0.0, 2023-09-26 15:43:06.521
116.0, 13208.405757952423, 36769.3795882916, -41750.10821224549, -44993.748664110746, -23928.995302795807, -26101.11547721809, -187500.02235174447, 8546.770637842494, -12328.797558402724, -33437.89678071699, -44861.471040424236, -40734.66846164089, -20440.312676467023, -24591.053973562, -47078.54057294614, -32477.531728450267, -0.216, 0.974, -0.016, 192.0, 0.0, 0.0, 0.0, 0.0, 0.0, 0.0, 0.0, 0.0, 0.0, 1.695760986521638E9, 0.0, 2023-09-26 15:43:06.521
118.0, 13198.772156092187, 36762.27173355481, -41756.92549430436, -44986.30553320712, -23931.87867783054, -26106.16697146499, -187500.02235174447, 8494.042872672424, -12267.03968847271, -33443.32825461963, -44841.24271169218, -40735.763697119204, -20394.491600333644, -24578.33583096693, -47078.33940724604, -32486.159501810016, -0.222, 0.98, -0.012, 192.0, 124.5, 8.0, 15.0, 80.0, 127.5, 80.0, 0.0, 0.0, 0.0, 1.695760986521648E9, 0.0, 2023-09-26 15:43:06.521
120.0, 13213.054920799128, 36782.99180066488, -41736.093668472015, -44977.5660011251, -23918.73585209082, -26093.20295968091, -187500.02235174447, 8559.30996648192, -12272.672328075449, -33446.94923722139, -44845.042508249586, -40720.72097310078, -20399.27487364708, -24586.605976415394, -47084.79906139363, -32485.108969820616, -0.222, 0.98, -0.012, 192.0, 0.0, 0.0, 0.0, 0.0, 0.0, 0.0, 0.0, 0.0, 0.0, 1.695760986521658E9, 0.0, 2023-09-26 15:43:06.521
122.0, 13175.638100580944, 36747.20665779193, -41772.07997704506, -45009.037257318174, -23948.575430938654, -26114.280654702266, -187500.02235174447, 8502.223611143067, -12280.651900845993, -33460.96378099487, -44852.999729275674, -40730.95807206131, -20418.787946556564, -24585.06370604798, -47085.111985816, -32484.37136225359, -0.222, 0.98, -0.012, 192.0, 0.0, 0.0, 0.0, 0.0, 0.0, 0.0, 0.0, 0.0, 0.0, 1.695760986581792E9, 0.0, 2023-09-26 15:43:06.581
124.0, 13197.073423513582, 36772.397073793065, -41754.466802414274, -44993.27927747718, -23932.281009230737, -26116.426422169978, -187500.02235174447, 8598.045539622968, -12337.268869551286, -33456.49343210381, -44885.05213082459, -40743.69856640084, -20424.152365225837, -24588.57292992746, -47105.273259314694, -32507.371307298105, -0.222, 0.98, -0.012, 192.0, 0.0, 0.0, 0.0, 0.0, 0.0, 0.0, 0.0, 0.0, 0.0, 1.695760986581816E9, 0.0, 2023-09-26 15:43:06.581
126.0, 13208.04813004114, 36771.19007959248, -41740.83223829654, -44976.96250402481, -23921.395709681, -26096.26514867129, -187500.02235174447, 8585.483859239086, -12261.630566314527, -33409.51006525875, -44841.466229136735, -40706.192339204834, -20392.32348112148, -24582.38149671334, -47075.52308744468, -32479.409274984515, -0.222, 0.98, -0.012, 192.0, 0.0, 0.0, 0.0, 0.0, 0.0, 0.0, 0.0, 0.0, 0.0, 1.695760986581826E9, 0.0, 2023-09-26 15:43:06.581
128.0, 13197.922789802884, 36768.30670455774, -41745.43669765433, -44983.37745468348, -23926.40250043899, -26100.288462673245, -187500.02235174447, 8653.23199668312, -12287.603293371594, -33440.53428656272, -44865.00261604817, -40724.67723186937, -20420.71019657972, -24588.01413631608, -47088.420043995386, -32490.13811232306, -0.216, 0.978, -0.006, 192.0, 124.5, 32.0, 15.0, 72.0, 127.5, 104.0, 0.0, 0.0, 0.0, 1.695760986581835E9, 0.0, 2023-09-26 15:43:06.581
130.0, 13177.336833159547, 36741.95399784494, -41753.97506403626, -44999.35895196902, -23932.616285397566, -26112.805439568216, -187500.02235174447, 8634.545938318484, -12321.667351921482, -33490.95982205389, -44867.52836317162, -40743.09506930054, -20410.13782145236, -24607.616616203384, -47085.60372419402, -32497.424781015492, -0.216, 0.978, -0.006, 192.0, 0.0, 0.0, 0.0, 0.0, 0.0, 0.0, 0.0, 0.0, 0.0, 1.695760986581845E9, 0.0, 2023-09-26 15:43:06.581
132.0, 13202.571952649589, 36756.817907907716, -41732.249168425704, -44980.00234127073, -23927.36362545057, -26100.467276628886, -187500.02235174447, 8648.269909414043, -12378.64194853806, -33436.62273128304, -44883.6439709239, -40731.94154881735, -20427.639237360865, -24584.370801969864, -47092.6668754419, -32503.549158996244, -0.216, 0.978, -0.006, 192.0, 0.0, 0.0, 0.0, 0.0, 0.0, 0.0, 0.0, 0.0, 0.0, 1.695760986581853E9, 0.0, 2023-09-26 15:43:06.581
134.0, 13208.718682374798, 36754.98506486238, -41715.44065659531, -44972.80507955612, -23910.91274153146, -26092.1077242026, -187500.02235174447, 8638.301031386976, -12235.61313576855, -33445.04933894269, -44838.44874363527, -40720.96684228979, -20404.70634754972, -24609.427107504263, -47070.806869364606, -32485.108969820616, -0.216, 0.978, -0.006, 192.0, 0.0, 0.0, 0.0, 0.0, 0.0, 0.0, 0.0, 0.0, 0.0, 1.695760986581862E9, 0.0, 2023-09-26 15:43:06.581
136.0, 13208.115185274504, 36759.58952422017, -41722.481456098736, -44967.19479169784, -23919.384052680023, -26087.4585613559, -187500.02235174447, 8628.533319060007, -12291.0007585288, -33427.77144047874, -44845.98128151671, -40719.1116475, -20409.444917374243, -24580.280432734544, -47068.88461934145, -32477.352914494626, -0.216, 0.978, -0.006, 192.0, 0.0, 0.0, 0.0, 0.0, 0.0, 0.0, 0.0, 0.0, 0.0, 1.695760986642114E9, 0.0, 2023-09-26 15:43:06.642
138.0, 13213.837231855063, 36757.55551547474, -41733.14323820391, -44973.00624525622, -23933.26448598677, -26098.388564394543, -187500.02235174447, 8681.015215041067, -12319.253363520309, -33444.80346975368, -44852.507990897655, -40723.09025801304, -20398.98430096916, -24584.393153714318, -47079.56875319109, -32484.6172314426, -0.218, 0.99, 0.002, 192.0, 124.5, 24.0, 15.0, 120.0, 0.0, 8.0, 0.0, 0.0, 0.0, 1.69576098664215E9, 0.0, 2023-09-26 15:43:06.642
140.0, 13211.177374264882, 36752.70518692794, -41710.67973502633, -44965.42900388587, -23923.608532382077, -26088.620852067575, -187500.02235174447, 8657.881159529825, -12294.62174113056, -33436.91330396096, -44843.25436869316, -40719.37986843346, -20412.03771973106, -24584.750781625604, -47073.44437521033, -32474.46953945989, -0.218, 0.99, 0.002, 192.0, 0.0, 0.0, 0.0, 0.0, 0.0, 0.0, 0.0, 0.0, 0.0, 1.695760986642162E9, 0.0, 2023-09-26 15:43:06.642
142.0, 13213.99369406625, 36753.375739261595, -41719.88865374192, -44976.9178005359, -23927.475384172845, -26095.97457599337, -187500.02235174447, 8729.339686553441, -12313.464261706384, -33449.47498434484, -44847.769421073135, -40721.97267079028, -20433.85302231944, -24605.24733129112, -47079.63580842446, -32484.326658764683, -0.218, 0.99, 0.002, 192.0, 0.0, 0.0, 0.0, 0.0, 0.0, 0.0, 0.0, 0.0, 0.0, 1.695760986642173E9, 0.0, 2023-09-26 15:43:06.642
144.0, 13199.532115403666, 36735.98608207537, -41729.23168292423, -44977.27542844718, -23931.610456897077, -26097.583901594153, -187500.02235174447, 8694.158040780789, -12308.457470948395, -33460.092062961114, -44855.100793254474, -40736.255435497216, -20402.5158765931, -24595.233749775143, -47079.948732846824, -32486.67359193249, -0.218, 0.99, 0.002, 192.0, 0.0, 0.0, 0.0, 0.0, 0.0, 0.0, 0.0, 0.0, 0.0, 1.695760986642183E9, 0.0, 2023-09-26 15:43:06.642
146.0, 13212.406720209923, 36750.090032826665, -41727.10826720098, -44971.352216166524, -23933.398596453502, -26097.44979112742, -187500.02235174447, 8749.1656838853, -12346.433084777962, -33457.96864723786, -44861.471040424236, -40727.04651678164, -20423.682978592275, -24608.801258659514, -47084.575543949075, -32485.466597731902, -0.218, 0.99, 0.002, 192.0, 0.0, 0.0, 0.0, 0.0, 0.0, 0.0, 0.0, 0.0, 0.0, 1.695760986642192E9, 0.0, 2023-09-26 15:43:06.642
148.0, 13216.497089445245, 36749.240666537364, -41708.422208836346, -44961.94213175084, -23922.78151783723, -26083.569357820674, -187500.02235174447, 8714.878107890858, -12290.151392239499, -33438.54498130619, -44846.428316405814, -40725.124266758474, -20410.584856341466, -24604.554427213006, -47078.138241545945, -32478.939888350953, -0.21, 0.994, 0.006, 192.0, 124.5, 56.0, 15.5, 8.0, 0.0, 24.0, 0.0, 0.0, 0.0, 1.695760986642202E9, 0.0, 2023-09-26 15:43:06.642
150.0, 13205.65649338442, 36744.435041479475, -41739.82640979605, -44988.18307974137, -23938.49479418931, -26103.417706896988, -187500.02235174447, 8786.381338403386, -12339.593450974638, -33449.31852213365, -44856.93363629981, -40727.650013881925, -20406.74035629515, -24597.804200387505, -47077.64650316793, -32480.057475573718, -0.21, 0.994, 0.006, 192.0, 0.0, 0.0, 0.0, 0.0, 0.0, 0.0, 0.0, 0.0, 0.0, 1.695760986642211E9, 0.0, 2023-09-26 15:43:06.642
152.0, 13205.94706606234, 36732.25334075133, -41702.96838318925, -44971.82160280009, -23922.22272422585, -26092.890035258537, -187500.02235174447, 8715.213384057688, -12320.43800597644, -33461.58962983962, -44859.54879040108, -40743.385641978464, -20429.315618195014, -24616.177334329765, -47074.96429383329, -32482.449112230435, -0.21, 0.994, 0.006, 192.0, 0.0, 0.0, 0.0, 0.0, 0.0, 0.0, 0.0, 0.0, 0.0, 1.695760986702379E9, 0.0, 2023-09-26 15:43:06.702
154.0, 13212.987865565761, 36744.07741356819, -41703.951859945286, -44977.70011159183, -23921.01573002526, -26084.999869465813, -187500.02235174447, 8798.630094364893, -12325.53420371225, -33474.01719975677, -44858.00652003366, -40735.070793041086, -20409.020234229592, -24606.230808047156, -47068.281122241155, -32472.52493769228, -0.21, 0.994, 0.006, 192.0, 0.0, 0.0, 0.0, 0.0, 0.0, 0.0, 0.0, 0.0, 0.0, 1.695760986702401E9, 0.0, 2023-09-26 15:43:06.702
156.0, 13216.653551656433, 36741.55166644474, -41694.720589485245, -44956.73417529275, -23910.845686298097, -26082.31766013118, -187500.02235174447, 8733.094779621933, -12301.439023189429, -33444.11056567557, -44839.07459248002, -40730.242816238744, -20383.11456240589, -24575.76538035457, -47056.72527035776, -32461.438472442445, -0.21, 0.994, 0.006, 192.0, 0.0, 0.0, 0.0, 0.0, 0.0, 0.0, 0.0, 0.0, 0.0, 1.695760986702411E9, 0.0, 2023-09-26 15:43:06.702
158.0, 13217.18999352336, 36747.787803147774, -41713.16077866087, -44983.75743433922, -23921.865096314563, -26103.484762130352, -187500.02235174447, 8832.60474593696, -12320.080378065155, -33460.00265598329, -44849.35639492946, -40729.259339482705, -20425.024083259595, -24608.689499937238, -47062.22379949377, -32464.165385265995, -0.212, 0.998, 0.016, 192.0, 124.5, 48.0, 15.5, 24.0, 0.0, 64.0, 0.0, 0.0, 0.0, 1.695760986702461E9, 0.0, 2023-09-26 15:43:06.702
160.0, 13180.354318661013, 36718.59642488914, -41734.841970782516, -44992.94400131035, -23927.005997539283, -26112.87249480158, -187500.02235174447, 8741.052000648022, -12365.610881520615, -33459.645028072, -44866.81310734905, -40748.05715656962, -20419.03381574557, -24600.35229925541, -47076.01482582269, -32481.175062796483, -0.212, 0.998, 0.016, 192.0, 0.0, 0.0, 0.0, 0.0, 0.0, 0.0, 0.0, 0.0, 0.0, 1.695760986702474E9, 0.0, 2023-09-26 15:43:06.702
162.0, 13217.301752245636, 36765.28921905628, -41691.52429002813, -44963.57380909608, -23914.846648555595, -26088.665555556483, -187500.02235174447, 8848.049801355577, -12351.931613913968, -33450.1455366785, -44866.74605211569, -40732.366231962, -20420.821955301995, -24605.984938858146, -47076.23834326724, -32473.597821426134, -0.212, 0.998, 0.016, 192.0, 0.0, 0.0, 0.0, 0.0, 0.0, 0.0, 0.0, 0.0, 0.0, 1.695760986702489E9, 0.0, 2023-09-26 15:43:06.702
164.0, 13192.334853689057, 36735.494343697355, -41703.102493655984, -44970.56990511059, -23915.740718333807, -26089.939604990435, -187500.02235174447, 8777.127716198887, -12296.164011497976, -33469.14451946551, -44843.58964485999, -40726.93475805935, -20401.08536494796, -24593.803238130004, -47063.09551752752, -32456.94577180693, -0.212, 0.998, 0.016, 192.0, 0.0, 0.0, 0.0, 0.0, 0.0, 0.0, 0.0, 0.0, 0.0, 1.695760986702498E9, 0.0, 2023-09-26 15:43:06.702
166.0, 13190.65847285491, 36748.905390370535, -41708.422208836346, -44990.23944023126, -23916.791250323207, -26097.3603841496, -187500.02235174447, 8848.385077522407, -12333.9608113719, -33458.57214433815, -44858.677072367325, -40729.125229015975, -20399.632501558364, -24594.004403830102, -47075.143107788936, -32459.002132296817, -0.212, 0.998, 0.016, 192.0, 0.0, 0.0, 0.0, 0.0, 0.0, 0.0, 0.0, 0.0, 0.0, 1.6957609867618E9, 0.0, 2023-09-26 15:43:06.761
168.0, 13182.768307062186, 36745.195000790955, -41708.17633964734, -44974.97319876828, -23927.318921961658, -26098.053288227715, -187500.02235174447, 8806.542611902072, -12345.91899465549, -33475.42535965745, -44870.29997948408, -40739.51879018769, -20403.52170509359, -24593.1550375408, -47091.75045391923, -32464.366550966093, -0.202, 0.986, 0.024, 192.0, 124.5, 88.0, 15.0, 104.0, 0.0, 96.0, 0.0, 0.0, 0.0, 1.695760986761823E9, 0.0, 2023-09-26 15:43:06.761
170.0, 13178.767344804686, 36758.762509675325, -41698.98977267621, -44972.827431300575, -23928.12358476205, -26095.147561448524, -187500.02235174447, 8867.987557409711, -12348.556500501216, -33439.126126662035, -44861.76161310216, -40717.099990499024, -20404.594588827444, -24588.304708993997, -47088.621209695484, -32443.93705653394, -0.202, 0.986, 0.024, 192.0, 0.0, 0.0, 0.0, 0.0, 0.0, 0.0, 0.0, 0.0, 0.0, 1.695760986761834E9, 0.0, 2023-09-26 15:43:06.761
172.0, 13159.768362017676, 36753.375739261595, -41706.11997915745, -44976.00137901323, -23931.364587708067, -26096.756887049305, -187500.02235174447, 8840.137283818398, -12375.333890358674, -33454.012388469266, -44874.323293486035, -40721.078601012065, -20403.588760326955, -24585.71190663718, -47091.52693647468, -32443.914704789488, -0.202, 0.986, 0.024, 192.0, 0.0, 0.0, 0.0, 0.0, 0.0, 0.0, 0.0, 0.0, 0.0, 1.695760986761843E9, 0.0, 2023-09-26 15:43:06.761
174.0, 13172.687670312844, 36773.35819880464, -41677.442691021286, -44958.32114914908, -23920.009901524772, -26084.59753806562, -187500.02235174447, 8911.729921308746, -12379.625425294093, -33427.48086780082, -44875.507935942165, -40710.930909029354, -20432.71308335222, -24584.72842988115, -47090.74462541874, -32436.225704696863, -0.202, 0.986, 0.024, 192.0, 0.0, 0.0, 0.0, 0.0, 0.0, 0.0, 0.0, 0.0, 0.0, 1.695760986761852E9, 0.0, 2023-09-26 15:43:06.761
176.0, 13174.94519650283, 36765.15510858955, -41672.77117643013, -44959.77401253868, -23908.83402929712, -26078.428456595953, -187500.02235174447, 8885.198400640298, -12311.542011683228, -33475.44771140191, -44856.53130489961, -40720.07277251158, -20377.37016408088, -24594.876121863857, -47077.17711653437, -32423.954596990898, -0.202, 0.986, 0.024, 192.0, 0.0, 0.0, 0.0, 0.0, 0.0, 0.0, 0.0, 0.0, 0.0, 1.695760986761861E9, 0.0, 2023-09-26 15:43:06.761
178.0, 13167.256196410204, 36761.69058819897, -41683.812938191055, -44970.726367321775, -23919.36170093557, -26081.177721163956, -187500.02235174447, 8875.967130180255, -12312.592543672627, -33435.080460915626, -44848.75289782917, -40710.12624622897, -20399.878370747374, -24567.38347618383, -47068.88461934145, -32415.215064908873, -0.192, 0.986, 0.032, 192.0, 125.0, 0.0, 15.0, 104.0, 0.5, 0.0, 0.0, 0.0, 0.0, 1.69576098676187E9, 0.0, 2023-09-26 15:43:06.761
180.0, 13166.31742314308, 36757.086128841176, -41692.15013887288, -44977.49894589173, -23921.82039282565, -26086.78800902224, -187500.02235174447, 8868.345185320995, -12419.523289146817, -33470.41856889946, -44895.33393327403, -40741.59750242204, -20416.061033733014, -24602.810991145492, -47095.75141617673, -32439.62316985407, -0.192, 0.986, 0.032, 192.0, 0.0, 0.0, 0.0, 0.0, 0.0, 0.0, 0.0, 0.0, 0.0, 1.695760986761913E9, 0.0, 2023-09-26 15:43:06.761
182.0, 13168.440838866334, 36773.82758543821, -41682.42713003482, -44954.18607642485, -23921.507468403277, -26076.662668783985, -187500.02235174447, 8886.539505307615, -12303.115404023578, -33434.3428533486, -44849.02111876263, -40710.886205540446, -20387.04846943003, -24578.49229317812, -47077.13241304546, -32419.528951588745, -0.192, 0.986, 0.032, 192.0, 0.0, 0.0, 0.0, 0.0, 0.0, 0.0, 0.0, 0.0, 0.0, 1.695760986823662E9, 0.0, 2023-09-26 15:43:06.823
184.0, 13156.594414305022, 36775.34750406117, -41692.843042951, -44961.18217243936, -23927.050701028194, -26085.178683421458, -187500.02235174447, 8907.058406717588, -12394.824611523702, -33450.41375761196, -44873.563334174556, -40714.931871286855, -20404.572237082986, -24571.67501111925, -47084.0614538266, -32426.815620281177, -0.192, 0.986, 0.032, 192.0, 0.0, 0.0, 0.0, 0.0, 0.0, 0.0, 0.0, 0.0, 0.0, 1.695760986823689E9, 0.0, 2023-09-26 15:43:06.823
186.0, 13161.712963785287, 36767.636152224084, -41678.44851952178, -44964.73609980776, -23924.949637049394, -26075.790950750226, -187500.02235174447, 8905.650246816904, -12345.91899465549, -33451.1960686679, -44854.9890345322, -40714.864816053494, -20419.95023726824, -24579.72163912316, -47079.23347702426, -32418.768992277266, -0.192, 0.986, 0.032, 192.0, 0.0, 0.0, 0.0, 0.0, 0.0, 0.0, 0.0, 0.0, 0.0, 1.695760986823699E9, 0.0, 2023-09-26 15:43:06.823
188.0, 13168.552597588612, 36782.745931475874, -41671.76534792964, -44968.53589636516, -23922.06626201466, -26083.16702642048, -187500.02235174447, 8950.286680494151, -12327.568212457683, -33445.67518778744, -44852.41858391984, -40712.18260671885, -20412.976492998183, -24577.508816422083, -47080.97691309177, -32420.803001022698, -0.184, 0.974, 0.03, 192.0, 125.0, 32.0, 15.0, 56.0, 0.0, 120.0, 0.0, 0.0, 0.0, 1.695760986823708E9, 0.0, 2023-09-26 15:43:06.823
190.0, 13173.537036602145, 36772.64294298207, -41677.39798753238, -44975.37553016848, -23920.59104688061, -26083.50230258731, -187500.02235174447, 8899.123537435953, -12345.851939422124, -33475.693580590916, -44854.02790952062, -40733.72968837377, -20412.37299589789, -24583.67789789175, -47081.446299725336, -32425.60862608059, -0.184, 0.974, 0.03, 192.0, 0.0, 0.0, 0.0, 0.0, 0.0, 0.0, 0.0, 0.0, 0.0, 1.695760986823718E9, 0.0, 2023-09-26 15:43:06.823
192.0, 13185.897551285929, 36786.00928616634, -41693.044208651096, -44968.647655087436, -23930.604628396588, -26088.576148578664, -187500.02235174447, 8936.115674509487, -12362.571044274693, -33432.28649285871, -44865.29318872609, -40718.217577721785, -20395.363318367403, -24571.227976230144, -47093.739759175754, -32433.096460473116, -0.184, 0.974, 0.03, 192.0, 0.0, 0.0, 0.0, 0.0, 0.0, 0.0, 0.0, 0.0, 0.0, 1.695760986823727E9, 0.0, 2023-09-26 15:43:06.823
194.0, 13187.640987353443, 36774.8781174276, -41694.295906340594, -44968.53589636516, -23924.346139949103, -26071.722933259363, -187500.02235174447, 8854.598862480982, -12383.626387551592, -33448.357397122076, -44865.7402236152, -40726.86770282599, -20402.158248681815, -24566.601165127893, -47093.22566905328, -32424.8039632802, -0.184, 0.974, 0.03, 192.0, 0.0, 0.0, 0.0, 0.0, 0.0, 0.0, 0.0, 0.0, 0.0, 1.695760986823736E9, 0.0, 2023-09-26 15:43:06.823
196.0, 13214.351321977536, 36800.80614099576, -41678.44851952178, -44968.02180624269, -23927.050701028194, -26072.035857681734, -187500.02235174447, 8927.599659872016, -12355.77611396028, -33463.26601067377, -44856.50895315516, -40728.52173191568, -20436.356417698433, -24571.429141930243, -47090.69992192983, -32426.636806325532, -0.184, 0.974, 0.03, 192.0, 0.0, 0.0, 0.0, 0.0, 0.0, 0.0, 0.0, 0.0, 0.0, 1.695760986882519E9, 0.0, 2023-09-26 15:43:06.882
198.0, 13210.439766697857, 36787.30568734476, -41675.22986832022, -44964.020843985185, -23918.31116894617, -26061.508186043287, -187500.02235174447, 8878.828153470535, -12350.67991622447, -33429.44782131288, -44844.55076987157, -40719.67044111138, -20424.733510581675, -24577.24059548862, -47075.903067100415, -32413.002242207796, -0.182, 0.974, 0.04, 192.0, 125.0, 40.0, 15.0, 56.0, 0.5, 32.0, 0.0, 0.0, 0.0, 1.695760986882542E9, 0.0, 2023-09-26 15:43:06.882
200.0, 13215.804185367131, 36781.71775123093, -41699.72738024323, -44987.55723089662, -23931.92338131945, -26069.95714544739, -187500.02235174447, 8973.91247438341, -12360.313518084708, -33473.25724044529, -44875.88791559791, -40734.9143308299, -20429.4720804062, -24584.750781625604, -47087.794195150644, -32425.005128980298, -0.182, 0.974, 0.04, 192.0, 0.0, 0.0, 0.0, 0.0, 0.0, 0.0, 0.0, 0.0, 0.0, 1.695760986882553E9, 0.0, 2023-09-26 15:43:06.882
202.0, 13223.604944182032, 36782.2318413534, -41683.99175214669, -44946.29591063213, -23916.43362241192, -26043.604438734586, -187500.02235174447, 8911.215831186275, -12315.788843129736, -33459.890897261015, -44862.32040671354, -40738.915293087404, -20438.837461332972, -24569.886871562823, -47077.19946827883, -32415.70680328689, -0.182, 0.974, 0.04, 192.0, 0.0, 0.0, 0.0, 0.0, 0.0, 0.0, 0.0, 0.0, 0.0, 1.695760986882595E9, 0.0, 2023-09-26 15:43:06.882
204.0, 13220.967438336307, 36785.80812046625, -41725.45423811129, -44971.486326633254, -23935.79023311022, -26055.674380740453, -187500.02235174447, 8975.991186617755, -12368.762477488814, -33437.583856294616, -44871.01523530665, -40712.830807308055, -20403.767574282596, -24552.497214376595, -47084.59789569353, -32406.386125849025, -0.182, 0.974, 0.04, 192.0, 0.0, 0.0, 0.0, 0.0, 0.0, 0.0, 0.0, 0.0, 0.0, 1.695760986882607E9, 0.0, 2023-09-26 15:43:06.882
206.0, 13232.679752430888, 36778.677913985004, -41696.82165346404, -44966.05485273062, -23919.428756168934, -26043.20210733439, -187500.02235174447, 8908.33245615154, -12385.436878852473, -33470.23975494382, -44888.18137504833, -40744.48087745677, -20466.017182590625, -24583.566139169474, -47109.117759361005, -32428.782573793244, -0.182, 0.974, 0.04, 192.0, 0.0, 0.0, 0.0, 0.0, 0.0, 0.0, 0.0, 0.0, 0.0, 1.69576098688262E9, 0.0, 2023-09-26 15:43:06.882
208.0, 13248.90711890544, 36798.123931661125, -41702.14136864441, -44949.60396881151, -23919.11583174656, -26032.249752551288, -187500.02235174447, 8971.364375515506, -12305.037654046733, -33419.45659154136, -44851.21158971925, -40711.7579235742, -20443.039589290573, -24546.328132906932, -47083.882639870964, -32393.869148954054, -0.178, 0.978, 0.04, 192.0, 125.0, 56.0, 15.0, 72.0, 0.5, 32.0, 0.0, 0.0, 0.0, 1.695760986882629E9, 0.0, 2023-09-26 15:43:06.882
210.0, 13246.984868882284, 36783.32707683171, -41700.15206338788, -44954.923683991874, -23918.042948012706, -26037.278895053732, -187500.02235174447, 8913.518060865172, -12315.744139640825, -33416.08147812861, -44856.218380477236, -40711.28853694064, -20439.955048555737, -24560.834415058427, -47096.89135514395, -32398.585367034124, -0.178, 0.978, 0.04, 192.0, 0.0, 0.0, 0.0, 0.0, 0.0, 0.0, 0.0, 0.0, 0.0, 1.695760986882638E9, 0.0, 2023-09-26 15:43:06.882
212.0, 13242.827444413597, 36777.96265816244, -41709.76331350367, -44969.60878009901, -23918.221761968347, -26043.2468108233, -187500.02235174447, 8971.811410404613, -12338.118235840588, -33455.17467918094, -44869.67413063933, -40725.973633047775, -20413.222362187193, -24571.853825074893, -47098.701846444834, -32406.02849793774, -0.178, 0.978, 0.04, 192.0, 0.0, 0.0, 0.0, 0.0, 0.0, 0.0, 0.0, 0.0, 0.0, 1.695760986941383E9, 0.0, 2023-09-26 15:43:06.941
214.0, 13238.625316455998, 36770.18425109199, -41719.41926710836, -44955.2589601587, -23917.841782312607, -26034.596685719098, -187500.02235174447, 8903.727996793747, -12300.835526089137, -33424.10575438807, -44857.604188633464, -40721.860912068005, -20419.70436807923, -24549.412673641764, -47094.41031150941, -32395.41141932147, -0.178, 0.978, 0.04, 192.0, 0.0, 0.0, 0.0, 0.0, 0.0, 0.0, 0.0, 0.0, 0.0, 1.695760986941404E9, 0.0, 2023-09-26 15:43:06.941
216.0, 13248.795360183163, 36777.69443722897, -41722.481456098736, -44965.831335286064, -23922.423889925944, -26039.87169741055, -187500.02235174447, 8973.91247438341, -12369.053050166733, -33432.30884460316, -44874.70327314178, -40722.59851963503, -20461.591537188477, -24553.391284154808, -47105.42972152588, -32398.764180989765, -0.178, 0.978, 0.04, 192.0, 0.0, 0.0, 0.0, 0.0, 0.0, 0.0, 0.0, 0.0, 0.0, 1.695760986941413E9, 0.0, 2023-09-26 15:43:06.941
218.0, 13250.181168339393, 36767.94907664646, -41729.14227594641, -44973.877963289975, -23927.34127370611, -26047.560697503173, -187500.02235174447, 8952.812427617602, -12346.991878389344, -33470.66443808847, -44865.226133492724, -40737.373022719985, -20449.007505060137, -24566.3999994278, -47112.962259407315, -32408.37543110555, -0.164, 0.98, 0.038, 192.0, 125.0, 112.0, 15.0, 80.0, 0.5, 24.0, 0.0, 0.0, 0.0, 1.695760986941422E9, 0.0, 2023-09-26 15:43:06.941
220.0, 13267.727287736809, 36793.05008566977, -41700.28617385461, -44951.83914325704, -23915.986587522817, -26030.796889161695, -187500.02235174447, 8996.152460116442, -12322.851994377614, -33442.43418484142, -44849.75872632965, -40721.32447020108, -20426.09696699345, -24533.3417693784, -47103.35100929153, -32400.17234089045, -0.164, 0.98, 0.038, 192.0, 0.0, 0.0, 0.0, 0.0, 0.0, 0.0, 0.0, 0.0, 0.0, 1.695760986941432E9, 0.0, 2023-09-26 15:43:06.941
222.0, 13247.342496793568, 36774.85576568315, -41715.23949089521, -44953.91785549139, -23921.395709681, -26033.16617407396, -187500.02235174447, 8964.927073112378, -12346.231919077865, -33424.016347410245, -44838.180522701805, -40700.62675483546, -20425.493469893154, -24541.209583426666, -47091.929267874875, -32382.715628470854, -0.164, 0.98, 0.038, 192.0, 0.0, 0.0, 0.0, 0.0, 0.0, 0.0, 0.0, 0.0, 0.0, 1.695760986941474E9, 0.0, 2023-09-26 15:43:06.941
224.0, 13251.052886373149, 36779.14730061857, -41697.31339184206, -44953.62728281347, -23903.87194202804, -26029.23226704982, -187500.02235174447, 9005.696654998857, -12341.87332890908, -33415.74620196178, -44855.74899384368, -40713.858987553, -20422.36422566941, -24562.153167981287, -47093.44918649783, -32386.761294217267, -0.164, 0.98, 0.038, 192.0, 0.0, 0.0, 0.0, 0.0, 0.0, 0.0, 0.0, 0.0, 0.0, 1.695760986941486E9, 0.0, 2023-09-26 15:43:06.941
226.0, 13257.758409709742, 36777.917954673525, -41709.76331350367, -44959.0140532272, -23910.510410131268, -26038.95527588788, -187500.02235174447, 8999.549925273648, -12338.118235840588, -33428.26317885675, -44852.30682519756, -40718.32933644406, -20444.4253974468, -24556.0958452339, -47089.336465518056, -32387.02951515073, -0.164, 0.98, 0.038, 192.0, 0.0, 0.0, 0.0, 0.0, 0.0, 0.0, 0.0, 0.0, 0.0, 1.695760987001755E9, 0.0, 2023-09-26 15:43:07.001
228.0, 13266.319127836125, 36786.2328036109, -41710.657383281876, -44960.77984103916, -23918.221761968347, -26039.983456132824, -187500.02235174447, 9024.673286041414, -12331.770340415282, -33432.73352774781, -44832.61493833244, -40709.81332180659, -20432.780138585586, -24553.637153343818, -47089.42587249588, -32383.676753482432, -0.164, 0.988, 0.042, 192.0, 125.0, 112.0, 15.0, 112.0, 0.5, 40.0, 0.0, 0.0, 0.0, 1.695760987001789E9, 0.0, 2023-09-26 15:43:07.001
230.0, 13262.09464813407, 36784.95875417695, -41725.56599683357, -44971.39691965544, -23926.78248009473, -26045.325523057643, -187500.02235174447, 9045.54981536267, -12356.603128505127, -33459.399158882996, -44850.04929900757, -40727.20297899282, -20441.452615434246, -24572.34556345291, -47108.38015179398, -32400.820541479654, -0.164, 0.988, 0.042, 192.0, 0.0, 0.0, 0.0, 0.0, 0.0, 0.0, 0.0, 0.0, 0.0, 1.6957609870018E9, 0.0, 2023-09-26 15:43:07.001
232.0, 13260.015935899728, 36780.35429481915, -41715.95474671778, -44967.08303297556, -23922.02155852575, -26035.20018281939, -187500.02235174447, 9032.094065200576, -12380.966529961412, -33434.61107428206, -44856.12897349942, -40721.704449856814, -20442.212574745725, -24542.595391582894, -47098.478329000274, -32388.102398884585, -0.164, 0.988, 0.042, 192.0, 0.0, 0.0, 0.0, 0.0, 0.0, 0.0, 0.0, 0.0, 0.0, 1.695760987001809E9, 0.0, 2023-09-26 15:43:07.001
234.0, 13276.176247140915, 36791.351353091166, -41708.98100244773, -44951.146239178925, -23909.705747330874, -26031.71331068436, -187500.02235174447, 9073.578902909625, -12341.761570186804, -33415.835608939604, -44840.61686284743, -40714.10485674201, -20418.922057023294, -24545.031731728523, -47097.20427956632, -32382.82738719313, -0.164, 0.988, 0.042, 192.0, 0.0, 0.0, 0.0, 0.0, 0.0, 0.0, 0.0, 0.0, 0.0, 1.695760987001818E9, 0.0, 2023-09-26 15:43:07.001
236.0, 13249.24239507227, 36779.99666690787, -41710.03153443713, -44958.29879740463, -23907.96231126336, -26028.762880416263, -187500.02235174447, 9021.8793179845, -12317.44287221943, -33437.33798710561, -44833.39724938837, -40714.44013290884, -20434.009484530627, -24548.42919688573, -47089.09059632905, -32368.432863763916, -0.164, 0.988, 0.042, 192.0, 0.0, 0.0, 0.0, 0.0, 0.0, 0.0, 0.0, 0.0, 0.0, 1.695760987001827E9, 0.0, 2023-09-26 15:43:07.001
238.0, 13259.703011477353, 36788.400922823064, -41719.12869443044, -44963.70791956281, -23919.16053523547, -26037.591819476107, -187500.02235174447, 9077.043423300198, -12355.77611396028, -33462.23783042882, -44851.56921763053, -40730.242816238744, -20443.508975924135, -24557.839281301414, -47104.62505872548, -32388.5941372626, -0.166, 0.99, 0.038, 192.0, 125.0, 104.0, 15.0, 120.0, 0.5, 24.0, 0.0, 0.0, 0.0, 1.695760987001836E9, 0.0, 2023-09-26 15:43:07.001
240.0, 13251.991659640273, 36779.728445974404, -41708.46691232525, -44950.095707189525, -23910.152782219982, -26026.550057715187, -187500.02235174447, 9026.55083257566, -12347.81889293419, -33391.67337318342, -44835.27479592262, -40714.57424337557, -20437.85398457694, -24545.679932317726, -47093.806814409116, -32374.26666906675, -0.166, 0.99, 0.038, 192.0, 0.0, 0.0, 0.0, 0.0, 0.0, 0.0, 0.0, 0.0, 0.0, 1.695760987001845E9, 0.0, 2023-09-26 15:43:07.001
242.0, 13257.62429924301, 36780.5331087748, -41721.81090376507, -44959.88577126095, -23916.970064278852, -26032.897953140495, -187500.02235174447, 9074.875304088033, -12340.196948074932, -33419.85892294156, -44850.31751994104, -40720.54215914514, -20436.691693865265, -24556.699342334196, -47104.580355236576, -32380.03341913622, -0.166, 0.99, 0.038, 192.0, 0.0, 0.0, 0.0, 0.0, 0.0, 0.0, 0.0, 0.0, 0.0, 1.695760987062045E9, 0.0, 2023-09-26 15:43:07.062
244.0, 13255.389124797479, 36773.738178460386, -41722.12382818745, -44955.2589601587, -23911.73975607631, -26023.91255186946, -187500.02235174447, 9003.774404975702, -12342.163901586999, -33414.85213218357, -44853.558522887055, -40726.57713014807, -20417.580952355976, -24542.237763671612, -47098.54538423364, -32376.770064445744, -0.166, 0.99, 0.038, 192.0, 0.0, 0.0, 0.0, 0.0, 0.0, 0.0, 0.0, 0.0, 0.0, 1.695760987062094E9, 0.0, 2023-09-26 15:43:07.062
246.0, 13255.970270153317, 36769.603105736154, -41739.111153973485, -44977.49894589173, -23923.899105059994, -26034.44022350791, -187500.02235174447, 9074.763545365757, -12342.275660309275, -33425.87154220004, -44854.43024092081, -40722.15148474592, -20424.46528964821, -24540.539031093005, -47102.211070324316, -32378.98288714682, -0.166, 0.99, 0.038, 192.0, 0.0, 0.0, 0.0, 0.0, 0.0, 0.0, 0.0, 0.0, 0.0, 1.695760987062105E9, 0.0, 2023-09-26 15:43:07.062
248.0, 13259.121866121515, 36775.973352905916, -41719.62043280846, -44969.07233823209, -23913.393785166, -26027.95821761587, -187500.02235174447, 9032.630507067503, -12334.720770683381, -33462.57310659565, -44862.27570322463, -40755.00854909522, -20447.28642073708, -24550.977295753633, -47110.74943670624, -32391.611622764067, -0.162, 0.992, 0.042, 192.0, 125.0, 120.0, 15.5, 0.0, 0.5, 40.0, 0.0, 0.0, 0.0, 1.695760987062114E9, 0.0, 2023-09-26 15:43:07.062
250.0, 13271.10240114956, 36795.7322950044, -41714.7477525172, -44952.37558512397, -23911.73975607631, -26033.00971186277, -187500.02235174447, 9131.268755348772, -12311.229087260854, -33393.61797495103, -44838.64990933537, -40712.58493811905, -20441.184394500782, -24543.15418519428, -47097.427797010874, -32375.808939434166, -0.162, 0.992, 0.042, 192.0, 0.0, 0.0, 0.0, 0.0, 0.0, 0.0, 0.0, 0.0, 0.0, 1.695760987062124E9, 0.0, 2023-09-26 15:43:07.062
252.0, 13242.402761268946, 36759.34365503117, -41737.3006626726, -44967.26184693121, -23920.702805602887, -26031.86977289555, -187500.02235174447, 9051.31656543214, -12345.024924877278, -33418.85309444107, -44857.268912466636, -40732.276824984176, -20441.787891601074, -24560.297973191497, -47101.38405577947, -32382.179186603928, -0.162, 0.992, 0.042, 192.0, 0.0, 0.0, 0.0, 0.0, 0.0, 0.0, 0.0, 0.0, 0.0, 1.695760987062132E9, 0.0, 2023-09-26 15:43:07.062
254.0, 13257.445485287368, 36779.79550120777, -41748.40947966689, -44970.52520162168, -23930.62698014104, -26036.116604342056, -187500.02235174447, 9130.307630337194, -12401.060748226733, -33433.42643182593, -44877.72075864324, -40738.40120296493, -20439.79858634455, -24561.594374369906, -47112.42581754039, -32388.527082029235, -0.162, 0.992, 0.042, 192.0, 0.0, 0.0, 0.0, 0.0, 0.0, 0.0, 0.0, 0.0, 0.0, 1.695760987062141E9, 0.0, 2023-09-26 15:43:07.062
0.0, 13264.843912702074, 36776.28627732829, -41719.35221187499, -44951.48151534576, -23901.86028502706, -26023.376110002533, -187500.02235174447, 9070.673176130436, -12314.783014629247, -33430.11837364655, -44857.961816544754, -40731.24864473923, -20426.611057115922, -24555.514699878062, -47104.42389302539, -32381.195709847896, -0.162, 0.992, 0.042, 192.0, 0.0, 0.0, 0.0, 0.0, 0.0, 0.0, 0.0, 0.0, 0.0, 1.695760987122288E9, 0.0, 2023-09-26 15:43:07.122
2.0, 13259.457142288345, 36783.4835390429, -41733.523217859656, -44966.16661145289, -23911.516238631757, -26036.42952876443, -187500.02235174447, 9138.622479274569, -12322.606125188604, -33425.51391428875, -44842.71792682623, -40717.68113585486, -20427.50512689413, -24545.90344976228, -47088.50945097321, -32370.489224253804, -0.17, 0.988, 0.042, 192.0, 125.0, 88.0, 15.0, 112.0, 0.5, 40.0, 0.0, 0.0, 0.0, 1.695760987122313E9, 0.0, 2023-09-26 15:43:07.122
4.0, 13243.140368835971, 36770.653637725554, -41736.250130683205, -44963.08207071806, -23917.93118929043, -26039.826993921637, -187500.02235174447, 9083.860705359068, -12399.45142262595, -33433.180562636924, -44874.27858999713, -40741.46339195531, -20420.46432739071, -24565.058894760477, -47113.74457046325, -32393.31035534267, -0.17, 0.988, 0.042, 192.0, 0.0, 0.0, 0.0, 0.0, 0.0, 0.0, 0.0, 0.0, 0.0, 1.695760987122324E9, 0.0, 2023-09-26 15:43:07.122
6.0, 13257.28902307618, 36784.26585009883, -41722.23558690972, -44963.05971897361, -23908.744622319296, -26032.20504906238, -187500.02235174447, 9155.296880638229, -12326.115349068088, -33443.57412380864, -44853.424412420325, -40730.10870577201, -20444.58185965799, -24560.700304591694, -47088.84472714004, -32375.27249756724, -0.17, 0.988, 0.042, 192.0, 0.0, 0.0, 0.0, 0.0, 0.0, 0.0, 0.0, 0.0, 0.0, 1.695760987122333E9, 0.0, 2023-09-26 15:43:07.122
8.0, 13239.362924023024, 36757.287294541275, -41741.03340399664, -44980.80700407112, -23911.560942120665, -26040.698711955396, -187500.02235174447, 9093.159031052475, -12344.801407432726, -33450.23494365632, -44867.617770149445, -40739.07175529859, -20435.104720008938, -24576.145360010312, -47096.35491327702, -32384.30260232718, -0.17, 0.988, 0.042, 192.0, 0.0, 0.0, 0.0, 0.0, 0.0, 0.0, 0.0, 0.0, 0.0, 1.695760987122342E9, 0.0, 2023-09-26 15:43:07.122
10.0, 13251.298755562158, 36782.544765775776, -41740.54166561862, -44969.675835332375, -23919.4958114023, -26045.638447480018, -187500.02235174447, 9169.19966568943, -12362.481637296873, -33431.90651320297, -44873.04924405208, -40738.75883087621, -20427.32631293849, -24578.447589689207, -47102.03225636867, -32390.09170414111, -0.17, 0.988, 0.042, 192.0, 0.0, 0.0, 0.0, 0.0, 0.0, 0.0, 0.0, 0.0, 0.0, 1.695760987122385E9, 0.0, 2023-09-26 15:43:07.122
12.0, 13248.035400871684, 36775.973352905916, -41753.438622169335, -44976.78369006916, -23929.084709773626, -26044.766729446263, -187500.02235174447, 9133.61568851658, -12375.199779891942, -33454.794699525206, -44866.991921304696, -40738.691775642845, -20449.968630071715, -24569.23867097362, -47107.75430294923, -32390.963422174864, -0.166, 0.992, 0.048, 192.0, 125.0, 104.0, 15.5, 0.0, 0.5, 64.0, 0.0, 0.0, 0.0, 1.695760987122394E9, 0.0, 2023-09-26 15:43:07.122
14.0, 13236.636011199476, 36775.79453895027, -41749.81763956758, -44958.567018338086, -23913.460840399366, -26029.969874616847, -187500.02235174447, 9153.32992712616, -12373.054012424232, -33422.04939389818, -44874.56916267505, -40728.72289761578, -20440.536193911576, -24568.456359917684, -47113.14107336296, -32385.12961687203, -0.166, 0.992, 0.048, 192.0, 0.0, 0.0, 0.0, 0.0, 0.0, 0.0, 0.0, 0.0, 0.0, 1.695760987122403E9, 0.0, 2023-09-26 15:43:07.122
16.0, 13261.312337078136, 36785.830472210706, -41718.122865929945, -44944.5077710757, -23893.29956690068, -26014.524819198232, -187500.02235174447, 9134.24153736133, -12350.478750524373, -33431.437126569406, -44856.39719443288, -40720.72097310078, -20415.546943610545, -24560.0968074914, -47084.75435790472, -32365.705950940366, -0.166, 0.992, 0.048, 192.0, 0.0, 0.0, 0.0, 0.0, 0.0, 0.0, 0.0, 0.0, 0.0, 1.695760987184171E9, 0.0, 2023-09-26 15:43:07.184
18.0, 13247.789531682674, 36778.0297133958, -41727.44354336781, -44962.79149804014, -23902.843761783097, -26021.25269427928, -187500.02235174447, 9148.300784623718, -12328.462282235896, -33447.15040292149, -44852.61974961993, -40724.40901093591, -20426.745167582652, -24556.274659189545, -47081.60276193652, -32362.73316892781, -0.166, 0.992, 0.048, 192.0, 0.0, 0.0, 0.0, 0.0, 0.0, 0.0, 0.0, 0.0, 0.0, 1.695760987184192E9, 0.0, 2023-09-26 15:43:07.184
20.0, 13249.197691583358, 36782.120082631125, -41723.5990433215, -44954.99073922524, -23903.87194202804, -26020.179810545425, -187500.02235174447, 9146.847921234123, -12326.495328723828, -33416.21558859535, -44845.75776407216, -40720.788028334144, -20433.6742083638, -24554.754740566583, -47076.819488623085, -32360.49799448228, -0.166, 0.992, 0.048, 192.0, 0.0, 0.0, 0.0, 0.0, 0.0, 0.0, 0.0, 0.0, 0.0, 1.695760987184202E9, 0.0, 2023-09-26 15:43:07.184
22.0, 13232.679752430888, 36775.4816145279, -41745.77197382116, -44968.26767543169, -23918.825259068642, -26032.652083951485, -187500.02235174447, 9155.587453316148, -12387.73910853137, -33441.853039485584, -44865.04731953709, -40727.15827550391, -20440.603249144944, -24576.86061583288, -47092.55511671962, -32369.75161668678, -0.166, 0.992, 0.05, 192.0, 125.0, 104.0, 15.5, 0.0, 0.5, 72.0, 0.0, 0.0, 0.0, 1.695760987184211E9, 0.0, 2023-09-26 15:43:07.184
24.0, 13242.71568569132, 36786.61278326664, -41743.2015232088, -44960.26575091669, -23903.581369350122, -26026.95238911538, -187500.02235174447, 9183.616540863102, -12354.479712781873, -33444.512897075765, -44862.856848580464, -40725.8618743255, -20440.4244351893, -24574.80425534299, -47096.93605863286, -32374.490186511302, -0.166, 0.992, 0.05, 192.0, 0.0, 0.0, 0.0, 0.0, 0.0, 0.0, 0.0, 0.0, 0.0, 1.695760987184221E9, 0.0, 2023-09-26 15:43:07.184
26.0, 13218.911077846418, 36761.86940215462, -41755.87496231496, -44971.2628091887, -23907.78349730772, -26022.772612902238, -187500.02235174447, 9137.259022862796, -12367.466076310406, -33438.343815606095, -44866.991921304696, -40729.92989181637, -20441.877298578896, -24556.34171442291, -47090.386997507456, -32363.895459639487, -0.166, 0.992, 0.05, 192.0, 0.0, 0.0, 0.0, 0.0, 0.0, 0.0, 0.0, 0.0, 0.0, 1.69576098718423E9, 0.0, 2023-09-26 15:43:07.184
28.0, 13243.162720580427, 36793.89945195907, -41721.006240964685, -44944.574826309065, -23898.01578498075, -26010.76972612974, -187500.02235174447, 9182.67776759598, -12379.044279938254, -33430.297187602184, -44862.230999735715, -40720.58686263405, -20417.64800758934, -24557.302839434487, -47085.89429687194, -32357.391102002992, -0.166, 0.992, 0.05, 192.0, 0.0, 0.0, 0.0, 0.0, 0.0, 0.0, 0.0, 0.0, 0.0, 1.695760987184238E9, 0.0, 2023-09-26 15:43:07.184
30.0, 13222.107377303528, 36784.064684398734, -41719.62043280846, -44945.44654434283, -23897.16641869145, -26012.043775563692, -187500.02235174447, 9154.29105213774, -12346.67895396697, -33421.62471075353, -44847.8364763065, -40707.22051944977, -20425.64993210434, -24561.572022625453, -47071.857401354006, -32342.41543321794, -0.166, 0.992, 0.05, 192.0, 0.0, 0.0, 0.0, 0.0, 0.0, 0.0, 0.0, 0.0, 0.0, 1.695760987241487E9, 0.0, 2023-09-26 15:43:07.241
32.0, 13235.250203043248, 36794.16767289254, -41704.86828146795, -44947.79347751063, -23885.565863319145, -26011.417926718943, -187500.02235174447, 9200.290942226762, -12342.722695198381, -33426.27387360023, -44847.32238618402, -40709.07571423957, -20424.130013481383, -24567.115255250366, -47065.80007860662, -32343.935351840897, -0.164, 0.992, 0.052000000000000005, 192.0, 125.0, 112.0, 15.5, 0.0, 0.5, 80.0, 0.0, 0.0, 0.0, 1.695760987241545E9, 0.0, 2023-09-26 15:43:07.241
34.0, 13202.236676482758, 36766.29504755676, -41730.72924980274, -44962.545628851134, -23902.843761783097, -26018.81635413365, -187500.02235174447, 9138.376610085561, -12354.859692437612, -33446.70336803238, -44851.59156937499, -40721.14565624543, -20412.52945810908, -24564.276583704544, -47064.570732661574, -32344.82942161911, -0.164, 0.992, 0.052000000000000005, 192.0, 0.0, 0.0, 0.0, 0.0, 0.0, 0.0, 0.0, 0.0, 0.0, 1.695760987241556E9, 0.0, 2023-09-26 15:43:07.241
36.0, 13219.201650524337, 36788.46797805643, -41723.28611889912, -44953.739041535744, -23891.936110488907, -26015.843572121095, -187500.02235174447, 9198.525154414792, -12379.78188750528, -33457.81218502667, -44872.93748532981, -40725.92892955887, -20429.919115295306, -24569.395133184807, -47081.04396832514, -32361.526174727223, -0.164, 0.992, 0.052000000000000005, 192.0, 0.0, 0.0, 0.0, 0.0, 0.0, 0.0, 0.0, 0.0, 0.0, 1.695760987241565E9, 0.0, 2023-09-26 15:43:07.241
38.0, 13215.84888885604, 36782.18713786449, -41716.02180195115, -44933.667175014874, -23890.39384012149, -26001.47140043633, -187500.02235174447, 9129.346505325617, -12384.989843963367, -33422.92111193194, -44856.66541536635, -40708.38281016145, -20429.919115295306, -24550.3961503978, -47069.197543763825, -32344.15886928545, -0.164, 0.992, 0.052000000000000005, 192.0, 0.0, 0.0, 0.0, 0.0, 0.0, 0.0, 0.0, 0.0, 0.0, 1.695760987241574E9, 0.0, 2023-09-26 15:43:07.241
40.0, 13241.016953112718, 36798.45920782795, -41710.18799664832, -44937.06464017208, -23894.4395058679, -26007.126391783524, -187500.02235174447, 9214.216079022417, -12317.48757570834, -33425.80448696667, -44836.12416221192, -40697.25164142271, -20413.289417420558, -24563.874252304347, -47063.4084419499, -32335.68755813689, -0.164, 0.992, 0.052000000000000005, 192.0, 0.0, 0.0, 0.0, 0.0, 0.0, 0.0, 0.0, 0.0, 0.0, 1.695760987241583E9, 0.0, 2023-09-26 15:43:07.241
42.0, 13241.32987753509, 36787.19392862248, -41698.833310465016, -44933.91304420389, -23893.88071225652, -26004.80181036017, -187500.02235174447, 9143.38340084355, -12354.166788359498, -33425.87154220004, -44842.40500240386, -40705.432379893355, -20413.200010442735, -24558.129853979335, -47070.27042749768, -32342.39308147348, -0.164, 0.994, 0.056, 192.0, 125.0, 112.0, 15.5, 8.0, 0.5, 96.0, 0.0, 0.0, 0.0, 1.695760987241592E9, 0.0, 2023-09-26 15:43:07.241
44.0, 13246.738999693276, 36794.59235603719, -41714.59129030601, -44943.70310827531, -23907.06824148515, -26017.922284355438, -187500.02235174447, 9236.478416499904, -12339.146416085532, -33431.347719591584, -44835.11833371143, -40694.39061813243, -20426.923981538293, -24560.923822036246, -47067.18588676285, -32341.186087272894, -0.164, 0.994, 0.056, 192.0, 0.0, 0.0, 0.0, 0.0, 0.0, 0.0, 0.0, 0.0, 0.0, 1.695760987241601E9, 0.0, 2023-09-26 15:43:07.241
46.0, 13233.059732086627, 36772.86646042662, -41738.954691762294, -44954.18607642485, -23911.046851998195, -26022.347929757587, -187500.02235174447, 9165.9139592545, -12382.911131729023, -33454.83940301411, -44865.00261604817, -40719.35751668901, -20429.94146703976, -24576.279470477042, -47091.05754984111, -32362.822575905633, -0.164, 0.994, 0.056, 192.0, 0.0, 0.0, 0.0, 0.0, 0.0, 0.0, 0.0, 0.0, 0.0, 1.695760987301647E9, 0.0, 2023-09-26 15:43:07.301
48.0, 13257.825464943107, 36792.08896065819, -41722.324993887545, -44957.60589332651, -23904.11781121705, -26017.788173888704, -187500.02235174447, 9248.570710250224, -12358.927709928479, -33437.85207722808, -44857.7382991002, -40708.651031094916, -20422.788908814062, -24568.00932502858, -47089.537631218154, -32359.939200870896, -0.164, 0.994, 0.056, 192.0, 0.0, 0.0, 0.0, 0.0, 0.0, 0.0, 0.0, 0.0, 0.0, 1.695760987301669E9, 0.0, 2023-09-26 15:43:07.301
50.0, 13256.95374690935, 36780.22018435242, -41712.6466885384, -44946.050041443115, -23898.261654169757, -26011.75320288577, -187500.02235174447, 9166.606863332614, -12350.411695291006, -33469.256278187786, -44848.328214684516, -40723.20201673532, -20414.675225576786, -24569.05985701798, -47078.69703515733, -32356.11705256904, -0.164, 0.994, 0.056, 192.0, 0.0, 0.0, 0.0, 0.0, 0.0, 0.0, 0.0, 0.0, 0.0, 1.695760987301679E9, 0.0, 2023-09-26 15:43:07.301
52.0, 13264.843912702074, 36803.153074163565, -41711.126769915434, -44940.03742218464, -23901.659119326963, -26012.20023777488, -187500.02235174447, 9241.105227602153, -12365.432067564972, -33440.98132145182, -44846.40596466136, -40699.28565016814, -20425.42641465979, -24560.85676680288, -47074.80783162211, -32349.992674588288, -0.16, 0.992, 0.058, 192.0, 125.5, 0.0, 15.5, 0.0, 0.5, 104.0, 0.0, 0.0, 0.0, 1.695760987301688E9, 0.0, 2023-09-26 15:43:07.301
54.0, 13250.851720673052, 36788.64679201207, -41712.2443571382, -44935.54472154912, -23902.664947827452, -26007.640481905997, -187500.02235174447, 9177.067479737698, -12373.9704339469, -33443.97645520884, -44842.248540192675, -40701.789045547135, -20412.95414125373, -24571.67501111925, -47072.81852636558, -32347.221058275827, -0.16, 0.992, 0.058, 192.0, 0.0, 0.0, 0.0, 0.0, 0.0, 0.0, 0.0, 0.0, 0.0, 1.695760987301732E9, 0.0, 2023-09-26 15:43:07.301
56.0, 13263.949842923861, 36802.30370787426, -41708.35515360298, -44935.54472154912, -23898.708689058865, -26005.00297606027, -187500.02235174447, 9252.862245185643, -12363.889797197557, -33422.60818750956, -44846.33890942799, -40696.335219900044, -20424.04060650356, -24565.684743605227, -47069.84574435303, -32346.326988497614, -0.16, 0.992, 0.058, 192.0, 0.0, 0.0, 0.0, 0.0, 0.0, 0.0, 0.0, 0.0, 0.0, 1.695760987301741E9, 0.0, 2023-09-26 15:43:07.301
58.0, 13254.33859280808, 36784.645829754576, -41709.6962582703, -44933.533064548144, -23886.571691819634, -25998.1856940014, -187500.02235174447, 9204.783642862278, -12328.372875258074, -33438.23205688382, -44850.54103738559, -40710.28270844015, -20430.276743206592, -24552.720731821148, -47070.672758897876, -32348.852735621065, -0.16, 0.992, 0.058, 192.0, 0.0, 0.0, 0.0, 0.0, 0.0, 0.0, 0.0, 0.0, 0.0, 1.69576098730175E9, 0.0, 2023-09-26 15:43:07.301
60.0, 13247.454255515846, 36782.92474543151, -41728.69524105731, -44962.27740791767, -23903.67077632794, -26017.05056632168, -187500.02235174447, 9263.635786013101, -12365.901454198534, -33447.86565874406, -44859.34762470098, -40720.743324845236, -20420.352568668433, -24572.9490605532, -47068.19171526334, -32345.11999429703, -0.16, 0.992, 0.058, 192.0, 0.0, 0.0, 0.0, 0.0, 0.0, 0.0, 0.0, 0.0, 0.0, 1.695760987362184E9, 0.0, 2023-09-26 15:43:07.362
62.0, 13246.448427015357, 36777.627381995604, -41720.223929908745, -44953.113192690995, -23897.456991369367, -26014.927150598425, -187500.02235174447, 9229.68348618549, -12365.074439653688, -33481.57208938266, -44870.32233122854, -40744.68204315687, -20412.238885431158, -24577.374705955353, -47082.38507299245, -32362.06261659415, -0.154, 0.99, 0.066, 192.0, 125.5, 24.0, 15.0, 120.0, 1.0, 8.0, 0.0, 0.0, 0.0, 1.695760987362234E9, 0.0, 2023-09-26 15:43:07.362
64.0, 13258.451313787857, 36794.704114759465, -41707.12580765794, -44944.19484665333, -23894.10422970107, -26012.490810452797, -187500.02235174447, 9258.897216188576, -12358.30186108373, -33438.85790572857, -44853.0891362535, -40722.82203707958, -20428.868583305906, -24570.71388610767, -47074.293741499634, -32354.865354879545, -0.154, 0.99, 0.066, 192.0, 0.0, 0.0, 0.0, 0.0, 0.0, 0.0, 0.0, 0.0, 0.0, 1.695760987362245E9, 0.0, 2023-09-26 15:43:07.362
66.0, 13248.884767160986, 36781.71775123093, -41724.09078169952, -44948.46402984429, -23896.697032057888, -26017.5423046997, -187500.02235174447, 9233.21506180943, -12351.998669147333, -33451.79956576819, -44857.58183688901, -40721.95031904582, -20405.4663068612, -24568.23284247313, -47078.160593290406, -32361.704988682868, -0.154, 0.99, 0.066, 192.0, 0.0, 0.0, 0.0, 0.0, 0.0, 0.0, 0.0, 0.0, 0.0, 1.695760987362255E9, 0.0, 2023-09-26 15:43:07.362
68.0, 13246.247261315259, 36781.85186169766, -41712.02083969365, -44939.03159368415, -23899.692165814897, -26017.207028532866, -187500.02235174447, 9246.491998015881, -12391.49420159986, -33448.15623142198, -44861.76161310216, -40723.894920813436, -20421.112527979916, -24559.940345280214, -47069.73398563075, -32354.30656126816, -0.154, 0.99, 0.066, 192.0, 0.0, 0.0, 0.0, 0.0, 0.0, 0.0, 0.0, 0.0, 0.0, 1.695760987362264E9, 0.0, 2023-09-26 15:43:07.362
70.0, 13254.33859280808, 36779.03554189629, -41716.22296765125, -44939.70214601781, -23898.30635765867, -26011.663795907953, -187500.02235174447, 9256.72909697641, -12368.78482923327, -33461.12024320605, -44873.272761496635, -40731.62862439497, -20441.89965032335, -24584.191988014223, -47087.50362247272, -32365.97417187383, -0.154, 0.99, 0.066, 192.0, 0.0, 0.0, 0.0, 0.0, 0.0, 0.0, 0.0, 0.0, 0.0, 1.695760987362273E9, 0.0, 2023-09-26 15:43:07.362
72.0, 13252.058714873638, 36773.91699241602, -41701.64963026639, -44937.869302972475, -23898.6416338255, -26007.68518539491, -187500.02235174447, 9241.775779935811, -12333.424369504974, -33448.96089422237, -44844.93074952731, -40722.30794695711, -20413.043548231548, -24569.641002373817, -47071.298607742625, -32348.852735621065, -0.156, 0.992, 0.068, 192.0, 125.5, 16.0, 15.5, 0.0, 1.0, 16.0, 0.0, 0.0, 0.0, 1.695760987362285E9, 0.0, 2023-09-26 15:43:07.362
74.0, 13249.890595661474, 36775.928649417, -41714.77010426165, -44951.70503279031, -23903.82723853913, -26024.11371756956, -187500.02235174447, 9267.368527337137, -12372.271701368298, -33459.645028072, -44862.07453752453, -40729.751077860725, -20405.578065583475, -24577.19589199971, -47087.235401539256, -32365.683599195912, -0.156, 0.992, 0.068, 192.0, 0.0, 0.0, 0.0, 0.0, 0.0, 0.0, 0.0, 0.0, 0.0, 1.69576098736246E9, 0.0, 2023-09-26 15:43:07.362
76.0, 13249.24239507227, 36773.157033104544, -41711.37263910445, -44950.92272173437, -23898.216950680846, -26020.850362879082, -187500.02235174447, 9234.690276943478, -12399.0267394813, -33464.495356618805, -44859.30292121207, -40726.28655747015, -20412.93178950927, -24582.403848457798, -47080.68634041385, -32368.83519516411, -0.156, 0.992, 0.068, 192.0, 0.0, 0.0, 0.0, 0.0, 0.0, 0.0, 0.0, 0.0, 0.0, 1.69576098742245E9, 0.0, 2023-09-26 15:43:07.422
78.0, 13260.038287644184, 36782.56711752023, -41715.23949089521, -44951.48151534576, -23907.269407185246, -26025.052490836682, -187500.02235174447, 9312.876679048142, -12344.0637998657, -33472.85490904509, -44859.28056946761, -40727.650013881925, -20416.642179088853, -24587.72356363816, -47089.671741684884, -32376.904174912477, -0.156, 0.992, 0.068, 192.0, 0.0, 0.0, 0.0, 0.0, 0.0, 0.0, 0.0, 0.0, 0.0, 1.695760987422472E9, 0.0, 2023-09-26 15:43:07.422
80.0, 13239.318220534113, 36766.250344067856, -41723.28611889912, -44951.34740487902, -23911.829163054128, -26023.331406513622, -187500.02235174447, 9272.017690183842, -12386.800335264246, -33465.85881303058, -44866.47783118222, -40734.511999429706, -20423.23594370317, -24584.549615925505, -47092.30924753061, -32375.004276633776, -0.156, 0.992, 0.068, 192.0, 0.0, 0.0, 0.0, 0.0, 0.0, 0.0, 0.0, 0.0, 0.0, 1.695760987422482E9, 0.0, 2023-09-26 15:43:07.422
82.0, 13249.175339838905, 36772.24061158188, -41710.12094141495, -44960.39986138343, -23904.274273428236, -26036.340121786612, -187500.02235174447, 9327.494719921913, -12370.170637389498, -33463.377769396044, -44864.44382243679, -40734.62375815198, -20429.98617052867, -24575.094828020912, -47089.49292772925, -32370.77979693172, -0.152, 0.994, 0.06, 192.0, 125.5, 32.0, 15.5, 8.0, 0.5, 112.0, 0.0, 0.0, 0.0, 1.695760987422491E9, 0.0, 2023-09-26 15:43:07.422
84.0, 13245.353191537046, 36763.4787277554, -41716.42413335134, -44954.47664910277, -23905.011880995262, -26025.119546070047, -187500.02235174447, 9265.423925569527, -12365.744991987347, -33465.970571752856, -44860.17463924583, -40739.608197165515, -20411.501277864132, -24590.115200294877, -47085.87194512748, -32375.83129117862, -0.152, 0.994, 0.06, 192.0, 0.0, 0.0, 0.0, 0.0, 0.0, 0.0, 0.0, 0.0, 0.0, 1.695760987422501E9, 0.0, 2023-09-26 15:43:07.422
86.0, 13264.5309882797, 36787.66331525604, -41704.91298495686, -44942.94314896383, -23900.653290826474, -26020.068051823146, -187500.02235174447, 9347.253662020405, -12391.225980666397, -33464.0483217297, -44865.337892215, -40731.7627348617, -20419.592609356954, -24595.837246875435, -47092.24219229725, -32369.148119586484, -0.152, 0.994, 0.06, 192.0, 0.0, 0.0, 0.0, 0.0, 0.0, 0.0, 0.0, 0.0, 0.0, 1.695760987422511E9, 0.0, 2023-09-26 15:43:07.422
88.0, 13249.778836939196, 36770.87715517011, -41706.85758672447, -44947.97229146627, -23903.53666586121, -26027.511182726765, -187500.02235174447, 9275.571617552236, -12330.518642725783, -33456.02404547024, -44841.5332843701, -40722.687926612845, -20420.531382624078, -24586.047182804014, -47082.5638869481, -32362.040264849697, -0.152, 0.994, 0.06, 192.0, 0.0, 0.0, 0.0, 0.0, 0.0, 0.0, 0.0, 0.0, 0.0, 1.69576098742252E9, 0.0, 2023-09-26 15:43:07.422
90.0, 13247.498959004755, 36781.829509953204, -41711.95378446028, -44947.63701529944, -23907.20235195188, -26027.48883098231, -187500.02235174447, 9336.815397359776, -12376.049146181243, -33482.264993460776, -44862.588627647005, -40733.39441220694, -20416.731586066675, -24591.366897984375, -47094.142090575944, -32371.78562543221, -0.152, 0.994, 0.06, 192.0, 0.0, 0.0, 0.0, 0.0, 0.0, 0.0, 0.0, 0.0, 0.0, 1.695760987482708E9, 0.0, 2023-09-26 15:43:07.482
92.0, 13242.29100254667, 36774.006399393846, -41707.237566380216, -44935.142390148925, -23910.957445020373, -26020.895066367993, -187500.02235174447, 9265.870960458633, -12388.02968120929, -33465.7470543083, -44854.94433104328, -40730.309871472105, -20408.394385384847, -24579.00638330059, -47092.331599275065, -32368.432863763916, -0.156, 0.996, 0.058, 192.0, 125.5, 16.0, 15.5, 16.0, 0.5, 104.0, 0.0, 0.0, 0.0, 1.695760987482733E9, 0.0, 2023-09-26 15:43:07.482
94.0, 13251.164645095427, 36786.456321055455, -41713.518406572155, -44953.82844851357, -23913.393785166, -26033.72496768534, -187500.02235174447, 9363.928063384064, -12371.914073457012, -33454.079443702634, -44864.55558115907, -40729.259339482705, -20411.166001697304, -24578.894624578315, -47102.63575346897, -32376.479491767826, -0.156, 0.996, 0.058, 192.0, 0.0, 0.0, 0.0, 0.0, 0.0, 0.0, 0.0, 0.0, 0.0, 1.695760987482743E9, 0.0, 2023-09-26 15:43:07.482
96.0, 13250.851720673052, 36777.627381995604, -41698.766255231654, -44946.810000754595, -23899.11102045906, -26023.644330935997, -187500.02235174447, 9307.55696386778, -12350.545805757738, -33467.31167642018, -44852.26212170865, -40741.37398497749, -20424.577048370487, -24574.44662743171, -47091.16930856339, -32378.40174179098, -0.156, 0.996, 0.058, 192.0, 0.0, 0.0, 0.0, 0.0, 0.0, 0.0, 0.0, 0.0, 0.0, 1.695760987482794E9, 0.0, 2023-09-26 15:43:07.482
98.0, 13249.845892172563, 36784.82464371021, -41712.959612960774, -44962.09859396203, -23912.231494454325, -26035.66956945295, -187500.02235174447, 9403.110671414217, -12411.36490242063, -33463.26601067377, -44866.41077594886, -40738.89294134294, -20429.76265308412, -24596.731316653648, -47095.37143652099, -32379.876956925033, -0.156, 0.996, 0.058, 192.0, 0.0, 0.0, 0.0, 0.0, 0.0, 0.0, 0.0, 0.0, 0.0, 1.695760987482803E9, 0.0, 2023-09-26 15:43:07.482
100.0, 13237.172453066403, 36764.3280940447, -41713.652517038885, -44959.90812300541, -23905.63772984001, -26034.306113041177, -187500.02235174447, 9342.04570556232, -12371.824666479191, -33470.53032762174, -44866.25431373767, -40746.671348413394, -20423.19124021426, -24588.662336905283, -47099.685323200865, -32386.090741883607, -0.156, 0.996, 0.058, 192.0, 0.0, 0.0, 0.0, 0.0, 0.0, 0.0, 0.0, 0.0, 0.0, 1.695760987482812E9, 0.0, 2023-09-26 15:43:07.482
102.0, 13254.204482341347, 36782.544765775776, -41706.11997915745, -44948.41932635538, -23903.78253505022, -26023.331406513622, -187500.02235174447, 9411.492575584958, -12368.918939700001, -33485.14836849551, -44870.903476584375, -40746.64899666894, -20427.393368171855, -24597.1559997983, -47102.09931160204, -32380.234584836315, -0.162, 0.99, 0.066, 192.0, 125.0, 120.0, 15.0, 120.0, 1.0, 8.0, 0.0, 0.0, 0.0, 1.695760987482821E9, 0.0, 2023-09-26 15:43:07.482
104.0, 13244.995563625762, 36769.93838190298, -41709.02570593664, -44947.94993972182, -23899.938035003906, -26021.342101257098, -187500.02235174447, 9352.7074876675, -12379.088983427166, -33469.613906099075, -44857.78300258911, -40737.238912253255, -20389.41775434229, -24584.370801969864, -47095.46084349881, -32373.327895799626, -0.162, 0.99, 0.066, 192.0, 0.0, 0.0, 0.0, 0.0, 0.0, 0.0, 0.0, 0.0, 0.0, 1.695760987482831E9, 0.0, 2023-09-26 15:43:07.482
106.0, 13262.564034767633, 36795.77699849332, -41686.5398510146, -44935.09768666002, -23893.3889738785, -26013.29547325319, -187500.02235174447, 9424.38953213567, -12359.195930861943, -33451.95602797938, -44851.21158971925, -40725.72776385877, -20414.42935638778, -24579.788694356525, -47086.14016606095, -32362.666113694446, -0.162, 0.99, 0.066, 192.0, 0.0, 0.0, 0.0, 0.0, 0.0, 0.0, 0.0, 0.0, 0.0, 1.695760987541631E9, 0.0, 2023-09-26 15:43:07.541
108.0, 13247.610717727033, 36779.77314946332, -41695.838176708006, -44948.86636124449, -23898.35106114758, -26019.91158961196, -187500.02235174447, 9399.512040556912, -12390.890704499569, -33462.37194089555, -44855.54782814358, -40730.22046449428, -20428.80152807254, -24575.228938487642, -47082.58623869255, -32360.945029371385, -0.162, 0.99, 0.066, 192.0, 0.0, 0.0, 0.0, 0.0, 0.0, 0.0, 0.0, 0.0, 0.0, 1.695760987541653E9, 0.0, 2023-09-26 15:43:07.541
110.0, 13251.09758986206, 36787.26098385584, -41694.05003715158, -44941.914968718884, -23900.07214547064, -26014.278950009222, -187500.02235174447, 9432.950250262053, -12363.509817541817, -33453.85592625808, -44854.9890345322, -40731.67332788388, -20406.3156731505, -24583.521435680563, -47083.23443928176, -32361.146195071484, -0.162, 0.99, 0.066, 192.0, 0.0, 0.0, 0.0, 0.0, 0.0, 0.0, 0.0, 0.0, 0.0, 1.695760987541663E9, 0.0, 2023-09-26 15:43:07.541
112.0, 13254.115075363527, 36784.221146609925, -41692.887746439905, -44955.907160747905, -23902.709651316363, -26025.231304792323, -187500.02235174447, 9417.05815995433, -12381.413564850518, -33446.256333143276, -44849.7363745852, -40732.18741800635, -20422.096004735948, -24583.85671184739, -47084.68730267135, -32363.49312823929, -0.162, 0.996, 0.058, 192.0, 125.0, 120.0, 15.5, 16.0, 0.5, 104.0, 0.0, 0.0, 0.0, 1.695760987541672E9, 0.0, 2023-09-26 15:43:07.541
114.0, 13246.917813648917, 36784.3329053322, -41704.68946751231, -44946.6088350545, -23910.510410131268, -26018.34696750009, -187500.02235174447, 9440.259270698938, -12373.031660679777, -33462.550754851196, -44848.01529026214, -40738.848237854036, -20409.199048185237, -24585.890720592826, -47088.95648586232, -32365.54948872918, -0.162, 0.996, 0.058, 192.0, 0.0, 0.0, 0.0, 0.0, 0.0, 0.0, 0.0, 0.0, 0.0, 1.695760987541682E9, 0.0, 2023-09-26 15:43:07.541
116.0, 13249.734133450287, 36783.863518698636, -41705.87410996844, -44948.911064733395, -23909.772802564243, -26021.63267393502, -187500.02235174447, 9447.367125435725, -12381.011233450323, -33486.154196996, -44863.50504916967, -40740.47991519927, -20407.433260373266, -24590.025793317058, -47100.40057902344, -32370.086892853607, -0.162, 0.996, 0.058, 192.0, 0.0, 0.0, 0.0, 0.0, 0.0, 0.0, 0.0, 0.0, 0.0, 1.695760987541691E9, 0.0, 2023-09-26 15:43:07.541
118.0, 13246.806054926641, 36786.05398965526, -41696.75459823068, -44943.72546001976, -23904.318976917148, -26014.05543256467, -187500.02235174447, 9467.215474512039, -12380.74301251686, -33456.06874895916, -44856.2407322217, -40733.2155982513, -20442.883127079385, -24592.260967762588, -47089.58233470706, -32371.78562543221, -0.162, 0.996, 0.058, 192.0, 0.0, 0.0, 0.0, 0.0, 0.0, 0.0, 0.0, 0.0, 0.0, 1.69576098754173E9, 0.0, 2023-09-26 15:43:07.541
120.0, 13259.121866121515, 36791.64192576909, -41687.500976026175, -44938.33868960604, -23902.754354805274, -26013.29547325319, -187500.02235174447, 9485.521553220935, -12369.075401911188, -33459.17564143844, -44845.243673949684, -40731.53921741715, -20416.820993044497, -24587.053011304502, -47083.2120875373, -32363.02374160573, -0.162, 0.996, 0.058, 192.0, 0.0, 0.0, 0.0, 0.0, 0.0, 0.0, 0.0, 0.0, 0.0, 1.695760987601771E9, 0.0, 2023-09-26 15:43:07.601
122.0, 13247.923642149406, 36775.50396627235, -41697.514557542156, -44939.6574425289, -23898.619282081043, -26010.233284262813, -187500.02235174447, 9446.227186468504, -12413.823594310714, -33444.17762090893, -44849.646967607376, -40733.64028139595, -20401.018309714593, -24579.431066445242, -47081.73687240325, -32356.74290141379, -0.158, 0.994, 0.05, 192.0, 125.5, 8.0, 15.5, 8.0, 0.5, 72.0, 0.0, 0.0, 0.0, 1.695760987601795E9, 0.0, 2023-09-26 15:43:07.601
124.0, 13262.049944645161, 36782.47771054241, -41689.6914469828, -44934.27067211517, -23899.893331514995, -26008.0875167951, -187500.02235174447, 9495.557486481368, -12356.021983149289, -33463.71304556287, -44851.837438564, -40732.43328719536, -20414.652873832332, -24580.48159843464, -47087.32480851708, -32362.26378229425, -0.158, 0.994, 0.05, 192.0, 0.0, 0.0, 0.0, 0.0, 0.0, 0.0, 0.0, 0.0, 0.0, 1.695760987601805E9, 0.0, 2023-09-26 15:43:07.601
126.0, 13244.257956058736, 36764.082224855694, -41702.610755277965, -44942.965500708284, -23908.766974063754, -26013.653101164473, -187500.02235174447, 9435.028962496395, -12392.589437078172, -33462.7966240402, -44856.37484268843, -40731.24864473923, -20407.701481306733, -24580.705115879195, -47085.7154829163, -32359.045131092684, -0.158, 0.994, 0.05, 192.0, 0.0, 0.0, 0.0, 0.0, 0.0, 0.0, 0.0, 0.0, 0.0, 1.695760987601815E9, 0.0, 2023-09-26 15:43:07.601
128.0, 13266.587348769588, 36785.1822716215, -41689.266763838146, -44951.59327406804, -23910.711575831363, -26022.750261157784, -187500.02235174447, 9515.785815213421, -12383.73814627387, -33467.33402816463, -44858.90058981188, -40730.242816238744, -20436.17760374279, -24590.137552039334, -47098.478329000274, -32375.965401645353, -0.158, 0.994, 0.05, 192.0, 0.0, 0.0, 0.0, 0.0, 0.0, 0.0, 0.0, 0.0, 0.0, 1.695760987601824E9, 0.0, 2023-09-26 15:43:07.601
130.0, 13248.14715959396, 36770.96656214793, -41702.78956923361, -44962.45622187331, -23906.174171706938, -26017.855229122073, -187500.02235174447, 9449.53524464789, -12383.045242195754, -33465.00944674128, -44849.714022840744, -40742.80449662262, -20421.783080313573, -24589.355240983397, -47091.906916130414, -32377.105340612572, -0.158, 0.994, 0.05, 192.0, 0.0, 0.0, 0.0, 0.0, 0.0, 0.0, 0.0, 0.0, 0.0, 1.695760987601834E9, 0.0, 2023-09-26 15:43:07.601
132.0, 13243.207424069336, 36770.36306504763, -41718.413438607866, -44963.84203002954, -23911.940921776408, -26015.843572121095, -187500.02235174447, 9523.921850195153, -12396.724509802403, -33461.25435367279, -44865.717871870744, -40743.028014067175, -20445.364170713925, -24588.036488060534, -47091.705750430316, -32377.530023757223, -0.162, 1.0, 0.052000000000000005, 192.0, 125.0, 120.0, 15.5, 32.0, 0.5, 80.0, 0.0, 0.0, 0.0, 1.695760987601843E9, 0.0, 2023-09-26 15:43:07.601
134.0, 13236.725418177299, 36761.31060854323, -41721.36386887597, -44955.75069853672, -23913.393785166, -26003.10307778157, -187500.02235174447, 9457.470113929525, -12396.45628886894, -33478.889880048024, -44875.17265977534, -40750.40408973743, -20435.462347920224, -24595.56902594197, -47095.86317489901, -32377.820596435144, -0.162, 1.0, 0.052000000000000005, 192.0, 0.0, 0.0, 0.0, 0.0, 0.0, 0.0, 0.0, 0.0, 0.0, 1.695760987601853E9, 0.0, 2023-09-26 15:43:07.601
136.0, 13255.143255608471, 36785.31638208823, -41722.16853167636, -44962.545628851134, -23915.606607867077, -26005.539417927197, -187500.02235174447, 9540.439789347623, -12401.50778311584, -33457.81218502667, -44866.45547943777, -40732.07565928408, -20422.3195221805, -24596.64190967583, -47099.10417784502, -32376.54654700119, -0.162, 1.0, 0.052000000000000005, 192.0, 0.0, 0.0, 0.0, 0.0, 0.0, 0.0, 0.0, 0.0, 0.0, 1.695760987662971E9, 0.0, 2023-09-26 15:43:07.662
138.0, 13259.658307988442, 36775.191041849976, -41706.36584834645, -44958.09763170453, -23908.051718241182, -26003.75127837077, -187500.02235174447, 9490.528343978924, -12383.939311973967, -33459.533269349726, -44869.294150983595, -40743.25153151173, -20457.90349935335, -24607.549560970016, -47099.059474356116, -32389.063523896162, -0.162, 1.0, 0.052000000000000005, 192.0, 0.0, 0.0, 0.0, 0.0, 0.0, 0.0, 0.0, 0.0, 0.0, 1.695760987662994E9, 0.0, 2023-09-26 15:43:07.662
140.0, 13262.519331278721, 36785.62930651061, -41724.269595655154, -44964.154954451915, -23912.387956665512, -26004.690051637896, -187500.02235174447, 9569.139429228238, -12326.942363612934, -33458.88506876052, -44848.6858425958, -40729.885188327455, -20421.33604542447, -24599.234712032645, -47082.42977648137, -32378.11116911306, -0.162, 1.0, 0.052000000000000005, 192.0, 0.0, 0.0, 0.0, 0.0, 0.0, 0.0, 0.0, 0.0, 0.0, 1.69576098766304E9, 0.0, 2023-09-26 15:43:07.663
142.0, 13245.33083979259, 36767.65850396854, -41738.39589815091, -44963.01501548469, -23913.438488654912, -26001.270234736236, -187500.02235174447, 9495.06574810335, -12385.54863757475, -33481.32622019365, -44870.63525565091, -40743.49740070074, -20445.878260836394, -24587.94708108271, -47089.76114866271, -32383.7438087158, -0.158, 1.0, 0.054, 192.0, 125.5, 8.0, 15.5, 32.0, 0.5, 88.0, 0.0, 0.0, 0.0, 1.695760987663054E9, 0.0, 2023-09-26 15:43:07.663
144.0, 13271.012994171739, 36799.19681539498, -41736.853627783494, -44954.54370433613, -23910.555113620176, -25995.861112578048, -187500.02235174447, 9582.841048579341, -12375.155076403033, -33478.621659114564, -44867.0366247936, -40733.55087441813, -20445.453577691744, -24591.568063684474, -47089.73879691825, -32381.352172059083, -0.158, 1.0, 0.054, 192.0, 0.0, 0.0, 0.0, 0.0, 0.0, 0.0, 0.0, 0.0, 0.0, 1.695760987663069E9, 0.0, 2023-09-26 15:43:07.663
146.0, 13260.619433000022, 36791.418408324535, -41742.1509912194, -44951.861495001496, -23918.199410223893, -25994.654118377464, -187500.02235174447, 9532.527271810446, -12359.710020984414, -33418.83074269661, -44861.314578213045, -40717.591728877036, -20442.19022300127, -24583.409676958287, -47091.4151777524, -32377.395913290493, -0.158, 1.0, 0.054, 192.0, 0.0, 0.0, 0.0, 0.0, 0.0, 0.0, 0.0, 0.0, 0.0, 1.695760987663078E9, 0.0, 2023-09-26 15:43:07.663
148.0, 13266.117962136026, 36795.464074070944, -41742.77684006415, -44959.259922416204, -23915.15957297797, -25994.162379999445, -187500.02235174447, 9598.107290042317, -12361.855788452123, -33440.51193481826, -44863.52740091412, -40722.19618823483, -20431.170812984805, -24592.506836951598, -47098.61243946701, -32376.233622578817, -0.158, 1.0, 0.054, 192.0, 0.0, 0.0, 0.0, 0.0, 0.0, 0.0, 0.0, 0.0, 0.0, 1.695760987663087E9, 0.0, 2023-09-26 15:43:07.663
150.0, 13266.207369113848, 36780.82368145272, -41730.61749108046, -44948.508733333205, -23907.805849052176, -25982.33830718259, -187500.02235174447, 9521.999600171996, -12404.324102917208, -33458.63919957152, -44865.20378174827, -40732.902673828925, -20448.225194004204, -24580.57100541246, -47100.445282512344, -32369.662209708957, -0.158, 1.0, 0.054, 192.0, 0.0, 0.0, 0.0, 0.0, 0.0, 0.0, 0.0, 0.0, 0.0, 1.695760987663096E9, 0.0, 2023-09-26 15:43:07.663
152.0, 13276.444468074378, 36792.42423682502, -41734.5513981046, -44963.93143700736, -23916.992416023306, -25992.754220098763, -187500.02235174447, 9594.6651213962, -12368.673070510993, -33468.764539809774, -44850.87631355242, -40721.41387717889, -20442.078464278995, -24584.795485114515, -47099.551212734135, -32370.198651575884, -0.16, 1.0, 0.05, 192.0, 125.5, 0.0, 15.5, 32.0, 0.5, 72.0, 0.0, 0.0, 0.0, 1.695760987723097E9, 0.0, 2023-09-26 15:43:07.723
154.0, 13269.20250287086, 36784.24349835438, -41742.329805175046, -44962.99266374024, -23918.35587243508, -26000.845551591585, -187500.02235174447, 9558.969385501074, -12356.424314549484, -33449.45263260038, -44846.67418559482, -40723.35847894651, -20433.51774615261, -24583.141456024823, -47092.15278531943, -32374.870166167042, -0.16, 1.0, 0.05, 192.0, 0.0, 0.0, 0.0, 0.0, 0.0, 0.0, 0.0, 0.0, 0.0, 1.695760987723129E9, 0.0, 2023-09-26 15:43:07.723
156.0, 13272.376450583513, 36789.07147515672, -41747.31424418858, -44953.671986302375, -23916.523029389744, -25995.90581606696, -187500.02235174447, 9615.653409439732, -12367.801352477236, -33456.113452448066, -44867.058976538065, -40731.695679628334, -20445.073598036004, -24608.577741214962, -47102.52399474669, -32379.429922035924, -0.16, 1.0, 0.05, 192.0, 0.0, 0.0, 0.0, 0.0, 0.0, 0.0, 0.0, 0.0, 0.0, 1.695760987723138E9, 0.0, 2023-09-26 15:43:07.723
158.0, 13271.840008716585, 36782.70122798696, -41739.088802229024, -44944.12779141996, -23906.710613573865, -25985.266385706233, -187500.02235174447, 9567.75362107201, -12349.49527376834, -33453.43124311343, -44850.36222342995, -40717.18939747684, -20427.28160944958, -24588.215302016175, -47092.353951019526, -32369.416340519947, -0.16, 1.0, 0.05, 192.0, 0.0, 0.0, 0.0, 0.0, 0.0, 0.0, 0.0, 0.0, 0.0, 1.695760987723147E9, 0.0, 2023-09-26 15:43:07.723
160.0, 13265.648575502466, 36786.456321055455, -41730.12575270245, -44957.82941077106, -23908.096421730093, -25991.457818920353, -187500.02235174447, 9586.082051525362, -12355.910224427013, -33447.55273432168, -44844.57312161602, -40714.59659512003, -20433.115414752414, -24572.81495008647, -47085.53666896065, -32368.92460214193, -0.16, 1.0, 0.05, 192.0, 0.0, 0.0, 0.0, 0.0, 0.0, 0.0, 0.0, 0.0, 0.0, 1.695760987723156E9, 0.0, 2023-09-26 15:43:07.723
162.0, 13249.309450305636, 36776.1298151171, -41746.107249987996, -44959.30462590511, -23917.797078823696, -25999.459743435353, -187500.02235174447, 9576.113173498294, -12413.085986743688, -33481.706199849395, -44863.97443580323, -40731.427458694874, -20448.71693238222, -24584.214339758677, -47092.689227186354, -32380.346343558595, -0.148, 0.994, 0.054, 192.0, 125.5, 48.0, 15.5, 8.0, 0.5, 88.0, 0.0, 0.0, 0.0, 1.695760987723198E9, 0.0, 2023-09-26 15:43:07.723
164.0, 13259.948880666361, 36790.90431820206, -41726.50477010069, -44949.536913578144, -23913.30437818818, -25990.13906599749, -187500.02235174447, 9593.23460975106, -12358.72654422838, -33449.273818644746, -44850.272816452125, -40722.50911265721, -20433.450690919246, -24584.05787754749, -47088.04006433965, -32371.293887054195, -0.148, 0.994, 0.054, 192.0, 0.0, 0.0, 0.0, 0.0, 0.0, 0.0, 0.0, 0.0, 0.0, 1.695760987723207E9, 0.0, 2023-09-26 15:43:07.723
166.0, 13255.165607352927, 36781.42717855301, -41734.08201147104, -44950.78861126764, -23906.95648276287, -25992.821275332128, -187500.02235174447, 9597.794365619942, -12354.859692437612, -33452.78304252423, -44848.395269917884, -40715.1106852425, -20437.85398457694, -24588.371764227362, -47079.814622380094, -32364.40954976196, -0.148, 0.994, 0.054, 192.0, 0.0, 0.0, 0.0, 0.0, 0.0, 0.0, 0.0, 0.0, 0.0, 1.695760987782035E9, 0.0, 2023-09-26 15:43:07.782
168.0, 13262.742848723276, 36787.909184445045, -41738.23943593972, -44955.88480900345, -23921.01573002526, -25996.933996311906, -187500.02235174447, 9600.431871465667, -12359.128875628576, -33475.22419395736, -44852.999729275674, -40734.087316285055, -20425.918153037805, -24603.43683999024, -47092.353951019526, -32367.114110841052, -0.148, 0.994, 0.054, 192.0, 0.0, 0.0, 0.0, 0.0, 0.0, 0.0, 0.0, 0.0, 0.0, 1.695760987782072E9, 0.0, 2023-09-26 15:43:07.782
170.0, 13247.051924115649, 36776.64390523957, -41753.371566935966, -44964.24436142974, -23916.45597415638, -26007.394612716987, -187500.02235174447, 9624.169424077205, -12355.284375582263, -33451.55369657918, -44845.802467561065, -40721.995022534735, -20433.584801385976, -24594.78671488604, -47096.37726502148, -32371.7409219433, -0.148, 0.994, 0.054, 192.0, 0.0, 0.0, 0.0, 0.0, 0.0, 0.0, 0.0, 0.0, 0.0, 1.695760987782082E9, 0.0, 2023-09-26 15:43:07.782
172.0, 13255.277366075203, 36778.6332104961, -41727.04121196762, -44948.709899033296, -23904.29662517269, -25995.056449777658, -187500.02235174447, 9573.967406030584, -12429.469815429427, -33473.12312997856, -44873.764499874655, -40735.71899363029, -20429.315618195014, -24596.64190967583, -47098.85830865602, -32375.004276633776, -0.156, 0.992, 0.062, 192.0, 125.5, 16.0, 15.5, 0.0, 0.5, 120.0, 0.0, 0.0, 0.0, 1.695760987782091E9, 0.0, 2023-09-26 15:43:07.782
174.0, 13267.704935992353, 36793.56417579224, -41731.01982248066, -44957.740003793246, -23907.06824148515, -25996.442257933886, -187500.02235174447, 9635.725275960598, -12325.735369412349, -33420.82004795314, -44841.42152564783, -40712.24966195222, -20442.369036956912, -24593.445610218718, -47091.68339868586, -32371.7409219433, -0.156, 0.992, 0.062, 192.0, 0.0, 0.0, 0.0, 0.0, 0.0, 0.0, 0.0, 0.0, 0.0, 1.695760987782101E9, 0.0, 2023-09-26 15:43:07.782
176.0, 13249.33180205009, 36776.68860872849, -41740.228741196246, -44976.269599946696, -23909.68339558642, -26003.237188248302, -187500.02235174447, 9583.824525335374, -12364.627404764582, -33474.66540034597, -44857.40302293337, -40741.61985416649, -20423.79473731455, -24595.747839897616, -47092.71157893081, -32375.36190454506, -0.156, 0.992, 0.062, 192.0, 0.0, 0.0, 0.0, 0.0, 0.0, 0.0, 0.0, 0.0, 0.0, 1.695760987782109E9, 0.0, 2023-09-26 15:43:07.782
178.0, 13253.735095707787, 36786.433969311, -41756.61256988199, -44964.87021027449, -23915.15957297797, -25997.850417834572, -187500.02235174447, 9636.306421316436, -12400.904286015546, -33437.717966761345, -44864.57793290352, -40727.24768248173, -20420.866658790907, -24602.363956256388, -47094.164442320405, -32375.11603535605, -0.156, 0.992, 0.062, 192.0, 0.0, 0.0, 0.0, 0.0, 0.0, 0.0, 0.0, 0.0, 0.0, 1.695760987782118E9, 0.0, 2023-09-26 15:43:07.782
180.0, 13266.162665624937, 36791.88779495809, -41725.72245904475, -44948.508733333205, -23901.68147107142, -25988.23916771879, -187500.02235174447, 9591.84880159483, -12365.49912279834, -33454.52647859174, -44846.428316405814, -40727.091220270544, -20431.03670251807, -24586.53892118203, -47086.98953235025, -32371.495052754293, -0.156, 0.992, 0.062, 192.0, 0.0, 0.0, 0.0, 0.0, 0.0, 0.0, 0.0, 0.0, 0.0, 1.695760987782127E9, 0.0, 2023-09-26 15:43:07.782
182.0, 13266.162665624937, 36801.409638096055, -41751.87400005746, -44952.621454312975, -23912.767936321252, -25987.94859504087, -187500.02235174447, 9655.618328525821, -12364.292128597752, -33417.62374849603, -44838.940482013284, -40699.44211237933, -20425.828746059986, -24587.14241828232, -47079.188773535345, -32355.133575813008, -0.158, 0.993, 0.057999999999999996, 192.0, 125.5, 0.0, 15.5, 8.0, 0.5, 88.0, 0.0, 0.0, 0.0, 1.695760987842528E9, 0.0, 2023-09-26 15:43:07.842
184.0, 13263.34634582357, 36788.60208852316, -41758.534819905144, -44968.37943415397, -23917.707671845874, -25997.76101085675, -187500.02235174447, 9591.669987639189, -12366.773172232291, -33460.29322866121, -44861.69455786879, -40732.72385987328, -20429.293266450557, -24579.52047342306, -47108.11193086051, -32376.904174912477, -0.158, 0.993, 0.057999999999999996, 192.0, 0.0, 0.0, 0.0, 0.0, 0.0, 0.0, 0.0, 0.0, 0.0, 1.695760987842551E9, 0.0, 2023-09-26 15:43:07.842
186.0, 13266.252072602758, 36798.548614805775, -41747.26954069967, -44956.9129892484, -23914.131392733027, -25997.291624223188, -187500.02235174447, 9666.078944930905, -12349.696439468436, -33420.14949561948, -44847.32238618402, -40714.75305733121, -20436.289362465068, -24599.145305054823, -47101.18289007937, -32372.45617776587, -0.158, 0.993, 0.057999999999999996, 192.0, 0.0, 0.0, 0.0, 0.0, 0.0, 0.0, 0.0, 0.0, 0.0, 1.69576098784256E9, 0.0, 2023-09-26 15:43:07.842
188.0, 13259.680659732898, 36782.27654484231, -41725.78951427812, -44951.6603293014, -23908.275235685735, -25981.466589148833, -187500.02235174447, 9580.829391578363, -12368.673070510993, -33449.98907446731, -44859.41467993435, -40728.05234528212, -20408.573199340488, -24602.72158416767, -47095.37143652099, -32365.124805584528, -0.158, 0.993, 0.057999999999999996, 192.0, 0.0, 0.0, 0.0, 0.0, 0.0, 0.0, 0.0, 0.0, 0.0, 1.695760987842569E9, 0.0, 2023-09-26 15:43:07.842
190.0, 13260.86530218903, 36793.921803703524, -41746.62134011046, -44968.491192876245, -23919.808735824674, -26000.510275424753, -187500.02235174447, 9673.075040945416, -12392.83530626718, -33465.52353686375, -44861.89572356889, -40726.5100749147, -20427.862754805417, -24597.647738176318, -47089.09059632905, -32365.92946838492, -0.158, 0.993, 0.057999999999999996, 192.0, 0.0, 0.0, 0.0, 0.0, 0.0, 0.0, 0.0, 0.0, 0.0, 1.695760987842578E9, 0.0, 2023-09-26 15:43:07.842
192.0, 13264.776857468709, 36796.939289204995, -41748.07420350006, -44944.12779141996, -23922.535648648223, -25992.307185209655, -187500.02235174447, 9622.068360098405, -12371.69055601246, -33430.90068470248, -44858.72177585623, -40719.402220177915, -20423.459461147722, -24583.655546147293, -47098.72419818929, -32375.183090589417, -0.159, 0.9904999999999999, 0.056999999999999995, 192.0, 125.5, 0.0, 15.0, 112.0, 0.5, 96.0, 0.0, 0.0, 0.0, 1.695760987842587E9, 0.0, 2023-09-26 15:43:07.842
194.0, 13278.05379367516, 36811.42321961203, -41755.22676172576, -44946.65353854341, -23930.515221418766, -25988.261519463245, -187500.02235174447, 9705.574477383432, -12356.87134943859, -33416.819085695635, -44841.91326402584, -40706.9075950274, -20421.42545240229, -24581.755647868595, -47103.663933713906, -32366.22004106284, -0.159, 0.9904999999999999, 0.056999999999999995, 192.0, 0.0, 0.0, 0.0, 0.0, 0.0, 0.0, 0.0, 0.0, 0.0, 1.695760987842596E9, 0.0, 2023-09-26 15:43:07.842
196.0, 13267.950805181361, 36796.69342001598, -41744.632034853945, -44946.675890287865, -23928.324750462147, -25984.081743250103, -187500.02235174447, 9643.86131094233, -12342.700343453926, -33437.69561501689, -44843.52258962663, -40722.59851963503, -20430.880240306884, -24578.849921089404, -47105.67559071488, -32377.284154568217, -0.159, 0.9904999999999999, 0.056999999999999995, 192.0, 0.0, 0.0, 0.0, 0.0, 0.0, 0.0, 0.0, 0.0, 0.0, 1.695760987902739E9, 0.0, 2023-09-26 15:43:07.902
198.0, 13280.959520454351, 36814.73127779142, -41733.94790100431, -44948.17345716637, -23921.574523636642, -25986.67454560692, -187500.02235174447, 9703.674579104732, -12377.032622937277, -33429.64898701298, -44852.91032229785, -40716.317679443084, -20446.23588874768, -24585.935424081734, -47104.42389302539, -32377.664134223956, -0.159, 0.9904999999999999, 0.056999999999999995, 192.0, 0.0, 0.0, 0.0, 0.0, 0.0, 0.0, 0.0, 0.0, 0.0, 1.695760987902765E9, 0.0, 2023-09-26 15:43:07.902
200.0, 13268.24137785928, 36793.98885893689, -41746.710747088284, -44976.7166348358, -23925.709596360877, -26010.5909121741, -187500.02235174447, 9669.789334510486, -12388.87904749859, -33446.05516744318, -44855.391365932395, -40729.52756041617, -20426.544001882554, -24599.033546332546, -47110.97295415079, -32402.83219848063, -0.159, 0.9904999999999999, 0.056999999999999995, 192.0, 0.0, 0.0, 0.0, 0.0, 0.0, 0.0, 0.0, 0.0, 0.0, 1.695760987902775E9, 0.0, 2023-09-26 15:43:07.902
202.0, 13277.919683208429, 36803.19777765248, -41741.39103190792, -44965.58546609706, -23919.696977102398, -26006.05350804967, -187500.02235174447, 9714.805747843475, -12317.82285187517, -33474.285420690234, -44842.04737449258, -40738.982348320766, -20409.80254528553, -24617.563142485997, -47099.30534354512, -32399.99352693481, -0.1585, 0.99325, 0.0515, 192.0, 125.5, 8.0, 15.5, 16.0, 0.5, 56.0, 0.0, 0.0, 0.0, 1.695760987902784E9, 0.0, 2023-09-26 15:43:07.902
204.0, 13279.216084386837, 36792.51364380284, -41744.02853775365, -44958.634073571455, -23911.560942120665, -25998.05158353467, -187500.02235174447, 9656.735915748586, -12363.755686730825, -33415.05329788367, -44854.00555777616, -40718.79872307763, -20430.94729554025, -24579.29695597851, -47094.74558767624, -32395.769047232756, -0.1585, 0.99325, 0.0515, 192.0, 0.0, 0.0, 0.0, 0.0, 0.0, 0.0, 0.0, 0.0, 0.0, 1.69576098790283E9, 0.0, 2023-09-26 15:43:07.902
206.0, 13282.121811166027, 36800.31440261775, -41746.01784301017, -44957.85176251552, -23923.25090447079, -26000.800848102674, -187500.02235174447, 9697.483145890612, -12345.471959766384, -33454.68294080293, -44842.87438903742, -40723.64905162442, -20428.779176328084, -24572.680839619738, -47095.23732605426, -32396.685468755422, -0.1585, 0.99325, 0.0515, 192.0, 0.0, 0.0, 0.0, 0.0, 0.0, 0.0, 0.0, 0.0, 0.0, 1.695760987902841E9, 0.0, 2023-09-26 15:43:07.902
208.0, 13285.541628067689, 36797.22986188291, -41734.573749849056, -44952.912026990896, -23917.171229978947, -25997.872769579026, -187500.02235174447, 9668.135305420794, -12358.190102361454, -33450.726682034336, -44852.2844734531, -40727.15827550391, -20418.072690733992, -24577.73233386664, -47101.54051799065, -32404.41917233696, -0.1585, 0.99325, 0.0515, 192.0, 0.0, 0.0, 0.0, 0.0, 0.0, 0.0, 0.0, 0.0, 0.0, 1.69576098790285E9, 0.0, 2023-09-26 15:43:07.902
210.0, 13279.931340209407, 36801.36493460714, -41732.76325854818, -44950.90036998992, -23925.575485894144, -26004.57829291562, -187500.02235174447, 9703.763986082553, -12326.182404301455, -33425.7374317333, -44831.13972319839, -40714.10485674201, -20419.614961101408, -24600.82168588897, -47089.13529981796, -32390.65049775249, -0.1585, 0.99325, 0.0515, 192.0, 0.0, 0.0, 0.0, 0.0, 0.0, 0.0, 0.0, 0.0, 0.0, 1.695760987902859E9, 0.0, 2023-09-26 15:43:07.902
212.0, 13284.088764678094, 36795.41937058203, -41738.79822955111, -44962.63503582896, -23921.239247469814, -26003.795981859683, -187500.02235174447, 9710.201288485681, -12411.700178587458, -33460.8967257615, -44863.840325336496, -40732.67915638437, -20415.390481399358, -24603.861523134892, -47097.89718364444, -32399.188864134416, -0.15925, 0.996625, 0.05075, 192.0, 125.5, 0.0, 15.5, 32.0, 0.5, 72.0, 0.0, 0.0, 0.0, 1.695760987962914E9, 0.0, 2023-09-26 15:43:07.962
214.0, 13275.952729696362, 36796.022867682324, -41751.53872389063, -44964.17730619637, -23931.6998638749, -25994.318842210632, -187500.02235174447, 9710.648323374788, -12342.007439375811, -33473.83838580112, -44844.41665940484, -40739.07175529859, -20407.299149906536, -24602.363956256388, -47097.49485224424, -32397.22191062235, -0.15925, 0.996625, 0.05075, 192.0, 0.0, 0.0, 0.0, 0.0, 0.0, 0.0, 0.0, 0.0, 0.0, 1.695760987962937E9, 0.0, 2023-09-26 15:43:07.962
216.0, 13291.666006048443, 36805.544710820286, -41741.25692144119, -44967.03832948665, -23928.481212673334, -26000.174999257924, -187500.02235174447, 9744.980602858139, -12347.260099322808, -33460.56144959467, -44851.34570018598, -40734.44494419634, -20436.311714209525, -24604.44266849073, -47108.626020982985, -32403.03336418073, -0.15925, 0.996625, 0.05075, 192.0, 0.0, 0.0, 0.0, 0.0, 0.0, 0.0, 0.0, 0.0, 0.0, 1.695760987962947E9, 0.0, 2023-09-26 15:43:07.962
218.0, 13284.960482711851, 36803.175425908026, -41750.085860501036, -44946.385317609944, -23927.385977195023, -26000.085592280102, -187500.02235174447, 9722.338285724913, -12339.258174807808, -33417.91432117395, -44845.109563482954, -40719.24575796673, -20415.94927501074, -24580.459246690185, -47100.378227278976, -32393.288003598216, -0.15925, 0.996625, 0.05075, 192.0, 0.0, 0.0, 0.0, 0.0, 0.0, 0.0, 0.0, 0.0, 0.0, 1.695760987962956E9, 0.0, 2023-09-26 15:43:07.962
220.0, 13289.073203691627, 36807.44460909899, -41751.38226167944, -44947.18998041034, -23929.285875473724, -26003.706574881864, -187500.02235174447, 9770.528646770555, -12414.784719322291, -33453.0959669466, -44863.59445614749, -40722.978499290766, -20447.152310270347, -24588.237653760632, -47107.19550933785, -32398.004221678286, -0.15925, 0.996625, 0.05075, 192.0, 0.0, 0.0, 0.0, 0.0, 0.0, 0.0, 0.0, 0.0, 0.0, 1.695760987962965E9, 0.0, 2023-09-26 15:43:07.962
222.0, 13280.512485565245, 36796.9839926939, -41744.92260753186, -44944.19484665333, -23924.83787832712, -25991.256653220258, -187500.02235174447, 9725.892213093306, -12365.342660587152, -33441.24954238529, -44848.037642006595, -40720.609214378506, -20414.38465289887, -24593.71383115218, -47101.65227671293, -32391.902195441988, -0.15962500000000002, 0.9993125, 0.049375, 192.0, 125.5, 0.0, 15.5, 40.0, 0.5, 64.0, 0.0, 0.0, 0.0, 1.695760987962974E9, 0.0, 2023-09-26 15:43:07.962
224.0, 13292.291854893192, 36812.27258590133, -41747.47070639976, -44952.621454312975, -23927.11775626156, -25999.347984713077, -187500.02235174447, 9794.46736508219, -12350.098770868633, -33469.748016565805, -44851.36805193044, -40723.38083069096, -20429.270914706103, -24585.041354303525, -47106.32379130409, -32401.960480446876, -0.15962500000000002, 0.9993125, 0.049375, 192.0, 0.0, 0.0, 0.0, 0.0, 0.0, 0.0, 0.0, 0.0, 0.0, 1.695760987962983E9, 0.0, 2023-09-26 15:43:07.962
226.0, 13290.414308358946, 36805.00826895336, -41725.476589855745, -44931.789628480634, -23905.660081584465, -25978.449103647366, -187500.02235174447, 9689.213000442149, -12348.35533480112, -33444.40113835349, -44837.50997036815, -40709.76861831768, -20407.008577228615, -24582.046220546512, -47089.9176108739, -32386.40366630598, -0.15962500000000002, 0.9993125, 0.049375, 192.0, 0.0, 0.0, 0.0, 0.0, 0.0, 0.0, 0.0, 0.0, 0.0, 1.695760988023356E9, 0.0, 2023-09-26 15:43:08.023
228.0, 13291.129564181516, 36811.62438531213, -41758.42306118287, -44959.75166079422, -23931.856326086086, -26010.635615663006, -187500.02235174447, 9787.60537953441, -12340.979259130867, -33429.15724863497, -44840.61686284743, -40698.27982166765, -20411.680091819777, -24583.38732521383, -47090.78932890765, -32392.103361142086, -0.15962500000000002, 0.9993125, 0.049375, 192.0, 0.0, 0.0, 0.0, 0.0, 0.0, 0.0, 0.0, 0.0, 0.0, 1.695760988023379E9, 0.0, 2023-09-26 15:43:08.023
230.0, 13283.217046644337, 36795.262908370845, -41745.41434590988, -44954.923683991874, -23928.056529528683, -26009.09334529559, -187500.02235174447, 9738.11861731036, -12395.651626068548, -33452.559525079676, -44866.47783118222, -40722.978499290766, -20441.65378113434, -24601.045203333524, -47115.555061764135, -32413.73984977482, -0.15962500000000002, 0.9993125, 0.049375, 192.0, 0.0, 0.0, 0.0, 0.0, 0.0, 0.0, 0.0, 0.0, 0.0, 1.695760988023389E9, 0.0, 2023-09-26 15:43:08.023
232.0, 13310.419119646445, 36821.34739415019, -41725.58834857802, -44939.56803555108, -23912.186790965414, -25983.165321727436, -187500.02235174447, 9787.627731278864, -12330.33982877014, -33469.032760743234, -44827.94342374127, -40710.23800495124, -20401.89002774835, -24602.54277021203, -47097.718369688795, -32397.780704233734, -0.15681250000000002, 0.99865625, 0.0486875, 192.0, 125.5, 24.0, 15.5, 24.0, 0.5, 64.0, 0.0, 0.0, 0.0, 1.695760988023398E9, 0.0, 2023-09-26 15:43:08.023
234.0, 13286.4356978459, 36794.972335692924, -41732.58444459253, -44944.26190188669, -23920.97102653635, -25997.313975967645, -187500.02235174447, 9714.850451332386, -12355.485541282362, -33439.86373422906, -44835.47596162272, -40706.14763571592, -20416.84334478895, -24591.67982240675, -47098.81360516711, -32397.93716644492, -0.15681250000000002, 0.99865625, 0.0486875, 192.0, 0.0, 0.0, 0.0, 0.0, 0.0, 0.0, 0.0, 0.0, 0.0, 1.695760988023408E9, 0.0, 2023-09-26 15:43:08.023
236.0, 13291.375433370524, 36808.875120744124, -41737.32301441706, -44941.60204429651, -23919.272293957747, -26003.81833360414, -187500.02235174447, 9801.999902963627, -12393.461155111929, -33464.361246152075, -44851.56921763053, -40715.3118509426, -20421.067824491005, -24602.900398123315, -47098.701846444834, -32402.02753568024, -0.15681250000000002, 0.99865625, 0.0486875, 192.0, 0.0, 0.0, 0.0, 0.0, 0.0, 0.0, 0.0, 0.0, 0.0, 1.695760988023417E9, 0.0, 2023-09-26 15:43:08.023
238.0, 13283.10528792206, 36787.81977746723, -41737.68064232834, -44947.301739132614, -23920.41223292497, -26011.216761018844, -187500.02235174447, 9718.40437870078, -12334.698418938926, -33465.99292349731, -44840.46040063625, -40723.26907196869, -20392.23407414366, -24585.24252000362, -47094.27620104268, -32396.059619910673, -0.15681250000000002, 0.99865625, 0.0486875, 192.0, 0.0, 0.0, 0.0, 0.0, 0.0, 0.0, 0.0, 0.0, 0.0, 1.695760988023426E9, 0.0, 2023-09-26 15:43:08.023
240.0, 13289.497886836278, 36810.37268762263, -41734.417287637865, -44937.64578552792, -23916.21010496737, -26003.974795815328, -187500.02235174447, 9809.84536526744, -12379.133686916077, -33457.00752222628, -44857.24656072218, -40719.35751668901, -20413.669397076297, -24605.962587113692, -47101.428759268376, -32399.904119956987, -0.15681250000000002, 0.99865625, 0.0486875, 192.0, 0.0, 0.0, 0.0, 0.0, 0.0, 0.0, 0.0, 0.0, 0.0, 1.695760988023435E9, 0.0, 2023-09-26 15:43:08.023
242.0, 13297.008072973262, 36800.69438227348, -41731.44450562531, -44935.4553145713, -23918.422927668445, -25997.04575503418, -187500.02235174447, 9760.515065254578, -12355.820817449192, -33460.96378099487, -44839.56633085803, -40717.2117492213, -20415.926923266285, -24594.853770119404, -47089.00118935123, -32389.26468959626, -0.15440625000000002, 0.997328125, 0.054343749999999996, 192.0, 125.5, 32.0, 15.5, 16.0, 0.5, 112.0, 0.0, 0.0, 0.0, 1.695760988082145E9, 0.0, 2023-09-26 15:43:08.082
244.0, 13295.890485750495, 36812.07142020123, -41729.83518002453, -44945.46889608728, -23922.535648648223, -26001.024365547226, -187500.02235174447, 9827.860871298417, -12332.664410193493, -33457.43220537093, -44831.184426687294, -40708.695734583824, -20412.775327298084, -24598.81002888799, -47089.64938994043, -32389.108227385073, -0.15440625000000002, 0.997328125, 0.054343749999999996, 192.0, 0.0, 0.0, 0.0, 0.0, 0.0, 0.0, 0.0, 0.0, 0.0, 1.695760988082168E9, 0.0, 2023-09-26 15:43:08.082
