%OpenBCI Raw EXG Data
%Number of channels = 16
%Sample Rate = 125 Hz
%Board = OpenBCI_GUI$BoardCytonSerialDaisy
Sample Index, EXG Channel 0, EXG Channel 1, EXG Channel 2, EXG Channel 3, EXG Channel 4, EXG Channel 5, EXG Channel 6, EXG Channel 7, EXG Channel 8, EXG Channel 9, EXG Channel 10, EXG Channel 11, EXG Channel 12, EXG Channel 13, EXG Channel 14, EXG Channel 15, Accel Channel 0, Accel Channel 1, Accel Channel 2, Other, Other, Other, Other, Other, Other, Other, Analog Channel 0, Analog Channel 1, Analog Channel 2, Timestamp, Other, Timestamp (Formatted)
208.0, 12832.605878425346, 36649.59658975561, -44419.46529382054, -45659.98711109008, -24214.605893445718, -26308.02557564087, -187500.02235174447, 4323.252060801036, -12307.295180236719, -33717.092420708235, -44910.264898570174, -40632.05160284658, -20662.04198146367, -24644.385235832364, -47311.49045365935, -32684.866510017695, 0.074, 1.012, 0.01, 192.0, 1.0, 40.0, 15.5, 80.0, 0.0, 40.0, 0.0, 0.0, 0.0, 1.695760970393307E9, 0.0, 2023-09-26 15:42:50.393
210.0, 12851.358992023348, 36666.06982541917, -44399.996924399966, -45641.70338412564, -24201.284253750357, -26296.44737201302, -187500.02235174447, 4365.854485732852, -12317.241706519331, -33680.50261503489, -44912.18714859333, -40616.85241661697, -20676.99529850427, -24637.59030551795, -47309.50114840283, -32682.474873360978, 0.074, 1.012, 0.01, 192.0, 0.0, 0.0, 0.0, 0.0, 0.0, 0.0, 0.0, 0.0, 0.0, 1.695760970393327E9, 0.0, 2023-09-26 15:42:50.393
212.0, 12828.269640001017, 36644.07570887515, -44417.29717460837, -45652.52162844201, -24209.196771287534, -26300.49303775943, -187500.02235174447, 4300.989723323551, -12323.813119389191, -33697.91462396558, -44910.063732870076, -40626.55307371057, -20655.314106382622, -24632.672921737783, -47301.432168654464, -32674.875280246175, 0.074, 1.012, 0.01, 192.0, 0.0, 0.0, 0.0, 0.0, 0.0, 0.0, 0.0, 0.0, 0.0, 1.695760970393338E9, 0.0, 2023-09-26 15:42:50.393
214.0, 12839.512567462036, 36657.86673520407, -44408.82586345981, -45665.284474525986, -24209.84497187674, -26305.58923549524, -187500.02235174447, 4367.106183422349, -12322.472014721872, -33697.17701639856, -44918.22211959626, -40628.20710280027, -20671.072086223616, -24640.563087530507, -47310.819901325696, -32685.67117281809, 0.074, 1.012, 0.01, 192.0, 0.0, 0.0, 0.0, 0.0, 0.0, 0.0, 0.0, 0.0, 0.0, 1.695760970393347E9, 0.0, 2023-09-26 15:42:50.393
216.0, 12825.587430666379, 36642.13110710753, -44412.26803210593, -45667.83257339389, -24214.87411437918, -26310.2607500864, -187500.02235174447, 4324.459055001624, -12322.002628088312, -33724.490848122936, -44911.091913115015, -40642.445164018296, -20682.247958451266, -24653.638858036862, -47305.58959312315, -32686.27466991838, 0.074, 1.012, 0.01, 192.0, 0.0, 0.0, 0.0, 0.0, 0.0, 0.0, 0.0, 0.0, 0.0, 1.695760970393357E9, 0.0, 2023-09-26 15:42:50.393
218.0, 12836.316268004926, 36658.53728753773, -44413.49737805097, -45660.50120121255, -24214.114155067702, -26309.076107630266, -187500.02235174447, 4400.812614060952, -12320.72857865436, -33696.14883615361, -44913.03651488263, -40627.894178377894, -20674.670717080917, -24643.49116605415, -47310.46227341441, -32689.739190308952, 0.07200000000000001, 1.012, 0.01, 192.0, 1.0, 32.0, 15.5, 80.0, 0.0, 40.0, 0.0, 0.0, 0.0, 1.695760970393389E9, 0.0, 2023-09-26 15:42:50.393
220.0, 12825.430968455192, 36640.36531929557, -44413.98911642899, -45658.26602676702, -24210.02378583238, -26306.68447097355, -187500.02235174447, 4318.602897954333, -12345.06962836619, -33710.923339238565, -44920.390238808424, -40635.650233703884, -20662.489016352774, -24646.083968410967, -47312.004543781826, -32688.643954830644, 0.07200000000000001, 1.012, 0.01, 192.0, 0.0, 0.0, 0.0, 0.0, 0.0, 0.0, 0.0, 0.0, 0.0, 1.695760970393399E9, 0.0, 2023-09-26 15:42:50.393
222.0, 12835.779826138, 36660.28072360525, -44414.59261352928, -45667.094965826866, -24215.008224845915, -26307.57854075176, -187500.02235174447, 4396.655189592265, -12319.186308286942, -33690.24797561741, -44906.84508166851, -40617.56767243954, -20671.13914145698, -24640.428977063773, -47304.33789543366, -32681.871376260686, 0.07200000000000001, 1.012, 0.01, 192.0, 0.0, 0.0, 0.0, 0.0, 0.0, 0.0, 0.0, 0.0, 0.0, 1.695760970393409E9, 0.0, 2023-09-26 15:42:50.393
224.0, 12828.87313710131, 36644.41098504198, -44410.770465227426, -45657.595474433365, -24206.02282357488, -26293.899273145114, -187500.02235174447, 4318.75936016552, -12330.496290981328, -33717.56180734179, -44916.65749748439, -40638.33244303852, -20683.56671137413, -24648.274439367586, -47309.903479803026, -32686.498187362933, 0.07200000000000001, 1.012, 0.01, 192.0, 0.0, 0.0, 0.0, 0.0, 0.0, 0.0, 0.0, 0.0, 0.0, 1.695760970393418E9, 0.0, 2023-09-26 15:42:50.393
0.0, 6468.572493621408, 18309.029139164584, -22133.010284067426, -22778.148684280957, -12066.253968030689, -13172.262987168193, -93750.01117587223, 2304.621315553345, -6165.214617873981, -16846.353333753745, -22454.853052479393, -20309.130288258828, -10329.1881476865, -12323.477843222361, -23649.553793615556, -16335.99595260572, 0.038, 1.008, -0.004, 192.0, 0.5, 24.0, 15.5, 64.0, 127.5, 112.0, 0.0, 0.0, 0.0, 1.695760970556283E9, 0.0, 2023-09-26 15:42:50.556
2.0, 12920.559992856979, 36593.18078675041, -44276.749405473405, -45560.18657209713, -24134.2960756178, -26341.30732313482, -187500.02235174447, 4534.3195836925015, -12259.28363314672, -33599.298727428766, -44820.76851377112, -40575.61344809693, -20572.187968753336, -24608.86831389288, -47253.57708377565, -32640.118317618173, 0.038, 1.008, -0.004, 192.0, 0.0, 0.0, 0.0, 0.0, 0.0, 0.0, 0.0, 0.0, 0.0, 1.695760970556308E9, 0.0, 2023-09-26 15:42:50.556
4.0, 12917.162527699773, 36588.35280994807, -44281.93501018704, -45571.13892688024, -24137.715892519464, -26342.0672824463, -187500.02235174447, 4554.704374635741, -12271.331223408131, -33623.86329458515, -44833.218435432726, -40593.494843661174, -20560.833282570038, -24614.612712217895, -47263.07657516916, -32644.409852553592, 0.038, 1.008, -0.004, 192.0, 0.0, 0.0, 0.0, 0.0, 0.0, 0.0, 0.0, 0.0, 0.0, 1.695760970556318E9, 0.0, 2023-09-26 15:42:50.556
6.0, 12917.274286422049, 36580.73086508881, -44284.997199177415, -45577.39741532772, -24139.01229369787, -26354.293686663354, -187500.02235174447, 4546.724801865197, -12283.982310769834, -33630.50176268837, -44837.487618623694, -40601.29560247608, -20578.379401967457, -24620.893552409834, -47267.50222057131, -32652.635294513144, 0.038, 1.008, -0.004, 192.0, 0.0, 0.0, 0.0, 0.0, 0.0, 0.0, 0.0, 0.0, 0.0, 1.695760970556327E9, 0.0, 2023-09-26 15:42:50.556
8.0, 12911.574591585946, 36578.94272553238, -44278.51519328537, -45577.50917405, -24138.118223919657, -26352.259677917922, -187500.02235174447, 4533.85019705894, -12265.51976984975, -33612.84388456868, -44827.65285106336, -40599.41805594183, -20578.357050223, -24616.06557560749, -47263.16598214698, -32651.405948568103, 0.026000000000000002, 1.008, -0.008, 192.0, 0.0, 104.0, 15.5, 64.0, 127.5, 96.0, 0.0, 0.0, 0.0, 1.695760970556336E9, 0.0, 2023-09-26 15:42:50.556
10.0, 12916.536678855024, 36590.34211520459, -44274.491879283414, -45574.64815075972, -24132.798508739295, -26356.394750642154, -187500.02235174447, 4543.193226241258, -12265.89974950549, -33609.066439755734, -44832.86080752144, -40599.75333210866, -20566.041239028127, -24613.00338661711, -47269.71504327239, -32664.03468418535, 0.026000000000000002, 1.008, -0.008, 192.0, 0.0, 0.0, 0.0, 0.0, 0.0, 0.0, 0.0, 0.0, 0.0, 1.695760970556345E9, 0.0, 2023-09-26 15:42:50.556
12.0, 12911.21696367466, 36587.05640876966, -44271.38498680413, -45569.12726987926, -24136.57595355224, -26348.325770893785, -187500.02235174447, 4529.938641779261, -12268.134923951022, -33609.89345430058, -44825.75295278466, -40593.80776808355, -20578.334698478546, -24610.410584260295, -47267.72573801586, -32658.93848644954, 0.026000000000000002, 1.008, -0.008, 192.0, 0.0, 0.0, 0.0, 0.0, 0.0, 0.0, 0.0, 0.0, 0.0, 1.695760970556354E9, 0.0, 2023-09-26 15:42:50.556
14.0, 12916.17905094374, 36589.40334193747, -44286.740635244925, -45568.23320010104, -24146.54483157931, -26351.83499477327, -187500.02235174447, 4560.784049127585, -12265.89974950549, -33611.256910712356, -44825.462380106736, -40586.163471479835, -20565.862425072482, -24611.036433105044, -47266.96577870438, -32648.500221788912, 0.026000000000000002, 1.008, -0.008, 192.0, 0.0, 0.0, 0.0, 0.0, 0.0, 0.0, 0.0, 0.0, 0.0, 1.695760970556414E9, 0.0, 2023-09-26 15:42:50.556
16.0, 12907.528925839535, 36577.89219354298, -44275.72122522846, -45567.763813467485, -24137.425319841543, -26344.883602247668, -187500.02235174447, 4514.404179382823, -12283.803496814191, -33627.596035909184, -44836.77236280112, -40603.37431471042, -20573.037335042638, -24621.765270443593, -47273.961874718894, -32655.89864920362, 0.026000000000000002, 1.008, -0.008, 192.0, 0.0, 0.0, 0.0, 0.0, 0.0, 0.0, 0.0, 0.0, 0.0, 1.695760970616548E9, 0.0, 2023-09-26 15:42:50.616
18.0, 12921.23054519064, 36599.48397868681, -44280.70566424199, -45571.943589680624, -24140.10752917618, -26351.3209046508, -187500.02235174447, 4574.195095800769, -12263.016374470757, -33599.61165185114, -44823.96481322823, -40585.76114007964, -20554.999477267203, -24609.449459248717, -47264.21651413638, -32651.69652124602, 0.022, 1.008, -0.01, 192.0, 0.0, 88.0, 15.5, 64.0, 127.5, 88.0, 0.0, 0.0, 0.0, 1.695760970616571E9, 0.0, 2023-09-26 15:42:50.616
20.0, 12907.394815372803, 36588.9339553039, -44276.458832795484, -45570.02133965747, -24141.96272396597, -26349.44335811655, -187500.02235174447, 4519.500377118633, -12275.578054854639, -33607.188893221486, -44832.61493833244, -40594.65713437285, -20554.463035400277, -24601.983976600644, -47265.91524671498, -32654.89282070313, 0.022, 1.008, -0.01, 192.0, 0.0, 0.0, 0.0, 0.0, 0.0, 0.0, 0.0, 0.0, 0.0, 1.695760970616582E9, 0.0, 2023-09-26 15:42:50.616
22.0, 12916.827251532943, 36607.48590320181, -44270.803841448294, -45576.81626997188, -24140.331046620733, -26358.205241943033, -187500.02235174447, 4581.19119181528, -12268.984290240323, -33609.93815778949, -44829.083362708494, -40597.02641928511, -20602.31812027909, -24619.35128204242, -47266.11641241508, -32657.060939915296, 0.022, 1.008, -0.01, 192.0, 0.0, 0.0, 0.0, 0.0, 0.0, 0.0, 0.0, 0.0, 0.0, 1.695760970616592E9, 0.0, 2023-09-26 15:42:50.616
24.0, 12907.84185026191, 36588.732789603804, -44271.72026297096, -45572.927066436656, -24132.038549427816, -26355.388922141665, -187500.02235174447, 4500.501394331622, -12278.640243845015, -33599.96927976242, -44825.14945568436, -40597.87578557441, -20580.525169435165, -24609.53886622654, -47265.24469438133, -32659.586687038744, 0.022, 1.008, -0.01, 192.0, 0.0, 0.0, 0.0, 0.0, 0.0, 0.0, 0.0, 0.0, 0.0, 1.69576097061661E9, 0.0, 2023-09-26 15:42:50.616
26.0, 12920.515289368068, 36603.507292688766, -44271.787318204326, -45581.68895026314, -24138.118223919657, -26360.149843710646, -187500.02235174447, 4575.647959190364, -12258.61308081306, -33611.301614201264, -44823.11544693893, -40597.004067540656, -20568.142303006924, -24618.859543664403, -47268.239828138336, -32663.207669640506, 0.022, 1.008, -0.01, 192.0, 0.0, 0.0, 0.0, 0.0, 0.0, 0.0, 0.0, 0.0, 0.0, 1.69576097061662E9, 0.0, 2023-09-26 15:42:50.616
28.0, 12900.622236802845, 36580.01560926624, -44285.980675933446, -45584.952304953615, -24146.902459490593, -26367.660029847626, -187500.02235174447, 4510.023237469582, -12264.71510704936, -33629.11595453214, -44831.38559238739, -40611.666811903335, -20565.39303843892, -24633.857564193913, -47278.32046488768, -32672.684809289553, 0.016, 1.006, -0.014, 192.0, 0.0, 64.0, 15.5, 56.0, 127.5, 72.0, 0.0, 0.0, 0.0, 1.69576097061663E9, 0.0, 2023-09-26 15:42:50.616
30.0, 12923.041036491519, 36603.373182222036, -44273.106071127186, -45565.68510123314, -24140.509860576378, -26353.913707007614, -187500.02235174447, 4560.515828194121, -12269.453676873885, -33595.722448315915, -44825.90941499584, -40595.0818175175, -20570.891567574927, -24613.405718017308, -47277.87342999857, -32667.543908064832, 0.016, 1.006, -0.014, 192.0, 0.0, 0.0, 0.0, 0.0, 0.0, 0.0, 0.0, 0.0, 0.0, 1.695760970675999E9, 0.0, 2023-09-26 15:42:50.675
32.0, 12909.652341562789, 36582.586059878595, -44290.27221086886, -45572.368272825275, -24148.511785091378, -26362.519128622906, -187500.02235174447, 4494.667589028787, -12273.834618787125, -33611.83805606819, -44826.33409814049, -40599.17218675282, -20563.917823304873, -24618.59132273094, -47280.84621201113, -32669.890841232642, 0.016, 1.006, -0.014, 192.0, 0.0, 0.0, 0.0, 0.0, 0.0, 0.0, 0.0, 0.0, 0.0, 1.695760970676026E9, 0.0, 2023-09-26 15:42:50.676
34.0, 12920.202364945695, 36597.78524610821, -44276.86116419568, -45575.63162751575, -24144.957857722984, -26365.849538546747, -187500.02235174447, 4579.783031914596, -12275.555703110183, -33610.09462000068, -44833.88898776639, -40597.1828814963, -20550.976163265248, -24614.903284895812, -47284.26602891279, -32672.930678478562, 0.016, 1.006, -0.014, 192.0, 0.0, 0.0, 0.0, 0.0, 0.0, 0.0, 0.0, 0.0, 0.0, 1.695760970676036E9, 0.0, 2023-09-26 15:42:50.676
36.0, 12906.143117683307, 36575.09822548607, -44270.46856528146, -45574.06700540388, -24142.432110599533, -26364.486082134972, -187500.02235174447, 4508.860946757906, -12274.996909498801, -33626.09846903068, -44828.43516211929, -40610.99625956968, -20596.573721954075, -24618.188991330742, -47276.08529044215, -32671.589573811245, 0.016, 1.006, -0.014, 192.0, 0.0, 0.0, 0.0, 0.0, 0.0, 0.0, 0.0, 0.0, 0.0, 1.695760970676092E9, 0.0, 2023-09-26 15:42:50.676
38.0, 12910.166431685262, 36594.7901123512, -44270.11093737018, -45575.788089726935, -24144.35436062269, -26364.486082134972, -187500.02235174447, 4602.4700525367325, -12267.66553731746, -33609.424067667016, -44823.13779868338, -40600.423884442316, -20588.08005906106, -24620.40181403182, -47278.34281663213, -32670.04730344383, 0.01, 1.01, -0.018000000000000002, 192.0, 0.0, 40.0, 15.5, 72.0, 127.5, 56.0, 0.0, 0.0, 0.0, 1.695760970676102E9, 0.0, 2023-09-26 15:42:50.676
40.0, 12882.405565071771, 36577.44515865388, -44275.207135105986, -45566.31095007789, -24137.40296809709, -26358.026427987388, -187500.02235174447, 4539.862816317417, -12266.838522772614, -33612.75447759086, -44821.03673470458, -40606.21298625624, -20573.484369931743, -24620.848848920927, -47273.93952297444, -32663.632352785156, 0.01, 1.01, -0.018000000000000002, 192.0, 0.0, 0.0, 0.0, 0.0, 0.0, 0.0, 0.0, 0.0, 0.0, 1.695760970676112E9, 0.0, 2023-09-26 15:42:50.676
42.0, 12876.057669646463, 36591.01266753825, -44271.31793157076, -45572.41297631419, -24142.275648388346, -26365.715428080017, -187500.02235174447, 4608.885003195405, -12278.819057800658, -33615.995480536876, -44823.54013008358, -40606.72707637872, -20578.02177405617, -24622.435822777254, -47276.68878754244, -32660.32429460577, 0.01, 1.01, -0.018000000000000002, 192.0, 0.0, 0.0, 0.0, 0.0, 0.0, 0.0, 0.0, 0.0, 0.0, 1.695760970676121E9, 0.0, 2023-09-26 15:42:50.676
44.0, 12858.489198504592, 36568.884440527494, -44279.56572527477, -45580.39254908473, -24145.047264700803, -26373.13620723918, -187500.02235174447, 4551.642185645364, -12271.57709259714, -33618.3871171936, -44825.37297312891, -40612.315012492545, -20563.78371283814, -24626.34737805693, -47281.516764344786, -32669.779082510366, 0.01, 1.01, -0.018000000000000002, 192.0, 0.0, 0.0, 0.0, 0.0, 0.0, 0.0, 0.0, 0.0, 0.0, 1.69576097067613E9, 0.0, 2023-09-26 15:42:50.676
46.0, 12865.664108474746, 36587.16816749194, -44261.19259133251, -45569.9542844241, -24133.603171539686, -26366.0730559913, -187500.02235174447, 4606.381607816411, -12290.218447472866, -33627.43957369799, -44828.01047897464, -40612.739695637196, -20575.54073042163, -24624.15690710031, -47280.3097701442, -32669.019123198883, 0.01, 1.01, -0.018000000000000002, 192.0, 0.0, 0.0, 0.0, 0.0, 0.0, 0.0, 0.0, 0.0, 0.0, 1.695760970736628E9, 0.0, 2023-09-26 15:42:50.736
48.0, 12857.393963026281, 36575.36644641953, -44278.44813805201, -45577.28565660545, -24137.894706475105, -26362.22855594499, -187500.02235174447, 4565.5449706965655, -12284.272883447753, -33624.71266087445, -44821.550824827056, -40612.024439814624, -20543.48832887272, -24618.457212264206, -47275.63825555304, -32667.208631898004, 0.006, 1.01, -0.02, 192.0, 0.0, 24.0, 15.5, 72.0, 127.5, 48.0, 0.0, 0.0, 0.0, 1.695760970736652E9, 0.0, 2023-09-26 15:42:50.736
50.0, 12865.105314863362, 36587.19051923639, -44250.6425679496, -45570.02133965747, -24126.852944714185, -26370.811625815826, -187500.02235174447, 4593.775223943619, -12262.546987837195, -33609.87110255612, -44815.71701952422, -40609.856320602456, -20585.26373925969, -24611.461116249695, -47271.41377585099, -32668.19210865404, 0.006, 1.01, -0.02, 192.0, 0.0, 0.0, 0.0, 0.0, 0.0, 0.0, 0.0, 0.0, 0.0, 1.695760970736667E9, 0.0, 2023-09-26 15:42:50.736
52.0, 12852.186006568196, 36576.97577202031, -44257.862181408665, -45558.86781917427, -24125.86946795815, -26363.480253634483, -187500.02235174447, 4566.4837439636885, -12262.278766903732, -33607.63592811059, -44805.63638277488, -40607.10705603445, -20573.283204231644, -24616.53496224105, -47269.916208972485, -32668.437977843045, 0.006, 1.01, -0.02, 192.0, 0.0, 0.0, 0.0, 0.0, 0.0, 0.0, 0.0, 0.0, 0.0, 1.695760970736678E9, 0.0, 2023-09-26 15:42:50.736
54.0, 12842.552404707958, 36578.09335924308, -44265.551181501294, -45569.97663616856, -24132.329122105733, -26367.34710542525, -187500.02235174447, 4571.669348677319, -12269.498380362795, -33615.81666658124, -44810.777283999596, -40609.87867234692, -20554.284221444635, -24615.819706418482, -47274.2077439079, -32663.252373129413, 0.006, 1.01, -0.02, 192.0, 0.0, 0.0, 0.0, 0.0, 0.0, 0.0, 0.0, 0.0, 0.0, 1.695760970736687E9, 0.0, 2023-09-26 15:42:50.736
56.0, 12840.786616895988, 36579.41211216594, -44268.03222513583, -45575.83279321585, -24134.810165740273, -26375.46078866253, -187500.02235174447, 4585.0356918615935, -12284.09406949211, -33605.69132634298, -44819.47211259272, -40617.07593406152, -20583.07326830307, -24621.094718109933, -47284.04251146824, -32678.920945992584, 0.006, 1.01, -0.02, 192.0, 0.0, 0.0, 0.0, 0.0, 0.0, 0.0, 0.0, 0.0, 0.0, 1.695760970736696E9, 0.0, 2023-09-26 15:42:50.736
58.0, 12833.812872625933, 36579.97090577733, -44258.912713398066, -45574.759909481996, -24130.608037782677, -26377.0254107744, -187500.02235174447, 4590.221296575224, -12284.42934565894, -33612.910939802045, -44810.084379921485, -40617.835893373005, -20575.719544377273, -24613.62923546186, -47281.20383992241, -32677.333972136257, 0.002, 1.014, -0.028, 192.0, 0.0, 8.0, 15.5, 88.0, 127.5, 16.0, 0.0, 0.0, 0.0, 1.695760970736738E9, 0.0, 2023-09-26 15:42:50.736
60.0, 12837.657372672245, 36587.0340570252, -44257.21398081946, -45574.1564123817, -24128.95400869298, -26378.299460208353, -187500.02235174447, 4596.211564089246, -12293.191229485421, -33611.659242112546, -44807.91626070932, -40617.50061720617, -20574.624308898965, -24621.92173265478, -47283.64018006804, -32679.792664026343, 0.002, 1.014, -0.028, 192.0, 0.0, 0.0, 0.0, 0.0, 0.0, 0.0, 0.0, 0.0, 0.0, 1.695760970796066E9, 0.0, 2023-09-26 15:42:50.796
62.0, 12835.802177882455, 36587.61520238104, -44257.54925698629, -45575.96690368258, -24138.140575664114, -26379.394695686664, -187500.02235174447, 4590.064834364037, -12249.784141753214, -33605.69132634298, -44798.126196637895, -40623.55793995356, -20580.83809385754, -24613.20455231721, -47284.91422950199, -32681.80432102732, 0.002, 1.014, -0.028, 192.0, 0.0, 0.0, 0.0, 0.0, 0.0, 0.0, 0.0, 0.0, 0.0, 1.695760970796091E9, 0.0, 2023-09-26 15:42:50.796
64.0, 12846.128683820807, 36600.02042055374, -44265.5958849902, -45560.32068256386, -24133.200840139492, -26363.547308867852, -187500.02235174447, 4624.1288929139255, -12265.162141938466, -33603.813779808734, -44802.50713855113, -40612.47147470373, -20563.64960237141, -24614.210380817698, -47286.65766556951, -32679.09975994823, 0.002, 1.014, -0.028, 192.0, 0.0, 0.0, 0.0, 0.0, 0.0, 0.0, 0.0, 0.0, 0.0, 1.695760970796101E9, 0.0, 2023-09-26 15:42:50.796
66.0, 12846.39690475427, 36597.31585947464, -44255.93993138551, -45552.944606893616, -24127.277627858835, -26358.629925087684, -187500.02235174447, 4576.318511524023, -12266.503246605784, -33596.66122158304, -44795.823966959, -40610.39276246938, -20593.958567852806, -24620.848848920927, -47274.07363344117, -32671.32135287778, 0.002, 1.014, -0.028, 192.0, 0.0, 0.0, 0.0, 0.0, 0.0, 0.0, 0.0, 0.0, 0.0, 1.69576097079611E9, 0.0, 2023-09-26 15:42:50.796
68.0, 12859.36091653835, 36609.7434293918, -44264.232428578434, -45558.64430172972, -24129.78102323783, -26366.96712576951, -187500.02235174447, 4627.191081904302, -12268.514903606761, -33579.33861963017, -44790.03486514508, -40596.020590784625, -20588.974128839272, -24596.686613164737, -47267.85984848259, -32672.617754056188, 0.002, 1.014, -0.028, 192.0, 0.0, 0.0, 15.5, 80.0, 127.5, 24.0, 0.0, 0.0, 0.0, 1.695760970796119E9, 0.0, 2023-09-26 15:42:50.796
70.0, 12854.085904846896, 36594.03015303971, -44272.88255368263, -45558.84546742982, -24126.383558080623, -26364.21786120151, -187500.02235174447, 4572.988101600183, -12266.123266950044, -33583.4289888655, -44793.63349600238, -40604.469550188725, -20583.386192725444, -24599.63704343284, -47267.12224091557, -32678.876242503673, 0.002, 1.014, -0.028, 192.0, 0.0, 0.0, 0.0, 0.0, 0.0, 0.0, 0.0, 0.0, 0.0, 1.695760970796129E9, 0.0, 2023-09-26 15:42:50.796
72.0, 12885.534809295514, 36616.225435283835, -44286.04773116681, -45565.64039774423, -24132.48558431692, -26378.612384630727, -187500.02235174447, 4660.718698587263, -12268.29138616221, -33594.671916326515, -44802.50713855113, -40598.14400650788, -20582.87210260297, -24607.370747014375, -47268.709214771894, -32682.340762894248, 0.002, 1.014, -0.028, 192.0, 0.0, 0.0, 0.0, 0.0, 0.0, 0.0, 0.0, 0.0, 0.0, 1.695760970796138E9, 0.0, 2023-09-26 15:42:50.796
74.0, 12894.475507077635, 36601.56269092115, -44284.86308871068, -45549.234217314035, -24127.456441814476, -26361.803872800338, -187500.02235174447, 4574.217447545225, -12252.086371432111, -33590.492140113376, -44798.01443791562, -40602.79316935458, -20579.519340934676, -24592.35037474041, -47272.97839796286, -32691.4155711431, 0.002, 1.014, -0.028, 192.0, 0.0, 0.0, 0.0, 0.0, 0.0, 0.0, 0.0, 0.0, 0.0, 1.695760970796147E9, 0.0, 2023-09-26 15:42:50.796
76.0, 12914.636780576324, 36620.80754289717, -44295.07783592676, -45568.814345456885, -24136.888877974616, -26379.819378831315, -187500.02235174447, 4658.036489252626, -12258.56837732415, -33579.60684056364, -44796.22629835919, -40585.89525054637, -20570.73510536374, -24589.087020049934, -47272.79958400722, -32691.907309521117, 0.002, 1.014, -0.028, 192.0, 0.0, 0.0, 0.0, 0.0, 0.0, 0.0, 0.0, 0.0, 0.0, 1.695760970856396E9, 0.0, 2023-09-26 15:42:50.856
78.0, 12898.297655379494, 36589.47039717083, -44311.37225763467, -45571.250685602514, -24141.58274431023, -26380.1770067426, -187500.02235174447, 4620.954945201272, -12280.607197357083, -33595.990669249375, -44812.72188576721, -40607.196463012275, -20590.002309084215, -24615.640892462838, -47280.35447363311, -32708.335841695767, -0.002, 1.008, -0.032, 192.0, 127.5, 120.0, 15.5, 64.0, 127.5, 0.0, 0.0, 0.0, 0.0, 1.695760970856418E9, 0.0, 2023-09-26 15:42:50.856
80.0, 12924.315085925471, 36614.79492363869, -44290.093396913224, -45559.8065924414, -24130.988017438416, -26368.01765775891, -187500.02235174447, 4702.181184551858, -12281.702432835393, -33597.9799745059, -44811.20196714425, -40599.70862861975, -20597.020756843183, -24603.258026034597, -47269.87150548357, -32696.37765841218, -0.002, 1.008, -0.032, 192.0, 0.0, 0.0, 0.0, 0.0, 0.0, 0.0, 0.0, 0.0, 0.0, 1.695760970856463E9, 0.0, 2023-09-26 15:42:50.856
82.0, 12918.503632367092, 36596.31003097416, -44284.505460799395, -45558.86781917427, -24125.131860391124, -26356.908840764623, -187500.02235174447, 4618.563308544553, -12268.112572206566, -33579.78565451928, -44799.13202513839, -40595.84177682898, -20586.64954741592, -24588.841150860924, -47258.04743266672, -32690.633260087165, -0.002, 1.008, -0.032, 192.0, 0.0, 0.0, 0.0, 0.0, 0.0, 0.0, 0.0, 0.0, 0.0, 1.695760970856472E9, 0.0, 2023-09-26 15:42:50.856
84.0, 12936.094455253418, 36618.86294112956, -44280.593905519716, -45550.3518045368, -24131.658569772073, -26352.59495408475, -187500.02235174447, 4705.198670053323, -12260.423572113941, -33597.957622761445, -44791.35361806794, -40591.952573293755, -20582.13449503595, -24591.031621817547, -47258.56152278918, -32684.821806528787, -0.002, 1.008, -0.032, 192.0, 0.0, 0.0, 0.0, 0.0, 0.0, 0.0, 0.0, 0.0, 0.0, 1.695760970856481E9, 0.0, 2023-09-26 15:42:50.856
86.0, 12921.454062635192, 36595.55007166268, -44291.12157715816, -45555.045670872416, -24137.112395419168, -26355.523032608395, -187500.02235174447, 4644.3795733904335, -12250.499397575784, -33570.487328825875, -44787.59852499945, -40583.34715167846, -20573.663183887387, -24580.682764134737, -47264.61884553658, -32685.984097240464, -0.002, 1.008, -0.032, 192.0, 0.0, 0.0, 0.0, 0.0, 0.0, 0.0, 0.0, 0.0, 0.0, 1.69576097085649E9, 0.0, 2023-09-26 15:42:50.856
88.0, 12927.712551082677, 36605.96598457885, -44286.58417303374, -45569.149621623714, -24131.30094186079, -26367.302401936344, -187500.02235174447, 4697.800242638617, -12263.016374470757, -33589.53101510179, -44795.37693206989, -40589.8291575705, -20571.36095420849, -24590.741049139626, -47268.03866243824, -32694.991850255952, 0.006, 1.012, -0.04, 192.0, 0.0, 24.0, 15.5, 80.0, 127.0, 96.0, 0.0, 0.0, 0.0, 1.695760970856499E9, 0.0, 2023-09-26 15:42:50.856
90.0, 12915.84377477691, 36594.20896699536, -44283.879611954646, -45552.87755166025, -24134.54194480681, -26358.965201254512, -187500.02235174447, 4632.331983129023, -12270.370098396552, -33588.234613923385, -44794.840490202965, -40591.684352360295, -20577.84296010053, -24600.978148100156, -47266.25052288181, -32697.696411335044, 0.006, 1.012, -0.04, 192.0, 0.0, 0.0, 0.0, 0.0, 0.0, 0.0, 0.0, 0.0, 0.0, 1.695760970916666E9, 0.0, 2023-09-26 15:42:50.916
92.0, 12921.431710890736, 36609.363449736054, -44269.08275712523, -45556.00679588399, -24132.26206687237, -26359.635753588173, -187500.02235174447, 4681.684634886341, -12263.105781448578, -33581.663201053525, -44791.420673301305, -40580.843756299466, -20582.64858515842, -24592.28331950704, -47267.01048219329, -32690.901481020628, 0.006, 1.012, -0.04, 192.0, 0.0, 0.0, 0.0, 0.0, 0.0, 0.0, 0.0, 0.0, 0.0, 1.695760970916705E9, 0.0, 2023-09-26 15:42:50.916
94.0, 12898.767042013054, 36584.30714420166, -44286.4053590781, -45565.528639021955, -24131.72562500544, -26372.08567524978, -187500.02235174447, 4632.4660935957545, -12263.57516808214, -33595.40952389354, -44805.97165894171, -40590.74557909317, -20575.49602693272, -24597.357165498397, -47268.083365927145, -32699.082219491273, 0.006, 1.012, -0.04, 192.0, 0.0, 0.0, 0.0, 0.0, 0.0, 0.0, 0.0, 0.0, 0.0, 1.695760970916715E9, 0.0, 2023-09-26 15:42:50.916
96.0, 12907.908905495276, 36597.51702517474, -44262.66780646656, -45563.6063889988, -24124.349549335187, -26363.010867000925, -187500.02235174447, 4672.54277140412, -12285.278711948242, -33603.83613155319, -44818.42158060332, -40598.36752395243, -20594.338547508545, -24608.130706325854, -47268.508049071796, -32705.296004449847, 0.006, 1.012, -0.04, 192.0, 0.0, 0.0, 0.0, 0.0, 0.0, 0.0, 0.0, 0.0, 0.0, 1.695760970916725E9, 0.0, 2023-09-26 15:42:50.916
98.0, 12917.564859099968, 36594.834815840106, -44264.657111723085, -45557.72788020705, -24121.53322953382, -26374.522015395407, -187500.02235174447, 4645.340698402011, -12242.631583527516, -33573.907145727535, -44796.449815803746, -40587.50457614715, -20557.324058690556, -24597.44657247622, -47257.64510126652, -32698.545777624346, 0.002, 1.012, -0.04, 192.0, 0.0, 8.0, 15.5, 80.0, 127.0, 96.0, 0.0, 0.0, 0.0, 1.695760970916734E9, 0.0, 2023-09-26 15:42:50.916
100.0, 12915.754367799089, 36599.238109497805, -44271.85437343769, -45567.11561287828, -24134.92192446255, -26377.293631707864, -187500.02235174447, 4686.579666922053, -12262.748153537292, -33594.64956458206, -44813.14656891186, -40591.751407593656, -20578.625271156463, -24611.103488338413, -47273.24661889632, -32707.307661450825, 0.002, 1.012, -0.04, 192.0, 0.0, 0.0, 0.0, 0.0, 0.0, 0.0, 0.0, 0.0, 0.0, 1.695760970916783E9, 0.0, 2023-09-26 15:42:50.916
102.0, 12906.053710705484, 36587.8834233145, -44281.711492742485, -45571.16127862469, -24134.564296551263, -26387.441323690575, -187500.02235174447, 4697.4426147273325, -12274.527522865239, -33601.26568094083, -44823.58483357249, -40597.1828814963, -20588.54944569462, -24620.804145432016, -47281.33795038914, -32715.577806899288, 0.002, 1.012, -0.04, 192.0, 0.0, 0.0, 0.0, 0.0, 0.0, 0.0, 0.0, 0.0, 0.0, 1.695760970916792E9, 0.0, 2023-09-26 15:42:50.916
104.0, 12908.288885151016, 36592.82315883913, -44261.43846052152, -45550.64237721472, -24122.516706289854, -26369.291707192864, -187500.02235174447, 4673.213323737779, -12286.217485215366, -33588.167558690024, -44818.84626374797, -40591.550241893565, -20575.965413566282, -24609.628273204362, -47270.92203747297, -32703.641975360155, 0.002, 1.012, -0.04, 192.0, 0.0, 0.0, 0.0, 0.0, 0.0, 0.0, 0.0, 0.0, 0.0, 1.695760970916801E9, 0.0, 2023-09-26 15:42:50.916
106.0, 12912.6474753198, 36595.57242340713, -44271.31793157076, -45553.81632492737, -24132.709101761473, -26376.779541585394, -187500.02235174447, 4698.783719394651, -12262.18935992591, -33573.66127653853, -44809.12325490991, -40576.03813124158, -20588.84001837254, -24599.122953310365, -47267.77044150477, -32696.93645202356, 0.002, 1.012, -0.04, 192.0, 0.0, 0.0, 0.0, 0.0, 0.0, 0.0, 0.0, 0.0, 0.0, 1.695760970976046E9, 0.0, 2023-09-26 15:42:50.976
108.0, 12907.12659443934, 36591.10207451607, -44279.23044910794, -45560.141868608225, -24130.07159591575, -26374.9243467956, -187500.02235174447, 4693.374597236467, -12271.510037363772, -33585.9770877334, -44823.94246148378, -40592.444311671774, -20566.26475647268, -24613.562180228495, -47279.30394164371, -32707.24060621746, 0.004, 1.014, -0.042, 192.0, 0.0, 16.0, 15.5, 88.0, 127.0, 88.0, 0.0, 0.0, 0.0, 1.695760970976068E9, 0.0, 2023-09-26 15:42:50.976
110.0, 12914.815594531965, 36594.65600188446, -44278.202268862995, -45566.24389484452, -24132.06090117227, -26382.814512588324, -187500.02235174447, 4733.875958189483, -12263.552816337684, -33590.64860232456, -44818.399228858856, -40588.01866626962, -20588.59414918353, -24611.21524706069, -47276.35351137561, -32708.38054518468, 0.004, 1.014, -0.042, 192.0, 0.0, 0.0, 0.0, 0.0, 0.0, 0.0, 0.0, 0.0, 0.0, 1.695760970976079E9, 0.0, 2023-09-26 15:42:50.976
112.0, 12906.299579894494, 36583.61424012354, -44275.78828046183, -45563.82990644335, -24130.183354638026, -26384.781466100394, -187500.02235174447, 4697.956704849805, -12269.408973384974, -33598.49406462837, -44819.025077703605, -40594.36656169493, -20588.28122476116, -24621.161773343298, -47280.198011421926, -32713.409687687123, 0.004, 1.014, -0.042, 192.0, 0.0, 0.0, 0.0, 0.0, 0.0, 0.0, 0.0, 0.0, 0.0, 1.695760970976088E9, 0.0, 2023-09-26 15:42:50.976
114.0, 12916.402568388292, 36593.918394317436, -44281.8008997203, -45565.88626693324, -24129.37869183763, -26381.518111409918, -187500.02235174447, 4717.6932952038405, -12279.511961878772, -33585.306535399744, -44818.42158060332, -40589.248012214666, -20564.610727382988, -24596.86542712038, -47274.453613096906, -32709.386373685167, 0.004, 1.014, -0.042, 192.0, 0.0, 0.0, 0.0, 0.0, 0.0, 0.0, 0.0, 0.0, 0.0, 1.695760970976097E9, 0.0, 2023-09-26 15:42:50.976
116.0, 12916.044940477008, 36585.93882154689, -44271.56380075977, -45547.423726013156, -24127.16586913656, -26369.872852548702, -187500.02235174447, 4677.080175528547, -12250.141769664498, -33573.10248292714, -44820.18736841528, -40589.49388140367, -20564.58837563853, -24609.851790648914, -47274.56537181919, -32705.98890852796, 0.004, 1.014, -0.042, 192.0, 0.0, 0.0, 0.0, 0.0, 0.0, 0.0, 0.0, 0.0, 0.0, 1.695760970976105E9, 0.0, 2023-09-26 15:42:50.976
118.0, 12915.240277676616, 36590.76679834924, -44276.79410896231, -45555.2021330836, -24135.324255862746, -26378.634736375185, -187500.02235174447, 4731.730190721773, -12270.683022818926, -33595.14130296007, -44822.95898472774, -40585.71643659072, -20574.579605410054, -24619.552447742517, -47273.894819485526, -32702.546739881844, -0.002, 1.016, -0.048, 192.0, 127.5, 120.0, 15.5, 96.0, 127.0, 64.0, 0.0, 0.0, 0.0, 1.695760970976114E9, 0.0, 2023-09-26 15:42:50.976
120.0, 12903.863239748865, 36579.74738833278, -44277.06232989578, -45560.79006919743, -24130.049244171292, -26381.473407921007, -187500.02235174447, 4668.653567868897, -12294.331168452642, -33589.10633195714, -44826.7811330296, -40597.1828814963, -20581.173370024368, -24614.366843028885, -47287.954066747916, -32716.941263311062, -0.002, 1.016, -0.048, 192.0, 0.0, 0.0, 0.0, 0.0, 0.0, 0.0, 0.0, 0.0, 0.0, 1.695760971035874E9, 0.0, 2023-09-26 15:42:51.035
122.0, 12902.969169970653, 36585.82706282462, -44276.36942581766, -45578.02326417247, -24136.10656691868, -26394.213902260533, -187500.02235174447, 4742.995469927248, -12246.476083573829, -33589.50866335734, -44809.68204852129, -40592.578422138504, -20573.5067216762, -24611.68463369425, -47274.05128169672, -32713.14146675366, -0.002, 1.016, -0.048, 192.0, 0.0, 0.0, 0.0, 0.0, 0.0, 0.0, 0.0, 0.0, 0.0, 1.69576097103593E9, 0.0, 2023-09-26 15:42:51.035
124.0, 12883.277283105528, 36570.42671089491, -44279.118690385665, -45561.59473199782, -24132.48558431692, -26386.0778672788, -187500.02235174447, 4686.847887855517, -12288.922046294458, -33604.99842226486, -44836.41473488983, -40614.10315204896, -20576.54655892212, -24623.016968133088, -47293.43024413947, -32726.172533771103, -0.002, 1.016, -0.048, 192.0, 0.0, 0.0, 0.0, 0.0, 0.0, 0.0, 0.0, 0.0, 0.0, 1.695760971035941E9, 0.0, 2023-09-26 15:42:51.035
126.0, 12891.83800123191, 36584.66477211294, -44278.09051014072, -45568.74729022352, -24127.478793558934, -26387.866006835226, -187500.02235174447, 4742.973118182793, -12292.543028896216, -33580.36679987512, -44831.65381332086, -40596.579384396005, -20583.520303192177, -24611.371709271876, -47286.79177603624, -32719.399955201145, -0.002, 1.016, -0.048, 192.0, 0.0, 0.0, 0.0, 0.0, 0.0, 0.0, 0.0, 0.0, 0.0, 1.69576097103595E9, 0.0, 2023-09-26 15:42:51.035
128.0, 12878.985748170107, 36563.788242791685, -44269.52979201434, -45559.27015057447, -24131.88208721663, -26382.725105610505, -187500.02235174447, 4679.583570907542, -12259.842426758103, -33595.722448315915, -44816.521682324616, -40602.592003654485, -20569.952794307806, -24604.688537679736, -47283.59547657913, -32715.48839992147, -0.004, 1.016, -0.054, 192.0, 127.5, 112.0, 15.5, 96.0, 127.0, 40.0, 0.0, 0.0, 0.0, 1.695760971035966E9, 0.0, 2023-09-26 15:42:51.035
130.0, 12891.726242509634, 36581.08849300009, -44269.03805363632, -45561.48297327554, -24128.216401125956, -26383.954451555546, -187500.02235174447, 4769.236417917778, -12284.474049147851, -33606.697154843474, -44824.72477253971, -40600.51329142014, -20580.59222466853, -24622.34641579943, -47282.67905505646, -32713.342632453758, -0.004, 1.016, -0.054, 192.0, 0.0, 0.0, 0.0, 0.0, 0.0, 0.0, 0.0, 0.0, 0.0, 1.695760971035976E9, 0.0, 2023-09-26 15:42:51.035
132.0, 12884.081945905918, 36565.688141070386, -44268.90394316959, -45554.50922900549, -24129.244581370902, -26379.595861386762, -187500.02235174447, 4694.246315270223, -12265.787990783214, -33598.851692539654, -44817.43810384728, -40601.474416431716, -20569.818683841073, -24619.843020420438, -47278.96866547688, -32713.342632453758, -0.004, 1.016, -0.054, 192.0, 0.0, 0.0, 0.0, 0.0, 0.0, 0.0, 0.0, 0.0, 0.0, 1.695760971035985E9, 0.0, 2023-09-26 15:42:51.035
134.0, 12885.959492440164, 36582.04961801167, -44279.43161480804, -45567.763813467485, -24133.647875028597, -26390.45880919204, -187500.02235174447, 4784.212086702834, -12294.53233415274, -33587.474654611906, -44830.580929587, -40597.51815766313, -20593.310367263603, -24614.657415706806, -47285.22715392437, -32718.95292031204, -0.004, 1.016, -0.054, 192.0, 0.0, 0.0, 0.0, 0.0, 0.0, 0.0, 0.0, 0.0, 0.0, 1.695760971035994E9, 0.0, 2023-09-26 15:42:51.035
136.0, 12874.537751023503, 36564.30233291416, -44276.36942581766, -45561.66178723118, -24124.081328401724, -26385.65318413415, -187500.02235174447, 4722.700085961829, -12292.43127017394, -33593.84490178167, -44830.15624644235, -40604.35779146645, -20582.849750858517, -24608.86831389288, -47278.432223609954, -32716.874208077697, -0.004, 1.016, -0.054, 192.0, 0.0, 0.0, 0.0, 0.0, 0.0, 0.0, 0.0, 0.0, 0.0, 1.695760971096013E9, 0.0, 2023-09-26 15:42:51.096
138.0, 12887.971149441142, 36580.216774966335, -44270.11093737018, -45560.4547930306, -24126.74118599191, -26387.17310275711, -187500.02235174447, 4783.407423902443, -12279.511961878772, -33598.80698905075, -44822.15432192735, -40599.32864896401, -20562.10733200399, -24608.220113303676, -47278.231057909856, -32717.969443556005, -0.01, 1.016, -0.054, 192.0, 127.5, 88.0, 15.5, 96.0, 127.0, 40.0, 0.0, 0.0, 0.0, 1.695760971096035E9, 0.0, 2023-09-26 15:42:51.096
140.0, 12877.376422569327, 36557.88738225548, -44276.592943262214, -45565.729804722054, -24129.043415670803, -26398.259568006943, -187500.02235174447, 4736.401705312933, -12281.344804924109, -33608.239425210886, -44820.835569004485, -40606.95059382327, -20563.314326204578, -24617.071404107977, -47278.87925849906, -32717.544760411354, -0.01, 1.016, -0.054, 192.0, 0.0, 0.0, 0.0, 0.0, 0.0, 0.0, 0.0, 0.0, 0.0, 1.695760971096045E9, 0.0, 2023-09-26 15:42:51.096
142.0, 12888.664053519256, 36577.10988248705, -44263.33835880022, -45562.17587735366, -24130.608037782677, -26393.766867371425, -187500.02235174447, 4795.656179863951, -12277.679118833437, -33592.012058736334, -44820.500292837656, -40601.45206468726, -20590.94108235134, -24610.567046471482, -47278.8122032657, -32721.43396394658, -0.01, 1.016, -0.054, 192.0, 0.0, 0.0, 0.0, 0.0, 0.0, 0.0, 0.0, 0.0, 0.0, 1.695760971096054E9, 0.0, 2023-09-26 15:42:51.096
144.0, 12890.988634942609, 36569.39853064997, -44271.13911761512, -45569.55195302391, -24124.48365980192, -26389.095352780267, -187500.02235174447, 4783.51918262472, -12298.890924321524, -33593.911957015036, -44828.16694118583, -40606.8835385899, -20597.624253943475, -24624.939218156247, -47283.66253181249, -32723.04328954736, -0.01, 1.016, -0.054, 192.0, 0.0, 0.0, 0.0, 0.0, 0.0, 0.0, 0.0, 0.0, 0.0, 1.695760971096094E9, 0.0, 2023-09-26 15:42:51.096
146.0, 12897.6941582792, 36583.88246105701, -44269.7980129478, -45558.86781917427, -24127.747014492397, -26382.523939910407, -187500.02235174447, 4810.385979459998, -12267.173798939444, -33596.16948320502, -44814.01828694562, -40598.41222744134, -20567.49410241772, -24618.278398308565, -47278.74514803233, -32717.544760411354, -0.01, 1.016, -0.054, 192.0, 0.0, 0.0, 0.0, 0.0, 0.0, 0.0, 0.0, 0.0, 0.0, 1.695760971096103E9, 0.0, 2023-09-26 15:42:51.096
148.0, 12902.186858914716, 36585.111807002046, -44262.265475066364, -45548.98834812503, -24115.87823818663, -26375.50549215144, -187500.02235174447, 4796.796118831172, -12283.557627625183, -33574.55534631674, -44819.74033352618, -40591.14791049337, -20589.5105707062, -24599.569988199473, -47278.67809279896, -32716.51658016641, -0.012, 1.012, -0.05, 192.0, 127.5, 80.0, 15.5, 80.0, 127.0, 56.0, 0.0, 0.0, 0.0, 1.695760971096112E9, 0.0, 2023-09-26 15:42:51.096
150.0, 12903.080928692929, 36584.93299304641, -44264.45594602299, -45557.057327873394, -24121.332063833725, -26379.26058521993, -187500.02235174447, 4804.082787523602, -12278.9978717563, -33575.49411958386, -44813.839472989974, -40584.688256345784, -20570.489236174733, -24600.128781810854, -47264.84236298113, -32703.686678849066, -0.012, 1.012, -0.05, 192.0, 0.0, 0.0, 0.0, 0.0, 0.0, 0.0, 0.0, 0.0, 0.0, 1.695760971156362E9, 0.0, 2023-09-26 15:42:51.156
152.0, 12897.64945479029, 36582.49665290078, -44280.728015986446, -45564.09812737681, -24126.227095869435, -26388.13422776869, -187500.02235174447, 4809.3801509595105, -12291.112517251076, -33600.751590818356, -44825.954118484755, -40597.495805918676, -20557.88285230194, -24610.63410170485, -47279.19218292143, -32717.812981344818, -0.012, 1.012, -0.05, 192.0, 0.0, 0.0, 0.0, 0.0, 0.0, 0.0, 0.0, 0.0, 0.0, 1.695760971156387E9, 0.0, 2023-09-26 15:42:51.156
154.0, 12901.248085647594, 36590.52092916023, -44255.40348951858, -45549.03305161394, -24122.270837100845, -26386.346088212264, -187500.02235174447, 4813.179947516912, -12274.080487976133, -33583.60780282114, -44808.81033048753, -40590.209137226244, -20589.73408815075, -24600.933444611248, -47270.76557526179, -32712.18034174208, -0.012, 1.012, -0.05, 192.0, 0.0, 0.0, 0.0, 0.0, 0.0, 0.0, 0.0, 0.0, 0.0, 1.695760971156397E9, 0.0, 2023-09-26 15:42:51.156
156.0, 12899.906980980275, 36590.498577415776, -44261.90784715508, -45550.50826674799, -24117.979302165426, -26386.79312310137, -187500.02235174447, 4822.05359006567, -12271.398278641496, -33571.31434337072, -44811.93957471127, -40583.145985978364, -20586.82836137156, -24599.81585738848, -47269.983264205846, -32709.632242874177, -0.012, 1.012, -0.05, 192.0, 0.0, 0.0, 0.0, 0.0, 0.0, 0.0, 0.0, 0.0, 0.0, 1.695760971156407E9, 0.0, 2023-09-26 15:42:51.156
158.0, 12897.716510023656, 36587.90577505896, -44256.744594185904, -45542.64045269972, -24114.82770619723, -26375.684306107083, -187500.02235174447, 4787.609551860041, -12293.928837052446, -33576.924631229, -44818.15335966985, -40587.99631452517, -20577.440628700333, -24594.67495616376, -47269.04449093872, -32704.670155605098, -0.01, 1.01, -0.048, 192.0, 127.5, 88.0, 15.5, 72.0, 127.0, 64.0, 0.0, 0.0, 0.0, 1.695760971156416E9, 0.0, 2023-09-26 15:42:51.156
160.0, 12908.467699106659, 36592.37612395002, -44256.76694593036, -45561.48297327554, -24115.118278875147, -26385.139094011676, -187500.02235174447, 4819.505491197764, -12262.301118648187, -33580.81383476422, -44804.407036829834, -40582.117805733425, -20556.988782523727, -24607.460153992197, -47267.14459266002, -32707.732344595475, -0.01, 1.01, -0.048, 192.0, 0.0, 0.0, 0.0, 0.0, 0.0, 0.0, 0.0, 0.0, 0.0, 1.695760971156426E9, 0.0, 2023-09-26 15:42:51.156
162.0, 12890.005158186575, 36575.00881850825, -44256.83400116373, -45559.91835116367, -24113.95598816347, -26393.006908059946, -187500.02235174447, 4767.045946961159, -12284.786973570226, -33592.861425025636, -44808.743275254164, -40594.25480297265, -20564.275451216155, -24608.44363074823, -47265.87054322607, -32713.253225475935, -0.01, 1.01, -0.048, 192.0, 0.0, 0.0, 0.0, 0.0, 0.0, 0.0, 0.0, 0.0, 0.0, 1.695760971156436E9, 0.0, 2023-09-26 15:42:51.156
164.0, 12891.301559364982, 36583.90481280146, -44264.72416695645, -45571.0048164135, -24118.96277892146, -26399.80183837436, -187500.02235174447, 4844.226520565334, -12290.307854450686, -33600.88570128509, -44824.545958584065, -40599.55216640856, -20569.818683841073, -24625.38625304535, -47274.252447396815, -32724.965539570516, -0.01, 1.01, -0.048, 192.0, 0.0, 0.0, 0.0, 0.0, 0.0, 0.0, 0.0, 0.0, 0.0, 1.695760971156445E9, 0.0, 2023-09-26 15:42:51.156
166.0, 12879.186913870206, 36567.498632371266, -44268.38985304712, -45570.02133965747, -24124.26014235737, -26400.986480830492, -187500.02235174447, 4792.705749595851, -12308.971561070868, -33623.37155620713, -44836.6829558233, -40617.03123057261, -20574.780771110152, -24625.58741874545, -47281.18148817796, -32729.033557061382, -0.01, 1.01, -0.048, 192.0, 0.0, 0.0, 0.0, 0.0, 0.0, 0.0, 0.0, 0.0, 0.0, 1.695760971216587E9, 0.0, 2023-09-26 15:42:51.216
168.0, 12903.527963582035, 36595.527719918224, -44251.17900981653, -45557.01262438448, -24114.20185735248, -26401.634681419695, -187500.02235174447, 4857.212884093868, -12264.424534371441, -33581.663201053525, -44816.074647435504, -40588.93508779229, -20564.521320405165, -24597.91595910978, -47277.381691620554, -32717.723574367, -0.016, 1.012, -0.056, 192.0, 127.5, 64.0, 15.5, 80.0, 127.0, 32.0, 0.0, 0.0, 0.0, 1.695760971216618E9, 0.0, 2023-09-26 15:42:51.216
170.0, 12882.159695882761, 36572.393664406976, -44251.290768538805, -45557.81728718487, -24109.575046250233, -26388.715373124527, -187500.02235174447, 4767.135353938979, -12285.77045032626, -33591.587375591684, -44811.604298544444, -40594.92535530631, -20562.442608170822, -24609.33770052644, -47271.21261015089, -32717.23183598898, -0.016, 1.012, -0.056, 192.0, 0.0, 0.0, 0.0, 0.0, 0.0, 0.0, 0.0, 0.0, 0.0, 1.695760971216628E9, 0.0, 2023-09-26 15:42:51.216
172.0, 12893.559085554969, 36590.208004737855, -44245.144038813596, -45559.69483371912, -24108.77038344984, -26395.532655183397, -187500.02235174447, 4837.744514673294, -12276.270958932753, -33600.86334954063, -44810.48671132168, -40594.79124483958, -20572.79146585363, -24613.740994184136, -47271.793755506726, -32720.070507534805, -0.016, 1.012, -0.056, 192.0, 0.0, 0.0, 0.0, 0.0, 0.0, 0.0, 0.0, 0.0, 0.0, 1.695760971216638E9, 0.0, 2023-09-26 15:42:51.216
174.0, 12876.460001046658, 36571.92427777342, -44254.21884706245, -45562.3546913093, -24117.040528898306, -26400.047707563368, -187500.02235174447, 4777.283045921689, -12290.307854450686, -33599.54459661777, -44813.705362523244, -40603.910756577345, -20548.49511963071, -24611.975206372168, -47271.30201712871, -32723.356213969735, -0.016, 1.012, -0.056, 192.0, 0.0, 0.0, 0.0, 0.0, 0.0, 0.0, 0.0, 0.0, 0.0, 1.695760971216648E9, 0.0, 2023-09-26 15:42:51.216
176.0, 12890.251027375583, 36591.14677800498, -44249.50262898238, -45561.01358664198, -24116.68290098702, -26399.60067267426, -187500.02235174447, 4872.769698234761, -12295.404052186495, -33599.902224529054, -44826.17763592931, -40600.15566350886, -20580.681631646352, -24627.979055402167, -47282.276723656265, -32729.927626839595, -0.016, 1.012, -0.056, 192.0, 0.0, 0.0, 0.0, 0.0, 0.0, 0.0, 0.0, 0.0, 0.0, 1.695760971216664E9, 0.0, 2023-09-26 15:42:51.216
178.0, 12887.613521529856, 36571.6337050955, -44244.585245202215, -45555.69387146162, -24109.776211950328, -26392.671631893118, -187500.02235174447, 4765.906007993938, -12300.008511544289, -33607.948852532965, -44821.97550797171, -40607.621146156926, -20561.36972443697, -24613.182200572755, -47273.336025874145, -32723.736193625475, -0.018000000000000002, 1.012, -0.052000000000000005, 192.0, 127.5, 56.0, 15.5, 80.0, 127.0, 48.0, 0.0, 0.0, 0.0, 1.695760971216673E9, 0.0, 2023-09-26 15:42:51.216
180.0, 12912.021626475052, 36601.473283943335, -44236.18098928702, -45536.8960543747, -24106.423450282033, -26390.391753958673, -187500.02235174447, 4828.557947702164, -12269.028993729235, -33575.40471260604, -44800.987219928174, -40583.52596563411, -20561.705000603797, -24586.91890083777, -47268.508049071796, -32713.968481298507, -0.018000000000000002, 1.012, -0.052000000000000005, 192.0, 0.0, 0.0, 0.0, 0.0, 0.0, 0.0, 0.0, 0.0, 0.0, 1.695760971276215E9, 0.0, 2023-09-26 15:42:51.276
182.0, 12900.421071102748, 36577.1322342315, -44234.57166368624, -45543.31100503338, -24109.977377650426, -26395.93498658359, -187500.02235174447, 4783.7874035581835, -12282.1494677245, -33595.20835819344, -44804.988182185676, -40598.36752395243, -20564.20839598279, -24610.499991238117, -47272.37490086257, -32719.57876915679, -0.018000000000000002, 1.012, -0.052000000000000005, 192.0, 0.0, 0.0, 0.0, 0.0, 0.0, 0.0, 0.0, 0.0, 0.0, 1.695760971276241E9, 0.0, 2023-09-26 15:42:51.276
184.0, 12906.7466147836, 36592.37612395002, -44237.94677709899, -45542.97572886655, -24112.659586985064, -26401.0311843194, -187500.02235174447, 4863.5607795191745, -12278.059098489179, -33575.33765737267, -44802.1271588954, -40587.012837769136, -20541.856651527483, -24596.753668398105, -47271.03379619525, -32719.444658690056, -0.018000000000000002, 1.012, -0.052000000000000005, 192.0, 0.0, 0.0, 0.0, 0.0, 0.0, 0.0, 0.0, 0.0, 0.0, 1.695760971276251E9, 0.0, 2023-09-26 15:42:51.276
186.0, 12894.78843150001, 36570.44906263937, -44230.548349684286, -45544.51799923396, -24101.774287435328, -26393.52099818242, -187500.02235174447, 4786.335502426088, -12292.319511451664, -33591.54267210277, -44810.88904272188, -40599.21689024173, -20572.433837942343, -24605.42614524676, -47266.56344730419, -32722.260978491424, -0.018000000000000002, 1.012, -0.052000000000000005, 192.0, 0.0, 0.0, 0.0, 0.0, 0.0, 0.0, 0.0, 0.0, 0.0, 1.695760971276293E9, 0.0, 2023-09-26 15:42:51.276
188.0, 12906.187821172218, 36588.106940759055, -44225.72037288194, -45543.556874222384, -24105.641139226096, -26396.69494589507, -187500.02235174447, 4850.037974123714, -12277.76852581126, -33581.819663264716, -44807.37981884239, -40592.55607039405, -20554.887718544927, -24604.889703379835, -47265.17763914796, -32721.657481391132, -0.024, 1.008, -0.052000000000000005, 192.0, 127.5, 32.0, 15.5, 64.0, 127.0, 48.0, 0.0, 0.0, 0.0, 1.695760971276303E9, 0.0, 2023-09-26 15:42:51.276
190.0, 12891.41331808726, 36574.561783619145, -44234.303442752775, -45549.927121392146, -24113.441898041, -26406.753230899958, -187500.02235174447, 4832.760075659761, -12281.680081090937, -33598.717582072924, -44808.38564734288, -40600.60269839796, -20561.146206992413, -24617.429032019263, -47271.34672061762, -32730.352309984246, -0.024, 1.008, -0.052000000000000005, 192.0, 0.0, 0.0, 0.0, 0.0, 0.0, 0.0, 0.0, 0.0, 0.0, 1.695760971276313E9, 0.0, 2023-09-26 15:42:51.276
192.0, 12900.376367613837, 36585.737655846795, -44221.00415480186, -45546.708470190584, -24111.631406740118, -26400.830018619305, -187500.02235174447, 4873.887285457527, -12291.917180051469, -33597.08590472769, -44805.882251963885, -40603.59783215497, -20558.709866846784, -24619.954779142714, -47274.05128169672, -32733.973292586004, -0.024, 1.008, -0.052000000000000005, 192.0, 0.0, 0.0, 0.0, 0.0, 0.0, 0.0, 0.0, 0.0, 0.0, 1.695760971276323E9, 0.0, 2023-09-26 15:42:51.276
194.0, 12902.924466481742, 36582.42959766741, -44225.60861415966, -45532.06807757236, -24111.76551720685, -26398.058402306844, -187500.02235174447, 4851.289671813211, -12283.043537502712, -33593.777846548306, -44800.718998994715, -40596.869957073926, -20558.128721490946, -24592.998575329613, -47272.88899098504, -32725.725498882, -0.024, 1.008, -0.052000000000000005, 192.0, 0.0, 0.0, 0.0, 0.0, 0.0, 0.0, 0.0, 0.0, 0.0, 1.695760971276337E9, 0.0, 2023-09-26 15:42:51.276
196.0, 12906.344283383403, 36598.321687975134, -44219.37247745663, -45531.30811826088, -24113.061918385258, -26396.247911005965, -187500.02235174447, 4893.020378711269, -12280.741307823815, -33572.32017187121, -44797.94738268225, -40590.05267501505, -20554.016000511172, -24598.8547323769, -47272.19608690692, -32719.08703077877, -0.024, 1.008, -0.052000000000000005, 192.0, 0.0, 0.0, 0.0, 0.0, 0.0, 0.0, 0.0, 0.0, 0.0, 1.695760971336394E9, 0.0, 2023-09-26 15:42:51.336
198.0, 12913.742710798111, 36600.13217927601, -44201.714599336934, -45511.72799011803, -24095.068764098738, -26384.334431211286, -187500.02235174447, 4867.4946865433085, -12268.559607095673, -33576.25407889534, -44793.18646111327, -40584.28592494559, -20557.547576135108, -24593.28914800753, -47267.23399963784, -32717.634167389177, -0.02, 1.012, -0.054, 192.0, 127.5, 48.0, 15.5, 80.0, 127.0, 40.0, 0.0, 0.0, 0.0, 1.695760971336418E9, 0.0, 2023-09-26 15:42:51.336
200.0, 12911.082853207929, 36599.77455136473, -44205.69320984998, -45532.246891528004, -24104.992938636893, -26390.525864425406, -187500.02235174447, 4875.96599769187, -12255.059153444667, -33564.78763398977, -44778.74723419514, -40571.903058517346, -20524.73521527472, -24580.59335715692, -47254.22528436486, -32707.66528936211, -0.02, 1.012, -0.054, 192.0, 0.0, 0.0, 0.0, 0.0, 0.0, 0.0, 0.0, 0.0, 0.0, 1.695760971336429E9, 0.0, 2023-09-26 15:42:51.336
202.0, 12905.204344416183, 36595.90769957396, -44215.706791365956, -45534.68323167363, -24105.685842715007, -26400.986480830492, -187500.02235174447, 4904.68798931694, -12285.792802070715, -33589.419256379515, -44800.070798405504, -40593.852471572456, -20548.96450626427, -24610.76821217158, -47272.151383418015, -32728.60887391673, -0.02, 1.012, -0.054, 192.0, 0.0, 0.0, 0.0, 0.0, 0.0, 0.0, 0.0, 0.0, 0.0, 1.695760971336438E9, 0.0, 2023-09-26 15:42:51.336
204.0, 12897.224771645639, 36590.76679834924, -44203.2345179599, -45534.37030725126, -24096.409868766055, -26394.83975110528, -187500.02235174447, 4879.207000637889, -12280.38367991253, -33585.28418365528, -44797.276830348594, -40596.087646017986, -20551.64671559891, -24604.24150279063, -47266.474040326364, -32725.077298292796, -0.02, 1.012, -0.054, 192.0, 0.0, 0.0, 0.0, 0.0, 0.0, 0.0, 0.0, 0.0, 0.0, 1.695760971336448E9, 0.0, 2023-09-26 15:42:51.336
206.0, 12910.166431685262, 36599.90866183146, -44204.77678832731, -45535.957281107585, -24098.846208911684, -26402.573454686815, -187500.02235174447, 4901.201117181911, -12275.488647876817, -33583.496044098865, -44794.88519369187, -40594.00893378365, -20548.15984346388, -24607.9071888813, -47263.121278658065, -32728.34065298327, -0.02, 1.012, -0.054, 192.0, 0.0, 0.0, 0.0, 0.0, 0.0, 0.0, 0.0, 0.0, 0.0, 1.695760971336457E9, 0.0, 2023-09-26 15:42:51.336
208.0, 12905.36080662737, 36593.80663559516, -44205.49204414988, -45537.36544100827, -24102.735412446906, -26404.428649476606, -187500.02235174447, 4887.477146086353, -12278.975520011845, -33581.1267591866, -44793.231164602184, -40596.73584660719, -20552.87606154395, -24601.469886478175, -47267.61397929359, -32731.447545462557, -0.018000000000000002, 1.014, -0.056, 192.0, 127.5, 56.0, 15.5, 88.0, 127.0, 32.0, 0.0, 0.0, 0.0, 1.695760971336497E9, 0.0, 2023-09-26 15:42:51.336
210.0, 12910.546411341002, 36600.57921416512, -44207.59310812868, -45537.07486833035, -24102.131915346614, -26403.84750412077, -187500.02235174447, 4919.30603019071, -12270.23598792982, -33571.69432302646, -44798.66263850482, -40593.47249191672, -20557.234651712733, -24601.648700433816, -47278.14165093203, -32738.086013565782, -0.018000000000000002, 1.014, -0.056, 192.0, 0.0, 0.0, 0.0, 0.0, 0.0, 0.0, 0.0, 0.0, 0.0, 1.69576097139685E9, 0.0, 2023-09-26 15:42:51.396
212.0, 12897.180068156727, 36583.927164545916, -44194.04795098877, -45537.61131019727, -24091.00074660787, -26399.913597096634, -187500.02235174447, 4843.935947887415, -12266.905578005979, -33570.77790150379, -44784.60339124243, -40594.411265183844, -20529.607895565976, -24584.259043247588, -47263.344796102625, -32722.43979244707, -0.018000000000000002, 1.014, -0.056, 192.0, 0.0, 0.0, 0.0, 0.0, 0.0, 0.0, 0.0, 0.0, 0.0, 1.695760971396875E9, 0.0, 2023-09-26 15:42:51.396
214.0, 12910.188783429718, 36598.813426353154, -44190.73989280938, -45536.33726076332, -24096.72279318843, -26408.56372220084, -187500.02235174447, 4921.563556380696, -12274.48281937633, -33588.21226217893, -44792.98529541318, -40605.90006183387, -20539.129738703938, -24610.410584260295, -47268.083365927145, -32734.107403052738, -0.018000000000000002, 1.014, -0.056, 192.0, 0.0, 0.0, 0.0, 0.0, 0.0, 0.0, 0.0, 0.0, 0.0, 1.695760971396886E9, 0.0, 2023-09-26 15:42:51.396
216.0, 12897.023605945542, 36580.4849958998, -44198.6300586021, -45531.95631885008, -24099.941444389995, -26408.250797778466, -187500.02235174447, 4846.662860710962, -12267.643185573004, -33584.74774178836, -44793.365275068914, -40604.87188158892, -20493.934511415304, -24605.269683035574, -47273.31367412969, -32733.57096118581, -0.018000000000000002, 1.014, -0.056, 192.0, 0.0, 0.0, 0.0, 0.0, 0.0, 0.0, 0.0, 0.0, 0.0, 1.695760971396895E9, 0.0, 2023-09-26 15:42:51.396
218.0, 12908.55710608448, 36600.71332463185, -44180.30162814875, -45529.229406026534, -24095.448743754478, -26405.926216355114, -187500.02235174447, 4925.631573871562, -12277.276787433242, -33581.50673884234, -44792.180632612784, -40598.27811697461, -20564.6554308719, -24603.861523134892, -47264.3059211142, -32728.363004727726, -0.02, 1.018, -0.056, 192.0, 127.5, 48.0, 15.5, 104.0, 127.0, 32.0, 0.0, 0.0, 0.0, 1.695760971396905E9, 0.0, 2023-09-26 15:42:51.396
220.0, 12889.64753027529, 36577.64632435398, -44189.10821546414, -45532.26924327246, -24091.090153585694, -26401.27705350841, -187500.02235174447, 4841.946642630893, -12284.33993868112, -33576.05291319524, -44795.19811811425, -40605.453026944764, -20553.479558644245, -24601.805162645003, -47258.69563325592, -32722.775068613897, -0.02, 1.018, -0.056, 192.0, 0.0, 0.0, 0.0, 0.0, 0.0, 0.0, 0.0, 0.0, 0.0, 1.695760971396915E9, 0.0, 2023-09-26 15:42:51.396
222.0, 12900.17520191374, 36600.53451067621, -44198.04891324627, -45539.04182184242, -24100.81316242375, -26410.30715826835, -187500.02235174447, 4936.427466443475, -12295.895790564513, -33586.98291623389, -44807.87155722041, -40610.32570723602, -20550.21620395377, -24611.0587848495, -47271.27966538425, -32730.262903006424, -0.02, 1.018, -0.056, 192.0, 0.0, 0.0, 0.0, 0.0, 0.0, 0.0, 0.0, 0.0, 0.0, 1.695760971396924E9, 0.0, 2023-09-26 15:42:51.396
224.0, 12885.400698828782, 36579.85914705505, -44189.488195119884, -45526.77071413645, -24095.5381507323, -26402.908730853647, -187500.02235174447, 4874.82605872465, -12279.91429327897, -33579.04804695226, -44803.31180135153, -40611.2868322476, -20547.3998841524, -24596.127819553356, -47270.944389217424, -32724.004414558938, -0.02, 1.018, -0.056, 192.0, 0.0, 0.0, 0.0, 0.0, 0.0, 0.0, 0.0, 0.0, 0.0, 1.695760971396934E9, 0.0, 2023-09-26 15:42:51.396
226.0, 12887.010024429563, 36595.99710655178, -44189.845823031166, -45526.77071413645, -24098.220360066935, -26405.233312277, -187500.02235174447, 4945.569329925696, -12305.283523235741, -33580.14328243057, -44806.88808046438, -40603.41901819933, -20543.711846317274, -24598.608863187896, -47267.56927580467, -32719.176437756592, -0.02, 1.018, -0.056, 192.0, 0.0, 0.0, 0.0, 0.0, 0.0, 0.0, 0.0, 0.0, 0.0, 1.695760971455668E9, 0.0, 2023-09-26 15:42:51.455
228.0, 12872.414335300247, 36569.42088239442, -44194.517337622325, -45538.08069683084, -24099.82968566772, -26408.94370185658, -187500.02235174447, 4880.302236116199, -12285.166953225966, -33578.71277078542, -44812.34190611147, -40618.394686984386, -20531.843070011506, -24591.67982240675, -47273.179563662954, -32729.592350672767, -0.022, 1.014, -0.062, 192.0, 127.5, 40.0, 15.5, 88.0, 127.0, 8.0, 0.0, 0.0, 0.0, 1.69576097145569E9, 0.0, 2023-09-26 15:42:51.455
230.0, 12883.947835439187, 36590.52092916023, -44194.15970971104, -45534.01267933997, -24103.271854313836, -26407.803762889358, -187500.02235174447, 4965.350623768642, -12291.581903884638, -33580.56796557522, -44813.32538286751, -40616.47243696123, -20539.867346270963, -24603.39213650133, -47277.60520906511, -32730.978158828995, -0.022, 1.014, -0.062, 192.0, 0.0, 0.0, 0.0, 0.0, 0.0, 0.0, 0.0, 0.0, 0.0, 1.695760971455733E9, 0.0, 2023-09-26 15:42:51.455
232.0, 12869.150980609773, 36571.74546381777, -44191.11987246512, -45530.145827549204, -24103.607130480665, -26405.456829721552, -187500.02235174447, 4913.025189998769, -12307.697511636916, -33582.847843509655, -44816.83460674699, -40620.47339921873, -20568.87991057395, -24597.40186898731, -47283.059034712205, -32730.374661728703, -0.022, 1.014, -0.062, 192.0, 0.0, 0.0, 0.0, 0.0, 0.0, 0.0, 0.0, 0.0, 0.0, 1.695760971455743E9, 0.0, 2023-09-26 15:42:51.455
234.0, 12873.554274267468, 36584.0836267571, -44187.387131141084, -45537.410144497175, -24106.44580202649, -26402.0817163088, -187500.02235174447, 4961.304958022232, -12297.728633609848, -33587.474654611906, -44807.58098454249, -40614.41607647134, -20558.285183702134, -24602.609825445394, -47280.24271491083, -32725.09965003725, -0.022, 1.014, -0.062, 192.0, 0.0, 0.0, 0.0, 0.0, 0.0, 0.0, 0.0, 0.0, 0.0, 1.695760971455753E9, 0.0, 2023-09-26 15:42:51.455
236.0, 12864.702983463167, 36566.11282421504, -44191.455148631954, -45533.096257817306, -24099.114429845147, -26405.99327158848, -187500.02235174447, 4902.117538704579, -12303.830659846148, -33590.22391917991, -44810.79963574406, -40621.881559119414, -20548.472767886255, -24602.498066723118, -47283.66253181249, -32730.553475684344, -0.022, 1.014, -0.062, 192.0, 0.0, 0.0, 0.0, 0.0, 0.0, 0.0, 0.0, 0.0, 0.0, 1.695760971455764E9, 0.0, 2023-09-26 15:42:51.455
238.0, 12873.64368124529, 36576.931068531405, -44196.976029512414, -45545.25560680099, -24108.77038344984, -26417.012681604945, -187500.02235174447, 4969.217475559411, -12298.10861326559, -33600.751590818356, -44815.40409510185, -40628.27415803363, -20538.079206714538, -24613.361014528396, -47287.30586615871, -32735.292045508868, -0.02, 1.01, -0.062, 192.0, 127.5, 48.0, 15.5, 72.0, 127.0, 8.0, 0.0, 0.0, 0.0, 1.695760971455773E9, 0.0, 2023-09-26 15:42:51.455
240.0, 12869.866236432343, 36572.23720219579, -44184.43670087298, -45528.044763570404, -24104.52355200333, -26406.932044855603, -187500.02235174447, 4939.780228111771, -12290.330206195142, -33582.423160365004, -44813.32538286751, -40625.033155087614, -20549.053913242093, -24600.598168444416, -47290.99390399384, -32740.81292638933, -0.02, 1.01, -0.062, 192.0, 0.0, 0.0, 0.0, 0.0, 0.0, 0.0, 0.0, 0.0, 0.0, 1.695760971515851E9, 0.0, 2023-09-26 15:42:51.515
242.0, 12863.585396240402, 36574.5841353636, -44182.60385782765, -45539.71237417607, -24105.887008415106, -26410.731841413002, -187500.02235174447, 4950.017327072302, -12292.699491107403, -33566.26284912382, -44802.887118206876, -40611.108018291954, -20545.187061451325, -24581.95681356869, -47281.248543411326, -32727.826562860795, -0.02, 1.01, -0.062, 192.0, 0.0, 0.0, 0.0, 0.0, 0.0, 0.0, 0.0, 0.0, 0.0, 1.695760971515874E9, 0.0, 2023-09-26 15:42:51.515
244.0, 12863.093657862384, 36567.85626028255, -44182.8273752722, -45543.37806026675, -24111.3408340622, -26415.358652515253, -187500.02235174447, 4932.873539075082, -12301.57313365616, -33592.280279669794, -44813.48184507869, -40630.75520166817, -20550.037389998128, -24599.569988199473, -47292.87145052808, -32744.38920550218, -0.02, 1.01, -0.062, 192.0, 0.0, 0.0, 0.0, 0.0, 0.0, 0.0, 0.0, 0.0, 0.0, 1.695760971515884E9, 0.0, 2023-09-26 15:42:51.515
246.0, 12870.425030043725, 36575.634667353, -44170.5786193107, -45536.94075786362, -24103.227150824925, -26410.88830362419, -187500.02235174447, 4951.4925422063525, -12306.982255814346, -33585.9770877334, -44810.86669097742, -40626.66483243285, -20543.533032361633, -24608.9577208707, -47286.09887195812, -32739.91885661112, -0.02, 1.01, -0.062, 192.0, 0.0, 0.0, 0.0, 0.0, 0.0, 0.0, 0.0, 0.0, 0.0, 1.695760971515893E9, 0.0, 2023-09-26 15:42:51.515
248.0, 12873.531922523014, 36579.05448425466, -44166.86822973111, -45539.33239452033, -24100.321424045735, -26413.61521644774, -187500.02235174447, 4974.0901558506675, -12285.390470670518, -33585.95473598895, -44799.668467005315, -40618.461742217754, -20534.21235492377, -24592.551540440505, -47279.57216257718, -32735.895542609163, -0.024, 1.006, -0.062, 192.0, 127.5, 32.0, 15.5, 56.0, 127.0, 8.0, 0.0, 0.0, 0.0, 1.695760971515902E9, 0.0, 2023-09-26 15:42:51.515
250.0, 12858.377439782314, 36576.26051619775, -44177.84293625867, -45526.5471966919, -24103.025985124827, -26405.434477977095, -187500.02235174447, 4969.776269170794, -12287.29036894922, -33569.34738985865, -44800.33901933897, -40614.550186938075, -20543.73419806173, -24596.239578275632, -47277.314636387186, -32730.70993789553, -0.024, 1.006, -0.062, 192.0, 0.0, 0.0, 0.0, 0.0, 0.0, 0.0, 0.0, 0.0, 0.0, 1.69576097151594E9, 0.0, 2023-09-26 15:42:51.515
252.0, 12864.904149163265, 36584.37419943502, -44158.91100870502, -45523.86498735726, -24093.213569308948, -26408.13903905619, -187500.02235174447, 4984.46136527793, -12303.361273212586, -33580.67972429749, -44812.27485087811, -40618.260576517656, -20534.63703806842, -24601.447534733717, -47281.91909574498, -32731.604007673744, -0.024, 1.006, -0.062, 192.0, 0.0, 0.0, 0.0, 0.0, 0.0, 0.0, 0.0, 0.0, 0.0, 1.695760971515949E9, 0.0, 2023-09-26 15:42:51.515
254.0, 12850.710791434145, 36572.05838824015, -44147.71278473292, -45523.23913851251, -24088.631461695608, -26405.61329193274, -187500.02235174447, 4945.88225434807, -12276.539179866217, -33566.59812529065, -44788.894926177854, -40615.33249799401, -20545.455282384788, -24594.607900930394, -47264.73060425885, -32722.931530825084, -0.024, 1.006, -0.062, 192.0, 0.0, 0.0, 0.0, 0.0, 0.0, 0.0, 0.0, 0.0, 0.0, 1.69576097151596E9, 0.0, 2023-09-26 15:42:51.515
0.0, 12860.07617236092, 36577.825138309614, -44161.7720319953, -45533.94562410661, -24097.169828077534, -26423.002949118967, -187500.02235174447, 5007.170737644522, -12295.158182997488, -33579.94211673047, -44799.91433619432, -40620.16047479636, -20539.17444219285, -24596.083116064445, -47273.3583776186, -32732.05104256285, -0.024, 1.006, -0.062, 192.0, 0.0, 0.0, 0.0, 0.0, 0.0, 0.0, 0.0, 0.0, 0.0, 1.695760971576135E9, 0.0, 2023-09-26 15:42:51.576
2.0, 12854.331774035905, 36568.37035040502, -44149.88090394508, -45531.28576651642, -24094.889950143093, -26416.498591482472, -187500.02235174447, 4964.121277823601, -12307.585752914638, -33583.138416187576, -44809.793807243565, -40632.297472035585, -20545.455282384788, -24602.58747370094, -47282.38848237854, -32738.153068799147, -0.032, 1.014, -0.058, 192.0, 127.5, 0.0, 15.5, 88.0, 127.0, 24.0, 0.0, 0.0, 0.0, 1.695760971576158E9, 0.0, 2023-09-26 15:42:51.576
4.0, 12858.109218848851, 36576.41697840893, -44157.324034848694, -45533.72210666205, -24097.706269944465, -26429.8872864112, -187500.02235174447, 5024.560394830751, -12299.650883633005, -33581.529090586795, -44798.886155949374, -40618.28292826211, -20531.418386866855, -24603.101563823413, -47274.945351474926, -32736.409632731633, -0.032, 1.014, -0.058, 192.0, 0.0, 0.0, 0.0, 0.0, 0.0, 0.0, 0.0, 0.0, 0.0, 1.695760971576167E9, 0.0, 2023-09-26 15:42:51.576
6.0, 12855.292899047483, 36567.61039109354, -44142.862456186114, -45520.221653011045, -24085.99395584988, -26406.775582644415, -187500.02235174447, 4965.395327257554, -12293.839430074624, -33583.16076793203, -44803.73648449618, -40629.771724912134, -20544.605916095486, -24609.561217970993, -47276.53232533125, -32734.017996074916, -0.032, 1.014, -0.058, 192.0, 0.0, 0.0, 0.0, 0.0, 0.0, 0.0, 0.0, 0.0, 0.0, 1.695760971576176E9, 0.0, 2023-09-26 15:42:51.576
8.0, 12849.056762344451, 36581.960211033846, -44151.8702092016, -45532.55981595037, -24094.845246654186, -26415.068079837332, -187500.02235174447, 5041.033630494312, -12290.553723639694, -33566.151090401545, -44792.09122563496, -40617.23239627271, -20548.20454695279, -24594.58554918594, -47271.7043485289, -32721.098687779748, -0.032, 1.014, -0.058, 192.0, 0.0, 0.0, 0.0, 0.0, 0.0, 0.0, 0.0, 0.0, 0.0, 1.695760971576185E9, 0.0, 2023-09-26 15:42:51.576
10.0, 12814.389206694272, 36563.028283480206, -44158.240456371364, -45535.77846715194, -24099.069726356236, -26418.107917083256, -187500.02235174447, 4978.851077419648, -12304.38945345753, -33568.0733404247, -44810.218490388215, -40637.550131982585, -20555.222994711756, -24595.97135734217, -47283.64018006804, -32738.018958332417, -0.032, 1.014, -0.058, 192.0, 0.0, 0.0, 0.0, 0.0, 0.0, 0.0, 0.0, 0.0, 0.0, 1.695760971576194E9, 0.0, 2023-09-26 15:42:51.576
12.0, 12817.786671851478, 36580.30618194416, -44154.887694703066, -45537.65601368619, -24096.54397923279, -26420.27603629542, -187500.02235174447, 5047.716802086449, -12319.432177475952, -33583.339581887674, -44817.5275108251, -40631.31399527955, -20568.522282662667, -24613.048090106022, -47280.28741839975, -32732.811001874332, -0.04, 1.02, -0.058, 192.0, 127.0, 96.0, 15.5, 112.0, 127.0, 24.0, 0.0, 0.0, 0.0, 1.695760971576203E9, 0.0, 2023-09-26 15:42:51.576
14.0, 12807.191944979662, 36564.99523699227, -44157.94988369344, -45527.66478391466, -24097.28158679981, -26412.98936760299, -187500.02235174447, 4985.355435056143, -12296.923970809457, -33587.58641333418, -44807.37981884239, -40637.684242449315, -20560.92268954786, -24605.82847664696, -47277.962836976396, -32735.24734201996, -0.04, 1.02, -0.058, 192.0, 0.0, 0.0, 0.0, 0.0, 0.0, 0.0, 0.0, 0.0, 0.0, 1.695760971636327E9, 0.0, 2023-09-26 15:42:51.636
16.0, 12827.979067323098, 36579.88149879951, -44166.53295356428, -45528.69296415961, -24094.174694320525, -26406.17208554412, -187500.02235174447, 5043.469970639941, -12302.400148201008, -33564.56411654522, -44809.01149618763, -40630.15170456788, -20566.957660550794, -24599.838209132937, -47274.453613096906, -32728.34065298327, -0.04, 1.02, -0.058, 192.0, 0.0, 0.0, 0.0, 0.0, 0.0, 0.0, 0.0, 0.0, 0.0, 1.695760971636377E9, 0.0, 2023-09-26 15:42:51.636
18.0, 12819.753625363544, 36550.153678673945, -44188.236497430385, -45547.73665043553, -24105.171752592534, -26423.89701889718, -187500.02235174447, 4971.832629660682, -12311.631418661049, -33587.2287854229, -44822.86957774992, -40644.18860008581, -20567.82937858455, -24595.01023233059, -47273.67130204097, -32739.33771125528, -0.04, 1.02, -0.058, 192.0, 0.0, 0.0, 0.0, 0.0, 0.0, 0.0, 0.0, 0.0, 0.0, 1.695760971636387E9, 0.0, 2023-09-26 15:42:51.636
20.0, 12849.794369911477, 36582.25078371177, -44180.7263112934, -45539.26533928697, -24098.086249600205, -26413.83873389229, -187500.02235174447, 5063.385374949619, -12313.061930306189, -33602.629137352604, -44833.844284277475, -40647.51901000965, -20566.197701239314, -24609.740031926638, -47284.04251146824, -32751.80998466134, -0.04, 1.02, -0.058, 192.0, 0.0, 0.0, 0.0, 0.0, 0.0, 0.0, 0.0, 0.0, 0.0, 1.695760971636397E9, 0.0, 2023-09-26 15:42:51.636
22.0, 12844.094675075374, 36564.03411198069, -44185.82250902921, -45538.72889742004, -24101.4390112685, -26412.117649569234, -187500.02235174447, 5006.567240544229, -12296.320473709164, -33564.944096200954, -44819.4274091038, -40630.46462899025, -20564.856596571994, -24595.52432245306, -47270.98909270634, -32741.5281822119, -0.036000000000000004, 1.016, -0.054, 192.0, 127.0, 112.0, 15.5, 96.0, 127.0, 40.0, 0.0, 0.0, 0.0, 1.695760971636406E9, 0.0, 2023-09-26 15:42:51.636
24.0, 12856.119913592329, 36578.42863540991, -44182.67091306102, -45549.72595569205, -24104.747069447883, -26410.70948966855, -187500.02235174447, 5074.471840199451, -12315.788843129736, -33586.155901689046, -44828.99395573067, -40640.72407969524, -20589.21999802828, -24600.508761466597, -47278.856906754605, -32746.803193903354, -0.036000000000000004, 1.016, -0.054, 192.0, 0.0, 0.0, 0.0, 0.0, 0.0, 0.0, 0.0, 0.0, 0.0, 1.695760971636416E9, 0.0, 2023-09-26 15:42:51.636
26.0, 12851.515454234535, 36565.91165851494, -44176.36772112462, -45544.473295745054, -24109.86561892815, -26413.61521644774, -187500.02235174447, 5012.46810108043, -12288.117383494066, -33577.72929402939, -44817.05812419154, -40639.58414072802, -20575.36191646599, -24605.224979546667, -47267.457517082395, -32741.438775234077, -0.036000000000000004, 1.016, -0.054, 192.0, 0.0, 0.0, 0.0, 0.0, 0.0, 0.0, 0.0, 0.0, 0.0, 1.695760971636426E9, 0.0, 2023-09-26 15:42:51.636
28.0, 12850.934308878697, 36574.94176327488, -44188.236497430385, -45555.47035401707, -24115.18533410851, -26421.37127177373, -187500.02235174447, 5063.76535460536, -12299.896752822013, -33584.61363132163, -44821.059086449044, -40639.226512816735, -20565.527148905654, -24603.414488245784, -47266.697557770916, -32742.310493267836, -0.036000000000000004, 1.016, -0.054, 192.0, 0.0, 0.0, 0.0, 0.0, 0.0, 0.0, 0.0, 0.0, 0.0, 1.695760971636435E9, 0.0, 2023-09-26 15:42:51.636
30.0, 12853.236538557594, 36566.515155615234, -44195.70198007846, -45551.15646733719, -24116.839363198207, -26415.582169959805, -187500.02235174447, 5029.097798955178, -12308.14454652602, -33591.877948269605, -44835.29714766707, -40651.944655411804, -20570.422180941365, -24608.510685981597, -47285.33891264664, -32755.408615518645, -0.036000000000000004, 1.016, -0.054, 192.0, 0.0, 0.0, 0.0, 0.0, 0.0, 0.0, 0.0, 0.0, 0.0, 1.695760971696657E9, 0.0, 2023-09-26 15:42:51.696
32.0, 12854.421181013726, 36574.00299000776, -44187.34242765218, -45543.556874222384, -24114.224209096934, -26410.79889664637, -187500.02235174447, 5058.937377803013, -12299.159145254987, -33571.515509070814, -44825.14945568436, -40635.00203311468, -20585.151980537412, -24597.759496898594, -47270.07267118367, -32732.878057107697, -0.036000000000000004, 1.018, -0.054, 192.0, 127.0, 112.0, 15.5, 104.0, 127.0, 40.0, 0.0, 0.0, 0.0, 1.695760971696694E9, 0.0, 2023-09-26 15:42:51.696
34.0, 12851.962489123642, 36566.53750735969, -44186.35895089614, -45551.06706035937, -24115.945293419994, -26412.922312369625, -187500.02235174447, 5045.0569444962675, -12302.601313901105, -33598.024677994814, -44825.887063251386, -40642.646329718395, -20581.64275665793, -24604.666185935283, -47272.19608690692, -32737.5272199544, -0.036000000000000004, 1.018, -0.054, 192.0, 0.0, 0.0, 0.0, 0.0, 0.0, 0.0, 0.0, 0.0, 0.0, 1.695760971696705E9, 0.0, 2023-09-26 15:42:51.696
36.0, 12843.06649483043, 36563.56472534713, -44186.53776485178, -45565.21571459958, -24122.695520245496, -26426.020434620434, -187500.02235174447, 5079.679796657539, -12303.42832844595, -33600.7292390739, -44828.52456909711, -40649.642425732905, -20574.110218776492, -24615.327968040463, -47271.30201712871, -32743.76335665743, -0.036000000000000004, 1.018, -0.054, 192.0, 0.0, 0.0, 0.0, 0.0, 0.0, 0.0, 0.0, 0.0, 0.0, 1.695760971696722E9, 0.0, 2023-09-26 15:42:51.696
38.0, 12852.297765290472, 36564.23527768079, -44169.50573557684, -45549.502438247495, -24107.228113082423, -26414.375175759218, -187500.02235174447, 5059.160895247566, -12316.593505930126, -33590.335677902185, -44822.84722600546, -40644.97091114175, -20557.07818950155, -24609.82943890446, -47265.95995020389, -32745.5291444694, -0.036000000000000004, 1.018, -0.054, 192.0, 0.0, 0.0, 0.0, 0.0, 0.0, 0.0, 0.0, 0.0, 0.0, 1.695760971696757E9, 0.0, 2023-09-26 15:42:51.696
40.0, 12858.243329315583, 36564.682312569894, -44161.61556978412, -45548.20603706909, -24104.612958981153, -26410.284806523898, -187500.02235174447, 5045.749848574383, -12282.931778780436, -33585.15007318855, -44805.09994090795, -40639.494733750194, -20579.608747912498, -24614.50095349562, -47254.314691342675, -32733.302740252348, -0.036000000000000004, 1.018, -0.054, 192.0, 0.0, 0.0, 0.0, 0.0, 0.0, 0.0, 0.0, 0.0, 0.0, 1.695760971696774E9, 0.0, 2023-09-26 15:42:51.696
42.0, 12859.74089619409, 36564.45879512534, -44179.0275787148, -45552.49757200451, -24111.05026138428, -26416.99032986049, -187500.02235174447, 5061.776049348838, -12308.949209326413, -33587.31819240072, -44822.646060305364, -40641.21581807325, -20567.27058497317, -24603.079212078956, -47264.86471472558, -32738.689510666078, -0.046, 1.014, -0.052000000000000005, 192.0, 127.0, 72.0, 15.5, 88.0, 127.0, 48.0, 0.0, 0.0, 0.0, 1.6957609716968E9, 0.0, 2023-09-26 15:42:51.696
44.0, 12856.54459673698, 36566.939838759885, -44167.56113380923, -45546.77552542395, -24117.219342853947, -26414.2857687814, -187500.02235174447, 5040.050153738279, -12302.802479601203, -33593.84490178167, -44821.461417849234, -40641.08170760652, -20578.871140345473, -24603.481543479153, -47264.90941821449, -32735.71672865352, -0.046, 1.014, -0.052000000000000005, 192.0, 0.0, 0.0, 0.0, 0.0, 0.0, 0.0, 0.0, 0.0, 0.0, 1.69576097169681E9, 0.0, 2023-09-26 15:42:51.696
46.0, 12868.301614320471, 36578.69685634338, -44153.68070050248, -45537.16427530817, -24106.803429937772, -26411.447097235574, -187500.02235174447, 5071.789630864815, -12287.916217793969, -33578.69041904097, -44805.23405137468, -40629.25763478966, -20579.295823490123, -24602.252197534108, -47261.310787357186, -32732.967464085516, -0.046, 1.014, -0.052000000000000005, 192.0, 0.0, 0.0, 0.0, 0.0, 0.0, 0.0, 0.0, 0.0, 0.0, 1.695760971756524E9, 0.0, 2023-09-26 15:42:51.756
48.0, 12853.437704257693, 36567.38687364899, -44155.15591563653, -45536.11374331877, -24112.927807918528, -26412.967015858536, -187500.02235174447, 5034.484569368908, -12294.353520197097, -33588.79340753477, -44798.752045482644, -40628.56473071155, -20563.4037331824, -24610.321177282476, -47251.90070294151, -32725.680795393087, -0.046, 1.014, -0.052000000000000005, 192.0, 0.0, 0.0, 0.0, 0.0, 0.0, 0.0, 0.0, 0.0, 0.0, 1.695760971756546E9, 0.0, 2023-09-26 15:42:51.756
50.0, 12863.87596891832, 36576.10405398656, -44148.182171366476, -45537.119571819254, -24103.316557802744, -26409.0331088344, -187500.02235174447, 5090.252171784899, -12300.835526089137, -33575.40471260604, -44801.43425481728, -40623.26736727564, -20560.810930825584, -24604.509723724095, -47252.66066225299, -32722.03746104687, -0.046, 1.014, -0.052000000000000005, 192.0, 0.0, 0.0, 0.0, 0.0, 0.0, 0.0, 0.0, 0.0, 0.0, 1.695760971756557E9, 0.0, 2023-09-26 15:42:51.756
52.0, 12850.934308878697, 36564.25762942524, -44151.78080222378, -45536.784295652425, -24105.57408399273, -26408.720184412028, -187500.02235174447, 5048.163836975556, -12299.740290610825, -33593.777846548306, -44807.223356631206, -40634.35383252548, -20567.628212884454, -24611.237598805143, -47248.41383080648, -32721.925702324595, -0.04, 1.01, -0.044, 192.0, 127.0, 96.0, 15.5, 72.0, 127.0, 80.0, 0.0, 0.0, 0.0, 1.695760971756566E9, 0.0, 2023-09-26 15:42:51.756
54.0, 12859.964413638641, 36575.90288828646, -44152.63016851308, -45542.21576955507, -24100.142610090094, -26413.570512958828, -187500.02235174447, 5090.922724118558, -12302.109575523089, -33557.67977925298, -44810.19613864376, -40621.03219283011, -20547.846919041505, -24602.520418467575, -47241.9988801478, -32714.974309798996, -0.04, 1.01, -0.044, 192.0, 0.0, 0.0, 0.0, 0.0, 0.0, 0.0, 0.0, 0.0, 0.0, 1.695760971756576E9, 0.0, 2023-09-26 15:42:51.756
56.0, 12853.460056002148, 36560.90486775695, -44147.71278473292, -45539.086525331324, -24100.790810679297, -26408.65312917866, -187500.02235174447, 5017.988981960891, -12294.398223686007, -33577.818701007214, -44814.08534217899, -40636.03021335962, -20564.16369249388, -24598.094773065422, -47250.38078431854, -32722.015109302418, -0.04, 1.01, -0.044, 192.0, 0.0, 0.0, 0.0, 0.0, 0.0, 0.0, 0.0, 0.0, 0.0, 1.695760971756586E9, 0.0, 2023-09-26 15:42:51.756
58.0, 12867.608710242357, 36583.59188837909, -44151.601988268136, -45553.861028416286, -24106.82578168223, -26413.682271681104, -187500.02235174447, 5108.647657471616, -12280.0484037457, -33594.85073028216, -44798.3720658269, -40627.84947488898, -20578.513512434187, -24612.958683128203, -47252.77242097526, -32718.841161589764, -0.04, 1.01, -0.044, 192.0, 0.0, 0.0, 0.0, 0.0, 0.0, 0.0, 0.0, 0.0, 0.0, 1.695760971756595E9, 0.0, 2023-09-26 15:42:51.756
60.0, 12845.301669275961, 36568.95149576086, -44155.84881971464, -45547.557836479886, -24110.357357306166, -26417.772640916424, -187500.02235174447, 5053.3941451780975, -12294.107651008087, -33581.28322139779, -44800.60724027243, -40632.09630633549, -20572.389134453435, -24601.425182989264, -47259.96968268987, -32726.485458193478, -0.04, 1.01, -0.044, 192.0, 0.0, 0.0, 0.0, 0.0, 0.0, 0.0, 0.0, 0.0, 0.0, 1.695760971816736E9, 0.0, 2023-09-26 15:42:51.816
62.0, 12855.695230447678, 36583.793054079186, -44149.16564812251, -45550.10593534779, -24100.656700212563, -26420.387795017697, -187500.02235174447, 5131.44643681603, -12298.756813854792, -33573.75068351635, -44808.56446129853, -40625.12256206543, -20563.336677949035, -24610.030604604555, -47260.86375246808, -32733.012167574427, -0.046, 1.006, -0.048, 192.0, 127.0, 72.0, 15.5, 56.0, 127.0, 64.0, 0.0, 0.0, 0.0, 1.695760971816762E9, 0.0, 2023-09-26 15:42:51.816
64.0, 12846.151035565263, 36555.49574559877, -44142.862456186114, -45548.38485102473, -24095.359336776655, -26414.21871354803, -187500.02235174447, 5031.332973400709, -12284.76462182577, -33593.53197735929, -44804.54114729657, -40632.81156215806, -20547.98102950824, -24607.571912714473, -47247.02802265025, -32727.312472738326, -0.046, 1.006, -0.048, 192.0, 0.0, 0.0, 0.0, 0.0, 0.0, 0.0, 0.0, 0.0, 0.0, 1.695760971816773E9, 0.0, 2023-09-26 15:42:51.816
66.0, 12858.712715949145, 36571.276077184215, -44142.19190385246, -45551.13411559274, -24098.667394956043, -26411.625911191215, -187500.02235174447, 5099.170517822567, -12307.071662792167, -33586.290012155776, -44818.332173625495, -40635.18084707032, -20565.5047971612, -24613.517476739584, -47247.54211277272, -32726.463106449024, -0.046, 1.006, -0.048, 192.0, 0.0, 0.0, 0.0, 0.0, 0.0, 0.0, 0.0, 0.0, 0.0, 1.695760971816785E9, 0.0, 2023-09-26 15:42:51.816
68.0, 12845.905166376253, 36554.1769926759, -44144.69529923145, -45547.4013742687, -24105.35056654818, -26410.70948966855, -187500.02235174447, 5017.184319160499, -12305.57409591366, -33596.057724482744, -44812.878347978396, -40640.478210506226, -20553.188985966324, -24616.602017474415, -47248.525589528756, -32722.90917908063, -0.046, 1.006, -0.048, 192.0, 0.0, 0.0, 0.0, 0.0, 0.0, 0.0, 0.0, 0.0, 0.0, 1.695760971816794E9, 0.0, 2023-09-26 15:42:51.816
70.0, 12857.863349659843, 36576.99812376477, -44143.711822475416, -45545.76969692346, -24111.609054995664, -26414.956321115056, -187500.02235174447, 5093.515526475373, -12305.082357535644, -33580.21033766393, -44813.48184507869, -40627.87182663343, -20577.35122172251, -24607.86248539239, -47260.617883279076, -32722.931530825084, -0.046, 1.006, -0.048, 192.0, 0.0, 0.0, 0.0, 0.0, 0.0, 0.0, 0.0, 0.0, 0.0, 1.695760971816803E9, 0.0, 2023-09-26 15:42:51.816
72.0, 12854.264718802538, 36558.46852761132, -44138.59327299515, -45542.39458351071, -24107.943368904995, -26414.777507159415, -187500.02235174447, 5016.312601126743, -12288.922046294458, -33596.54946286076, -44804.09411240746, -40635.18084707032, -20545.2988201736, -24604.420316746273, -47261.310787357186, -32726.239589004468, -0.044, 1.008, -0.05, 192.0, 127.0, 80.0, 15.5, 64.0, 127.0, 56.0, 0.0, 0.0, 0.0, 1.695760971816812E9, 0.0, 2023-09-26 15:42:51.816
74.0, 12857.97510838212, 36574.405321407954, -44132.60300548113, -45537.87953113074, -24105.283511314814, -26408.831943134304, -187500.02235174447, 5090.810965396281, -12297.169839998465, -33574.06360793872, -44808.318592109514, -40628.96706211175, -20564.364858193978, -24602.699232423216, -47255.4546303099, -32719.08703077877, -0.044, 1.008, -0.05, 192.0, 0.0, 0.0, 0.0, 0.0, 0.0, 0.0, 0.0, 0.0, 0.0, 1.695760971816823E9, 0.0, 2023-09-26 15:42:51.816
76.0, 12844.8322826424, 36554.355806631545, -44129.67492695748, -45541.16523756567, -24099.695575200985, -26412.072946080323, -187500.02235174447, 5047.314470686254, -12303.920066823968, -33587.2287854229, -44815.49350207967, -40641.97577738474, -20568.097599518016, -24606.946063869724, -47244.16699935997, -32716.85185633324, -0.044, 1.008, -0.05, 192.0, 0.0, 0.0, 0.0, 0.0, 0.0, 0.0, 0.0, 0.0, 0.0, 1.695760971877147E9, 0.0, 2023-09-26 15:42:51.877
78.0, 12844.049971586463, 36560.793109034676, -44140.0684881292, -45548.22838881354, -24105.641139226096, -26416.386832760196, -187500.02235174447, 5094.8342793982365, -12314.939476840435, -33589.352201146154, -44824.56831032853, -40643.38393728542, -20559.44747441381, -24608.935369126248, -47254.58291227614, -32726.485458193478, -0.044, 1.008, -0.05, 192.0, 0.0, 0.0, 0.0, 0.0, 0.0, 0.0, 0.0, 0.0, 0.0, 1.695760971877169E9, 0.0, 2023-09-26 15:42:51.877
80.0, 12838.573794194914, 36554.02053046472, -44136.4698572719, -45547.73665043553, -24106.602264237674, -26415.962149615545, -187500.02235174447, 5056.009299279368, -12317.19700303042, -33595.25306168235, -44824.0318684616, -40648.033100132125, -20584.88375960395, -24610.63410170485, -47255.722851243365, -32733.034519318884, -0.044, 1.008, -0.05, 192.0, 0.0, 0.0, 0.0, 0.0, 0.0, 0.0, 0.0, 0.0, 0.0, 1.695760971877178E9, 0.0, 2023-09-26 15:42:51.877
82.0, 12845.771055909521, 36561.687178812885, -44132.17832233648, -45533.565644450864, -24102.44483976899, -26407.401431489165, -187500.02235174447, 5061.8431045822035, -12300.813174344681, -33577.37166611811, -44813.213624145224, -40634.48794299221, -20567.091771017527, -24605.962587113692, -47246.53628427223, -32712.895597564653, -0.04, 1.012, -0.038, 192.0, 127.0, 96.0, 15.5, 80.0, 127.0, 104.0, 0.0, 0.0, 0.0, 1.69576097187722E9, 0.0, 2023-09-26 15:42:51.877
84.0, 12846.642773943278, 36553.75230953125, -44142.92951141948, -45547.58018822434, -24112.95015966298, -26417.236199049497, -187500.02235174447, 5062.625415638139, -12314.000703573312, -33589.218090679424, -44822.84722600546, -40641.55109424009, -20569.103428018505, -24612.77986917256, -47257.600397777605, -32725.010243059427, -0.04, 1.012, -0.038, 192.0, 0.0, 0.0, 0.0, 0.0, 0.0, 0.0, 0.0, 0.0, 0.0, 1.695760971877229E9, 0.0, 2023-09-26 15:42:51.877
86.0, 12855.292899047483, 36565.397568392465, -44130.904272902524, -45537.36544100827, -24105.32821480372, -26406.0826785663, -187500.02235174447, 5069.465049441463, -12302.57896215665, -33586.60293657815, -44811.17961539979, -40640.9923006287, -20563.58254713804, -24608.845962148425, -47255.789906476726, -32726.932493082586, -0.04, 1.012, -0.038, 192.0, 0.0, 0.0, 0.0, 0.0, 0.0, 0.0, 0.0, 0.0, 0.0, 1.695760971877239E9, 0.0, 2023-09-26 15:42:51.877
88.0, 12856.343431036883, 36564.50349861426, -44137.408630539016, -45540.11470557627, -24107.496334015887, -26410.262454779444, -187500.02235174447, 5074.5835989217285, -12295.29229346422, -33586.69234355597, -44804.697609507755, -40630.688146434804, -20542.88483177243, -24612.042261605533, -47251.96775817487, -32721.38926045767, -0.04, 1.012, -0.038, 192.0, 0.0, 0.0, 0.0, 0.0, 0.0, 0.0, 0.0, 0.0, 0.0, 1.695760971877248E9, 0.0, 2023-09-26 15:42:51.877
90.0, 12849.012058855542, 36559.96609448983, -44130.45723801342, -45545.83675215683, -24111.273778828836, -26411.60355944676, -187500.02235174447, 5064.458258683474, -12304.300046479708, -33573.907145727535, -44808.85503397644, -40631.98454761321, -20564.118989004968, -24604.129744068356, -47252.9512349309, -32722.104516280237, -0.04, 1.012, -0.038, 192.0, 0.0, 0.0, 0.0, 0.0, 0.0, 0.0, 0.0, 0.0, 0.0, 1.695760971937334E9, 0.0, 2023-09-26 15:42:51.937
92.0, 12851.180178067707, 36565.35286490356, -44128.333822290166, -45545.523827734454, -24103.182447336014, -26410.240103034987, -187500.02235174447, 5090.207468295988, -12312.77135762827, -33565.81581423472, -44812.744237511666, -40634.599701714484, -20590.5611026956, -24599.2570637771, -47251.945406430415, -32724.227932003494, -0.04, 1.006, -0.032, 192.0, 127.0, 96.0, 15.5, 56.0, 127.5, 0.0, 0.0, 0.0, 0.0, 1.695760971937362E9, 0.0, 2023-09-26 15:42:51.937
94.0, 12840.54074770698, 36555.540449087675, -44129.518464746296, -45539.310042775876, -24099.472057756433, -26403.154600042653, -187500.02235174447, 5037.680868826016, -12294.733499852837, -33572.0743026822, -44809.14560665436, -40637.550131982585, -20563.560195393587, -24602.810991145492, -47245.19517960491, -32716.784801099875, -0.04, 1.006, -0.032, 192.0, 0.0, 0.0, 0.0, 0.0, 0.0, 0.0, 0.0, 0.0, 0.0, 1.695760971937372E9, 0.0, 2023-09-26 15:42:51.937
96.0, 12849.190872811185, 36568.124481216015, -44135.508732260314, -45545.12149633426, -24102.422488024535, -26418.778469416913, -187500.02235174447, 5088.016997339368, -12307.295180236719, -33571.64961953755, -44809.21266188773, -40626.75423941067, -20565.705962861295, -24610.2094185602, -47249.68788024043, -32717.23183598898, -0.04, 1.006, -0.032, 192.0, 0.0, 0.0, 0.0, 0.0, 0.0, 0.0, 0.0, 0.0, 0.0, 1.695760971937381E9, 0.0, 2023-09-26 15:42:51.937
98.0, 12839.199643039661, 36556.61333282153, -44137.92272066149, -45541.96990036606, -24112.34666256269, -26411.9835391025, -187500.02235174447, 5050.913101543558, -12304.009473801789, -33591.14034070258, -44810.75493225514, -40638.8912366499, -20562.844939571016, -24609.11418308189, -47254.314691342675, -32722.350385469246, -0.04, 1.006, -0.032, 192.0, 0.0, 0.0, 0.0, 0.0, 0.0, 0.0, 0.0, 0.0, 0.0, 1.69576097193739E9, 0.0, 2023-09-26 15:42:51.937
100.0, 12846.77688441001, 36575.254687697256, -44138.190941594956, -45535.82317064085, -24099.71792694544, -26403.065193064835, -187500.02235174447, 5083.166668792566, -12300.67906387795, -33564.00532293384, -44803.28944960707, -40622.32859400852, -20547.936326019328, -24605.560255713495, -47252.48184829734, -32713.76731559841, -0.04, 1.006, -0.032, 192.0, 0.0, 0.0, 0.0, 0.0, 0.0, 0.0, 0.0, 0.0, 0.0, 1.695760971937399E9, 0.0, 2023-09-26 15:42:51.937
102.0, 12829.834262112889, 36556.099242699056, -44130.94897639143, -45548.250740558, -24104.992938636893, -26415.246893792977, -187500.02235174447, 5040.944223516492, -12316.638209419038, -33571.44845383745, -44820.075609693005, -40635.40436451487, -20568.72344836276, -24607.68367143675, -47252.05716515269, -32717.880036578186, -0.042, 1.006, -0.036000000000000004, 192.0, 127.0, 88.0, 15.5, 56.0, 127.0, 112.0, 0.0, 0.0, 0.0, 1.695760971937446E9, 0.0, 2023-09-26 15:42:51.937
104.0, 12835.533956948992, 36571.8795742845, -44125.048115855236, -45537.34308926381, -24100.232017067912, -26409.837771634793, -187500.02235174447, 5112.134529606644, -12299.896752822013, -33568.2745061248, -44816.83460674699, -40630.73284992371, -20564.744837849717, -24605.91788362478, -47252.79477271972, -32718.975272056494, -0.042, 1.006, -0.036000000000000004, 192.0, 0.0, 0.0, 0.0, 0.0, 0.0, 0.0, 0.0, 0.0, 0.0, 1.695760971937455E9, 0.0, 2023-09-26 15:42:51.937
106.0, 12812.846936326854, 36550.3771961185, -44116.88972912905, -45533.58799619532, -24094.264101298348, -26402.9310825981, -187500.02235174447, 5018.9948104613795, -12305.015302302278, -33575.82939575069, -44815.15822591284, -40637.43837326031, -20565.59420413902, -24606.96841561418, -47247.2515400948, -32710.548664396843, -0.042, 1.006, -0.036000000000000004, 192.0, 0.0, 0.0, 0.0, 0.0, 0.0, 0.0, 0.0, 0.0, 0.0, 1.695760971996688E9, 0.0, 2023-09-26 15:42:51.996
108.0, 12821.854689342343, 36568.77268180522, -44125.741019933346, -45533.47623747304, -24102.690708957998, -26405.74740239947, -187500.02235174447, 5092.420290997064, -12308.569229670673, -33567.626305535596, -44815.91818522432, -40631.82808540203, -20563.53784364913, -24595.77019164207, -47250.29137734072, -32708.08997250676, -0.042, 1.006, -0.036000000000000004, 192.0, 0.0, 0.0, 0.0, 0.0, 0.0, 0.0, 0.0, 0.0, 0.0, 1.695760971996709E9, 0.0, 2023-09-26 15:42:51.996
110.0, 12807.549572890946, 36551.04774845216, -44122.54472047624, -45532.738629906016, -24105.998767137382, -26409.99423384598, -187500.02235174447, 5019.486548839396, -12337.738256184848, -33577.1257969291, -44817.63926954738, -40638.77947792762, -20559.93921279183, -24601.671052178273, -47257.13101114405, -32713.00735628693, -0.042, 1.006, -0.036000000000000004, 192.0, 0.0, 0.0, 0.0, 0.0, 0.0, 0.0, 0.0, 0.0, 0.0, 1.695760971996719E9, 0.0, 2023-09-26 15:42:51.996
112.0, 12814.769186350011, 36581.51317614474, -44108.77604589177, -45533.40918223967, -24101.081383357214, -26407.46848672253, -187500.02235174447, 5103.43970101353, -12297.236895231832, -33571.31434337072, -44799.89198444987, -40624.69787892078, -20556.251174956702, -24594.38438348584, -47254.4040983205, -32714.750792354444, -0.044, 1.006, -0.036000000000000004, 192.0, 127.0, 80.0, 15.5, 56.0, 127.0, 112.0, 0.0, 0.0, 0.0, 1.695760971996728E9, 0.0, 2023-09-26 15:42:51.996
114.0, 12795.09965122934, 36563.67648406941, -44112.97817384937, -45520.33341173332, -24100.075554856725, -26401.433515719596, -187500.02235174447, 5027.890804754592, -12301.371967956064, -33570.71084627043, -44801.546013539555, -40632.83391390251, -20538.12391020345, -24595.479618964153, -47252.66066225299, -32710.839237074764, -0.044, 1.006, -0.036000000000000004, 192.0, 0.0, 0.0, 0.0, 0.0, 0.0, 0.0, 0.0, 0.0, 0.0, 1.695760971996738E9, 0.0, 2023-09-26 15:42:51.996
116.0, 12800.218200709605, 36579.300353443665, -44106.093836557135, -45531.71044966107, -24102.53424674681, -26410.240103034987, -187500.02235174447, 5109.586430738739, -12296.096956264611, -33563.33477060017, -44799.57906002749, -40619.53462595161, -20577.753553122708, -24613.182200572755, -47250.15726687399, -32704.17841722708, -0.044, 1.006, -0.036000000000000004, 192.0, 0.0, 0.0, 0.0, 0.0, 0.0, 0.0, 0.0, 0.0, 0.0, 1.695760971996758E9, 0.0, 2023-09-26 15:42:51.996
118.0, 12775.094839941841, 36552.05357695265, -44118.811979152204, -45538.50537997549, -24100.05320311227, -26410.955358857558, -187500.02235174447, 5038.016144992846, -12290.710185850881, -33575.650581795046, -44804.71996125221, -40640.36645178395, -20547.869270785963, -24600.44170623323, -47255.901665199, -32714.86255107672, -0.044, 1.006, -0.036000000000000004, 192.0, 0.0, 0.0, 0.0, 0.0, 0.0, 0.0, 0.0, 0.0, 0.0, 1.695760971996768E9, 0.0, 2023-09-26 15:42:51.996
120.0, 12792.730366317079, 36574.89705978597, -44108.93250810296, -45532.20218803909, -24100.030851367814, -26409.256626278955, -187500.02235174447, 5112.805081940303, -12331.926802626467, -33583.56309933223, -44815.6276125464, -40642.8921989074, -20565.728314605753, -24613.472773250673, -47260.37201409007, -32714.840199332262, -0.044, 1.006, -0.036000000000000004, 192.0, 0.0, 0.0, 0.0, 0.0, 0.0, 0.0, 0.0, 0.0, 0.0, 1.695760972056578E9, 0.0, 2023-09-26 15:42:52.056
122.0, 12790.025805237987, 36565.106995714545, -44100.282382998754, -45523.23913851251, -24095.85107515467, -26409.770716401425, -187500.02235174447, 5049.326127687232, -12285.368118926064, -33574.06360793872, -44793.07470239099, -40631.9398441243, -20559.201605224804, -24602.363956256388, -47251.92305468596, -32712.493266164456, -0.05, 1.006, -0.04, 192.0, 127.0, 56.0, 15.5, 56.0, 127.0, 96.0, 0.0, 0.0, 0.0, 1.695760972056633E9, 0.0, 2023-09-26 15:42:52.056
124.0, 12788.304720914928, 36567.61039109354, -44106.093836557135, -45535.599653196296, -24098.15330483357, -26415.313949026342, -187500.02235174447, 5099.9975323674125, -12304.009473801789, -33562.798328733246, -44796.49451929266, -40624.049678331576, -20554.10540748899, -24594.563197441483, -47246.24571159431, -32708.179379484583, -0.05, 1.006, -0.04, 192.0, 0.0, 0.0, 0.0, 0.0, 0.0, 0.0, 0.0, 0.0, 0.0, 1.695760972056684E9, 0.0, 2023-09-26 15:42:52.056
126.0, 12775.586578319857, 36548.58905656207, -44114.78866515025, -45533.565644450864, -24104.277682814325, -26413.235236792, -187500.02235174447, 5052.991813777901, -12320.192136787431, -33589.709829057436, -44818.35452536995, -40642.087536107014, -20548.36100916398, -24604.86735163538, -47259.72381350086, -32720.472838935002, -0.05, 1.006, -0.04, 192.0, 0.0, 0.0, 0.0, 0.0, 0.0, 0.0, 0.0, 0.0, 0.0, 1.695760972056694E9, 0.0, 2023-09-26 15:42:52.056
128.0, 12799.234723953572, 36563.74353930277, -44104.886842356544, -45522.97091757905, -24104.165924092045, -26403.60163493176, -187500.02235174447, 5084.999511837901, -12305.037654046733, -33571.06847418171, -44809.7267520102, -40631.71632667975, -20563.560195393587, -24602.989805101133, -47255.87931345455, -32708.71582135151, -0.05, 1.006, -0.04, 192.0, 0.0, 0.0, 0.0, 0.0, 0.0, 0.0, 0.0, 0.0, 0.0, 1.695760972056703E9, 0.0, 2023-09-26 15:42:52.056
130.0, 12798.184191964174, 36547.56087631713, -44106.809092379706, -45523.95439433508, -24097.77332517783, -26404.674518665615, -187500.02235174447, 5041.3018514277765, -12322.404959488507, -33578.086921940674, -44814.73354276819, -40635.60553021497, -20559.4027709249, -24599.63704343284, -47261.04256642373, -32712.80619058683, -0.05, 1.006, -0.04, 192.0, 0.0, 0.0, 0.0, 0.0, 0.0, 0.0, 0.0, 0.0, 0.0, 1.695760972056712E9, 0.0, 2023-09-26 15:42:52.056
132.0, 12787.880037770277, 36542.48703032578, -44112.508787215804, -45536.2478537855, -24105.842304926195, -26412.922312369625, -187500.02235174447, 5052.991813777901, -12325.9588868569, -33578.936288229976, -44810.88904272188, -40636.61135871546, -20563.850768071505, -24604.599130701918, -47254.62761576505, -32707.508827150923, -0.046, 1.006, -0.036000000000000004, 192.0, 127.0, 72.0, 15.5, 56.0, 127.0, 112.0, 0.0, 0.0, 0.0, 1.695760972056721E9, 0.0, 2023-09-26 15:42:52.056
134.0, 12783.856723768322, 36532.92048369891, -44116.39799075103, -45535.51024621847, -24110.022081139337, -26417.236199049497, -187500.02235174447, 5063.027747038334, -12347.751837700825, -33591.56502384723, -44821.50612133815, -40651.877600178435, -20556.698209845807, -24613.45042150622, -47268.41864209397, -32719.489362178967, -0.046, 1.006, -0.036000000000000004, 192.0, 0.0, 0.0, 0.0, 0.0, 0.0, 0.0, 0.0, 0.0, 0.0, 1.695760972056731E9, 0.0, 2023-09-26 15:42:52.056
136.0, 12773.217293407595, 36538.44136457937, -44110.228909281366, -45526.21192052507, -24104.702365958976, -26409.56955070133, -187500.02235174447, 5063.76535460536, -12332.753817171315, -33588.81575927923, -44818.10865618094, -40645.99909138669, -20580.391058968435, -24605.20262780221, -47260.461421067885, -32708.4699521625, -0.046, 1.006, -0.036000000000000004, 192.0, 0.0, 0.0, 0.0, 0.0, 0.0, 0.0, 0.0, 0.0, 0.0, 1.695760972116737E9, 0.0, 2023-09-26 15:42:52.116
138.0, 12761.393220590739, 36530.41708831991, -44113.73813316085, -45524.244967013, -24105.90936015956, -26409.904826868158, -187500.02235174447, 5068.123944774145, -12334.564308472194, -33585.105369699646, -44826.91524349633, -40640.65702446187, -20562.353201193, -24603.14626731232, -47260.79669723472, -32707.84410331775, -0.046, 1.006, -0.036000000000000004, 192.0, 0.0, 0.0, 0.0, 0.0, 0.0, 0.0, 0.0, 0.0, 0.0, 1.695760972116761E9, 0.0, 2023-09-26 15:42:52.116
140.0, 12750.552624529913, 36520.98465215977, -44106.31735400169, -45530.078772315836, -24103.92005490304, -26416.878571138215, -187500.02235174447, 5045.123999729633, -12334.139625327543, -33607.07713449921, -44828.27869990811, -40653.57633275704, -20550.417369653867, -24608.1083545814, -47257.958025688895, -32705.43011491658, -0.046, 1.006, -0.036000000000000004, 192.0, 0.0, 0.0, 0.0, 0.0, 0.0, 0.0, 0.0, 0.0, 0.0, 1.695760972116771E9, 0.0, 2023-09-26 15:42:52.116
142.0, 12752.005487919509, 36517.81070444712, -44103.63514466705, -45527.24010077001, -24105.462325270455, -26407.26732102243, -187500.02235174447, 5089.693378173516, -12342.700343453926, -33601.17627396301, -44828.01047897464, -40654.269236835156, -20570.623346641463, -24614.992691873635, -47256.773383232765, -32706.927681795085, -0.038, 1.002, -0.036000000000000004, 192.0, 127.0, 104.0, 15.5, 40.0, 127.0, 112.0, 0.0, 0.0, 0.0, 1.695760972116781E9, 0.0, 2023-09-26 15:42:52.116
144.0, 12736.627487734258, 36494.296669280135, -44110.564185448195, -45533.40918223967, -24107.742203204896, -26408.51901871193, -187500.02235174447, 5055.137581245611, -12363.755686730825, -33614.54261714729, -44840.4827523807, -40667.680283508336, -20577.440628700333, -24615.953816885212, -47256.32634834365, -32702.61379511521, -0.038, 1.002, -0.036000000000000004, 192.0, 0.0, 0.0, 0.0, 0.0, 0.0, 0.0, 0.0, 0.0, 0.0, 1.695760972116791E9, 0.0, 2023-09-26 15:42:52.116
146.0, 12728.290287052429, 36498.901128637925, -44112.598194193626, -45540.852313143296, -24107.20576133797, -26415.157486815155, -187500.02235174447, 5093.940209620025, -12372.606977535126, -33621.80693409526, -44838.49344712418, -40667.54617304161, -20566.197701239314, -24625.520363512085, -47253.86765645357, -32706.547702139345, -0.038, 1.002, -0.036000000000000004, 192.0, 0.0, 0.0, 0.0, 0.0, 0.0, 0.0, 0.0, 0.0, 0.0, 1.695760972116834E9, 0.0, 2023-09-26 15:42:52.116
148.0, 12696.953141326088, 36472.30255273611, -44121.29302278674, -45556.722051706565, -24118.269874843347, -26427.7862224324, -187500.02235174447, 5031.5564908452625, -12400.904286015546, -33624.06446028524, -44849.646967607376, -40680.1525569144, -20569.528111163156, -24620.893552409834, -47263.79183099173, -32717.544760411354, -0.038, 1.002, -0.036000000000000004, 192.0, 0.0, 0.0, 0.0, 0.0, 0.0, 0.0, 0.0, 0.0, 0.0, 1.695760972116843E9, 0.0, 2023-09-26 15:42:52.116
150.0, 12709.403062987694, 36485.3112680091, -44099.72358938737, -45536.6948886746, -24104.747069447883, -26421.527733984916, -187500.02235174447, 5107.552421993306, -12368.248387366342, -33633.541599934295, -44845.42248790532, -40680.3537226145, -20590.203474784314, -24635.086910138954, -47264.44003158093, -32727.58069367179, -0.038, 1.002, -0.036000000000000004, 192.0, 0.0, 0.0, 0.0, 0.0, 0.0, 0.0, 0.0, 0.0, 0.0, 1.695760972177225E9, 0.0, 2023-09-26 15:42:52.177
152.0, 12676.858923060767, 36457.61745662898, -44107.211423779896, -45538.192455553115, -24108.63627298311, -26426.467469509542, -187500.02235174447, 5026.303830898265, -12378.440782837963, -33641.007082582364, -44847.411793161846, -40684.06411219408, -20571.428009441854, -24637.366788073396, -47256.1028308991, -32717.120077266703, -0.036000000000000004, 1.012, -0.034, 192.0, 127.0, 112.0, 15.5, 80.0, 127.0, 120.0, 0.0, 0.0, 0.0, 1.695760972177251E9, 0.0, 2023-09-26 15:42:52.177
154.0, 12668.342908423294, 36461.28314271964, -44122.99175536534, -45550.50826674799, -24113.061918385258, -26431.161335845154, -187500.02235174447, 5087.167631050066, -12395.539867346271, -33632.71458538945, -44859.28056946761, -40681.38190285944, -20566.89060531743, -24624.53688675605, -47261.62371177956, -32716.51658016641, -0.036000000000000004, 1.012, -0.034, 192.0, 0.0, 0.0, 0.0, 0.0, 0.0, 0.0, 0.0, 0.0, 0.0, 1.695760972177262E9, 0.0, 2023-09-26 15:42:52.177
156.0, 12663.31376592085, 36448.2520757022, -44108.79839763622, -45543.087487588826, -24112.52547651833, -26421.751251429472, -187500.02235174447, 5027.689639054494, -12422.160794992542, -33666.15279509459, -44873.138651029905, -40706.192339204834, -20570.623346641463, -24635.601000261428, -47276.66643579798, -32728.653577405643, -0.036000000000000004, 1.012, -0.034, 192.0, 0.0, 0.0, 0.0, 0.0, 0.0, 0.0, 0.0, 0.0, 0.0, 1.695760972177277E9, 0.0, 2023-09-26 15:42:52.177
158.0, 12680.41285042916, 36469.15095676792, -44093.88978408454, -45536.158446807676, -24107.83161018272, -26417.392661260685, -187500.02235174447, 5099.751663178404, -12371.958776945923, -33643.15285005008, -44835.051278478066, -40676.53157431264, -20585.062573559593, -24629.744843214135, -47261.06491816818, -32706.547702139345, -0.036000000000000004, 1.012, -0.034, 192.0, 0.0, 0.0, 0.0, 0.0, 0.0, 0.0, 0.0, 0.0, 0.0, 1.695760972177287E9, 0.0, 2023-09-26 15:42:52.177
160.0, 12657.144684451187, 36437.76910755266, -44107.92667960247, -45546.26143530148, -24111.877275929128, -26412.676443180615, -187500.02235174447, 5017.7654645163375, -12404.0782337282, -33652.78645191032, -44851.56921763053, -40690.7025802973, -20594.874989375472, -24623.285189066555, -47264.35062460311, -32713.00735628693, -0.036000000000000004, 1.012, -0.034, 192.0, 0.0, 0.0, 0.0, 0.0, 0.0, 0.0, 0.0, 0.0, 0.0, 1.695760972177296E9, 0.0, 2023-09-26 15:42:52.177
162.0, 12670.980414269021, 36456.2540002172, -44103.568089433684, -45537.96893810856, -24105.171752592534, -26406.641472177682, -187500.02235174447, 5068.503924429885, -12398.512649358827, -33645.924466362536, -44856.59836013298, -40686.03106570614, -20572.433837942343, -24624.693348967237, -47264.75295600331, -32714.19199874306, -0.034, 1.006, -0.038, 192.0, 127.0, 120.0, 15.5, 56.0, 127.0, 104.0, 0.0, 0.0, 0.0, 1.695760972177306E9, 0.0, 2023-09-26 15:42:52.177
164.0, 12664.207835699062, 36433.79049703962, -44103.16575803349, -45549.100106847305, -24109.06095612776, -26417.79499266088, -187500.02235174447, 5001.336932341687, -12393.63996906757, -33667.76212069537, -44853.35735718696, -40697.452807122805, -20571.02567804166, -24644.45229106573, -47264.28356936974, -32714.147295254148, -0.034, 1.006, -0.038, 192.0, 0.0, 0.0, 0.0, 0.0, 0.0, 0.0, 0.0, 0.0, 0.0, 1.695760972177316E9, 0.0, 2023-09-26 15:42:52.177
166.0, 12685.8443243318, 36455.583447883546, -44104.752731889814, -45549.12245859176, -24112.30195907378, -26427.450946265573, -187500.02235174447, 5073.778936121337, -12394.26581791232, -33646.99735009639, -44854.09496475398, -40690.747283786215, -20574.914881576882, -24632.73997697115, -47268.61980779407, -32725.546684926354, -0.034, 1.006, -0.038, 192.0, 0.0, 0.0, 0.0, 0.0, 0.0, 0.0, 0.0, 0.0, 0.0, 1.695760972237348E9, 0.0, 2023-09-26 15:42:52.237
168.0, 12658.239919929496, 36434.90808426238, -44113.224043038375, -45563.44992678761, -24127.92582844804, -26439.76675746045, -187500.02235174447, 5047.403877664075, -12390.60013182165, -33660.78837642531, -44855.97251128823, -40697.4081036339, -20570.355125708, -24641.434805564262, -47279.63921781054, -32733.39214723017, -0.034, 1.006, -0.038, 192.0, 0.0, 0.0, 0.0, 0.0, 0.0, 0.0, 0.0, 0.0, 0.0, 1.695760972237371E9, 0.0, 2023-09-26 15:42:52.237
170.0, 12665.146608966186, 36448.87792454695, -44105.08800805664, -45556.699699962104, -24118.940427177004, -26434.60350449127, -187500.02235174447, 5096.2424392989205, -12398.803222036746, -33667.27038231735, -44856.66541536635, -40697.6539728229, -20573.998460054216, -24640.384273574862, -47285.160098691005, -32737.594275187766, -0.034, 1.006, -0.038, 192.0, 0.0, 0.0, 0.0, 0.0, 0.0, 0.0, 0.0, 0.0, 0.0, 1.69576097223738E9, 0.0, 2023-09-26 15:42:52.237
172.0, 12655.423600128128, 36433.7010900618, -44102.383446977554, -45552.095240604314, -24112.90545617407, -26428.27796081042, -187500.02235174447, 5024.783912275304, -12407.162774463031, -33653.3452455217, -44853.22324672023, -40699.129187956954, -20579.608747912498, -24634.751633972126, -47283.617828323586, -32736.364929242725, -0.038, 1.006, -0.038, 192.0, 127.0, 104.0, 15.5, 56.0, 127.0, 104.0, 0.0, 0.0, 0.0, 1.69576097223739E9, 0.0, 2023-09-26 15:42:52.237
174.0, 12656.720001306534, 36441.792421554615, -44097.64487715303, -45549.63654871423, -24115.20768585297, -26419.85135315077, -187500.02235174447, 5080.372700735653, -12426.474681672416, -33654.10520483318, -44855.88310431041, -40694.2565076657, -20573.394962953924, -24640.1160526414, -47280.06390095519, -32731.4251937181, -0.038, 1.006, -0.038, 192.0, 0.0, 0.0, 0.0, 0.0, 0.0, 0.0, 0.0, 0.0, 0.0, 1.695760972237399E9, 0.0, 2023-09-26 15:42:52.237
176.0, 12655.155379194663, 36435.48922961822, -44084.30088571321, -45537.34308926381, -24105.439973526, -26415.425707748618, -187500.02235174447, 5035.244528680388, -12389.25902715433, -33651.445347242996, -44849.17758097382, -40694.74824604372, -20585.55431193761, -24644.340532343453, -47269.71504327239, -32729.90527509514, -0.038, 1.006, -0.038, 192.0, 0.0, 0.0, 0.0, 0.0, 0.0, 0.0, 0.0, 0.0, 0.0, 1.695760972237408E9, 0.0, 2023-09-26 15:42:52.237
178.0, 12660.676260075124, 36443.893485533416, -44071.31452218468, -45538.37126950875, -24101.930749646515, -26412.922312369625, -187500.02235174447, 5059.250302225388, -12360.15705587352, -33636.15675403557, -44828.882197008395, -40682.92417322686, -20555.513567389677, -24617.83136341946, -47257.28747335523, -32717.70122262254, -0.038, 1.006, -0.038, 192.0, 0.0, 0.0, 0.0, 0.0, 0.0, 0.0, 0.0, 0.0, 0.0, 1.695760972237417E9, 0.0, 2023-09-26 15:42:52.237
180.0, 12647.913413991144, 36425.27448240214, -44095.96849631888, -45553.36929003827, -24109.977377650426, -26423.762908430446, -187500.02235174447, 5039.200787448977, -12395.428108623995, -33668.700893962494, -44854.676110109824, -40702.63841183644, -20540.672009071353, -24638.12674738488, -47268.440993838434, -32729.949978584053, -0.038, 1.006, -0.038, 192.0, 0.0, 0.0, 0.0, 0.0, 0.0, 0.0, 0.0, 0.0, 0.0, 1.695760972296728E9, 0.0, 2023-09-26 15:42:52.296
182.0, 12662.799675798378, 36443.37939541094, -44067.17944946045, -45524.91551934666, -24100.34377579019, -26409.837771634793, -187500.02235174447, 5044.475799140429, -12387.113259686621, -33643.0410913278, -44844.23784544919, -40692.423664620364, -20572.612651897987, -24623.48635476665, -47259.79086873423, -32721.18809475757, -0.042, 1.008, -0.03, 192.0, 127.0, 88.0, 15.5, 64.0, 127.5, 8.0, 0.0, 0.0, 0.0, 1.695760972296753E9, 0.0, 2023-09-26 15:42:52.296
184.0, 12658.709306563058, 36438.03732848613, -44081.32810370065, -45534.03503108442, -24100.76845893484, -26414.933969370602, -187500.02235174447, 5048.9908515204015, -12390.35426263264, -33640.20241978198, -44842.87438903742, -40679.32554236955, -20565.191872738826, -24614.34449128443, -47254.314691342675, -32706.972385283996, -0.042, 1.008, -0.03, 192.0, 0.0, 0.0, 0.0, 0.0, 0.0, 0.0, 0.0, 0.0, 0.0, 1.695760972296765E9, 0.0, 2023-09-26 15:42:52.296
186.0, 12660.542149608393, 36442.082994232536, -44073.61675186357, -45533.431533984134, -24103.271854313836, -26405.345070999276, -187500.02235174447, 5055.137581245611, -12405.195820950965, -33644.47160297294, -44856.53130489961, -40700.179719946354, -20579.69815489032, -24621.05001462102, -47262.428374579955, -32717.65651913363, -0.042, 1.008, -0.03, 192.0, 0.0, 0.0, 0.0, 0.0, 0.0, 0.0, 0.0, 0.0, 0.0, 1.695760972296776E9, 0.0, 2023-09-26 15:42:52.296
188.0, 12674.042603259399, 36441.5018488767, -44076.41071992049, -45538.08069683084, -24102.020156624338, -26411.290635024387, -187500.02235174447, 5091.235648540932, -12378.97722470489, -33652.629989699126, -44838.314633168535, -40693.92123149887, -20557.03348601264, -24636.07038689499, -47255.722851243365, -32704.08901024926, -0.042, 1.008, -0.03, 192.0, 0.0, 0.0, 0.0, 0.0, 0.0, 0.0, 0.0, 0.0, 0.0, 1.695760972296814E9, 0.0, 2023-09-26 15:42:52.296
190.0, 12666.308899677862, 36434.349290651, -44069.1016994836, -45531.755153149985, -24092.095982086183, -26409.591902445783, -187500.02235174447, 5044.609909607161, -12398.60205633665, -33644.60571343967, -44854.69846185428, -40704.583013604046, -20550.46207314278, -24633.499936282627, -47255.76755473227, -32707.86645506221, -0.042, 1.008, -0.03, 192.0, 0.0, 0.0, 0.0, 0.0, 0.0, 0.0, 0.0, 0.0, 0.0, 1.695760972296823E9, 0.0, 2023-09-26 15:42:52.296
192.0, 12669.438143901605, 36445.16753496737, -44078.06474901018, -45550.48591500353, -24099.516761245344, -26426.33335904281, -187500.02235174447, 5111.6204394841725, -12388.588474820672, -33641.38706223811, -44859.97347354573, -40698.369228645475, -20564.54367214962, -24632.896439182336, -47254.82878146515, -32718.438830189567, -0.058, 1.002, -0.03, 192.0, 127.0, 24.0, 15.5, 40.0, 127.5, 8.0, 0.0, 0.0, 0.0, 1.695760972296833E9, 0.0, 2023-09-26 15:42:52.296
194.0, 12660.340983908294, 36439.82546804255, -44071.53803962923, -45545.792048667914, -24101.170790335036, -26412.698794925072, -187500.02235174447, 5064.167686005555, -12398.423242381006, -33655.781585667326, -44858.520610156134, -40711.579109618564, -20556.608802867988, -24633.566991515996, -47260.617883279076, -32725.412574459624, -0.058, 1.002, -0.03, 192.0, 0.0, 0.0, 0.0, 0.0, 0.0, 0.0, 0.0, 0.0, 0.0, 1.695760972296842E9, 0.0, 2023-09-26 15:42:52.296
196.0, 12680.770478340446, 36466.66991313337, -44047.5993213176, -45529.05059207089, -24091.38072626361, -26401.36646048623, -187500.02235174447, 5121.477558788963, -12381.16769566151, -33624.33268121871, -44838.739316313186, -40690.814339019584, -20565.124817505457, -24619.083061108955, -47263.97064494737, -32717.030670288885, -0.058, 1.002, -0.03, 192.0, 0.0, 0.0, 0.0, 0.0, 0.0, 0.0, 0.0, 0.0, 0.0, 1.695760972356569E9, 0.0, 2023-09-26 15:42:52.356
198.0, 12666.979452011521, 36448.430889657844, -44042.413716603965, -45542.08165908833, -24085.301051771767, -26408.831943134304, -187500.02235174447, 5055.04817426779, -12375.579759547683, -33622.23161723991, -44828.14458944137, -40696.335219900044, -20555.44651215631, -24616.691424452238, -47253.86765645357, -32713.05205977584, -0.058, 1.002, -0.03, 192.0, 0.0, 0.0, 0.0, 0.0, 0.0, 0.0, 0.0, 0.0, 0.0, 1.695760972356591E9, 0.0, 2023-09-26 15:42:52.356
200.0, 12686.067841776354, 36478.47163420578, -44041.2961293812, -45538.48302823103, -24088.117371573135, -26409.74836465697, -187500.02235174447, 5137.0343729298565, -12392.20945742243, -33632.55812317826, -44834.5818918445, -40691.52959484215, -20554.418331911365, -24633.34347407144, -47260.617883279076, -32720.58459765728, -0.058, 1.002, -0.03, 192.0, 0.0, 0.0, 0.0, 0.0, 0.0, 0.0, 0.0, 0.0, 0.0, 1.695760972356607E9, 0.0, 2023-09-26 15:42:52.356
202.0, 12668.767591567945, 36465.61938114397, -44046.92876898393, -45553.52575224945, -24099.047374611782, -26426.623931720726, -187500.02235174447, 5088.262866528376, -12355.709058726914, -33625.40556495256, -44832.21260693224, -40691.931926242345, -20559.425122669356, -24628.02375889108, -47261.3554908461, -32730.598179173256, -0.068, 1.01, -0.038, 192.0, 126.5, 112.0, 15.5, 72.0, 127.0, 104.0, 0.0, 0.0, 0.0, 1.695760972356617E9, 0.0, 2023-09-26 15:42:52.356
204.0, 12694.919132580655, 36497.515320481696, -44035.61878628955, -45544.897978889705, -24087.71504017294, -26413.65991993665, -187500.02235174447, 5176.306387937831, -12376.943215959456, -33619.772925349826, -44843.67905183781, -40687.171004673364, -20551.847881299007, -24635.712758983704, -47263.85888622509, -32737.951903099052, -0.068, 1.01, -0.038, 192.0, 0.0, 0.0, 0.0, 0.0, 0.0, 0.0, 0.0, 0.0, 0.0, 1.695760972356627E9, 0.0, 2023-09-26 15:42:52.356
206.0, 12685.21847548705, 36479.09748305053, -44022.85594020557, -45538.72889742004, -24081.881234870107, -26409.70366116806, -187500.02235174447, 5083.010206581379, -12334.519604983283, -33615.95077704797, -44818.890967236875, -40682.4547865933, -20545.58939285152, -24622.0111396326, -47249.844342451615, -32726.597216915754, -0.068, 1.01, -0.038, 192.0, 0.0, 0.0, 0.0, 0.0, 0.0, 0.0, 0.0, 0.0, 0.0, 1.695760972356636E9, 0.0, 2023-09-26 15:42:52.356
208.0, 12705.245638519007, 36503.55029148463, -44037.56338805716, -45544.07096434486, -24102.556598491265, -26410.396565246174, -187500.02235174447, 5167.700966322537, -12343.862634165602, -33600.97510826291, -44817.48280733619, -40669.915457953866, -20554.194814466813, -24620.602979731917, -47256.68397625494, -32724.71967038151, -0.068, 1.01, -0.038, 192.0, 0.0, 0.0, 0.0, 0.0, 0.0, 0.0, 0.0, 0.0, 0.0, 1.695760972356645E9, 0.0, 2023-09-26 15:42:52.356
210.0, 12708.665455420669, 36496.42008500339, -44028.30976585267, -45531.84456012781, -24100.05320311227, -26404.473352965517, -187500.02235174447, 5087.480555472441, -12351.149302858032, -33610.07226825622, -44823.89775799486, -40680.5548883146, -20570.5562914081, -24619.64185472034, -47265.714081014885, -32731.559304184833, -0.068, 1.01, -0.038, 192.0, 0.0, 0.0, 0.0, 0.0, 0.0, 0.0, 0.0, 0.0, 0.0, 1.695760972416954E9, 0.0, 2023-09-26 15:42:52.416
212.0, 12722.121205582764, 36520.4705620373, -44024.39821057299, -45537.81247589737, -24101.506066501865, -26404.98744308799, -187500.02235174447, 5163.655300576127, -12331.323305526175, -33586.915861000525, -44810.46435957722, -40655.38682405792, -20575.69719263282, -24605.046165591022, -47242.8035429482, -32709.364021940713, -0.07200000000000001, 1.014, -0.038, 192.0, 126.5, 96.0, 15.5, 88.0, 127.0, 104.0, 0.0, 0.0, 0.0, 1.695760972416979E9, 0.0, 2023-09-26 15:42:52.416
214.0, 12724.356380028294, 36513.116838111506, -44016.08336163561, -45524.80376062438, -24098.734450189408, -26396.538483683886, -187500.02235174447, 5090.967427607468, -12352.736276714359, -33595.856558782645, -44828.97160398622, -40666.629751518936, -20594.003271341717, -24612.377537772365, -47249.93374942944, -32723.87030409221, -0.07200000000000001, 1.014, -0.038, 192.0, 0.0, 0.0, 0.0, 0.0, 0.0, 0.0, 0.0, 0.0, 0.0, 1.69576097241699E9, 0.0, 2023-09-26 15:42:52.416
216.0, 12758.554549044913, 36537.144963400955, -44013.870538934534, -45529.38586823772, -24099.427354267522, -26392.93985282658, -187500.02235174447, 5146.109181178711, -12314.157165784498, -33569.19092764746, -44803.803539729546, -40643.02630937413, -20572.59030015353, -24605.984938858146, -47234.1981213329, -32709.587539385266, -0.07200000000000001, 1.014, -0.038, 192.0, 0.0, 0.0, 0.0, 0.0, 0.0, 0.0, 0.0, 0.0, 0.0, 1.695760972416999E9, 0.0, 2023-09-26 15:42:52.416
218.0, 12763.404877591716, 36512.066306122106, -44028.6897455084, -45545.34501377881, -24105.238807825903, -26404.719222154527, -187500.02235174447, 5098.477613744451, -12335.458378250407, -33596.415352394026, -44824.702420795256, -40664.595742773505, -20585.889588104437, -24611.550523227517, -47242.24474933681, -32728.98885357247, -0.07200000000000001, 1.014, -0.038, 192.0, 0.0, 0.0, 0.0, 0.0, 0.0, 0.0, 0.0, 0.0, 0.0, 1.695760972417008E9, 0.0, 2023-09-26 15:42:52.417
220.0, 12779.945168488643, 36530.998233675746, -44037.317518868156, -45544.2497783005, -24113.53130501882, -26401.94760584207, -187500.02235174447, 5159.408469129618, -12366.01321292081, -33585.46299761093, -44841.28741518109, -40667.9485044418, -20576.16657926638, -24610.097659837924, -47247.810333706184, -32730.91110359563, -0.07200000000000001, 1.014, -0.038, 192.0, 0.0, 0.0, 0.0, 0.0, 0.0, 0.0, 0.0, 0.0, 0.0, 1.695760972417017E9, 0.0, 2023-09-26 15:42:52.417
222.0, 12788.774107548488, 36523.175123116394, -44045.0959259386, -45547.98251962454, -24117.264046342858, -26403.914559354136, -187500.02235174447, 5134.486274061951, -12320.996799587823, -33586.80410227825, -44831.92203425432, -40662.651141005896, -20589.89055036194, -24614.657415706806, -47253.80060122021, -32738.19777228806, -0.068, 1.012, -0.036000000000000004, 192.0, 126.5, 112.0, 15.5, 80.0, 127.0, 112.0, 0.0, 0.0, 0.0, 1.695760972417026E9, 0.0, 2023-09-26 15:42:52.417
224.0, 12808.53304964698, 36537.010852934225, -44034.18827464441, -45545.25560680099, -24109.19506659449, -26391.241120247978, -187500.02235174447, 5157.597977828739, -12315.632380918549, -33581.05970395324, -44821.908452738346, -40654.00101590169, -20588.728259650263, -24598.765325399083, -47249.218493606866, -32732.788650129874, -0.068, 1.012, -0.036000000000000004, 192.0, 0.0, 0.0, 0.0, 0.0, 0.0, 0.0, 0.0, 0.0, 0.0, 1.695760972417036E9, 0.0, 2023-09-26 15:42:52.417
226.0, 12810.991741537064, 36527.98074817428, -44032.60130078808, -45543.04278409991, -24104.948235147982, -26391.017602803422, -187500.02235174447, 5131.714657749493, -12319.007494331301, -33572.02959919329, -44817.75102826965, -40652.70461472328, -20603.92744587987, -24600.91109286679, -47245.19517960491, -32729.212371017027, -0.068, 1.012, -0.036000000000000004, 192.0, 0.0, 0.0, 0.0, 0.0, 0.0, 0.0, 0.0, 0.0, 0.0, 1.695760972477139E9, 0.0, 2023-09-26 15:42:52.477
228.0, 12809.96356129212, 36537.34612910105, -44046.727603283834, -45540.15940906518, -24118.091060887702, -26395.73382088349, -187500.02235174447, 5168.55033261184, -12339.101712596621, -33579.96446847492, -44827.67520280781, -40661.28768459412, -20599.59120745554, -24605.359090013397, -47253.57708377565, -32734.82265887531, -0.068, 1.012, -0.036000000000000004, 192.0, 0.0, 0.0, 0.0, 0.0, 0.0, 0.0, 0.0, 0.0, 0.0, 1.695760972477164E9, 0.0, 2023-09-26 15:42:52.477
230.0, 12821.25119224205, 36547.024434450206, -44033.85299847758, -45533.05155432839, -24113.01721489635, -26393.94568132707, -187500.02235174447, 5171.098431479744, -12309.239782004332, -33567.6710090245, -44817.125179424904, -40639.89706515039, -20592.684518418853, -24596.15017129781, -47257.08630765514, -32732.94511234106, -0.068, 1.012, -0.036000000000000004, 192.0, 0.0, 0.0, 0.0, 0.0, 0.0, 0.0, 0.0, 0.0, 0.0, 1.695760972477173E9, 0.0, 2023-09-26 15:42:52.477
232.0, 12815.596200894857, 36544.11870767101, -44034.56825430015, -45542.05930734388, -24108.926845661026, -26399.42185871862, -187500.02235174447, 5169.824382045792, -12330.183366558955, -33585.17242493301, -44814.286507879086, -40646.17790534233, -20594.562064953097, -24603.749764412616, -47251.11839188557, -32735.984949586982, -0.07200000000000001, 1.004, -0.036000000000000004, 192.0, 126.5, 96.0, 15.5, 48.0, 127.0, 112.0, 0.0, 0.0, 0.0, 1.695760972477222E9, 0.0, 2023-09-26 15:42:52.477
234.0, 12820.737102119578, 36540.40831809143, -44037.76455375726, -45546.82022891286, -24109.999729394884, -26408.27314952292, -187500.02235174447, 5173.9594547700235, -12304.903543580001, -33565.70405551244, -44809.659696776835, -40645.21678033075, -20561.839111070527, -24606.610787702895, -47246.22335984986, -32736.364929242725, -0.07200000000000001, 1.004, -0.036000000000000004, 192.0, 0.0, 0.0, 0.0, 0.0, 0.0, 0.0, 0.0, 0.0, 0.0, 1.695760972477233E9, 0.0, 2023-09-26 15:42:52.477
236.0, 12821.96644806462, 36536.83203897858, -44023.79471347269, -45538.57243520885, -24096.566330977243, -26405.859161121745, -187500.02235174447, 5148.500817835429, -12311.296142494219, -33575.96350621742, -44809.86086247693, -40649.508315266175, -20586.291919504634, -24608.622444703873, -47242.647080737006, -32741.237609533982, -0.07200000000000001, 1.004, -0.036000000000000004, 192.0, 0.0, 0.0, 0.0, 0.0, 0.0, 0.0, 0.0, 0.0, 0.0, 1.695760972477242E9, 0.0, 2023-09-26 15:42:52.477
238.0, 12831.39888422476, 36543.33639661508, -44023.30297509467, -45538.39362125321, -24097.303938544268, -26404.1827802876, -187500.02235174447, 5193.472527679507, -12317.644037919526, -33578.19868066296, -44808.22918513169, -40637.684242449315, -20589.532922450653, -24607.214284803187, -47239.47313302435, -32736.56609494282, -0.07200000000000001, 1.004, -0.036000000000000004, 192.0, 0.0, 0.0, 0.0, 0.0, 0.0, 0.0, 0.0, 0.0, 0.0, 1.695760972477251E9, 0.0, 2023-09-26 15:42:52.477
240.0, 12822.63700039828, 36533.05459416564, -44022.967698927845, -45533.00685083948, -24100.567293234744, -26397.0302220619, -187500.02235174447, 5149.216073657999, -12315.230049518354, -33570.755549759335, -44810.93374621079, -40644.50152450818, -20588.951777094815, -24607.057822592, -47235.650984722495, -32728.295949494357, -0.07200000000000001, 1.004, -0.036000000000000004, 192.0, 0.0, 0.0, 0.0, 0.0, 0.0, 0.0, 0.0, 0.0, 0.0, 1.695760972537407E9, 0.0, 2023-09-26 15:42:52.537
