%OpenBCI Raw EXG Data
%Number of channels = 16
%Sample Rate = 125 Hz
%Board = OpenBCI_GUI$BoardCytonSerialDaisy
Sample Index, EXG Channel 0, EXG Channel 1, EXG Channel 2, EXG Channel 3, EXG Channel 4, EXG Channel 5, EXG Channel 6, EXG Channel 7, EXG Channel 8, EXG Channel 9, EXG Channel 10, EXG Channel 11, EXG Channel 12, EXG Channel 13, EXG Channel 14, EXG Channel 15, Accel Channel 0, Accel Channel 1, Accel Channel 2, Other, Other, Other, Other, Other, Other, Other, Analog Channel 0, Analog Channel 1, Analog Channel 2, Timestamp, Other, Timestamp (Formatted)
0.0, 13955.915147771258, 36218.05145955699, -42657.94666504225, -44434.44096260559, -23812.90034209494, -25297.14558090515, -187500.02235174447, 14258.691878162846, 0.0, 0.0, 0.0, 0.0, 0.0, 0.0, 0.0, 0.0, 0.0, 0.0, 0.0, 192.0, 0.0, 0.0, 0.0, 0.0, 0.0, 0.0, 0.0, 0.0, 0.0, 1.695761032595193E9, 0.0, 2023-09-26 15:43:52.595
224.0, 13949.924880257235, 36206.02622104004, -42665.54625815705, -44436.94435798459, -23821.259894521227, -25305.549836820348, -187500.02235174447, 14239.67054363138, -12470.865246160656, -33102.307689465015, -44515.66720195618, -40009.332002321724, -20267.109008682848, -24219.545628970343, -46528.01710701193, -31783.73358055754, 0.0, 0.0, 0.0, 192.0, 0.0, 0.0, 0.0, 0.0, 0.0, 0.0, 0.0, 0.0, 0.0, 1.695761032595366E9, 0.0, 2023-09-26 15:43:52.595
226.0, 13961.614842607361, 36218.4984944461, -42652.0681562505, -44434.21744516104, -23811.134554282973, -25295.223330881996, -187500.02235174447, 14248.991221069244, -12478.934225909023, -33093.07641900497, -44514.12493158876, -40006.895662176095, -20269.970031973127, -24217.019881846893, -46518.49526387397, -31778.9503072441, 0.0, 0.0, 0.0, 192.0, 0.0, 0.0, 0.0, 0.0, 0.0, 0.0, 0.0, 0.0, 0.0, 1.695761032595377E9, 0.0, 2023-09-26 15:43:52.595
228.0, 13963.894720541803, 36217.02327931205, -42655.197400474244, -44430.50705558146, -23808.38528971497, -25294.351612848237, -187500.02235174447, 14241.0116482987, -12442.255013257864, -33084.828625300965, -44499.93157385964, -39999.09490336119, -20264.762075515042, -24215.254094034924, -46513.08614171579, -31774.90464149769, -0.01, 1.012, -0.034, 192.0, 127.5, 88.0, 15.5, 80.0, 127.0, 120.0, 0.0, 0.0, 0.0, 1.695761032595386E9, 0.0, 2023-09-26 15:43:52.595
230.0, 13956.943328016201, 36219.03493631303, -42658.05842376452, -44431.9375672266, -23809.547580426646, -25293.47989481448, -187500.02235174447, 14242.375104710472, -12459.912891377557, -33080.894718276824, -44508.04525709692, -40003.22997608542, -20258.458883578645, -24210.873152121683, -46515.74599930597, -31770.99308621801, -0.01, 1.012, -0.034, 192.0, 0.0, 0.0, 0.0, 0.0, 0.0, 0.0, 0.0, 0.0, 0.0, 1.695761032595396E9, 0.0, 2023-09-26 15:43:52.595
232.0, 13957.211548949666, 36216.53154093403, -42650.32472018299, -44432.25049164897, -23804.67490013539, -25289.411877323615, -187500.02235174447, 14240.810482598601, -12463.46681874595, -33082.41463689979, -44510.81687340938, -40001.41948478454, -20253.072113164915, -24205.665195663598, -46510.09100795878, -31768.936725728123, -0.01, 1.012, -0.034, 192.0, 0.0, 0.0, 0.0, 0.0, 0.0, 0.0, 0.0, 0.0, 0.0, 1.695761032595405E9, 0.0, 2023-09-26 15:43:52.595
234.0, 13950.886005268814, 36214.4975321886, -42656.739670841656, -44438.866608007746, -23812.363900228014, -25292.272900613894, -187500.02235174447, 14243.425636699872, -12459.331746021719, -33081.341753165936, -44508.6040507083, -40006.53803426481, -20251.708656753144, -24213.354195756223, -46507.744074790964, -31769.51787108396, -0.01, 1.012, -0.034, 192.0, 0.0, 0.0, 0.0, 0.0, 0.0, 0.0, 0.0, 0.0, 0.0, 1.695761032595414E9, 0.0, 2023-09-26 15:43:52.595
236.0, 13957.457418138674, 36217.15738977878, -42653.20809521772, -44427.17664565762, -23801.70211812283, -25285.366211577206, -187500.02235174447, 14247.650116401926, -12463.80209491278, -33084.761570067596, -44509.69928618662, -40002.4923685184, -20247.931211940195, -24221.64669294914, -46512.12501670421, -31770.14371992871, -0.01, 1.012, -0.034, 192.0, 0.0, 0.0, 0.0, 0.0, 0.0, 0.0, 0.0, 0.0, 0.0, 1.695761032595423E9, 0.0, 2023-09-26 15:43:52.595
238.0, 13947.555595344973, 36207.814360596465, -42655.622083618895, -44429.009488702955, -23806.194818758348, -25285.790894721857, -187500.02235174447, 14205.450022870305, -12455.241376786396, -33094.84220681694, -44510.727466431556, -40008.572043010245, -20238.63288624679, -24216.952826613528, -46507.49820560196, -31764.131100670234, -0.01, 1.006, -0.036000000000000004, 192.0, 127.5, 88.0, 15.5, 56.0, 127.0, 112.0, 0.0, 0.0, 0.0, 1.695761032595431E9, 0.0, 2023-09-26 15:43:52.595
0.0, 7001.90746806949, 18034.840289931333, -21316.590466092883, -22182.85467420276, -11872.978433725648, -12619.88432644419, -93750.01117587223, 7265.501590430927, -6230.325249472291, -16543.844824295622, -22254.69318088212, -20002.57611305429, -10122.769787641739, -12109.102262151511, -23258.33121041432, -15886.345909398307, -0.004, 1.01, -0.02, 192.0, 127.5, 112.0, 15.5, 72.0, 127.5, 48.0, 0.0, 0.0, 0.0, 1.695761032733024E9, 0.0, 2023-09-26 15:43:52.733
2.0, 14014.72258743317, 36083.69512363614, -42640.89228402285, -44373.66656943161, -23757.289201890137, -25243.43433897905, -187500.02235174447, 14621.08071101674, -12504.14699365461, -33079.66537233179, -44525.50196951652, -39971.22227802542, -20256.894261466776, -24220.193829559546, -46468.20383884953, -31731.922236910134, -0.004, 1.01, -0.02, 192.0, 0.0, 0.0, 0.0, 0.0, 0.0, 0.0, 0.0, 0.0, 0.0, 1.695761032733055E9, 0.0, 2023-09-26 15:43:52.733
4.0, 14011.570991464972, 36075.5143851655, -42637.33835665445, -44364.323540249294, -23757.915050734886, -25246.407120991604, -187500.02235174447, 14566.944785945987, -12519.390883373128, -33092.5623288825, -44538.264815600494, -39986.64498169959, -20257.475406822614, -24225.044158106346, -46477.52451628739, -31740.57236201434, -0.004, 1.01, -0.02, 192.0, 0.0, 0.0, 0.0, 0.0, 0.0, 0.0, 0.0, 0.0, 0.0, 1.695761032733074E9, 0.0, 2023-09-26 15:43:52.733
6.0, 14017.762424679093, 36093.03815281846, -42633.71737405269, -44366.0222728279, -23754.763454766686, -25243.90372561261, -187500.02235174447, 14622.041836028318, -12503.76701399887, -33073.004552484104, -44528.38534455125, -39968.85299311316, -20251.842767219874, -24211.923684111083, -46469.88021968368, -31726.736632196506, -0.004, 1.01, -0.02, 192.0, 0.0, 0.0, 0.0, 0.0, 0.0, 0.0, 0.0, 0.0, 0.0, 1.695761032733117E9, 0.0, 2023-09-26 15:43:52.733
8.0, 14006.698311173715, 36078.15189101123, -42651.129382983374, -44379.52272647891, -23760.016114713686, -25257.18066181906, -187500.02235174447, 14581.115791930652, -12522.900107252612, -33092.96466028269, -44541.93050169117, -39984.76743516534, -20254.837900976887, -24224.910047639616, -46485.90642045813, -31746.115594639254, -0.004, 1.012, -0.01, 192.0, 127.5, 112.0, 15.5, 80.0, 127.5, 88.0, 0.0, 0.0, 0.0, 1.695761032733126E9, 0.0, 2023-09-26 15:43:52.733
10.0, 14011.280418787053, 36088.63485916077, -42638.075964221476, -44370.82789788579, -23756.015152456184, -25247.502356469915, -187500.02235174447, 14618.554963893292, -12512.28302863634, -33086.639116601844, -44532.49806553103, -39980.900583374576, -20258.302421367458, -24216.014053346404, -46478.19506862105, -31741.645245748194, -0.004, 1.012, -0.01, 192.0, 0.0, 0.0, 0.0, 0.0, 0.0, 0.0, 0.0, 0.0, 0.0, 1.695761032733136E9, 0.0, 2023-09-26 15:43:52.733
12.0, 14007.01123559609, 36074.12857700927, -42655.04093826305, -44383.30017129185, -23760.46314960279, -25254.207879806505, -187500.02235174447, 14584.490905343404, -12524.218860175475, -33096.920919051285, -44543.53982729195, -39989.46130150095, -20251.038104419484, -24233.962504144016, -46488.96860944851, -31745.400338816686, -0.004, 1.012, -0.01, 192.0, 0.0, 0.0, 0.0, 0.0, 0.0, 0.0, 0.0, 0.0, 0.0, 1.695761032733145E9, 0.0, 2023-09-26 15:43:52.733
14.0, 14008.397043752318, 36078.822443344885, -42638.00890898811, -44385.22242131501, -23757.31155363459, -25254.94548737353, -187500.02235174447, 14596.717309560456, -12515.300514137807, -33085.54388112353, -44540.365879579294, -39990.24361255689, -20266.19258716018, -24225.155916828626, -46483.8724117127, -31745.154469627676, -0.004, 1.012, -0.01, 192.0, 0.0, 0.0, 0.0, 0.0, 0.0, 0.0, 0.0, 0.0, 0.0, 1.695761032733154E9, 0.0, 2023-09-26 15:43:52.733
16.0, 14003.971398350168, 36068.697103106635, -42651.263493450104, -44391.43620627358, -23765.872271760974, -25261.829824665765, -187500.02235174447, 14602.506411374381, -12516.261639149385, -33103.425276687776, -44542.9139784472, -39995.228051570426, -20268.00307846106, -24237.56113500132, -46487.828670481285, -31747.724920240038, -0.004, 1.012, -0.01, 192.0, 0.0, 0.0, 0.0, 0.0, 0.0, 0.0, 0.0, 0.0, 0.0, 1.69576103279342E9, 0.0, 2023-09-26 15:43:52.793
18.0, 13999.47869771465, 36064.22675421557, -42638.120667710384, -44387.36818878272, -23755.07637918906, -25252.866775139188, -187500.02235174447, 14585.049698954786, -12520.933153740545, -33121.664300163306, -44549.39598433924, -40009.10848487717, -20261.476369080112, -24240.17628910259, -46486.934600703076, -31743.61219926026, 0.002, 1.012, -0.004, 192.0, 0.0, 8.0, 15.5, 80.0, 127.5, 112.0, 0.0, 0.0, 0.0, 1.695761032793442E9, 0.0, 2023-09-26 15:43:52.793
20.0, 14005.021930339568, 36064.53967863794, -42643.82036254649, -44387.36818878272, -23757.3562571235, -25260.37696127617, -187500.02235174447, 14612.207068467984, -12510.785461757834, -33099.089038263446, -44544.076269158875, -39997.48557776041, -20251.3286770974, -24238.49990826844, -46480.02791166639, -31747.009664417466, 0.002, 1.012, -0.004, 192.0, 0.0, 0.0, 0.0, 0.0, 0.0, 0.0, 0.0, 0.0, 0.0, 1.695761032793453E9, 0.0, 2023-09-26 15:43:52.793
22.0, 13989.129840031845, 36052.112108720794, -42653.364557428904, -44392.84436617427, -23757.5574228236, -25252.486795483448, -187500.02235174447, 14567.257710368362, -12556.047744279831, -33109.437895946256, -44570.25016191604, -40014.718772735454, -20258.213014389636, -24243.149071115145, -46491.15908040513, -31751.43530981962, 0.002, 1.012, -0.004, 192.0, 0.0, 0.0, 0.0, 0.0, 0.0, 0.0, 0.0, 0.0, 0.0, 1.695761032793462E9, 0.0, 2023-09-26 15:43:52.793
24.0, 14017.315389789987, 36077.28017297747, -42628.88939725034, -44379.656836945636, -23748.527318063658, -25250.162214060096, -187500.02235174447, 14590.727042046434, -12497.977912184944, -33088.58371836945, -44539.20358886762, -39989.95303987897, -20242.499738037557, -24223.74775692794, -46479.446766310546, -31742.315798081854, 0.002, 1.012, -0.004, 192.0, 0.0, 0.0, 0.0, 0.0, 0.0, 0.0, 0.0, 0.0, 0.0, 1.695761032793471E9, 0.0, 2023-09-26 15:43:52.793
26.0, 14007.838250140936, 36066.14900423873, -42626.43070536026, -44371.29728451935, -23748.32615236356, -25247.39059774764, -187500.02235174447, 14544.92831765751, -12502.492964564915, -33092.02588701557, -44533.05685914241, -39986.04148459929, -20256.223709133115, -24226.18409707357, -46474.79760346384, -31733.57626599983, 0.002, 1.012, -0.004, 192.0, 0.0, 0.0, 0.0, 0.0, 0.0, 0.0, 0.0, 0.0, 0.0, 1.695761032793512E9, 0.0, 2023-09-26 15:43:52.793
28.0, 14013.135613576844, 36073.167451997695, -42625.24606290413, -44381.37792126869, -23751.142472164927, -25254.76667341789, -187500.02235174447, 14583.753297776379, -12517.468633349972, -33108.47677093468, -44538.08600164485, -39986.2873537883, -20243.080883393395, -24233.60487623273, -46476.228115108985, -31738.51600152445, 0.002, 1.012, -0.004, 192.0, 0.0, 0.0, 15.5, 80.0, 0.0, 8.0, 0.0, 0.0, 0.0, 1.695761032793522E9, 0.0, 2023-09-26 15:43:52.793
30.0, 14006.899476873814, 36067.08777750585, -42617.22178664467, -44372.1242990642, -23748.214393641283, -25248.75405415941, -187500.02235174447, 14544.816558935234, -12506.0021884444, -33083.711038078196, -44530.0617253854, -39984.3874555096, -20254.882604465798, -24228.776899430384, -46470.05903363932, -31740.840582947803, 0.002, 1.012, -0.004, 192.0, 0.0, 0.0, 0.0, 0.0, 0.0, 0.0, 0.0, 0.0, 0.0, 1.695761032852642E9, 0.0, 2023-09-26 15:43:52.852
32.0, 14013.96262812169, 36081.01291430151, -42612.706734264706, -44368.72683390699, -23749.108463419496, -25252.08446408325, -187500.02235174447, 14618.376149937649, -12505.778670999845, -33093.12112249388, -44529.94996666312, -39974.463280971446, -20246.835976461887, -24232.12966109868, -46464.94048415905, -31731.788126443404, 0.002, 1.012, -0.004, 192.0, 0.0, 0.0, 0.0, 0.0, 0.0, 0.0, 0.0, 0.0, 0.0, 1.695761032852688E9, 0.0, 2023-09-26 15:43:52.852
34.0, 14002.160907049289, 36068.00419902852, -42617.5570628115, -44363.34006349326, -23747.230916885248, -25243.344932001226, -187500.02235174447, 14567.660041768557, -12519.770863028869, -33087.35437242441, -44534.59912950983, -39979.559478707255, -20235.86126993433, -24225.84882090674, -46463.6664347251, -31725.529637995918, 0.002, 1.012, -0.004, 192.0, 0.0, 0.0, 0.0, 0.0, 0.0, 0.0, 0.0, 0.0, 0.0, 1.695761032852698E9, 0.0, 2023-09-26 15:43:52.852
36.0, 14011.079253086955, 36079.113016022806, -42613.55610055401, -44369.75501415194, -23748.639076785934, -25244.015484334886, -187500.02235174447, 14624.56758315177, -12539.172177216074, -33097.45736091821, -44541.12583889077, -39977.614876939646, -20251.932174197696, -24221.110251082213, -46466.59451324875, -31725.663748462648, 0.002, 1.012, -0.004, 192.0, 0.0, 0.0, 0.0, 0.0, 0.0, 0.0, 0.0, 0.0, 0.0, 1.695761032852707E9, 0.0, 2023-09-26 15:43:52.852
38.0, 14001.356244248896, 36066.14900423873, -42618.92051922328, -44368.615075184716, -23754.830510000054, -25245.53540295785, -187500.02235174447, 14546.269422324827, -12512.551249569804, -33108.78969535705, -44538.04129815594, -39985.66150494355, -20263.398619103267, -24217.51162022491, -46466.169830104096, -31726.84839091878, 0.002, 1.01, 0.012, 192.0, 0.0, 8.0, 15.5, 72.0, 0.0, 48.0, 0.0, 0.0, 0.0, 1.695761032852717E9, 0.0, 2023-09-26 15:43:52.852
40.0, 14015.72841593366, 36085.125635281285, -42618.29467037853, -44368.27979901789, -23755.50106233371, -25244.864850624188, -187500.02235174447, 14610.597742867201, -12504.459918076984, -33080.02300024307, -44531.983975408555, -39971.3340367477, -20246.23247936159, -24214.382376001166, -46467.91326617161, -31726.110783351756, 0.002, 1.01, 0.012, 192.0, 0.0, 0.0, 0.0, 0.0, 0.0, 0.0, 0.0, 0.0, 0.0, 1.695761032852726E9, 0.0, 2023-09-26 15:43:52.852
42.0, 14010.185183308744, 36068.49593740654, -42622.31798438048, -44368.3692059957, -23755.836338500543, -25252.397388505626, -187500.02235174447, 14541.106169355651, -12516.462804849483, -33108.3650122124, -44543.29395810294, -39990.82475791273, -20246.970086928617, -24224.35125402823, -46481.21255412252, -31735.274998578432, 0.002, 1.01, 0.012, 192.0, 0.0, 0.0, 0.0, 0.0, 0.0, 0.0, 0.0, 0.0, 0.0, 1.695761032852736E9, 0.0, 2023-09-26 15:43:52.852
44.0, 14018.544735735028, 36084.14215852525, -42617.646469789324, -44371.36433975272, -23762.407751370403, -25245.021312835375, -187500.02235174447, 14619.8513650717, -12512.014807702877, -33087.39907591332, -44540.43293481266, -39978.33013276221, -20258.704752767655, -24211.99073934445, -46476.161059875616, -31732.95041715508, 0.002, 1.01, 0.012, 192.0, 0.0, 0.0, 0.0, 0.0, 0.0, 0.0, 0.0, 0.0, 0.0, 1.695761032852745E9, 0.0, 2023-09-26 15:43:52.852
46.0, 14005.424261739763, 36061.74571058103, -42623.23440590315, -44368.615075184716, -23767.6604113174, -25245.825975635766, -187500.02235174447, 14554.114884628641, -12525.604668331704, -33106.8674453339, -44541.215245868596, -39985.10271133217, -20248.91468869623, -24224.910047639616, -46480.832574466775, -31733.71037646656, 0.002, 1.01, 0.012, 192.0, 0.0, 0.0, 0.0, 0.0, 0.0, 0.0, 0.0, 0.0, 0.0, 1.695761032912425E9, 0.0, 2023-09-26 15:43:52.912
48.0, 14019.170584579777, 36080.431768945666, -42617.646469789324, -44362.870676859704, -23764.441760115835, -25237.980513331953, -187500.02235174447, 14618.286742959828, -12527.683380566048, -33092.584680626955, -44541.6622807577, -39979.62653394062, -20256.11195041084, -24212.214256789, -46477.09983314274, -31726.624873474226, 0.002, 1.016, 0.016, 192.0, 0.0, 8.0, 15.5, 96.0, 0.0, 64.0, 0.0, 0.0, 0.0, 1.69576103291248E9, 0.0, 2023-09-26 15:43:52.912
50.0, 14015.862526400391, 36067.19953622813, -42618.47348433417, -44366.69282516156, -23758.22797515726, -25241.534440700347, -187500.02235174447, 14555.657154996057, -12494.42398481655, -33090.01423001459, -44540.09765864583, -39980.34178976319, -20248.445302062668, -24210.15789629911, -46475.42345230859, -31726.691928707594, 0.002, 1.016, 0.016, 192.0, 0.0, 0.0, 0.0, 0.0, 0.0, 0.0, 0.0, 0.0, 0.0, 1.695761032912491E9, 0.0, 2023-09-26 15:43:52.912
52.0, 14020.332875291453, 36077.97307705558, -42614.89720522132, -44374.80650839883, -23758.160919923892, -25241.37797848916, -187500.02235174447, 14611.849440556698, -12507.812679745279, -33097.43500917376, -44542.48929530255, -39982.75577816436, -20261.85634873585, -24216.12581206868, -46471.556600517826, -31720.94753038258, 0.002, 1.016, 0.016, 192.0, 0.0, 0.0, 0.0, 0.0, 0.0, 0.0, 0.0, 0.0, 0.0, 1.6957610329125E9, 0.0, 2023-09-26 15:43:52.912
54.0, 14017.091872345432, 36066.64074261674, -42615.67951627726, -44383.18841256957, -23756.484539089746, -25245.244830279928, -187500.02235174447, 14558.831102708711, -12494.42398481655, -33091.75766608211, -44529.81585619639, -39990.82475791273, -20246.590107272878, -24212.84010563375, -46471.266027839905, -31723.294463550388, 0.002, 1.016, 0.016, 192.0, 0.0, 0.0, 0.0, 0.0, 0.0, 0.0, 0.0, 0.0, 0.0, 1.695761032912509E9, 0.0, 2023-09-26 15:43:52.912
56.0, 14011.593343209428, 36073.458024675616, -42620.86512099089, -44387.43524401608, -23753.779978010654, -25245.93773435804, -187500.02235174447, 14578.187713407007, -12501.554191297793, -33087.622593357875, -44535.24733009903, -39994.33398179221, -20256.5813370444, -24213.71182366751, -46470.19314410605, -31726.468411263042, 0.002, 1.016, 0.016, 192.0, 0.0, 0.0, 0.0, 0.0, 0.0, 0.0, 0.0, 0.0, 0.0, 1.695761032912518E9, 0.0, 2023-09-26 15:43:52.912
58.0, 14008.285285030042, 36065.34434143834, -42629.22467341717, -44387.01056087143, -23757.020980956673, -25253.693789684035, -187500.02235174447, 14549.01868689283, -12513.467671092472, -33093.09877074943, -44547.16080989371, -39995.47392075943, -20261.409313846747, -24210.470820721486, -46473.836478452264, -31727.965978141547, 0.002, 1.016, 0.016, 192.0, 0.0, 0.0, 15.5, 72.0, 0.0, 72.0, 0.0, 0.0, 0.0, 1.695761032912527E9, 0.0, 2023-09-26 15:43:52.912
60.0, 14007.458270485196, 36073.23450723106, -42628.844693761435, -44379.54507822336, -23751.41069309839, -25240.685074411045, -187500.02235174447, 14574.902006972075, -12503.47644132095, -33092.49527364913, -44549.57479829488, -39993.30580154727, -20238.498775780055, -24228.687492452562, -46473.14357437415, -31723.830905417315, 0.002, 1.016, 0.016, 192.0, 0.0, 0.0, 0.0, 0.0, 0.0, 0.0, 0.0, 0.0, 0.0, 1.695761032972786E9, 0.0, 2023-09-26 15:43:52.972
62.0, 14009.58168620845, 36072.18397524166, -42634.18676068625, -44390.96681964002, -23745.66629477338, -25247.010618091896, -187500.02235174447, 14554.271346839829, -12486.511467279372, -33082.526395622066, -44539.5612167789, -39983.85101364267, -20270.86410175134, -24211.431945733064, -46465.47692602598, -31720.008757115458, 0.002, 1.016, 0.016, 192.0, 0.0, 0.0, 0.0, 0.0, 0.0, 0.0, 0.0, 0.0, 0.0, 1.695761032972822E9, 0.0, 2023-09-26 15:43:52.972
64.0, 14000.797450637514, 36071.44636767464, -42651.82228706149, -44399.32637206631, -23750.538975064635, -25247.725873914467, -187500.02235174447, 14563.726134744424, -12496.346234839706, -33101.16775049779, -44549.57479829488, -40000.90539466207, -20259.15178765676, -24212.683643422562, -46469.723757472486, -31730.558780498362, 0.002, 1.016, 0.016, 192.0, 0.0, 0.0, 0.0, 0.0, 0.0, 0.0, 0.0, 0.0, 0.0, 1.695761032972831E9, 0.0, 2023-09-26 15:43:52.972
66.0, 14000.976264593157, 36075.84966133233, -42647.8660282929, -44396.845328431766, -23744.74987325071, -25241.310923255794, -187500.02235174447, 14545.911794413543, -12506.51627856687, -33091.08711374845, -44551.85467622932, -39991.785882924305, -20275.87089250933, -24217.288102780356, -46467.2650655824, -31724.300292050877, 0.002, 1.016, 0.016, 192.0, 0.0, 0.0, 0.0, 0.0, 0.0, 0.0, 0.0, 0.0, 0.0, 1.69576103297284E9, 0.0, 2023-09-26 15:43:52.972
68.0, 13993.555485433995, 36078.53187066697, -42646.8154963035, -44388.5751829833, -23743.900506961407, -25233.57721967426, -187500.02235174447, 14511.177183529995, -12488.880752191633, -33077.09492171943, -44541.37170807978, -39986.93555437751, -20256.067246921928, -24199.11613453819, -46459.08432711176, -31714.152600068166, -0.008, 1.006, 0.018000000000000002, 192.0, 127.5, 96.0, 15.5, 56.0, 0.0, 72.0, 0.0, 0.0, 0.0, 1.695761032972849E9, 0.0, 2023-09-26 15:43:52.972
70.0, 13987.632273153338, 36078.30835322241, -42666.6191418909, -44403.66261049064, -23754.718751277775, -25250.408083249105, -187500.02235174447, 14548.21402409244, -12499.631941274636, -33078.48072987566, -44551.87702797378, -39984.43215899851, -20265.879662737807, -24217.623378947184, -46468.472059782995, -31718.600597214772, -0.008, 1.006, 0.018000000000000002, 192.0, 0.0, 0.0, 0.0, 0.0, 0.0, 0.0, 0.0, 0.0, 0.0, 1.69576103297289E9, 0.0, 2023-09-26 15:43:52.972
72.0, 13973.81889507996, 36066.50663215001, -42666.08270002397, -44406.277764591905, -23747.856765729997, -25246.76474890289, -187500.02235174447, 14537.194614075974, -12511.791290258323, -33085.45447414571, -44561.95766472312, -40000.23484232841, -20265.857310993353, -24201.73128863946, -46472.2718563404, -31721.79689667188, -0.008, 1.006, 0.018000000000000002, 192.0, 0.0, 0.0, 0.0, 0.0, 0.0, 0.0, 0.0, 0.0, 0.0, 1.695761032972899E9, 0.0, 2023-09-26 15:43:52.972
74.0, 13975.450572425196, 36069.23354497356, -42666.55208665754, -44402.81324420134, -23739.854841214998, -25233.37605397416, -187500.02235174447, 14553.824311950722, -12513.33356062574, -33093.74697133863, -44563.70110079063, -40005.353391808676, -20270.23825290659, -24203.139448540147, -46465.14164985915, -31717.32654778082, -0.008, 1.006, 0.018000000000000002, 192.0, 0.0, 0.0, 0.0, 0.0, 0.0, 0.0, 0.0, 0.0, 0.0, 1.695761032972908E9, 0.0, 2023-09-26 15:43:52.972
76.0, 13966.599281620895, 36061.25397220301, -42661.00885403262, -44394.20782258604, -23739.363102836982, -25225.664702137077, -187500.02235174447, 14478.476581391882, -12517.021598460866, -33089.90247129231, -44560.370690866795, -39997.57498473823, -20258.01184868954, -24206.849838119728, -46460.917170157096, -31705.949509853068, -0.008, 1.006, 0.018000000000000002, 192.0, 0.0, 0.0, 0.0, 0.0, 0.0, 0.0, 0.0, 0.0, 0.0, 1.695761033033117E9, 0.0, 2023-09-26 15:43:53.033
78.0, 13980.256197483088, 36080.94585906814, -42666.239162235164, -44405.49545353597, -23743.6546377724, -25241.959123844998, -187500.02235174447, 14538.379256532106, -12501.911819209077, -33090.058933503504, -44557.219094898595, -39990.891813146096, -20262.415142347236, -24212.191905044547, -46464.67226322559, -31714.197303557077, -0.01, 1.012, 0.02, 192.0, 127.5, 88.0, 15.5, 80.0, 0.0, 80.0, 0.0, 0.0, 0.0, 1.695761033033142E9, 0.0, 2023-09-26 15:43:53.033
80.0, 13969.929691544736, 36065.74667283853, -42665.613313390415, -44402.857947690245, -23746.068626173572, -25240.863888366686, -187500.02235174447, 14482.63400586057, -12510.450185591006, -33094.328116694465, -44561.77885076748, -40002.38060979612, -20264.11387492584, -24199.093782793738, -46472.98711216296, -31720.85812340476, -0.01, 1.012, 0.02, 192.0, 0.0, 0.0, 0.0, 0.0, 0.0, 0.0, 0.0, 0.0, 0.0, 1.695761033033152E9, 0.0, 2023-09-26 15:43:53.033
82.0, 13982.424316695253, 36086.26557424851, -42669.033130292075, -44393.51491850793, -23751.32128612057, -25238.248734265417, -187500.02235174447, 14522.241297035373, -12505.71161576648, -33092.428218415764, -44554.76040300851, -39989.81892941224, -20270.998212218074, -24205.84400961924, -46469.05320513883, -31714.309062279353, -0.01, 1.012, 0.02, 192.0, 0.0, 0.0, 0.0, 0.0, 0.0, 0.0, 0.0, 0.0, 0.0, 1.695761033033161E9, 0.0, 2023-09-26 15:43:53.033
84.0, 13977.57398814845, 36071.89340256374, -42670.35188321494, -44397.78410169889, -23752.952963465807, -25238.76282438789, -187500.02235174447, 14445.552461809215, -12510.986627457933, -33084.58275611195, -44555.9673972091, -39990.690647446, -20260.15761615725, -24198.557340926807, -46477.63627500967, -31723.22740831702, -0.01, 1.012, 0.02, 192.0, 0.0, 0.0, 0.0, 0.0, 0.0, 0.0, 0.0, 0.0, 0.0, 1.69576103303317E9, 0.0, 2023-09-26 15:43:53.033
86.0, 13990.716813888172, 36089.8195016169, -42657.432574919774, -44398.946392410566, -23748.594373297023, -25240.79683313332, -187500.02235174447, 14509.098471295652, -12495.273351105852, -33093.478750405164, -44547.361975593805, -39981.54878396378, -20266.840787749385, -24194.80224785832, -46468.047376638344, -31721.528675738416, -0.01, 1.012, 0.02, 192.0, 0.0, 0.0, 0.0, 0.0, 0.0, 0.0, 0.0, 0.0, 0.0, 1.695761033033179E9, 0.0, 2023-09-26 15:43:53.033
88.0, 13971.650775867794, 36073.23450723106, -42671.000083804145, -44399.66164823314, -23756.216318156283, -25236.304132497804, -187500.02235174447, 14437.215261127385, -12497.799098229301, -33098.28437546306, -44542.37753658027, -39988.27665904482, -20257.833034733896, -24199.25024500492, -46466.39334754865, -31722.534504238905, -0.006, 1.004, 0.024, 192.0, 127.5, 104.0, 15.5, 48.0, 0.0, 96.0, 0.0, 0.0, 0.0, 1.695761033033188E9, 0.0, 2023-09-26 15:43:53.033
90.0, 13981.597302150405, 36092.61346967381, -42666.507383168624, -44397.180604598594, -23751.522451820667, -25236.86292610919, -187500.02235174447, 14505.812764860722, -12518.608572317193, -33089.63425035885, -44551.42999308467, -39979.17949905151, -20263.465674336636, -24197.685622893052, -46473.68001624108, -31719.919350137636, -0.006, 1.004, 0.024, 192.0, 0.0, 0.0, 0.0, 0.0, 0.0, 0.0, 0.0, 0.0, 0.0, 1.695761033093366E9, 0.0, 2023-09-26 15:43:53.093
92.0, 13973.237749724121, 36079.29182997845, -42667.356749457926, -44390.31861905082, -23746.917992462873, -25234.6053999192, -187500.02235174447, 14433.035484914242, -12515.456976348994, -33091.84707305993, -44552.27935937397, -39983.42633049802, -20271.57935757391, -24185.414515187087, -46466.795678948845, -31717.28184429191, -0.006, 1.004, 0.024, 192.0, 0.0, 0.0, 0.0, 0.0, 0.0, 0.0, 0.0, 0.0, 0.0, 1.695761033093421E9, 0.0, 2023-09-26 15:43:53.093
94.0, 13986.380575463842, 36090.780626628475, -42660.986502288164, -44390.74330219547, -23748.7061320193, -25233.04077780733, -187500.02235174447, 14482.544598882747, -12485.885618434622, -33083.353410166914, -44542.37753658027, -39971.021112325325, -20259.77763650151, -24192.209445501503, -46463.19704809154, -31706.105972064255, -0.006, 1.004, 0.024, 192.0, 0.0, 0.0, 0.0, 0.0, 0.0, 0.0, 0.0, 0.0, 0.0, 1.695761033093432E9, 0.0, 2023-09-26 15:43:53.093
96.0, 13975.696441614205, 36072.89923106423, -42671.96120881572, -44398.70052322156, -23748.303800619102, -25238.360492987693, -187500.02235174447, 14423.893621432022, -12495.675682506047, -33098.30672720751, -44549.91007446171, -39985.79561541029, -20264.71737202613, -24193.97523331347, -46473.367091818705, -31717.438306503096, -0.006, 1.004, 0.024, 192.0, 0.0, 0.0, 0.0, 0.0, 0.0, 0.0, 0.0, 0.0, 0.0, 1.695761033093441E9, 0.0, 2023-09-26 15:43:53.093
98.0, 13981.95493006169, 36085.751484126034, -42664.272208723094, -44399.281668577394, -23739.430158070347, -25240.81918487778, -187500.02235174447, 14457.711810792902, -12500.011920930378, -33094.55163413902, -44553.75457450802, -39983.403978753566, -20276.317927398435, -24195.293986236335, -46491.36024610523, -31711.045707588877, -0.004, 1.012, 0.028, 192.0, 127.5, 112.0, 15.5, 80.0, 0.0, 112.0, 0.0, 0.0, 0.0, 1.695761033093451E9, 0.0, 2023-09-26 15:43:53.093
100.0, 13978.736278860126, 36076.92254506618, -42657.41022317532, -44398.20878484354, -23742.98408543874, -25236.929981342553, -187500.02235174447, 14405.922818889954, -12518.183889172542, -33095.33394519496, -44561.8682577453, -39991.87528990213, -20269.92532848422, -24194.53402692485, -46502.15613867714, -31714.17495181262, -0.004, 1.012, 0.028, 192.0, 0.0, 0.0, 0.0, 0.0, 0.0, 0.0, 0.0, 0.0, 0.0, 1.695761033093461E9, 0.0, 2023-09-26 15:43:53.093
102.0, 13978.356299204386, 36080.029437545476, -42667.91554306931, -44414.54791004037, -23746.94034420733, -25254.34199027324, -187500.02235174447, 14448.793464755234, -12501.353025597695, -33100.78777084205, -44552.56993205189, -39990.55653697927, -20258.302421367458, -24204.368794485188, -46497.23875489697, -31711.068059333335, -0.004, 1.012, 0.028, 192.0, 0.0, 0.0, 0.0, 0.0, 0.0, 0.0, 0.0, 0.0, 0.0, 1.69576103309347E9, 0.0, 2023-09-26 15:43:53.093
104.0, 13978.401002693297, 36073.74859735353, -42661.210019732716, -44405.36134306924, -23736.83735571353, -25248.888164626143, -187500.02235174447, 14403.888810144523, -12526.297572409818, -33113.88589309286, -44567.143269436754, -40006.739199964904, -20269.143017428283, -24219.947960370537, -46506.693542801564, -31729.105917108765, -0.004, 1.012, 0.028, 192.0, 0.0, 0.0, 0.0, 0.0, 0.0, 0.0, 0.0, 0.0, 0.0, 1.695761033093479E9, 0.0, 2023-09-26 15:43:53.093
106.0, 13977.9986712931, 36087.47256844909, -42661.61235113291, -44396.24183133148, -23740.5030418042, -25234.448937708014, -187500.02235174447, 14454.470807846881, -12479.448316031494, -33087.37672416887, -44545.95381569312, -39983.80631015376, -20243.796139215963, -24188.856683833204, -46489.05801642633, -31700.965070839535, -0.004, 1.012, 0.028, 192.0, 0.0, 0.0, 0.0, 0.0, 0.0, 0.0, 0.0, 0.0, 0.0, 1.695761033152722E9, 0.0, 2023-09-26 15:43:53.152
108.0, 13956.362182660365, 36073.36861769779, -42666.97676980219, -44406.85890994775, -23738.89371620342, -25242.629676178658, -187500.02235174447, 14440.769188495779, -12507.678569278547, -33095.98214578416, -44560.48244958907, -39993.05993235826, -20266.59491856038, -24209.196771287534, -46499.94331597607, -31708.07292557632, -0.008, 1.004, 0.03, 192.0, 127.5, 96.0, 15.5, 48.0, 0.0, 120.0, 0.0, 0.0, 0.0, 1.695761033152752E9, 0.0, 2023-09-26 15:43:53.152
110.0, 13940.939478986202, 36079.738864867555, -42671.558877415526, -44411.17279662762, -23744.056969172594, -25243.121414556674, -187500.02235174447, 14460.975165483376, -12511.500717580406, -33112.365974469896, -44560.705967033624, -39999.72075220594, -20261.074037679915, -24215.187038801556, -46496.34468511876, -31705.144847052678, -0.008, 1.004, 0.03, 192.0, 0.0, 0.0, 0.0, 0.0, 0.0, 0.0, 0.0, 0.0, 0.0, 1.695761033152762E9, 0.0, 2023-09-26 15:43:53.152
112.0, 13932.490519582096, 36078.6659811337, -42666.105051768434, -44406.210709358544, -23742.73821624973, -25247.502356469915, -187500.02235174447, 14449.32990662216, -12509.131432668142, -33106.33100346696, -44562.69527229015, -39998.31259230526, -20267.39958136077, -24210.090841065747, -46494.80241475134, -31703.267300518433, -0.008, 1.004, 0.03, 192.0, 0.0, 0.0, 0.0, 0.0, 0.0, 0.0, 0.0, 0.0, 0.0, 1.695761033152771E9, 0.0, 2023-09-26 15:43:53.152
114.0, 13921.761682243548, 36082.28696373546, -42652.87281905089, -44396.33123830929, -23738.46903305877, -25242.8084901343, -187500.02235174447, 14457.130665437064, -12510.897220480112, -33087.77905556906, -44558.336682121364, -39995.65273471508, -20267.757209272055, -24202.893579351137, -46491.114376916215, -31697.858178360246, -0.008, 1.004, 0.03, 192.0, 0.0, 0.0, 0.0, 0.0, 0.0, 0.0, 0.0, 0.0, 0.0, 1.695761033152826E9, 0.0, 2023-09-26 15:43:53.152
116.0, 13916.352560085365, 36075.78260609897, -42658.818383076, -44405.76367446943, -23731.987027166728, -25249.648123937623, -187500.02235174447, 14454.04612470223, -12516.19458391602, -33091.57885212646, -44559.70013853313, -39991.67412420203, -20261.901052224763, -24207.430983475566, -46486.24169662496, -31695.55594868135, -0.008, 1.004, 0.03, 192.0, 0.0, 0.0, 0.0, 0.0, 0.0, 0.0, 0.0, 0.0, 0.0, 1.695761033152836E9, 0.0, 2023-09-26 15:43:53.152
118.0, 13905.221391346622, 36065.00906527151, -42657.924313297786, -44417.74420949748, -23742.17942263835, -25253.202051306016, -187500.02235174447, 14429.772130223768, -12532.064322479288, -33108.78969535705, -44564.23754265756, -40014.27173784635, -20250.501662552557, -24212.616588189198, -46489.10271991524, -31702.32852725131, -0.008, 1.004, 0.032, 192.0, 127.5, 96.0, 15.5, 48.0, 0.5, 0.0, 0.0, 0.0, 0.0, 1.695761033152845E9, 0.0, 2023-09-26 15:43:53.152
120.0, 13916.710187996649, 36081.75052186853, -42642.278092179076, -44393.93960165258, -23724.722710218753, -25239.23221102145, -187500.02235174447, 14465.847845774633, -12500.458955819484, -33099.089038263446, -44563.231714157075, -40011.991859911905, -20262.526901069512, -24224.194791817044, -46494.28832462887, -31698.193454527078, -0.008, 1.004, 0.032, 192.0, 0.0, 0.0, 0.0, 0.0, 0.0, 0.0, 0.0, 0.0, 0.0, 1.695761033212585E9, 0.0, 2023-09-26 15:43:53.212
122.0, 13909.84820244887, 36073.860356075806, -42636.22076943168, -44387.323485293804, -23725.5497247636, -25232.861963851687, -187500.02235174447, 14407.353330535094, -12494.133412138632, -33076.20085194121, -44556.526190820485, -40002.268851073844, -20240.353970569846, -24197.149181026125, -46479.55852503282, -31685.341201465275, -0.008, 1.004, 0.032, 192.0, 0.0, 0.0, 0.0, 0.0, 0.0, 0.0, 0.0, 0.0, 0.0, 1.69576103321262E9, 0.0, 2023-09-26 15:43:53.212
124.0, 13919.280638609009, 36083.62806840278, -42641.004042745124, -44394.45369177505, -23728.36604456497, -25240.99799883342, -187500.02235174447, 14462.763305039802, -12499.698996508003, -33091.15416898181, -44560.12482167779, -40001.88887141811, -20262.415142347236, -24215.54466671284, -46486.509917558426, -31691.823207357313, -0.008, 1.004, 0.032, 192.0, 0.0, 0.0, 0.0, 0.0, 0.0, 0.0, 0.0, 0.0, 0.0, 1.695761033212631E9, 0.0, 2023-09-26 15:43:53.212
126.0, 13908.976484415112, 36074.73207410957, -42640.042917733546, -44387.36818878272, -23733.417538811867, -25236.259429008893, -187500.02235174447, 14405.006397367288, -12507.186830900531, -33097.56911964049, -44560.14717342224, -40010.047258144295, -20254.167348643226, -24205.776954385874, -46488.029836181384, -31692.314945735332, -0.008, 1.004, 0.032, 192.0, 0.0, 0.0, 0.0, 0.0, 0.0, 0.0, 0.0, 0.0, 0.0, 1.695761033212641E9, 0.0, 2023-09-26 15:43:53.212
128.0, 13922.767510744037, 36086.06440854841, -42640.40054564483, -44394.09606386376, -23728.522506776157, -25240.41685347758, -187500.02235174447, 14472.441610388949, -12501.263618619874, -33088.114331735895, -44553.62046404129, -39999.36312429466, -20260.515244068534, -24213.801230645327, -46488.029836181384, -31692.449056202062, -0.006, 1.01, 0.03, 192.0, 127.5, 104.0, 15.5, 72.0, 0.0, 120.0, 0.0, 0.0, 0.0, 1.69576103321265E9, 0.0, 2023-09-26 15:43:53.212
130.0, 13909.1329466263, 36070.32878045187, -42649.475353893686, -44397.627639487706, -23731.74115797772, -25240.14863254412, -187500.02235174447, 14398.479687986337, -12511.47836583595, -33099.49136966364, -44560.72831877808, -40010.98603141142, -20257.16248240024, -24209.17441954308, -46488.7227402595, -31697.277033004408, -0.006, 1.01, 0.03, 192.0, 0.0, 0.0, 0.0, 0.0, 0.0, 0.0, 0.0, 0.0, 0.0, 1.695761033212661E9, 0.0, 2023-09-26 15:43:53.212
132.0, 13912.932743183703, 36081.59405965734, -42650.48118239417, -44406.635392503194, -23737.150280135906, -25249.402254748617, -187500.02235174447, 14460.975165483376, -12521.961333985488, -33080.98412525465, -44563.47758334608, -40003.56525225225, -20255.374342843814, -24205.374622985677, -46490.44382458256, -31698.059344060344, -0.006, 1.01, 0.03, 192.0, 0.0, 0.0, 0.0, 0.0, 0.0, 0.0, 0.0, 0.0, 0.0, 1.695761033212676E9, 0.0, 2023-09-26 15:43:53.212
134.0, 13910.027016404512, 36070.21702172959, -42645.07206023599, -44407.35064832576, -23740.27952435965, -25258.074731597273, -187500.02235174447, 14399.887847887023, -12506.985665200433, -33094.84220681694, -44566.24919965854, -40015.210511113466, -20268.96420347264, -24213.30949226731, -46497.886955486174, -31711.224521544522, -0.006, 1.01, 0.03, 192.0, 0.0, 0.0, 0.0, 0.0, 0.0, 0.0, 0.0, 0.0, 0.0, 1.695761033212752E9, 0.0, 2023-09-26 15:43:53.212
136.0, 13924.443891578185, 36092.457007462624, -42629.85052226192, -44393.47021501901, -23717.50309675969, -25237.868754609677, -187500.02235174447, 14462.808008528711, -12489.23838010292, -33080.67120083227, -44555.14038266425, -40003.49819701889, -20256.49193006658, -24218.070413836293, -46486.66637976961, -31700.182759783598, -0.006, 1.01, 0.03, 192.0, 0.0, 0.0, 0.0, 0.0, 0.0, 0.0, 0.0, 0.0, 0.0, 1.695761033272796E9, 0.0, 2023-09-26 15:43:53.272
138.0, 13912.530411783508, 36074.10622526482, -42640.15467645582, -44389.44690101706, -23723.180439851338, -25240.439205222036, -187500.02235174447, 14393.584655950626, -12495.94390343951, -33082.83932004444, -44548.03252792746, -39998.513758005356, -20250.635773019287, -24205.59814043023, -46476.13870813116, -31684.42477994261, -0.004, 1.01, 0.032, 192.0, 127.5, 112.0, 15.5, 72.0, 0.5, 0.0, 0.0, 0.0, 0.0, 1.695761033272902E9, 0.0, 2023-09-26 15:43:53.272
140.0, 13913.223315861622, 36086.71260913761, -42657.83490631997, -44400.64512498917, -23735.451547557303, -25243.635504679147, -187500.02235174447, 14468.217130686895, -12507.387996600628, -33083.80044505602, -44559.387214110764, -40004.83930168621, -20255.68726726619, -24217.578675458273, -46494.467138584514, -31694.9300998366, -0.004, 1.01, 0.032, 192.0, 0.0, 0.0, 0.0, 0.0, 0.0, 0.0, 0.0, 0.0, 0.0, 1.695761033272917E9, 0.0, 2023-09-26 15:43:53.272
142.0, 13903.969693657124, 36069.76998684049, -42650.34707192744, -44396.35359005375, -23722.286370073125, -25233.80073711881, -187500.02235174447, 14379.570112177147, -12505.242229132919, -33078.30191592001, -44562.76232752351, -40012.707115734476, -20253.00505793155, -24201.641881661642, -46489.370940848705, -31692.47140794652, -0.004, 1.01, 0.032, 192.0, 0.0, 0.0, 0.0, 0.0, 0.0, 0.0, 0.0, 0.0, 0.0, 1.695761033272931E9, 0.0, 2023-09-26 15:43:53.272
144.0, 13906.473089036119, 36075.76025435451, -42653.69983359573, -44411.373962327714, -23733.059910900585, -25245.222478535474, -187500.02235174447, 14428.654543001003, -12515.121700182164, -33102.17357899828, -44566.271551403, -40015.94811868049, -20255.597860288366, -24206.93924509755, -46487.73926350347, -31697.925233593614, -0.004, 1.01, 0.032, 192.0, 0.0, 0.0, 0.0, 0.0, 0.0, 0.0, 0.0, 0.0, 0.0, 1.695761033272944E9, 0.0, 2023-09-26 15:43:53.272
146.0, 13907.32245532542, 36075.17910899867, -42643.28392067956, -44399.21461334403, -23730.109480632484, -25249.201089048518, -187500.02235174447, 14377.625510409536, -12510.249019890907, -33089.4107329143, -44562.605865312325, -40015.00934541337, -20267.5336918275, -24208.16859104259, -46492.20961239453, -31705.971861597525, -0.004, 1.01, 0.032, 192.0, 0.0, 0.0, 0.0, 0.0, 0.0, 0.0, 0.0, 0.0, 0.0, 1.695761033272957E9, 0.0, 2023-09-26 15:43:53.272
148.0, 13912.03867340549, 36087.42786496018, -42650.928217283275, -44410.2340233605, -23734.065739401074, -25249.826937893267, -187500.02235174447, 14443.987839697344, -12515.47932809345, -33089.142511980834, -44562.181182167675, -40009.06378138826, -20270.640584306788, -24219.679739437073, -46492.25431588344, -31709.95047211057, -0.004, 1.012, 0.03, 192.0, 127.5, 112.0, 15.5, 80.0, 0.0, 120.0, 0.0, 0.0, 0.0, 1.69576103327297E9, 0.0, 2023-09-26 15:43:53.272
150.0, 13913.871516450825, 36081.88463233526, -42648.7153945822, -44398.61111624374, -23733.037559156128, -25239.165155788083, -187500.02235174447, 14414.103557360597, -12499.475479063449, -33079.844186287424, -44559.946007722145, -40009.30965057727, -20259.978802201607, -24213.55536145632, -46493.10368217274, -31702.55204469586, -0.004, 1.012, 0.03, 192.0, 0.0, 0.0, 0.0, 0.0, 0.0, 0.0, 0.0, 0.0, 0.0, 1.695761033332863E9, 0.0, 2023-09-26 15:43:53.332
152.0, 13906.98717915859, 36080.87880383478, -42656.49380165265, -44399.66164823314, -23736.23385861324, -25236.885277853642, -187500.02235174447, 14442.132644907553, -12511.187793158031, -33085.90150903482, -44566.49506884755, -40009.35435406618, -20261.901052224763, -24206.89454160864, -46496.367036863216, -31703.826094129814, -0.004, 1.012, 0.03, 192.0, 0.0, 0.0, 0.0, 0.0, 0.0, 0.0, 0.0, 0.0, 0.0, 1.695761033332885E9, 0.0, 2023-09-26 15:43:53.332
154.0, 13911.70339723866, 36074.19563224264, -42653.7668888291, -44403.014409901436, -23739.206640625795, -25242.160289545096, -187500.02235174447, 14408.627379969048, -12520.441415362528, -33093.29993644952, -44569.91488574921, -40015.25521460238, -20254.592031787877, -24213.55536145632, -46497.73049327499, -31711.336280266798, -0.004, 1.012, 0.03, 192.0, 0.0, 0.0, 0.0, 0.0, 0.0, 0.0, 0.0, 0.0, 0.0, 1.695761033332894E9, 0.0, 2023-09-26 15:43:53.332
156.0, 13914.22914436211, 36079.15771951171, -42653.90099929583, -44400.71218022254, -23742.73821624973, -25245.066016324286, -187500.02235174447, 14436.544708793726, -12508.974970456955, -33089.76836082558, -44566.62917931428, -40015.67989774703, -20259.01767719003, -24211.253131777423, -46502.446711355056, -31710.732783166502, -0.004, 1.012, 0.03, 192.0, 0.0, 0.0, 0.0, 0.0, 0.0, 0.0, 0.0, 0.0, 0.0, 1.695761033332939E9, 0.0, 2023-09-26 15:43:53.332
158.0, 13918.677141508717, 36080.11884452329, -42652.20226671723, -44401.315677322826, -23738.26786735867, -25250.586897204746, -187500.02235174447, 14424.340656321128, -12508.215011145474, -33088.74018058064, -44564.30459789093, -40013.936461679514, -20249.51818579652, -24216.79636440234, -46503.229022411, -31710.352803510763, -0.008, 1.016, 0.028, 192.0, 127.5, 96.0, 15.5, 96.0, 0.0, 112.0, 0.0, 0.0, 0.0, 1.695761033332952E9, 0.0, 2023-09-26 15:43:53.332
160.0, 13915.2349728626, 36084.23156550307, -42640.53465611156, -44398.96874415502, -23735.876230701953, -25247.032969836353, -187500.02235174447, 14418.909182418489, -12507.43270008954, -33100.22897723067, -44560.236580400066, -40012.81887445675, -20250.680476508198, -24217.60102720273, -46493.88599322868, -31706.59771044227, -0.008, 1.016, 0.028, 192.0, 0.0, 0.0, 0.0, 0.0, 0.0, 0.0, 0.0, 0.0, 0.0, 1.695761033332965E9, 0.0, 2023-09-26 15:43:53.332
162.0, 13918.207754875155, 36087.29375449345, -42641.87576077888, -44395.68303772009, -23743.945210450318, -25260.265202553896, -187500.02235174447, 14423.42423479846, -12511.098386180209, -33086.862634046396, -44558.98488271057, -40003.58760399671, -20264.426799348214, -24215.5670184573, -46497.752845019444, -31713.057364589855, -0.008, 1.016, 0.028, 192.0, 0.0, 0.0, 0.0, 0.0, 0.0, 0.0, 0.0, 0.0, 0.0, 1.695761033332974E9, 0.0, 2023-09-26 15:43:53.332
164.0, 13919.571211286928, 36087.29375449345, -42634.32087115299, -44384.39540677016, -23745.88981221793, -25245.9600861025, -187500.02235174447, 14411.644865470513, -12512.417139103072, -33078.816006042485, -44552.882856474265, -39997.15030159358, -20260.5822993019, -24210.426117232575, -46499.00454270894, -31709.8834168772, -0.008, 1.016, 0.028, 192.0, 0.0, 0.0, 0.0, 0.0, 0.0, 0.0, 0.0, 0.0, 0.0, 1.695761033332983E9, 0.0, 2023-09-26 15:43:53.332
166.0, 13924.980333445114, 36085.751484126034, -42640.66876657829, -44397.24765983196, -23739.541916792623, -25251.592725705235, -187500.02235174447, 14444.278412375263, -12500.414252330573, -33076.223203685666, -44556.168562909195, -40001.59829874019, -20256.402523088756, -24224.530067983877, -46503.09491194426, -31710.12928606621, -0.008, 1.016, 0.028, 192.0, 0.0, 0.0, 0.0, 0.0, 0.0, 0.0, 0.0, 0.0, 0.0, 1.695761033394314E9, 0.0, 2023-09-26 15:43:53.394
168.0, 13917.917182197236, 36076.05082703243, -42636.64545257634, -44384.55186898135, -23737.194983624817, -25240.349798244217, -187500.02235174447, 14399.440812997917, -12496.301531350797, -33087.1085032354, -44556.928522220674, -40016.14928438059, -20238.945810669164, -24208.83914337625, -46501.1279584322, -31708.743477909982, -0.01, 1.016, 0.028, 192.0, 127.5, 88.0, 15.5, 96.0, 0.0, 112.0, 0.0, 0.0, 0.0, 1.695761033394335E9, 0.0, 2023-09-26 15:43:53.394
170.0, 13926.433196834709, 36086.10911203732, -42640.33349041146, -44384.90949689264, -23738.290219103124, -25245.021312835375, -187500.02235174447, 14435.85180471561, -12505.175173899554, -33084.24747994512, -44556.928522220674, -40006.15805460907, -20253.45209282066, -24213.60006494523, -46504.50307184495, -31706.687117420093, -0.01, 1.016, 0.028, 192.0, 0.0, 0.0, 0.0, 0.0, 0.0, 0.0, 0.0, 0.0, 0.0, 1.695761033394347E9, 0.0, 2023-09-26 15:43:53.394
172.0, 13913.647999006273, 36073.36861769779, -42646.90490328132, -44394.20782258604, -23746.69447501832, -25250.117510571185, -187500.02235174447, 14384.688661657414, -12504.817545988268, -33090.282450948056, -44556.86146698731, -40006.24746158689, -20246.925383439706, -24216.282274279867, -46509.576917836304, -31713.66086169015, -0.01, 1.016, 0.028, 192.0, 0.0, 0.0, 0.0, 0.0, 0.0, 0.0, 0.0, 0.0, 0.0, 1.695761033394357E9, 0.0, 2023-09-26 15:43:53.394
174.0, 13927.863708479848, 36087.18199577117, -42638.1653711993, -44390.83270917329, -23740.83831797103, -25247.435301236546, -187500.02235174447, 14429.727426734857, -12504.035234932333, -33103.425276687776, -44551.87702797378, -39999.18431033901, -20250.00992417454, -24215.74583241294, -46507.29703990186, -31713.347937267776, -0.01, 1.016, 0.028, 192.0, 0.0, 0.0, 0.0, 0.0, 0.0, 0.0, 0.0, 0.0, 0.0, 1.695761033394366E9, 0.0, 2023-09-26 15:43:53.394
176.0, 13915.95022868517, 36077.72720786658, -42643.52978986857, -44391.190337084576, -23741.7547394937, -25252.553850716813, -187500.02235174447, 14382.56524593416, -12514.227630403951, -33080.02300024307, -44556.302673375925, -40002.96175515196, -20255.799025988465, -24217.84689639174, -46504.123092189206, -31716.387774513696, -0.01, 1.016, 0.028, 192.0, 0.0, 0.0, 0.0, 0.0, 0.0, 0.0, 0.0, 0.0, 0.0, 1.695761033394375E9, 0.0, 2023-09-26 15:43:53.394
178.0, 13927.126100912823, 36093.216966774104, -42629.67170830628, -44392.35262779625, -23736.54678303561, -25256.04072285184, -187500.02235174447, 14462.964470739898, -12510.316075124274, -33082.50404387761, -44561.30946413392, -40004.369915052645, -20271.601709318365, -24224.664178450606, -46499.4739293425, -31714.443172746083, -0.008, 1.016, 0.028, 192.0, 127.5, 96.0, 15.5, 96.0, 0.0, 112.0, 0.0, 0.0, 0.0, 1.695761033394414E9, 0.0, 2023-09-26 15:43:53.394
180.0, 13905.936647169192, 36066.104300749816, -42640.646414833835, -44395.526575508906, -23739.83248947054, -25258.588821719746, -187500.02235174447, 14395.193981551407, -12508.773804756858, -33097.72558185167, -44557.82259199889, -40012.30478433428, -20257.251889378058, -24216.17051555759, -46496.12116767421, -31719.89699839318, -0.008, 1.016, 0.028, 192.0, 0.0, 0.0, 0.0, 0.0, 0.0, 0.0, 0.0, 0.0, 0.0, 1.695761033394424E9, 0.0, 2023-09-26 15:43:53.394
182.0, 13919.548859542474, 36087.09258879335, -42640.15467645582, -44389.33514229478, -23735.876230701953, -25248.485833225946, -187500.02235174447, 14461.310441650206, -12513.534726325837, -33097.85969231841, -44562.024719956484, -40008.95202266598, -20254.368514343325, -24224.686530195064, -46496.97053396351, -31713.61615820124, -0.008, 1.016, 0.028, 192.0, 0.0, 0.0, 0.0, 0.0, 0.0, 0.0, 0.0, 0.0, 0.0, 1.695761033453134E9, 0.0, 2023-09-26 15:43:53.453
184.0, 13916.263153107544, 36081.72817012408, -42641.272263678584, -44386.8764504047, -23735.6527132574, -25247.70352217001, -187500.02235174447, 14391.7965163942, -12510.561944313282, -33087.98022126916, -44562.739975779055, -40005.73337146442, -20239.392845558268, -24224.79828891734, -46502.49141484397, -31718.265321047944, -0.008, 1.016, 0.028, 192.0, 0.0, 0.0, 0.0, 0.0, 0.0, 0.0, 0.0, 0.0, 0.0, 1.695761033453153E9, 0.0, 2023-09-26 15:43:53.453
186.0, 13930.14358641429, 36100.213062788614, -42634.34322289744, -44387.770520182916, -23736.45737605779, -25247.435301236546, -187500.02235174447, 14453.219110157384, -12503.14116515412, -33068.89183150433, -44549.26187387251, -39985.19211830999, -20255.24023237708, -24216.148163813134, -46495.92000197411, -31709.682251177106, -0.008, 1.016, 0.028, 192.0, 0.0, 0.0, 0.0, 0.0, 0.0, 0.0, 0.0, 0.0, 0.0, 1.695761033453164E9, 0.0, 2023-09-26 15:43:53.453
188.0, 13919.571211286928, 36080.81174860141, -42647.575455614984, -44398.387598799185, -23752.640039043432, -25256.711275185502, -187500.02235174447, 14402.771222921756, -12521.603706074204, -33088.82958755846, -44555.94504546464, -40003.63230748562, -20267.891319738785, -24226.65348370713, -46508.61579282473, -31718.846466403782, -0.008, 1.014, 0.02, 192.0, 127.5, 96.0, 15.5, 88.0, 0.0, 80.0, 0.0, 0.0, 0.0, 1.695761033453174E9, 0.0, 2023-09-26 15:43:53.453
190.0, 13928.936592213702, 36094.4686644636, -42643.90976952431, -44397.56058425434, -23744.16872789487, -25258.544118230835, -187500.02235174447, 14477.694270335945, -12503.655255276592, -33092.428218415764, -44553.06167042991, -40004.34756330819, -20255.597860288366, -24228.396919774645, -46508.54873759136, -31719.60642571526, -0.008, 1.014, 0.02, 192.0, 0.0, 0.0, 0.0, 0.0, 0.0, 0.0, 0.0, 0.0, 0.0, 1.695761033453184E9, 0.0, 2023-09-26 15:43:53.453
192.0, 13920.241763620588, 36081.92933582418, -42637.1148392099, -44388.70929345003, -23736.099748146506, -25258.90174614212, -187500.02235174447, 14406.682778201435, -12514.33938912623, -33076.62553508586, -44559.49897283304, -40003.453493529974, -20252.848595720363, -24211.3648904997, -46505.240679411974, -31719.539370481896, -0.008, 1.014, 0.02, 192.0, 0.0, 0.0, 0.0, 0.0, 0.0, 0.0, 0.0, 0.0, 0.0, 1.695761033453193E9, 0.0, 2023-09-26 15:43:53.453
194.0, 13918.565382786439, 36086.89142309325, -42650.70469983872, -44392.55379349635, -23745.778053495655, -25257.22536530797, -187500.02235174447, 14466.406639386016, -12521.62605781866, -33093.568157382986, -44562.53881007896, -40002.268851073844, -20257.028371933506, -24229.156879086124, -46501.48558634348, -31715.001966357468, -0.008, 1.014, 0.02, 192.0, 0.0, 0.0, 0.0, 0.0, 0.0, 0.0, 0.0, 0.0, 0.0, 1.695761033453201E9, 0.0, 2023-09-26 15:43:53.453
196.0, 13931.0376561925, 36082.19755675764, -42626.72127803818, -44387.25643006044, -23740.12306214846, -25257.582993219257, -187500.02235174447, 14431.04617965772, -12511.612476302682, -33091.176520726265, -44556.325025120386, -40006.00159239788, -20262.10221792486, -24230.49798375344, -46507.140577690676, -31719.695832693084, -0.008, 1.014, 0.02, 192.0, 0.0, 0.0, 0.0, 0.0, 0.0, 0.0, 0.0, 0.0, 0.0, 1.695761033513569E9, 0.0, 2023-09-26 15:43:53.513
198.0, 13928.020170691034, 36079.113016022806, -42634.94671999773, -44388.821052172316, -23737.016169669172, -25258.47706299747, -187500.02235174447, 14474.788543556757, -12495.653330761592, -33082.81696829999, -44550.29005411745, -40003.29703131879, -20246.05366540595, -24223.74775692794, -46502.223193910504, -31720.79106817139, -0.008, 1.01, 0.02, 192.0, 127.5, 96.0, 15.5, 72.0, 0.0, 80.0, 0.0, 0.0, 0.0, 1.695761033513618E9, 0.0, 2023-09-26 15:43:53.513
200.0, 13928.75777825806, 36070.41818742969, -42634.29851940853, -44385.244773059465, -23736.21150686878, -25255.481929240457, -187500.02235174447, 14430.71090349089, -12517.222764160964, -33095.110427750406, -44560.32598737788, -40007.56621450975, -20258.503587067557, -24230.185059331066, -46498.71397003102, -31715.42664950212, -0.008, 1.01, 0.02, 192.0, 0.0, 0.0, 0.0, 0.0, 0.0, 0.0, 0.0, 0.0, 0.0, 1.695761033513735E9, 0.0, 2023-09-26 15:43:53.513
202.0, 13923.75098750007, 36072.608658386314, -42638.411240388305, -44397.11354936523, -23739.988951681727, -25259.14761533113, -187500.02235174447, 14442.467921074382, -12512.28302863634, -33083.576927611466, -44560.571856566894, -40006.87331043164, -20251.060456163937, -24223.591294716753, -46503.6760573001, -31712.65503318966, -0.008, 1.01, 0.02, 192.0, 0.0, 0.0, 0.0, 0.0, 0.0, 0.0, 0.0, 0.0, 0.0, 1.695761033513747E9, 0.0, 2023-09-26 15:43:53.513
204.0, 13921.09112990989, 36062.952704781615, -42641.80870554551, -44409.585822771296, -23746.672123273867, -25272.37984804867, -187500.02235174447, 14433.035484914242, -12526.655200321104, -33093.92578529427, -44569.71372004911, -40019.747915237895, -20271.132322684804, -24237.672893723597, -46512.30383065985, -31724.367347284242, -0.008, 1.01, 0.02, 192.0, 0.0, 0.0, 0.0, 0.0, 0.0, 0.0, 0.0, 0.0, 0.0, 1.695761033513759E9, 0.0, 2023-09-26 15:43:53.513
206.0, 13909.512926282041, 36058.59411461283, -42649.251836449126, -44407.21653785903, -23753.556460566102, -25276.62667949518, -187500.02235174447, 14452.61561305709, -12531.304363167807, -33114.467038448696, -44579.34732190935, -40027.28045311933, -20259.040028934483, -24240.109233869225, -46517.40002839566, -31733.308045066366, -0.008, 1.01, 0.02, 192.0, 0.0, 0.0, 0.0, 0.0, 0.0, 0.0, 0.0, 0.0, 0.0, 1.695761033513771E9, 0.0, 2023-09-26 15:43:53.513
208.0, 13935.239784150099, 36079.582402656364, -42622.87677799187, -44381.467328246516, -23732.92580043385, -25261.226327565473, -187500.02235174447, 14464.462037618405, -12518.362703128185, -33100.1619219973, -44570.54073459396, -40011.45541804498, -20260.44818883517, -24238.835184435273, -46507.63231606869, -31722.46744900554, -0.01, 1.012, 0.02, 192.0, 127.5, 88.0, 15.5, 80.0, 0.0, 80.0, 0.0, 0.0, 0.0, 1.695761033513785E9, 0.0, 2023-09-26 15:43:53.513
210.0, 13930.300048625477, 36077.25782123301, -42617.7582285116, -44379.656836945636, -23732.299951589102, -25252.062112338797, -187500.02235174447, 14443.071418174675, -12495.698034250503, -33083.353410166914, -44550.088888417355, -39997.530281249325, -20242.030351403995, -24221.2667132934, -46491.85198448324, -31707.782352898404, -0.01, 1.012, 0.02, 192.0, 0.0, 0.0, 0.0, 0.0, 0.0, 0.0, 0.0, 0.0, 0.0, 1.695761033513798E9, 0.0, 2023-09-26 15:43:53.513
212.0, 13925.919106712236, 36077.32487646638, -42636.734859554155, -44382.093177091265, -23746.98504769624, -25259.8628711537, -187500.02235174447, 14455.230767158362, -12521.938982241034, -33086.79557881303, -44560.6165600558, -39999.31842080574, -20244.421988060712, -24229.492155252952, -46499.42922585359, -31711.984480856, -0.01, 1.012, 0.02, 192.0, 0.0, 0.0, 0.0, 0.0, 0.0, 0.0, 0.0, 0.0, 0.0, 1.695761033573797E9, 0.0, 2023-09-26 15:43:53.573
214.0, 13919.548859542474, 36070.52994615197, -42628.554121083514, -44381.48967999097, -23741.911201704886, -25246.89885936962, -187500.02235174447, 14426.888755189033, -12526.14111019863, -33089.6118986144, -44570.04899621594, -40009.57787151073, -20253.76501724303, -24223.74775692794, -46505.10656894524, -31710.285748277398, -0.01, 1.012, 0.02, 192.0, 0.0, 0.0, 0.0, 0.0, 0.0, 0.0, 0.0, 0.0, 0.0, 1.695761033573816E9, 0.0, 2023-09-26 15:43:53.573
216.0, 13924.46624332264, 36067.62421937278, -42637.07013572099, -44396.48770052048, -23745.84510872902, -25256.465405996492, -187500.02235174447, 14471.256967932817, -12512.819470503267, -33101.90535806482, -44564.23754265756, -40007.87913893213, -20243.19264211567, -24224.88769589516, -46501.21736541002, -31704.898977863668, -0.01, 1.012, 0.02, 192.0, 0.0, 0.0, 0.0, 0.0, 0.0, 0.0, 0.0, 0.0, 0.0, 1.695761033573831E9, 0.0, 2023-09-26 15:43:53.573
218.0, 13921.538164798996, 36070.4628909186, -42621.088638435445, -44381.06499684632, -23741.12889064895, -25248.32937101476, -187500.02235174447, 14436.879984960555, -12530.522052111872, -33106.487465678154, -44567.43384211467, -40018.20564487048, -20265.410276104245, -24228.106347096724, -46503.072560199806, -31709.90576862166, -0.01, 1.012, 0.02, 192.0, 127.5, 88.0, 15.5, 80.0, 0.0, 80.0, 0.0, 0.0, 0.0, 1.69576103357384E9, 0.0, 2023-09-26 15:43:53.573
220.0, 13931.149414914778, 36078.37540845578, -42626.65422280481, -44386.58587772678, -23741.240649371226, -25262.99211537744, -187500.02235174447, 14480.264720948306, -12522.184851430042, -33080.626497343364, -44550.714737262104, -39992.74700793588, -20257.96714520063, -24224.194791817044, -46493.90834497313, -31701.07682956181, -0.01, 1.012, 0.02, 192.0, 0.0, 0.0, 0.0, 0.0, 0.0, 0.0, 0.0, 0.0, 0.0, 1.695761033573879E9, 0.0, 2023-09-26 15:43:53.573
222.0, 13924.37683634482, 36069.27824846247, -42621.24510064663, -44381.31086603533, -23736.61383826898, -25252.397388505626, -187500.02235174447, 14408.962656135876, -12517.71450253898, -33102.68766912075, -44559.43191759967, -40008.10265637668, -20253.832072476398, -24230.922666898092, -46499.853908998244, -31711.60450120026, -0.01, 1.012, 0.02, 192.0, 0.0, 0.0, 0.0, 0.0, 0.0, 0.0, 0.0, 0.0, 0.0, 1.695761033573888E9, 0.0, 2023-09-26 15:43:53.573
224.0, 13938.190214418199, 36087.80784461592, -42625.760153026604, -44380.707368935036, -23745.42042558437, -25256.264240296394, -187500.02235174447, 14484.511552394815, -12502.76118549838, -33093.99284052764, -44542.98103368057, -39988.05314160027, -20238.409368802237, -24219.27740803688, -46489.90738271563, -31698.819303371827, -0.01, 1.012, 0.02, 192.0, 0.0, 0.0, 0.0, 0.0, 0.0, 0.0, 0.0, 0.0, 0.0, 1.695761033573897E9, 0.0, 2023-09-26 15:43:53.573
226.0, 13931.976429459624, 36079.96238231211, -42621.82624600247, -44374.09125257627, -23739.83248947054, -25246.429472736058, -187500.02235174447, 14403.687644444424, -12517.602743816704, -33082.59345085543, -44552.01113844051, -39997.99966788288, -20241.76213047053, -24234.253076821933, -46499.8762607427, -31707.111800564744, -0.01, 1.012, 0.02, 192.0, 0.0, 0.0, 0.0, 0.0, 0.0, 0.0, 0.0, 0.0, 0.0, 1.695761033634047E9, 0.0, 2023-09-26 15:43:53.634
228.0, 13944.00166797658, 36093.52989119648, -42620.84276924643, -44383.09900559176, -23742.73821624973, -25258.007676363908, -187500.02235174447, 14464.126761451575, -12511.23249664694, -33077.54195660853, -44548.05487967192, -39986.86849914414, -20243.751435727052, -24222.98779761646, -46501.15031017665, -31707.782352898404, -0.006, 1.008, 0.024, 192.0, 127.5, 104.0, 15.5, 64.0, 0.0, 96.0, 0.0, 0.0, 0.0, 1.695761033634068E9, 0.0, 2023-09-26 15:43:53.634
230.0, 13928.42250209123, 36070.2617252185, -42629.49289435064, -44386.49647074896, -23745.01809418417, -25253.80554840631, -187500.02235174447, 14382.028804067231, -12532.265488179386, -33089.6118986144, -44559.40956585522, -40006.2921650758, -20259.487063823588, -24220.774974915385, -46501.619696810216, -31713.28088203441, -0.006, 1.008, 0.024, 192.0, 0.0, 0.0, 0.0, 0.0, 0.0, 0.0, 0.0, 0.0, 0.0, 1.695761033634078E9, 0.0, 2023-09-26 15:43:53.634
232.0, 13949.969583746146, 36093.66400166321, -42614.494873821124, -44383.635447458684, -23731.74115797772, -25248.99992334842, -187500.02235174447, 14441.752665251812, -12511.791290258323, -33076.53612810804, -44551.34058610685, -39994.512795747854, -20247.461825306633, -24220.0150156039, -46492.500185072444, -31703.870797618725, -0.006, 1.008, 0.024, 192.0, 0.0, 0.0, 0.0, 0.0, 0.0, 0.0, 0.0, 0.0, 0.0, 1.695761033634087E9, 0.0, 2023-09-26 15:43:53.634
234.0, 13947.734409300616, 36085.34915272584, -42618.6075948009, -44387.748168438455, -23741.352408093502, -25249.446958237524, -187500.02235174447, 14378.564283676658, -12498.648464518603, -33097.85969231841, -44550.17829539518, -40005.845130186695, -20252.02158117552, -24221.177306315578, -46499.49628108696, -31711.85037038927, -0.006, 1.008, 0.024, 192.0, 0.0, 0.0, 0.0, 0.0, 0.0, 0.0, 0.0, 0.0, 0.0, 1.695761033634095E9, 0.0, 2023-09-26 15:43:53.634
236.0, 13952.696496569693, 36099.29664126595, -42622.3626878694, -44381.042645101865, -23740.32422784856, -25251.078635582762, -187500.02235174447, 14428.922763934466, -12502.671778520558, -33076.156148452304, -44548.747783750034, -39992.36702828015, -20247.081845650893, -24211.83427713326, -46497.01523745242, -31701.32269875082, -0.006, 1.008, 0.024, 192.0, 0.0, 0.0, 0.0, 0.0, 0.0, 0.0, 0.0, 0.0, 0.0, 1.695761033634104E9, 0.0, 2023-09-26 15:43:53.634
238.0, 13938.905470240768, 36076.34139971035, -42615.545405810524, -44385.71415969302, -23738.916067947874, -25245.66951342458, -187500.02235174447, 14376.329109231128, -12509.734929768436, -33083.7557415671, -44553.91103671921, -40004.07934237472, -20250.52401429701, -24219.3668150147, -46497.19405140806, -31702.149713295665, -0.008, 1.01, 0.032, 192.0, 127.5, 96.0, 15.5, 72.0, 0.5, 0.0, 0.0, 0.0, 0.0, 1.695761033634113E9, 0.0, 2023-09-26 15:43:53.634
240.0, 13944.918089499246, 36090.55710918392, -42624.97784197066, -44392.55379349635, -23742.715864505277, -25253.04558909483, -187500.02235174447, 14451.408618856505, -12529.404464889105, -33092.91995679378, -44566.56212408091, -40013.936461679514, -20249.67464800771, -24228.240457563457, -46494.131862417686, -31703.60257668526, -0.008, 1.01, 0.032, 192.0, 0.0, 0.0, 0.0, 0.0, 0.0, 0.0, 0.0, 0.0, 0.0, 1.695761033634122E9, 0.0, 2023-09-26 15:43:53.634
242.0, 13945.879214510825, 36080.09649277884, -42623.99436521463, -44398.387598799185, -23739.94424819282, -25258.946449631032, -187500.02235174447, 14402.011263610277, -12502.895295965112, -33087.130854979856, -44561.44357460065, -40014.07057214625, -20260.314078368436, -24221.870210393696, -46497.39521710816, -31712.94560586758, -0.008, 1.01, 0.032, 192.0, 0.0, 0.0, 0.0, 0.0, 0.0, 0.0, 0.0, 0.0, 0.0, 1.695761033694298E9, 0.0, 2023-09-26 15:43:53.694
244.0, 13944.292240654499, 36090.80297837293, -42639.394717144336, -44400.622773244715, -23746.89564071842, -25252.620905950178, -187500.02235174447, 14462.159807939508, -12502.314150609274, -33105.74985811113, -44559.90130423323, -40010.06960988875, -20269.567700572934, -24236.46589952301, -46492.500185072444, -31705.524826708417, -0.008, 1.01, 0.032, 192.0, 0.0, 0.0, 0.0, 0.0, 0.0, 0.0, 0.0, 0.0, 0.0, 1.69576103369432E9, 0.0, 2023-09-26 15:43:53.694
246.0, 13954.484636126119, 36091.58528942887, -42634.38792638635, -44384.685979448084, -23736.21150686878, -25240.79683313332, -187500.02235174447, 14407.867420657567, -12493.596970271705, -33078.056046731006, -44564.57281882439, -40006.336868564715, -20254.368514343325, -24208.280349764867, -46497.66343804162, -31702.015602828935, -0.008, 1.01, 0.032, 192.0, 0.0, 0.0, 0.0, 0.0, 0.0, 0.0, 0.0, 0.0, 0.0, 1.69576103369433E9, 0.0, 2023-09-26 15:43:53.694
248.0, 13958.127970472333, 36104.86222563532, -42633.27033916359, -44391.21268882903, -23736.524431291156, -25240.439205222036, -187500.02235174447, 14466.049011474732, -12502.180040142543, -33074.21154668469, -44559.47662108858, -39998.31259230526, -20274.038049463994, -24199.87609384967, -46487.0240076809, -31698.37226848272, -0.006, 1.01, 0.032, 192.0, 127.5, 104.0, 15.5, 72.0, 0.5, 0.0, 0.0, 0.0, 0.0, 1.695761033694339E9, 0.0, 2023-09-26 15:43:53.694
250.0, 13959.826703050936, 36100.838911633364, -42633.62796707487, -44386.8764504047, -23727.94136142032, -25234.04660630782, -187500.02235174447, 14425.927630177455, -12489.171324869552, -33068.5565553375, -44554.62629254178, -39996.30093530428, -20250.456959063646, -24196.478628692465, -46478.35153083224, -31694.639527158684, -0.006, 1.01, 0.032, 192.0, 0.0, 0.0, 0.0, 0.0, 0.0, 0.0, 0.0, 0.0, 0.0, 1.695761033694349E9, 0.0, 2023-09-26 15:43:53.694
252.0, 13950.23780467961, 36099.90013836624, -42641.33931891195, -44380.21563055702, -23725.12504161895, -25235.52182144187, -187500.02235174447, 14455.119008436086, -12500.749528497403, -33068.467148359676, -44556.6155977983, -39986.71203693295, -20260.783465001998, -24195.338689725246, -46476.27281859789, -31686.0788090323, -0.006, 1.01, 0.032, 192.0, 0.0, 0.0, 0.0, 0.0, 0.0, 0.0, 0.0, 0.0, 0.0, 1.695761033694358E9, 0.0, 2023-09-26 15:43:53.694
254.0, 13944.560461587962, 36088.72426613859, -42646.72608932568, -44398.85698543274, -23724.78976545212, -25238.13697554314, -187500.02235174447, 14457.33183113716, -12504.169345399065, -33082.660506088796, -44558.94017922165, -39993.73048469192, -20257.788331244985, -24210.40376548812, -46475.177583119585, -31688.045762544367, -0.006, 1.01, 0.032, 192.0, 0.0, 0.0, 0.0, 0.0, 0.0, 0.0, 0.0, 0.0, 0.0, 1.695761033694367E9, 0.0, 2023-09-26 15:43:53.694
0.0, 13938.972525474135, 36090.33359173937, -42655.53267664107, -44405.92013668062, -23731.94232367782, -25241.489737211436, -187500.02235174447, 14456.19189216994, -12495.876848206146, -33114.042355304045, -44560.571856566894, -40013.40001981259, -20249.96522068563, -24207.386279986655, -46482.55365878984, -31694.52776843641, -0.006, 1.01, 0.032, 192.0, 0.0, 0.0, 0.0, 0.0, 0.0, 0.0, 0.0, 0.0, 0.0, 1.695761033753284E9, 0.0, 2023-09-26 15:43:53.753
2.0, 13943.174653431734, 36097.93318485418, -42655.465621407704, -44392.64320047417, -23724.543896263112, -25224.591818403223, -187500.02235174447, 14460.997517227832, -12487.85257194669, -33045.78012773754, -44551.85467622932, -39987.58375496671, -20253.697962009664, -24190.354250711713, -46482.598362278746, -31691.353820723754, -0.004, 1.01, 0.04, 192.0, 127.5, 112.0, 15.5, 72.0, 0.5, 32.0, 0.0, 0.0, 0.0, 1.695761033753306E9, 0.0, 2023-09-26 15:43:53.753
4.0, 13922.454586321663, 36081.72817012408, -42663.82517383399, -44404.534328524394, -23729.08130038754, -25233.867792352175, -187500.02235174447, 14447.653525788013, -12512.081862936242, -33082.14641596632, -44565.80216476943, -40005.62161274214, -20260.694058024175, -24207.810963131305, -46486.576972791794, -31693.27607074691, -0.004, 1.01, 0.04, 192.0, 0.0, 0.0, 0.0, 0.0, 0.0, 0.0, 0.0, 0.0, 0.0, 1.695761033753316E9, 0.0, 2023-09-26 15:43:53.753
6.0, 13930.769435259037, 36087.226699260085, -42651.0176242611, -44400.53336626689, -23723.180439851338, -25236.46059470899, -187500.02235174447, 14465.914901008, -12507.008016944888, -33081.945250266224, -44565.958626980624, -40001.55359525127, -20260.80581674645, -24192.12003852368, -46490.980266449485, -31693.09725679127, -0.004, 1.01, 0.04, 192.0, 0.0, 0.0, 0.0, 0.0, 0.0, 0.0, 0.0, 0.0, 0.0, 1.695761033753325E9, 0.0, 2023-09-26 15:43:53.753
8.0, 13918.297161852975, 36086.869071348796, -42648.693042837745, -44406.09895063627, -23733.439890556325, -25242.830841878756, -187500.02235174447, 14456.661278803502, -12500.213086630474, -33086.10267473492, -44558.7166617771, -40003.945231907994, -20266.01377320454, -24186.576805898763, -46496.367036863216, -31695.846521359268, -0.004, 1.01, 0.04, 192.0, 0.0, 0.0, 0.0, 0.0, 0.0, 0.0, 0.0, 0.0, 0.0, 1.695761033753366E9, 0.0, 2023-09-26 15:43:53.753
10.0, 13922.208717132655, 36089.55128068344, -42658.125478997885, -44403.975534913014, -23732.7022829893, -25236.795870875823, -187500.02235174447, 14519.20145978945, -12521.581354329748, -33084.895680534326, -44565.57864732488, -39999.85486267267, -20269.746514528575, -24199.160838027103, -46504.123092189206, -31694.237195758487, -0.004, 1.01, 0.04, 192.0, 0.0, 0.0, 0.0, 0.0, 0.0, 0.0, 0.0, 0.0, 0.0, 1.695761033753375E9, 0.0, 2023-09-26 15:43:53.753
12.0, 13917.827775219415, 36076.92254506618, -42652.02345276159, -44393.917249908125, -23725.594428252512, -25229.88918183913, -187500.02235174447, 14453.62144155758, -12523.436549119539, -33095.91509055079, -44566.56212408091, -40010.91897617805, -20267.913671483242, -24211.946035855537, -46503.60900206673, -31692.493759690973, -0.004, 1.01, 0.04, 192.0, 0.0, 0.0, 15.5, 72.0, 0.5, 24.0, 0.0, 0.0, 0.0, 1.695761033753384E9, 0.0, 2023-09-26 15:43:53.753
14.0, 13931.842318992893, 36094.4686644636, -42649.27418819359, -44404.400218057664, -23722.711053217776, -25233.80073711881, -187500.02235174447, 14512.294770752762, -12496.212124372974, -33090.32715443696, -44556.794411753945, -40000.614821984156, -20258.794159745474, -24202.55830318431, -46494.601249051244, -31690.54915792336, -0.004, 1.01, 0.04, 192.0, 0.0, 0.0, 0.0, 0.0, 0.0, 0.0, 0.0, 0.0, 0.0, 1.695761033753393E9, 0.0, 2023-09-26 15:43:53.753
16.0, 13909.222353604122, 36076.09553052134, -42667.356749457926, -44413.139750139686, -23731.89762018891, -25243.546097701324, -187500.02235174447, 14432.8566709586, -12505.62220878866, -33084.672163089774, -44560.504801333525, -40007.27564183183, -20238.498775780055, -24186.666212876586, -46494.84711824026, -31694.907748092148, -0.004, 1.01, 0.04, 192.0, 0.0, 0.0, 0.0, 0.0, 0.0, 0.0, 0.0, 0.0, 0.0, 1.695761033813561E9, 0.0, 2023-09-26 15:43:53.813
18.0, 13919.146528142277, 36095.98858308656, -42666.08270002397, -44411.955107683556, -23738.379626080947, -25246.72004541398, -187500.02235174447, 14526.242259292872, -12524.755302042402, -33113.908244837316, -44576.75451955253, -40012.68476399002, -20267.086656938394, -24216.483439979966, -46512.34853414876, -31710.241044788487, -0.004, 1.01, 0.04, 192.0, 0.0, 0.0, 0.0, 0.0, 0.0, 0.0, 0.0, 0.0, 0.0, 1.695761033813611E9, 0.0, 2023-09-26 15:43:53.813
20.0, 13915.860821707347, 36086.6679056487, -42648.02249050409, -44395.57127899781, -23721.235838083725, -25231.811431862287, -187500.02235174447, 14452.928537479465, -12501.777708742346, -33078.190157197736, -44561.8682577453, -40005.26398483086, -20269.970031973127, -24196.16570427009, -46499.45157759805, -31696.628832415205, -0.004, 1.01, 0.04, 192.0, 0.0, 0.0, 0.0, 0.0, 0.0, 0.0, 0.0, 0.0, 0.0, 1.69576103381362E9, 0.0, 2023-09-26 15:43:53.813
22.0, 13935.932688228213, 36109.15376057074, -42642.99334800164, -44395.41481678663, -23717.50309675969, -25226.13408877064, -187500.02235174447, 14504.941046826965, -12506.225705888952, -33076.69259031923, -44552.43582158516, -39992.29997304678, -20268.785389516997, -24184.45339017551, -46485.63819952467, -31681.161425252132, -0.004, 1.012, 0.032, 192.0, 127.5, 112.0, 15.5, 80.0, 0.5, 0.0, 0.0, 0.0, 0.0, 1.695761033813634E9, 0.0, 2023-09-26 15:43:53.813
24.0, 13919.459452564652, 36088.21017601612, -42658.30429295353, -44414.10087515126, -23728.656617242887, -25246.071844824775, -187500.02235174447, 14436.18708088244, -12509.824336746256, -33081.4088083993, -44555.69917627564, -40004.101694119185, -20261.67753478021, -24190.84598908973, -46495.16004266263, -31694.79598936987, -0.004, 1.012, 0.032, 192.0, 0.0, 0.0, 0.0, 0.0, 0.0, 0.0, 0.0, 0.0, 0.0, 1.695761033813643E9, 0.0, 2023-09-26 15:43:53.813
26.0, 13933.384589360308, 36103.38701050127, -42649.40829866032, -44405.69661923607, -23721.92874216184, -25240.349798244217, -187500.02235174447, 14510.7748521298, -12518.206240916998, -33085.6109363569, -44561.80120251193, -40000.72658070643, -20267.131360427305, -24205.709899152505, -46500.74797877645, -31701.70267840656, -0.004, 1.012, 0.032, 192.0, 0.0, 0.0, 0.0, 0.0, 0.0, 0.0, 0.0, 0.0, 0.0, 1.695761033813652E9, 0.0, 2023-09-26 15:43:53.813
28.0, 13925.762644501048, 36089.52892893898, -42656.20322897473, -44404.62373550222, -23723.82864044054, -25241.445033722524, -187500.02235174447, 14452.660316546002, -12473.480400261928, -33073.25042167311, -44545.64089127075, -39997.77615043833, -20249.76405498553, -24206.134582297156, -46492.656647283635, -31694.438361458586, -0.004, 1.012, 0.032, 192.0, 0.0, 0.0, 0.0, 0.0, 0.0, 0.0, 0.0, 0.0, 0.0, 1.695761033813661E9, 0.0, 2023-09-26 15:43:53.813
30.0, 13925.09209216739, 36095.183920286174, -42665.68036862378, -44406.6800959921, -23732.679931244842, -25239.880411610655, -187500.02235174447, 14519.44732897846, -12507.14212741162, -33078.92776476476, -44562.62821705678, -40000.34660105069, -20244.511395038535, -24197.193884515036, -46500.34564737626, -31695.89122484818, -0.004, 1.012, 0.032, 192.0, 0.0, 0.0, 0.0, 0.0, 0.0, 0.0, 0.0, 0.0, 0.0, 1.695761033873837E9, 0.0, 2023-09-26 15:43:53.873
32.0, 13923.862746222347, 36086.802016115435, -42655.77854583008, -44413.005639672956, -23728.54485852061, -25250.341028015737, -187500.02235174447, 14467.34541265314, -12504.012883187877, -33089.16486372529, -44560.75067052253, -40006.53803426481, -20252.87094746482, -24196.523332181376, -46501.99967646595, -31699.065172560833, -0.004, 1.006, 0.036000000000000004, 192.0, 127.5, 112.0, 15.5, 56.0, 0.5, 16.0, 0.0, 0.0, 0.0, 1.695761033873865E9, 0.0, 2023-09-26 15:43:53.873
34.0, 13928.37779860232, 36095.273327263996, -42660.785336588066, -44417.543043797385, -23731.674102744353, -25244.931905857553, -187500.02235174447, 14536.345247786672, -12501.509487808882, -33086.21443345719, -44555.22978964207, -40003.72171446344, -20279.87185476683, -24203.877056107172, -46505.55360383435, -31706.284786019896, -0.004, 1.006, 0.036000000000000004, 192.0, 0.0, 0.0, 0.0, 0.0, 0.0, 0.0, 0.0, 0.0, 0.0, 1.695761033873875E9, 0.0, 2023-09-26 15:43:53.873
36.0, 13921.314647354442, 36081.50465267953, -42660.29359821005, -44415.26316586294, -23722.666349728865, -25247.591763447734, -187500.02235174447, 14492.312311209716, -12507.23153438944, -33091.71296259319, -44559.1189931773, -40012.32713607873, -20259.934098712696, -24223.010149360915, -46501.038551454374, -31700.69684990607, -0.004, 1.006, 0.036000000000000004, 192.0, 0.0, 0.0, 0.0, 0.0, 0.0, 0.0, 0.0, 0.0, 0.0, 1.695761033873884E9, 0.0, 2023-09-26 15:43:53.873
38.0, 13922.499289810574, 36087.38316147127, -42655.2197522187, -44406.61304075873, -23719.715919460767, -25245.155423302105, -187500.02235174447, 14522.040131335276, -12503.007054687389, -33064.55559308, -44555.83328674237, -40001.844167929194, -20253.697962009664, -24198.110306037703, -46495.13769091817, -31696.450018459564, -0.004, 1.006, 0.036000000000000004, 192.0, 0.0, 0.0, 0.0, 0.0, 0.0, 0.0, 0.0, 0.0, 0.0, 1.695761033873893E9, 0.0, 2023-09-26 15:43:53.873
40.0, 13916.598429274372, 36075.08970202085, -42659.24306622065, -44411.15044488316, -23721.392300294912, -25247.18943204754, -187500.02235174447, 14479.10243023663, -12490.959464425978, -33072.19988968371, -44555.766231509, -39998.62551672763, -20237.738816468576, -24199.74198338294, -46494.86946998471, -31696.494721948475, -0.004, 1.006, 0.036000000000000004, 192.0, 0.0, 0.0, 0.0, 0.0, 0.0, 0.0, 0.0, 0.0, 0.0, 1.695761033873902E9, 0.0, 2023-09-26 15:43:53.873
42.0, 13909.490574537585, 36075.20146074313, -42656.024415019085, -44410.07756114931, -23719.827678183043, -25240.66272266659, -187500.02235174447, 14499.040186290764, -12509.62317104616, -33083.39811365582, -44568.86435375981, -40005.8898336756, -20246.76892122852, -24207.900370109128, -46502.1784904216, -31701.389753984186, -0.004, 1.006, 0.032, 192.0, 127.5, 112.0, 15.5, 56.0, 0.5, 0.0, 0.0, 0.0, 0.0, 1.69576103387391E9, 0.0, 2023-09-26 15:43:53.873
44.0, 13908.261228592542, 36071.625181630276, -42651.6658248503, -44406.72479948102, -23719.91708516086, -25238.71812089898, -187500.02235174447, 14472.799238300233, -12491.80883071528, -33081.27469793257, -44555.52036231999, -40004.928708664025, -20226.585295985376, -24207.833314875763, -46497.81990025281, -31701.90384410666, -0.004, 1.006, 0.032, 192.0, 0.0, 0.0, 0.0, 0.0, 0.0, 0.0, 0.0, 0.0, 0.0, 1.695761033873919E9, 0.0, 2023-09-26 15:43:53.873
46.0, 13905.04257739098, 36075.73790261005, -42636.95837699871, -44399.90751742214, -23714.88794265842, -25223.742452113922, -187500.02235174447, 14478.700098836434, -12504.57167679926, -33079.41950314277, -44552.68169077417, -40006.51568252035, -20256.849557977865, -24208.861495120706, -46492.455481583536, -31687.911652077637, -0.004, 1.006, 0.032, 192.0, 0.0, 0.0, 0.0, 0.0, 0.0, 0.0, 0.0, 0.0, 0.0, 1.695761033934116E9, 0.0, 2023-09-26 15:43:53.934
48.0, 13904.528487268506, 36071.625181630276, -42661.1206127549, -44422.303965366365, -23733.88692544543, -25246.161251802594, -187500.02235174447, 14508.852602106645, -12516.99924671641, -33089.12016023638, -44566.40566186973, -40013.936461679514, -20270.975860473616, -24210.18024804357, -46502.55847007733, -31700.45098071706, -0.004, 1.006, 0.032, 192.0, 0.0, 0.0, 0.0, 0.0, 0.0, 0.0, 0.0, 0.0, 0.0, 1.695761033934147E9, 0.0, 2023-09-26 15:43:53.934
50.0, 13907.61302800334, 36075.64849563223, -42653.63277836237, -44401.6286017452, -23727.11434687547, -25242.026179078362, -187500.02235174447, 14510.73014864089, -12514.76407227088, -33082.16876771078, -44571.99359798356, -40015.23286285793, -20265.6337935488, -24203.497076451433, -46508.12405444671, -31712.56562621184, -0.004, 1.006, 0.032, 192.0, 0.0, 0.0, 0.0, 0.0, 0.0, 0.0, 0.0, 0.0, 0.0, 1.695761033934188E9, 0.0, 2023-09-26 15:43:53.934
52.0, 13920.487632809596, 36086.69025739316, -42646.39081315885, -44397.27001157642, -23717.190172337316, -25237.04174006483, -187500.02235174447, 14523.224773791406, -12508.61734254567, -33065.15909018029, -44562.35999612332, -39995.943307393, -20246.61245901733, -24203.184152029058, -46499.74215027597, -31703.870797618725, -0.004, 1.01, 0.03, 192.0, 127.5, 112.0, 15.5, 72.0, 0.0, 120.0, 0.0, 0.0, 0.0, 1.695761033934198E9, 0.0, 2023-09-26 15:43:53.934
54.0, 13907.881248936803, 36075.0673502764, -42647.15077247033, -44397.64999123216, -23722.509887517677, -25236.32648424226, -187500.02235174447, 14485.159752984018, -12487.47259229095, -33070.03177047155, -44557.33085362087, -40001.374781295635, -20239.772825214008, -24202.69241365104, -46495.22709789599, -31701.07682956181, -0.004, 1.01, 0.03, 192.0, 0.0, 0.0, 0.0, 0.0, 0.0, 0.0, 0.0, 0.0, 0.0, 1.695761033934207E9, 0.0, 2023-09-26 15:43:53.934
56.0, 13911.144603627277, 36075.693199121146, -42653.49866789564, -44418.48181706451, -23736.256210357693, -25257.582993219257, -187500.02235174447, 14560.105152142663, -12521.469595607472, -33098.2620237186, -44571.121879949795, -40009.332002321724, -20255.709619010642, -24221.4678789935, -46509.66632481413, -31716.588940213795, -0.004, 1.01, 0.03, 192.0, 0.0, 0.0, 0.0, 0.0, 0.0, 0.0, 0.0, 0.0, 0.0, 1.695761033934216E9, 0.0, 2023-09-26 15:43:53.934
58.0, 13913.156260628255, 36071.87105081929, -42643.12745846838, -44397.31471506533, -23721.79463169511, -25239.925115099566, -187500.02235174447, 14506.68448289448, -12506.024540188855, -33086.92968927976, -44561.28711238946, -40013.22120585695, -20249.67464800771, -24212.013091088902, -46506.89470850166, -31714.756097168458, -0.004, 1.01, 0.03, 192.0, 0.0, 0.0, 0.0, 0.0, 0.0, 0.0, 0.0, 0.0, 0.0, 1.695761033934225E9, 0.0, 2023-09-26 15:43:53.934
60.0, 13915.793766473982, 36075.3132194654, -42646.70373758122, -44397.895860421166, -23719.69356771631, -25233.711330140988, -187500.02235174447, 14546.559995002746, -12498.313188351774, -33068.042465215025, -44555.25214138653, -39992.1882143245, -20264.650316792766, -24197.775029870874, -46496.97053396351, -31703.17789354061, -0.004, 1.01, 0.03, 192.0, 0.0, 0.0, 0.0, 0.0, 0.0, 0.0, 0.0, 0.0, 0.0, 1.69576103399431E9, 0.0, 2023-09-26 15:43:53.994
62.0, 13909.267057093031, 36066.99837052803, -42642.34514741244, -44392.509090007436, -23713.300968802094, -25234.314827241284, -187500.02235174447, 14465.713735307902, -12500.883638964135, -33079.46420663169, -44555.52036231999, -40003.811121441264, -20240.62219150331, -24199.339651982744, -46494.37773160669, -31702.417934229128, -0.004, 1.016, 0.028, 192.0, 127.5, 112.0, 15.5, 96.0, 0.0, 112.0, 0.0, 0.0, 0.0, 1.695761033994338E9, 0.0, 2023-09-26 15:43:53.994
64.0, 13916.509022296552, 36079.180071256174, -42652.44813590624, -44411.97745942801, -23726.913181175376, -25255.95131587402, -187500.02235174447, 14555.746561973878, -12506.359816355684, -33069.45062511571, -44559.3648623663, -39993.2387463139, -20258.59299404538, -24211.3648904997, -46498.736321775476, -31712.31975702283, -0.004, 1.016, 0.028, 192.0, 0.0, 0.0, 0.0, 0.0, 0.0, 0.0, 0.0, 0.0, 0.0, 1.695761033994349E9, 0.0, 2023-09-26 15:43:53.994
66.0, 13907.367158814332, 36065.34434143834, -42652.67165335079, -44404.042590146375, -23728.58956200952, -25242.942600601033, -187500.02235174447, 14487.082003007175, -12519.18971767303, -33082.68285783325, -44562.09177518985, -40008.281470332324, -20251.462787564134, -24207.296873008832, -46502.73728403298, -31713.459695990052, -0.004, 1.016, 0.028, 192.0, 0.0, 0.0, 0.0, 0.0, 0.0, 0.0, 0.0, 0.0, 0.0, 1.695761033994358E9, 0.0, 2023-09-26 15:43:53.994
68.0, 13921.202888632166, 36085.50561493702, -42656.78437433057, -44404.176700613105, -23726.89082943092, -25252.46444373899, -187500.02235174447, 14569.135256902608, -12504.169345399065, -33077.92193626427, -44556.325025120386, -39995.78684518181, -20249.987572430084, -24213.331844011765, -46503.25137415545, -31707.402373242665, -0.004, 1.016, 0.028, 192.0, 0.0, 0.0, 0.0, 0.0, 0.0, 0.0, 0.0, 0.0, 0.0, 1.695761033994367E9, 0.0, 2023-09-26 15:43:53.994
70.0, 13913.402129817265, 36070.149966496225, -42649.72122308269, -44392.30792430734, -23718.531277004633, -25235.61122841969, -187500.02235174447, 14482.097563993642, -12500.99539768641, -33092.74114283814, -44560.638911800255, -40004.369915052645, -20242.611496759833, -24214.762355656905, -46503.407836366634, -31714.867855890738, -0.004, 1.016, 0.028, 192.0, 0.0, 0.0, 0.0, 0.0, 0.0, 0.0, 0.0, 0.0, 0.0, 1.695761033994376E9, 0.0, 2023-09-26 15:43:53.994
72.0, 13926.410845090253, 36086.936126582164, -42639.84175203345, -44384.954200381544, -23711.445774012303, -25231.051472550807, -187500.02235174447, 14522.800090646755, -12494.89337145011, -33066.74606403662, -44546.445554071135, -39984.29804853178, -20244.042008404973, -24200.07725954977, -46488.7227402595, -31691.51028293494, -0.006, 1.014, 0.028, 192.0, 127.5, 104.0, 15.5, 88.0, 0.0, 112.0, 0.0, 0.0, 0.0, 1.695761033994415E9, 0.0, 2023-09-26 15:43:53.994
74.0, 13909.647036748773, 36066.95366703912, -42651.352900427926, -44392.576145240804, -23724.83446894103, -25239.679245910556, -187500.02235174447, 14462.271566661784, -12507.633865789638, -33067.416616370276, -44550.58062679537, -39990.51183349035, -20259.688229523686, -24194.26580599139, -46495.025932195895, -31695.868873103725, -0.006, 1.014, 0.028, 192.0, 0.0, 0.0, 0.0, 0.0, 0.0, 0.0, 0.0, 0.0, 0.0, 1.695761033994425E9, 0.0, 2023-09-26 15:43:53.994
76.0, 13915.793766473982, 36081.75052186853, -42653.40926091782, -44404.3778663132, -23728.097823631506, -25246.876507625166, -187500.02235174447, 14551.142102616084, -12520.217897917975, -33083.04048574454, -44565.10926069132, -40000.41365628406, -20266.125531926817, -24205.88871310815, -46506.693542801564, -31707.491780220484, -0.006, 1.014, 0.028, 192.0, 0.0, 0.0, 0.0, 0.0, 0.0, 0.0, 0.0, 0.0, 0.0, 1.695761034053334E9, 0.0, 2023-09-26 15:43:54.053
78.0, 13909.244705348578, 36065.6125623718, -42645.20617070272, -44391.033874873385, -23711.69164320131, -25237.89110635413, -187500.02235174447, 14470.29584292124, -12493.842839460713, -33094.84220681694, -44554.67099603069, -40001.10656036217, -20245.8301479614, -24199.540817682842, -46496.14351941866, -31708.966995354534, -0.006, 1.014, 0.028, 192.0, 0.0, 0.0, 0.0, 0.0, 0.0, 0.0, 0.0, 0.0, 0.0, 1.695761034053357E9, 0.0, 2023-09-26 15:43:54.053
80.0, 13915.011455418045, 36082.62223990229, -42641.60753984541, -44394.72191270851, -23721.816983439563, -25245.982437846953, -187500.02235174447, 14528.231564549395, -12510.830165246745, -33079.26304093159, -44555.58741755336, -39990.84710965718, -20237.403540301748, -24211.476649221975, -46490.66734202711, -31707.42472498712, -0.006, 1.014, 0.028, 192.0, 0.0, 0.0, 0.0, 0.0, 0.0, 0.0, 0.0, 0.0, 0.0, 1.695761034053367E9, 0.0, 2023-09-26 15:43:54.053
82.0, 13902.852106434359, 36063.66796060419, -42651.82228706149, -44402.589726756785, -23726.332035819538, -25251.726836171965, -187500.02235174447, 14517.30156151075, -12513.065339692277, -33098.0608580185, -44566.785641525465, -40005.845130186695, -20253.072113164915, -24223.658349950118, -46502.49141484397, -31715.985443113503, -0.008, 1.008, 0.032, 192.0, 127.5, 96.0, 15.5, 64.0, 0.5, 0.0, 0.0, 0.0, 0.0, 1.695761034053377E9, 0.0, 2023-09-26 15:43:54.053
84.0, 13912.66452225024, 36081.415245701704, -42636.310176409504, -44387.56935448282, -23718.598332238, -25240.528612199858, -187500.02235174447, 14570.565768547747, -12503.43173783204, -33095.55746263951, -44559.744842022046, -40002.17944409602, -20238.85640369134, -24211.186076544058, -46490.488528071466, -31704.1837220411, -0.008, 1.008, 0.032, 192.0, 0.0, 0.0, 0.0, 0.0, 0.0, 0.0, 0.0, 0.0, 0.0, 1.695761034053386E9, 0.0, 2023-09-26 15:43:54.053
86.0, 13909.37881581531, 36072.13927175275, -42639.037089233054, -44389.223383572506, -23716.20669558128, -25245.46834772448, -187500.02235174447, 14526.421073248515, -12513.870002492667, -33079.88888977634, -44560.25893214452, -40001.10656036217, -20263.711543525642, -24206.380451486166, -46488.186298392575, -31704.27312901892, -0.008, 1.008, 0.032, 192.0, 0.0, 0.0, 0.0, 0.0, 0.0, 0.0, 0.0, 0.0, 0.0, 1.695761034053395E9, 0.0, 2023-09-26 15:43:54.053
88.0, 13908.84237394838, 36076.22964098807, -42637.986557243654, -44392.240869073976, -23716.765489192665, -25246.742397158432, -187500.02235174447, 14552.97494566142, -12526.968124743478, -33090.99770677063, -44560.48244958907, -39999.78780743931, -20254.547328298966, -24210.917855610594, -46481.92780994509, -31699.936890594592, -0.008, 1.008, 0.032, 192.0, 0.0, 0.0, 0.0, 0.0, 0.0, 0.0, 0.0, 0.0, 0.0, 1.695761034053404E9, 0.0, 2023-09-26 15:43:54.053
90.0, 13912.485708294596, 36069.54646939594, -42631.81747577399, -44394.09606386376, -23710.26113155617, -25244.596629690725, -187500.02235174447, 14530.64555295057, -12504.348159354706, -33105.54869241103, -44559.43191759967, -40006.06864763125, -20241.270392092516, -24218.115117325204, -46485.325275102296, -31706.441248231084, -0.008, 1.008, 0.032, 192.0, 0.0, 0.0, 0.0, 0.0, 0.0, 0.0, 0.0, 0.0, 0.0, 1.695761034113607E9, 0.0, 2023-09-26 15:43:54.113
92.0, 13902.092147122878, 36067.89244030624, -42634.90201650882, -44389.53630799488, -23710.775221678643, -25242.786138389845, -187500.02235174447, 14542.35786704515, -12496.457993561984, -33081.49821537712, -44552.815801240904, -40002.53707200731, -20231.68149372119, -24202.290082250845, -46476.67514999809, -31693.365477724732, -0.006, 1.014, 0.032, 192.0, 127.5, 104.0, 15.5, 88.0, 0.5, 0.0, 0.0, 0.0, 0.0, 1.695761034113631E9, 0.0, 2023-09-26 15:43:54.113
94.0, 13891.855048162348, 36062.125690236775, -42645.36263291391, -44388.93281089459, -23714.5973699805, -25242.272048267372, -187500.02235174447, 14539.54154724378, -12532.265488179386, -33114.64585240434, -44578.0732724754, -40019.77026698235, -20248.49000555158, -24231.41440527611, -46490.53323156038, -31702.55204469586, -0.006, 1.014, 0.032, 192.0, 0.0, 0.0, 0.0, 0.0, 0.0, 0.0, 0.0, 0.0, 0.0, 1.695761034113671E9, 0.0, 2023-09-26 15:43:54.113
96.0, 13884.523675981007, 36063.310332692905, -42640.73582181166, -44390.36332253973, -23716.65373047039, -25244.10489131271, -187500.02235174447, 14532.321933784717, -12528.175118944064, -33092.18234922676, -44571.05482471643, -40010.22607209993, -20246.835976461887, -24218.539800469855, -46491.80728099433, -31697.81347487134, -0.006, 1.014, 0.032, 192.0, 0.0, 0.0, 0.0, 0.0, 0.0, 0.0, 0.0, 0.0, 0.0, 1.695761034113681E9, 0.0, 2023-09-26 15:43:54.113
98.0, 13875.404164243242, 36053.63202734375, -42650.078850993974, -44412.424494317114, -23721.83933518402, -25253.51497572839, -187500.02235174447, 14555.187768362495, -12540.826206305768, -33105.168712755294, -44575.3687113963, -40011.231900600425, -20267.109008682848, -24223.211315061013, -46495.741188018466, -31703.021431329424, -0.006, 1.014, 0.032, 192.0, 0.0, 0.0, 0.0, 0.0, 0.0, 0.0, 0.0, 0.0, 0.0, 1.69576103411369E9, 0.0, 2023-09-26 15:43:54.113
100.0, 13863.691850148662, 36039.86335275929, -42647.82132480399, -44399.32637206631, -23724.633303240935, -25248.977571603966, -187500.02235174447, 14527.583363960191, -12548.58226163176, -33118.04331756155, -44581.24722018805, -40024.933519951526, -20251.976877686608, -24232.12966109868, -46502.446711355056, -31714.443172746083, -0.006, 1.014, 0.032, 192.0, 0.0, 0.0, 0.0, 0.0, 0.0, 0.0, 0.0, 0.0, 0.0, 1.695761034113699E9, 0.0, 2023-09-26 15:43:54.113
102.0, 13852.270108731998, 36036.97997772455, -42654.280978951574, -44404.959011669045, -23728.79072770962, -25256.42070250758, -187500.02235174447, 14557.422942808027, -12542.569642373282, -33107.85092208993, -44582.83419404438, -40019.59145302671, -20250.032275918995, -24224.910047639616, -46505.44184511207, -31712.878550634214, -0.006, 1.01, 0.034, 192.0, 127.5, 104.0, 15.5, 72.0, 0.5, 8.0, 0.0, 0.0, 0.0, 1.695761034113707E9, 0.0, 2023-09-26 15:43:54.113
104.0, 13840.915422548704, 36019.41150658268, -42646.14494396984, -44400.24279358897, -23721.191134594817, -25255.727798429467, -187500.02235174447, 14522.710683668935, -12553.521997156382, -33117.752744883626, -44585.71756907911, -40027.25810137488, -20263.577433058912, -24229.69332095305, -46506.31356314583, -31713.727916923515, -0.006, 1.01, 0.034, 192.0, 0.0, 0.0, 0.0, 0.0, 0.0, 0.0, 0.0, 0.0, 0.0, 1.695761034113717E9, 0.0, 2023-09-26 15:43:54.113
106.0, 13842.211823727112, 36024.23948338503, -42644.60267360243, -44399.728703466506, -23717.279579315138, -25255.884260640654, -187500.02235174447, 14550.292736326783, -12575.829038122778, -33141.736166684175, -44591.95370578214, -40031.5496363103, -20274.10510469736, -24240.37745480269, -46503.94427823356, -31717.52771348092, -0.006, 1.01, 0.034, 192.0, 0.0, 0.0, 0.0, 0.0, 0.0, 0.0, 0.0, 0.0, 0.0, 1.695761034173843E9, 0.0, 2023-09-26 15:43:54.173
108.0, 13828.957239265113, 36007.98976516602, -42637.29365316554, -44392.55379349635, -23717.525448504144, -25245.580106446756, -187500.02235174447, 14479.616520359103, -12559.400505948128, -33111.56131166951, -44578.85558353133, -40020.038487915815, -20241.33744732588, -24230.095652353248, -46493.841289739765, -31703.110838307246, -0.006, 1.01, 0.034, 192.0, 0.0, 0.0, 0.0, 0.0, 0.0, 0.0, 0.0, 0.0, 0.0, 1.695761034173889E9, 0.0, 2023-09-26 15:43:54.173
110.0, 13829.091349731845, 36008.79442796641, -42651.4646591502, -44405.584860513794, -23731.47293704426, -25257.493586241435, -187500.02235174447, 14557.713515485946, -12560.071058281786, -33118.60211117293, -44586.70104583514, -40023.68182226203, -20266.080828437905, -24227.547553485343, -46500.904440987644, -31706.79887614237, -0.006, 1.01, 0.034, 192.0, 0.0, 0.0, 0.0, 0.0, 0.0, 0.0, 0.0, 0.0, 0.0, 1.695761034173898E9, 0.0, 2023-09-26 15:43:54.173
112.0, 13814.92034374718, 35990.823625424346, -42657.47727840868, -44396.711217965036, -23730.064777143572, -25252.576202461267, -187500.02235174447, 14500.314235724716, -12587.161372561619, -33140.03743410557, -44602.19080474268, -40041.60792131519, -20267.801912760962, -24241.85266993674, -46510.67215331461, -31714.264358790442, -0.006, 1.012, 0.038, 192.0, 127.5, 104.0, 15.5, 80.0, 0.5, 24.0, 0.0, 0.0, 0.0, 1.695761034173908E9, 0.0, 2023-09-26 15:43:54.173
114.0, 13817.960180993103, 35995.02575338194, -42657.566685386504, -44410.614003016235, -23734.17749812335, -25258.119435086184, -187500.02235174447, 14577.718326773445, -12592.078756341787, -33131.92375086829, -44605.99060130007, -40036.15409566809, -20278.955433244162, -24233.537820999365, -46512.43794112658, -31717.840637903293, -0.006, 1.012, 0.038, 192.0, 0.0, 0.0, 0.0, 0.0, 0.0, 0.0, 0.0, 0.0, 0.0, 1.695761034173917E9, 0.0, 2023-09-26 15:43:54.173
116.0, 13808.34893087732, 35970.86351762575, -42654.92917954078, -44415.77725598541, -23735.11627139047, -25263.75207468892, -187500.02235174447, 14496.693253122958, -12580.411145736116, -33155.41543429082, -44600.76029309753, -40049.36397664118, -20272.518130841032, -24237.73994895696, -46509.06282771383, -31720.478143749016, -0.006, 1.012, 0.038, 192.0, 0.0, 0.0, 0.0, 0.0, 0.0, 0.0, 0.0, 0.0, 0.0, 1.69576103417396E9, 0.0, 2023-09-26 15:43:54.173
118.0, 13821.3129426614, 35992.5447097474, -42653.43161266227, -44410.92692743861, -23734.155146378893, -25255.32546702927, -187500.02235174447, 14599.712443317467, -12607.97084664951, -33169.31821934202, -44615.44538920467, -40058.68465407904, -20292.813514806454, -24269.56883306132, -46514.98603999449, -31722.64626296118, -0.006, 1.012, 0.038, 192.0, 0.0, 0.0, 0.0, 0.0, 0.0, 0.0, 0.0, 0.0, 0.0, 1.69576103417397E9, 0.0, 2023-09-26 15:43:54.173
120.0, 13812.64046581274, 35977.43493049561, -42659.35482494293, -44407.44005530358, -23735.250381857204, -25251.4586152385, -187500.02235174447, 14522.420110991015, -12583.808610893324, -33134.96358811422, -44603.75542685454, -40047.53113359584, -20252.915650953728, -24248.692303740063, -46510.22511842551, -31715.02431810192, -0.006, 1.012, 0.038, 192.0, 0.0, 0.0, 0.0, 0.0, 0.0, 0.0, 0.0, 0.0, 0.0, 1.695761034234194E9, 0.0, 2023-09-26 15:43:54.234
122.0, 13832.533518377963, 36000.18900635112, -42637.561874099, -44388.21755507202, -23724.722710218753, -25242.56262094529, -187500.02235174447, 14584.98264372142, -12574.309119499818, -33137.73520442667, -44595.775854084, -40040.15505792559, -20283.67165132423, -24235.03538787787, -46500.34564737626, -31707.760001153947, -0.008, 1.012, 0.038, 192.0, 127.5, 96.0, 15.5, 80.0, 0.5, 24.0, 0.0, 0.0, 0.0, 1.695761034234246E9, 0.0, 2023-09-26 15:43:54.234
124.0, 13821.223535683577, 35985.1909858216, -42646.10024048093, -44390.16215683963, -23724.87917242994, -25248.17290880357, -187500.02235174447, 14525.012913347831, -12573.34799448824, -33135.41062300332, -44592.78072032699, -40032.93544446653, -20268.561872072445, -24230.788556431362, -46497.39521710816, -31703.826094129814, -0.008, 1.012, 0.038, 192.0, 0.0, 0.0, 0.0, 0.0, 0.0, 0.0, 0.0, 0.0, 0.0, 1.695761034234265E9, 0.0, 2023-09-26 15:43:54.234
126.0, 13829.359570665309, 35997.17152084965, -42651.6658248503, -44404.84725294677, -23732.83639345603, -25259.594650220235, -187500.02235174447, 14584.26738789885, -12574.219712521997, -33143.79252717406, -44595.39587442826, -40033.60599680019, -20269.4335901062, -24236.063568122812, -46498.110472930726, -31703.1331900517, -0.008, 1.012, 0.038, 192.0, 0.0, 0.0, 0.0, 0.0, 0.0, 0.0, 0.0, 0.0, 0.0, 1.695761034234275E9, 0.0, 2023-09-26 15:43:54.234
128.0, 13832.712332333605, 35989.63898296821, -42644.66972883579, -44403.774369212915, -23729.573038765557, -25258.968801375486, -187500.02235174447, 14531.8301954067, -12600.68417795708, -33149.93925689927, -44614.50661593755, -40055.01896798837, -20272.92046224123, -24240.869193180704, -46512.75086554896, -31725.216713573544, -0.008, 1.012, 0.038, 192.0, 0.0, 0.0, 0.0, 0.0, 0.0, 0.0, 0.0, 0.0, 0.0, 1.695761034234284E9, 0.0, 2023-09-26 15:43:54.234
130.0, 13847.822111585392, 36016.192855381116, -42643.596845101936, -44389.156328339144, -23726.30968407508, -25249.134033815153, -187500.02235174447, 14580.556998319269, -12555.310136712807, -33115.294052993544, -44585.98579001258, -40025.46996181845, -20252.312153853436, -24246.14420487216, -46497.19405140806, -31703.580224940804, -0.008, 1.012, 0.038, 192.0, 0.0, 0.0, 0.0, 0.0, 0.0, 0.0, 0.0, 0.0, 0.0, 1.695761034234293E9, 0.0, 2023-09-26 15:43:54.234
132.0, 13851.51014942052, 36012.39305882371, -42639.126496210876, -44397.64999123216, -23727.60608525349, -25261.181624076562, -187500.02235174447, 14540.234451321896, -12553.946680301033, -33114.60114891543, -44583.61650510031, -40024.26296761787, -20272.741648285588, -24244.110196126723, -46498.24458339746, -31706.03891683089, -0.008, 1.014, 0.034, 192.0, 127.5, 96.0, 15.5, 88.0, 0.5, 8.0, 0.0, 0.0, 0.0, 1.695761034234302E9, 0.0, 2023-09-26 15:43:54.234
134.0, 13864.138885037766, 36023.948910707106, -42641.18285670076, -44390.0280463729, -23727.628436997944, -25258.6111734642, -187500.02235174447, 14569.537588302803, -12549.655145365614, -33128.101602566436, -44584.37646441179, -40028.68861302002, -20262.750418514064, -24252.69326599756, -46506.20180442355, -31716.14190532469, -0.008, 1.014, 0.034, 192.0, 0.0, 0.0, 0.0, 0.0, 0.0, 0.0, 0.0, 0.0, 0.0, 1.695761034234316E9, 0.0, 2023-09-26 15:43:54.234
136.0, 13859.132094279777, 36012.5495210349, -42652.02345276159, -44398.18643309909, -23738.379626080947, -25272.648068982133, -187500.02235174447, 14521.59309644617, -12563.490875183448, -33101.8606545759, -44583.214173700115, -40020.41846757156, -20261.6328312913, -24232.55434424333, -46511.54387134837, -31714.532579723906, -0.008, 1.014, 0.034, 192.0, 0.0, 0.0, 0.0, 0.0, 0.0, 0.0, 0.0, 0.0, 0.0, 1.695761034294439E9, 0.0, 2023-09-26 15:43:54.294
138.0, 13876.141771810268, 36025.55823630789, -42623.97201347018, -44392.84436617427, -23724.7003584743, -25256.152481574118, -187500.02235174447, 14548.370486303627, -12560.227520492974, -33109.013212801605, -44583.92942952269, -40027.079287419234, -20269.970031973127, -24230.1180040977, -46513.62258358271, -31722.132172838712, -0.008, 1.014, 0.034, 192.0, 0.0, 0.0, 0.0, 0.0, 0.0, 0.0, 0.0, 0.0, 0.0, 1.695761034294461E9, 0.0, 2023-09-26 15:43:54.294
140.0, 13875.247702032055, 36023.32306186236, -42631.05751646251, -44393.559621996836, -23735.98798942423, -25268.200071835527, -187500.02235174447, 14563.346155088682, -12518.42975836155, -33107.60505290092, -44566.9197519922, -40021.8936827056, -20232.396749543757, -24252.670914253107, -46505.06186545633, -31713.83967564579, -0.008, 1.014, 0.034, 192.0, 0.0, 0.0, 0.0, 0.0, 0.0, 0.0, 0.0, 0.0, 0.0, 1.695761034294471E9, 0.0, 2023-09-26 15:43:54.294
142.0, 13888.234065560588, 36030.96735846608, -42620.75336226861, -44388.105796349744, -23722.26401832867, -25261.58395547676, -187500.02235174447, 14567.682393513012, -12536.400560903618, -33089.90247129231, -44572.41828112821, -40016.21633961396, -20256.11195041084, -24245.2724868384, -46506.40297012365, -31717.32654778082, -0.01, 1.016, 0.034, 192.0, 127.5, 88.0, 15.5, 96.0, 0.5, 8.0, 0.0, 0.0, 0.0, 1.69576103429448E9, 0.0, 2023-09-26 15:43:54.294
144.0, 13892.74911794056, 36030.47562008806, -42625.58133907096, -44394.09606386376, -23722.64399798441, -25265.450807267527, -187500.02235174447, 14556.059486396252, -12523.794177030824, -33106.53216916706, -44562.82938275688, -40010.82956920023, -20234.922496667208, -24237.73994895696, -46495.49531882946, -31713.817323901338, -0.01, 1.016, 0.034, 192.0, 0.0, 0.0, 0.0, 0.0, 0.0, 0.0, 0.0, 0.0, 0.0, 1.69576103429449E9, 0.0, 2023-09-26 15:43:54.294
146.0, 13882.757888169037, 36028.620425298264, -42637.20424618772, -44394.07371211931, -23732.523469033655, -25272.156330604117, -187500.02235174447, 14551.49973052737, -12550.303345954819, -33103.24646273213, -44575.72633930759, -40018.071534403745, -20257.877738222807, -24249.809890962828, -46506.02299046791, -31722.556855983363, -0.01, 1.016, 0.034, 192.0, 0.0, 0.0, 0.0, 0.0, 0.0, 0.0, 0.0, 0.0, 0.0, 1.695761034294499E9, 0.0, 2023-09-26 15:43:54.294
148.0, 13898.448812776664, 36043.46198361659, -42620.68630703525, -44384.21659281452, -23721.571114250557, -25263.14857758863, -187500.02235174447, 14551.723247971922, -12536.132339970154, -33124.21239903121, -44572.37357763929, -40016.70807799198, -20259.420008590223, -24235.571829744797, -46507.31939164631, -31719.338204781798, -0.01, 1.016, 0.034, 192.0, 0.0, 0.0, 0.0, 0.0, 0.0, 0.0, 0.0, 0.0, 0.0, 1.695761034294509E9, 0.0, 2023-09-26 15:43:54.294
150.0, 13898.784088943494, 36042.52321034947, -42619.94869946822, -44373.95714210953, -23728.902486431896, -25255.75015017392, -187500.02235174447, 14530.220869805917, -12505.912781466579, -33076.62553508586, -44547.58549303836, -39998.781978938816, -20192.409478713213, -24227.994588374448, -46496.67996128559, -31703.826094129814, -0.01, 1.016, 0.034, 192.0, 0.0, 0.0, 0.0, 0.0, 0.0, 0.0, 0.0, 0.0, 0.0, 1.695761034353357E9, 0.0, 2023-09-26 15:43:54.353
152.0, 13887.809382415937, 36034.18600966764, -42651.978749272675, -44405.718970980524, -23738.22316386976, -25276.067885883796, -187500.02235174447, 14544.6824484685, -12594.895076143155, -33107.180369756265, -44581.828365543886, -40010.11431337766, -20265.365572615334, -24263.75737950294, -46523.0326679984, -31723.540332739394, -0.008, 1.012, 0.034, 192.0, 127.5, 96.0, 15.5, 80.0, 0.5, 8.0, 0.0, 0.0, 0.0, 1.695761034353402E9, 0.0, 2023-09-26 15:43:54.353
154.0, 13924.063911922445, 36059.55523962441, -42598.11104513539, -44375.85704038823, -23717.190172337316, -25263.0144671219, -187500.02235174447, 14537.932221643, -12527.52691835486, -33132.46019273522, -44552.01113844051, -40009.6449267441, -20245.606630516842, -24213.488306222953, -46503.09491194426, -31721.41691701614, -0.008, 1.012, 0.034, 192.0, 0.0, 0.0, 0.0, 0.0, 0.0, 0.0, 0.0, 0.0, 0.0, 1.695761034353413E9, 0.0, 2023-09-26 15:43:54.353
156.0, 13929.09305442489, 36071.826347330374, -42607.2082051287, -44365.06114781632, -23728.03076839814, -25249.558716959804, -187500.02235174447, 14587.486039100415, -12467.0430978588, -33049.088185916924, -44526.038411383444, -39974.55268794927, -20246.567755528424, -24231.280294809378, -46498.06576944182, -31703.624928429716, -0.008, 1.012, 0.034, 192.0, 0.0, 0.0, 0.0, 0.0, 0.0, 0.0, 0.0, 0.0, 0.0, 1.695761034353422E9, 0.0, 2023-09-26 15:43:54.353
158.0, 13917.80542347496, 36052.44738488762, -42605.688286505734, -44369.844421129754, -23720.02884388314, -25250.162214060096, -187500.02235174447, 14510.35016898515, -12500.593066286216, -33079.39715139832, -44531.26871958598, -39988.56723172274, -20228.976932642097, -24220.730271426473, -46492.14255716116, -31700.205111528056, -0.008, 1.012, 0.034, 192.0, 0.0, 0.0, 0.0, 0.0, 0.0, 0.0, 0.0, 0.0, 0.0, 1.695761034353466E9, 0.0, 2023-09-26 15:43:54.353
160.0, 13918.967714186636, 36061.58924836985, -42639.752345055625, -44387.412892271626, -23742.492347060725, -25271.105798614717, -187500.02235174447, 14569.492884813892, -12522.162499685586, -33081.386456654844, -44543.13749589175, -39982.37579850862, -20201.28312126197, -24227.748719185438, -46503.94427823356, -31706.79887614237, -0.008, 1.012, 0.034, 192.0, 0.0, 0.0, 0.0, 0.0, 0.0, 0.0, 0.0, 0.0, 0.0, 1.695761034353476E9, 0.0, 2023-09-26 15:43:54.353
162.0, 13925.159147400755, 36057.07419598987, -42609.73395225214, -44368.033929828875, -23729.41657655437, -25254.14082457314, -187500.02235174447, 14515.91575335452, -12547.844654064735, -33106.17454125578, -44568.685539804166, -40006.11335112016, -20259.934098712696, -24243.79727170435, -46514.315487660824, -31716.87951289171, -0.006, 1.012, 0.032, 192.0, 127.5, 104.0, 15.5, 80.0, 0.5, 0.0, 0.0, 0.0, 0.0, 1.695761034353485E9, 0.0, 2023-09-26 15:43:54.353
164.0, 13939.061932451956, 36076.721379366085, -42611.70090576421, -44372.43722348657, -23736.345617335515, -25261.740417687943, -187500.02235174447, 14592.403422880581, -12471.692260705502, -33053.89381097482, -44536.43197255516, -39970.43996696949, -20263.219805147626, -24214.56118995681, -46499.07159794231, -31704.98838484149, -0.006, 1.012, 0.032, 192.0, 0.0, 0.0, 0.0, 0.0, 0.0, 0.0, 0.0, 0.0, 0.0, 1.695761034353494E9, 0.0, 2023-09-26 15:43:54.353
166.0, 13924.846222978382, 36057.34241692334, -42613.28787962054, -44369.35268275174, -23726.063814886074, -25254.90078388462, -187500.02235174447, 14519.603791189647, -12538.456921393505, -33079.151282209314, -44560.90713273372, -39995.831548670714, -20241.47155779261, -24228.754547685927, -46506.425321868104, -31716.03014660241, -0.006, 1.012, 0.032, 192.0, 0.0, 0.0, 0.0, 0.0, 0.0, 0.0, 0.0, 0.0, 0.0, 1.695761034413469E9, 0.0, 2023-09-26 15:43:54.413
168.0, 13943.845205765392, 36083.516309680504, -42618.361725611896, -44368.14568855115, -23732.612876011477, -25261.33808628775, -187500.02235174447, 14599.779498550834, -12491.048871403798, -33077.631363586355, -44541.0140801685, -39979.78299615181, -20216.61641795831, -24224.194791817044, -46496.210574652025, -31705.547178452875, -0.006, 1.012, 0.032, 192.0, 0.0, 0.0, 0.0, 0.0, 0.0, 0.0, 0.0, 0.0, 0.0, 1.69576103441351E9, 0.0, 2023-09-26 15:43:54.413
170.0, 13924.04156017799, 36060.3599024248, -42625.067248948486, -44380.93088637959, -23733.149317878404, -25265.987249134454, -187500.02235174447, 14551.812654949745, -12519.703807795502, -33081.43116014375, -44561.91296123421, -39991.29414454629, -20198.824429371885, -24221.154954571124, -46508.34757189126, -31713.951434368068, -0.006, 1.012, 0.032, 192.0, 0.0, 0.0, 0.0, 0.0, 0.0, 0.0, 0.0, 0.0, 0.0, 1.69576103441352E9, 0.0, 2023-09-26 15:43:54.413
172.0, 13930.702380025672, 36071.826347330374, -42614.76309475459, -44378.56160146733, -23736.59148652452, -25257.85121415272, -187500.02235174447, 14598.527800861337, -12513.154746670098, -33119.33971873995, -44558.15786816572, -40003.811121441264, -20254.72614225461, -24214.918817868092, -46499.07159794231, -31713.99613785698, -0.008, 1.01, 0.028, 192.0, 127.5, 96.0, 15.5, 72.0, 0.0, 112.0, 0.0, 0.0, 0.0, 1.695761034413534E9, 0.0, 2023-09-26 15:43:54.413
174.0, 13931.864670737348, 36066.01489377199, -42613.26552787609, -44364.345891993755, -23720.766451450167, -25247.23413553645, -187500.02235174447, 14514.552296942747, -12525.023522975865, -33060.576982566956, -44560.90713273372, -39992.25526955787, -20223.456051761634, -24224.99945461744, -46501.172661921104, -31711.73861166699, -0.008, 1.01, 0.028, 192.0, 0.0, 0.0, 0.0, 0.0, 0.0, 0.0, 0.0, 0.0, 0.0, 1.695761034413544E9, 0.0, 2023-09-26 15:43:54.413
176.0, 13941.85590050887, 36080.18589975666, -42603.90014694931, -44367.81041238432, -23723.046329384608, -25253.269106539385, -187500.02235174447, 14580.914626230555, -12462.460990245461, -33029.61981649635, -44535.38144056576, -39968.584772179696, -20213.77774641249, -24209.085012565258, -46489.7732722489, -31694.617175414227, -0.008, 1.01, 0.028, 192.0, 0.0, 0.0, 0.0, 0.0, 0.0, 0.0, 0.0, 0.0, 0.0, 1.695761034413553E9, 0.0, 2023-09-26 15:43:54.413
178.0, 13909.982312915601, 36042.679672560655, -42639.752345055625, -44396.06301737583, -23743.811099983588, -25275.48674052796, -187500.02235174447, 14520.609619690136, -12518.072130450266, -33084.627459600866, -44564.215190913106, -40006.00159239788, -20261.901052224763, -24217.31045452481, -46503.36313287773, -31716.857161147258, -0.008, 1.01, 0.028, 192.0, 0.0, 0.0, 0.0, 0.0, 0.0, 0.0, 0.0, 0.0, 0.0, 1.695761034413565E9, 0.0, 2023-09-26 15:43:54.413
180.0, 13913.357426328354, 36059.55523962441, -42640.82522878948, -44383.36722652522, -23735.473899301756, -25259.974629875975, -187500.02235174447, 14576.779553506321, -12530.745569556424, -33089.05310500301, -44581.91777252171, -40013.57883376823, -20225.981798885085, -24240.533917013876, -46513.53317660489, -31720.478143749016, -0.008, 1.01, 0.028, 192.0, 0.0, 0.0, 0.0, 0.0, 0.0, 0.0, 0.0, 0.0, 0.0, 1.695761034473838E9, 0.0, 2023-09-26 15:43:54.473
182.0, 13917.760719986049, 36053.4085098992, -42638.29948166603, -44393.000828385455, -23726.421442797357, -25260.28755429835, -187500.02235174447, 14529.729131427901, -12505.890429722123, -33092.94230853824, -44577.73799630857, -40010.00255465538, -20250.81458697493, -24208.615625931696, -46503.51959508891, -31715.873684391223, -0.012, 1.016, 0.03, 192.0, 127.5, 80.0, 15.5, 96.0, 0.0, 120.0, 0.0, 0.0, 0.0, 1.695761034473863E9, 0.0, 2023-09-26 15:43:54.473
184.0, 13931.529394570518, 36071.75929209701, -42624.75432452611, -44375.41000549913, -23726.421442797357, -25242.89789711212, -187500.02235174447, 14578.366527362648, -12468.98769962641, -33066.38843612533, -44554.46983033059, -39997.97731613843, -20240.421025803214, -24197.707974637506, -46494.467138584514, -31714.487876234994, -0.012, 1.016, 0.03, 192.0, 0.0, 0.0, 0.0, 0.0, 0.0, 0.0, 0.0, 0.0, 0.0, 1.695761034473874E9, 0.0, 2023-09-26 15:43:54.473
186.0, 13913.692702495182, 36053.743786066036, -42656.20322897473, -44389.06692136132, -23728.075471887052, -25250.452786738013, -187500.02235174447, 14537.865166409632, -12478.062507875266, -33059.05706394399, -44557.979054210075, -39998.93844115001, -20264.605613303855, -24219.992663859448, -46496.63525779668, -31706.351841253265, -0.012, 1.016, 0.03, 192.0, 0.0, 0.0, 0.0, 0.0, 0.0, 0.0, 0.0, 0.0, 0.0, 1.695761034473883E9, 0.0, 2023-09-26 15:43:54.473
188.0, 13910.071719893424, 36056.7612715675, -42676.520964684605, -44401.87447093421, -23731.87526844445, -25258.030028108362, -187500.02235174447, 14581.607530308669, -12547.017639519889, -33083.93455552275, -44587.975095269096, -40009.332002321724, -20255.016714932528, -24223.5689429723, -46501.70910378803, -31716.87951289171, -0.012, 1.016, 0.03, 192.0, 0.0, 0.0, 0.0, 0.0, 0.0, 0.0, 0.0, 0.0, 0.0, 1.695761034473892E9, 0.0, 2023-09-26 15:43:54.473
190.0, 13914.89969669577, 36057.163602967696, -42676.655075151335, -44394.49839526396, -23723.6498264849, -25245.066016324286, -187500.02235174447, 14569.023498180331, -12489.171324869552, -33086.639116601844, -44572.28417066147, -40003.43114178552, -20246.344238083868, -24210.716689910496, -46495.741188018466, -31712.56562621184, -0.012, 1.016, 0.03, 192.0, 0.0, 0.0, 0.0, 0.0, 0.0, 0.0, 0.0, 0.0, 0.0, 1.695761034473901E9, 0.0, 2023-09-26 15:43:54.473
192.0, 13915.525545540519, 36065.74667283853, -42669.25664773663, -44382.54021198037, -23716.296102559103, -25238.114623798683, -187500.02235174447, 14553.801960206267, -12487.941978924511, -33058.02888369905, -44566.29390314745, -39995.60803122616, -20221.310284293926, -24190.39895420062, -46491.62846703869, -31703.89314936318, -0.016, 1.008, 0.028, 192.0, 127.5, 64.0, 15.5, 64.0, 0.0, 112.0, 0.0, 0.0, 0.0, 1.695761034473911E9, 0.0, 2023-09-26 15:43:54.473
194.0, 13928.020170691034, 36070.6640566187, -42670.77656635959, -44381.35556952424, -23718.374814793446, -25230.89501033962, -187500.02235174447, 14571.728059259423, -12502.649426776103, -33064.68970354673, -44558.87312398829, -39979.559478707255, -20261.25285163556, -24202.468896206487, -46478.64210351016, -31696.159445781643, -0.016, 1.008, 0.028, 192.0, 0.0, 0.0, 0.0, 0.0, 0.0, 0.0, 0.0, 0.0, 0.0, 1.69576103447392E9, 0.0, 2023-09-26 15:43:54.473
196.0, 13913.46918505063, 36063.80207107092, -42685.23814502217, -44389.089273105776, -23724.678006729842, -25227.162269015585, -187500.02235174447, 14538.245146065372, -12464.584405968715, -33091.534148637555, -44552.05584192942, -39993.10463584717, -20233.6260954888, -24191.047154789827, -46476.18341162007, -31688.805721855846, -0.016, 1.008, 0.028, 192.0, 0.0, 0.0, 0.0, 0.0, 0.0, 0.0, 0.0, 0.0, 0.0, 1.695761034533524E9, 0.0, 2023-09-26 15:43:54.533
198.0, 13925.18149914521, 36077.68250437766, -42698.42567425081, -44382.31669453582, -23733.730463234242, -25233.19724001852, -187500.02235174447, 14581.808696008766, -12525.023522975865, -33045.936589948724, -44585.65051384574, -39981.72759791942, -20234.453110033646, -24182.754657596906, -46500.85973749873, -31704.250777274465, -0.016, 1.008, 0.028, 192.0, 0.0, 0.0, 0.0, 0.0, 0.0, 0.0, 0.0, 0.0, 0.0, 1.69576103453355E9, 0.0, 2023-09-26 15:43:54.533
200.0, 13918.90065895327, 36069.4123589292, -42696.12344457191, -44388.64223821667, -23735.74212023522, -25237.46642320948, -187500.02235174447, 14546.381181047105, -12477.526066008339, -33054.340845863924, -44562.315292634405, -39979.268906029334, -20235.011903645027, -24184.27457621987, -46488.63333328168, -31700.85331211726, -0.016, 1.008, 0.028, 192.0, 0.0, 0.0, 0.0, 0.0, 0.0, 0.0, 0.0, 0.0, 0.0, 1.69576103453356E9, 0.0, 2023-09-26 15:43:54.533
202.0, 13925.315609611942, 36078.6659811337, -42710.80854067905, -44390.631543473195, -23748.88494597494, -25245.915382613588, -187500.02235174447, 14604.003978252886, -12519.592049073226, -33049.378758594845, -44579.68259807618, -39984.63332469861, -20243.259697349036, -24189.437829189043, -46499.96566772052, -31714.84550414628, -0.008, 1.008, 0.028, 192.0, 127.5, 96.0, 15.5, 64.0, 0.0, 112.0, 0.0, 0.0, 0.0, 1.695761034533649E9, 0.0, 2023-09-26 15:43:54.533
204.0, 13921.381702587809, 36068.36182693981, -42690.73667415818, -44380.37209276821, -23736.59148652452, -25234.314827241284, -187500.02235174447, 14551.58913750519, -12487.025557401843, -33058.76649126608, -44568.93140899318, -39991.80823466876, -20223.38899652827, -24198.982024071458, -46495.09298742926, -31707.290614520385, -0.008, 1.008, 0.028, 192.0, 0.0, 0.0, 0.0, 0.0, 0.0, 0.0, 0.0, 0.0, 0.0, 1.695761034533659E9, 0.0, 2023-09-26 15:43:54.533
206.0, 13922.208717132655, 36074.6650188762, -42711.65790696835, -44391.34679929576, -23747.74500700772, -25233.487812696436, -187500.02235174447, 14622.779443595344, -12516.61926706067, -33074.30095366251, -44585.27053419001, -40001.665353973556, -20239.795176958465, -24211.186076544058, -46499.89861248715, -31711.872722133725, -0.008, 1.008, 0.028, 192.0, 0.0, 0.0, 0.0, 0.0, 0.0, 0.0, 0.0, 0.0, 0.0, 1.695761034533669E9, 0.0, 2023-09-26 15:43:54.533
208.0, 13920.331170598409, 36069.591172884844, -42691.340171258475, -44367.005749583936, -23728.857782942985, -25221.88725732413, -187500.02235174447, 14541.463797266937, -12476.386127041118, -33028.97161590715, -44563.231714157075, -39977.57017345073, -20216.325845280393, -24175.959727282494, -46485.68290301358, -31698.21580627153, -0.008, 1.008, 0.028, 192.0, 0.0, 0.0, 0.0, 0.0, 0.0, 0.0, 0.0, 0.0, 0.0, 1.695761034533683E9, 0.0, 2023-09-26 15:43:54.533
210.0, 13918.23010661961, 36072.02751303047, -42720.19627335027, -44401.76271221194, -23746.6050680405, -25248.128205314664, -187500.02235174447, 14611.245943456406, -12527.728084054957, -33052.70916851868, -44583.01300800002, -39983.96277236495, -20196.075164803882, -24197.2609397484, -46493.79658625086, -31709.99517559948, -0.008, 1.008, 0.028, 192.0, 0.0, 0.0, 0.0, 0.0, 0.0, 0.0, 0.0, 0.0, 0.0, 1.695761034593771E9, 0.0, 2023-09-26 15:43:54.593
212.0, 13910.94343792718, 36049.94398950863, -42699.69972368476, -44393.93960165258, -23729.528335276646, -25239.74630114392, -187500.02235174447, 14531.137291328585, -12505.957484955488, -33104.83343658846, -44583.48239463358, -40011.67893548953, -20209.150935310237, -24199.227893260468, -46495.60707755174, -31719.204094315064, -0.008, 1.014, 0.028, 192.0, 127.5, 96.0, 15.5, 88.0, 0.0, 112.0, 0.0, 0.0, 0.0, 1.695761034593798E9, 0.0, 2023-09-26 15:43:54.593
214.0, 13926.299086367975, 36079.53769916746, -42700.638496951884, -44370.984360096976, -23735.496251046214, -25230.112699283683, -187500.02235174447, 14596.918475260554, -12483.382223055629, -33041.57799977994, -44570.093699704856, -39985.840318899194, -20203.562999196412, -24187.716744865986, -46486.33110360278, -31699.26633826093, -0.008, 1.014, 0.028, 192.0, 0.0, 0.0, 0.0, 0.0, 0.0, 0.0, 0.0, 0.0, 0.0, 1.695761034593815E9, 0.0, 2023-09-26 15:43:54.593
216.0, 13915.61495251834, 36060.38225416926, -42705.62293596542, -44387.88227890519, -23736.83735571353, -25237.354664487204, -187500.02235174447, 14525.25878253684, -12502.783537242834, -33050.853973728896, -44575.05578697393, -39990.310667790254, -20213.12954582328, -24208.347404998232, -46490.421472838105, -31705.904806364157, -0.008, 1.014, 0.028, 192.0, 0.0, 0.0, 0.0, 0.0, 0.0, 0.0, 0.0, 0.0, 0.0, 1.695761034593824E9, 0.0, 2023-09-26 15:43:54.593
218.0, 13937.631420806816, 36086.153815526224, -42684.54524094406, -44380.908534635135, -23721.59346599501, -25235.61122841969, -187500.02235174447, 14590.235303668416, -12501.978874442444, -33058.051235443505, -44568.10439444833, -39985.2368217989, -20210.782612655476, -24184.587500642243, -46485.325275102296, -31703.55787319635, -0.008, 1.014, 0.028, 192.0, 0.0, 0.0, 0.0, 0.0, 0.0, 0.0, 0.0, 0.0, 0.0, 1.695761034593833E9, 0.0, 2023-09-26 15:43:54.593
220.0, 13929.718903269639, 36070.6640566187, -42685.93104910029, -44372.34781650875, -23722.576942751046, -25232.19141151803, -187500.02235174447, 14513.904096353543, -12468.205388570475, -33032.92787467574, -44547.54078954945, -39969.16591753554, -20171.60000462532, -24176.4067621716, -46470.349606317235, -31694.348954480763, -0.008, 1.014, 0.028, 192.0, 0.0, 0.0, 0.0, 0.0, 0.0, 0.0, 0.0, 0.0, 0.0, 1.695761034593842E9, 0.0, 2023-09-26 15:43:54.593
222.0, 13931.618801548339, 36080.83410034586, -42691.004895091646, -44378.78511891188, -23721.97344565075, -25233.644274907623, -187500.02235174447, 14580.445239596993, -12483.382223055629, -33044.841354470416, -44557.73318502107, -39980.65471418556, -20194.957577581117, -24184.45339017551, -46476.161059875616, -31699.66866966113, -0.008, 1.014, 0.026000000000000002, 192.0, 127.5, 96.0, 15.5, 88.0, 0.0, 104.0, 0.0, 0.0, 0.0, 1.695761034593884E9, 0.0, 2023-09-26 15:43:54.593
224.0, 13917.268981608033, 36063.82442281538, -42692.033075336585, -44374.24771478745, -23722.55459100659, -25226.04468179282, -187500.02235174447, 14511.177183529995, -12502.80588898729, -33040.90744744628, -44561.622388556294, -39977.72663566192, -20199.830257872374, -24180.765352340386, -46478.329179087785, -31692.113780035234, -0.008, 1.014, 0.026000000000000002, 192.0, 0.0, 0.0, 0.0, 0.0, 0.0, 0.0, 0.0, 0.0, 0.0, 1.695761034593894E9, 0.0, 2023-09-26 15:43:54.593
226.0, 13922.633400277306, 36077.28017297747, -42702.69485744177, -44389.715121950525, -23735.78682372413, -25235.43241446405, -187500.02235174447, 14569.381126091615, -12489.32778708074, -33043.03086316954, -44555.38625185326, -39977.167842050534, -20186.8662460883, -24185.705087865008, -46487.0240076809, -31704.675460419116, -0.008, 1.014, 0.026000000000000002, 192.0, 0.0, 0.0, 0.0, 0.0, 0.0, 0.0, 0.0, 0.0, 0.0, 1.695761034653954E9, 0.0, 2023-09-26 15:43:54.653
228.0, 13912.172783872222, 36055.80014655592, -42694.53647071558, -44394.341933052776, -23728.79072770962, -25239.969818588474, -187500.02235174447, 14536.658172209047, -12521.29078165183, -33083.06283748899, -44568.596132826344, -40001.95592665147, -20197.729193893578, -24220.350291770734, -46495.16004266263, -31716.343071024785, -0.008, 1.014, 0.026000000000000002, 192.0, 0.0, 0.0, 0.0, 0.0, 0.0, 0.0, 0.0, 0.0, 0.0, 1.695761034653976E9, 0.0, 2023-09-26 15:43:54.653
230.0, 13926.455548579162, 36073.56978339789, -42683.382950232386, -44378.89687763416, -23716.720785703754, -25230.112699283683, -187500.02235174447, 14585.206161165974, -12487.226723101941, -33062.27571514556, -44555.542714064446, -39986.80144391077, -20173.99164128204, -24196.45627694801, -46478.19506862105, -31700.920367350624, -0.008, 1.014, 0.026000000000000002, 192.0, 0.0, 0.0, 0.0, 0.0, 0.0, 0.0, 0.0, 0.0, 0.0, 1.695761034653985E9, 0.0, 2023-09-26 15:43:54.653
232.0, 13916.933705441203, 36062.8632978038, -42683.00297057664, -44383.68015094759, -23713.79270718011, -25245.110719813198, -187500.02235174447, 14561.513312043347, -12467.870112403645, -33032.190267108715, -44551.988786696056, -39977.99485659538, -20223.456051761634, -24181.748829096417, -46471.266027839905, -31700.89801560617, -0.012, 1.016, 0.024, 192.0, 127.5, 80.0, 15.5, 96.0, 0.0, 96.0, 0.0, 0.0, 0.0, 1.695761034653994E9, 0.0, 2023-09-26 15:43:54.653
234.0, 13919.32534209792, 36067.713626350596, -42687.54037470107, -44371.811374641824, -23714.954997891786, -25227.81046960479, -187500.02235174447, 14576.332518617215, -12512.685360036536, -33056.7548342651, -44562.024719956484, -39986.53322297731, -20201.774859639987, -24200.32312873878, -46475.669321497604, -31705.32366100832, -0.012, 1.016, 0.024, 192.0, 0.0, 0.0, 0.0, 0.0, 0.0, 0.0, 0.0, 0.0, 0.0, 1.695761034654004E9, 0.0, 2023-09-26 15:43:54.654
236.0, 13920.062949664945, 36059.97992276906, -42682.64534266536, -44378.40513925614, -23716.184343836827, -25231.90083884011, -187500.02235174447, 14557.802922463767, -12497.016787173367, -33050.09401441742, -44549.15011515023, -39974.2844670158, -20199.740850894555, -24192.902349579617, -46476.47398429799, -31695.3324312368, -0.012, 1.016, 0.024, 192.0, 0.0, 0.0, 0.0, 0.0, 0.0, 0.0, 0.0, 0.0, 0.0, 1.695761034654013E9, 0.0, 2023-09-26 15:43:54.654
238.0, 13926.701417768172, 36070.95462929662, -42671.625932648894, -44378.315732278315, -23720.02884388314, -25234.47128945247, -187500.02235174447, 14578.277120384828, -12497.910856951577, -33072.669276317276, -44552.83815298536, -39995.138644592604, -20215.945865624653, -24203.74294564044, -46483.82770822379, -31709.57049245483, -0.012, 1.016, 0.024, 192.0, 0.0, 0.0, 0.0, 0.0, 0.0, 0.0, 0.0, 0.0, 0.0, 1.695761034654022E9, 0.0, 2023-09-26 15:43:54.654
240.0, 13929.338923613897, 36075.62614388778, -42676.11863328441, -44367.475136217494, -23716.74313744821, -25228.0563387938, -187500.02235174447, 14564.486094055903, -12499.85545871919, -33029.35159556289, -44548.09958316083, -39975.5361647053, -20236.688284479176, -24191.31537572329, -46480.206725622025, -31702.79791388487, -0.012, 1.016, 0.024, 192.0, 0.0, 0.0, 0.0, 0.0, 0.0, 0.0, 0.0, 0.0, 0.0, 1.695761034714191E9, 0.0, 2023-09-26 15:43:54.714
242.0, 13922.499289810574, 36069.63587637376, -42677.48208969618, -44384.328351536795, -23720.18530609433, -25235.119490041674, -187500.02235174447, 14541.575555989213, -12489.618359758659, -33038.15818287828, -44542.84692321383, -39975.55851644975, -20197.863304360308, -24180.698297107017, -46469.7684609614, -31694.84069285878, -0.014, 1.018, 0.022, 192.0, 127.5, 72.0, 15.5, 104.0, 0.0, 88.0, 0.0, 0.0, 0.0, 1.695761034714228E9, 0.0, 2023-09-26 15:43:54.714
244.0, 13921.336999098898, 36067.42305367268, -42692.457758481236, -44376.080557832785, -23738.02199816966, -25237.600533676214, -187500.02235174447, 14580.020556452342, -12516.686322294036, -33073.07160771747, -44570.920714249696, -39993.68578120301, -20243.594973515865, -24196.210407759, -46495.83059499629, -31720.478143749016, -0.014, 1.018, 0.022, 192.0, 0.0, 0.0, 0.0, 0.0, 0.0, 0.0, 0.0, 0.0, 0.0, 1.695761034714282E9, 0.0, 2023-09-26 15:43:54.714
246.0, 13919.146528142277, 36058.63881810175, -42673.7717001166, -44361.10488904773, -23706.7966111656, -25217.975702044452, -187500.02235174447, 14532.858375651644, -12478.241321830908, -33050.40693883979, -44550.982958195564, -39982.50990897536, -20192.38712696876, -24185.97330879847, -46474.37292031919, -31690.41504745663, -0.014, 1.018, 0.022, 192.0, 0.0, 0.0, 0.0, 0.0, 0.0, 0.0, 0.0, 0.0, 0.0, 1.695761034714292E9, 0.0, 2023-09-26 15:43:54.714
