%OpenBCI Raw EXG Data
%Number of channels = 16
%Sample Rate = 125 Hz
%Board = OpenBCI_GUI$BoardCytonSerialDaisy
Sample Index, EXG Channel 0, EXG Channel 1, EXG Channel 2, EXG Channel 3, EXG Channel 4, EXG Channel 5, EXG Channel 6, EXG Channel 7, EXG Channel 8, EXG Channel 9, EXG Channel 10, EXG Channel 11, EXG Channel 12, EXG Channel 13, EXG Channel 14, EXG Channel 15, Accel Channel 0, Accel Channel 1, Accel Channel 2, Other, Other, Other, Other, Other, Other, Other, Analog Channel 0, Analog Channel 1, Analog Channel 2, Timestamp, Other, Timestamp (Formatted)
0.0, 12557.433552436061, 36974.590954135776, -44338.68608935906, -45680.863640411335, -24502.47401028562, -26321.54838103633, -187500.02235174447, 5029.0307437218125, 0.0, 0.0, 0.0, 0.0, 0.0, 0.0, 0.0, 0.0, 0.0, 0.0, 0.0, 192.0, 0.0, 0.0, 0.0, 0.0, 0.0, 0.0, 0.0, 0.0, 0.0, 1.695760938800484E9, 0.0, 2023-09-26 15:42:18.800
194.0, 12566.977747318477, 36994.81928286782, -44335.02040326839, -45677.153250831754, -24500.685870729194, -26313.63586349915, -187500.02235174447, 5093.515526475373, -12500.973045941955, -33855.38266365322, -45064.96132194535, -40832.32323316613, -20914.46023159745, -24983.41649573046, -47824.015954019545, -32913.03311741747, 0.0, 0.0, 0.0, 192.0, 0.0, 0.0, 0.0, 0.0, 0.0, 0.0, 0.0, 0.0, 0.0, 1.695760938800503E9, 0.0, 2023-09-26 15:42:18.800
196.0, 12561.434514693561, 36981.27412572791, -44344.832819084266, -45686.71979745863, -24508.62074001083, -26322.665968259094, -187500.02235174447, 5035.289232169299, -12496.368586584162, -33858.780128810424, -45071.040996437194, -40840.74984082578, -20921.076347956223, -24987.305699265686, -47831.772009345535, -32924.41015534522, 0.0, 0.0, 0.0, 192.0, 0.0, 0.0, 0.0, 0.0, 0.0, 0.0, 0.0, 0.0, 0.0, 1.695760938800513E9, 0.0, 2023-09-26 15:42:18.800
198.0, 12554.147846001131, 36976.55790764784, -44345.43631618456, -45693.9841144066, -24505.46914404263, -26323.44827931503, -187500.02235174447, 5075.343558233209, -12517.736854283436, -33872.41469292816, -45079.33349363011, -40850.71871885285, -20899.4845628124, -24990.79257140071, -47836.8905588258, -32930.400422859246, -0.01, 1.01, -0.034, 192.0, 127.5, 88.0, 15.5, 72.0, 127.0, 120.0, 0.0, 0.0, 0.0, 1.695760938800523E9, 0.0, 2023-09-26 15:42:18.800
200.0, 12551.15271224412, 36965.98553252048, -44343.02232778339, -45695.99577140758, -24506.117344631835, -26333.372453853186, -187500.02235174447, 5051.963633532958, -12509.354950112694, -33884.998725056495, -45079.75817677476, -40859.88293407952, -20906.726528015915, -25003.354251784596, -47843.05964029547, -32940.36930088631, -0.01, 1.01, -0.034, 192.0, 0.0, 0.0, 0.0, 0.0, 0.0, 0.0, 0.0, 0.0, 0.0, 1.695760938800533E9, 0.0, 2023-09-26 15:42:18.800
202.0, 12555.935985557555, 36974.70271285805, -44331.17590322207, -45686.384521291795, -24500.149428862267, -26327.44924157253, -187500.02235174447, 5062.938340060513, -12503.610551787682, -33869.26309695996, -45067.15179290197, -40847.969454284845, -20906.61476929364, -24986.9480713544, -47833.20252099068, -32937.105946195836, -0.01, 1.01, -0.034, 192.0, 0.0, 0.0, 0.0, 0.0, 0.0, 0.0, 0.0, 0.0, 0.0, 1.695760938800542E9, 0.0, 2023-09-26 15:42:18.800
204.0, 12547.643488364636, 36961.93986677407, -44355.62871165618, -45704.31062034496, -24514.43219356921, -26349.532765094373, -187500.02235174447, 5076.170572778055, -12515.725197282458, -33881.75772211048, -45079.60171456358, -40851.50102990878, -20913.163830419046, -24994.212388302374, -47840.17626526073, -32945.219629433115, -0.01, 1.01, -0.034, 192.0, 0.0, 0.0, 0.0, 0.0, 0.0, 0.0, 0.0, 0.0, 0.0, 1.695760938800552E9, 0.0, 2023-09-26 15:42:18.800
206.0, 12541.630869106159, 36953.93794225907, -44341.94944404953, -45702.388370321794, -24508.732498733105, -26337.909857977615, -187500.02235174447, 5083.278427514842, -12551.510340155404, -33894.63232691673, -45092.90100251448, -40871.70700689638, -20922.0374729678, -25009.255112320796, -47843.35021297338, -32949.51116436853, -0.01, 1.01, -0.034, 192.0, 0.0, 0.0, 0.0, 0.0, 0.0, 0.0, 0.0, 0.0, 0.0, 1.695760938800561E9, 0.0, 2023-09-26 15:42:18.800
208.0, 12548.9622412875, 36953.71442481451, -44345.25750222892, -45701.74016973259, -24507.391394065788, -26336.904029477126, -187500.02235174447, 5080.238590268921, -12501.196563386507, -33900.19791128611, -45086.17312743344, -40873.85277436409, -20917.81299326575, -25009.99271988782, -47843.46197169566, -32945.95723700014, -0.01, 1.01, -0.038, 192.0, 127.5, 88.0, 15.5, 72.0, 127.0, 104.0, 0.0, 0.0, 0.0, 1.69576093880059E9, 0.0, 2023-09-26 15:42:18.800
0.0, 6334.864358289762, 18468.64294631993, -22147.38245575219, -22810.290492807686, -12224.996057152279, -13193.363033934002, -93750.01117587223, 2672.843953710074, -6256.499142229455, -16945.63978262422, -22540.12495757639, -20430.47790890669, -10451.653355557128, -12507.320941367263, -23917.282988701223, -16466.708954180354, -0.01, 1.01, -0.042, 192.0, 127.5, 88.0, 15.5, 72.0, 127.0, 88.0, 0.0, 0.0, 0.0, 1.695760938940289E9, 0.0, 2023-09-26 15:42:18.940
2.0, 12684.302053964384, 36952.23920968047, -44285.1536613886, -45625.61012811782, -24455.289477740465, -26387.284861479387, -187500.02235174447, 5409.748007029058, -12508.818508245768, -33811.103857887254, -45042.34135655658, -40804.696477019366, -20879.435048035986, -24902.659643013438, -47735.45834248762, -32850.22471549806, -0.01, 1.01, -0.042, 192.0, 0.0, 0.0, 0.0, 0.0, 0.0, 0.0, 0.0, 0.0, 0.0, 1.695760938940313E9, 0.0, 2023-09-26 15:42:18.940
4.0, 12659.961004252555, 36922.24316862144, -44303.68325754205, -45628.225282219086, -24467.18060579069, -26403.37811748721, -187500.02235174447, 5341.463427718095, -12507.656217534091, -33847.69366356059, -45051.550275272166, -40823.918977250934, -20906.70417627146, -24926.285436902697, -47741.73918267956, -32861.69116040363, -0.01, 1.01, -0.042, 192.0, 0.0, 0.0, 0.0, 0.0, 0.0, 0.0, 0.0, 0.0, 0.0, 1.695760938940324E9, 0.0, 2023-09-26 15:42:18.940
6.0, 12684.950254553587, 36954.40732889263, -44292.17210914756, -45615.730657068576, -24457.390541719265, -26390.41410570313, -187500.02235174447, 5416.45353036565, -12513.020636203366, -33812.154389876654, -45052.84667645057, -40809.12212242152, -20895.75182148836, -24905.386555836983, -47747.75180193804, -32860.618276669775, -0.01, 1.01, -0.042, 192.0, 0.0, 0.0, 0.0, 0.0, 0.0, 0.0, 0.0, 0.0, 0.0, 1.695760938940332E9, 0.0, 2023-09-26 15:42:18.940
8.0, 12664.587815354804, 36921.4161540766, -44302.72213253047, -45630.03577351997, -24459.022219064504, -26395.398544716663, -187500.02235174447, 5323.5820321538495, -12492.702900493492, -33829.298177873876, -45048.51043802624, -40821.28147140521, -20868.348582786155, -24912.36030010704, -47744.533150736475, -32859.16541328018, -0.008, 1.008, -0.05, 192.0, 127.5, 96.0, 15.5, 64.0, 127.0, 56.0, 0.0, 0.0, 0.0, 1.695760938940341E9, 0.0, 2023-09-26 15:42:18.940
10.0, 12673.617920114746, 36944.997244476945, -44304.3091063868, -45645.279663238485, -24467.225309279598, -26411.84942863577, -187500.02235174447, 5414.844204764868, -12521.693113052024, -33819.21754112453, -45057.22761836382, -40823.69545980638, -20875.36703054512, -24910.50510531725, -47751.64100547326, -32867.16733779518, -0.008, 1.008, -0.05, 192.0, 0.0, 0.0, 0.0, 0.0, 0.0, 0.0, 0.0, 0.0, 0.0, 1.695760938940351E9, 0.0, 2023-09-26 15:42:18.940
12.0, 12666.93474852261, 36926.57940704577, -44290.160452146585, -45627.4206194187, -24460.273916754, -26396.493780194975, -187500.02235174447, 5333.729724136559, -12515.836956004734, -33831.33218661931, -45058.8369439646, -40841.398041414985, -20905.296016370776, -24914.684881530393, -47756.91601716471, -32881.83008215786, -0.008, 1.008, -0.05, 192.0, 0.0, 0.0, 0.0, 0.0, 0.0, 0.0, 0.0, 0.0, 0.0, 1.695760938940359E9, 0.0, 2023-09-26 15:42:18.940
14.0, 12675.428411415627, 36944.706671799024, -44287.88057421215, -45637.9706428016, -24456.921155085704, -26401.858198864247, -187500.02235174447, 5396.336960355873, -12501.353025597695, -33810.343898575775, -45044.50947576875, -40819.22511091532, -20893.04726040927, -24925.905457246954, -47746.902435648735, -32864.954515094105, -0.008, 1.008, -0.05, 192.0, 0.0, 0.0, 0.0, 0.0, 0.0, 0.0, 0.0, 0.0, 0.0, 1.695760938940368E9, 0.0, 2023-09-26 15:42:18.940
16.0, 12657.681126318113, 36925.998261689936, -44303.95147847551, -45631.153360742734, -24464.20782377813, -26402.774620386914, -187500.02235174447, 5333.595613669827, -12498.670816263058, -33815.82007596732, -45051.483220038805, -40831.607977343556, -20891.2814725973, -24920.250465899764, -47753.16092409622, -32870.85537563031, -0.008, 1.008, -0.05, 192.0, 0.0, 0.0, 0.0, 0.0, 0.0, 0.0, 0.0, 0.0, 0.0, 1.695760939000632E9, 0.0, 2023-09-26 15:42:19.000
18.0, 12669.572254368337, 36935.967139717, -44297.69299002802, -45636.87540732329, -24465.21365227862, -26407.200265789066, -187500.02235174447, 5404.1153674263205, -12512.685360036536, -33836.36132912175, -45057.47348755282, -40836.10067797908, -20844.946306341448, -24929.258218915253, -47756.960720653624, -32868.731959907054, -0.012, 1.01, -0.048, 192.0, 127.5, 80.0, 15.5, 72.0, 127.0, 64.0, 0.0, 0.0, 0.0, 1.695760939000719E9, 0.0, 2023-09-26 15:42:19.000
20.0, 12654.59658558328, 36921.237340120955, -44295.50251907141, -45638.68589862417, -24461.883242354783, -26401.65703316415, -187500.02235174447, 5320.609250141293, -12513.355912370196, -33830.01343369644, -45054.835981707096, -40843.566160627146, -20892.600225520164, -24919.35639612155, -47762.16867711171, -32874.811634398895, -0.012, 1.01, -0.048, 192.0, 0.0, 0.0, 0.0, 0.0, 0.0, 0.0, 0.0, 0.0, 0.0, 1.69576093900073E9, 0.0, 2023-09-26 15:42:19.000
22.0, 12669.371088668238, 36944.21493342101, -44278.73871072992, -45612.13202621127, -24446.661704380716, -26384.40148644465, -187500.02235174447, 5354.002756357522, -12489.908932436578, -33785.77933141939, -45040.79908618917, -40821.39323012748, -20917.56712407674, -24909.20870413884, -47737.9170343777, -32858.36075047979, -0.012, 1.01, -0.048, 192.0, 0.0, 0.0, 0.0, 0.0, 0.0, 0.0, 0.0, 0.0, 0.0, 1.695760939000741E9, 0.0, 2023-09-26 15:42:19.000
24.0, 12653.769571038434, 36922.73490699946, -44301.62689705216, -45628.18057873018, -24458.597535919853, -26399.131286040698, -187500.02235174447, 5323.514976920483, -12493.641673760614, -33801.06792462682, -45048.30927232615, -40820.25329116026, -20887.548731273262, -24916.517724575726, -47747.34947053784, -32868.530794206956, -0.012, 1.01, -0.048, 192.0, 0.0, 0.0, 0.0, 0.0, 0.0, 0.0, 0.0, 0.0, 0.0, 1.695760939000753E9, 0.0, 2023-09-26 15:42:19.000
26.0, 12652.495521604482, 36931.27327338139, -44314.90383325861, -45646.12902952779, -24465.90655635674, -26402.95343434256, -187500.02235174447, 5356.282634291963, -12514.920534482068, -33815.46244805604, -45057.71935674183, -40831.49621862128, -20915.823688009226, -24908.761669249736, -47751.28337756197, -32877.337381522346, -0.012, 1.01, -0.048, 192.0, 0.0, 0.0, 0.0, 0.0, 0.0, 0.0, 0.0, 0.0, 0.0, 1.695760939000763E9, 0.0, 2023-09-26 15:42:19.000
28.0, 12660.922129264132, 36930.89329372565, -44319.21771993849, -45627.040639762956, -24459.156329531233, -26389.251814991454, -187500.02235174447, 5323.000886798011, -12488.970159169456, -33810.79093346488, -45057.004100919265, -40830.0880587206, -20905.027795437312, -24940.74701556528, -47752.6691857182, -32875.01280009899, -0.014, 1.01, -0.046, 192.0, 127.5, 72.0, 15.5, 72.0, 127.0, 72.0, 0.0, 0.0, 0.0, 1.695760939000773E9, 0.0, 2023-09-26 15:42:19.000
30.0, 12653.747219293979, 36932.05558443732, -44329.85715029921, -45638.61884339081, -24469.527538958497, -26390.0788295363, -187500.02235174447, 5344.9502998531225, -12477.66017647507, -33814.30015734436, -45055.99827241877, -40822.309651650154, -20911.778022262817, -24934.89085851799, -47747.662394960214, -32866.22856452806, -0.014, 1.01, -0.046, 192.0, 0.0, 0.0, 0.0, 0.0, 0.0, 0.0, 0.0, 0.0, 0.0, 1.695760939061188E9, 0.0, 2023-09-26 15:42:19.061
32.0, 12664.833684543812, 36941.577427575285, -44323.88923452965, -45629.87931130878, -24466.599460434853, -26388.849483591257, -187500.02235174447, 5333.416799714184, -12493.9993016719, -33815.574206778314, -45053.070193895124, -40818.86748300403, -20912.694443785484, -24923.804393268158, -47752.73624095157, -32871.48122447506, -0.014, 1.01, -0.046, 192.0, 0.0, 0.0, 0.0, 0.0, 0.0, 0.0, 0.0, 0.0, 0.0, 1.69576093906123E9, 0.0, 2023-09-26 15:42:19.061
34.0, 12664.654870588169, 36943.23145666498, -44324.09040022975, -45625.87834905128, -24455.065960295913, -26372.108026994232, -187500.02235174447, 5319.357552451796, -12525.381150887151, -33784.058247096335, -45049.56097001564, -40800.33788685058, -20927.088967214702, -24898.077535400098, -47735.05601108742, -32855.29856148941, -0.014, 1.01, -0.046, 192.0, 0.0, 0.0, 0.0, 0.0, 0.0, 0.0, 0.0, 0.0, 0.0, 1.69576093906124E9, 0.0, 2023-09-26 15:42:19.061
36.0, 12679.69759460659, 36958.45299463904, -44322.592833351235, -45626.12421824029, -24452.271992239, -26380.668745120616, -187500.02235174447, 5341.977517840567, -12473.480400261928, -33794.25064256795, -45039.99442338877, -40803.75770375225, -20909.967530961934, -24918.12705017651, -47731.07740057438, -32850.87291608726, -0.014, 1.01, -0.046, 192.0, 0.0, 0.0, 0.0, 0.0, 0.0, 0.0, 0.0, 0.0, 0.0, 1.695760939061249E9, 0.0, 2023-09-26 15:42:19.061
38.0, 12668.70053633458, 36947.254770666936, -44340.65304287113, -45637.16598000121, -24462.263222010522, -26384.625003889207, -187500.02235174447, 5320.609250141293, -12482.309339321773, -33788.595651220756, -45048.622196748525, -40814.44183760188, -20887.906359184548, -24911.9803204513, -47737.045316343945, -32856.59496266782, -0.01, 1.006, -0.046, 192.0, 127.5, 88.0, 15.5, 56.0, 127.0, 72.0, 0.0, 0.0, 0.0, 1.695760939061258E9, 0.0, 2023-09-26 15:42:19.061
40.0, 12681.865713818755, 36956.73191031598, -44328.78426656536, -45623.50906413902, -24456.094140540856, -26369.626983359693, -187500.02235174447, 5351.029974344966, -12479.269502075853, -33797.40223853615, -45049.67272873792, -40815.26885214673, -20923.33387414621, -24908.426393082907, -47737.0676680884, -32853.66688414418, -0.01, 1.006, -0.046, 192.0, 0.0, 0.0, 0.0, 0.0, 0.0, 0.0, 0.0, 0.0, 0.0, 1.695760939061307E9, 0.0, 2023-09-26 15:42:19.061
42.0, 12671.405097413672, 36938.80581126283, -44336.1156387467, -45622.8161600609, -24464.31958250041, -26371.54923338285, -187500.02235174447, 5306.952334279101, -12487.09261263521, -33794.36240129023, -45052.48904853929, -40809.099770677065, -20885.29120508328, -24910.01336693923, -47731.74795290804, -32851.56582016538, -0.01, 1.006, -0.046, 192.0, 0.0, 0.0, 0.0, 0.0, 0.0, 0.0, 0.0, 0.0, 0.0, 1.695760939061316E9, 0.0, 2023-09-26 15:42:19.061
44.0, 12687.855981332777, 36964.152689475144, -44322.30226067332, -45614.97069775709, -24456.78704461897, -26370.297535693353, -187500.02235174447, 5365.9162361522, -12477.503714263883, -33777.64329643766, -45042.944853656874, -40785.541032021174, -20923.490336357398, -24891.30495683014, -47723.120179548285, -32845.5532009069, -0.01, 1.006, -0.046, 192.0, 0.0, 0.0, 0.0, 0.0, 0.0, 0.0, 0.0, 0.0, 0.0, 1.695760939061325E9, 0.0, 2023-09-26 15:42:19.061
46.0, 12669.594606112792, 36938.89521824065, -44333.45578115652, -45615.2165669461, -24461.458559210132, -26361.513300122417, -187500.02235174447, 5290.635560826727, -12484.432755045029, -33776.503357470436, -45045.76117345824, -40793.520604791716, -20916.71775778744, -24907.59937853806, -47726.45058947213, -32849.26359048648, -0.01, 1.006, -0.046, 192.0, 0.0, 0.0, 0.0, 0.0, 0.0, 0.0, 0.0, 0.0, 0.0, 1.695760939120498E9, 0.0, 2023-09-26 15:42:19.120
48.0, 12692.795716857401, 36959.07884348379, -44323.97864150746, -45619.46339839261, -24455.17771901819, -26364.441378646065, -187500.02235174447, 5342.446904474128, -12492.52408653785, -33791.65784021113, -45047.996347903776, -40792.00068616876, -20920.942237489493, -24905.766535492723, -47724.8636156158, -32838.199476981106, -0.004, 1.01, -0.048, 192.0, 127.5, 112.0, 15.5, 72.0, 127.0, 64.0, 0.0, 0.0, 0.0, 1.695760939120526E9, 0.0, 2023-09-26 15:42:19.120
50.0, 12680.368146940249, 36941.89035199766, -44332.13702823365, -45617.83172104737, -24457.859928352827, -26364.88841353517, -187500.02235174447, 5288.221572425553, -12490.624188259148, -33783.65591569614, -45048.5327897707, -40802.75187525176, -20899.305748856754, -24898.815142967123, -47726.94232785015, -32843.58624739483, -0.004, 1.01, -0.048, 192.0, 0.0, 0.0, 0.0, 0.0, 0.0, 0.0, 0.0, 0.0, 0.0, 1.695760939120536E9, 0.0, 2023-09-26 15:42:19.120
52.0, 12691.186391256619, 36957.64833183865, -44326.0126502529, -45619.84337804835, -24453.16606201721, -26357.13235820918, -187500.02235174447, 5356.237930803052, -12475.916740407556, -33781.91247962862, -45053.517228784236, -40798.50504380525, -20885.358260316643, -24902.03379416869, -47723.92484234868, -32827.80591580938, -0.004, 1.01, -0.048, 192.0, 0.0, 0.0, 0.0, 0.0, 0.0, 0.0, 0.0, 0.0, 0.0, 1.695760939120545E9, 0.0, 2023-09-26 15:42:19.120
54.0, 12675.69663234909, 36936.43652635056, -44323.77747580737, -45622.83851180536, -24455.64710565175, -26370.74457058246, -187500.02235174447, 5298.235153941531, -12497.977912184944, -33780.52667147239, -45051.03618514969, -40801.2319566288, -20907.84411523868, -24909.11929716102, -47721.60026092533, -32830.73399433303, -0.004, 1.01, -0.048, 192.0, 0.0, 0.0, 0.0, 0.0, 0.0, 0.0, 0.0, 0.0, 0.0, 1.695760939120554E9, 0.0, 2023-09-26 15:42:19.120
56.0, 12687.118373765752, 36957.64833183865, -44329.20894971001, -45627.68884035216, -24456.02708530749, -26369.716390337515, -187500.02235174447, 5376.39920430174, -12494.46868830546, -33804.532445017394, -45051.50557178326, -40803.69064851888, -20917.70123454347, -24905.431259325895, -47726.22707202758, -32841.10520376029, -0.004, 1.01, -0.048, 192.0, 0.0, 0.0, 0.0, 0.0, 0.0, 0.0, 0.0, 0.0, 0.0, 1.695760939120563E9, 0.0, 2023-09-26 15:42:19.120
58.0, 12684.123240008741, 36943.70084329854, -44311.93105124606, -45610.477997121576, -24447.265201481012, -26364.039047245868, -187500.02235174447, 5281.560752577871, -12469.747658937891, -33771.00482833443, -45035.457019264344, -40788.31264833363, -20899.126934901113, -24903.50900930274, -47719.8121213689, -32834.80201182389, -0.01, 1.006, -0.056, 192.0, 127.5, 88.0, 15.5, 56.0, 127.0, 32.0, 0.0, 0.0, 0.0, 1.695760939120572E9, 0.0, 2023-09-26 15:42:19.120
60.0, 12689.241789489006, 36961.13520397368, -44313.83094952476, -45618.234052447566, -24445.186489246666, -26369.872852548702, -187500.02235174447, 5345.374982997773, -12473.368641539651, -33774.04466558035, -45033.87004540802, -40788.58086926709, -20894.544827287773, -24913.142611162977, -47714.9617928221, -32831.71747108906, -0.01, 1.006, -0.056, 192.0, 0.0, 0.0, 0.0, 0.0, 0.0, 0.0, 0.0, 0.0, 0.0, 1.695760939180717E9, 0.0, 2023-09-26 15:42:19.180
62.0, 12664.140780465697, 36928.27813962437, -44336.13799049115, -45630.92984329818, -24460.229213265087, -26371.303364193842, -187500.02235174447, 5274.0952699297995, -12501.911819209077, -33784.84055815227, -45055.55123752967, -40811.044372444674, -20876.350507301155, -24908.8287244831, -47734.29605177594, -32843.96622705057, -0.01, 1.006, -0.056, 192.0, 0.0, 0.0, 0.0, 0.0, 0.0, 0.0, 0.0, 0.0, 0.0, 1.695760939180824E9, 0.0, 2023-09-26 15:42:19.180
64.0, 12678.758821339468, 36951.05456722433, -44324.492731629936, -45620.804503059924, -24448.85217533734, -26371.281012449388, -187500.02235174447, 5330.734590379548, -12502.112984909176, -33775.653991181134, -45048.64454849298, -40802.68482001839, -20926.19489743649, -24899.530398789695, -47726.65175517223, -32831.672767600154, -0.01, 1.006, -0.056, 192.0, 0.0, 0.0, 0.0, 0.0, 0.0, 0.0, 0.0, 0.0, 0.0, 1.695760939180835E9, 0.0, 2023-09-26 15:42:19.180
66.0, 12677.75299283898, 36936.88356123967, -44334.79688582384, -45624.738410084065, -24452.69667538365, -26368.26352694792, -187500.02235174447, 5272.8659239847575, -12500.816583730768, -33778.962049360525, -45046.096449625074, -40798.46034031634, -20899.37280409012, -24905.74418374827, -47729.44572322914, -32834.623197868255, -0.01, 1.006, -0.056, 192.0, 0.0, 0.0, 0.0, 0.0, 0.0, 0.0, 0.0, 0.0, 0.0, 1.695760939180844E9, 0.0, 2023-09-26 15:42:19.180
68.0, 12688.705347622079, 36962.900991785646, -44324.44802814103, -45625.63247986227, -24453.814262606415, -26375.88547180718, -187500.02235174447, 5343.8327126303575, -12476.117906107655, -33773.46352022452, -45041.49199026728, -40794.146453636466, -20900.378632590608, -24913.611997796535, -47733.64785118674, -32839.18295373714, -0.012, 1.002, -0.048, 192.0, 127.5, 80.0, 15.5, 40.0, 127.0, 64.0, 0.0, 0.0, 0.0, 1.695760939180855E9, 0.0, 2023-09-26 15:42:19.180
70.0, 12682.111583007763, 36951.65806432463, -44328.65015609863, -45623.03967750546, -24455.691809140662, -26379.08177126429, -187500.02235174447, 5310.036875013933, -12468.250092059387, -33754.44218569305, -45029.109123839036, -40779.68487497388, -20911.55450481826, -24895.708250487834, -47727.90345286173, -32833.68442460113, -0.012, 1.002, -0.048, 192.0, 0.0, 0.0, 0.0, 0.0, 0.0, 0.0, 0.0, 0.0, 0.0, 1.695760939180887E9, 0.0, 2023-09-26 15:42:19.180
72.0, 12687.766574354957, 36962.900991785646, -44334.77453407938, -45622.23501470507, -24461.302096998945, -26377.584204385785, -187500.02235174447, 5365.782125685469, -12489.864228947668, -33782.18070056209, -45044.50947576875, -40792.42536931341, -20908.51466757234, -24923.40206186796, -47739.86163614532, -32843.250971228, -0.012, 1.002, -0.048, 192.0, 0.0, 0.0, 0.0, 0.0, 0.0, 0.0, 0.0, 0.0, 0.0, 1.695760939180905E9, 0.0, 2023-09-26 15:42:19.180
74.0, 12692.438088946115, 36956.97777950499, -44325.476208385975, -45622.704401338626, -24453.054303294935, -26376.287803207375, -187500.02235174447, 5328.119436278276, -12475.223836329442, -33772.86002312422, -45033.11008609654, -40784.40109305395, -20890.879141197103, -24905.207741881342, -47732.709077919615, -32837.43951766962, -0.012, 1.002, -0.048, 192.0, 0.0, 0.0, 0.0, 0.0, 0.0, 0.0, 0.0, 0.0, 0.0, 1.695760939180914E9, 0.0, 2023-09-26 15:42:19.180
76.0, 12684.458516175571, 36955.30139867084, -44330.32653693277, -45626.88417755177, -24462.106759799335, -26371.392771171664, -187500.02235174447, 5345.710259164603, -12481.214103843464, -33774.93873535857, -45044.35301355756, -40791.911279190936, -20892.46611505343, -24909.83455298359, -47735.994784354545, -32836.63485486923, -0.012, 1.002, -0.048, 192.0, 0.0, 0.0, 0.0, 0.0, 0.0, 0.0, 0.0, 0.0, 0.0, 1.695760939240942E9, 0.0, 2023-09-26 15:42:19.240
78.0, 12684.458516175571, 36949.26642766791, -44338.14964749213, -45633.72381135509, -24467.448826724154, -26386.390791701175, -187500.02235174447, 5339.921157350678, -12488.768993469357, -33791.12139834421, -45048.17516185941, -40802.103674662554, -20902.882027969605, -24924.385538623996, -47742.47679024658, -32853.86804984427, -0.012, 1.008, -0.044, 192.0, 127.5, 80.0, 15.5, 64.0, 127.0, 80.0, 0.0, 0.0, 0.0, 1.695760939240987E9, 0.0, 2023-09-26 15:42:19.240
80.0, 12693.578027913336, 36961.11285222922, -44317.094304215236, -45617.83172104737, -24458.329314986386, -26377.584204385785, -187500.02235174447, 5330.019334556978, -12471.491095005405, -33771.965953346014, -45034.76411518623, -40794.86170945904, -20896.310615099745, -24917.389442609485, -47745.851903659335, -32854.91858183367, -0.012, 1.008, -0.044, 192.0, 0.0, 0.0, 0.0, 0.0, 0.0, 0.0, 0.0, 0.0, 0.0, 1.695760939240997E9, 0.0, 2023-09-26 15:42:19.240
82.0, 12672.813257314356, 36949.10996545672, -44339.043717270346, -45644.162076015724, -24469.99692559206, -26400.360631985743, -187500.02235174447, 5344.7714858974805, -12504.549325054804, -33778.51501447141, -45041.11201061154, -40793.83352921409, -20879.479751524897, -24915.511896075237, -47746.65656645973, -32863.74752089352, -0.012, 1.008, -0.044, 192.0, 0.0, 0.0, 0.0, 0.0, 0.0, 0.0, 0.0, 0.0, 0.0, 1.695760939241005E9, 0.0, 2023-09-26 15:42:19.241
84.0, 12674.489638148503, 36954.49673587045, -44318.36835364919, -45623.59847111684, -24463.112588299824, -26388.55891091334, -187500.02235174447, 5344.033878330455, -12500.481307563938, -33783.49945348495, -45047.4822577813, -40801.56723279563, -20907.66530128304, -24907.241750626774, -47746.768325182005, -32866.72030290608, -0.012, 1.008, -0.044, 192.0, 0.0, 0.0, 0.0, 0.0, 0.0, 0.0, 0.0, 0.0, 0.0, 1.695760939241043E9, 0.0, 2023-09-26 15:42:19.241
86.0, 12683.251521974984, 36962.342198174265, -44317.34017340424, -45617.07176173589, -24450.70737012713, -26379.908785809137, -187500.02235174447, 5349.688869677648, -12453.27442327433, -33771.45186322354, -45033.44536226337, -40782.23297384178, -20892.577873775706, -24917.21062865384, -47735.011307598514, -32848.97301780856, -0.012, 1.008, -0.044, 192.0, 0.0, 0.0, 0.0, 0.0, 0.0, 0.0, 0.0, 0.0, 0.0, 1.695760939241052E9, 0.0, 2023-09-26 15:42:19.241
88.0, 12665.861864788756, 36943.58908457626, -44329.85715029921, -45629.275814208486, -24467.381771490785, -26385.429666689597, -187500.02235174447, 5318.754055351503, -12482.80107769979, -33779.47613948299, -45043.81657169063, -40798.125064149506, -20891.03560340829, -24917.12122167602, -47735.59245295435, -32853.57747716636, -0.012, 1.006, -0.05, 192.0, 127.5, 80.0, 15.5, 56.0, 127.0, 56.0, 0.0, 0.0, 0.0, 1.695760939241074E9, 0.0, 2023-09-26 15:42:19.241
90.0, 12677.283606205418, 36956.955427760535, -44334.93099629057, -45627.532378140975, -24469.952222103148, -26387.776599857403, -187500.02235174447, 5379.796669458946, -12474.262711317864, -33786.27106979741, -45050.835019449594, -40801.768398495726, -20890.923844686014, -24931.35928289405, -47746.88008390428, -32861.601753425806, -0.012, 1.006, -0.05, 192.0, 0.0, 0.0, 0.0, 0.0, 0.0, 0.0, 0.0, 0.0, 0.0, 1.69576093930139E9, 0.0, 2023-09-26 15:42:19.301
92.0, 12677.529475394425, 36949.17702069009, -44321.47524612847, -45612.02026748899, -24462.12911154379, -26374.9243467956, -187500.02235174447, 5323.67143913167, -12485.438583545516, -33779.81141564983, -45052.71256598384, -40798.14741589397, -20880.820856192215, -24918.909361232443, -47745.76249668151, -32854.762119622486, -0.012, 1.006, -0.05, 192.0, 0.0, 0.0, 0.0, 0.0, 0.0, 0.0, 0.0, 0.0, 0.0, 1.695760939301434E9, 0.0, 2023-09-26 15:42:19.301
94.0, 12684.726737109035, 36960.97874176249, -44331.44412415554, -45626.5712531294, -24469.684001169684, -26389.967070814022, -187500.02235174447, 5394.63822777727, -12473.882731662123, -33768.43437772207, -45046.38702230299, -40785.809252954634, -20910.727490273417, -24921.479811844805, -47737.604109955326, -32848.83890734183, -0.012, 1.006, -0.05, 192.0, 0.0, 0.0, 0.0, 0.0, 0.0, 0.0, 0.0, 0.0, 0.0, 1.695760939301443E9, 0.0, 2023-09-26 15:42:19.301
96.0, 12677.373013183238, 36949.84757302375, -44326.57144386428, -45623.03967750546, -24454.015428306513, -26378.32181195281, -187500.02235174447, 5326.308944977396, -12492.099403393198, -33779.96787786101, -45054.94774042937, -40802.394247340475, -20911.532153073807, -24905.811238981634, -47746.32129029289, -32854.94093357813, -0.012, 1.006, -0.05, 192.0, 0.0, 0.0, 0.0, 0.0, 0.0, 0.0, 0.0, 0.0, 0.0, 1.695760939301451E9, 0.0, 2023-09-26 15:42:19.301
98.0, 12686.358414454273, 36964.91264878662, -44330.93003403307, -45616.11063672431, -24458.93281208668, -26369.671686848604, -187500.02235174447, 5384.937570683667, -12474.307414806774, -33752.452880436525, -45043.30248156816, -40789.47493904531, -20878.876254424606, -24905.386555836983, -47740.10750533432, -32844.480317173045, -0.01, 1.008, -0.056, 192.0, 127.5, 88.0, 15.5, 64.0, 127.0, 32.0, 0.0, 0.0, 0.0, 1.695760939301461E9, 0.0, 2023-09-26 15:42:19.301
100.0, 12662.59851009828, 36934.00018620493, -44334.908644546114, -45631.17571248719, -24457.994038819557, -26376.60072762975, -187500.02235174447, 5306.259430200986, -12505.309284366285, -33772.50239521294, -45052.44434505038, -40807.915128220935, -20898.098754656166, -24912.31559661813, -47739.30284253393, -32840.59111363782, -0.01, 1.008, -0.056, 192.0, 0.0, 0.0, 0.0, 0.0, 0.0, 0.0, 0.0, 0.0, 0.0, 1.69576093930147E9, 0.0, 2023-09-26 15:42:19.301
102.0, 12669.996937512988, 36944.706671799024, -44348.051470285835, -45636.11544801181, -24464.543099944964, -26377.31598345232, -187500.02235174447, 5369.11253560931, -12463.824446657234, -33790.09321809927, -45063.62021727803, -40813.50306433476, -20890.99089991938, -24925.6819398024, -47747.77415368249, -32849.97884630905, -0.01, 1.008, -0.056, 192.0, 0.0, 0.0, 0.0, 0.0, 0.0, 0.0, 0.0, 0.0, 0.0, 1.695760939301479E9, 0.0, 2023-09-26 15:42:19.301
104.0, 12669.192274712595, 36928.076973924275, -44322.07874322877, -45634.90845381123, -24451.243811994056, -26373.851463061746, -187500.02235174447, 5280.71138628857, -12499.229609874441, -33781.15252031714, -45061.72031899933, -40815.09003819109, -20913.923789730525, -24923.35735837905, -47737.98408961107, -32844.748538106505, -0.01, 1.008, -0.056, 192.0, 0.0, 0.0, 0.0, 0.0, 0.0, 0.0, 0.0, 0.0, 0.0, 1.695760939301561E9, 0.0, 2023-09-26 15:42:19.301
106.0, 12687.677167377135, 36961.8728115407, -44332.42760091157, -45625.498369395544, -24458.50812894203, -26377.159521241134, -187500.02235174447, 5360.752983183024, -12474.799153184791, -33771.40715973463, -45050.231522349306, -40802.19308164038, -20886.028812650304, -24913.947273963367, -47735.39128725425, -32844.748538106505, -0.01, 1.008, -0.056, 192.0, 0.0, 0.0, 0.0, 0.0, 0.0, 0.0, 0.0, 0.0, 0.0, 1.695760939361523E9, 0.0, 2023-09-26 15:42:19.361
108.0, 12675.875446304733, 36939.141087429656, -44333.70165034552, -45624.76076182852, -24459.245736509056, -26370.766922326915, -187500.02235174447, 5276.0398716974105, -12470.641728716104, -33771.9212498571, -45047.12462987001, -40801.92486070691, -20892.197894119967, -24914.282550130196, -47737.29118553295, -32840.18878223762, -0.012, 1.012, -0.056, 192.0, 127.5, 80.0, 15.5, 80.0, 127.0, 32.0, 0.0, 0.0, 0.0, 1.695760939361546E9, 0.0, 2023-09-26 15:42:19.361
110.0, 12690.739356367512, 36962.11868072971, -44330.77357182188, -45632.40505843223, -24461.615021421316, -26387.88835857968, -187500.02235174447, 5349.331241766363, -12477.95074915299, -33785.75697967494, -45048.756307215255, -40805.34467760858, -20904.46900182593, -24919.31169263264, -47740.73335417907, -32846.715491618575, -0.012, 1.012, -0.056, 192.0, 0.0, 0.0, 0.0, 0.0, 0.0, 0.0, 0.0, 0.0, 0.0, 1.695760939361556E9, 0.0, 2023-09-26 15:42:19.361
112.0, 12677.194199227597, 36942.98558747597, -44329.61128111021, -45617.98818325856, -24452.584916661373, -26378.612384630727, -187500.02235174447, 5290.680264315637, -12476.050850874288, -33767.20503177703, -45048.97982465981, -40804.85293923056, -20832.250515490832, -24912.87439022951, -47740.174560567684, -32849.30829397539, -0.012, 1.012, -0.056, 192.0, 0.0, 0.0, 0.0, 0.0, 0.0, 0.0, 0.0, 0.0, 0.0, 1.695760939361565E9, 0.0, 2023-09-26 15:42:19.361
114.0, 12680.70342310708, 36953.960294003526, -44315.35086814772, -45616.42356114669, -24451.400274205243, -26376.712486352026, -187500.02235174447, 5355.410916258206, -12486.399708557095, -33767.98734283297, -45045.35884205805, -40794.39232282547, -20918.595304321683, -24916.964759464834, -47725.93649934966, -32840.345244448814, -0.012, 1.012, -0.056, 192.0, 0.0, 0.0, 0.0, 0.0, 0.0, 0.0, 0.0, 0.0, 0.0, 1.695760939361573E9, 0.0, 2023-09-26 15:42:19.361
116.0, 12664.386649654705, 36941.868000253206, -44323.55395836281, -45614.54601461244, -24451.914364327713, -26381.40635268764, -187500.02235174447, 5291.797851538402, -12501.71065350898, -33790.98728787748, -45049.33745257109, -40799.42146532792, -20916.605999065163, -24920.965721722332, -47725.82474062738, -32838.15477349219, -0.012, 1.012, -0.056, 192.0, 0.0, 0.0, 0.0, 0.0, 0.0, 0.0, 0.0, 0.0, 0.0, 1.695760939361582E9, 0.0, 2023-09-26 15:42:19.361
118.0, 12676.545998638392, 36959.72704407299, -44320.33530716125, -45617.65290709173, -24455.043608551456, -26381.98749804348, -187500.02235174447, 5339.496474206027, -12530.678514323059, -33781.80072090634, -45054.4336503069, -40801.969564195824, -20894.27660635431, -24928.654721814957, -47733.67020293119, -32846.64843638521, -0.012, 1.012, -0.048, 192.0, 127.5, 80.0, 15.5, 80.0, 127.0, 64.0, 0.0, 0.0, 0.0, 1.695760939361591E9, 0.0, 2023-09-26 15:42:19.361
120.0, 12685.017309786954, 36955.72608181549, -44306.83485351025, -45607.63932557575, -24446.482890425075, -26378.858253819737, -187500.02235174447, 5315.490700661028, -12453.90027211908, -33791.36726753322, -45034.406487274944, -40795.64402051497, -20887.57108301772, -24933.907381761957, -47728.46224647311, -32841.12755550475, -0.012, 1.012, -0.048, 192.0, 0.0, 0.0, 0.0, 0.0, 0.0, 0.0, 0.0, 0.0, 0.0, 1.695760939420366E9, 0.0, 2023-09-26 15:42:19.420
122.0, 12687.096022021296, 36961.13520397368, -44298.76587376188, -45601.04556096144, -24443.93479155717, -26374.03027701739, -187500.02235174447, 5333.595613669827, -12456.515426220349, -33764.03108406438, -45025.398734259456, -40784.848127943056, -20882.78780970428, -24899.999785423253, -47718.67218240168, -32829.05761349888, -0.012, 1.012, -0.048, 192.0, 0.0, 0.0, 0.0, 0.0, 0.0, 0.0, 0.0, 0.0, 0.0, 1.695760939420391E9, 0.0, 2023-09-26 15:42:19.420
124.0, 12671.27098694694, 36946.40540437763, -44315.84260652574, -45619.485750137064, -24453.434282950675, -26387.37426845721, -187500.02235174447, 5317.48000591755, -12474.285063062318, -33775.2740115254, -45042.20724608985, -40793.989991425275, -20883.99480390487, -24911.108602417542, -47725.377705738276, -32838.26653221447, -0.012, 1.012, -0.048, 192.0, 0.0, 0.0, 0.0, 0.0, 0.0, 0.0, 0.0, 0.0, 0.0, 1.695760939420402E9, 0.0, 2023-09-26 15:42:19.420
126.0, 12671.762725324956, 36949.31113115682, -44312.02045822388, -45611.729694811074, -24455.26712599601, -26390.816437103327, -187500.02235174447, 5330.444017701629, -12487.606702757681, -33782.78419766238, -45046.364670558534, -40794.86170945904, -20872.03662062128, -24920.272817644218, -47731.367973252294, -32840.05467177089, -0.012, 1.012, -0.048, 192.0, 0.0, 0.0, 0.0, 0.0, 0.0, 0.0, 0.0, 0.0, 0.0, 1.695760939420439E9, 0.0, 2023-09-26 15:42:19.420
128.0, 12673.439106159105, 36949.15466894563, -44317.29546991533, -45611.50617736652, -24454.574221917897, -26381.249890476454, -187500.02235174447, 5340.792875384435, -12503.610551787682, -33786.4722354975, -45052.26553109474, -40795.64402051497, -20887.973414417913, -24930.77813753821, -47741.582720468374, -32847.006064296496, -0.01, 1.01, -0.046, 192.0, 127.5, 88.0, 15.5, 72.0, 127.0, 72.0, 0.0, 0.0, 0.0, 1.695760939420448E9, 0.0, 2023-09-26 15:42:19.420
130.0, 12675.540170137903, 36949.31113115682, -44302.34215287473, -45612.33319191136, -24444.404178190733, -26371.817454316315, -187500.02235174447, 5314.686037860637, -12469.926472893534, -33801.537311260385, -45032.66305120743, -40794.88406120349, -20853.909355868025, -24925.614884569037, -47724.05895281541, -32830.64458735521, -0.01, 1.01, -0.046, 192.0, 0.0, 0.0, 0.0, 0.0, 0.0, 0.0, 0.0, 0.0, 0.0, 1.695760939420457E9, 0.0, 2023-09-26 15:42:19.420
132.0, 12674.444934659594, 36955.39080564866, -44304.219699408975, -45600.50911909451, -24448.58395440387, -26371.68334384958, -187500.02235174447, 5342.603366685315, -12476.117906107655, -33776.68217142608, -45037.31221405414, -40783.01528489772, -20906.48065882691, -24916.60713155355, -47722.427275470174, -32828.945854776604, -0.01, 1.01, -0.046, 192.0, 0.0, 0.0, 0.0, 0.0, 0.0, 0.0, 0.0, 0.0, 0.0, 1.695760939420466E9, 0.0, 2023-09-26 15:42:19.420
134.0, 12653.367239638239, 36939.3199013853, -44325.09622873023, -45616.02122974649, -24464.476044711595, -26386.32373646781, -187500.02235174447, 5323.7608461094915, -12541.854386550713, -33789.243851809966, -45057.987577675296, -40790.32430533461, -20899.4845628124, -24929.012349726243, -47731.47973197457, -32837.52892464744, -0.01, 1.01, -0.046, 192.0, 0.0, 0.0, 0.0, 0.0, 0.0, 0.0, 0.0, 0.0, 0.0, 1.695760939420475E9, 0.0, 2023-09-26 15:42:19.420
136.0, 12679.943463795598, 36962.74452957446, -44294.94372546002, -45608.82396803188, -24447.041684036456, -26377.65125961915, -187500.02235174447, 5352.1699133121865, -12465.903158891579, -33780.19139530556, -45038.69802221037, -40779.59546799606, -20882.18431260399, -24928.07357645912, -47730.16097905171, -32837.68538685863, -0.01, 1.01, -0.046, 192.0, 0.0, 0.0, 0.0, 0.0, 0.0, 0.0, 0.0, 0.0, 0.0, 1.695760939480744E9, 0.0, 2023-09-26 15:42:19.480
138.0, 12662.93378626511, 36942.918532242606, -44304.59967906472, -45613.1155029673, -24447.578125903383, -26382.36747769922, -187500.02235174447, 5302.57139236586, -12470.641728716104, -33795.50234025745, -45040.39675478897, -40799.62263102802, -20866.962774629927, -24931.35928289405, -47721.35439173632, -32840.568761893366, -0.006, 1.006, -0.042, 192.0, 127.5, 104.0, 15.5, 56.0, 127.0, 88.0, 0.0, 0.0, 0.0, 1.695760939480777E9, 0.0, 2023-09-26 15:42:19.480
140.0, 12663.827856043323, 36944.77372703239, -44311.126388445664, -45614.99304950155, -24450.729721871583, -26386.301384723352, -187500.02235174447, 5361.445887261139, -12484.52216202285, -33799.05626762584, -45048.84571419308, -40792.85005245806, -20875.41173403403, -24926.352492136062, -47721.98024058107, -32838.87002931476, -0.006, 1.006, -0.042, 192.0, 0.0, 0.0, 0.0, 0.0, 0.0, 0.0, 0.0, 0.0, 0.0, 1.695760939480787E9, 0.0, 2023-09-26 15:42:19.480
142.0, 12660.45274263057, 36934.35781411622, -44297.20125165001, -45601.71611329509, -24445.387654946764, -26369.872852548702, -187500.02235174447, 5301.409101654184, -12520.217897917975, -33816.08829690079, -45057.272321852724, -40804.65177353046, -20889.35922257414, -24936.924867263424, -47718.381609723765, -32827.09065998682, -0.006, 1.006, -0.042, 192.0, 0.0, 0.0, 0.0, 0.0, 0.0, 0.0, 0.0, 0.0, 0.0, 1.695760939480796E9, 0.0, 2023-09-26 15:42:19.480
144.0, 12670.443972402094, 36952.66389282512, -44314.501501858416, -45618.47992163657, -24458.910460342224, -26381.629870132194, -187500.02235174447, 5374.342843811852, -12477.257845074875, -33815.55185503386, -45049.96330141584, -40798.90737520545, -20866.091056596168, -24941.149346965474, -47731.524435463485, -32832.61154086728, -0.006, 1.006, -0.042, 192.0, 0.0, 0.0, 0.0, 0.0, 0.0, 0.0, 0.0, 0.0, 0.0, 1.695760939480804E9, 0.0, 2023-09-26 15:42:19.480
146.0, 12662.50910312046, 36940.661006052615, -44303.638554053134, -45613.27196517849, -24448.31573347041, -26377.248928218953, -187500.02235174447, 5295.731758562536, -12497.732042995936, -33791.41197102213, -45048.57749325961, -40799.242651372275, -20886.833475450694, -24925.480774102303, -47733.0667058309, -32834.71260484608, -0.006, 1.006, -0.042, 192.0, 0.0, 0.0, 0.0, 0.0, 0.0, 0.0, 0.0, 0.0, 0.0, 1.695760939480813E9, 0.0, 2023-09-26 15:42:19.480
148.0, 12683.78796384191, 36961.11285222922, -44304.37616162016, -45615.79771230194, -24450.26033523802, -26387.061344034835, -187500.02235174447, 5368.151410597731, -12503.588200043227, -33790.24968031045, -45049.85154269356, -40793.520604791716, -20874.875292167104, -24933.616809084037, -47731.70324941912, -32838.22182872556, -0.008, 1.01, -0.04, 192.0, 127.5, 96.0, 15.5, 72.0, 127.0, 96.0, 0.0, 0.0, 0.0, 1.695760939480851E9, 0.0, 2023-09-26 15:42:19.480
150.0, 12664.27489093243, 36932.480267581974, -44309.38295237815, -45616.624726846785, -24449.746245115548, -26378.210053230534, -187500.02235174447, 5289.137993948221, -12492.814659215768, -33813.58490152179, -45052.26553109474, -40807.95983170984, -20880.619690492116, -24934.0861957176, -47732.418505241694, -32838.93708454813, -0.008, 1.01, -0.04, 192.0, 0.0, 0.0, 0.0, 0.0, 0.0, 0.0, 0.0, 0.0, 0.0, 1.695760939541068E9, 0.0, 2023-09-26 15:42:19.541
152.0, 12677.976510283532, 36955.16728820411, -44299.63759179564, -45610.88032852177, -24451.869660838805, -26380.69109686507, -187500.02235174447, 5373.962864156111, -12509.511412323882, -33791.41197102213, -45043.59305424608, -40789.27377334521, -20891.683803997494, -24923.02208221222, -47724.327173748876, -32829.571703621354, -0.008, 1.01, -0.04, 192.0, 0.0, 0.0, 0.0, 0.0, 0.0, 0.0, 0.0, 0.0, 0.0, 1.695760939541094E9, 0.0, 2023-09-26 15:42:19.541
154.0, 12669.79577181289, 36935.36364261671, -44304.59967906472, -45614.47895937908, -24449.388617204266, -26379.55115789785, -187500.02235174447, 5298.481023130539, -12505.309284366285, -33802.63254673869, -45051.63968224999, -40801.52252930672, -20885.51472252783, -24934.443823628884, -47729.51277846251, -32836.94777929161, -0.008, 1.01, -0.04, 192.0, 0.0, 0.0, 0.0, 0.0, 0.0, 0.0, 0.0, 0.0, 0.0, 1.695760939541103E9, 0.0, 2023-09-26 15:42:19.541
156.0, 12684.190295242108, 36959.83880279527, -44303.303277886305, -45608.086360464855, -24449.522727670996, -26370.90103279365, -187500.02235174447, 5377.449736291139, -12486.511467279372, -33787.12043608671, -45043.83892343508, -40790.21254661233, -20879.792675947272, -24931.918076505433, -47726.562348194406, -32831.02456701095, -0.008, 1.01, -0.04, 192.0, 0.0, 0.0, 0.0, 0.0, 0.0, 0.0, 0.0, 0.0, 0.0, 1.695760939541112E9, 0.0, 2023-09-26 15:42:19.541
158.0, 12672.969719525543, 36937.665872295605, -44308.53358608885, -45618.97166001459, -24450.685018382672, -26383.865044577724, -187500.02235174447, 5318.418779184673, -12510.42783384655, -33793.490683256474, -45055.26066485175, -40800.583756039596, -20867.65567870804, -24927.11245144754, -47734.98895585406, -32834.53379089043, -0.008, 1.01, -0.036000000000000004, 192.0, 127.5, 96.0, 15.5, 72.0, 127.0, 112.0, 0.0, 0.0, 0.0, 1.69576093954112E9, 0.0, 2023-09-26 15:42:19.541
160.0, 12692.996882557498, 36966.63373310968, -44284.61721952167, -45600.77734002797, -24442.50427991203, -26368.41998915911, -187500.02235174447, 5379.796669458946, -12481.75054571039, -33785.91344188612, -45037.7816006877, -40784.33403782058, -20887.906359184548, -24928.78883228169, -47724.70715340461, -32828.320005931855, -0.008, 1.01, -0.036000000000000004, 192.0, 0.0, 0.0, 0.0, 0.0, 0.0, 0.0, 0.0, 0.0, 0.0, 1.695760939541129E9, 0.0, 2023-09-26 15:42:19.541
162.0, 12673.50616139247, 36938.93992172956, -44297.33536211674, -45610.12036921029, -24443.398349690244, -26369.47052114851, -187500.02235174447, 5311.221517470064, -12492.188810371019, -33794.183587334584, -45040.26264432224, -40796.1804623819, -20887.436972550986, -24932.610980583548, -47725.645926671736, -32827.35888092028, -0.008, 1.01, -0.036000000000000004, 192.0, 0.0, 0.0, 0.0, 0.0, 0.0, 0.0, 0.0, 0.0, 0.0, 1.695760939541138E9, 0.0, 2023-09-26 15:42:19.541
164.0, 12678.781173083922, 36952.775651547396, -44294.87667022666, -45610.20977618811, -24444.11360551281, -26370.386942671175, -187500.02235174447, 5363.368137284296, -12487.986682413422, -33786.49458724196, -45038.58626348809, -40789.89962218996, -20869.980260131393, -24913.187314651885, -47721.48850220305, -32819.53577036092, -0.008, 1.01, -0.036000000000000004, 192.0, 0.0, 0.0, 0.0, 0.0, 0.0, 0.0, 0.0, 0.0, 0.0, 1.695760939541146E9, 0.0, 2023-09-26 15:42:19.541
166.0, 12669.50519913497, 36937.040023450856, -44297.782397005845, -45617.384686158264, -24450.372093960297, -26383.64152713317, -187500.02235174447, 5334.512035192494, -12493.552266782794, -33793.26716581192, -45042.877798423506, -40799.82379672811, -20842.30880049572, -24924.340835135084, -47736.95590936612, -32832.388023422725, -0.008, 1.01, -0.036000000000000004, 192.0, 0.0, 0.0, 0.0, 0.0, 0.0, 0.0, 0.0, 0.0, 0.0, 1.695760939601355E9, 0.0, 2023-09-26 15:42:19.601
168.0, 12675.98720502701, 36951.1216224577, -44294.04965568181, -45608.17576744268, -24448.15927125922, -26376.39956192965, -187500.02235174447, 5370.654805976726, -12525.850537520711, -33788.50624424294, -45045.15767635795, -40797.275697860205, -20910.839248995693, -24935.382596896005, -47732.82083664189, -32832.9021135452, -0.01, 1.006, -0.038, 192.0, 127.5, 88.0, 15.5, 56.0, 127.0, 104.0, 0.0, 0.0, 0.0, 1.695760939601377E9, 0.0, 2023-09-26 15:42:19.601
170.0, 12677.864751561256, 36945.93601774407, -44287.791167234325, -45602.61018307331, -24439.062111265914, -26377.561852641327, -187500.02235174447, 5352.482837734561, -12461.253996044874, -33791.948412889054, -45035.881702408995, -40794.97346818131, -20868.08036185269, -24928.02887297021, -47732.284394774964, -32828.83409605433, -0.01, 1.006, -0.038, 192.0, 0.0, 0.0, 0.0, 0.0, 0.0, 0.0, 0.0, 0.0, 0.0, 1.695760939601428E9, 0.0, 2023-09-26 15:42:19.601
172.0, 12669.41579215715, 36944.34904388774, -44279.09633864121, -45607.37110464229, -24438.190393232155, -26367.92825078109, -187500.02235174447, 5355.545026724938, -12486.243246345908, -33786.44988375305, -45034.987632630786, -40795.28639260369, -20899.350452345665, -24927.537134592192, -47721.0638190584, -32819.26754942746, -0.01, 1.006, -0.038, 192.0, 0.0, 0.0, 0.0, 0.0, 0.0, 0.0, 0.0, 0.0, 0.0, 1.695760939601437E9, 0.0, 2023-09-26 15:42:19.601
174.0, 12667.35943166726, 36941.868000253206, -44289.24403062392, -45613.69664832314, -24437.095157753847, -26374.11968399521, -187500.02235174447, 5336.970727082578, -12489.32778708074, -33791.389619277674, -45045.87293218052, -40801.92486070691, -20880.642042236574, -24926.64306481398, -47728.46224647311, -32822.933235518125, -0.01, 1.006, -0.038, 192.0, 0.0, 0.0, 0.0, 0.0, 0.0, 0.0, 0.0, 0.0, 0.0, 1.695760939601447E9, 0.0, 2023-09-26 15:42:19.601
176.0, 12658.821065285334, 36940.34808163024, -44298.29648712832, -45621.69857283814, -24450.148576515745, -26389.676498136105, -187500.02235174447, 5344.033878330455, -12498.08967090722, -33795.2788228129, -45047.30344382566, -40811.491407333786, -20880.396173047564, -24935.94139050739, -47730.317441262894, -32828.02943325394, -0.01, 1.006, -0.038, 192.0, 0.0, 0.0, 0.0, 0.0, 0.0, 0.0, 0.0, 0.0, 0.0, 1.695760939601461E9, 0.0, 2023-09-26 15:42:19.601
178.0, 12657.547015851382, 36931.9661774595, -44302.83389125275, -45625.81129381792, -24444.44888167964, -26398.684251151593, -187500.02235174447, 5350.828808644868, -12507.723272767458, -33797.80456993634, -45062.25676086626, -40817.07934344761, -20893.024908664815, -24943.40687315546, -47742.92382513569, -32843.31802646137, -0.016, 1.014, -0.038, 192.0, 127.5, 64.0, 15.5, 88.0, 127.0, 104.0, 0.0, 0.0, 0.0, 1.69576093960147E9, 0.0, 2023-09-26 15:42:19.601
180.0, 12656.630594328713, 36930.87094198119, -44288.64053352363, -45614.523662867985, -24444.851213079837, -26384.714410867025, -187500.02235174447, 5342.2457387740305, -12489.059566147276, -33805.717087473524, -45054.634816007, -40823.89662550648, -20853.954059356936, -24951.65466685947, -47733.7149064201, -32838.51240140347, -0.016, 1.014, -0.038, 192.0, 0.0, 0.0, 0.0, 0.0, 0.0, 0.0, 0.0, 0.0, 0.0, 1.695760939660658E9, 0.0, 2023-09-26 15:42:19.660
182.0, 12662.285585675907, 36932.68143328207, -44282.22558286495, -45606.1641104417, -24430.277875694977, -26383.41800968862, -187500.02235174447, 5369.1348873537645, -12494.736909238925, -33783.16417731812, -45052.22082760582, -40810.48557883329, -20892.08613539769, -24932.923905005922, -47725.578871438374, -32829.63875885472, -0.016, 1.014, -0.038, 192.0, 0.0, 0.0, 0.0, 0.0, 0.0, 0.0, 0.0, 0.0, 0.0, 1.695760939660694E9, 0.0, 2023-09-26 15:42:19.660
184.0, 12649.276870402917, 36921.55026454333, -44301.269269140874, -45623.55376762793, -24447.80164334794, -26390.65997489214, -187500.02235174447, 5355.388564513751, -12523.86123226419, -33799.41389553713, -45065.14013590099, -40822.62257607253, -20855.988068102368, -24941.50697487676, -47733.02200234199, -32840.03232002644, -0.016, 1.014, -0.038, 192.0, 0.0, 0.0, 0.0, 0.0, 0.0, 0.0, 0.0, 0.0, 0.0, 1.695760939660706E9, 0.0, 2023-09-26 15:42:19.660
186.0, 12671.18157996912, 36944.103174698736, -44280.83977470872, -45604.97946798557, -24436.916343798202, -26389.005945802444, -187500.02235174447, 5404.1153674263205, -12489.126621380643, -33778.58206970478, -45058.456964308854, -40814.79946551317, -20898.255216867354, -24937.0366259857, -47738.90051113373, -32842.714529361074, -0.016, 1.014, -0.038, 192.0, 0.0, 0.0, 0.0, 0.0, 0.0, 0.0, 0.0, 0.0, 0.0, 1.695760939660717E9, 0.0, 2023-09-26 15:42:19.660
188.0, 12668.946405523588, 36932.07793618178, -44266.892286168615, -45596.17288067018, -24429.49556463904, -26377.31598345232, -187500.02235174447, 5331.203977013109, -12482.622263744148, -33779.25262203844, -45035.97110938682, -40802.0813229181, -20885.47001903892, -24926.97834098081, -47720.77324638048, -32826.576569864344, -0.02, 1.01, -0.04, 192.0, 127.5, 48.0, 15.5, 72.0, 127.0, 96.0, 0.0, 0.0, 0.0, 1.695760939660726E9, 0.0, 2023-09-26 15:42:19.660
190.0, 12668.454667145572, 36940.459840352516, -44281.219754364465, -45608.75691279852, -24440.02323627749, -26390.481160936495, -187500.02235174447, 5382.389471815762, -12466.193731569498, -33785.242889552464, -45028.90795813894, -40795.398151325964, -20870.673164209507, -24923.044433956675, -47722.44962721463, -32826.46481114207, -0.02, 1.01, -0.04, 192.0, 0.0, 0.0, 0.0, 0.0, 0.0, 0.0, 0.0, 0.0, 0.0, 1.695760939660769E9, 0.0, 2023-09-26 15:42:19.660
192.0, 12640.35852436525, 36922.64550002164, -44280.459795052986, -45600.889098750245, -24445.052378779936, -26385.787294600883, -187500.02235174447, 5330.466369446083, -12521.313133396285, -33798.16219784763, -45054.701871240366, -40814.978279468814, -20885.984109161393, -24945.060902245154, -47733.49138897555, -32831.49395364451, -0.02, 1.01, -0.04, 192.0, 0.0, 0.0, 0.0, 0.0, 0.0, 0.0, 0.0, 0.0, 0.0, 1.695760939660778E9, 0.0, 2023-09-26 15:42:19.660
194.0, 12643.107788933254, 36941.64448280865, -44274.87185893916, -45602.990162729046, -24442.347817700844, -26384.915576567124, -187500.02235174447, 5389.430271319184, -12475.827333429736, -33781.64425869516, -45037.44632452087, -40800.293183361675, -20872.908338655037, -24935.896687018478, -47724.8636156158, -32825.05665124138, -0.02, 1.01, -0.04, 192.0, 0.0, 0.0, 0.0, 0.0, 0.0, 0.0, 0.0, 0.0, 0.0, 1.695760939660789E9, 0.0, 2023-09-26 15:42:19.660
196.0, 12630.032018426899, 36928.926340213584, -44284.84073696622, -45602.140796439744, -24447.265201481012, -26380.89226256517, -187500.02235174447, 5328.566471167383, -12501.397729086606, -33795.90467165764, -45047.19168510338, -40810.440875344386, -20878.585681746685, -24933.348588150573, -47732.35145000833, -32831.2480844555, -0.02, 1.01, -0.04, 192.0, 0.0, 0.0, 0.0, 0.0, 0.0, 0.0, 0.0, 0.0, 0.0, 1.69576093972042E9, 0.0, 2023-09-26 15:42:19.720
198.0, 12635.709361518546, 36943.83495376527, -44293.58026904825, -45613.67429657868, -24450.439149193666, -26385.340259711775, -187500.02235174447, 5405.300009882451, -12487.249074846397, -33777.97857260449, -45041.67080422292, -40795.10757864804, -20880.195007347465, -24919.155230421453, -47729.78099939597, -32830.35401467729, -0.018000000000000002, 1.012, -0.044, 192.0, 127.5, 56.0, 15.5, 80.0, 127.0, 80.0, 0.0, 0.0, 0.0, 1.695760939720442E9, 0.0, 2023-09-26 15:42:19.720
200.0, 12627.59567828127, 36923.964252944505, -44289.86987946867, -45610.09801746583, -24454.238945751065, -26392.381059215197, -187500.02235174447, 5337.998907327522, -12548.738723842946, -33801.26909032692, -45064.000196933775, -40816.788770769694, -20895.818876721725, -24932.78979453919, -47743.66143270271, -32846.2014014961, -0.018000000000000002, 1.012, -0.044, 192.0, 0.0, 0.0, 0.0, 0.0, 0.0, 0.0, 0.0, 0.0, 0.0, 1.695760939720452E9, 0.0, 2023-09-26 15:42:19.720
202.0, 12640.582041809803, 36939.85634325223, -44281.286809597834, -45602.990162729046, -24452.31669572791, -26382.926271310604, -187500.02235174447, 5394.772338244002, -12474.285063062318, -33796.016430379925, -45037.692193709874, -40800.3825903395, -20874.160036344532, -24925.190201424386, -47729.73629590706, -32834.22086646806, -0.018000000000000002, 1.012, -0.044, 192.0, 0.0, 0.0, 0.0, 0.0, 0.0, 0.0, 0.0, 0.0, 0.0, 1.695760939720461E9, 0.0, 2023-09-26 15:42:19.720
204.0, 12628.623858526214, 36921.88554071016, -44278.224620607456, -45605.158281941214, -24449.768596860005, -26388.089524279778, -187500.02235174447, 5328.9240990786675, -12503.23057213194, -33789.579127976795, -45044.04008913518, -40807.289279376186, -20884.687707982983, -24932.78979453919, -47728.12697030628, -32833.997349023506, -0.018000000000000002, 1.012, -0.044, 192.0, 0.0, 0.0, 0.0, 0.0, 0.0, 0.0, 0.0, 0.0, 0.0, 1.69576093972047E9, 0.0, 2023-09-26 15:42:19.720
206.0, 12628.914431204134, 36935.54245657235, -44280.012760163874, -45599.16801442719, -24452.808434105926, -26374.946698540058, -187500.02235174447, 5394.325303354896, -12512.23832514743, -33786.69575294206, -45050.92442642742, -40809.36799161053, -20883.056030637745, -24930.59932358257, -47726.5176447055, -32828.45411639859, -0.018000000000000002, 1.012, -0.044, 192.0, 0.0, 0.0, 0.0, 0.0, 0.0, 0.0, 0.0, 0.0, 0.0, 1.695760939720481E9, 0.0, 2023-09-26 15:42:19.720
208.0, 12629.808500982344, 36929.0157471914, -44282.896135198615, -45606.78995928645, -24457.144672530256, -26379.662916620127, -187500.02235174447, 5347.274881276475, -12517.490985094428, -33797.31283155833, -45057.04880440817, -40817.05699170315, -20885.738239972383, -24924.02791071271, -47736.2183017991, -32832.9021135452, -0.008, 1.012, -0.046, 192.0, 127.5, 96.0, 15.5, 80.0, 127.0, 72.0, 0.0, 0.0, 0.0, 1.695760939720492E9, 0.0, 2023-09-26 15:42:19.720
210.0, 12640.82791099881, 36946.65127356664, -44287.634705023134, -45604.532433096465, -24462.84436736636, -26377.986535785978, -187500.02235174447, 5395.599352788849, -12506.270409377863, -33795.77056119091, -45047.0352228922, -40815.961756224846, -20860.726637926895, -24922.239771156284, -47739.280490789475, -32835.383157179735, -0.008, 1.012, -0.046, 192.0, 0.0, 0.0, 0.0, 0.0, 0.0, 0.0, 0.0, 0.0, 0.0, 1.69576093978082E9, 0.0, 2023-09-26 15:42:19.780
212.0, 12642.638402299692, 36936.86120949521, -44281.5997340202, -45600.889098750245, -24456.921155085704, -26387.88835857968, -187500.02235174447, 5358.316643037396, -12517.535688583337, -33790.31673554382, -45047.61636824803, -40805.70230551986, -20899.819838979227, -24922.820916512122, -47743.124990835786, -32836.83602056933, -0.008, 1.012, -0.046, 192.0, 0.0, 0.0, 0.0, 0.0, 0.0, 0.0, 0.0, 0.0, 0.0, 1.695760939780888E9, 0.0, 2023-09-26 15:42:19.780
214.0, 12646.840530257288, 36946.56186658882, -44270.78148970383, -45598.54216558244, -24445.3205997134, -26380.646393376162, -187500.02235174447, 5382.389471815762, -12472.809847928269, -33775.40812199213, -45029.51145523923, -40800.427293828405, -20896.824705222214, -24908.44874482736, -47730.36214475181, -32830.130497232734, -0.008, 1.012, -0.046, 192.0, 0.0, 0.0, 0.0, 0.0, 0.0, 0.0, 0.0, 0.0, 0.0, 1.695760939780899E9, 0.0, 2023-09-26 15:42:19.780
216.0, 12638.860957486744, 36934.82720074978, -44287.47824281195, -45601.35848538381, -24449.41096894872, -26382.009849787933, -187500.02235174447, 5343.63154693026, -12486.556170768283, -33774.35759000273, -45033.646527963465, -40803.713000263335, -20874.919995656015, -24914.818991997123, -47729.60218544033, -32827.98472976503, -0.008, 1.012, -0.046, 192.0, 0.0, 0.0, 0.0, 0.0, 0.0, 0.0, 0.0, 0.0, 0.0, 1.695760939780919E9, 0.0, 2023-09-26 15:42:19.780
218.0, 12648.069876202331, 36946.11483169971, -44274.26836183886, -45599.570345827386, -24444.35947470182, -26377.181872985588, -187500.02235174447, 5368.0173001309995, -12496.167420884065, -33778.09033132676, -45038.4298012769, -40807.89277647648, -20864.3252687842, -24922.59739906757, -47732.35145000833, -32831.672767600154, -0.018000000000000002, 1.014, -0.044, 192.0, 127.5, 56.0, 15.5, 88.0, 127.0, 80.0, 0.0, 0.0, 0.0, 1.695760939780928E9, 0.0, 2023-09-26 15:42:19.780
220.0, 12632.066027172332, 36932.86024723772, -44304.7561412759, -45613.42842738968, -24453.143710272758, -26390.011774302933, -187500.02235174447, 5354.025108101977, -12507.253886133896, -33791.2778605554, -45046.1858566029, -40809.233881143795, -20926.61958058114, -24936.388425396493, -47727.50112146153, -32836.76896533596, -0.018000000000000002, 1.014, -0.044, 192.0, 0.0, 0.0, 0.0, 0.0, 0.0, 0.0, 0.0, 0.0, 0.0, 1.695760939780937E9, 0.0, 2023-09-26 15:42:19.780
222.0, 12646.482902346004, 36944.103174698736, -44286.27124861137, -45611.237956433055, -24443.286590967964, -26384.133265511187, -187500.02235174447, 5367.68202396417, -12487.00320565739, -33772.7706161464, -45041.24612107827, -40807.69161077638, -20902.814972736236, -24913.679053029904, -47725.15418829372, -32839.40647118169, -0.018000000000000002, 1.014, -0.044, 192.0, 0.0, 0.0, 0.0, 0.0, 0.0, 0.0, 0.0, 0.0, 0.0, 1.695760939780994E9, 0.0, 2023-09-26 15:42:19.780
224.0, 12655.088323961298, 36945.10900319922, -44294.072007426264, -45604.800654029925, -24439.464442666107, -26383.820341088813, -187500.02235174447, 5358.383698270763, -12478.46483927546, -33794.25064256795, -45034.45119076386, -40805.97052645332, -20883.905396927046, -24925.816050269135, -47719.63330741326, -32839.2500089705, -0.018000000000000002, 1.014, -0.044, 192.0, 0.0, 0.0, 0.0, 0.0, 0.0, 0.0, 0.0, 0.0, 0.0, 1.695760939781003E9, 0.0, 2023-09-26 15:42:19.781
226.0, 12653.009611726953, 36946.49481135545, -44301.559841818795, -45612.69081982265, -24438.413910676707, -26385.966108556524, -187500.02235174447, 5344.413857986196, -12464.51735073535, -33767.003866076935, -45020.81662664612, -40788.759683222735, -20894.14249588758, -24906.37003259302, -47710.87142358678, -32831.35984317778, -0.018000000000000002, 1.014, -0.044, 192.0, 0.0, 0.0, 0.0, 0.0, 0.0, 0.0, 0.0, 0.0, 0.0, 1.695760939841133E9, 0.0, 2023-09-26 15:42:19.841
228.0, 12650.640326814691, 36947.83591602277, -44309.98644947844, -45614.18838670116, -24442.45957642312, -26389.497684180464, -187500.02235174447, 5381.607160759826, -12491.562961526271, -33780.79489240586, -45037.5804349876, -40797.633325771494, -20910.794545506782, -24922.88797174549, -47719.94623183564, -32834.01970076796, -0.016, 1.01, -0.042, 192.0, 127.5, 64.0, 15.5, 72.0, 127.0, 88.0, 0.0, 0.0, 0.0, 1.695760939841155E9, 0.0, 2023-09-26 15:42:19.841
230.0, 12644.940631978588, 36941.46566885301, -44310.61229832319, -45603.30308715142, -24435.03879726396, -26371.370419427207, -187500.02235174447, 5347.140770809743, -12474.352118295685, -33776.972744104, -45037.692193709874, -40799.62263102802, -20905.787754748795, -24921.45746010035, -47718.42631321267, -32832.07509900035, -0.016, 1.01, -0.042, 192.0, 0.0, 0.0, 0.0, 0.0, 0.0, 0.0, 0.0, 0.0, 0.0, 1.695760939841166E9, 0.0, 2023-09-26 15:42:19.841
232.0, 12654.12719894972, 36949.042910223354, -44316.89313851514, -45615.03775299046, -24435.239962964057, -26379.3276404533, -187500.02235174447, 5387.709186996125, -12472.876903161634, -33758.8678310952, -45031.120780840014, -40787.17270936641, -20900.959777946446, -24911.242712884276, -47712.12312127628, -32825.324872174846, -0.016, 1.01, -0.042, 192.0, 0.0, 0.0, 0.0, 0.0, 0.0, 0.0, 0.0, 0.0, 0.0, 1.695760939841177E9, 0.0, 2023-09-26 15:42:19.841
234.0, 12637.408094097149, 36930.110982669714, -44324.1127519742, -45626.683011851674, -24442.83955607886, -26381.60751838774, -187500.02235174447, 5348.258358032508, -12497.173249384554, -33787.81334016482, -45044.04008913518, -40805.21056714184, -20902.56910354723, -24914.260198385742, -47721.510853947504, -32839.02649152595, -0.016, 1.01, -0.042, 192.0, 0.0, 0.0, 0.0, 0.0, 0.0, 0.0, 0.0, 0.0, 0.0, 1.695760939841214E9, 0.0, 2023-09-26 15:42:19.841
236.0, 12662.442047887094, 36950.85340152423, -44314.836778025245, -45619.44104664816, -24433.474175152085, -26373.806759572835, -187500.02235174447, 5396.873402222801, -12470.395859527096, -33781.01840985041, -45035.72524019781, -40797.38745658248, -20907.4864873274, -24905.051279670155, -47713.33011547686, -32830.421069910655, -0.016, 1.01, -0.042, 192.0, 0.0, 0.0, 0.0, 0.0, 0.0, 0.0, 0.0, 0.0, 0.0, 1.695760939841223E9, 0.0, 2023-09-26 15:42:19.841
238.0, 12650.394457625684, 36932.10028792623, -44321.139969961645, -45625.38661067327, -24436.804585075926, -26375.483140406985, -187500.02235174447, 5333.752075881013, -12482.979891655434, -33778.671476682604, -45040.55321700015, -40807.40103809846, -20890.968548174926, -24905.945349448368, -47714.49240618854, -32835.89724730221, -0.012, 1.008, -0.044, 192.0, 127.5, 80.0, 15.5, 64.0, 127.0, 80.0, 0.0, 0.0, 0.0, 1.695760939841233E9, 0.0, 2023-09-26 15:42:19.841
240.0, 12664.565463610348, 36954.36262540372, -44325.78913280835, -45616.02122974649, -24437.45278566513, -26380.668745120616, -187500.02235174447, 5398.169803401209, -12468.674775204037, -33754.4645374375, -45032.35012678506, -40784.35638956504, -20889.895664441072, -24895.998823165755, -47710.71496137559, -32830.622235610754, -0.012, 1.008, -0.044, 192.0, 0.0, 0.0, 0.0, 0.0, 0.0, 0.0, 0.0, 0.0, 0.0, 1.695760939901255E9, 0.0, 2023-09-26 15:42:19.901
242.0, 12659.64807983018, 36942.762070031415, -44319.48594087195, -45611.28265992197, -24433.07184375189, -26363.949640268045, -187500.02235174447, 5321.771540852969, -12507.365644856172, -33778.40325574914, -45043.235426334795, -40795.040523414675, -20896.578836033208, -24907.55467504915, -47715.76645562249, -32838.959436292585, -0.012, 1.008, -0.044, 192.0, 0.0, 0.0, 0.0, 0.0, 0.0, 0.0, 0.0, 0.0, 0.0, 1.695760939901281E9, 0.0, 2023-09-26 15:42:19.901
244.0, 12662.106771720264, 36949.55700034583, -44328.1137142317, -45630.058125264426, -24445.56646890241, -26384.60265214475, -187500.02235174447, 5421.013286234533, -12455.978984353422, -33775.0728458253, -45032.886568651986, -40785.764549465726, -20902.36793784713, -24903.86663721402, -47709.30680147491, -32833.639721112224, -0.012, 1.008, -0.044, 192.0, 0.0, 0.0, 0.0, 0.0, 0.0, 0.0, 0.0, 0.0, 0.0, 1.695760939901291E9, 0.0, 2023-09-26 15:42:19.901
246.0, 12655.289489661394, 36937.375299617685, -44317.76485654889, -45615.66360183521, -24438.12333799879, -26372.64446886116, -187500.02235174447, 5346.20199754262, -12471.580501983226, -33783.65591569614, -45044.46477227983, -40808.31745962113, -20886.56525451723, -24907.7781924937, -47723.65662141522, -32847.900134074705, -0.012, 1.008, -0.044, 192.0, 0.0, 0.0, 0.0, 0.0, 0.0, 0.0, 0.0, 0.0, 0.0, 1.695760939901301E9, 0.0, 2023-09-26 15:42:19.901
248.0, 12662.665565331647, 36954.519087614906, -44317.34017340424, -45623.03967750546, -24440.470271166596, -26374.812588073324, -187500.02235174447, 5405.367065115817, -12478.75541195338, -33774.06701732481, -45035.38996403098, -40796.806311226646, -20895.260083110345, -24904.11250640303, -47715.05119979992, -32831.046918755404, -0.008, 1.01, -0.046, 192.0, 127.5, 96.0, 15.5, 72.0, 127.0, 72.0, 0.0, 0.0, 0.0, 1.695760939901309E9, 0.0, 2023-09-26 15:42:19.901
250.0, 12641.140835421185, 36926.86997972369, -44337.277929458374, -45637.680070123686, -24442.101948511834, -26385.049687033857, -187500.02235174447, 5338.58005268336, -12471.267577560851, -33786.51693898642, -45040.7320309558, -40808.13864566549, -20894.32130984322, -24915.087212930586, -47721.42144696968, -32846.11199451828, -0.008, 1.01, -0.046, 192.0, 0.0, 0.0, 0.0, 0.0, 0.0, 0.0, 0.0, 0.0, 0.0, 1.695760939901319E9, 0.0, 2023-09-26 15:42:19.901
252.0, 12656.831760028812, 36939.16343917411, -44318.457760627, -45639.065878279915, -24437.899820554238, -26381.384000943184, -187500.02235174447, 5402.8860214812785, -12510.405482102095, -33834.05909944286, -45058.30050209767, -40821.8849685055, -20902.792620991782, -24922.038605456186, -47726.67410691668, -32848.7047968751, -0.008, 1.01, -0.046, 192.0, 0.0, 0.0, 0.0, 0.0, 0.0, 0.0, 0.0, 0.0, 0.0, 1.695760939901328E9, 0.0, 2023-09-26 15:42:19.901
254.0, 12649.813312269845, 36935.83302925027, -44319.64240308314, -45621.74327632705, -24440.78319558897, -26381.94279455457, -187500.02235174447, 5345.799666142424, -12483.829257944735, -33776.05632258133, -45033.020679118716, -40804.1823868969, -20923.490336357398, -24886.991070150267, -47715.94526957814, -32840.23348572654, -0.008, 1.01, -0.046, 192.0, 0.0, 0.0, 0.0, 0.0, 0.0, 0.0, 0.0, 0.0, 0.0, 1.695760939901337E9, 0.0, 2023-09-26 15:42:19.901
0.0, 12654.708344305558, 36934.715442027504, -44329.56657762129, -45655.69557615466, -24442.571335145396, -26388.581262657794, -187500.02235174447, 5397.16397490072, -12467.8924641481, -33779.386732505176, -45037.89335940997, -40808.94330846588, -20871.120199098612, -24926.17367818042, -47723.477807459574, -32843.40743343919, -0.008, 1.01, -0.046, 192.0, 0.0, 0.0, 0.0, 0.0, 0.0, 0.0, 0.0, 0.0, 0.0, 1.695760939960658E9, 0.0, 2023-09-26 15:42:19.960
2.0, 12646.617012812736, 36919.1139243977, -44340.67539461558, -45661.23880877958, -24446.75111135854, -26402.171123286622, -187500.02235174447, 5343.475084719073, -12495.206295872485, -33839.84820125678, -45051.86319969454, -40839.296977436185, -20903.038490180792, -24899.26217785623, -47730.83153138537, -32866.6085441838, -0.016, 1.014, -0.05, 192.0, 127.5, 64.0, 15.5, 88.0, 127.0, 56.0, 0.0, 0.0, 0.0, 1.695760939960705E9, 0.0, 2023-09-26 15:42:19.960
4.0, 12655.758876294956, 36938.76110777391, -44334.75218233492, -45656.187314532675, -24451.13205327178, -26396.002041816955, -187500.02235174447, 5408.138681428276, -12477.190789841508, -33805.515921773425, -45052.75726947276, -40830.758611054254, -20898.210513378446, -24858.62670643648, -47738.721697178094, -32865.80388138341, -0.016, 1.014, -0.05, 192.0, 0.0, 0.0, 0.0, 0.0, 0.0, 0.0, 0.0, 0.0, 0.0, 1.695760939960719E9, 0.0, 2023-09-26 15:42:19.960
6.0, 12662.732620565013, 36945.131354943675, -44320.87174902818, -45635.69076486716, -24433.74239608555, -26376.667782863115, -187500.02235174447, 5359.076602348877, -12481.370566054651, -33791.814302422325, -45036.77577218721, -40822.98020398381, -20921.85865901216, -24906.101811659555, -47716.81698761189, -32851.69993063211, -0.016, 1.014, -0.05, 192.0, 0.0, 0.0, 0.0, 0.0, 0.0, 0.0, 0.0, 0.0, 0.0, 1.695760939960729E9, 0.0, 2023-09-26 15:42:19.960
8.0, 12670.801600313378, 36955.18963994856, -44321.38583915065, -45622.12325598279, -24438.30215195443, -26370.766922326915, -187500.02235174447, 5397.253381878541, -12466.908987392068, -33739.242999463444, -45035.23350181979, -40793.431197813894, -20900.51274305734, -24866.136892573464, -47718.806292868416, -32842.446308427614, -0.016, 1.014, -0.05, 192.0, 0.0, 0.0, 0.0, 0.0, 0.0, 0.0, 0.0, 0.0, 0.0, 1.695760939960738E9, 0.0, 2023-09-26 15:42:19.960
10.0, 12675.674280604635, 36953.06622422531, -44329.99126076594, -45615.10480822383, -24437.206916476123, -26380.489931164975, -187500.02235174447, 5377.2932740799515, -12462.148065823087, -33765.61805792071, -45033.87004540802, -40796.40397982645, -20865.062876351225, -24885.135875360476, -47722.13670279225, -32836.81366882487, -0.016, 1.014, -0.05, 192.0, 0.0, 0.0, 0.0, 0.0, 0.0, 0.0, 0.0, 0.0, 0.0, 1.695760939960746E9, 0.0, 2023-09-26 15:42:19.960
12.0, 12668.097039234286, 36947.92532300059, -44329.588929365746, -45633.679107866184, -24442.548983400942, -26390.771733614416, -187500.02235174447, 5388.603256774337, -12443.238490013897, -33778.78323540488, -45029.1314755835, -40801.32136360662, -20897.04822266677, -24897.49639004426, -47719.58860392435, -32843.765061350474, -0.016, 1.016, -0.05, 192.0, 127.5, 64.0, 15.5, 96.0, 127.0, 56.0, 0.0, 0.0, 0.0, 1.695760939960755E9, 0.0, 2023-09-26 15:42:19.960
14.0, 12645.745294778979, 36921.371450587685, -44362.378938481685, -45679.388425277284, -24463.693733655662, -26422.13123108521, -187500.02235174447, 5364.39631752924, -12514.585258315237, -33832.561532564345, -45067.08473766861, -40835.675994834426, -20881.469056781418, -24910.01336693923, -47743.884950147265, -32865.13332904975, -0.016, 1.016, -0.05, 192.0, 0.0, 0.0, 0.0, 0.0, 0.0, 0.0, 0.0, 0.0, 0.0, 1.695760940020567E9, 0.0, 2023-09-26 15:42:20.020
16.0, 12670.533379379915, 36947.947674745046, -44317.563690848794, -45634.55082589994, -24439.889125810758, -26380.646393376162, -187500.02235174447, 5394.012378932522, -12440.310411490253, -33770.691903912055, -45037.82630417661, -40820.901491749464, -20921.366920634144, -24836.92316257038, -47726.830569127866, -32860.752387136505, -0.016, 1.016, -0.05, 192.0, 0.0, 0.0, 0.0, 0.0, 0.0, 0.0, 0.0, 0.0, 0.0, 1.69576094002064E9, 0.0, 2023-09-26 15:42:20.020
18.0, 12674.489638148503, 36953.15563120313, -44335.5121416464, -45637.098924767844, -24439.73266359957, -26404.473352965517, -187500.02235174447, 5398.661541779225, -12518.943848484023, -33897.448646718105, -45055.12655438502, -40835.586587856604, -20907.75470826086, -24829.167107244386, -47732.46320873061, -32866.67559941716, -0.016, 1.016, -0.05, 192.0, 0.0, 0.0, 0.0, 0.0, 0.0, 0.0, 0.0, 0.0, 0.0, 1.695760940020651E9, 0.0, 2023-09-26 15:42:20.020
20.0, 12663.693745576591, 36945.60074157724, -44332.047621255835, -45611.08149422187, -24439.844422321847, -26380.378172442695, -187500.02235174447, 5367.614968730804, -12450.547510450782, -33681.843719702214, -45027.94683312736, -40769.71599694681, -20875.970527645415, -24898.50221854475, -47721.510853947504, -32838.35593919229, -0.016, 1.016, -0.05, 192.0, 0.0, 0.0, 0.0, 0.0, 0.0, 0.0, 0.0, 0.0, 0.0, 1.695760940020695E9, 0.0, 2023-09-26 15:42:20.020
22.0, 12672.70149859208, 36957.76009056093, -44335.44508641304, -45635.847227078346, -24446.84051833636, -26407.759059400447, -187500.02235174447, 5404.83062324889, -12440.913908590544, -33797.826921680804, -45030.38317327299, -40806.84224448708, -20851.74123665586, -24902.21260812433, -47730.69742091864, -32857.84666035732, -0.012, 1.01, -0.05, 192.0, 127.5, 80.0, 15.5, 72.0, 127.0, 56.0, 0.0, 0.0, 0.0, 1.695760940020704E9, 0.0, 2023-09-26 15:42:20.020
24.0, 12673.014423014454, 36946.047776466345, -44316.33434490375, -45623.93374728367, -24433.07184375189, -26382.725105610505, -187500.02235174447, 5363.1446198397425, -12477.70487996398, -33752.184659503066, -45047.52696127021, -40810.68674453339, -20876.395210790066, -24889.44976204035, -47737.0676680884, -32852.01285505448, -0.012, 1.01, -0.05, 192.0, 0.0, 0.0, 0.0, 0.0, 0.0, 0.0, 0.0, 0.0, 0.0, 1.695760940020714E9, 0.0, 2023-09-26 15:42:20.020
26.0, 12679.630539373225, 36945.846610766246, -44335.66860385759, -45640.116410269315, -24434.994093775047, -26397.946643584568, -187500.02235174447, 5399.823832490902, -12443.46200745845, -33790.294383799366, -45022.15773131344, -40806.05993343114, -20887.034641150793, -24886.231110838788, -47714.38064746626, -32844.770889850966, -0.012, 1.01, -0.05, 192.0, 0.0, 0.0, 0.0, 0.0, 0.0, 0.0, 0.0, 0.0, 0.0, 1.695760940020723E9, 0.0, 2023-09-26 15:42:20.020
28.0, 12674.824914315333, 36934.11194492721, -44332.33819393375, -45650.91230284123, -24445.342951457853, -26398.952472085057, -187500.02235174447, 5352.8181139013905, -12500.056624419287, -33807.0805438853, -45047.77283045922, -40827.897587763975, -20889.962719674437, -24904.55954129214, -47731.50208371903, -32863.36754123778, -0.012, 1.01, -0.05, 192.0, 0.0, 0.0, 0.0, 0.0, 0.0, 0.0, 0.0, 0.0, 0.0, 1.695760940020733E9, 0.0, 2023-09-26 15:42:20.020
30.0, 12692.147516268196, 36947.05360496684, -44332.025269511374, -45659.6294831788, -24436.715178098104, -26414.46458273704, -187500.02235174447, 5405.8811552382895, -12437.203519010964, -33790.40614252164, -45027.76801917172, -40814.21832015733, -20902.546751802773, -24865.287526284163, -47721.4661504586, -32863.009913326496, -0.012, 1.01, -0.05, 192.0, 0.0, 0.0, 0.0, 0.0, 0.0, 0.0, 0.0, 0.0, 0.0, 1.695760940080837E9, 0.0, 2023-09-26 15:42:20.080
32.0, 12680.971644040543, 36928.27813962437, -44336.04858351333, -45620.469226893096, -24449.008637548526, -26403.199303531565, -187500.02235174447, 5341.664593418192, -12479.47066777595, -33791.70254370005, -45053.27135959522, -40827.18233194141, -20887.638138251084, -24877.335116545575, -47734.69838317614, -32869.916602363184, -0.012, 1.01, -0.05, 192.0, 127.5, 80.0, 15.5, 72.0, 127.0, 56.0, 0.0, 0.0, 0.0, 1.695760940080873E9, 0.0, 2023-09-26 15:42:20.080
34.0, 12690.091155778307, 36940.28102639688, -44344.38578419516, -45660.277683768, -24453.54604167295, -26416.52094322693, -187500.02235174447, 5429.283431682996, -12449.720495905936, -33840.49640184598, -45041.000251889265, -40819.49333184878, -20852.814120389714, -24891.93080567489, -47729.62453718478, -32855.231506256045, -0.012, 1.01, -0.05, 192.0, 0.0, 0.0, 0.0, 0.0, 0.0, 0.0, 0.0, 0.0, 0.0, 1.695760940080883E9, 0.0, 2023-09-26 15:42:20.080
36.0, 12682.98330104152, 36930.5133140699, -44332.13702823365, -45621.9667937716, -24439.285628710466, -26393.27512899341, -187500.02235174447, 5351.164084811698, -12463.600929212682, -33779.94552611656, -45052.42199330592, -40825.12597145152, -20863.252385050346, -24873.580023477083, -47733.51374072001, -32862.67463715967, -0.012, 1.01, -0.05, 192.0, 0.0, 0.0, 0.0, 0.0, 0.0, 0.0, 0.0, 0.0, 0.0, 1.695760940080892E9, 0.0, 2023-09-26 15:42:20.080
38.0, 12696.953141326088, 36946.51716309991, -44334.30514744582, -45647.00074756155, -24442.526631656485, -26402.349937242263, -187500.02235174447, 5430.557481116949, -12478.04015613081, -33768.1214532997, -45042.609577490046, -40804.495311319275, -20915.91309498705, -24860.034866337166, -47717.64400215674, -32848.86125908628, -0.012, 1.01, -0.05, 192.0, 0.0, 0.0, 0.0, 0.0, 0.0, 0.0, 0.0, 0.0, 0.0, 1.695760940080901E9, 0.0, 2023-09-26 15:42:20.080
40.0, 12695.746147125501, 36927.674642524085, -44328.44899039853, -45632.22624447659, -24438.033931020967, -26398.84071336278, -187500.02235174447, 5342.53631145195, -12461.723382678436, -33812.713183488035, -45046.45407753636, -40827.27173891923, -20866.068704851714, -24854.78220639017, -47725.82474062738, -32856.52790743446, -0.012, 1.01, -0.05, 192.0, 0.0, 0.0, 0.0, 0.0, 0.0, 0.0, 0.0, 0.0, 0.0, 1.69576094008091E9, 0.0, 2023-09-26 15:42:20.080
42.0, 12700.484716950026, 36946.51716309991, -44336.965005036, -45643.13389577078, -24442.928963056682, -26408.809591389847, -187500.02235174447, 5415.067722209421, -12452.9391471075, -33778.26914528241, -45038.16158034344, -40810.17265441092, -20890.81208596374, -24854.290468012154, -47720.326211491374, -32853.353959721804, -0.012, 1.014, -0.054, 192.0, 127.5, 80.0, 15.5, 88.0, 127.0, 40.0, 0.0, 0.0, 0.0, 1.695760940080957E9, 0.0, 2023-09-26 15:42:20.080
44.0, 12693.89095233571, 36926.42294483459, -44338.596682381234, -45635.82487533389, -24447.153442758732, -26413.503457725463, -187500.02235174447, 5348.146599310231, -12497.799098229301, -33787.09808434225, -45058.27815035322, -40821.750858038766, -20885.537074272284, -24832.475165423773, -47728.43989472865, -32860.01477956948, -0.012, 1.014, -0.054, 192.0, 0.0, 0.0, 0.0, 0.0, 0.0, 0.0, 0.0, 0.0, 0.0, 1.695760940141105E9, 0.0, 2023-09-26 15:42:20.141
46.0, 12701.98228382853, 36940.951578730535, -44338.127295747676, -45637.233035234574, -24446.438186936164, -26397.387849973187, -187500.02235174447, 5423.762550802535, -12460.359926266663, -33803.05722988334, -45049.49391478228, -40818.30868939265, -20877.401039290555, -24863.20881404982, -47727.188197039155, -32853.19749751061, -0.012, 1.014, -0.054, 192.0, 0.0, 0.0, 0.0, 0.0, 0.0, 0.0, 0.0, 0.0, 0.0, 1.695760940141128E9, 0.0, 2023-09-26 15:42:20.141
48.0, 12697.869562848755, 36930.08863092525, -44342.12825800518, -45638.015346290515, -24438.615076376806, -26396.69494589507, -187500.02235174447, 5350.292366777941, -12471.222874071942, -33797.64810772516, -45054.65716775145, -40826.869407519036, -20879.099771869158, -24840.499441683227, -47727.90345286173, -32857.198459768115, -0.012, 1.014, -0.054, 192.0, 0.0, 0.0, 0.0, 0.0, 0.0, 0.0, 0.0, 0.0, 0.0, 1.695760940141138E9, 0.0, 2023-09-26 15:42:20.141
50.0, 12705.46915596356, 36944.661968310116, -44332.65111835612, -45624.85016880634, -24441.677265367183, -26390.65997489214, -187500.02235174447, 5394.705283010636, -12466.059621102766, -33774.826976636294, -45041.08965886708, -40802.32719210711, -20867.74508568586, -24827.37896768796, -47716.63817365625, -32841.194610738115, -0.012, 1.014, -0.054, 192.0, 0.0, 0.0, 0.0, 0.0, 0.0, 0.0, 0.0, 0.0, 0.0, 1.695760940141147E9, 0.0, 2023-09-26 15:42:20.141
52.0, 12700.7976413724, 36935.87773273918, -44331.48882764445, -45633.58970088836, -24442.951314801136, -26397.70077439556, -187500.02235174447, 5375.01339614551, -12484.343348067207, -33797.24577632496, -45050.16446711594, -40818.398096370474, -20888.9792429184, -24836.319665470084, -47726.629403427774, -32856.05852080089, -0.008, 1.01, -0.054, 192.0, 127.5, 96.0, 15.5, 72.0, 127.0, 40.0, 0.0, 0.0, 0.0, 1.695760940141156E9, 0.0, 2023-09-26 15:42:20.141
54.0, 12706.072653063853, 36944.103174698736, -44329.63363285466, -45623.017325761, -24438.995056032545, -26396.404373217152, -187500.02235174447, 5394.0794341658875, -12456.89540587609, -33779.34202901626, -45041.24612107827, -40811.42435210042, -20848.70139940994, -24833.123366012976, -47721.48850220305, -32847.11782301877, -0.008, 1.01, -0.054, 192.0, 0.0, 0.0, 0.0, 0.0, 0.0, 0.0, 0.0, 0.0, 0.0, 1.695760940141165E9, 0.0, 2023-09-26 15:42:20.141
56.0, 12703.65866466268, 36932.65908153762, -44322.79399905133, -45621.81033156042, -24433.720044341095, -26386.480198678997, -187500.02235174447, 5363.524599495483, -12456.47072273144, -33798.69863971456, -45038.116876854525, -40811.29024163369, -20874.85294042265, -24835.42559569187, -47725.40005748273, -32847.16252650768, -0.008, 1.01, -0.054, 192.0, 0.0, 0.0, 0.0, 0.0, 0.0, 0.0, 0.0, 0.0, 0.0, 1.695760940141174E9, 0.0, 2023-09-26 15:42:20.141
58.0, 12706.698501908602, 36943.320863642795, -44322.36931590668, -45618.25640419202, -24436.335198442364, -26386.0778672788, -187500.02235174447, 5365.82682917438, -12478.308377064273, -33758.55490667283, -45036.39579253147, -40801.2319566288, -20891.952024930957, -24817.298330938618, -47717.42048471219, -32840.68052061564, -0.008, 1.01, -0.054, 192.0, 0.0, 0.0, 0.0, 0.0, 0.0, 0.0, 0.0, 0.0, 0.0, 1.695760940141183E9, 0.0, 2023-09-26 15:42:20.141
60.0, 12710.654760677191, 36930.0662791808, -44327.53256887586, -45625.07368625089, -24439.464442666107, -26397.298442995365, -187500.02235174447, 5338.982384083555, -12467.020746114344, -33770.96012484552, -45040.17323734442, -40805.07645667511, -20885.04533589427, -24855.676276168382, -47723.410752226206, -32843.74270960602, -0.008, 1.01, -0.054, 192.0, 0.0, 0.0, 0.0, 0.0, 0.0, 0.0, 0.0, 0.0, 0.0, 1.695760940201183E9, 0.0, 2023-09-26 15:42:20.201
62.0, 12706.922019353155, 36929.99922394744, -44334.6627753571, -45630.527511897984, -24449.947410815646, -26404.048669820866, -187500.02235174447, 5350.672346433681, -12447.619431927138, -33787.276898297896, -45036.507551253744, -40812.676049789916, -20852.59060294516, -24876.30693630063, -47728.2163772841, -32853.01868355497, -0.004, 1.008, -0.052000000000000005, 192.0, 127.5, 112.0, 15.5, 64.0, 127.0, 48.0, 0.0, 0.0, 0.0, 1.695760940201206E9, 0.0, 2023-09-26 15:42:20.201
64.0, 12700.350606483295, 36926.333537856764, -44339.937787048555, -45641.39045970327, -24458.306963241932, -26418.75611767246, -187500.02235174447, 5380.221352603598, -12500.168383141565, -33786.69575294206, -45060.24510386528, -40819.04629695968, -20888.107524884646, -24884.867654427013, -47746.65656645973, -32868.44138722913, -0.004, 1.008, -0.052000000000000005, 192.0, 0.0, 0.0, 0.0, 0.0, 0.0, 0.0, 0.0, 0.0, 0.0, 1.695760940201252E9, 0.0, 2023-09-26 15:42:20.201
66.0, 12696.930789581633, 36928.300491368835, -44324.67154558558, -45620.29041293746, -24445.588820646863, -26395.845579605768, -187500.02235174447, 5373.404070544729, -12436.912946333045, -33783.25358429594, -45040.24029257778, -40814.50889283525, -20881.98314690389, -24875.658735711426, -47732.23969128606, -32857.3549219793, -0.004, 1.008, -0.052000000000000005, 192.0, 0.0, 0.0, 0.0, 0.0, 0.0, 0.0, 0.0, 0.0, 0.0, 1.695760940201261E9, 0.0, 2023-09-26 15:42:20.201
68.0, 12688.772402855446, 36927.40642159062, -44335.64625211314, -45626.79477057395, -24450.327390471386, -26403.199303531565, -187500.02235174447, 5391.374873086796, -12458.772952410336, -33774.04466558035, -45046.47642928081, -40804.137683407986, -20876.350507301155, -24883.325384059597, -47732.284394774964, -32852.90692483269, -0.004, 1.008, -0.052000000000000005, 192.0, 0.0, 0.0, 0.0, 0.0, 0.0, 0.0, 0.0, 0.0, 0.0, 1.69576094020127E9, 0.0, 2023-09-26 15:42:20.201
70.0, 12680.211684729062, 36922.712555255006, -44341.50240916043, -45633.56734914391, -24458.776349875494, -26414.106954825755, -187500.02235174447, 5378.634378747271, -12482.37639455514, -33776.72687491499, -45061.29563585468, -40818.30868939265, -20880.17265560301, -24889.092134129067, -47744.801371669935, -32866.630895928254, -0.004, 1.008, -0.052000000000000005, 192.0, 0.0, 0.0, 0.0, 0.0, 0.0, 0.0, 0.0, 0.0, 0.0, 1.695760940201279E9, 0.0, 2023-09-26 15:42:20.201
72.0, 12688.012443543965, 36929.23926463595, -44332.13702823365, -45639.04352653546, -24445.521765413498, -26413.41405074764, -187500.02235174447, 5415.715922798625, -12455.397838997584, -33779.49849122745, -45048.51043802624, -40809.90443347746, -20874.2270915779, -24896.579968521593, -47740.97922336808, -32864.060445315896, -0.01, 1.006, -0.056, 192.0, 127.5, 88.0, 15.5, 56.0, 127.0, 32.0, 0.0, 0.0, 0.0, 1.695760940201288E9, 0.0, 2023-09-26 15:42:20.201
74.0, 12665.325422921827, 36907.669831236584, -44341.3682986937, -45631.48863690956, -24448.919230570704, -26403.154600042653, -187500.02235174447, 5357.757849426013, -12475.246188073897, -33792.61896522271, -45059.61925502053, -40826.22120692983, -20869.376763031098, -24907.26410237123, -47736.73239192157, -32861.02060806997, -0.01, 1.006, -0.056, 192.0, 0.0, 0.0, 0.0, 0.0, 0.0, 0.0, 0.0, 0.0, 0.0, 1.695760940260826E9, 0.0, 2023-09-26 15:42:20.260
76.0, 12667.001803755977, 36922.556093043815, -44339.803676581825, -45633.79086658846, -24448.919230570704, -26404.093373309777, -187500.02235174447, 5413.279582652996, -12496.793269728812, -33776.838633637264, -45069.54342955869, -40818.465151603836, -20875.590547989672, -24902.726698246803, -47739.8169326564, -32857.86901210177, -0.01, 1.006, -0.056, 192.0, 0.0, 0.0, 0.0, 0.0, 0.0, 0.0, 0.0, 0.0, 0.0, 1.695760940260856E9, 0.0, 2023-09-26 15:42:20.260
78.0, 12654.373068138728, 36904.71940096848, -44340.1166010042, -45626.12421824029, -24451.0202945495, -26401.52292269742, -187500.02235174447, 5339.049439316922, -12533.271316679873, -33788.70740994304, -45082.105109942575, -40832.390288399496, -20887.52637952881, -24884.97941314929, -47741.76153442401, -32858.83013711335, -0.01, 1.006, -0.056, 192.0, 0.0, 0.0, 0.0, 0.0, 0.0, 0.0, 0.0, 0.0, 0.0, 1.695760940260866E9, 0.0, 2023-09-26 15:42:20.260
80.0, 12681.910417307667, 36935.1177734277, -44332.98639452296, -45616.64707859124, -24447.019332292002, -26397.276091250907, -187500.02235174447, 5405.210602904631, -12439.773969623324, -33767.696770155046, -45052.64551075047, -40808.69743927687, -20847.628515676086, -24898.74808773376, -47734.36310700931, -32849.509459675486, -0.01, 1.006, -0.056, 192.0, 0.0, 0.0, 0.0, 0.0, 0.0, 0.0, 0.0, 0.0, 0.0, 1.695760940260875E9, 0.0, 2023-09-26 15:42:20.260
82.0, 12669.102867734775, 36911.60373826072, -44325.83383629726, -45617.29527918044, -24443.778329345983, -26393.789219115883, -187500.02235174447, 5333.193282269631, -12468.138333337109, -33795.68115421309, -45061.51915329923, -40821.63909931649, -20895.461248810443, -24907.39821283796, -47734.69838317614, -32852.32577947686, -0.008, 1.008, -0.052000000000000005, 192.0, 127.5, 96.0, 15.5, 64.0, 127.0, 48.0, 0.0, 0.0, 0.0, 1.695760940260884E9, 0.0, 2023-09-26 15:42:20.260
84.0, 12676.568350382848, 36929.0157471914, -44327.46551364249, -45625.67718335118, -24446.684056125174, -26400.47239070802, -187500.02235174447, 5414.196004175664, -12467.311318792263, -33770.96012484552, -45055.99827241877, -40810.95496546686, -20881.35729805914, -24904.000747680755, -47731.815008141406, -32846.06729102937, -0.008, 1.008, -0.052000000000000005, 192.0, 0.0, 0.0, 0.0, 0.0, 0.0, 0.0, 0.0, 0.0, 0.0, 1.695760940260894E9, 0.0, 2023-09-26 15:42:20.260
86.0, 12660.318632163839, 36907.55807251431, -44321.45289438402, -45611.796750044436, -24438.704483354628, -26400.159466285644, -187500.02235174447, 5328.72293337857, -12472.720440950447, -33782.00188660644, -45056.7358799858, -40822.399058627976, -20878.876254424606, -24902.793753480168, -47726.58469993886, -32849.30829397539, -0.008, 1.008, -0.052000000000000005, 192.0, 0.0, 0.0, 0.0, 0.0, 0.0, 0.0, 0.0, 0.0, 0.0, 1.695760940260954E9, 0.0, 2023-09-26 15:42:20.260
88.0, 12677.015385271954, 36936.92826472858, -44321.63170833966, -45614.34484891234, -24441.78902408946, -26398.75130638496, -187500.02235174447, 5405.9929139605665, -12474.12860085113, -33769.95429634504, -45055.81945846313, -40806.41756134243, -20875.99287938987, -24904.827762225603, -47722.33786849235, -32843.54154390592, -0.008, 1.008, -0.052000000000000005, 192.0, 0.0, 0.0, 0.0, 0.0, 0.0, 0.0, 0.0, 0.0, 0.0, 1.695760940261055E9, 0.0, 2023-09-26 15:42:20.261
90.0, 12661.41386764215, 36915.26942435139, -44333.38872592315, -45621.07272399339, -24452.629620150285, -26412.40822224715, -187500.02235174447, 5356.483799992061, -12481.079993376732, -33776.05632258133, -45061.51915329923, -40815.671183546925, -20875.03175437829, -24927.246561914275, -47733.84901688684, -32851.49876493201, -0.008, 1.008, -0.052000000000000005, 192.0, 0.0, 0.0, 0.0, 0.0, 0.0, 0.0, 0.0, 0.0, 0.0, 1.695760940320497E9, 0.0, 2023-09-26 15:42:20.320
92.0, 12670.823952057834, 36931.1168111702, -44327.10788573121, -45622.74910482754, -24448.494547426053, -26405.725050655015, -187500.02235174447, 5423.539033357983, -12498.447298818506, -33786.092255841766, -45068.49289756929, -40817.59343357008, -20872.193082832466, -24921.524515333716, -47738.386421011266, -32857.10905279029, -0.012, 1.01, -0.054, 192.0, 127.5, 80.0, 15.5, 72.0, 127.0, 40.0, 0.0, 0.0, 0.0, 1.69576094032052E9, 0.0, 2023-09-26 15:42:20.320
94.0, 12671.472152647037, 36915.716459240495, -44309.606469822706, -45608.48869186505, -24440.962009544615, -26397.343146484276, -187500.02235174447, 5344.592671941838, -12469.70295544898, -33775.83280513678, -45048.465734537334, -40810.21735789983, -20886.542902772773, -24905.74418374827, -47721.19792952513, -32844.39091019522, -0.012, 1.01, -0.054, 192.0, 0.0, 0.0, 0.0, 0.0, 0.0, 0.0, 0.0, 0.0, 0.0, 1.695760940320531E9, 0.0, 2023-09-26 15:42:20.320
96.0, 12673.729678837024, 36922.578444788276, -44321.207025195006, -45625.140741484254, -24445.812338091415, -26408.787239645393, -187500.02235174447, 5389.8549544638345, -12475.492057262905, -33772.815319635316, -45052.98078691731, -40810.79850325567, -20877.959832901935, -24910.974491950812, -47725.847092371834, -32848.235410241534, -0.012, 1.01, -0.054, 192.0, 0.0, 0.0, 0.0, 0.0, 0.0, 0.0, 0.0, 0.0, 0.0, 1.69576094032054E9, 0.0, 2023-09-26 15:42:20.320
98.0, 12685.062013275865, 36922.980776188466, -44310.232318667455, -45609.82979653237, -24439.73266359957, -26408.384908245196, -187500.02235174447, 5341.530482951461, -12454.36965875264, -33774.0223138359, -45046.54348451418, -40816.40879111395, -20860.100789082146, -24923.69263454588, -47728.03756332846, -32858.76308187999, -0.012, 1.01, -0.054, 192.0, 0.0, 0.0, 0.0, 0.0, 0.0, 0.0, 0.0, 0.0, 0.0, 1.695760940320549E9, 0.0, 2023-09-26 15:42:20.320
100.0, 12680.926940551632, 36925.03713667836, -44313.026286724365, -45622.48088389407, -24445.387654946764, -26414.576341459317, -187500.02235174447, 5382.143602626754, -12468.18303682602, -33780.05728483883, -45043.883626924, -40804.003572941256, -20874.94234740047, -24913.32142511862, -47726.67410691668, -32853.53277367744, -0.012, 1.01, -0.054, 192.0, 0.0, 0.0, 0.0, 0.0, 0.0, 0.0, 0.0, 0.0, 0.0, 1.695760940320558E9, 0.0, 2023-09-26 15:42:20.320
102.0, 12678.98233878402, 36914.9117964401, -44315.261461169895, -45625.565424628905, -24443.666570623707, -26410.9330071131, -187500.02235174447, 5344.3020992639185, -12483.85160968919, -33787.58982272027, -45055.21596136284, -40820.47680860481, -20882.430181793, -24924.49729734627, -47732.66437443071, -32862.652285415206, -0.01, 1.01, -0.06, 192.0, 127.5, 88.0, 15.5, 72.0, 127.0, 16.0, 0.0, 0.0, 0.0, 1.695760940320567E9, 0.0, 2023-09-26 15:42:20.320
104.0, 12694.203876758085, 36931.854418737224, -44299.704647029, -45611.170901199686, -24442.83955607886, -26394.593881916273, -187500.02235174447, 5382.724747982592, -12469.23356881542, -33779.40908424963, -45039.10035361056, -40810.709096277846, -20869.779094431295, -24909.007538438742, -47727.56817669489, -32848.324817219356, -0.01, 1.01, -0.06, 192.0, 0.0, 0.0, 0.0, 0.0, 0.0, 0.0, 0.0, 0.0, 0.0, 1.695760940380849E9, 0.0, 2023-09-26 15:42:20.380
106.0, 12688.481830177527, 36924.590101789254, -44307.75127503291, -45606.633497075265, -24446.862870080815, -26395.242082505476, -187500.02235174447, 5352.684003434659, -12452.335650007208, -33763.427586964084, -45031.36665002903, -40801.209604884345, -20826.662579377007, -24911.957968706844, -47731.05504882992, -32847.6542648857, -0.01, 1.01, -0.06, 192.0, 0.0, 0.0, 0.0, 0.0, 0.0, 0.0, 0.0, 0.0, 0.0, 1.695760940380913E9, 0.0, 2023-09-26 15:42:20.380
108.0, 12677.909455050167, 36926.42294483459, -44313.92035650258, -45612.266136678, -24447.265201481012, -26397.477256951006, -187500.02235174447, 5348.280709776964, -12476.006147385377, -33764.70163639804, -45039.99442338877, -40801.209604884345, -20871.209606076434, -24920.31752113313, -47725.10948480481, -32836.88072405824, -0.01, 1.01, -0.06, 192.0, 0.0, 0.0, 0.0, 0.0, 0.0, 0.0, 0.0, 0.0, 0.0, 1.695760940380924E9, 0.0, 2023-09-26 15:42:20.380
110.0, 12686.134897009719, 36929.44043033605, -44296.48599582744, -45613.36137215631, -24438.570372887894, -26402.171123286622, -187500.02235174447, 5355.500323236028, -12470.507618249372, -33779.386732505176, -45045.24708333577, -40813.61482305704, -20879.14447535807, -24928.230038670306, -47730.965641852104, -32848.101299774804, -0.01, 1.01, -0.06, 192.0, 0.0, 0.0, 0.0, 0.0, 0.0, 0.0, 0.0, 0.0, 0.0, 1.695760940380933E9, 0.0, 2023-09-26 15:42:20.380
112.0, 12671.114524735753, 36917.6163575192, -44305.896080243125, -45615.06010473491, -24446.460538680618, -26411.42474549112, -187500.02235174447, 5343.989174841545, -12469.770010682347, -33766.10979629872, -45034.80881867514, -40808.56332881014, -20883.883045182592, -24919.781079266202, -47723.45545571512, -32843.496840417014, -0.014, 1.01, -0.062, 192.0, 127.5, 72.0, 15.5, 72.0, 127.0, 8.0, 0.0, 0.0, 0.0, 1.695760940380942E9, 0.0, 2023-09-26 15:42:20.380
114.0, 12675.249597459984, 36922.578444788276, -44317.34017340424, -45622.41382866071, -24457.725817886094, -26429.686120711103, -187500.02235174447, 5392.11248065382, -12472.832199672725, -33787.723933187, -45049.73978397129, -40816.14057018048, -20885.201798105456, -24923.44676535687, -47738.63229020027, -32861.57940168135, -0.014, 1.01, -0.062, 192.0, 0.0, 0.0, 0.0, 0.0, 0.0, 0.0, 0.0, 0.0, 0.0, 1.695760940380952E9, 0.0, 2023-09-26 15:42:20.380
116.0, 12668.924053779132, 36915.69410749604, -44306.23135640995, -45610.07566572138, -24451.355570716332, -26408.630777434206, -187500.02235174447, 5360.0377273604545, -12452.067429073744, -33781.28663078387, -45044.5318275132, -40821.2367679163, -20878.853902680148, -24939.629428342516, -47742.34267977985, -32857.623142912766, -0.014, 1.01, -0.062, 192.0, 0.0, 0.0, 0.0, 0.0, 0.0, 0.0, 0.0, 0.0, 0.0, 1.69576094038096E9, 0.0, 2023-09-26 15:42:20.380
118.0, 12664.207835699062, 36920.63384302066, -44319.41888563858, -45619.418694903696, -24452.0708265389, -26410.843600135282, -187500.02235174447, 5392.626570776292, -12469.501789748883, -33782.35951451773, -45047.705775225855, -40814.59829981307, -20871.053143865247, -24930.085233460097, -47740.06280184541, -32851.677578887655, -0.014, 1.01, -0.062, 192.0, 0.0, 0.0, 0.0, 0.0, 0.0, 0.0, 0.0, 0.0, 0.0, 1.695760940380969E9, 0.0, 2023-09-26 15:42:20.380
120.0, 12657.45760887356, 36908.74271497044, -44309.67352505607, -45612.24378493355, -24449.45567243763, -26403.489876209485, -187500.02235174447, 5345.754962653514, -12476.810810185769, -33779.63260169418, -45052.667862494935, -40825.818875529636, -20867.253347307844, -24916.495372831272, -47740.196912312145, -32849.5541631644, -0.014, 1.01, -0.062, 192.0, 0.0, 0.0, 0.0, 0.0, 0.0, 0.0, 0.0, 0.0, 0.0, 1.695760940441173E9, 0.0, 2023-09-26 15:42:20.441
122.0, 12671.69567009159, 36927.98756694646, -44307.706571544004, -45602.07374120638, -24443.286590967964, -26405.233312277, -187500.02235174447, 5412.631382063792, -12467.065449603255, -33784.84055815227, -45049.87389443802, -40815.09003819109, -20871.343716543164, -24924.78787002419, -47733.80431339792, -32841.73105260504, -0.014, 1.008, -0.058, 192.0, 127.5, 72.0, 15.5, 64.0, 127.0, 24.0, 0.0, 0.0, 0.0, 1.695760940441195E9, 0.0, 2023-09-26 15:42:20.441
124.0, 12655.624765828225, 36904.92056666858, -44303.28092614185, -45608.376933142776, -24447.60047764784, -26407.04380357788, -187500.02235174447, 5341.888110862746, -12476.475534018939, -33762.309999741316, -45049.56097001564, -40812.02784920071, -20852.635306434073, -24915.511896075237, -47729.848054629336, -32841.28401771594, -0.014, 1.008, -0.058, 192.0, 0.0, 0.0, 0.0, 0.0, 0.0, 0.0, 0.0, 0.0, 0.0, 1.695760940441205E9, 0.0, 2023-09-26 15:42:20.441
126.0, 12663.000841498477, 36919.94093894255, -44311.43931286804, -45613.607241345315, -24458.016390564015, -26416.65505369366, -187500.02235174447, 5431.585661361893, -12478.353080553185, -33791.41197102213, -45050.58915026059, -40809.859729988544, -20890.253292352354, -24924.050262457164, -47730.56331045191, -32847.38604395223, -0.014, 1.008, -0.058, 192.0, 0.0, 0.0, 0.0, 0.0, 0.0, 0.0, 0.0, 0.0, 0.0, 1.695760940441214E9, 0.0, 2023-09-26 15:42:20.441
128.0, 12656.809408284356, 36901.92543291157, -44311.260498912394, -45606.07470346388, -24447.93575381467, -26403.75809714295, -187500.02235174447, 5356.841427903346, -12487.986682413422, -33782.024238350896, -45064.58134228961, -40826.66824181894, -20892.980205175903, -24935.248486429275, -47745.091944347856, -32857.24316325702, -0.014, 1.008, -0.058, 192.0, 0.0, 0.0, 0.0, 0.0, 0.0, 0.0, 0.0, 0.0, 0.0, 1.695760940441255E9, 0.0, 2023-09-26 15:42:20.441
130.0, 12671.69567009159, 36922.66785176609, -44309.025324466864, -45619.753971070524, -24451.802605605437, -26409.0331088344, -187500.02235174447, 5433.060876495943, -12487.964330668967, -33770.89306961215, -45048.64454849298, -40811.44670384487, -20873.400077033053, -24908.873427972012, -47738.27466228899, -32847.4530991856, -0.014, 1.008, -0.058, 192.0, 0.0, 0.0, 0.0, 0.0, 0.0, 0.0, 0.0, 0.0, 0.0, 1.695760940441265E9, 0.0, 2023-09-26 15:42:20.441
132.0, 12663.783152554412, 36899.60085148822, -44317.29546991533, -45620.02219200399, -24456.004733563037, -26412.698794925072, -187500.02235174447, 5363.099916350832, -12495.005130172389, -33777.97857260449, -45054.38894681799, -40824.25425341776, -20837.279657993276, -24936.41077714095, -47744.48844724756, -32854.35978822229, -0.01, 1.004, -0.054, 192.0, 127.5, 88.0, 15.5, 48.0, 127.0, 40.0, 0.0, 0.0, 0.0, 1.69576094044128E9, 0.0, 2023-09-26 15:42:20.441
134.0, 12672.36622242525, 36916.74463948544, -44301.64924879662, -45619.284584436966, -24449.388617204266, -26410.57537920182, -187500.02235174447, 5418.219318177619, -12479.358909053673, -33785.35464827474, -45049.940949671385, -40818.62161381503, -20894.924806943513, -24941.372864410027, -47740.68865069016, -32849.5541631644, -0.01, 1.004, -0.054, 192.0, 0.0, 0.0, 0.0, 0.0, 0.0, 0.0, 0.0, 0.0, 0.0, 1.695760940500674E9, 0.0, 2023-09-26 15:42:20.500
136.0, 12674.109658492764, 36909.72619172647, -44297.40241735011, -45592.39543585723, -24451.31086722742, -26396.851408106257, -187500.02235174447, 5353.443962746139, -12483.985720155923, -33777.73270341548, -45042.11783911203, -40815.42531435792, -20890.096830141167, -24917.903532731954, -47734.85484538732, -32844.949703806604, -0.01, 1.004, -0.054, 192.0, 0.0, 0.0, 0.0, 0.0, 0.0, 0.0, 0.0, 0.0, 0.0, 1.695760940500708E9, 0.0, 2023-09-26 15:42:20.500
138.0, 12680.166981240152, 36926.132372156666, -44304.24205115343, -45596.88813649275, -24451.46732943861, -26398.304271495854, -187500.02235174447, 5417.682876310691, -12473.41334502856, -33753.861040337215, -45035.14409484197, -40788.84909020056, -20886.94523417297, -24908.806372738647, -47731.47973197457, -32836.992482780515, -0.01, 1.004, -0.054, 192.0, 0.0, 0.0, 0.0, 0.0, 0.0, 0.0, 0.0, 0.0, 0.0, 1.695760940500724E9, 0.0, 2023-09-26 15:42:20.500
140.0, 12666.577120611326, 36901.813674189296, -44316.379048392664, -45610.23212793257, -24459.782178375983, -26412.117649569234, -187500.02235174447, 5350.649994689226, -12514.652313548602, -33774.15642430263, -45057.67465325292, -40815.02298295772, -20879.03271663579, -24924.005558968256, -47745.60603447033, -32853.06338704388, -0.01, 1.004, -0.054, 192.0, 0.0, 0.0, 0.0, 0.0, 0.0, 0.0, 0.0, 0.0, 0.0, 1.695760940500735E9, 0.0, 2023-09-26 15:42:20.500
142.0, 12685.21847548705, 36924.18777038906, -44288.975809690455, -45603.81717727389, -24446.59464914735, -26404.249835520965, -187500.02235174447, 5426.847091537367, -12452.46976047394, -33772.234174279474, -45032.55129248516, -40809.68091603291, -20878.853902680148, -24924.87727700201, -47732.06087733041, -32841.70870086059, -0.008, 1.004, -0.056, 192.0, 127.5, 96.0, 15.5, 48.0, 127.0, 32.0, 0.0, 0.0, 0.0, 1.695760940500755E9, 0.0, 2023-09-26 15:42:20.500
144.0, 12673.550864881381, 36900.45021777752, -44294.54139405983, -45613.339020411855, -24447.511070670018, -26402.014661075435, -187500.02235174447, 5370.028957131977, -12475.045022373799, -33798.20690133654, -45041.04495537817, -40827.27173891923, -20874.830588678193, -24922.12801243401, -47729.17750229568, -32843.07215727236, -0.008, 1.004, -0.056, 192.0, 0.0, 0.0, 0.0, 0.0, 0.0, 0.0, 0.0, 0.0, 0.0, 1.695760940500765E9, 0.0, 2023-09-26 15:42:20.500
146.0, 12674.13201023722, 36909.770895215384, -44306.81250176579, -45617.00470650253, -24454.060131795424, -26409.27897802341, -187500.02235174447, 5409.435082606684, -12483.024595144343, -33766.62388642119, -45042.877798423506, -40818.62161381503, -20871.03079212079, -24922.284474645196, -47728.2163772841, -32839.94291304862, -0.008, 1.004, -0.056, 192.0, 0.0, 0.0, 0.0, 0.0, 0.0, 0.0, 0.0, 0.0, 0.0, 1.695760940500774E9, 0.0, 2023-09-26 15:42:20.500
148.0, 12672.723850336535, 36904.875863179666, -44307.572461077274, -45608.80161628743, -24462.687905155173, -26406.350899499765, -187500.02235174447, 5379.68491073667, -12534.344200413729, -33782.82890115129, -45061.92148469943, -40832.07736397712, -20895.75182148836, -24912.628521040504, -47744.57785422538, -32855.87970684525, -0.008, 1.004, -0.056, 192.0, 0.0, 0.0, 0.0, 0.0, 0.0, 0.0, 0.0, 0.0, 0.0, 1.695760940500783E9, 0.0, 2023-09-26 15:42:20.500
150.0, 12679.943463795598, 36918.085744152755, -44297.96121096149, -45611.32736341088, -24454.529518428986, -26400.02535581891, -187500.02235174447, 5424.298992669463, -12449.049943572278, -33778.2244417935, -45035.4793710088, -40813.79363701268, -20889.739202229885, -24938.713006819846, -47734.810141898415, -32837.50657290299, -0.008, 1.004, -0.056, 192.0, 0.0, 0.0, 0.0, 0.0, 0.0, 0.0, 0.0, 0.0, 0.0, 1.695760940560965E9, 0.0, 2023-09-26 15:42:20.560
152.0, 12676.255425960473, 36906.619299247184, -44312.98158323546, -45620.02219200399, -24459.826881864894, -26410.75419315746, -187500.02235174447, 5389.8549544638345, -12501.151859897598, -33780.32550577229, -45047.705775225855, -40827.29409066369, -20880.99967014786, -24931.739262549792, -47746.45540075963, -32853.488070188534, -0.014, 1.008, -0.058, 192.0, 127.5, 72.0, 15.5, 64.0, 127.0, 24.0, 0.0, 0.0, 0.0, 1.695760940560997E9, 0.0, 2023-09-26 15:42:20.560
154.0, 12684.883199320222, 36913.30247083932, -44289.82517597976, -45612.64611633374, -24448.762768359516, -26400.919425597123, -187500.02235174447, 5392.939495198667, -12477.123734608143, -33763.53934568636, -45035.99346113127, -40821.41558187194, -20863.02886760579, -24922.9326752344, -47742.61090071331, -32847.22958174105, -0.014, 1.008, -0.058, 192.0, 0.0, 0.0, 0.0, 0.0, 0.0, 0.0, 0.0, 0.0, 0.0, 1.695760940561008E9, 0.0, 2023-09-26 15:42:20.561
156.0, 12675.786039326911, 36907.178092858565, -44311.50636810141, -45618.41286640321, -24458.26225975302, -26411.491800724485, -187500.02235174447, 5393.006550432033, -12468.719478692947, -33761.37122647419, -45034.78646693069, -40815.87234924702, -20892.80139122026, -24923.17854442341, -47731.43502848566, -32844.748538106505, -0.014, 1.008, -0.058, 192.0, 0.0, 0.0, 0.0, 0.0, 0.0, 0.0, 0.0, 0.0, 0.0, 1.695760940561018E9, 0.0, 2023-09-26 15:42:20.561
158.0, 12678.825876572833, 36908.45214229252, -44313.33921114674, -45614.523662867985, -24445.36530320231, -26393.588053415784, -187500.02235174447, 5383.238838105063, -12473.212179328464, -33764.38871197566, -45051.81849620563, -40825.19302668489, -20910.28045538431, -24921.703329289357, -47729.89275811824, -32844.39091019522, -0.014, 1.008, -0.058, 192.0, 0.0, 0.0, 0.0, 0.0, 0.0, 0.0, 0.0, 0.0, 0.0, 1.695760940561027E9, 0.0, 2023-09-26 15:42:20.561
160.0, 12679.116449250752, 36905.501712024416, -44334.416906168095, -45633.85792182183, -24448.248678237043, -26416.14096357119, -187500.02235174447, 5405.300009882451, -12467.80305717028, -33774.0223138359, -45049.24804559327, -40823.40488712846, -20906.592417549185, -24924.050262457164, -47728.529301706476, -32843.563895650375, -0.014, 1.008, -0.058, 192.0, 0.0, 0.0, 0.0, 0.0, 0.0, 0.0, 0.0, 0.0, 0.0, 1.695760940561038E9, 0.0, 2023-09-26 15:42:20.561
162.0, 12673.908492792665, 36898.19269158753, -44345.21279874001, -45640.63050039179, -24452.540213172462, -26413.883437381202, -187500.02235174447, 5365.379794285273, -12482.46580153296, -33794.98825013498, -45063.06142366665, -40833.26200643325, -20899.596321534675, -24935.650817829468, -47737.62646169978, -32862.4064162262, -0.012, 1.008, -0.054000000000000006, 192.0, 127.5, 88.0, 15.5, 64.0, 127.0, 56.0, 0.0, 0.0, 0.0, 1.695760940561047E9, 0.0, 2023-09-26 15:42:20.561
164.0, 12678.512952150459, 36908.83212194826, -44356.858057601225, -45645.570235916406, -24454.730684129085, -26406.999100088968, -187500.02235174447, 5392.224239376097, -12475.8943886631, -33768.16615678861, -45070.124574914524, -40826.19885518537, -20917.56712407674, -24934.063843973145, -47742.722659435596, -32865.580363938854, -0.012, 1.008, -0.054000000000000006, 192.0, 0.0, 0.0, 0.0, 0.0, 0.0, 0.0, 0.0, 0.0, 0.0, 1.695760940621258E9, 0.0, 2023-09-26 15:42:20.621
166.0, 12672.500332891981, 36899.19852008802, -44359.60732216923, -45653.66156740923, -24458.150501030745, -26412.676443180615, -187500.02235174447, 5368.799611186935, -12536.154691714608, -33792.976593134, -45087.51423210076, -40847.16479148445, -20906.570065804728, -24927.49243110328, -47742.65560420223, -32867.681427917654, -0.012, 1.008, -0.054000000000000006, 192.0, 0.0, 0.0, 0.0, 0.0, 0.0, 0.0, 0.0, 0.0, 0.0, 1.695760940621299E9, 0.0, 2023-09-26 15:42:20.621
168.0, 12680.614016129259, 36908.80977020381, -44355.20402851153, -45637.389497445765, -24446.99698054755, -26401.209998275044, -187500.02235174447, 5421.035637978988, -12455.666059931047, -33770.80366263434, -45069.722243514334, -40828.65754707546, -20912.158001918557, -24935.628466085014, -47733.29022327545, -32852.95162832161, -0.012, 1.008, -0.054000000000000006, 192.0, 0.0, 0.0, 0.0, 0.0, 0.0, 0.0, 0.0, 0.0, 0.0, 1.695760940621311E9, 0.0, 2023-09-26 15:42:20.621
170.0, 12671.941539280599, 36886.569784470776, -44359.87554310269, -45660.05416632345, -24445.186489246666, -26409.815419890336, -187500.02235174447, 5353.622776701782, -12491.585313270727, -33797.759866447435, -45081.16633667545, -40849.51172465226, -20888.465152795932, -24919.423451354916, -47728.64106042875, -32850.31412247588, -0.012, 1.008, -0.054000000000000006, 192.0, 0.0, 0.0, 0.0, 0.0, 0.0, 0.0, 0.0, 0.0, 0.0, 1.69576094062132E9, 0.0, 2023-09-26 15:42:20.621
172.0, 12701.46819370606, 36923.02547967738, -44350.62192089819, -45637.948291057146, -24449.969762560104, -26401.344108741774, -187500.02235174447, 5434.603146863359, -12473.927435151034, -33765.08161605378, -45066.90592371296, -40830.69155582089, -20903.99961519237, -24897.585797022082, -47731.12210406329, -32861.042959814426, -0.014, 1.009, -0.053000000000000005, 192.0, 127.5, 64.0, 15.5, 72.0, 127.0, 48.0, 0.0, 0.0, 0.0, 1.695760940621364E9, 0.0, 2023-09-26 15:42:20.621
174.0, 12696.550809925891, 36904.5629387573, -44344.18461849506, -45621.63151760477, -24445.99115204706, -26383.373306199708, -187500.02235174447, 5362.339957039351, -12484.969196911956, -33760.94654332954, -45062.68144401091, -40819.64979405997, -20932.72160681744, -24912.02502394021, -47722.65079291473, -32842.91569506117, -0.014, 1.009, -0.053000000000000005, 192.0, 0.0, 0.0, 0.0, 0.0, 0.0, 0.0, 0.0, 0.0, 0.0, 1.695760940621374E9, 0.0, 2023-09-26 15:42:20.621
176.0, 12707.167888542162, 36917.795171474834, -44347.49267667445, -45638.3729742018, -24452.540213172462, -26388.827131846803, -187500.02235174447, 5438.537053887493, -12475.290891562807, -33767.51795619941, -45057.697004997375, -40810.97731721131, -20901.496219813376, -24912.49441057377, -47719.78976962445, -32838.87002931476, -0.014, 1.009, -0.053000000000000005, 192.0, 0.0, 0.0, 0.0, 0.0, 0.0, 0.0, 0.0, 0.0, 0.0, 1.695760940621394E9, 0.0, 2023-09-26 15:42:20.621
178.0, 12700.7976413724, 36899.89142416613, -44340.63069112667, -45638.75295385754, -24441.341989200355, -26394.45977144954, -187500.02235174447, 5357.623738959282, -12463.869150146145, -33782.583031962284, -45056.55706603015, -40822.108485950055, -20903.306711114255, -24898.457515055838, -47712.927784076666, -32846.51432591848, -0.014, 1.009, -0.053000000000000005, 192.0, 0.0, 0.0, 0.0, 0.0, 0.0, 0.0, 0.0, 0.0, 0.0, 1.695760940621404E9, 0.0, 2023-09-26 15:42:20.621
180.0, 12717.42733924715, 36921.14793314313, -44339.58015913727, -45616.24474719104, -24434.435300163663, -26376.55602414084, -187500.02235174447, 5418.845167022368, -12492.725252237948, -33761.50533694093, -45058.456964308854, -40798.25917461624, -20896.55648428875, -24883.079514870587, -47703.204775238606, -32825.92836927514, -0.014, 1.009, -0.053000000000000005, 192.0, 0.0, 0.0, 0.0, 0.0, 0.0, 0.0, 0.0, 0.0, 0.0, 1.695760940681708E9, 0.0, 2023-09-26 15:42:20.681
182.0, 12713.001693844997, 36900.29375556633, -44338.619034125695, -45637.098924767844, -24443.912439812713, -26393.342184226774, -187500.02235174447, 5346.693735920637, -12456.47072273144, -33799.63741298168, -45048.71160372634, -40811.80433175616, -20894.14249588758, -24899.865674956523, -47707.85393808531, -32833.50561064549, -0.013000000000000001, 1.0114999999999998, -0.05550000000000001, 192.0, 127.5, 80.0, 15.5, 88.0, 127.0, 24.0, 0.0, 0.0, 0.0, 1.69576094068173E9, 0.0, 2023-09-26 15:42:20.681
184.0, 12723.931696883643, 36921.103229654225, -44339.647214370634, -45628.851131063835, -24442.347817700844, -26390.45880919204, -187500.02235174447, 5418.286373410985, -12467.646594959093, -33754.33042697077, -45049.449211293366, -40798.5273955497, -20899.104583156655, -24888.846264940057, -47716.52641493397, -32841.59694213831, -0.013000000000000001, 1.0114999999999998, -0.05550000000000001, 192.0, 0.0, 0.0, 0.0, 0.0, 0.0, 0.0, 0.0, 0.0, 0.0, 1.695760940681742E9, 0.0, 2023-09-26 15:42:20.681
186.0, 12715.527440968448, 36898.237395076445, -44338.52962714787, -45632.89679681025, -24440.939657800158, -26397.499608695463, -187500.02235174447, 5323.604383898304, -12462.8409699012, -33800.553834504346, -45046.498781025264, -40812.85486374555, -20890.61092026364, -24887.84043643957, -47712.860728843305, -32846.715491618575, -0.013000000000000001, 1.0114999999999998, -0.05550000000000001, 192.0, 0.0, 0.0, 0.0, 0.0, 0.0, 0.0, 0.0, 0.0, 0.0, 1.695760940681751E9, 0.0, 2023-09-26 15:42:20.681
188.0, 12728.782025430444, 36915.93997668505, -44336.227397468974, -45641.770439359, -24445.968800302602, -26397.387849973187, -187500.02235174447, 5406.842280249868, -12454.03438258581, -33756.364435716205, -45036.39579253147, -40794.74995073676, -20896.735298244395, -24915.109564675044, -47710.893775331235, -32833.7514798345, -0.013000000000000001, 1.0114999999999998, -0.05550000000000001, 192.0, 0.0, 0.0, 0.0, 0.0, 0.0, 0.0, 0.0, 0.0, 0.0, 1.69576094068176E9, 0.0, 2023-09-26 15:42:20.681
190.0, 12714.722778168056, 36893.02943861836, -44352.20889475452, -45641.010480047524, -24451.623791649796, -26407.312024511342, -187500.02235174447, 5338.222424772075, -12477.101382863688, -33784.01354360742, -45049.47156303783, -40818.196930670376, -20889.739202229885, -24902.83845696908, -47722.67314465918, -32853.39866321071, -0.013000000000000001, 1.0114999999999998, -0.05550000000000001, 192.0, 0.0, 0.0, 0.0, 0.0, 0.0, 0.0, 0.0, 0.0, 0.0, 1.695760940681769E9, 0.0, 2023-09-26 15:42:20.681
192.0, 12721.987095116032, 36909.86030219321, -44346.799772596336, -45667.094965826866, -24442.50427991203, -26419.292559539386, -187500.02235174447, 5369.760736198514, -12474.218007828953, -33799.078619370295, -45047.906940925954, -40826.75764879676, -20896.780001733303, -24921.278646144707, -47721.309688247406, -32857.53373593494, -0.018500000000000003, 1.0147499999999998, -0.05475000000000001, 192.0, 127.5, 32.0, 15.5, 104.0, 127.0, 40.0, 0.0, 0.0, 0.0, 1.695760940681806E9, 0.0, 2023-09-26 15:42:20.681
194.0, 12709.447766476604, 36889.67667695006, -44362.043662314856, -45649.83941910737, -24443.174832245688, -26401.90290235316, -187500.02235174447, 5327.828863600357, -12479.157743353575, -33750.75414785792, -45054.903036940465, -40818.196930670376, -20888.17458011801, -24823.467412408285, -47721.75672313652, -32849.39770095321, -0.018500000000000003, 1.0147499999999998, -0.05475000000000001, 192.0, 0.0, 0.0, 0.0, 0.0, 0.0, 0.0, 0.0, 0.0, 0.0, 1.695760940741148E9, 0.0, 2023-09-26 15:42:20.741
196.0, 12712.778176400445, 36904.33942131274, -44353.75116512194, -45643.13389577078, -24447.108739269825, -26403.42282097612, -187500.02235174447, 5377.0027014020325, -12480.588254998715, -33780.95135461704, -45061.116821899035, -40822.84609351708, -20903.776097747817, -24870.54018623116, -47729.89275811824, -32859.09835804682, -0.018500000000000003, 1.0147499999999998, -0.05475000000000001, 192.0, 0.0, 0.0, 0.0, 0.0, 0.0, 0.0, 0.0, 0.0, 0.0, 1.695760940741175E9, 0.0, 2023-09-26 15:42:20.741
198.0, 12699.344777982806, 36894.72817119696, -44358.10975529072, -45650.80054411895, -24446.326428213888, -26398.61719591823, -187500.02235174447, 5347.431343487661, -12485.885618434622, -33816.60238702326, -45064.67074926743, -40836.81593380165, -20909.252275139366, -24920.56339032214, -47727.92580460618, -32851.185840509635, -0.018500000000000003, 1.0147499999999998, -0.05475000000000001, 192.0, 0.0, 0.0, 0.0, 0.0, 0.0, 0.0, 0.0, 0.0, 0.0, 1.695760940741185E9, 0.0, 2023-09-26 15:42:20.741
200.0, 12704.820955374356, 36905.81463644679, -44351.56069416532, -45629.81225607541, -24449.58978290436, -26406.21678903303, -187500.02235174447, 5357.44492500364, -12471.17817058303, -33753.078729281275, -45047.72812697031, -40803.19891014086, -20910.258103639855, -24870.070799597597, -47719.58860392435, -32836.90307580269, -0.018500000000000003, 1.0147499999999998, -0.05475000000000001, 192.0, 0.0, 0.0, 0.0, 0.0, 0.0, 0.0, 0.0, 0.0, 0.0, 1.695760940741194E9, 0.0, 2023-09-26 15:42:20.741
202.0, 12696.550809925891, 36889.45315950551, -44360.18846752506, -45653.75097438705, -24446.1699660027, -26422.757079929957, -187500.02235174447, 5339.541177694939, -12490.490077792416, -33783.34299127376, -45059.932179442905, -40819.29216614868, -20905.22896113741, -24899.93273018989, -47723.8130836264, -32852.526945176956, -0.02025, 1.015375, -0.05537500000000001, 192.0, 127.5, 40.0, 15.5, 96.0, 127.0, 32.0, 0.0, 0.0, 0.0, 1.695760940741203E9, 0.0, 2023-09-26 15:42:20.741
204.0, 12679.339966695306, 36877.58438319974, -44376.54994446635, -45666.64793093776, -24454.84244285136, -26423.070004352332, -187500.02235174447, 5337.373058482774, -12504.504621565893, -33798.20690133654, -45071.71154877085, -40838.84994254708, -20907.0841559272, -24891.439067296873, -47726.45058947213, -32856.72907313455, -0.02025, 1.015375, -0.05537500000000001, 192.0, 0.0, 0.0, 0.0, 0.0, 0.0, 0.0, 0.0, 0.0, 0.0, 1.695760940741213E9, 0.0, 2023-09-26 15:42:20.741
206.0, 12688.437126688616, 36882.14413906862, -44359.361452980214, -45642.53039867048, -24442.79485258995, -26400.874722108212, -187500.02235174447, 5330.868700846279, -12536.311153925795, -33807.14759911867, -45076.62893255102, -40836.167733212445, -20899.752783745862, -24894.814180709625, -47728.73046740657, -32852.571648665864, -0.02025, 1.015375, -0.05537500000000001, 192.0, 0.0, 0.0, 0.0, 0.0, 0.0, 0.0, 0.0, 0.0, 0.0, 1.695760940741222E9, 0.0, 2023-09-26 15:42:20.741
208.0, 12679.675242862135, 36880.04307508982, -44356.9698163235, -45647.29132023946, -24448.58395440387, -26401.679384908606, -187500.02235174447, 5327.650049644715, -12483.695147478003, -33808.44400029707, -45062.05559516616, -40830.7362593098, -20884.575949260707, -24839.180688760363, -47720.81794986939, -32841.954570049595, -0.02025, 1.015375, -0.05537500000000001, 192.0, 0.0, 0.0, 0.0, 0.0, 0.0, 0.0, 0.0, 0.0, 0.0, 1.695760940741231E9, 0.0, 2023-09-26 15:42:20.741
210.0, 12682.93859755261, 36877.472624477465, -44363.720043149006, -45658.75776514504, -24445.812338091415, -26416.208018804555, -187500.02235174447, 5359.456582004617, -12495.765089483868, -33777.57624120429, -45068.64935978048, -40825.43889587389, -20907.374728605122, -24867.790921663156, -47726.80821738341, -32853.51042193299, -0.02025, 1.015375, -0.05537500000000001, 192.0, 0.0, 0.0, 0.0, 0.0, 0.0, 0.0, 0.0, 0.0, 0.0, 1.695760940800642E9, 0.0, 2023-09-26 15:42:20.800
212.0, 12666.912396778154, 36855.81378410027, -44362.42364197059, -45649.03475630698, -24444.672399124196, -26409.726012912513, -187500.02235174447, 5315.535404149939, -12498.42494707405, -33812.89199744368, -45071.97976970432, -40839.67695709193, -20919.98111247791, -24907.375861093507, -47725.44476097164, -32852.05755854339, -0.019125000000000003, 1.0126875, -0.059687500000000004, 192.0, 127.5, 56.0, 15.5, 72.0, 127.0, 0.0, 0.0, 0.0, 0.0, 1.695760940800665E9, 0.0, 2023-09-26 15:42:20.800
214.0, 12670.332213679816, 36860.7982231138, -44359.719080891504, -45653.885084853784, -24448.293381725955, -26417.727937427517, -187500.02235174447, 5357.601387214826, -12522.318961896774, -33818.25641611295, -45075.22077265034, -40838.13468672451, -20920.89753400058, -24901.720869746314, -47726.428237727676, -32850.78350910944, -0.019125000000000003, 1.0126875, -0.059687500000000004, 192.0, 0.0, 0.0, 0.0, 0.0, 0.0, 0.0, 0.0, 0.0, 0.0, 1.695760940800715E9, 0.0, 2023-09-26 15:42:20.800
216.0, 12641.319649376828, 36832.322100677746, -44367.74335715096, -45668.97251236111, -24453.255468995034, -26430.75900444496, -187500.02235174447, 5318.105854762299, -12529.24800267792, -33837.56832332234, -45081.65807505346, -40858.76534685676, -20909.34168211719, -24907.01823318222, -47726.65175517223, -32858.65132315771, -0.019125000000000003, 1.0126875, -0.059687500000000004, 192.0, 0.0, 0.0, 0.0, 0.0, 0.0, 0.0, 0.0, 0.0, 0.0, 1.695760940800726E9, 0.0, 2023-09-26 15:42:20.800
218.0, 12642.280774388406, 36836.88185654663, -44355.49460118945, -45650.733488885584, -24449.992114304558, -26406.775582644415, -187500.02235174447, 5361.065907605399, -12537.76401731539, -33825.78895399439, -45084.13911868801, -40847.410660673464, -20916.069557198236, -24898.613977267025, -47730.78682789646, -32856.17027952317, -0.019125000000000003, 1.0126875, -0.059687500000000004, 192.0, 0.0, 0.0, 0.0, 0.0, 0.0, 0.0, 0.0, 0.0, 0.0, 1.695760940800736E9, 0.0, 2023-09-26 15:42:20.800
220.0, 12610.54129726187, 36810.015059711346, -44375.030025843385, -45660.724718657104, -24455.334181229377, -26426.75804218746, -187500.02235174447, 5291.037892226922, -12551.018601777389, -33850.197058939586, -45094.21975543735, -40871.63995166301, -20915.868391498137, -24896.73643073278, -47735.503045976526, -32862.227602270556, -0.019125000000000003, 1.0126875, -0.059687500000000004, 192.0, 0.0, 0.0, 0.0, 0.0, 0.0, 0.0, 0.0, 0.0, 0.0, 1.695760940800745E9, 0.0, 2023-09-26 15:42:20.800
222.0, 12629.920259704622, 36826.82357154174, -44359.11558379121, -45655.360299987835, -24449.053341037434, -26416.208018804555, -187500.02235174447, 5360.06007910491, -12556.740648357947, -33827.71120401755, -45096.700799071885, -40854.9431985549, -20915.488411842398, -24883.012459637222, -47735.860673887815, -32857.10905279029, -0.0165625, 1.01134375, -0.05984375, 192.0, 127.5, 72.0, 15.5, 72.0, 127.0, 16.0, 0.0, 0.0, 0.0, 1.695760940800757E9, 0.0, 2023-09-26 15:42:20.800
224.0, 12604.171050092107, 36790.83726296869, -44377.28755203338, -45663.183410547186, -24455.445939951653, -26419.046690350377, -187500.02235174447, 5299.308037675386, -12560.875721082179, -33859.67419858863, -45099.852395040085, -40871.259972007276, -20858.446759992454, -24875.569328733603, -47738.45347624463, -32861.601753425806, -0.0165625, 1.01134375, -0.05984375, 192.0, 0.0, 0.0, 0.0, 0.0, 0.0, 0.0, 0.0, 0.0, 0.0, 1.695760940860887E9, 0.0, 2023-09-26 15:42:20.860
226.0, 12632.267192872428, 36822.91201626206, -44345.79394409584, -45647.2242650061, -24442.101948511834, -26409.256626278955, -187500.02235174447, 5370.721861210091, -12561.792142604845, -33859.89771603319, -45092.05163622518, -40863.503916681286, -20973.893520104113, -24903.64311976947, -47726.830569127866, -32855.67854114516, -0.0165625, 1.01134375, -0.05984375, 192.0, 0.0, 0.0, 0.0, 0.0, 0.0, 0.0, 0.0, 0.0, 0.0, 1.695760940860945E9, 0.0, 2023-09-26 15:42:20.860
228.0, 12604.64043672567, 36793.452417069966, -44367.765708895415, -45658.95893084514, -24452.920192828202, -26429.596713733285, -187500.02235174447, 5303.688979588625, -12549.409276176606, -33852.32047466284, -45090.59877283559, -40861.33579746912, -20944.702141845482, -24861.97946810478, -47722.47197895908, -32856.84083185683, -0.0165625, 1.01134375, -0.05984375, 192.0, 0.0, 0.0, 0.0, 0.0, 0.0, 0.0, 0.0, 0.0, 0.0, 1.695760940860956E9, 0.0, 2023-09-26 15:42:20.860
230.0, 12612.999989151955, 36814.28424290231, -44371.00671184143, -45667.11731757133, -24456.138844029767, -26442.359559817265, -187500.02235174447, 5381.405995059728, -12572.051593309832, -33834.28261688741, -45101.193499707406, -40854.116184010054, -20935.87320278564, -24852.234107522265, -47733.22316804209, -32868.240221529035, -0.0165625, 1.01134375, -0.05984375, 192.0, 0.0, 0.0, 0.0, 0.0, 0.0, 0.0, 0.0, 0.0, 0.0, 1.695760940860969E9, 0.0, 2023-09-26 15:42:20.860
232.0, 12606.003893137444, 36789.02677166781, -44359.13793553566, -45653.57216043141, -24442.772500845495, -26417.906751383158, -187500.02235174447, 5295.66470332917, -12565.077849039775, -33857.4390241431, -45103.54043287521, -40874.411567975476, -20926.641932325594, -24901.07266915711, -47735.05601108742, -32870.900079119216, -0.01628125, 1.014671875, -0.061921875, 192.0, 127.5, 64.0, 15.5, 104.0, 127.0, 0.0, 0.0, 0.0, 0.0, 1.69576094086098E9, 0.0, 2023-09-26 15:42:20.860
234.0, 12598.851334911746, 36790.52433854632, -44381.75790092444, -45671.766480418024, -24455.535346929475, -26421.058347351354, -187500.02235174447, 5356.908483136712, -12567.693003141047, -33860.389454411204, -45102.80282530819, -40865.91790508245, -20929.43590038251, -24884.890006171467, -47725.28829876045, -32849.442404442125, -0.01628125, 1.014671875, -0.061921875, 192.0, 0.0, 0.0, 0.0, 0.0, 0.0, 0.0, 0.0, 0.0, 0.0, 1.69576094086099E9, 0.0, 2023-09-26 15:42:20.860
236.0, 12611.122442617709, 36791.217242624436, -44357.8191826128, -45650.06293655193, -24445.052378779936, -26423.204114819066, -187500.02235174447, 5301.498508632006, -12573.929139844078, -33884.171710511655, -45116.25857547028, -40886.72737917035, -20925.77021429184, -24860.52660471518, -47738.25231054453, -32866.67559941716, -0.01628125, 1.014671875, -0.061921875, 192.0, 0.0, 0.0, 0.0, 0.0, 0.0, 0.0, 0.0, 0.0, 0.0, 1.695760940861076E9, 0.0, 2023-09-26 15:42:20.861
238.0, 12617.895021187667, 36806.28231838731, -44370.894953119154, -45660.36709074582, -24455.84827135185, -26426.579228231818, -187500.02235174447, 5348.459523732606, -12547.777598831368, -33852.54399210739, -45089.48118561282, -40858.810050345666, -20900.89272271308, -24878.273889812695, -47725.73533364956, -32855.16445102268, -0.01628125, 1.014671875, -0.061921875, 192.0, 0.0, 0.0, 0.0, 0.0, 0.0, 0.0, 0.0, 0.0, 0.0, 1.695760940861085E9, 0.0, 2023-09-26 15:42:20.861
240.0, 12628.288582359384, 36795.4864258154, -44357.752127379434, -45644.11737252681, -24439.151518243732, -26417.012681604945, -187500.02235174447, 5289.227400926042, -12575.046727066843, -33851.873439773735, -45105.082703242624, -40867.90721033898, -20954.805130339282, -24893.45072429785, -47733.35727850882, -32865.91564010568, -0.01628125, 1.014671875, -0.061921875, 192.0, 0.0, 0.0, 0.0, 0.0, 0.0, 0.0, 0.0, 0.0, 0.0, 1.695760940923622E9, 0.0, 2023-09-26 15:42:20.923
242.0, 12624.667599757624, 36799.12976016161, -44364.547057693846, -45661.507029713044, -24442.146652000745, -26422.71237644105, -187500.02235174447, 5321.615078641782, -12581.416974236605, -33825.67719527211, -45091.58224959162, -40851.61278863106, -20913.499106585874, -24857.307953513617, -47719.499196946526, -32851.610523654286, -0.014140625, 1.0133359375, -0.059960937500000006, 192.0, 127.5, 80.0, 15.5, 80.0, 127.0, 24.0, 0.0, 0.0, 0.0, 1.695760940923647E9, 0.0, 2023-09-26 15:42:20.923
