%OpenBCI Raw EXG Data
%Number of channels = 16
%Sample Rate = 125 Hz
%Board = OpenBCI_GUI$BoardCytonSerialDaisy
Sample Index, EXG Channel 0, EXG Channel 1, EXG Channel 2, EXG Channel 3, EXG Channel 4, EXG Channel 5, EXG Channel 6, EXG Channel 7, EXG Channel 8, EXG Channel 9, EXG Channel 10, EXG Channel 11, EXG Channel 12, EXG Channel 13, EXG Channel 14, EXG Channel 15, Accel Channel 0, Accel Channel 1, Accel Channel 2, Other, Other, Other, Other, Other, Other, Other, Analog Channel 0, Analog Channel 1, Analog Channel 2, Timestamp, Other, Timestamp (Formatted)
208.0, 12780.638072566757, 36889.363752527686, -44219.73010536791, -45528.268281014956, -24385.395572828722, -26458.877498969734, -187500.02235174447, 5511.984886167632, -12501.978874442444, -33724.356737656206, -45038.20628383235, -40758.51777297471, -20871.254309565345, -24861.688895426858, -47624.03489637791, -32781.3366390868, -0.002, 1.016, -0.024, 192.0, 127.5, 120.0, 15.5, 96.0, 127.5, 32.0, 0.0, 0.0, 0.0, 1.695760954735926E9, 0.0, 2023-09-26 15:42:34.735
210.0, 12778.58171207687, 36890.63780196164, -44200.529956880804, -45515.393676208696, -24376.566633768874, -26452.52960354443, -187500.02235174447, 5491.376577779839, -12496.23447611743, -33709.42577236006, -45033.937100641386, -40758.87540088599, -20880.55263525875, -24842.62285740648, -47612.61315496125, -32764.34931330077, -0.002, 1.016, -0.024, 192.0, 0.0, 0.0, 0.0, 0.0, 0.0, 0.0, 0.0, 0.0, 0.0, 1.695760954735965E9, 0.0, 2023-09-26 15:42:34.735
212.0, 12785.555456346925, 36893.744694440924, -44199.18885221349, -45519.729914633026, -24377.192482613624, -26460.598583292795, -187500.02235174447, 5506.75457796509, -12487.651406246592, -33718.45587712, -45024.57171971461, -40752.192229293854, -20879.345641058164, -24845.819156863592, -47603.56069845685, -32762.516470255432, -0.002, 1.016, -0.024, 192.0, 0.0, 0.0, 0.0, 0.0, 0.0, 0.0, 0.0, 0.0, 0.0, 1.695760954735976E9, 0.0, 2023-09-26 15:42:34.735
214.0, 12780.235741166562, 36885.6086594592, -44203.30157319326, -45511.549176162385, -24379.11473263678, -26450.85322271028, -187500.02235174447, 5477.317330517451, -12476.766106696858, -33716.734792796946, -45018.08971382257, -40751.3205112601, -20869.823797920206, -24851.474148210782, -47605.818224646835, -32764.617534234232, -0.002, 1.016, -0.024, 192.0, 0.0, 0.0, 0.0, 0.0, 0.0, 0.0, 0.0, 0.0, 0.0, 1.695760954736006E9, 0.0, 2023-09-26 15:42:34.736
216.0, 12791.702186072134, 36902.864206178696, -44203.01100051535, -45518.43351345462, -24381.77459022696, -26457.692856513604, -187500.02235174447, 5528.346363108917, -12485.393880056607, -33716.377164885664, -45016.592146944065, -40736.63541515296, -20866.98512637438, -24849.082511554065, -47610.55679447136, -32765.645714479175, -0.002, 1.016, -0.024, 192.0, 0.0, 0.0, 0.0, 0.0, 0.0, 0.0, 0.0, 0.0, 0.0, 1.695760954736015E9, 0.0, 2023-09-26 15:42:34.736
218.0, 12779.900464999731, 36887.84383390473, -44199.65823884705, -45517.45003669859, -24385.037944917436, -26461.29148737091, -187500.02235174447, 5482.793507909001, -12493.261694104875, -33710.163379927086, -45012.94881259785, -40745.50905770172, -20868.46034150843, -24844.746273129735, -47606.89110838069, -32765.01986563443, 0.002, 1.012, -0.022, 192.0, 0.0, 8.0, 15.5, 80.0, 127.5, 40.0, 0.0, 0.0, 0.0, 1.695760954736026E9, 0.0, 2023-09-26 15:42:34.736
220.0, 12791.501020372036, 36900.8078456888, -44201.28991619228, -45527.284804258925, -24388.681279263652, -26462.856109482782, -187500.02235174447, 5547.188883684741, -12489.260731847375, -33716.243054418934, -45022.85063539155, -40751.81224963811, -20872.08132411019, -24845.819156863592, -47616.14473058519, -32773.46882503854, 0.002, 1.012, -0.022, 192.0, 0.0, 0.0, 0.0, 0.0, 0.0, 0.0, 0.0, 0.0, 0.0, 1.695760954736037E9, 0.0, 2023-09-26 15:42:34.736
222.0, 12775.072488197386, 36878.72432216696, -44198.183023713, -45524.02144956845, -24381.618128015773, -26453.26721111145, -187500.02235174447, 5474.277493271529, -12478.822467186747, -33719.729926553955, -45020.05666733464, -40764.66450269992, -20841.70530339543, -24845.372121974484, -47611.78614041641, -32766.360970301746, 0.002, 1.012, -0.022, 192.0, 0.0, 0.0, 0.0, 0.0, 0.0, 0.0, 0.0, 0.0, 0.0, 1.695760954736047E9, 0.0, 2023-09-26 15:42:34.736
224.0, 12782.76148829001, 36894.392895030134, -44201.69224759248, -45530.995193838506, -24380.38878207073, -26464.644249039204, -187500.02235174447, 5543.657308060802, -12486.265598090364, -33735.890237795145, -45020.28018477919, -40755.63439793997, -20876.618728234618, -24854.938668601357, -47611.47321599403, -32768.752606958464, 0.002, 1.012, -0.022, 192.0, 0.0, 0.0, 0.0, 0.0, 0.0, 0.0, 0.0, 0.0, 0.0, 1.695760954736056E9, 0.0, 2023-09-26 15:42:34.736
0.0, 6425.724199500585, 18418.038596873117, -22132.742063133963, -22750.298410689644, -12184.159420032433, -13189.339719932046, -93750.01117587223, 2769.381138012545, -6248.743086903463, -16860.85961590524, -22511.447669440233, -20379.158303637305, -10438.376419350674, -12427.100530517166, -23803.75847861272, -16386.6673572859, 0.026000000000000002, 1.0110000000000001, -0.024, 192.0, 0.5, 72.0, 15.5, 72.0, 127.5, 24.0, 0.0, 0.0, 0.0, 1.695760954869672E9, 0.0, 2023-09-26 15:42:34.869
2.0, 12837.612669183334, 36815.535940591806, -44267.8981146691, -45500.14978649018, -24364.072008618357, -26379.797027086857, -187500.02235174447, 5453.400963950273, -12432.375542208618, -33617.31423345974, -45030.651394206456, -40658.67253049285, -20845.996838330848, -24733.255771786666, -47493.99244713694, -32688.353382152723, 0.026000000000000002, 1.0110000000000001, -0.024, 192.0, 0.0, 0.0, 0.0, 0.0, 0.0, 0.0, 0.0, 0.0, 0.0, 1.695760954869711E9, 0.0, 2023-09-26 15:42:34.869
4.0, 12838.864366872833, 36822.19676043949, -44266.24408557941, -45503.94958304758, -24369.145854609713, -26379.819378831315, -187500.02235174447, 5503.893554674811, -12437.047056799776, -33630.32294873273, -45035.00998437524, -40666.36153058548, -20844.231050518876, -24732.56286770855, -47493.8583366702, -32684.12890245067, 0.026000000000000002, 1.0110000000000001, -0.024, 192.0, 0.0, 0.0, 0.0, 0.0, 0.0, 0.0, 0.0, 0.0, 0.0, 1.695760954869723E9, 0.0, 2023-09-26 15:42:34.869
6.0, 12836.91976510522, 36817.5923010817, -44262.66780646656, -45498.09342600029, -24371.49278777752, -26386.32373646781, -187500.02235174447, 5445.55550164646, -12451.218062784441, -33618.47652417142, -45036.28403380919, -40665.10983289598, -20841.83941386216, -24732.56286770855, -47493.72422620347, -32685.268841417892, 0.026000000000000002, 1.0110000000000001, -0.024, 192.0, 0.0, 0.0, 0.0, 0.0, 0.0, 0.0, 0.0, 0.0, 0.0, 1.695760954869735E9, 0.0, 2023-09-26 15:42:34.869
8.0, 12852.744800179578, 36832.25504544438, -44258.82330642024, -45503.88252781422, -24374.376162812256, -26385.69788762306, -187500.02235174447, 5502.127766862842, -12434.253088742864, -33619.75057360537, -45027.499798238256, -40652.65991123437, -20833.725730624883, -24737.23438229971, -47493.67952271456, -32688.12986470817, 0.082, 1.012, -0.018000000000000002, 192.0, 1.0, 72.0, 15.5, 80.0, 127.5, 56.0, 0.0, 0.0, 0.0, 1.695760954869747E9, 0.0, 2023-09-26 15:42:34.869
10.0, 12856.701058948167, 36825.05778372977, -44261.19259133251, -45494.76301607645, -24373.370334311767, -26372.376247927696, -187500.02235174447, 5464.263911755552, -12417.22105946792, -33628.17718126502, -45023.20826330284, -40653.263408334664, -20833.368102713597, -24730.484155474205, -47490.97496163547, -32687.682829819067, 0.082, 1.012, -0.018000000000000002, 192.0, 0.0, 0.0, 0.0, 0.0, 0.0, 0.0, 0.0, 0.0, 0.0, 1.695760954869811E9, 0.0, 2023-09-26 15:42:34.869
12.0, 12854.756457180556, 36825.63892908561, -44271.921428671056, -45501.44618766859, -24379.78528497044, -26373.471483406007, -187500.02235174447, 5476.9597026061665, -12441.852681857668, -33621.449306183975, -45037.66984196542, -40658.18079211483, -20834.17276551399, -24738.66489394485, -47495.646476226626, -32680.686733804556, 0.082, 1.012, -0.018000000000000002, 192.0, 0.0, 0.0, 0.0, 0.0, 0.0, 0.0, 0.0, 0.0, 0.0, 1.695760954869822E9, 0.0, 2023-09-26 15:42:34.869
14.0, 12869.106277120862, 36833.61850185615, -44256.610483719174, -45479.94380950258, -24366.06131387488, -26361.893279778156, -187500.02235174447, 5469.538923447004, -12419.612696124637, -33616.57662589272, -45025.7787139152, -40645.28383556412, -20822.4157479305, -24735.9379811213, -47485.431729010554, -32675.54583257983, 0.082, 1.012, -0.018000000000000002, 192.0, 0.0, 0.0, 0.0, 0.0, 0.0, 0.0, 0.0, 0.0, 0.0, 1.69576095486984E9, 0.0, 2023-09-26 15:42:34.869
16.0, 12858.35508803786, 36830.31044367677, -44266.08762336822, -45483.40832989316, -24373.549148267408, -26364.68724783507, -187500.02235174447, 5465.537961189504, -12425.334742705196, -33613.067402013236, -45021.39777200196, -40639.38297502792, -20830.015341045302, -24727.51137346165, -47474.479374227456, -32658.13382364915, 0.082, 1.012, -0.018000000000000002, 192.0, 0.0, 0.0, 0.0, 0.0, 0.0, 0.0, 0.0, 0.0, 0.0, 1.695760954929963E9, 0.0, 2023-09-26 15:42:34.929
18.0, 12869.776829454522, 36834.132591978625, -44255.47054475195, -45482.58131534831, -24365.81544468587, -26363.815529801315, -187500.02235174447, 5456.820780851935, -12447.977059838422, -33606.16071297654, -45033.24419656327, -40642.73573669622, -20846.89090810906, -24729.478326973716, -47479.19559230752, -32666.26985863088, 0.10400000000000001, 1.012, -0.018000000000000002, 192.0, 1.5, 32.0, 15.5, 80.0, 127.5, 56.0, 0.0, 0.0, 0.0, 1.695760954929981E9, 0.0, 2023-09-26 15:42:34.929
20.0, 12856.16461708124, 36820.09569646069, -44276.123556628656, -45488.19160320659, -24377.617165758274, -26368.084712992277, -187500.02235174447, 5419.113387955831, -12419.590344380182, -33608.26177695534, -45028.90795813894, -40639.986472128214, -20815.39730017153, -24716.782536123104, -47477.56391496229, -32662.98415219595, 0.10400000000000001, 1.012, -0.018000000000000002, 192.0, 0.0, 0.0, 0.0, 0.0, 0.0, 0.0, 0.0, 0.0, 0.0, 1.695760954929991E9, 0.0, 2023-09-26 15:42:34.929
22.0, 12867.854579431365, 36830.10927797667, -44282.18087937604, -45502.07203651334, -24389.15066589721, -26374.700829351048, -187500.02235174447, 5483.218191053652, -12437.427036455518, -33620.15290500557, -45046.69994672536, -40651.56467575606, -20861.84422514966, -24736.541478221596, -47499.93801116205, -32681.5137483494, 0.10400000000000001, 1.012, -0.018000000000000002, 192.0, 0.0, 0.0, 0.0, 0.0, 0.0, 0.0, 0.0, 0.0, 0.0, 1.69576095493E9, 0.0, 2023-09-26 15:42:34.930
24.0, 12861.149056094773, 36827.65058608659, -44280.660960753085, -45487.074015983824, -24385.06029666189, -26353.39961688514, -187500.02235174447, 5429.685763083192, -12420.663228114037, -33613.827361324715, -45030.45022850636, -40644.94855939729, -20837.570230671197, -24727.869001372936, -47485.92346738857, -32665.7110650195, 0.10400000000000001, 1.012, -0.018000000000000002, 192.0, 0.0, 0.0, 0.0, 0.0, 0.0, 0.0, 0.0, 0.0, 0.0, 1.695760954930011E9, 0.0, 2023-09-26 15:42:34.930
26.0, 12858.82447467142, 36834.42316465654, -44287.0535596673, -45492.0361032529, -24382.86982570527, -26354.02546572989, -187500.02235174447, 5469.069536813443, -12439.818673112235, -33601.89152978558, -45040.48616176679, -40638.82418141654, -20833.68102713597, -24727.153745550364, -47486.07992959976, -32659.921963205576, 0.10400000000000001, 1.012, -0.018000000000000002, 192.0, 0.0, 0.0, 0.0, 0.0, 0.0, 0.0, 0.0, 0.0, 0.0, 1.69576095493002E9, 0.0, 2023-09-26 15:42:34.930
28.0, 12842.172425052218, 36819.738068549406, -44281.93501018704, -45486.76109156145, -24382.713363494084, -26349.0186749719, -187500.02235174447, 5415.715922798625, -12432.867280586635, -33604.21611120893, -45045.49295252478, -40644.322710552544, -20844.1192917966, -24726.28202751661, -47482.838926653734, -32652.50118404641, 0.116, 1.012, -0.014, 192.0, 1.5, 80.0, 15.5, 80.0, 127.5, 72.0, 0.0, 0.0, 0.0, 1.695760954930028E9, 0.0, 2023-09-26 15:42:34.930
30.0, 12853.862387402343, 36837.03831875781, -44282.98554217644, -45483.14010895969, -24384.07681990586, -26349.30924764982, -187500.02235174447, 5465.157981533764, -12442.947917335978, -33599.85752104015, -45045.738821713785, -40634.06325984756, -20852.210623289422, -24716.000225067168, -47481.07313884177, -32646.197992110014, 0.116, 1.012, -0.014, 192.0, 0.0, 0.0, 0.0, 0.0, 0.0, 0.0, 0.0, 0.0, 0.0, 1.695760954989357E9, 0.0, 2023-09-26 15:42:34.989
32.0, 12839.691381417679, 36822.91201626206, -44288.81934747927, -45490.80675730786, -24387.764857740982, -26352.72906455148, -187500.02235174447, 5395.174669644198, -12434.901289332067, -33597.80116055026, -45039.70385071085, -40632.90096913588, -20845.750969141838, -24713.295663988076, -47483.9565138765, -32647.628503755153, 0.116, 1.012, -0.014, 192.0, 0.0, 0.0, 0.0, 0.0, 0.0, 0.0, 0.0, 0.0, 0.0, 1.695760954989406E9, 0.0, 2023-09-26 15:42:34.989
34.0, 12853.840035657888, 36842.22392347144, -44292.50738531439, -45499.56864113434, -24388.83774147484, -26358.808739043325, -187500.02235174447, 5491.667150457758, -12416.528155389806, -33608.35118393316, -45036.90988265394, -40631.89514063539, -20835.715035881407, -24729.120699062434, -47488.31510404529, -32655.921000948074, 0.116, 1.012, -0.014, 192.0, 0.0, 0.0, 0.0, 0.0, 0.0, 0.0, 0.0, 0.0, 0.0, 1.695760954989415E9, 0.0, 2023-09-26 15:42:34.989
36.0, 12837.500910461058, 36817.502894103876, -44291.81448123628, -45490.9855712635, -24389.35183159731, -26348.63869531616, -187500.02235174447, 5406.886983738778, -12427.972248550923, -33617.44834392647, -45044.554179257655, -40643.18277158532, -20841.54884118424, -24737.23438229971, -47484.22473480997, -32658.826727727264, 0.116, 1.012, -0.014, 192.0, 0.0, 0.0, 0.0, 0.0, 0.0, 0.0, 0.0, 0.0, 0.0, 1.695760954989424E9, 0.0, 2023-09-26 15:42:34.989
38.0, 12855.494064747581, 36840.65930135957, -44278.51519328537, -45483.14010895969, -24383.719191994573, -26338.468651588995, -187500.02235174447, 5469.494219958094, -12460.56109196676, -33599.45518963995, -45044.46477227983, -40626.910701621855, -20835.31270448121, -24714.703823888758, -47465.359862489684, -32640.587704251735, 0.132, 1.01, -0.002, 192.0, 2.0, 16.0, 15.5, 72.0, 127.5, 120.0, 0.0, 0.0, 0.0, 1.695760954989432E9, 0.0, 2023-09-26 15:42:34.989
40.0, 12842.261832030039, 36821.34739415019, -44281.75619623139, -45485.95642876106, -24391.899930465213, -26343.184869669065, -187500.02235174447, 5402.170765658709, -12421.84787057017, -33597.44353263897, -45038.65331872145, -40630.77755341263, -20834.798614358737, -24715.106155288955, -47469.45023172501, -32638.464288528477, 0.132, 1.01, -0.002, 192.0, 0.0, 0.0, 0.0, 0.0, 0.0, 0.0, 0.0, 0.0, 0.0, 1.695760954989442E9, 0.0, 2023-09-26 15:42:34.989
42.0, 12837.947945350164, 36835.33958617921, -44276.1012048842, -45487.923382273126, -24384.814427472884, -26342.134337679665, -187500.02235174447, 5445.779019091013, -12433.94016432049, -33603.12087573062, -45033.19949307436, -40618.08176256201, -20844.253402263334, -24721.722271647726, -47468.57851369125, -32631.065861113773, 0.132, 1.01, -0.002, 192.0, 0.0, 0.0, 0.0, 0.0, 0.0, 0.0, 0.0, 0.0, 0.0, 1.69576095498945E9, 0.0, 2023-09-26 15:42:34.989
44.0, 12817.652561384746, 36818.21814992645, -44298.16237666159, -45502.09438825779, -24402.78523001495, -26352.527898851386, -187500.02235174447, 5366.162105341209, -12421.914925803534, -33598.181140206, -45034.74176344177, -40620.89808236338, -20844.007533074324, -24722.45987921475, -47478.56974346277, -32638.620750739665, 0.132, 1.01, -0.002, 192.0, 0.0, 0.0, 0.0, 0.0, 0.0, 0.0, 0.0, 0.0, 0.0, 1.695760954989459E9, 0.0, 2023-09-26 15:42:34.989
46.0, 12818.68074162969, 36837.73122283593, -44296.77656850536, -45505.134225503716, -24396.079706678356, -26348.728102293982, -187500.02235174447, 5416.78880653248, -12406.916905274024, -33600.684535584995, -45035.16644658642, -40616.65125091687, -20833.03282654677, -24722.214010025742, -47480.894324886125, -32642.867582186176, 0.132, 1.01, -0.002, 192.0, 0.0, 0.0, 0.0, 0.0, 0.0, 0.0, 0.0, 0.0, 0.0, 1.695760955049109E9, 0.0, 2023-09-26 15:42:35.049
48.0, 12822.368779464816, 36831.897417533095, -44291.23333588044, -45491.343199174786, -24395.78913400044, -26345.688265048062, -187500.02235174447, 5334.57909042586, -12419.344475191174, -33601.377439663105, -45029.39969651696, -40615.2877945051, -20832.27286723529, -24727.80194613957, -47478.01094985139, -32640.543000762824, 0.14400000000000002, 1.01, -0.002, 192.0, 2.0, 64.0, 15.5, 72.0, 127.5, 120.0, 0.0, 0.0, 0.0, 1.695760955049139E9, 0.0, 2023-09-26 15:42:35.049
50.0, 12832.516471447525, 36844.43674617252, -44288.14879514561, -45493.310152686856, -24398.06901193488, -26334.221820142488, -187500.02235174447, 5386.144564884254, -12408.325065174708, -33589.68747731298, -45023.38707725848, -40605.29656473357, -20837.74904462684, -24719.531800691107, -47466.03041482335, -32626.371994778157, 0.14400000000000002, 1.01, -0.002, 192.0, 0.0, 0.0, 0.0, 0.0, 0.0, 0.0, 0.0, 0.0, 0.0, 1.69576095504915E9, 0.0, 2023-09-26 15:42:35.049
52.0, 12826.7273696336, 36827.829400042225, -44302.09628368572, -45505.55890864837, -24403.321671881877, -26338.848631244735, -187500.02235174447, 5323.157349009198, -12422.116091503633, -33604.953718775956, -45040.10618211105, -40623.55793995356, -20822.035768274756, -24725.343254249485, -47470.21019103649, -32628.07072735676, 0.14400000000000002, 1.01, -0.002, 192.0, 0.0, 0.0, 0.0, 0.0, 0.0, 0.0, 0.0, 0.0, 0.0, 1.695760955049159E9, 0.0, 2023-09-26 15:42:35.049
54.0, 12823.933401576687, 36844.63791187262, -44303.81736800878, -45497.713446344555, -24407.367337628286, -26341.8661167462, -187500.02235174447, 5350.717049922592, -12442.344420235684, -33588.88281451259, -45050.142115371484, -40620.54045445209, -20830.194155000943, -24722.45987921475, -47481.67663594206, -32632.74224194792, 0.14400000000000002, 1.01, -0.002, 192.0, 0.0, 0.0, 0.0, 0.0, 0.0, 0.0, 0.0, 0.0, 0.0, 1.695760955049194E9, 0.0, 2023-09-26 15:42:35.049
56.0, 12831.264773758028, 36843.0956415052, -44297.42476909456, -45489.75622531846, -24406.160343427702, -26333.238343386456, -187500.02235174447, 5298.436319641629, -12420.998504280866, -33582.46786385392, -45033.26654830773, -40604.31308797754, -20824.807384587217, -24706.433678440295, -47475.35109226121, -32627.109602345183, 0.14400000000000002, 1.01, -0.002, 192.0, 0.0, 0.0, 0.0, 0.0, 0.0, 0.0, 0.0, 0.0, 0.0, 1.695760955049203E9, 0.0, 2023-09-26 15:42:35.049
58.0, 12815.909125317232, 36836.501876890885, -44320.3129554168, -45507.145882504694, -24418.140878455746, -26335.987607954456, -187500.02235174447, 5320.028104785455, -12415.008236766844, -33585.306535399744, -45048.84571419308, -40609.56574792454, -20844.454567963432, -24710.546399420073, -47484.5600109768, -32629.74710819091, 0.156, 1.008, 0.0, 192.0, 2.0, 112.0, 15.5, 64.0, 0.0, 0.0, 0.0, 0.0, 0.0, 1.695760955049212E9, 0.0, 2023-09-26 15:42:35.049
60.0, 12815.909125317232, 36829.662243087565, -44329.54422587684, -45506.00594353747, -24420.756032557016, -26333.975950953478, -187500.02235174447, 5284.287665401419, -12432.688466630992, -33605.780733320804, -45067.978807446816, -40630.39757375688, -20844.231050518876, -24719.88942860239, -47492.27136281387, -32636.206762338494, 0.156, 1.008, 0.0, 192.0, 0.0, 0.0, 0.0, 0.0, 0.0, 0.0, 0.0, 0.0, 0.0, 1.695760955109448E9, 0.0, 2023-09-26 15:42:35.109
62.0, 12813.070453771408, 36831.38332741062, -44315.35086814772, -45502.27320221344, -24416.084517965857, -26318.508543790405, -187500.02235174447, 5294.90474401769, -12426.36292295014, -33592.74966630336, -45065.22954287881, -40628.67648943383, -20848.343771498654, -24723.733928648704, -47479.59792370772, -32622.37103252066, 0.156, 1.008, 0.0, 192.0, 0.0, 0.0, 0.0, 0.0, 0.0, 0.0, 0.0, 0.0, 0.0, 1.695760955109468E9, 0.0, 2023-09-26 15:42:35.109
64.0, 12807.840145568865, 36827.985862253416, -44318.92714726057, -45503.927231303125, -24419.81725928989, -26310.528971019863, -187500.02235174447, 5266.808601237369, -12437.807016111257, -33590.51449185783, -45063.77667948922, -40620.51810270764, -20828.830698589172, -24711.529876176104, -47465.69513865652, -32610.41284923707, 0.156, 1.008, 0.0, 192.0, 0.0, 0.0, 0.0, 0.0, 0.0, 0.0, 0.0, 0.0, 0.0, 1.695760955109477E9, 0.0, 2023-09-26 15:42:35.109
66.0, 12800.195848965152, 36822.88966451761, -44318.03307748235, -45503.27903071392, -24403.478134093064, -26306.68447097355, -187500.02235174447, 5254.13516213121, -12431.123844519121, -33590.67095406901, -45070.705720270365, -40626.82129464403, -20816.06785250519, -24709.182943008298, -47470.23254278094, -32610.904587615085, 0.156, 1.008, 0.0, 192.0, 0.0, 0.0, 0.0, 0.0, 0.0, 0.0, 0.0, 0.0, 0.0, 1.695760955109486E9, 0.0, 2023-09-26 15:42:35.109
68.0, 12810.567058392413, 36836.39011816861, -44324.22451069648, -45484.54826886037, -24364.09436036281, -26279.527101460353, -187500.02235174447, 5256.70561274357, -12432.17437650852, -33580.67972429749, -45051.37146131652, -40607.15175952337, -20836.07266379269, -24701.516294660127, -47483.46477549848, -32601.807427621774, 0.168, 1.006, 0.002, 192.0, 2.5, 32.0, 15.5, 56.0, 0.0, 8.0, 0.0, 0.0, 0.0, 1.695760955109495E9, 0.0, 2023-09-26 15:42:35.109
70.0, 12795.837258796366, 36821.257987172365, -44357.52860993488, -45510.96803080655, -24359.78047368294, -26282.96927010647, -187500.02235174447, 5214.192594789576, -12399.585533092682, -33584.323058643706, -45045.15767635795, -40597.764026852135, -20796.06304121769, -24701.44923942676, -47492.89721165862, -32598.097038042193, 0.168, 1.006, 0.002, 192.0, 0.0, 0.0, 0.0, 0.0, 0.0, 0.0, 0.0, 0.0, 0.0, 1.695760955109504E9, 0.0, 2023-09-26 15:42:35.109
72.0, 12800.039386753964, 36837.03831875781, -44362.20012452604, -45523.507359445975, -24352.605563712787, -26285.673831185562, -187500.02235174447, 5243.786304448403, -12426.966420050434, -33615.503742158864, -45060.423917820925, -40624.69787892078, -20850.064855821714, -24709.674681386314, -47503.67075248608, -32615.397288250602, 0.168, 1.006, 0.002, 192.0, 0.0, 0.0, 0.0, 0.0, 0.0, 0.0, 0.0, 0.0, 0.0, 1.695760955109513E9, 0.0, 2023-09-26 15:42:35.109
74.0, 12777.888807998754, 36836.635987357615, -44343.379955694676, -45512.040914540405, -24340.781490895926, -26252.414435436065, -187500.02235174447, 5165.577550599283, -12418.271591457318, -33595.05189598226, -45033.221844818814, -40630.822256901534, -20832.094053279645, -24699.303471959054, -47486.32579878876, -32595.97362231894, 0.168, 1.006, 0.002, 192.0, 0.0, 0.0, 0.0, 0.0, 0.0, 0.0, 0.0, 0.0, 0.0, 1.695760955109522E9, 0.0, 2023-09-26 15:42:35.109
76.0, 12787.276540669984, 36852.930409065535, -44350.17488600909, -45527.06128681437, -24347.91169737717, -26255.677790126538, -187500.02235174447, 5227.983621118501, -12424.105396760155, -33590.08980871318, -45035.36761228652, -40618.64055617339, -20839.067797549702, -24708.624149396917, -47482.48129874245, -32589.379857704625, 0.168, 1.006, 0.002, 192.0, 0.0, 0.0, 0.0, 0.0, 0.0, 0.0, 0.0, 0.0, 0.0, 1.695760955169699E9, 0.0, 2023-09-26 15:42:35.169
78.0, 12772.926720729676, 36834.132591978625, -44350.26429298691, -45524.37907747973, -24343.597810697298, -26241.842060308703, -187500.02235174447, 5154.491085349451, -12417.131652490098, -33595.81185529374, -45043.54835075717, -40632.47628599123, -20822.080471763667, -24707.864190085435, -47482.48129874245, -32589.82689259373, 0.184, 1.006, 0.004, 192.0, 2.5, 96.0, 15.5, 56.0, 0.0, 16.0, 0.0, 0.0, 0.0, 1.69576095516972E9, 0.0, 2023-09-26 15:42:35.169
80.0, 12792.43979363916, 36854.271513732856, -44355.181676767075, -45539.645318942705, -24343.977790353038, -26247.00531327788, -187500.02235174447, 5217.210080291043, -12446.725362148925, -33592.861425025636, -45046.87876068101, -40619.55697769606, -20838.307838238223, -24704.89140807288, -47474.23350503844, -32579.612145377654, 0.184, 1.006, 0.004, 192.0, 0.0, 0.0, 0.0, 0.0, 0.0, 0.0, 0.0, 0.0, 0.0, 1.69576095516973E9, 0.0, 2023-09-26 15:42:35.169
82.0, 12797.20071520814, 36841.06163275977, -44365.038796071865, -45547.893112646714, -24341.183822296123, -26247.631162122627, -187500.02235174447, 5125.1208931351775, -12422.831347326202, -33602.45032339696, -45045.33649031359, -40630.77755341263, -20815.084375749157, -24699.37052719242, -47484.82823191026, -32593.000840306384, 0.184, 1.006, 0.004, 192.0, 0.0, 0.0, 0.0, 0.0, 0.0, 0.0, 0.0, 0.0, 0.0, 1.695760955169739E9, 0.0, 2023-09-26 15:42:35.169
84.0, 12818.34546546286, 36857.57957191224, -44370.17969729659, -45561.63943548673, -24345.989447354015, -26253.062636025268, -187500.02235174447, 5182.006082773934, -12393.774079534303, -33591.14034070258, -45037.088696609586, -40619.288756762595, -20827.288428221756, -24694.810771323537, -47493.94774364802, -32596.800636863787, 0.184, 1.006, 0.004, 192.0, 0.0, 0.0, 0.0, 0.0, 0.0, 0.0, 0.0, 0.0, 0.0, 1.695760955169748E9, 0.0, 2023-09-26 15:42:35.169
86.0, 12803.280389699983, 36836.25600770188, -44374.895915376655, -45560.09716511931, -24346.794110154406, -26245.641856866107, -187500.02235174447, 5093.560229964284, -12404.905248273046, -33606.51834088783, -45040.843789678074, -40625.07785857652, -20846.712094153416, -24710.814620353536, -47499.37921755067, -32600.443971210003, 0.184, 1.006, 0.004, 192.0, 0.0, 0.0, 0.0, 0.0, 0.0, 0.0, 0.0, 0.0, 0.0, 1.695760955169757E9, 0.0, 2023-09-26 15:42:35.169
88.0, 12803.146279233251, 36860.86527834717, -44376.34877876625, -45570.893057691224, -24350.72801717854, -26247.631162122627, -187500.02235174447, 5170.137306468166, -12415.969361778423, -33587.809930778734, -45046.45407753636, -40610.6833351473, -20845.996838330848, -24715.195562266777, -47495.89234541564, -32598.655831653577, 0.18, 1.008, 0.008, 192.0, 2.5, 80.0, 15.5, 64.0, 0.0, 32.0, 0.0, 0.0, 0.0, 1.695760955169766E9, 0.0, 2023-09-26 15:42:35.169
90.0, 12795.881962285277, 36849.644702630605, -44371.99018859747, -45568.389662312235, -24346.548240965396, -26238.10931898467, -187500.02235174447, 5064.324148216742, -12422.36196069264, -33585.55240458875, -45052.15377237246, -40617.59002418399, -20834.575096914185, -24700.39870743736, -47489.61150522369, -32596.554767674777, 0.18, 1.008, 0.008, 192.0, 0.0, 0.0, 0.0, 0.0, 0.0, 0.0, 0.0, 0.0, 0.0, 1.695760955230049E9, 0.0, 2023-09-26 15:42:35.230
92.0, 12807.974256035597, 36877.204403544, -44367.81041238432, -45572.48003154755, -24352.560860223875, -26231.13557471461, -187500.02235174447, 5133.055762416811, -12409.286190186285, -33575.33765737267, -45040.843789678074, -40603.86605308844, -20822.058120019214, -24694.184922478787, -47485.431729010554, -32587.16703500355, 0.18, 1.008, 0.008, 192.0, 0.0, 0.0, 0.0, 0.0, 0.0, 0.0, 0.0, 0.0, 0.0, 1.69576095523007E9, 0.0, 2023-09-26 15:42:35.230
94.0, 12786.740098803057, 36853.17627825454, -44395.101892364255, -45592.19427015713, -24359.601659727297, -26241.216211463954, -187500.02235174447, 5083.725462403949, -12413.823594310714, -33598.449361139465, -45049.784487460194, -40618.93112885131, -20849.394303488054, -24704.73494586169, -47497.881650672156, -32598.477017697936, 0.18, 1.008, 0.008, 192.0, 0.0, 0.0, 0.0, 0.0, 0.0, 0.0, 0.0, 0.0, 0.0, 1.69576095523008E9, 0.0, 2023-09-26 15:42:35.230
96.0, 12781.554494089425, 36853.80212709929, -44409.36230532674, -45615.19421520164, -24360.42867427214, -26247.2958859558, -187500.02235174447, 5153.932291738069, -12436.51061493285, -33613.44738166897, -45073.05265343817, -40635.85139940398, -20848.03084707628, -24714.256788999654, -47517.72999974847, -32616.6489859401, 0.18, 1.008, 0.008, 192.0, 0.0, 0.0, 0.0, 0.0, 0.0, 0.0, 0.0, 0.0, 0.0, 1.695760955230115E9, 0.0, 2023-09-26 15:42:35.230
98.0, 12760.879130468265, 36831.740955321904, -44398.96874415502, -45597.84926150433, -24345.408301998177, -26221.99371123239, -187500.02235174447, 5055.875188812636, -12422.808995581747, -33612.39684967957, -45064.626045778525, -40640.16528608385, -20837.54787892674, -24710.65815814235, -47501.43557804055, -32605.003727078885, 0.186, 1.006, 0.014, 192.0, 2.5, 104.0, 15.5, 56.0, 0.0, 56.0, 0.0, 0.0, 0.0, 1.695760955230124E9, 0.0, 2023-09-26 15:42:35.230
100.0, 12763.33782235835, 36841.463964159964, -44400.30984882234, -45598.229241160065, -24353.231412557532, -26226.642874079094, -187500.02235174447, 5096.644770699117, -12439.461045200951, -33608.440590910985, -45074.192592405394, -40632.1410098244, -20829.79182360075, -24725.991454838688, -47503.55899376381, -32599.25932875387, 0.186, 1.006, 0.014, 192.0, 0.0, 0.0, 0.0, 0.0, 0.0, 0.0, 0.0, 0.0, 0.0, 1.695760955230133E9, 0.0, 2023-09-26 15:42:35.230
102.0, 12769.462200339103, 36837.21713271346, -44392.5314417519, -45593.40126435772, -24347.576421210342, -26214.86350475115, -187500.02235174447, 5031.534139100807, -12418.159832735042, -33599.18696870649, -45063.284941111204, -40627.51419872215, -20843.471091207397, -24707.55126566306, -47498.574554750274, -32592.68791588401, 0.186, 1.006, 0.014, 192.0, 0.0, 0.0, 0.0, 0.0, 0.0, 0.0, 0.0, 0.0, 0.0, 1.695760955230142E9, 0.0, 2023-09-26 15:42:35.230
104.0, 12769.551607316926, 36840.59224612621, -44397.58293599879, -45599.19036617164, -24356.852395159294, -26210.639025049095, -187500.02235174447, 5062.312491215765, -12421.84787057017, -33605.75838157635, -45060.356862587556, -40632.07395459103, -20830.305913723223, -24701.560998149038, -47495.1100343597, -32585.513005913857, 0.186, 1.006, 0.014, 192.0, 0.0, 0.0, 0.0, 0.0, 0.0, 0.0, 0.0, 0.0, 0.0, 1.695760955230151E9, 0.0, 2023-09-26 15:42:35.230
106.0, 12772.122057929286, 36837.88768504711, -44397.58293599879, -45599.16801442719, -24355.824214914348, -26211.510743082854, -187500.02235174447, 5036.563281603251, -12427.391103195085, -33602.562082119235, -45062.97201668883, -40628.9894138562, -20833.993951558346, -24695.12369574591, -47500.5638600068, -32592.084418783717, 0.186, 1.006, 0.014, 192.0, 0.0, 0.0, 0.0, 0.0, 0.0, 0.0, 0.0, 0.0, 0.0, 1.69576095528955E9, 0.0, 2023-09-26 15:42:35.289
108.0, 12771.987947462554, 36838.35707168068, -44400.890994178175, -45609.98625874356, -24358.3499620378, -26209.32027212623, -187500.02235174447, 5041.7712380613375, -12417.981018779401, -33602.02564025231, -45053.69604273987, -40629.34704176748, -20862.112446083123, -24696.196579479765, -47498.932182661556, -32592.12912227263, 0.186, 1.004, 0.014, 192.0, 2.5, 104.0, 15.5, 48.0, 0.0, 56.0, 0.0, 0.0, 0.0, 1.695760955289568E9, 0.0, 2023-09-26 15:42:35.289
110.0, 12776.592406820346, 36831.80801055527, -44414.391447829184, -45625.02898276198, -24363.937898151627, -26215.690519295993, -187500.02235174447, 5018.681886039006, -12431.906155575056, -33609.200550222464, -45053.986615417794, -40632.09630633549, -20847.69557090945, -24699.705803359248, -47507.247031598934, -32605.182541034526, 0.186, 1.004, 0.014, 192.0, 0.0, 0.0, 0.0, 0.0, 0.0, 0.0, 0.0, 0.0, 0.0, 1.695760955289578E9, 0.0, 2023-09-26 15:42:35.289
112.0, 12777.978214976576, 36836.09954549069, -44401.65095348966, -45611.8191017889, -24356.360656781275, -26203.642929034584, -187500.02235174447, 5007.930696956003, -12466.797228669791, -33612.0839252572, -45061.36269108805, -40638.734774438715, -20837.860803349115, -24710.45699244225, -47508.18580486606, -32603.729677644933, 0.186, 1.004, 0.014, 192.0, 0.0, 0.0, 0.0, 0.0, 0.0, 0.0, 0.0, 0.0, 0.0, 1.695760955289587E9, 0.0, 2023-09-26 15:42:35.289
114.0, 12785.95778774712, 36834.84784780119, -44401.382732556194, -45612.48965412255, -24355.15366258069, -26203.531170312308, -187500.02235174447, 5013.295115625277, -12396.255123168841, -33607.41241066604, -45051.21499910534, -40634.84557090349, -20827.221372988388, -24716.871943100923, -47503.1119588747, -32598.70053514249, 0.186, 1.004, 0.014, 192.0, 0.0, 0.0, 0.0, 0.0, 0.0, 0.0, 0.0, 0.0, 0.0, 1.695760955289597E9, 0.0, 2023-09-26 15:42:35.289
116.0, 12786.002491236031, 36834.6466821011, -44392.5314417519, -45604.64419181874, -24356.561822481373, -26189.80719921675, -187500.02235174447, 4972.324368038699, -12411.83428905419, -33592.995535492366, -45045.22473159131, -40629.90583537887, -20821.208753729912, -24697.023594024613, -47497.63578148315, -32584.842453580197, 0.186, 1.004, 0.014, 192.0, 0.0, 0.0, 0.0, 0.0, 0.0, 0.0, 0.0, 0.0, 0.0, 1.695760955289607E9, 0.0, 2023-09-26 15:42:35.289
118.0, 12801.894581543755, 36849.73410960843, -44398.253488332455, -45606.32057265289, -24355.757159680983, -26186.677954993007, -187500.02235174447, 4994.340836327176, -12420.618524625126, -33591.20739593594, -45043.861275179544, -40625.837817888, -20832.988123057858, -24700.1304865039, -47502.55316526332, -32591.235052494416, 0.194, 1.002, 0.016, 192.0, 3.0, 8.0, 15.5, 40.0, 0.0, 64.0, 0.0, 0.0, 0.0, 1.695760955289648E9, 0.0, 2023-09-26 15:42:35.289
120.0, 12827.084997544885, 36860.552353924795, -44372.48192697548, -45588.50623232201, -24349.0963398333, -26169.712980951426, -187500.02235174447, 4936.338059465655, -12421.244373469875, -33586.915861000525, -45026.024583104205, -40610.25865200265, -20831.155280012525, -24691.41330616633, -47497.032284382854, -32582.45081692348, 0.194, 1.002, 0.016, 192.0, 0.0, 0.0, 0.0, 0.0, 0.0, 0.0, 0.0, 0.0, 0.0, 1.695760955349874E9, 0.0, 2023-09-26 15:42:35.349
122.0, 12849.995535611575, 36877.271458777366, -44379.52272647891, -45597.55868882641, -24350.839775900815, -26175.23386183189, -187500.02235174447, 4972.79375467226, -12389.437841109973, -33567.827471235694, -45004.14222528246, -40583.36950342292, -20844.02988481878, -24671.676715812293, -47483.57653422076, -32574.11361624165, 0.194, 1.002, 0.016, 192.0, 0.0, 0.0, 0.0, 0.0, 0.0, 0.0, 0.0, 0.0, 0.0, 1.695760955349896E9, 0.0, 2023-09-26 15:42:35.349
124.0, 12824.626305654801, 36849.26472297487, -44390.273915561906, -45609.24865117653, -24356.53947073692, -26170.539995496274, -187500.02235174447, 4918.143739479035, -12398.870277270113, -33592.570852347715, -45029.600862217056, -40610.973907825224, -20817.341901939144, -24688.149951475854, -47495.244144826436, -32581.489691911902, 0.194, 1.002, 0.016, 192.0, 0.0, 0.0, 0.0, 0.0, 0.0, 0.0, 0.0, 0.0, 0.0, 1.695760955349905E9, 0.0, 2023-09-26 15:42:35.349
126.0, 12815.953828806143, 36850.15879275308, -44395.995962142464, -45625.74423858455, -24363.222642329056, -26185.359202070144, -187500.02235174447, 4980.952141398447, -12423.859527571145, -33587.117026700624, -45055.43947880739, -40620.78632364111, -20849.12608255459, -24691.301547444054, -47500.09447337323, -32587.3905524481, 0.194, 1.002, 0.016, 192.0, 0.0, 0.0, 0.0, 0.0, 0.0, 0.0, 0.0, 0.0, 0.0, 1.695760955349913E9, 0.0, 2023-09-26 15:42:35.349
128.0, 12793.91500877321, 36823.18023719552, -44399.080502877296, -45632.53916889896, -24362.48503476203, -26177.04435313277, -187500.02235174447, 4919.753065079816, -12438.477568444916, -33601.377439663105, -45063.642569022486, -40643.00395762968, -20832.3175707242, -24713.74269887718, -47507.02351415438, -32594.140779273606, 0.2, 1.004, 0.016, 192.0, 3.0, 32.0, 15.5, 48.0, 0.0, 64.0, 0.0, 0.0, 0.0, 1.695760955349925E9, 0.0, 2023-09-26 15:42:35.349
130.0, 12818.054892784941, 36850.22584798645, -44394.341933052776, -45621.028020504484, -24359.512252749475, -26173.155149597544, -187500.02235174447, 4973.531362239285, -12417.154004234553, -33598.427009395, -45055.21596136284, -40636.94663488229, -20817.923047294982, -24704.667890628327, -47517.59588928174, -32598.67818339803, 0.2, 1.004, 0.016, 192.0, 0.0, 0.0, 0.0, 0.0, 0.0, 0.0, 0.0, 0.0, 0.0, 1.695760955349934E9, 0.0, 2023-09-26 15:42:35.349
132.0, 12819.68657013018, 36847.118955507154, -44385.870621904214, -45608.108712209316, -24360.093398105313, -26160.079379091192, -187500.02235174447, 4896.216678168378, -12402.290094171774, -33577.23755565137, -45032.37247852951, -40620.696916663284, -20839.89481209455, -24682.405553150842, -47509.81748221129, -32590.11746527165, 0.2, 1.004, 0.016, 192.0, 0.0, 0.0, 0.0, 0.0, 0.0, 0.0, 0.0, 0.0, 0.0, 1.695760955349943E9, 0.0, 2023-09-26 15:42:35.349
134.0, 12829.655448157246, 36868.88955460663, -44392.59849698526, -45614.00957274551, -24362.283869061932, -26159.028847101792, -187500.02235174447, 4962.333138267176, -12419.322123446718, -33573.68362828298, -45031.143132584475, -40606.21298625624, -20851.450663977943, -24680.93033801679, -47514.33253459127, -32584.30601171327, 0.2, 1.004, 0.016, 192.0, 0.0, 0.0, 0.0, 0.0, 0.0, 0.0, 0.0, 0.0, 0.0, 1.695760955349952E9, 0.0, 2023-09-26 15:42:35.349
136.0, 12803.190982722163, 36843.40856592757, -44405.20488085805, -45621.877386793785, -24367.782398197938, -26156.212527300424, -187500.02235174447, 4875.988349436325, -12426.407626439051, -33580.32209638621, -45043.861275179544, -40622.55211145307, -20844.074588307692, -24685.244224696664, -47519.49578756044, -32589.62572689363, 0.2, 1.004, 0.016, 192.0, 0.0, 0.0, 0.0, 0.0, 0.0, 0.0, 0.0, 0.0, 0.0, 1.695760955410094E9, 0.0, 2023-09-26 15:42:35.410
138.0, 12808.354235691339, 36853.846830588205, -44396.64416273167, -45632.85209332134, -24364.34022955182, -26188.890777694083, -187500.02235174447, 4943.3341554801655, -12473.592158984204, -33581.90907024254, -45066.81651673514, -40636.81252441556, -20837.637285904562, -24687.12177123091, -47525.37429635219, -32588.6422501376, 0.198, 0.998, 0.014, 192.0, 3.0, 24.0, 15.5, 24.0, 0.0, 56.0, 0.0, 0.0, 0.0, 1.695760955410114E9, 0.0, 2023-09-26 15:42:35.410
140.0, 12795.792555307455, 36840.25696995938, -44386.40706377114, -45616.691782080154, -24356.986505626024, -26184.17455961401, -187500.02235174447, 4855.29063407071, -12395.808088279735, -33585.41829412202, -45046.632891492, -40633.52681798063, -20846.242707519854, -24686.585329363985, -47498.64160998364, -32570.40322666207, 0.198, 0.998, 0.014, 192.0, 0.0, 0.0, 0.0, 0.0, 0.0, 0.0, 0.0, 0.0, 0.0, 1.69576095541015E9, 0.0, 2023-09-26 15:42:35.410
142.0, 12772.658499796213, 36856.506688178386, -44393.559621996836, -45630.99689853155, -24363.982601640535, -26205.118144168635, -187500.02235174447, 4928.626707628573, -12416.930486790001, -33585.932384244494, -45048.19751360387, -40627.78241965562, -20843.98518132987, -24705.964291806733, -47483.688292943036, -32565.508194626356, 0.198, 0.998, 0.014, 192.0, 0.0, 0.0, 0.0, 0.0, 0.0, 0.0, 0.0, 0.0, 0.0, 1.695760955410159E9, 0.0, 2023-09-26 15:42:35.410
144.0, 12721.271839293462, 36849.220019485954, -44394.25252607495, -45641.81514284792, -24378.10890413629, -26222.48544961041, -187500.02235174447, 4842.684250197917, -12421.378483936607, -33584.77009353282, -45035.03233611969, -40638.01951861614, -20835.35740797012, -24683.32197467351, -47483.01774060938, -32570.96202027345, 0.198, 0.998, 0.014, 192.0, 0.0, 0.0, 0.0, 0.0, 0.0, 0.0, 0.0, 0.0, 0.0, 1.695760955410168E9, 0.0, 2023-09-26 15:42:35.410
146.0, 12697.08725179282, 36855.88083933364, -44397.87350867671, -45660.456497723644, -24382.914529194182, -26247.05001676679, -187500.02235174447, 4877.48591631483, -12422.183146736998, -33593.330811659194, -45040.3296995556, -40637.63953896041, -20852.635306434073, -24679.58923334947, -47490.52792674636, -32569.598563861677, 0.198, 0.998, 0.014, 192.0, 0.0, 0.0, 0.0, 0.0, 0.0, 0.0, 0.0, 0.0, 0.0, 1.695760955410176E9, 0.0, 2023-09-26 15:42:35.410
148.0, 12672.522684636437, 36843.0956415052, -44389.87158416171, -45659.98711109008, -24368.341191809322, -26243.47373765394, -187500.02235174447, 4783.474479135809, -12433.582536409205, -33606.965375776934, -45045.15767635795, -40646.28966406461, -20876.909300912535, -24690.07220149901, -47479.12853707415, -32560.657866079557, 0.202, 0.998, 0.018000000000000002, 192.0, 3.0, 40.0, 15.5, 24.0, 0.0, 72.0, 0.0, 0.0, 0.0, 1.695760955410185E9, 0.0, 2023-09-26 15:42:35.410
150.0, 12669.482847390515, 36846.11312700667, -44406.83655820329, -45675.834497908894, -24375.314936079376, -26258.516461672363, -187500.02235174447, 4767.828258017094, -12414.918829789023, -33605.62427110961, -45045.87293218052, -40645.10502160848, -20863.632364706085, -24688.395820664864, -47466.52215320136, -32557.886249767096, 0.202, 0.998, 0.018000000000000002, 192.0, 0.0, 0.0, 0.0, 0.0, 0.0, 0.0, 0.0, 0.0, 0.0, 1.695760955468943E9, 0.0, 2023-09-26 15:42:35.468
152.0, 12674.22141721504, 36846.13547875112, -44416.58191878581, -45675.52157348652, -24370.956345910592, -26245.686560355018, -187500.02235174447, 4667.02189052366, -12416.79637632327, -33599.768114062324, -45057.29467359718, -40642.4898675072, -20859.519643726308, -24679.58923334947, -47468.13147880215, -32562.602467847166, 0.202, 0.998, 0.018000000000000002, 192.0, 0.0, 0.0, 0.0, 0.0, 0.0, 0.0, 0.0, 0.0, 0.0, 1.695760955468971E9, 0.0, 2023-09-26 15:42:35.468
154.0, 12671.405097413672, 36853.13157476563, -44430.261186392454, -45681.19891657816, -24376.00784015749, -26256.884784327125, -187500.02235174447, 4647.821742036551, -12448.111170305154, -33596.50475937185, -45069.25285688077, -40640.76878318415, -20860.324306526698, -24674.26951816911, -47467.81855437977, -32559.137947456595, 0.202, 0.998, 0.018000000000000002, 192.0, 0.0, 0.0, 0.0, 0.0, 0.0, 0.0, 0.0, 0.0, 0.0, 1.695760955468981E9, 0.0, 2023-09-26 15:42:35.468
156.0, 12681.642196374201, 36856.43963294502, -44424.114456667245, -45666.20089604866, -24376.812502957884, -26248.458176667475, -187500.02235174447, 4562.728650895197, -12402.625370338605, -33603.187930963984, -45063.083775411105, -40633.52681798063, -20858.335001270178, -24683.41138165133, -47473.78647014934, -32558.556802100757, 0.202, 0.998, 0.018000000000000002, 192.0, 0.0, 0.0, 0.0, 0.0, 0.0, 0.0, 0.0, 0.0, 0.0, 1.69576095546899E9, 0.0, 2023-09-26 15:42:35.468
158.0, 12674.579045126326, 36850.136441008624, -44420.42641883212, -45678.919038643726, -24372.76683721147, -26257.15300526059, -187500.02235174447, 4497.640371041342, -12405.776966306803, -33580.053875452744, -45053.60663576206, -40619.48992246269, -20828.830698589172, -24660.523195329097, -47466.38804273463, -32546.06217695024, 0.202, 1.0, 0.022, 192.0, 3.0, 40.0, 15.5, 32.0, 0.0, 88.0, 0.0, 0.0, 0.0, 1.695760955468999E9, 0.0, 2023-09-26 15:42:35.468
160.0, 12678.602359128281, 36855.2996939778, -44433.27867189392, -45689.71493121564, -24380.098209392814, -26270.251127511397, -187500.02235174447, 4462.212856079681, -12412.0801582432, -33594.22488143741, -45059.46279280935, -40628.721192922734, -20871.433123520987, -24673.844835024458, -47476.66984518407, -32565.284677181804, 0.202, 1.0, 0.022, 192.0, 0.0, 0.0, 0.0, 0.0, 0.0, 0.0, 0.0, 0.0, 0.0, 1.695760955469008E9, 0.0, 2023-09-26 15:42:35.469
162.0, 12676.70246084958, 36850.985807297926, -44426.72961076851, -45682.49531775658, -24379.427657059154, -26267.188938521023, -187500.02235174447, 4395.425843647224, -12414.784719322291, -33593.73314305939, -45056.11003114105, -40620.54045445209, -20863.31944028371, -24683.769009562613, -47477.206287051, -32558.892078267585, 0.202, 1.0, 0.022, 192.0, 0.0, 0.0, 0.0, 0.0, 0.0, 0.0, 0.0, 0.0, 0.0, 1.695760955469045E9, 0.0, 2023-09-26 15:42:35.469
164.0, 12680.859885318267, 36860.64176090262, -44439.69362255259, -45693.71589347314, -24385.328517595353, -26271.43576996753, -187500.02235174447, 4401.282000694514, -12418.293943201774, -33588.61459357913, -45060.49097305429, -40612.873806103926, -20869.376763031098, -24687.434695653286, -47476.267513783874, -32563.943572514487, 0.202, 1.0, 0.022, 192.0, 0.0, 0.0, 0.0, 0.0, 0.0, 0.0, 0.0, 0.0, 0.0, 1.695760955469053E9, 0.0, 2023-09-26 15:42:35.469
166.0, 12668.946405523588, 36847.81185958527, -44436.43026786212, -45699.750864476075, -24383.294508849922, -26272.687467657026, -187500.02235174447, 4336.819569685408, -12420.909097303045, -33601.60095710766, -45064.44723182288, -40620.94278585229, -20858.335001270178, -24678.806922293537, -47475.1052230722, -32563.608296347655, 0.202, 1.0, 0.022, 192.0, 0.0, 0.0, 0.0, 0.0, 0.0, 0.0, 0.0, 0.0, 0.0, 1.695760955529283E9, 0.0, 2023-09-26 15:42:35.529
168.0, 12674.377879426227, 36860.753519624894, -44447.51673311195, -45703.41655056674, -24385.954366440103, -26282.589290450727, -187500.02235174447, 4345.156770367238, -12411.230791953898, -33590.38038139109, -45066.25772312376, -40616.09245730549, -20854.40109424604, -24683.9254717738, -47477.94389461802, -32569.240935950394, 0.20600000000000002, 0.998, 0.028, 192.0, 3.0, 56.0, 15.5, 24.0, 0.0, 112.0, 0.0, 0.0, 0.0, 1.695760955529304E9, 0.0, 2023-09-26 15:42:35.529
170.0, 12661.056239730864, 36848.66122587457, -44448.008471489964, -45704.73530348961, -24384.54620653942, -26279.080066571245, -187500.02235174447, 4263.550551360911, -12420.149137991564, -33594.91778551552, -45069.20815339186, -40618.864073617944, -20847.4720534649, -24682.092628728467, -47480.894324886125, -32571.520813884836, 0.20600000000000002, 0.998, 0.028, 192.0, 0.0, 0.0, 0.0, 0.0, 0.0, 0.0, 0.0, 0.0, 0.0, 1.695760955529314E9, 0.0, 2023-09-26 15:42:35.529
172.0, 12672.857960803267, 36861.8487551032, -44443.202846432076, -45708.691562258195, -24385.037944917436, -26279.661211927083, -187500.02235174447, 4269.138487474738, -12407.654512841049, -33596.43770413849, -45055.64064450749, -40608.96225082425, -20847.65086742054, -24680.103323471943, -47473.78647014934, -32567.564555116245, 0.20600000000000002, 0.998, 0.028, 192.0, 0.0, 0.0, 0.0, 0.0, 0.0, 0.0, 0.0, 0.0, 0.0, 1.695760955529323E9, 0.0, 2023-09-26 15:42:35.529
174.0, 12665.146608966186, 36854.85265908869, -44443.895750510186, -45700.868451698836, -24385.395572828722, -26268.66415365507, -187500.02235174447, 4181.564352698845, -12430.65445788556, -33596.75062856086, -45059.90982769845, -40615.39955322738, -20862.0230391053, -24695.21310272373, -47479.19559230752, -32566.759892315855, 0.20600000000000002, 0.998, 0.028, 192.0, 0.0, 0.0, 0.0, 0.0, 0.0, 0.0, 0.0, 0.0, 0.0, 1.695760955529331E9, 0.0, 2023-09-26 15:42:35.529
176.0, 12680.055222517876, 36872.06350231928, -44439.7383260415, -45704.489434300594, -24379.673526248163, -26269.71468564447, -187500.02235174447, 4218.7576554724765, -12412.929524532501, -33591.16269244703, -45056.62412126352, -40605.02834380011, -20845.236879019365, -24684.9760037632, -47477.049824839814, -32564.681180081512, 0.20600000000000002, 0.998, 0.028, 192.0, 0.0, 0.0, 0.0, 0.0, 0.0, 0.0, 0.0, 0.0, 0.0, 1.69576095552934E9, 0.0, 2023-09-26 15:42:35.529
178.0, 12664.006669998966, 36848.77298459685, -44442.644052820695, -45709.876204714325, -24374.845549445814, -26272.955688590493, -187500.02235174447, 4097.119462146695, -12397.238599924875, -33594.76132330434, -45051.21499910534, -40610.95155608077, -20853.909355868025, -24676.459989125728, -47472.713586415484, -32568.12334872763, 0.2, 0.992, 0.026000000000000002, 192.0, 3.0, 32.0, 15.5, 0.0, 0.0, 104.0, 0.0, 0.0, 0.0, 1.695760955529349E9, 0.0, 2023-09-26 15:42:35.529
180.0, 12671.98624276951, 36856.66315038957, -44444.1416196992, -45710.12207390333, -24378.600642514306, -26279.01301133788, -187500.02235174447, 4139.565424867324, -12415.678789100504, -33585.507701099836, -45052.466696794836, -40599.105131519456, -20857.70915242543, -24683.098457228956, -47467.72914740195, -32563.384778903102, 0.2, 0.992, 0.026000000000000002, 192.0, 0.0, 0.0, 0.0, 0.0, 0.0, 0.0, 0.0, 0.0, 0.0, 1.695760955589644E9, 0.0, 2023-09-26 15:42:35.589
182.0, 12671.829780558322, 36839.11703099216, -44440.52063709744, -45708.37863783582, -24379.11473263678, -26276.017877580867, -187500.02235174447, 4033.3052317267934, -12403.45238488345, -33601.9809367634, -45051.72908922781, -40607.77760836812, -20839.872460350092, -24687.166474719823, -47476.24516203942, -32572.41488366305, 0.2, 0.992, 0.026000000000000002, 192.0, 0.0, 0.0, 0.0, 0.0, 0.0, 0.0, 0.0, 0.0, 0.0, 1.695760955589669E9, 0.0, 2023-09-26 15:42:35.589
184.0, 12681.776306840935, 36858.16071726808, -44445.88505576671, -45719.532158319016, -24381.01463091548, -26281.717572416972, -187500.02235174447, 4076.6005607367233, -12407.36394016313, -33606.048954254264, -45051.66203399444, -40601.58617515399, -20848.053198820737, -24687.971137520213, -47473.138269560135, -32570.850261551175, 0.2, 0.992, 0.026000000000000002, 192.0, 0.0, 0.0, 0.0, 0.0, 0.0, 0.0, 0.0, 0.0, 0.0, 1.695760955589707E9, 0.0, 2023-09-26 15:42:35.589
186.0, 12672.835609058811, 36837.28418794682, -44448.589616845806, -45717.05111468448, -24379.025325658957, -26271.14519728961, -187500.02235174447, 3970.005091429364, -12409.710873330936, -33601.48919838538, -45058.97105443133, -40611.957384581256, -20841.146509784045, -24682.807884551035, -47477.80978415129, -32576.192328475994, 0.2, 0.992, 0.026000000000000002, 192.0, 0.0, 0.0, 0.0, 0.0, 0.0, 0.0, 0.0, 0.0, 0.0, 1.695760955589716E9, 0.0, 2023-09-26 15:42:35.589
188.0, 12682.357452196771, 36852.77394685435, -44441.88409350921, -45706.76931223504, -24378.622994258763, -26264.506729186385, -187500.02235174447, 4015.93792628502, -12402.111280216131, -33596.25889018284, -45055.79710671867, -40597.67461987431, -20846.577983686686, -24684.93130027429, -47469.51728695838, -32561.149604457572, 0.2, 0.996, 0.03, 192.0, 3.0, 32.0, 15.5, 16.0, 0.0, 120.0, 0.0, 0.0, 0.0, 1.69576095558974E9, 0.0, 2023-09-26 15:42:35.589
190.0, 12667.918225278643, 36830.62336809914, -44462.067718752354, -45726.036515955515, -24390.02238393097, -26282.321069517264, -187500.02235174447, 3946.2675388178277, -12407.654512841049, -33607.121837988125, -45066.68240626841, -40614.058448560056, -20853.261155278822, -24688.596986364963, -47480.49199348593, -32579.54509014429, 0.2, 0.996, 0.03, 192.0, 0.0, 0.0, 0.0, 0.0, 0.0, 0.0, 0.0, 0.0, 0.0, 1.695760955589753E9, 0.0, 2023-09-26 15:42:35.589
192.0, 12674.489638148503, 36846.47075491795, -44456.5915413608, -45719.64391704129, -24384.792075728426, -26275.392028736118, -187500.02235174447, 4002.3704174006484, -12428.978077051412, -33602.60678560815, -45076.20424940637, -40620.42869572982, -20846.086245308667, -24686.69708808626, -47486.571667977776, -32582.763741345854, 0.2, 0.996, 0.03, 192.0, 0.0, 0.0, 0.0, 0.0, 0.0, 0.0, 0.0, 0.0, 0.0, 1.695760955589767E9, 0.0, 2023-09-26 15:42:35.589
194.0, 12668.566425867848, 36835.78662106831, -44457.99970126149, -45718.79455075199, -24385.663793762185, -26276.934299103537, -187500.02235174447, 3940.59019572618, -12406.112242473631, -33611.79335257928, -45069.856353981064, -40617.74648639518, -20832.541088168753, -24690.630995110394, -47480.58140046375, -32580.17093898904, 0.2, 0.996, 0.03, 192.0, 0.0, 0.0, 0.0, 0.0, 0.0, 0.0, 0.0, 0.0, 0.0, 1.695760955589778E9, 0.0, 2023-09-26 15:42:35.589
196.0, 12671.494504391492, 36844.9955397839, -44455.786878560415, -45718.36986760734, -24381.72988673805, -26270.00525832239, -187500.02235174447, 3960.773820969322, -12396.255123168841, -33597.5776431057, -45066.369481846035, -40607.79996011257, -20857.195062302955, -24687.613509608927, -47472.378310248656, -32572.660752852054, 0.2, 0.996, 0.03, 192.0, 0.0, 0.0, 0.0, 0.0, 0.0, 0.0, 0.0, 0.0, 0.0, 1.695760955649898E9, 0.0, 2023-09-26 15:42:35.649
198.0, 12666.21949270004, 36833.88672278961, -44466.35925368777, -45722.41553335376, -24387.697802507617, -26274.319145002264, -187500.02235174447, 3893.4950701588477, -12405.553448862249, -33599.902224529054, -45068.761118502756, -40606.83883510099, -20852.59060294516, -24680.975041505702, -47479.86614464118, -32580.68502911151, 0.20600000000000002, 0.994, 0.028, 192.0, 3.0, 56.0, 15.5, 8.0, 0.0, 112.0, 0.0, 0.0, 0.0, 1.69576095564992E9, 0.0, 2023-09-26 15:42:35.649
200.0, 12663.492579876493, 36835.04901350129, -44473.1988874911, -45726.99764096709, -24393.665718277185, -26278.14129330412, -187500.02235174447, 3936.030439857297, -12433.783702109302, -33605.288994942784, -45089.21296467936, -40616.360678238954, -20849.863690121616, -24689.803980565546, -47489.835022668245, -32584.26130822436, 0.20600000000000002, 0.994, 0.028, 192.0, 0.0, 0.0, 0.0, 0.0, 0.0, 0.0, 0.0, 0.0, 0.0, 1.69576095564993E9, 0.0, 2023-09-26 15:42:35.649
202.0, 12675.003728270976, 36836.41246991306, -44457.06092799437, -45714.972402450134, -24385.842607717826, -26273.67094441306, -187500.02235174447, 3911.1529482785404, -12414.605905366649, -33614.16263749154, -45083.06623495415, -40617.76883813964, -20851.271850022298, -24701.203370237756, -47489.74561569043, -32585.31184021376, 0.20600000000000002, 0.994, 0.028, 192.0, 0.0, 0.0, 0.0, 0.0, 0.0, 0.0, 0.0, 0.0, 0.0, 1.695760955649939E9, 0.0, 2023-09-26 15:42:35.649
204.0, 12679.205856228573, 36838.08885074721, -44451.00360524697, -45714.078332671925, -24382.087514649334, -26270.921679845058, -187500.02235174447, 3910.7729686228004, -12424.150100249064, -33600.37161116262, -45075.71251102835, -40610.16924502483, -20860.078437337692, -24680.863282783426, -47482.54835397582, -32581.914375056553, 0.20600000000000002, 0.994, 0.028, 192.0, 0.0, 0.0, 0.0, 0.0, 0.0, 0.0, 0.0, 0.0, 0.0, 1.695760955649996E9, 0.0, 2023-09-26 15:42:35.649
206.0, 12691.812240101366, 36842.69331010501, -44461.06189025186, -45716.71583851765, -24390.223549631068, -26277.448389226007, -187500.02235174447, 3903.843927841655, -12412.951876276957, -33596.772980305315, -45071.197458648385, -40605.47537868922, -20845.482748208375, -24690.69805034376, -47484.470603998976, -32580.8414913227, 0.20600000000000002, 0.994, 0.028, 192.0, 0.0, 0.0, 0.0, 0.0, 0.0, 0.0, 0.0, 0.0, 0.0, 1.695760955650005E9, 0.0, 2023-09-26 15:42:35.650
208.0, 12693.13099302423, 36841.598074626694, -44455.5410093714, -45710.41264658125, -24386.602567029306, -26270.76521763387, -187500.02235174447, 3900.267648728806, -12417.109300745644, -33607.50181764386, -45076.3383598731, -40614.01374507115, -20851.093036066657, -24686.764143319626, -47488.56097323429, -32585.35654370267, 0.20800000000000002, 1.0, 0.022, 192.0, 3.0, 64.0, 15.5, 32.0, 0.0, 88.0, 0.0, 0.0, 0.0, 1.695760955650014E9, 0.0, 2023-09-26 15:42:35.650
210.0, 12702.8987053512, 36845.86725781766, -44447.42732613413, -45698.45446329766, -24378.377125069754, -26268.261822254877, -187500.02235174447, 3891.9080963025212, -12436.622373655126, -33606.965375776934, -45069.364615603045, -40600.490939675685, -20855.45162623544, -24679.87980602739, -47477.13923181764, -32574.78416857531, 0.20800000000000002, 1.0, 0.022, 192.0, 0.0, 0.0, 0.0, 0.0, 0.0, 0.0, 0.0, 0.0, 0.0, 1.695760955709291E9, 0.0, 2023-09-26 15:42:35.709
212.0, 12694.18152501363, 36838.08885074721, -44454.736346571015, -45705.49526280109, -24386.06612516238, -26271.72634264545, -187500.02235174447, 3863.9907674778424, -12400.636065082082, -33596.81768379422, -45061.20622887686, -40596.31116346254, -20833.792785858248, -24673.710724557724, -47476.04399633932, -32571.610220862654, 0.20800000000000002, 1.0, 0.022, 192.0, 0.0, 0.0, 0.0, 0.0, 0.0, 0.0, 0.0, 0.0, 0.0, 1.695760955709313E9, 0.0, 2023-09-26 15:42:35.709
214.0, 12694.673263391645, 36835.451344901485, -44468.61677987776, -45730.1939404242, -24395.252692133512, -26287.596081208718, -187500.02235174447, 3905.6991226314453, -12428.240469484386, -33608.55234963326, -45082.239220409305, -40610.57157642503, -20858.916146626016, -24693.112038744934, -47491.91373490259, -32592.889081584108, 0.20800000000000002, 1.0, 0.022, 192.0, 0.0, 0.0, 0.0, 0.0, 0.0, 0.0, 0.0, 0.0, 0.0, 1.695760955709323E9, 0.0, 2023-09-26 15:42:35.709
216.0, 12697.578990170836, 36832.83619080022, -44450.109535468764, -45711.552585548474, -24383.11569489428, -26274.408551980086, -187500.02235174447, 3872.6408925820465, -12420.104434502655, -33625.718489374936, -45081.27809539773, -40619.914605607344, -20839.134852783067, -24700.80103883756, -47493.52306050337, -32595.727753129933, 0.20800000000000002, 1.0, 0.022, 192.0, 0.0, 0.0, 0.0, 0.0, 0.0, 0.0, 0.0, 0.0, 0.0, 1.695760955709331E9, 0.0, 2023-09-26 15:42:35.709
218.0, 12713.89576362321, 36851.38813869812, -44441.12413419773, -45702.880108699814, -24376.656040746697, -26269.58057517774, -187500.02235174447, 3909.7671401223115, -12404.905248273046, -33601.91388153003, -45064.71545275634, -40597.67461987431, -20864.481730995387, -24686.250053197153, -47475.641664939125, -32582.540223901302, 0.202, 0.992, 0.022, 192.0, 3.0, 40.0, 15.5, 0.0, 0.0, 88.0, 0.0, 0.0, 0.0, 1.695760955709341E9, 0.0, 2023-09-26 15:42:35.709
220.0, 12702.921057095655, 36834.266702445355, -44454.110497726266, -45701.11432088784, -24381.931052438147, -26268.686505399528, -187500.02235174447, 3845.1258951575633, -12400.948989504455, -33595.11895121562, -45061.541505043686, -40596.84760532947, -20836.54205042625, -24684.908948529835, -47472.981807348944, -32575.611183120156, 0.202, 0.992, 0.022, 192.0, 0.0, 0.0, 0.0, 0.0, 0.0, 0.0, 0.0, 0.0, 0.0, 1.69576095570935E9, 0.0, 2023-09-26 15:42:35.709
222.0, 12724.334028283838, 36856.976074811944, -44444.879227266225, -45691.8830504278, -24373.035058144935, -26260.30460122879, -187500.02235174447, 3897.563087649714, -12417.154004234553, -33597.62234659462, -45068.22467663583, -40593.360733194444, -20845.080416808178, -24684.439561896274, -47481.47547024197, -32576.795825576286, 0.202, 0.992, 0.022, 192.0, 0.0, 0.0, 0.0, 0.0, 0.0, 0.0, 0.0, 0.0, 0.0, 1.695760955709359E9, 0.0, 2023-09-26 15:42:35.709
224.0, 12720.310714281883, 36845.95666479548, -44441.14648594218, -45694.47585278462, -24368.92233716516, -26257.711798871973, -187500.02235174447, 3815.241612820818, -12405.039358739778, -33596.7282768164, -45054.03131890671, -40588.21983196972, -20838.754873127327, -24668.59217507746, -47463.43761246653, -32566.044636493283, 0.202, 0.992, 0.022, 192.0, 0.0, 0.0, 0.0, 0.0, 0.0, 0.0, 0.0, 0.0, 0.0, 1.695760955709367E9, 0.0, 2023-09-26 15:42:35.709
226.0, 12731.598345231814, 36864.28509524883, -44445.41566913315, -45699.4379400537, -24379.092380892325, -26269.66998215556, -187500.02235174447, 3894.657360870524, -12397.573876091705, -33582.8254917652, -45052.98078691731, -40578.76504406513, -20842.59937317364, -24666.31229714302, -47470.63487418114, -32569.620915606134, 0.202, 0.992, 0.022, 192.0, 0.0, 0.0, 0.0, 0.0, 0.0, 0.0, 0.0, 0.0, 0.0, 1.695760955768954E9, 0.0, 2023-09-26 15:42:35.768
228.0, 12718.209650303084, 36838.78175482533, -44444.18632318811, -45701.226079610125, -24375.694915735116, -26260.125787273144, -187500.02235174447, 3802.0093801032763, -12410.783757064792, -33594.35899190414, -45055.618292763036, -40595.528852406605, -20841.32532373969, -24669.665058811315, -47473.04886258231, -32576.460549409458, 0.2, 0.994, 0.026000000000000002, 192.0, 3.0, 32.0, 15.5, 8.0, 0.0, 104.0, 0.0, 0.0, 0.0, 1.695760955768974E9, 0.0, 2023-09-26 15:42:35.768
230.0, 12731.933621398643, 36856.88666783413, -44448.18728544561, -45701.58370752141, -24375.225529101557, -26265.356095475687, -187500.02235174447, 3872.0597472262084, -12408.54858261926, -33594.71661981542, -45058.54637128668, -40591.326724449005, -20831.624666646083, -24680.103323471943, -47473.764118404884, -32575.901755798073, 0.2, 0.994, 0.026000000000000002, 192.0, 0.0, 0.0, 0.0, 0.0, 0.0, 0.0, 0.0, 0.0, 0.0, 1.695760955768983E9, 0.0, 2023-09-26 15:42:35.768
232.0, 12725.496318995514, 36840.74870833739, -44455.295140182396, -45703.12597788882, -24377.1030756358, -26267.121883287655, -187500.02235174447, 3796.9355341119212, -12394.623445823605, -33592.10146571416, -45053.76309797324, -40594.187747739285, -20833.27869573578, -24676.50469261464, -47473.49589747142, -32577.06404650975, 0.2, 0.994, 0.026000000000000002, 192.0, 0.0, 0.0, 0.0, 0.0, 0.0, 0.0, 0.0, 0.0, 0.0, 1.695760955768992E9, 0.0, 2023-09-26 15:42:35.768
234.0, 12736.202804589606, 36858.76421436837, -44450.62362559124, -45699.884974942805, -24376.544282024417, -26273.313316501775, -187500.02235174447, 3872.104450715119, -12409.353245419652, -33591.92265175851, -45058.6357782645, -40588.9797912812, -20843.471091207397, -24680.662117083328, -47480.626103952665, -32578.5392616438, 0.2, 0.994, 0.026000000000000002, 192.0, 0.0, 0.0, 0.0, 0.0, 0.0, 0.0, 0.0, 0.0, 0.0, 1.695760955769001E9, 0.0, 2023-09-26 15:42:35.769
236.0, 12726.368037029271, 36839.40760367008, -44444.27573016593, -45703.55066103347, -24377.214834358077, -26273.96151709098, -187500.02235174447, 3804.46807199336, -12403.519440116817, -33593.88960527058, -45051.01383340524, -40594.970058795225, -20850.154262799533, -24681.51148337263, -47474.09939457171, -32580.327401200226, 0.2, 0.994, 0.026000000000000002, 192.0, 0.0, 0.0, 0.0, 0.0, 0.0, 0.0, 0.0, 0.0, 0.0, 1.695760955769009E9, 0.0, 2023-09-26 15:42:35.769
238.0, 12729.22906031955, 36845.21905722845, -44454.736346571015, -45719.308640874464, -24382.467494305074, -26281.024668338858, -187500.02235174447, 3892.690407358457, -12417.332818190196, -33603.12087573062, -45065.90009521248, -40602.36848620993, -20848.433178476476, -24684.327803173997, -47483.39772026512, -32586.36237220316, 0.2, 0.998, 0.022, 192.0, 3.0, 32.0, 15.5, 24.0, 0.0, 88.0, 0.0, 0.0, 0.0, 1.695760955769018E9, 0.0, 2023-09-26 15:42:35.769
240.0, 12719.818975903867, 36827.91880702005, -44459.36315767326, -45713.85481522737, -24385.1050001508, -26287.350212019708, -187500.02235174447, 3844.7682672462784, -12414.114166988633, -33603.72437283091, -45069.521077814235, -40610.75039038067, -20835.60327715913, -24690.899216043857, -47489.05271161231, -32596.6441746526, 0.2, 0.998, 0.022, 192.0, 0.0, 0.0, 0.0, 0.0, 0.0, 0.0, 0.0, 0.0, 0.0, 1.695760955829268E9, 0.0, 2023-09-26 15:42:35.829
242.0, 12733.766464443977, 36843.207400227475, -44444.454544121574, -45705.74113199009, -24380.29937509291, -26274.028572324347, -187500.02235174447, 3900.133538262074, -12428.374579951118, -33603.56791061973, -45067.24119987979, -40603.06139028804, -20854.065818079212, -24690.630995110394, -47487.35397903371, -32590.25157573838, 0.2, 0.998, 0.022, 192.0, 0.0, 0.0, 0.0, 0.0, 0.0, 0.0, 0.0, 0.0, 0.0, 1.695760955829292E9, 0.0, 2023-09-26 15:42:35.829
244.0, 12731.240717320528, 36831.22686519943, -44448.231988934516, -45706.21051862366, -24381.886348949236, -26271.681639156537, -187500.02235174447, 3840.297918355217, -12403.810012794735, -33603.85848329765, -45055.43947880739, -40599.2839454751, -20843.11346329611, -24684.953652018747, -47482.369540020176, -32587.83758733721, 0.2, 0.998, 0.022, 192.0, 0.0, 0.0, 0.0, 0.0, 0.0, 0.0, 0.0, 0.0, 0.0, 1.695760955829302E9, 0.0, 2023-09-26 15:42:35.829
246.0, 12733.051208621408, 36839.89934204809, -44446.130924955716, -45707.55162329097, -24383.763895483484, -26270.564051933772, -187500.02235174447, 3884.263799698806, -12397.193896435965, -33602.360916419144, -45058.613426520045, -40595.84177682898, -20838.35254172713, -24677.443465881763, -47479.910848130094, -32585.378895447124, 0.2, 0.998, 0.022, 192.0, 0.0, 0.0, 0.0, 0.0, 0.0, 0.0, 0.0, 0.0, 0.0, 1.695760955829311E9, 0.0, 2023-09-26 15:42:35.829
248.0, 12728.71497019708, 36833.05970824477, -44450.668329080145, -45707.61867852434, -24388.30129960791, -26270.049961811303, -187500.02235174447, 3852.9043022280102, -12410.895515787068, -33608.19472172198, -45067.64353127999, -40597.3840471964, -20838.576059171686, -24680.70682057224, -47485.6105429662, -32595.21366300746, 0.21, 1.006, 0.028, 192.0, 3.0, 72.0, 15.5, 56.0, 0.0, 112.0, 0.0, 0.0, 0.0, 1.695760955829346E9, 0.0, 2023-09-26 15:42:35.829
250.0, 12732.782987687944, 36836.211304212964, -44455.58571286032, -45712.401951837775, -24395.92324446717, -26272.732171145937, -187500.02235174447, 3889.5835148791693, -12426.720550861424, -33613.469733413425, -45078.819403507645, -40602.48024493221, -20828.60718114462, -24681.489131628172, -47491.33258954676, -32596.912395586063, 0.21, 1.006, 0.028, 192.0, 0.0, 0.0, 0.0, 0.0, 0.0, 0.0, 0.0, 0.0, 0.0, 1.695760955829356E9, 0.0, 2023-09-26 15:42:35.829
252.0, 12745.814054705388, 36834.33375767872, -44441.81703827585, -45710.41264658125, -24383.92035769467, -26274.520310702363, -187500.02235174447, 3869.4669448693926, -12403.139460461076, -33607.77003857733, -45067.93410395791, -40597.764026852135, -20862.403018761044, -24677.666983326315, -47480.469641741474, -32594.565462418257, 0.21, 1.006, 0.028, 192.0, 0.0, 0.0, 0.0, 0.0, 0.0, 0.0, 0.0, 0.0, 0.0, 1.695760955829365E9, 0.0, 2023-09-26 15:42:35.829
254.0, 12736.292211567428, 36835.585455368215, -44444.20867493256, -45715.754713506074, -24388.189540885633, -26274.766179891372, -187500.02235174447, 3888.3765206785824, -12409.442652397473, -33608.79821882227, -45063.843734722584, -40599.88744257539, -20845.3709894861, -24680.572710105505, -47481.319008030776, -32598.387610720114, 0.21, 1.006, 0.028, 192.0, 0.0, 0.0, 0.0, 0.0, 0.0, 0.0, 0.0, 0.0, 0.0, 1.695760955829374E9, 0.0, 2023-09-26 15:42:35.829
0.0, 12737.298040067917, 36832.299748933285, -44448.45550637907, -45716.112341417356, -24389.15066589721, -26273.58153743524, -187500.02235174447, 3892.779814336278, -12426.966420050434, -33611.569835134724, -45074.416109849946, -40602.860224587945, -20842.420559217997, -24686.942957275267, -47487.957476134005, -32596.59947116369, 0.21, 1.006, 0.028, 192.0, 0.0, 0.0, 0.0, 0.0, 0.0, 0.0, 0.0, 0.0, 0.0, 1.695760955889718E9, 0.0, 2023-09-26 15:42:35.889
2.0, 12727.105644596297, 36824.29782441829, -44442.97932898752, -45717.60990829586, -24383.652136761208, -26271.502825200896, -187500.02235174447, 3872.7302995598675, -12416.304637945252, -33603.32204143072, -45066.503592312765, -40604.35779146645, -20850.37778024409, -24674.850663524947, -47478.18976380704, -32585.06597102475, 0.20600000000000002, 0.998, 0.026000000000000002, 192.0, 3.0, 56.0, 15.5, 24.0, 0.0, 104.0, 0.0, 0.0, 0.0, 1.69576095588975E9, 0.0, 2023-09-26 15:42:35.889
4.0, 12731.79951093191, 36837.552408880285, -44439.9394917416, -45711.17260589273, -24386.513160051487, -26277.314278759277, -187500.02235174447, 3908.2248697548953, -12399.585533092682, -33602.20445420795, -45058.6357782645, -40601.72028562073, -20844.722788896896, -24679.812750794026, -47482.10131908671, -32590.363334460657, 0.20600000000000002, 0.998, 0.026000000000000002, 192.0, 0.0, 0.0, 0.0, 0.0, 0.0, 0.0, 0.0, 0.0, 0.0, 1.69576095588976E9, 0.0, 2023-09-26 15:42:35.889
6.0, 12716.510917724481, 36823.20258893998, -44449.43898313511, -45720.76150426406, -24387.78720948544, -26282.321069517264, -187500.02235174447, 3878.2735321847836, -12419.389178680085, -33602.67384084152, -45061.742670743784, -40603.03903854359, -20836.832623104172, -24680.617413594417, -47485.521135988376, -32590.67625888303, 0.20600000000000002, 0.998, 0.026000000000000002, 192.0, 0.0, 0.0, 0.0, 0.0, 0.0, 0.0, 0.0, 0.0, 0.0, 1.695760955889769E9, 0.0, 2023-09-26 15:42:35.889
8.0, 12731.643048720724, 36830.15398146558, -44444.253378421476, -45718.79455075199, -24383.227453616557, -26278.72243865996, -187500.02235174447, 3906.4367301984707, -12409.733225075392, -33608.105314744156, -45056.69117649689, -40603.73194262171, -20841.347675484143, -24684.998355507658, -47484.1576795766, -32596.085381041215, 0.20600000000000002, 0.998, 0.026000000000000002, 192.0, 0.0, 0.0, 0.0, 0.0, 0.0, 0.0, 0.0, 0.0, 0.0, 1.695760955889779E9, 0.0, 2023-09-26 15:42:35.889
10.0, 12726.65860970719, 36817.3911353816, -44436.273805650926, -45711.4408268262, -24381.77459022696, -26270.988735078423, -187500.02235174447, 3831.9830694178427, -12406.514573873828, -33601.42214315202, -45051.70673748336, -40601.183843753795, -20832.40697770202, -24682.338497917473, -47475.932237617046, -32586.943517558997, 0.20600000000000002, 0.998, 0.026000000000000002, 192.0, 0.0, 0.0, 0.0, 0.0, 0.0, 0.0, 0.0, 0.0, 0.0, 1.695760955889788E9, 0.0, 2023-09-26 15:42:35.889
12.0, 12745.814054705388, 36837.23948445791, -44441.97350048703, -45709.96561169215, -24385.574386784363, -26272.687467657026, -187500.02235174447, 3893.1821457364736, -12430.207422996453, -33602.495026885874, -45063.10612715556, -40594.29950646157, -20855.2728122798, -24680.528006616594, -47481.29665628632, -32594.3419449737, 0.214, 0.998, 0.026000000000000002, 192.0, 3.0, 88.0, 15.5, 24.0, 0.0, 104.0, 0.0, 0.0, 0.0, 1.695760955889797E9, 0.0, 2023-09-26 15:42:35.889
14.0, 12733.364133043782, 36823.18023719552, -44454.13284947072, -45712.67017277124, -24388.14483739672, -26275.90611885859, -187500.02235174447, 3823.2211855913624, -12399.160849948032, -33602.852654797156, -45050.03035664921, -40592.84664307197, -20818.191268228446, -24668.703933799738, -47475.440499239034, -32589.82689259373, 0.214, 0.998, 0.026000000000000002, 192.0, 0.0, 0.0, 0.0, 0.0, 0.0, 0.0, 0.0, 0.0, 0.0, 1.695760955950002E9, 0.0, 2023-09-26 15:42:35.950
16.0, 12742.751865715012, 36841.128687993136, -44453.77522155944, -45721.32029787544, -24391.654061276207, -26282.522235217362, -187500.02235174447, 3912.359942479127, -12428.978077051412, -33613.80500958026, -45072.71737727134, -40599.66392513084, -20850.489538966365, -24683.053753740045, -47493.746577947924, -32607.283605013326, 0.214, 0.998, 0.026000000000000002, 192.0, 0.0, 0.0, 0.0, 0.0, 0.0, 0.0, 0.0, 0.0, 0.0, 1.695760955950027E9, 0.0, 2023-09-26 15:42:35.950
18.0, 12729.743150442024, 36820.11804820514, -44454.26695993745, -45718.50397807408, -24390.804694986906, -26277.873072370658, -187500.02235174447, 3849.372726604072, -12408.0791959857, -33624.33268121871, -45067.37531034653, -40610.50452119166, -20852.65765817853, -24692.21796896672, -47490.99731337992, -32607.68593641352, 0.214, 0.998, 0.026000000000000002, 192.0, 0.0, 0.0, 0.0, 0.0, 0.0, 0.0, 0.0, 0.0, 0.0, 1.695760955950037E9, 0.0, 2023-09-26 15:42:35.950
20.0, 12747.065752394887, 36837.86533330266, -44442.26407316495, -45704.89176570079, -24386.379049584753, -26269.267650755366, -187500.02235174447, 3908.381331966082, -12411.096681487166, -33619.839980583194, -45066.503592312765, -40598.188709996786, -20849.729579654882, -24683.031401995588, -47484.13532783215, -32599.058163053774, 0.214, 0.998, 0.026000000000000002, 192.0, 0.0, 0.0, 0.0, 0.0, 0.0, 0.0, 0.0, 0.0, 0.0, 1.695760955950046E9, 0.0, 2023-09-26 15:42:35.950
22.0, 12743.668287237679, 36818.57577783773, -44447.404974389676, -45705.65172501227, -24387.451933318607, -26269.96055483348, -187500.02235174447, 3834.5982235191136, -12416.148175734064, -33610.608710123146, -45066.81651673514, -40596.73584660719, -20844.901602852537, -24674.8730152694, -47480.78256616385, -32595.77245661884, 0.216, 0.998, 0.022, 192.0, 3.0, 96.0, 15.5, 24.0, 0.0, 88.0, 0.0, 0.0, 0.0, 1.695760955950056E9, 0.0, 2023-09-26 15:42:35.950
24.0, 12745.56818551638, 36829.729298320926, -44456.613893105256, -45718.14635016279, -24391.788171742937, -26276.643726425616, -187500.02235174447, 3908.135462777074, -12418.159832735042, -33622.81276259575, -45075.26547613925, -40604.55895716655, -20846.55563194223, -24686.0265357526, -47490.84085116874, -32604.936671845517, 0.216, 0.998, 0.022, 192.0, 0.0, 0.0, 0.0, 0.0, 0.0, 0.0, 0.0, 0.0, 0.0, 1.695760955950065E9, 0.0, 2023-09-26 15:42:35.950
26.0, 12728.625563219257, 36816.85469351467, -44452.45646863657, -45709.1385971473, -24389.664756019683, -26272.039267067823, -187500.02235174447, 3843.717735256879, -12411.633123354093, -33615.45903866995, -45074.77373776123, -40611.108018291954, -20838.88898359406, -24686.74179157517, -47490.125595346166, -32605.74133464591, 0.216, 0.998, 0.022, 192.0, 0.0, 0.0, 0.0, 0.0, 0.0, 0.0, 0.0, 0.0, 0.0, 1.695760955950074E9, 0.0, 2023-09-26 15:42:35.950
28.0, 12737.94624065712, 36834.691385590006, -44438.441924863095, -45699.14736737578, -24377.885386691738, -26267.85949085468, -187500.02235174447, 3904.067445286208, -12420.283248458296, -33607.70298334396, -45073.81261274965, -40598.07695127451, -20842.778187129283, -24683.99252700717, -47484.85058365471, -32600.958061332472, 0.216, 0.998, 0.022, 192.0, 0.0, 0.0, 0.0, 0.0, 0.0, 0.0, 0.0, 0.0, 0.0, 1.695760955950083E9, 0.0, 2023-09-26 15:42:35.950
30.0, 12734.437016777638, 36814.217187668946, -44450.51186686896, -45703.595364522385, -24387.094305407325, -26272.82157812376, -187500.02235174447, 3843.42716257896, -12425.491204916383, -33610.76517233434, -45077.25478139577, -40601.76498910964, -20822.080471763667, -24681.243262439166, -47485.02939761036, -32603.41675322256, 0.216, 0.998, 0.022, 192.0, 0.0, 0.0, 0.0, 0.0, 0.0, 0.0, 0.0, 0.0, 0.0, 1.695760956009384E9, 0.0, 2023-09-26 15:42:36.009
32.0, 12744.741170971534, 36826.53299886382, -44438.84425626329, -45699.37088482033, -24382.378087327255, -26268.418284466065, -187500.02235174447, 3895.350264948638, -12411.476661142906, -33607.41241066604, -45067.33060685761, -40598.79220709708, -20819.599428129128, -24679.857454282937, -47482.41424350908, -32599.952232831984, 0.20600000000000002, 1.0, 0.02, 192.0, 3.0, 56.0, 15.5, 32.0, 0.0, 80.0, 0.0, 0.0, 0.0, 1.695760956009406E9, 0.0, 2023-09-26 15:42:36.009
34.0, 12734.124092355263, 36811.15499867857, -44443.336956898806, -45703.103626144366, -24386.557863540398, -26278.878900871146, -187500.02235174447, 3834.9334996859434, -12418.31629494623, -33613.91676830254, -45068.69406326939, -40602.882576332406, -20856.904489625038, -24689.044021254067, -47484.09062434323, -32599.88517759862, 0.20600000000000002, 1.0, 0.02, 192.0, 0.0, 0.0, 0.0, 0.0, 0.0, 0.0, 0.0, 0.0, 0.0, 1.695760956009416E9, 0.0, 2023-09-26 15:42:36.009
36.0, 12727.351513785305, 36816.027678969826, -44442.80051503188, -45708.37863783582, -24378.578290769852, -26277.314278759277, -187500.02235174447, 3888.9576660344205, -12423.636010126593, -33625.20439925246, -45073.65615053847, -40606.503558934164, -20855.250460535342, -24689.60281486545, -47484.40354876561, -32601.44979971049, 0.20600000000000002, 1.0, 0.02, 192.0, 0.0, 0.0, 0.0, 0.0, 0.0, 0.0, 0.0, 0.0, 0.0, 1.695760956009457E9, 0.0, 2023-09-26 15:42:36.009
38.0, 12719.260182292484, 36803.935385219505, -44445.303910410876, -45706.948126190684, -24380.54524428192, -26282.455179983997, -187500.02235174447, 3847.517531814281, -12438.566975422738, -33611.12280024562, -45083.15564193197, -40610.75039038067, -20849.26019302132, -24692.508541644638, -47490.192650579535, -32608.35648874718, 0.20600000000000002, 1.0, 0.02, 192.0, 0.0, 0.0, 0.0, 0.0, 0.0, 0.0, 0.0, 0.0, 0.0, 1.695760956009467E9, 0.0, 2023-09-26 15:42:36.009
40.0, 12718.32140902536, 36809.36685912214, -44433.32337538283, -45707.70808550216, -24375.739619224027, -26273.559185690785, -187500.02235174447, 3872.2832646707616, -12424.0830450157, -33619.482352671905, -45076.67363603993, -40611.689163647796, -20842.88994585156, -24691.659175355337, -47481.25195279741, -32602.612090422168, 0.20600000000000002, 1.0, 0.02, 192.0, 0.0, 0.0, 0.0, 0.0, 0.0, 0.0, 0.0, 0.0, 0.0, 1.695760956009476E9, 0.0, 2023-09-26 15:42:36.009
42.0, 12720.04249334842, 36803.53305381931, -44437.97253822953, -45709.116245402845, -24378.466532047576, -26279.884729371635, -187500.02235174447, 3851.630252794058, -12431.235603241397, -33623.77388760733, -45077.81357500715, -40609.923375835824, -20832.384625957566, -24697.13535274689, -47481.09549058622, -32604.623747423146, 0.20400000000000001, 1.002, 0.02, 192.0, 3.0, 48.0, 15.5, 40.0, 0.0, 80.0, 0.0, 0.0, 0.0, 1.695760956009485E9, 0.0, 2023-09-26 15:42:36.009
44.0, 12700.194144272107, 36796.313440360245, -44450.93655001361, -45720.85091124188, -24386.49080830703, -26289.29481378732, -187500.02235174447, 3876.619503095091, -12433.783702109302, -33630.43470745501, -45077.88063024052, -40613.65611715986, -20837.905506838026, -24697.89531205837, -47484.58236272125, -32606.009555579374, 0.20400000000000001, 1.002, 0.02, 192.0, 0.0, 0.0, 0.0, 0.0, 0.0, 0.0, 0.0, 0.0, 0.0, 1.695760956069197E9, 0.0, 2023-09-26 15:42:36.069
46.0, 12690.359376711773, 36791.843091469185, -44438.8889597522, -45717.56520480695, -24383.339212338833, -26286.97023236397, -187500.02235174447, 3874.652549583024, -12446.814769126746, -33640.0906610597, -45084.42969136592, -40619.84755037398, -20844.074588307692, -24706.388974951384, -47492.04784536932, -32612.916244616063, 0.20400000000000001, 1.002, 0.02, 192.0, 0.0, 0.0, 0.0, 0.0, 0.0, 0.0, 0.0, 0.0, 0.0, 1.695760956069221E9, 0.0, 2023-09-26 15:42:36.069
48.0, 12672.634443358713, 36789.33969609019, -44434.038631205396, -45710.1891291367, -24379.472360548065, -26284.042153840324, -187500.02235174447, 3861.755593032312, -12440.310411490253, -33635.59796042418, -45079.17703141893, -40616.71830615024, -20838.084320793667, -24699.862265570435, -47484.805880165804, -32604.333174745225, 0.20400000000000001, 1.002, 0.02, 192.0, 0.0, 0.0, 0.0, 0.0, 0.0, 0.0, 0.0, 0.0, 0.0, 1.695760956069231E9, 0.0, 2023-09-26 15:42:36.069
50.0, 12672.008594513965, 36790.770207735324, -44442.711108054056, -45711.4408268262, -24380.20996811509, -26284.1539125626, -187500.02235174447, 3879.1228984740856, -12433.783702109302, -33636.44732671348, -45079.378197119026, -40615.26544276064, -20855.0716465797, -24702.589178393984, -47485.63289471065, -32604.534340445323, 0.20400000000000001, 1.002, 0.02, 192.0, 0.0, 0.0, 0.0, 0.0, 0.0, 0.0, 0.0, 0.0, 0.0, 1.69576095606924E9, 0.0, 2023-09-26 15:42:36.069
52.0, 12650.237995414496, 36769.603105736154, -44447.20380868958, -45712.84898672688, -24378.980622170046, -26282.00814509489, -187500.02235174447, 3856.3911743630383, -12461.253996044874, -33645.67859717352, -45092.9457060034, -40623.200312042274, -20830.261210234312, -24705.204332495254, -47486.21404006649, -32601.047468310295, 0.196, 1.004, 0.018000000000000002, 192.0, 3.0, 16.0, 15.5, 48.0, 0.0, 72.0, 0.0, 0.0, 0.0, 1.695760956069249E9, 0.0, 2023-09-26 15:42:36.069
54.0, 12651.065009959342, 36768.91020165804, -44447.51673311195, -45726.81882701145, -24379.96409892608, -26289.138351576134, -187500.02235174447, 3906.8614133431215, -12456.828350642723, -33657.21209731246, -45090.2411449243, -40626.776591155125, -20868.21447231942, -24705.27138772862, -47480.402586508106, -32601.092171799206, 0.196, 1.004, 0.018000000000000002, 192.0, 0.0, 0.0, 0.0, 0.0, 0.0, 0.0, 0.0, 0.0, 0.0, 1.695760956069258E9, 0.0, 2023-09-26 15:42:36.069
56.0, 12639.866785987233, 36747.20665779193, -44447.673195323136, -45717.40874259576, -24372.431561044643, -26276.53196770334, -187500.02235174447, 3842.108409656097, -12463.824446657234, -33658.217925812954, -45096.142005460504, -40638.51125699416, -20849.439006976965, -24713.452126199263, -47482.570705720274, -32601.226282265936, 0.196, 1.004, 0.018000000000000002, 192.0, 0.0, 0.0, 0.0, 0.0, 0.0, 0.0, 0.0, 0.0, 0.0, 1.695760956069267E9, 0.0, 2023-09-26 15:42:36.069
58.0, 12643.800693011368, 36758.58369571969, -44445.46037262206, -45719.15217866328, -24376.231357602046, -26279.795322393817, -187500.02235174447, 3878.1617734625074, -12473.279234561829, -33654.306370533275, -45099.27124968425, -40625.591948698995, -20840.967695828404, -24703.103268516454, -47476.692196928525, -32594.990145562908, 0.196, 1.004, 0.018000000000000002, 192.0, 0.0, 0.0, 0.0, 0.0, 0.0, 0.0, 0.0, 0.0, 0.0, 1.69576095606931E9, 0.0, 2023-09-26 15:42:36.069
60.0, 12618.54322177687, 36735.71786114191, -44457.865590794754, -45725.81299851096, -24381.752238482506, -26290.54651147682, -187500.02235174447, 3825.56811875917, -12459.063525088255, -33664.431710771525, -45102.17697646344, -40635.314957537055, -20847.762626142816, -24702.07508827151, -47480.469641741474, -32601.31568924376, 0.196, 1.004, 0.018000000000000002, 192.0, 0.0, 0.0, 0.0, 0.0, 0.0, 0.0, 0.0, 0.0, 0.0, 1.695760956129842E9, 0.0, 2023-09-26 15:42:36.129
62.0, 12624.466434057527, 36739.00356757684, -44465.88986705421, -45726.95293747818, -24388.83774147484, -26291.9546713775, -187500.02235174447, 3907.5319656767806, -12495.787441228324, -33674.26647833186, -45118.20317723789, -40633.906797636366, -20861.26307979382, -24714.636768655393, -47493.70187445902, -32609.272910269847, 0.194, 0.998, 0.024, 192.0, 3.0, 8.0, 15.5, 24.0, 0.0, 96.0, 0.0, 0.0, 0.0, 1.695760956129863E9, 0.0, 2023-09-26 15:42:36.129
64.0, 12615.458681042039, 36713.34376494215, -44458.80436406188, -45725.50007408859, -24382.132218138246, -26287.43961899753, -187500.02235174447, 3825.366953059072, -12483.51633352236, -33677.75335046689, -45114.02340102475, -40642.60162622948, -20849.483710465876, -24713.27331224362, -47488.225697067464, -32600.39926772109, 0.194, 0.998, 0.024, 192.0, 0.0, 0.0, 0.0, 0.0, 0.0, 0.0, 0.0, 0.0, 0.0, 1.695760956129873E9, 0.0, 2023-09-26 15:42:36.129
66.0, 12636.111692918741, 36730.19698026145, -44445.52742785543, -45725.92475723324, -24375.471398290563, -26287.372563764166, -187500.02235174447, 3887.616561367102, -12498.357891840684, -33693.39957158561, -45117.331459204135, -40647.675472220835, -20848.299068009743, -24718.41421346834, -47490.03618836834, -32604.31082300077, 0.194, 0.998, 0.024, 192.0, 0.0, 0.0, 0.0, 0.0, 0.0, 0.0, 0.0, 0.0, 0.0, 1.695760956129883E9, 0.0, 2023-09-26 15:42:36.129
68.0, 12626.96982943652, 36713.88020680907, -44453.46229713706, -45729.322222390445, -24381.238148360033, -26289.138351576134, -187500.02235174447, 3821.678915223946, -12464.51735073535, -33671.919545164055, -45104.12157823105, -40639.427678516826, -20846.04154181976, -24710.434640697797, -47477.49685972892, -32600.06399155426, 0.194, 0.998, 0.024, 192.0, 0.0, 0.0, 0.0, 0.0, 0.0, 0.0, 0.0, 0.0, 0.0, 1.695760956129891E9, 0.0, 2023-09-26 15:42:36.129
70.0, 12639.844434242777, 36730.33109072818, -44449.08135522382, -45728.7410770346, -24386.71432575158, -26291.798209166314, -187500.02235174447, 3909.9236023334984, -12481.32586256574, -33682.71543773597, -45116.03505802573, -40642.60162622948, -20848.3214197542, -24718.95065533527, -47487.71160694499, -32606.769514890853, 0.194, 0.998, 0.024, 192.0, 0.0, 0.0, 0.0, 0.0, 0.0, 0.0, 0.0, 0.0, 0.0, 1.6957609561299E9, 0.0, 2023-09-26 15:42:36.129
72.0, 12629.45087307106, 36711.13094224107, -44453.70816632607, -45725.00833571057, -24387.36252634079, -26288.400744009108, -187500.02235174447, 3819.1531681004967, -12482.04111838831, -33685.7999784708, -45107.9437265329, -40647.58606524301, -20864.817007162215, -24717.721309390225, -47487.97982787846, -32608.78117189183, 0.196, 0.99, 0.026000000000000002, 192.0, 3.0, 16.0, 15.0, 120.0, 0.0, 104.0, 0.0, 0.0, 0.0, 1.695760956129909E9, 0.0, 2023-09-26 15:42:36.129
74.0, 12640.64909704317, 36732.09687854015, -44457.06092799437, -45728.65167005678, -24390.044735675423, -26290.47945624345, -187500.02235174447, 3907.2413929988616, -12484.075127133743, -33683.72126623646, -45108.658982355475, -40636.633710459915, -20856.546861713752, -24712.535704676593, -47494.662999470595, -32606.948328846494, 0.196, 0.99, 0.026000000000000002, 192.0, 0.0, 0.0, 0.0, 0.0, 0.0, 0.0, 0.0, 0.0, 0.0, 1.695760956189772E9, 0.0, 2023-09-26 15:42:36.189
76.0, 12627.662733514635, 36708.784009073264, -44465.97927403203, -45733.39023988131, -24390.737639753537, -26284.422133496064, -187500.02235174447, 3832.8994909405105, -12483.695147478003, -33677.46277778897, -45111.0953225011, -40641.50639075117, -20848.790806387762, -24707.84183834098, -47495.33355180425, -32603.81908462275, 0.196, 0.99, 0.026000000000000002, 192.0, 0.0, 0.0, 0.0, 0.0, 0.0, 0.0, 0.0, 0.0, 0.0, 1.695760956189799E9, 0.0, 2023-09-26 15:42:36.189
78.0, 12634.211794640041, 36725.03372729227, -44467.34273044381, -45743.38146965283, -24396.616148545283, -26291.68645044404, -187500.02235174447, 3926.4415414859704, -12500.481307563938, -33692.32668785175, -45126.2498052418, -40650.76001295567, -20865.219338562412, -24722.012844325644, -47505.45889204251, -32614.816142894764, 0.196, 0.99, 0.026000000000000002, 192.0, 0.0, 0.0, 0.0, 0.0, 0.0, 0.0, 0.0, 0.0, 0.0, 1.695760956189863E9, 0.0, 2023-09-26 15:42:36.189
80.0, 12628.042713170376, 36713.23200621987, -44464.995797276, -45736.72064980515, -24388.815389730382, -26291.328822532752, -187500.02235174447, 3852.591377805636, -12491.60766501518, -33680.56967026826, -45115.856244070084, -40646.4461262758, -20856.25628903583, -24707.707727874247, -47494.171261092575, -32608.17767479154, 0.196, 0.99, 0.026000000000000002, 192.0, 0.0, 0.0, 0.0, 0.0, 0.0, 0.0, 0.0, 0.0, 0.0, 1.695760956189874E9, 0.0, 2023-09-26 15:42:36.189
82.0, 12638.07864643081, 36731.31456748421, -44450.22129419104, -45728.07052470095, -24387.96602344108, -26282.566938706274, -187500.02235174447, 3905.788529609267, -12486.980853912934, -33677.23926034442, -45116.03505802573, -40648.793059443604, -20844.141643541057, -24699.0799545145, -47498.82042393928, -32613.206817293983, 0.2, 0.994, 0.028, 192.0, 3.0, 32.0, 15.5, 8.0, 0.0, 112.0, 0.0, 0.0, 0.0, 1.695760956189884E9, 0.0, 2023-09-26 15:42:36.189
84.0, 12642.034905199398, 36730.800477361736, -44443.98515748801, -45711.37377159283, -24377.393648313722, -26273.223909523957, -187500.02235174447, 3843.136589901041, -12452.782684896314, -33656.407434512075, -45095.18088044893, -40632.230416802224, -20838.017265560302, -24689.69222184327, -47485.16350807709, -32593.626689151133, 0.2, 0.994, 0.028, 192.0, 0.0, 0.0, 0.0, 0.0, 0.0, 0.0, 0.0, 0.0, 0.0, 1.695760956189894E9, 0.0, 2023-09-26 15:42:36.189
86.0, 12641.677277288114, 36738.93651234347, -44461.48657339651, -45730.10453344638, -24387.027250173956, -26287.14904631961, -187500.02235174447, 3899.5970963951468, -12486.332653323729, -33661.74950143689, -45111.83293006813, -40637.63953896041, -20820.717015351896, -24704.623187139416, -47489.36563603469, -32602.41092472207, 0.2, 0.994, 0.028, 192.0, 0.0, 0.0, 0.0, 0.0, 0.0, 0.0, 0.0, 0.0, 0.0, 1.695760956189903E9, 0.0, 2023-09-26 15:42:36.189
88.0, 12658.664603074147, 36744.94913160195, -44450.48951512451, -45722.61669905385, -24386.557863540398, -26283.997450351413, -187500.02235174447, 3872.4173751374933, -12477.436659030516, -33674.17707135404, -45105.68620034292, -40636.67841394883, -20856.390399502565, -24699.683451614794, -47489.65620871261, -32607.30595675778, 0.2, 0.994, 0.028, 192.0, 0.0, 0.0, 0.0, 0.0, 0.0, 0.0, 0.0, 0.0, 0.0, 1.695760956189913E9, 0.0, 2023-09-26 15:42:36.189
90.0, 12667.448838645083, 36757.10848058564, -44447.0920499673, -45719.71097227466, -24391.58700604284, -26277.001354336902, -187500.02235174447, 3907.8895935880655, -12457.029516342822, -33654.731053677926, -45094.48797637081, -40626.46366673275, -20839.917163839003, -24699.281120214597, -47490.058540112805, -32600.77924737683, 0.2, 0.994, 0.028, 192.0, 0.0, 0.0, 0.0, 0.0, 0.0, 0.0, 0.0, 0.0, 0.0, 1.695760956249982E9, 0.0, 2023-09-26 15:42:36.249
92.0, 12678.55765563937, 36759.924800387, -44453.17172445914, -45723.22019615414, -24394.291567121934, -26278.051886326302, -187500.02235174447, 3905.4085499535267, -12466.484304247417, -33655.26749554485, -45101.10409272958, -40626.79894289958, -20835.871498092594, -24696.733021346692, -47499.848604184226, -32609.58583469222, 0.212, 0.992, 0.026000000000000002, 192.0, 3.0, 80.0, 15.5, 0.0, 0.0, 104.0, 0.0, 0.0, 0.0, 1.695760956250007E9, 0.0, 2023-09-26 15:42:36.250
94.0, 12689.197086000097, 36765.11040510063, -44443.71693655455, -45719.91213797476, -24384.993241428525, -26271.480473456442, -187500.02235174447, 3909.1412912775627, -12457.744772165392, -33652.80880365477, -45096.276115927234, -40627.80477140007, -20841.951172584435, -24692.88852130038, -47488.82919416776, -32604.69080265651, 0.212, 0.992, 0.026000000000000002, 192.0, 0.0, 0.0, 0.0, 0.0, 0.0, 0.0, 0.0, 0.0, 0.0, 1.695760956250017E9, 0.0, 2023-09-26 15:42:36.250
96.0, 12717.539097969426, 36777.11329187314, -44434.79859051688, -45715.195919894686, -24385.239110617535, -26271.659287412083, -187500.02235174447, 3920.3171635052163, -12444.311373747752, -33639.93419884851, -45079.86993549704, -40617.344154994986, -20838.330189982677, -24675.208291436233, -47481.87780164216, -32601.494503199403, 0.212, 0.992, 0.026000000000000002, 192.0, 0.0, 0.0, 0.0, 0.0, 0.0, 0.0, 0.0, 0.0, 0.0, 1.695760956250026E9, 0.0, 2023-09-26 15:42:36.250
98.0, 12715.795661901911, 36774.25226858286, -44437.23493066251, -45720.225062397134, -24383.58508152784, -26278.096589815214, -187500.02235174447, 3910.683561644979, -12447.150045293576, -33639.59892268168, -45073.34322611609, -40618.93112885131, -20832.943419568946, -24677.35405890394, -47481.92250513107, -32602.008593321872, 0.212, 0.992, 0.026000000000000002, 192.0, 0.0, 0.0, 0.0, 0.0, 0.0, 0.0, 0.0, 0.0, 0.0, 1.695760956250035E9, 0.0, 2023-09-26 15:42:36.250
100.0, 12730.726627198057, 36789.20558562346, -44438.0395934629, -45711.73139950412, -24382.087514649334, -26266.451330953998, -187500.02235174447, 3935.8739776461102, -12429.335704962696, -33626.94783531998, -45067.79999349118, -40614.192559026786, -20825.902620065524, -24672.950765246245, -47481.69898768652, -32600.891006099107, 0.212, 0.992, 0.026000000000000002, 192.0, 0.0, 0.0, 0.0, 0.0, 0.0, 0.0, 0.0, 0.0, 0.0, 1.695760956250168E9, 0.0, 2023-09-26 15:42:36.250
102.0, 12718.008484602988, 36778.56615526273, -44450.958901758066, -45715.86647222835, -24388.278947863455, -26267.501862943398, -187500.02235174447, 3908.358980221627, -12431.190899752486, -33625.360861463654, -45071.040996437194, -40616.919471850335, -20828.048387533236, -24672.570785590506, -47477.8544876402, -32596.666526397054, 0.21, 0.998, 0.03, 192.0, 3.0, 72.0, 15.5, 24.0, 0.0, 120.0, 0.0, 0.0, 0.0, 1.695760956250179E9, 0.0, 2023-09-26 15:42:36.250
104.0, 12733.699409210612, 36795.24055662639, -44459.67608209563, -45722.14731242029, -24388.681279263652, -26278.38716249313, -187500.02235174447, 3961.9808151699085, -12442.590289424694, -33647.13146056312, -45074.460813338854, -40619.646384673884, -20840.74417838385, -24681.26561418362, -47482.88363014265, -32608.714116658466, 0.21, 0.998, 0.03, 192.0, 0.0, 0.0, 0.0, 0.0, 0.0, 0.0, 0.0, 0.0, 0.0, 1.695760956311682E9, 0.0, 2023-09-26 15:42:36.311
106.0, 12733.94527839962, 36790.367876335134, -44460.7936693184, -45717.162873406756, -24387.071953662868, -26275.72730490295, -187500.02235174447, 3897.920715560999, -12416.349341434163, -33636.87200985813, -45066.21301963485, -40616.159512538856, -20847.986143587368, -24670.804997778538, -47482.30248478681, -32617.45364874049, 0.21, 0.998, 0.03, 192.0, 0.0, 0.0, 0.0, 0.0, 0.0, 0.0, 0.0, 0.0, 0.0, 1.695760956311707E9, 0.0, 2023-09-26 15:42:36.311
108.0, 12749.278575095961, 36808.31632713274, -44470.98606479002, -45727.981117723124, -24388.21189263009, -26281.404647994597, -187500.02235174447, 3971.54736179678, -12419.858565313645, -33639.91184710406, -45068.00115919127, -40607.41998045683, -20853.730541912384, -24679.58923334947, -47482.458946998, -32622.326329031748, 0.21, 0.998, 0.03, 192.0, 0.0, 0.0, 0.0, 0.0, 0.0, 0.0, 0.0, 0.0, 0.0, 1.695760956311716E9, 0.0, 2023-09-26 15:42:36.311
110.0, 12746.149330872218, 36796.447550826975, -44470.8966578122, -45721.074428686436, -24377.3042413359, -26271.05579031179, -187500.02235174447, 3907.844890099155, -12404.681730828492, -33654.61929495565, -45063.12847890001, -40616.11480904994, -20841.906469095527, -24678.2257769377, -47477.29569402882, -32619.97939586394, 0.21, 0.998, 0.03, 192.0, 0.0, 0.0, 0.0, 0.0, 0.0, 0.0, 0.0, 0.0, 0.0, 1.695760956311725E9, 0.0, 2023-09-26 15:42:36.311
112.0, 12759.67213626768, 36816.76528653685, -44477.736291615525, -45722.97432696514, -24381.43931406013, -26281.225834038956, -187500.02235174447, 3978.1187746666405, -12414.807071066747, -33646.23739078491, -45067.01768243524, -40608.51521593514, -20841.101806295133, -24676.258823425633, -47471.663054426084, -32615.240826039415, 0.20600000000000002, 1.002, 0.024, 192.0, 3.0, 56.0, 15.5, 40.0, 0.0, 96.0, 0.0, 0.0, 0.0, 1.695760956311735E9, 0.0, 2023-09-26 15:42:36.311
114.0, 12761.10264791282, 36808.539844577295, -44469.17557348914, -45713.63129778282, -24378.622994258763, -26263.880880341636, -187500.02235174447, 3895.1267475040854, -12401.68659707148, -33625.629082397114, -45060.558028287654, -40604.335439721995, -20824.159183998014, -24666.401704120843, -47463.37055723317, -32611.731602159933, 0.20600000000000002, 1.002, 0.024, 192.0, 0.0, 0.0, 0.0, 0.0, 0.0, 0.0, 0.0, 0.0, 0.0, 1.695760956311744E9, 0.0, 2023-09-26 15:42:36.311
116.0, 12776.39124112025, 36824.87896977412, -44478.630361393734, -45726.37179212234, -24383.741543739026, -26273.112150801677, -187500.02235174447, 3956.0576028892524, -12399.272608670308, -33627.77484986482, -45063.35199634457, -40594.99241053968, -20794.945453994926, -24656.45517783823, -47468.39969973561, -32610.859884126174, 0.20600000000000002, 1.002, 0.024, 192.0, 0.0, 0.0, 0.0, 0.0, 0.0, 0.0, 0.0, 0.0, 0.0, 1.695760956311753E9, 0.0, 2023-09-26 15:42:36.311
118.0, 12770.535084072959, 36811.35616437867, -44468.907352555674, -45713.89951871628, -24380.54524428192, -26263.679714641537, -187500.02235174447, 3888.823555567689, -12415.187050722487, -33629.697099887984, -45067.46471732434, -40602.92727982131, -20857.84326289216, -24661.79724476305, -47470.0537288253, -32614.50321847239, 0.20600000000000002, 1.002, 0.024, 192.0, 0.0, 0.0, 0.0, 0.0, 0.0, 0.0, 0.0, 0.0, 0.0, 1.695760956311762E9, 0.0, 2023-09-26 15:42:36.311
120.0, 12773.284348640962, 36820.45332437198, -44478.09391952681, -45723.98015546562, -24377.05837214689, -26266.563089676274, -187500.02235174447, 3945.5299312508027, -12404.79348955077, -33620.84580908368, -45058.0322811642, -40590.81263432654, -20827.869573577595, -24657.88568948337, -47460.1519060316, -32603.662622411564, 0.20600000000000002, 1.002, 0.024, 192.0, 0.0, 0.0, 0.0, 0.0, 0.0, 0.0, 0.0, 0.0, 0.0, 1.695760956368983E9, 0.0, 2023-09-26 15:42:36.368
122.0, 12773.373755618783, 36805.65646954256, -44472.5953903908, -45721.566167064455, -24376.097247135313, -26264.685543142026, -187500.02235174447, 3870.226904180873, -12393.058823711734, -33633.56395167875, -45059.19457187588, -40604.693067633285, -20825.589695643153, -24661.998410463144, -47462.18591477703, -32609.45172422549, 0.202, 1.002, 0.028, 192.0, 3.0, 40.0, 15.5, 40.0, 0.0, 112.0, 0.0, 0.0, 0.0, 1.695760956369072E9, 0.0, 2023-09-26 15:42:36.369
124.0, 12770.915063728698, 36818.821647026736, -44484.24064925202, -45727.064696200454, -24382.44514256062, -26272.843929868213, -187500.02235174447, 3939.4726085034144, -12421.691408358982, -33634.234504012406, -45070.75042375927, -40601.250898987164, -20840.543012683753, -24671.497901856652, -47463.79524037782, -32611.03869808182, 0.202, 1.002, 0.028, 192.0, 0.0, 0.0, 0.0, 0.0, 0.0, 0.0, 0.0, 0.0, 0.0, 1.695760956369085E9, 0.0, 2023-09-26 15:42:36.369
126.0, 12772.39027886275, 36813.5913388242, -44475.143489258706, -45716.96170770666, -24378.69004949213, -26268.48533969943, -187500.02235174447, 3866.695328556935, -12396.500992357851, -33624.04210854079, -45061.87678121052, -40593.852471572456, -20817.78893682825, -24661.26080289612, -47462.27532175485, -32610.725773659444, 0.202, 1.002, 0.028, 192.0, 0.0, 0.0, 0.0, 0.0, 0.0, 0.0, 0.0, 0.0, 0.0, 1.695760956369096E9, 0.0, 2023-09-26 15:42:36.369
128.0, 12773.709031785613, 36824.968376751945, -44482.65367539569, -45726.01416421106, -24386.06612516238, -26275.86141536968, -187500.02235174447, 3936.075143346208, -12396.657454569036, -33626.053765541765, -45054.72422298482, -40585.85054705746, -20813.45269840392, -24660.813768007014, -47461.22478976545, -32609.630538181133, 0.202, 1.002, 0.028, 192.0, 0.0, 0.0, 0.0, 0.0, 0.0, 0.0, 0.0, 0.0, 0.0, 1.695760956369105E9, 0.0, 2023-09-26 15:42:36.369
130.0, 12774.491342841548, 36815.312423147254, -44476.90927707068, -45721.32029787544, -24381.506369293496, -26274.542662446816, -187500.02235174447, 3883.6379508540576, -12409.68852158648, -33641.52117270484, -45065.83303997911, -40599.41805594183, -20836.18442251497, -24675.901195514347, -47471.37248174816, -32619.01827085236, 0.202, 1.002, 0.028, 192.0, 0.0, 0.0, 0.0, 0.0, 0.0, 0.0, 0.0, 0.0, 0.0, 1.695760956369114E9, 0.0, 2023-09-26 15:42:36.369
132.0, 12767.38348810476, 36822.442629628495, -44484.03948355192, -45721.990850209106, -24388.278947863455, -26271.21225252298, -187500.02235174447, 3933.728210178401, -12401.105451715643, -33634.81564936825, -45057.853467208566, -40586.76696858012, -20816.805460072217, -24664.144177930855, -47461.44830721001, -32607.440067224514, 0.212, 1.0, 0.03, 192.0, 3.0, 80.0, 15.5, 32.0, 0.0, 120.0, 0.0, 0.0, 0.0, 1.695760956369123E9, 0.0, 2023-09-26 15:42:36.369
134.0, 12762.53315955796, 36808.3386788772, -44492.46609121157, -45731.691507302705, -24395.78913400044, -26281.337592761232, -187500.02235174447, 3898.323046961194, -12418.472757157417, -33634.56978017924, -45076.24895289528, -40597.45110242976, -20816.470183905385, -24668.234547166176, -47479.26264754089, -32623.443916254513, 0.212, 1.0, 0.03, 192.0, 0.0, 0.0, 0.0, 0.0, 0.0, 0.0, 0.0, 0.0, 0.0, 1.695760956429417E9, 0.0, 2023-09-26 15:42:36.429
136.0, 12766.377659604272, 36818.91105400456, -44479.36796896076, -45731.73621079162, -24388.30129960791, -26272.553357190296, -187500.02235174447, 3953.7553732103556, -12432.196728252975, -33640.04595757079, -45075.57840056162, -40600.87091933143, -20857.32917276969, -24672.973116990703, -47476.75925216189, -32625.299111044304, 0.212, 1.0, 0.03, 192.0, 0.0, 0.0, 0.0, 0.0, 0.0, 0.0, 0.0, 0.0, 0.0, 1.695760956429441E9, 0.0, 2023-09-26 15:42:36.429
138.0, 12783.588502834858, 36824.119010462644, -44469.42144267815, -45711.977268693125, -24374.465569790074, -26257.1977087495, -187500.02235174447, 3910.6612099005238, -12396.366881891117, -33617.44834392647, -45057.1829148749, -40584.37533192341, -20831.98229455737, -24664.479454097684, -47465.941007845526, -32613.92207311655, 0.212, 1.0, 0.03, 192.0, 0.0, 0.0, 0.0, 0.0, 0.0, 0.0, 0.0, 0.0, 0.0, 1.69576095642945E9, 0.0, 2023-09-26 15:42:36.429
140.0, 12776.279482397973, 36817.12291444813, -44478.6974166271, -45718.30281237398, -24383.339212338833, -26266.965421076467, -187500.02235174447, 3902.480471429881, -12390.130745188088, -33614.65437586956, -45049.06923163763, -40575.63579984138, -20813.631512359563, -24662.288983141065, -47456.776792618846, -32602.723849144444, 0.212, 1.0, 0.03, 192.0, 0.0, 0.0, 0.0, 0.0, 0.0, 0.0, 0.0, 0.0, 0.0, 1.695760956429459E9, 0.0, 2023-09-26 15:42:36.429
142.0, 12789.019976737498, 36821.99559473939, -44480.64201839471, -45723.33195487642, -24384.948537939614, -26270.854624611693, -187500.02235174447, 3924.005201340342, -12415.321161189218, -33631.149963277574, -45063.06142366665, -40588.063369758536, -20818.50419265082, -24673.420151879807, -47473.31708351578, -32619.733526674932, 0.20600000000000002, 0.998, 0.028, 192.0, 3.0, 56.0, 15.5, 24.0, 0.0, 112.0, 0.0, 0.0, 0.0, 1.695760956429468E9, 0.0, 2023-09-26 15:42:36.429
144.0, 12781.263921411506, 36815.71475454745, -44475.23289623653, -45722.16966416474, -24382.959232683093, -26263.612659408172, -187500.02235174447, 3901.161718507018, -12400.814879037724, -33622.32102421773, -45053.226656106315, -40586.297581946565, -20831.04352129025, -24665.50763434263, -47461.671824654564, -32607.26125326887, 0.20600000000000002, 0.998, 0.028, 192.0, 0.0, 0.0, 0.0, 0.0, 0.0, 0.0, 0.0, 0.0, 0.0, 1.695760956429508E9, 0.0, 2023-09-26 15:42:36.429
146.0, 12782.806191778922, 36816.1394376921, -44486.94521033111, -45736.81005678297, -24377.706572736093, -26272.44159846802, -187500.02235174447, 3913.231660512884, -12408.705044830447, -33625.919655075035, -45062.033243421705, -40592.377256438405, -20825.947323554436, -24665.68644829827, -47467.08094681275, -32618.59358770771, 0.20600000000000002, 0.998, 0.028, 192.0, 0.0, 0.0, 0.0, 0.0, 0.0, 0.0, 0.0, 0.0, 0.0, 1.695760956429517E9, 0.0, 2023-09-26 15:42:36.429
148.0, 12773.999604463532, 36816.161789436555, -44489.15803303219, -45736.81005678297, -24386.468456562576, -26278.58832819323, -187500.02235174447, 3899.6865033729678, -12412.683655343493, -33625.159695763556, -45061.22858062131, -40591.326724449005, -20784.998927712313, -24666.088779698468, -47470.0537288253, -32618.5488842188, 0.20600000000000002, 0.998, 0.028, 192.0, 0.0, 0.0, 0.0, 0.0, 0.0, 0.0, 0.0, 0.0, 0.0, 1.695760956429526E9, 0.0, 2023-09-26 15:42:36.429
150.0, 12784.169648190697, 36835.250179201386, -44471.47780316804, -45724.695411288194, -24377.952441925103, -26277.828368881746, -187500.02235174447, 3945.6193382286237, -12394.623445823605, -33617.29188171529, -45048.7339554708, -40579.61441035443, -20841.794710373248, -24663.764198275116, -47465.62808342315, -32627.400175023104, 0.20600000000000002, 0.998, 0.028, 192.0, 0.0, 0.0, 0.0, 0.0, 0.0, 0.0, 0.0, 0.0, 0.0, 1.695760956489629E9, 0.0, 2023-09-26 15:42:36.489
152.0, 12772.546741073937, 36817.704059803975, -44471.76837584595, -45717.52050131804, -24379.606471014795, -26267.90419434359, -187500.02235174447, 3898.2783434722837, -12380.810067750224, -33618.47652417142, -45042.11783911203, -40574.65232308535, -20813.944436781938, -24665.68644829827, -47457.69321414152, -32613.4973899719, 0.212, 0.996, 0.024, 192.0, 3.0, 80.0, 15.5, 16.0, 0.0, 96.0, 0.0, 0.0, 0.0, 1.695760956489652E9, 0.0, 2023-09-26 15:42:36.489
154.0, 12783.253226668028, 36832.18799021101, -44475.38935844772, -45720.60504205287, -24372.230395344544, -26269.826444366747, -187500.02235174447, 3939.0255736143085, -12393.371748134106, -33616.86719857064, -45050.633853749496, -40571.50072711715, -20817.140736239046, -24667.563994832515, -47462.76706013287, -32621.45461099799, 0.212, 0.996, 0.024, 192.0, 0.0, 0.0, 0.0, 0.0, 0.0, 0.0, 0.0, 0.0, 0.0, 1.695760956489665E9, 0.0, 2023-09-26 15:42:36.489
156.0, 12765.014203192497, 36811.44557135649, -44483.03365505143, -45733.90433000378, -24381.998107671512, -26279.907081116093, -187500.02235174447, 3888.6223898675908, -12401.59719009366, -33624.69030912999, -45057.562894530645, -40588.465701158726, -20822.013416530302, -24674.090704213468, -47469.67374916956, -32631.4011372806, 0.212, 0.996, 0.024, 192.0, 0.0, 0.0, 0.0, 0.0, 0.0, 0.0, 0.0, 0.0, 0.0, 1.695760956489674E9, 0.0, 2023-09-26 15:42:36.489
158.0, 12786.04719472494, 36836.09954549069, -44464.884038553726, -45726.50590258907, -24373.459741289586, -26281.471703227962, -187500.02235174447, 3954.2471115883723, -12394.511687101327, -33613.961471791445, -45046.163504858436, -40578.340360920476, -20824.047425275734, -24680.46095138323, -47470.612522436684, -32631.55759949179, 0.212, 0.996, 0.024, 192.0, 0.0, 0.0, 0.0, 0.0, 0.0, 0.0, 0.0, 0.0, 0.0, 1.695760956489684E9, 0.0, 2023-09-26 15:42:36.489
160.0, 12777.374717876282, 36819.022812726835, -44462.09007049681, -45722.54964382049, -24372.073933133357, -26270.519348444865, -187500.02235174447, 3879.0558432407197, -12389.281378898786, -33609.89345430058, -45035.56877798662, -40573.8253085405, -20807.238913445344, -24669.12861694439, -47462.7000048995, -32625.768497677866, 0.212, 0.996, 0.024, 192.0, 0.0, 0.0, 0.0, 0.0, 0.0, 0.0, 0.0, 0.0, 0.0, 1.695760956489693E9, 0.0, 2023-09-26 15:42:36.489
162.0, 12788.43883138166, 36833.05970824477, -44476.37283520375, -45730.775085780035, -24382.06516290488, -26273.58153743524, -187500.02235174447, 3945.038192872786, -12386.398003864051, -33631.731108633416, -45042.76603970123, -40578.2286021982, -20804.668462832986, -24679.49982637165, -47468.60086543571, -32629.098907601707, 0.211, 0.995, 0.024, 192.0, 3.0, 72.0, 15.5, 8.0, 0.0, 96.0, 0.0, 0.0, 0.0, 1.695760956489702E9, 0.0, 2023-09-26 15:42:36.489
164.0, 12777.106496942819, 36813.32311789073, -44478.6974166271, -45729.70220204618, -24377.34894482481, -26276.509615958887, -187500.02235174447, 3860.3250813871723, -12381.011233450323, -33634.6368354126, -45049.5833217601, -40589.80680582605, -20786.49649459082, -24666.64757330985, -47475.59696145022, -32634.17275359306, 0.211, 0.995, 0.024, 192.0, 0.0, 0.0, 0.0, 0.0, 0.0, 0.0, 0.0, 0.0, 0.0, 1.695760956549888E9, 0.0, 2023-09-26 15:42:36.549
166.0, 12778.559360332414, 36825.54952210779, -44476.194021248106, -45732.04913521399, -24378.95827042559, -26275.77200839186, -187500.02235174447, 3938.869111403121, -12406.603980851649, -33620.15290500557, -45064.11195565605, -40592.06433201603, -20841.03475106177, -24673.040172224068, -47475.9545893615, -32641.302960074303, 0.211, 0.995, 0.024, 192.0, 0.0, 0.0, 0.0, 0.0, 0.0, 0.0, 0.0, 0.0, 0.0, 1.695760956549936E9, 0.0, 2023-09-26 15:42:36.549
168.0, 12776.458296353614, 36805.321193375734, -44486.18525101963, -45735.42424862674, -24381.64047976023, -26272.106322301188, -187500.02235174447, 3857.0170232077867, -12396.858620269135, -33629.339471976695, -45062.77085098873, -40595.70766636225, -20830.507079423318, -24681.913814772823, -47474.747595160916, -32638.620750739665, 0.211, 0.995, 0.024, 192.0, 0.0, 0.0, 0.0, 0.0, 0.0, 0.0, 0.0, 0.0, 0.0, 1.695760956549945E9, 0.0, 2023-09-26 15:42:36.549
170.0, 12793.512677373014, 36822.95671975097, -44479.43502419413, -45738.08410621692, -24383.272157105468, -26269.982906577934, -187500.02235174447, 3925.838044385677, -12411.811937309736, -33637.49785870288, -45066.48124056831, -40596.69114311828, -20825.433233431966, -24673.911890257823, -47478.39092950713, -32641.124146118662, 0.211, 0.995, 0.024, 192.0, 0.0, 0.0, 0.0, 0.0, 0.0, 0.0, 0.0, 0.0, 0.0, 1.695760956549954E9, 0.0, 2023-09-26 15:42:36.549
172.0, 12781.688604556157, 36800.18029215101, -44488.75570163199, -45738.687603317216, -24392.034040931947, -26272.218081023468, -187500.02235174447, 3869.601055336125, -12397.59622783616, -33634.70389064597, -45067.24119987979, -40605.117750777936, -20827.869573577595, -24682.763181062124, -47480.17906906355, -32643.448727542014, 0.2135, 0.9995, 0.024, 192.0, 3.0, 96.0, 15.5, 48.0, 0.0, 96.0, 0.0, 0.0, 0.0, 1.695760956549963E9, 0.0, 2023-09-26 15:42:36.549
174.0, 12804.375625178292, 36824.119010462644, -44473.13183225773, -45728.696373545696, -24386.177883884655, -26268.66415365507, -187500.02235174447, 3946.8263324292107, -12393.997596978856, -33637.16258253605, -45057.831115464105, -40595.79707334007, -20816.559590883207, -24681.533835117083, -47477.4074527511, -32637.592570494722, 0.2135, 0.9995, 0.024, 192.0, 0.0, 0.0, 0.0, 0.0, 0.0, 0.0, 0.0, 0.0, 0.0, 1.695760956549972E9, 0.0, 2023-09-26 15:42:36.549
176.0, 12799.01120650902, 36813.367821379645, -44481.89371608421, -45729.00929796807, -24385.082648406347, -26272.352191490198, -187500.02235174447, 3886.856602055622, -12387.604998064638, -33623.34920446268, -45054.21013286235, -40593.60660238345, -20801.65097733152, -24675.431808880785, -47483.77769992086, -32642.420547297068, 0.2135, 0.9995, 0.024, 192.0, 0.0, 0.0, 0.0, 0.0, 0.0, 0.0, 0.0, 0.0, 0.0, 1.695760956549981E9, 0.0, 2023-09-26 15:42:36.549
178.0, 12801.536953632469, 36816.9888039814, -44471.47780316804, -45735.55835909348, -24376.67839249115, -26275.392028736118, -187500.02235174447, 3927.3356112641827, -12391.158925433032, -33612.86623631314, -45051.14794387197, -40590.6785238598, -20821.700492107928, -24672.50373035714, -47472.11008931519, -32635.849134427208, 0.2135, 0.9995, 0.024, 192.0, 0.0, 0.0, 0.0, 0.0, 0.0, 0.0, 0.0, 0.0, 0.0, 1.69576095654999E9, 0.0, 2023-09-26 15:42:36.549
180.0, 12796.418404152204, 36806.68464978751, -44477.46807068206, -45732.183245680724, -24379.382953570243, -26271.77104613436, -187500.02235174447, 3870.7186425588898, -12397.193896435965, -33617.60480613766, -45057.1829148749, -40598.70280011926, -20829.814175345204, -24667.49693959915, -47469.58434219174, -32638.97837865095, 0.2135, 0.9995, 0.024, 192.0, 0.0, 0.0, 0.0, 0.0, 0.0, 0.0, 0.0, 0.0, 0.0, 1.695760956610152E9, 0.0, 2023-09-26 15:42:36.610
182.0, 12800.86640129881, 36820.922711005536, -44482.94424807361, -45736.20655968268, -24382.40043907171, -26279.102418315702, -187500.02235174447, 3927.6261839421018, -12417.668094357026, -33625.18204750801, -45069.69989176987, -40600.200366997764, -20810.70343383592, -24682.56201536203, -47471.99833059291, -32637.99490189492, 0.21275, 1.00075, 0.022, 192.0, 3.0, 80.0, 15.5, 40.0, 0.0, 80.0, 0.0, 0.0, 0.0, 1.695760956610173E9, 0.0, 2023-09-26 15:42:36.610
184.0, 12804.554439133935, 36825.54952210779, -44464.727576342535, -45717.431094340216, -24375.02436340146, -26265.177281520046, -187500.02235174447, 3899.552392906236, -12392.54473358926, -33604.529035631305, -45053.40547006196, -40588.21983196972, -20829.769471856293, -24663.630087808382, -47467.460926468484, -32632.250503569903, 0.21275, 1.00075, 0.022, 192.0, 0.0, 0.0, 0.0, 0.0, 0.0, 0.0, 0.0, 0.0, 0.0, 1.695760956610183E9, 0.0, 2023-09-26 15:42:36.610
186.0, 12794.853782040333, 36829.14815296509, -44476.21637299256, -45725.76829502205, -24383.11569489428, -26267.90419434359, -187500.02235174447, 3930.710724676934, -12397.283303413786, -33604.596090864674, -45053.00313866176, -40582.20721271124, -20826.64022763255, -24665.485282598172, -47468.042071824326, -32625.65673895559, 0.21275, 1.00075, 0.022, 192.0, 0.0, 0.0, 0.0, 0.0, 0.0, 0.0, 0.0, 0.0, 0.0, 1.695760956610191E9, 0.0, 2023-09-26 15:42:36.610
188.0, 12795.569037862902, 36825.035431985314, -44481.357274217284, -45730.998603224594, -24382.176921627157, -26271.99456357891, -187500.02235174447, 3918.0596373152302, -12403.78766105028, -33616.10723925915, -45059.57455153162, -40590.58911688198, -20815.062024004703, -24673.174282690798, -47473.272380026865, -32633.16692509257, 0.21275, 1.00075, 0.022, 192.0, 0.0, 0.0, 0.0, 0.0, 0.0, 0.0, 0.0, 0.0, 0.0, 1.695760956610228E9, 0.0, 2023-09-26 15:42:36.610
190.0, 12788.751755804034, 36826.30948141927, -44473.02007353545, -45728.76342877906, -24377.43835180263, -26268.95472633299, -187500.02235174447, 3908.269573243806, -12408.369768663619, -33609.51347464484, -45063.374348089026, -40586.49874764666, -20818.526544395274, -24667.206366921233, -47470.120784058665, -32627.69074770102, 0.21275, 1.00075, 0.022, 192.0, 0.0, 0.0, 0.0, 0.0, 0.0, 0.0, 0.0, 0.0, 0.0, 1.695760956610237E9, 0.0, 2023-09-26 15:42:36.610
192.0, 12790.562247104914, 36827.00238549738, -44484.37475971875, -45730.797437524496, -24383.093343149823, -26273.87211011316, -187500.02235174447, 3917.2996780037497, -12401.954818004944, -33621.73987886189, -45057.697004997375, -40584.15181447886, -20833.055178291223, -24673.733076302182, -47466.03041482335, -32620.292320286313, 0.210375, 1.000375, 0.02, 192.0, 3.0, 64.0, 15.5, 32.0, 0.0, 72.0, 0.0, 0.0, 0.0, 1.695760956610245E9, 0.0, 2023-09-26 15:42:36.610
194.0, 12780.883941755765, 36817.94992899298, -44497.89756511421, -45731.266824158054, -24383.607433272296, -26273.402723479598, -187500.02235174447, 3876.753613561823, -12423.524251404317, -33622.03045153981, -45077.21007790686, -40596.579384396005, -20825.88026832107, -24671.810826279027, -47476.133403317144, -32622.907474387586, 0.210375, 1.000375, 0.02, 192.0, 0.0, 0.0, 0.0, 0.0, 0.0, 0.0, 0.0, 0.0, 0.0, 1.695760956669008E9, 0.0, 2023-09-26 15:42:36.669
196.0, 12804.800308322943, 36835.85367630168, -44480.731425372534, -45724.13661767681, -24378.421828558665, -26268.083008299236, -187500.02235174447, 3911.845852356655, -12410.69435008697, -33599.18696870649, -45071.42097609294, -40584.53179413459, -20844.454567963432, -24674.31422165802, -47476.58043820625, -32624.203875565992, 0.210375, 1.000375, 0.02, 192.0, 0.0, 0.0, 0.0, 0.0, 0.0, 0.0, 0.0, 0.0, 0.0, 1.695760956669028E9, 0.0, 2023-09-26 15:42:36.669
198.0, 12798.29595068645, 36823.87314127364, -44488.88981209872, -45722.50494033157, -24384.099171650312, -26267.568918176763, -187500.02235174447, 3872.484430370859, -12386.330948630686, -33614.00617528035, -45058.52401954222, -40590.09737850397, -20808.177686712468, -24669.709762300226, -47473.65235968261, -32622.236922053926, 0.210375, 1.000375, 0.02, 192.0, 0.0, 0.0, 0.0, 0.0, 0.0, 0.0, 0.0, 0.0, 0.0, 1.695760956669048E9, 0.0, 2023-09-26 15:42:36.669
200.0, 12802.453375155137, 36826.46594363045, -44490.096806299305, -45735.82658002694, -24389.39653508622, -26278.58832819323, -187500.02235174447, 3921.457102472437, -12419.478585657906, -33613.7826578358, -45072.91854297144, -40587.482224402695, -20834.08335853617, -24674.291869913563, -47485.11880458818, -32627.802506423297, 0.210375, 1.000375, 0.02, 192.0, 0.0, 0.0, 0.0, 0.0, 0.0, 0.0, 0.0, 0.0, 0.0, 1.695760956669056E9, 0.0, 2023-09-26 15:42:36.669
202.0, 12794.138526217763, 36813.09960044618, -44480.306742227884, -45739.76048705107, -24384.30033735041, -26279.86237762718, -187500.02235174447, 3866.8294390236665, -12415.589382122682, -33624.64560564108, -45071.42097609294, -40603.642535643885, -20832.40697770202, -24679.321012416007, -47480.24612429692, -32630.5517709913, 0.20518750000000002, 0.9991875, 0.020999999999999998, 192.0, 3.0, 32.0, 15.5, 24.0, 0.0, 88.0, 0.0, 0.0, 0.0, 1.695760956669065E9, 0.0, 2023-09-26 15:42:36.669
204.0, 12803.638017611269, 36828.254083186876, -44480.597314905805, -45738.86641727286, -24377.572462269363, -26282.67869742855, -187500.02235174447, 3925.2121955409284, -12411.320198931719, -33629.89826558808, -45067.844696980086, -40597.764026852135, -20840.90064059504, -24690.56393987703, -47477.16158356209, -32634.28451231534, 0.20518750000000002, 0.9991875, 0.020999999999999998, 192.0, 0.0, 0.0, 0.0, 0.0, 0.0, 0.0, 0.0, 0.0, 0.0, 1.695760956669074E9, 0.0, 2023-09-26 15:42:36.669
206.0, 12800.911104787721, 36818.687536560006, -44488.66629465417, -45734.44077187071, -24383.54037803893, -26282.0528485838, -187500.02235174447, 3871.523305359281, -12418.986847279888, -33639.10718430366, -45070.839830737095, -40606.12357927842, -20829.99298930085, -24683.12080897341, -47483.285961542846, -32639.917151918075, 0.20518750000000002, 0.9991875, 0.020999999999999998, 192.0, 0.0, 0.0, 0.0, 0.0, 0.0, 0.0, 0.0, 0.0, 0.0, 1.695760956669083E9, 0.0, 2023-09-26 15:42:36.669
208.0, 12811.86345957082, 36833.3949844116, -44488.55453593189, -45737.48060911663, -24383.54037803893, -26287.663136442083, -187500.02235174447, 3927.782646153289, -12426.720550861424, -33623.70683237396, -45067.46471732434, -40588.64451511437, -20824.20388748692, -24671.184977434277, -47483.196554565024, -32632.138744847627, 0.20518750000000002, 0.9991875, 0.020999999999999998, 192.0, 0.0, 0.0, 0.0, 0.0, 0.0, 0.0, 0.0, 0.0, 0.0, 1.695760956669122E9, 0.0, 2023-09-26 15:42:36.669
210.0, 12809.6729886142, 36816.25119641438, -44472.93066655763, -45738.17351319474, -24374.331459323344, -26271.972211834458, -187500.02235174447, 3851.138514416041, -12399.65258832605, -33630.30059698827, -45053.360766573045, -40597.94284080778, -20823.756852597817, -24677.018782737112, -47477.69802542902, -32634.64214022662, 0.20518750000000002, 0.9991875, 0.020999999999999998, 192.0, 0.0, 0.0, 0.0, 0.0, 0.0, 0.0, 0.0, 0.0, 0.0, 1.695760956730294E9, 0.0, 2023-09-26 15:42:36.730
212.0, 12814.143337505262, 36832.43385940002, -44483.70420738509, -45737.39120213881, -24383.138046638735, -26282.231662539445, -187500.02235174447, 3930.3083932767386, -12405.620504095616, -33636.89436160259, -45063.150830644474, -40593.293677961075, -20832.496384679842, -24689.178131720797, -47478.34622601822, -32633.27868381485, 0.20459375000000002, 0.9995937500000001, 0.0245, 192.0, 3.0, 48.0, 15.5, 32.0, 0.0, 112.0, 0.0, 0.0, 0.0, 1.695760956730314E9, 0.0, 2023-09-26 15:42:36.730
214.0, 12807.01313102402, 36812.943138234994, -44477.736291615525, -45733.032611970026, -24378.39947681421, -26277.15781654809, -187500.02235174447, 3837.4145433204826, -12422.250201970364, -33631.373480722126, -45072.06917668214, -40599.306297219555, -20809.49643963533, -24674.783608291582, -47482.21307780899, -32642.666416486078, 0.20459375000000002, 0.9995937500000001, 0.0245, 192.0, 0.0, 0.0, 0.0, 0.0, 0.0, 0.0, 0.0, 0.0, 0.0, 1.695760956730324E9, 0.0, 2023-09-26 15:42:36.730
216.0, 12819.954791063643, 36829.90811227657, -44466.56041938787, -45732.22794916963, -24376.700744235604, -26274.788531635826, -187500.02235174447, 3916.0032768253423, -12394.534038845783, -33629.048899298774, -45057.74170848629, -40588.55510813655, -20828.763643355804, -24678.69516357126, -47472.847696882214, -32636.005596638395, 0.20459375000000002, 0.9995937500000001, 0.0245, 192.0, 0.0, 0.0, 0.0, 0.0, 0.0, 0.0, 0.0, 0.0, 0.0, 1.695760956730334E9, 0.0, 2023-09-26 15:42:36.730
218.0, 12819.485404430081, 36817.32408014823, -44471.56721014586, -45729.09870494589, -24376.521930279963, -26266.406627465087, -187500.02235174447, 3829.3232118276615, -12406.134594218087, -33630.92644583302, -45059.75336548727, -40592.19844248277, -20819.89000080705, -24669.262727411122, -47468.82438288026, -32631.043509369316, 0.20459375000000002, 0.9995937500000001, 0.0245, 192.0, 0.0, 0.0, 0.0, 0.0, 0.0, 0.0, 0.0, 0.0, 0.0, 1.695760956730343E9, 0.0, 2023-09-26 15:42:36.730
220.0, 12829.655448157246, 36840.88281880412, -44467.588599632814, -45727.779952023026, -24374.06323838988, -26272.39689497911, -187500.02235174447, 3899.0830062726745, -12389.370785876607, -33629.339471976695, -45060.02158642073, -40586.096416246466, -20819.778242084773, -24679.58923334947, -47473.831173638246, -32638.17371585056, 0.20459375000000002, 0.9995937500000001, 0.0245, 192.0, 0.0, 0.0, 0.0, 0.0, 0.0, 0.0, 0.0, 0.0, 0.0, 1.695760956730352E9, 0.0, 2023-09-26 15:42:36.730
222.0, 12810.812927581423, 36817.65935631506, -44482.65367539569, -45736.43007712723, -24371.090456377326, -26276.934299103537, -187500.02235174447, 3817.745008199812, -12405.531097117793, -33623.751535862866, -45063.66492076694, -40587.191651724774, -20804.64611108853, -24662.31133488552, -47468.98084509145, -32637.99490189492, 0.20529687500000002, 0.995796875, 0.026250000000000002, 192.0, 3.0, 56.0, 15.5, 0.0, 0.0, 112.0, 0.0, 0.0, 0.0, 1.69576095673036E9, 0.0, 2023-09-26 15:42:36.730
224.0, 12823.039331798474, 36833.32792917823, -44465.912218798665, -45738.79936203949, -24378.73475298104, -26274.587365935728, -187500.02235174447, 3888.19770672294, -12399.74199530387, -33636.2908645023, -45062.234409121804, -40597.71932336323, -20832.40697770202, -24673.97894549119, -47472.40066199311, -32648.61198051119, 0.20529687500000002, 0.995796875, 0.026250000000000002, 192.0, 0.0, 0.0, 0.0, 0.0, 0.0, 0.0, 0.0, 0.0, 0.0, 1.69576095673037E9, 0.0, 2023-09-26 15:42:36.730
226.0, 12825.229802755095, 36824.52134186284, -44466.02397752094, -45726.99764096709, -24381.64047976023, -26272.218081023468, -187500.02235174447, 3844.164770145985, -12411.677826843004, -33628.646567898584, -45063.150830644474, -40593.45014017226, -20825.165012498503, -24678.69516357126, -47478.14506031812, -32646.80148921031, 0.20529687500000002, 0.995796875, 0.026250000000000002, 192.0, 0.0, 0.0, 0.0, 0.0, 0.0, 0.0, 0.0, 0.0, 0.0, 1.695760956791232E9, 0.0, 2023-09-26 15:42:36.791
228.0, 12826.816776611422, 36831.472734388444, -44463.16295423066, -45728.98694622362, -24375.06906689037, -26270.362886233677, -187500.02235174447, 3887.3259886891833, -12395.83044002419, -33629.004195809866, -45053.785449717696, -40588.28688720309, -20807.060099489703, -24664.993544220157, -47468.645568924614, -32634.46332627098, 0.20529687500000002, 0.995796875, 0.026250000000000002, 192.0, 0.0, 0.0, 0.0, 0.0, 0.0, 0.0, 0.0, 0.0, 0.0, 1.695760956791267E9, 0.0, 2023-09-26 15:42:36.791
230.0, 12829.834262112889, 36825.23659768541, -44474.07060552485, -45736.60889108288, -24378.377125069754, -26278.96830784897, -187500.02235174447, 3847.2940143697283, -12403.921771517013, -33636.067347057746, -45063.17318238893, -40598.34517220798, -20816.537239138754, -24671.117922200912, -47474.99346434992, -32643.873410686665, 0.20529687500000002, 0.995796875, 0.026250000000000002, 192.0, 0.0, 0.0, 0.0, 0.0, 0.0, 0.0, 0.0, 0.0, 0.0, 1.695760956791313E9, 0.0, 2023-09-26 15:42:36.791
232.0, 12822.994628309563, 36825.035431985314, -44467.23097172153, -45732.0938387029, -24373.951479667605, -26277.33663050373, -187500.02235174447, 3853.61955805058, -12398.847925525657, -33628.11012603166, -45062.21205737735, -40601.63087864291, -20797.225331929367, -24668.435712866274, -47473.09356607122, -32643.49343103092, 0.2066484375, 0.9968984375000001, 0.026125000000000002, 192.0, 3.0, 64.0, 15.5, 24.0, 0.0, 104.0, 0.0, 0.0, 0.0, 1.695760956791322E9, 0.0, 2023-09-26 15:42:36.791
234.0, 12833.54465169247, 36829.68459483202, -44455.51865762695, -45718.03459144051, -24372.11863662227, -26272.01691532337, -187500.02235174447, 3839.783828232745, -12397.305655158241, -33633.31808248974, -45057.384080575, -40595.99823904017, -20825.902620065524, -24674.046000724557, -47475.61931319467, -32641.347663563214, 0.2066484375, 0.9968984375000001, 0.026125000000000002, 192.0, 0.0, 0.0, 0.0, 0.0, 0.0, 0.0, 0.0, 0.0, 0.0, 1.695760956791331E9, 0.0, 2023-09-26 15:42:36.791
236.0, 12816.982009051086, 36818.79929528228, -44468.773242088944, -45729.05400145698, -24376.946613424614, -26277.850720626204, -187500.02235174447, 3838.398020076516, -12386.621521308603, -33620.0858497722, -45048.84571419308, -40584.755311579145, -20818.45948916191, -24665.708800042725, -47470.18783929203, -32632.630483225643, 0.2066484375, 0.9968984375000001, 0.026125000000000002, 192.0, 0.0, 0.0, 0.0, 0.0, 0.0, 0.0, 0.0, 0.0, 0.0, 1.695760956791344E9, 0.0, 2023-09-26 15:42:36.791
238.0, 12819.86538408582, 36819.00046098238, -44468.437965922116, -45734.5972340819, -24373.929127923147, -26284.377430007153, -187500.02235174447, 3836.1181421420747, -12405.955780262444, -33644.65041692858, -45067.06238592415, -40601.966154809736, -20817.811288572706, -24683.0761054845, -47479.66497894108, -32645.08040488725, 0.2066484375, 0.9968984375000001, 0.026125000000000002, 192.0, 0.0, 0.0, 0.0, 0.0, 0.0, 0.0, 0.0, 0.0, 0.0, 1.695760956791353E9, 0.0, 2023-09-26 15:42:36.791
