%OpenBCI Raw EXG Data
%Number of channels = 16
%Sample Rate = 125 Hz
%Board = OpenBCI_GUI$BoardCytonSerialDaisy
Sample Index, EXG Channel 0, EXG Channel 1, EXG Channel 2, EXG Channel 3, EXG Channel 4, EXG Channel 5, EXG Channel 6, EXG Channel 7, EXG Channel 8, EXG Channel 9, EXG Channel 10, EXG Channel 11, EXG Channel 12, EXG Channel 13, EXG Channel 14, EXG Channel 15, Accel Channel 0, Accel Channel 1, Accel Channel 2, Other, Other, Other, Other, Other, Other, Other, Analog Channel 0, Analog Channel 1, Analog Channel 2, Timestamp, Other, Timestamp (Formatted)
162.0, 12615.793957208867, 37268.0470070895, -44683.752320260086, -46069.35931078903, -24804.42372613236, -26211.13076342711, -187500.02235174447, 3696.6432567409583, -12676.07661200483, -34145.485954938646, -45349.74489805042, -41072.00098896039, -21049.710637296517, -25218.8027165893, -48346.26446321779, -33181.67873402581, 0.0, 0.0, 0.0, 192.0, 0.0, 0.0, 0.0, 0.0, 0.0, 0.0, 0.0, 0.0, 0.0, 1.695760906827947E9, 0.0, 2023-09-26 15:41:46.827
164.0, 12630.07672191581, 37284.36378054188, -44676.66681726776, -46070.40984277843, -24802.702641809305, -26215.2881878958, -187500.02235174447, 3742.821960785623, -12632.624820783714, -34150.42569046327, -45340.44657235701, -41069.25172439239, -21054.82918677678, -25222.110774768684, -48347.87378881858, -33187.69135328428, 0.0, 0.0, 0.0, 192.0, 0.0, 0.0, 0.0, 0.0, 0.0, 0.0, 0.0, 0.0, 0.0, 1.695760906827967E9, 0.0, 2023-09-26 15:41:46.827
166.0, 12623.617067768226, 37274.86428914837, -44672.30822709897, -46070.45454626734, -24802.121496453467, -26218.059804208257, -187500.02235174447, 3686.1379368469643, -12638.749198764468, -34130.64439662032, -45337.71965953346, -41068.8940964811, -21067.256756693932, -25219.920303812065, -48346.912663807, -33190.6864870413, 0.0, 0.0, 0.0, 192.0, 0.0, 0.0, 0.0, 0.0, 0.0, 0.0, 0.0, 0.0, 0.0, 1.695760906827977E9, 0.0, 2023-09-26 15:41:46.827
168.0, 12634.412960340138, 37293.81856844647, -44682.97000920415, -46070.052214867144, -24806.949473255812, -26225.70410081197, -187500.02235174447, 3749.6392428444915, -12631.708399261046, -34142.066138036986, -45337.16086592208, -41056.80180273078, -21038.378302857676, -25226.201144004008, -48351.13714350905, -33198.62135632293, -0.006, 1.012, -0.004, 192.0, 127.5, 104.0, 15.5, 80.0, 127.5, 112.0, 0.0, 0.0, 0.0, 1.695760906827987E9, 0.0, 2023-09-26 15:41:46.827
170.0, 12632.758931250446, 37275.71365543767, -44676.01861667855, -46068.59935147755, -24806.81536278908, -26218.81976351974, -187500.02235174447, 3681.712291444813, -12645.78999826789, -34142.691986881735, -45339.06076420078, -41063.41791908955, -21061.378247902187, -25224.770632358868, -48349.41605918599, -33197.61552782244, -0.006, 1.012, -0.004, 192.0, 0.0, 0.0, 0.0, 0.0, 0.0, 0.0, 0.0, 0.0, 0.0, 1.695760906827998E9, 0.0, 2023-09-26 15:41:46.827
172.0, 12652.719039049034, 37299.80883596049, -44671.41415732076, -46064.44192700886, -24794.588958572025, -26214.148248928577, -187500.02235174447, 3743.827789286112, -12639.464454587038, -34151.54327768603, -45337.71965953346, -41061.71918651095, -21048.235422162466, -25229.866830094677, -48343.448143416426, -33189.72536202972, -0.006, 1.012, -0.004, 192.0, 0.0, 0.0, 0.0, 0.0, 0.0, 0.0, 0.0, 0.0, 0.0, 1.695760906828007E9, 0.0, 2023-09-26 15:41:46.828
174.0, 12643.018381955431, 37280.09459735091, -44676.80092773449, -46067.66057821042, -24798.567569085073, -26209.454382592965, -187500.02235174447, 3665.395517992439, -12638.726847020012, -34131.38200418735, -45333.36106936468, -41055.88538120811, -21062.987573502967, -25216.344024699214, -48335.08859099014, -33184.830329994, -0.006, 1.012, -0.004, 192.0, 0.0, 0.0, 0.0, 0.0, 0.0, 0.0, 0.0, 0.0, 0.0, 1.695760906828017E9, 0.0, 2023-09-26 15:41:46.828
176.0, 12654.328364649817, 37297.26073709258, -44681.62890453683, -46074.56726724712, -24804.66959532137, -26213.298882639276, -187500.02235174447, 3759.563417382648, -12647.98046922451, -34150.380986974356, -45344.64870031461, -41059.12638415413, -21061.244137435453, -25228.503373682903, -48346.89031206254, -33192.29581264208, -0.006, 1.012, -0.004, 192.0, 0.0, 0.0, 0.0, 0.0, 0.0, 0.0, 0.0, 0.0, 0.0, 1.695760906828026E9, 0.0, 2023-09-26 15:41:46.828
178.0, 12643.666582544636, 37278.686437450226, -44676.912686456766, -46068.68875845537, -24797.114705695476, -26210.169638415533, -187500.02235174447, 3706.0980446455533, -12638.816253997835, -34157.37708298887, -45339.5525025788, -41063.88730572311, -21056.68438156657, -25224.010673047385, -48340.72123059288, -33189.16656841833, -0.002, 1.008, -0.006, 192.0, 127.5, 120.0, 15.5, 64.0, 127.5, 104.0, 0.0, 0.0, 0.0, 1.695760906828037E9, 0.0, 2023-09-26 15:41:46.828
0.0, 6297.983979938505, 18613.281084690225, -22289.517198743488, -22989.26091066133, -12363.085134397166, -13095.30593100857, -93750.01117587223, 2058.394498633683, -6336.607794357275, -17069.200225973156, -22669.42979925034, -20528.087976943014, -10522.284868035898, -12616.531564775893, -24163.219232942967, -16586.961339349906, -0.008, 1.012, -0.01, 192.0, 127.5, 96.0, 15.5, 80.0, 127.5, 88.0, 0.0, 0.0, 0.0, 1.695760906985315E9, 0.0, 2023-09-26 15:41:46.985
2.0, 12571.135171787164, 37196.36496262133, -44587.19278421316, -45975.21376314328, -24730.66296942985, -26194.94810044147, -187500.02235174447, 4036.903862584098, -12670.55573112437, -34086.49970132109, -45267.19990577697, -41018.84854064567, -21052.526957097885, -25167.03607643081, -48234.81866536363, -33132.25902703512, -0.008, 1.012, -0.01, 192.0, 0.0, 0.0, 0.0, 0.0, 0.0, 0.0, 0.0, 0.0, 0.0, 1.695760906985337E9, 0.0, 2023-09-26 15:41:46.985
4.0, 12604.26045706993, 37234.295872961986, -44559.67778678868, -45965.267236860665, -24727.623132183926, -26193.338774840686, -187500.02235174447, 4110.977543708986, -12598.314893044817, -34066.427834800226, -45239.50609439684, -40994.7757118673, -21039.63000054717, -25156.620163514635, -48228.850749594065, -33120.23378851817, -0.008, 1.012, -0.01, 192.0, 0.0, 0.0, 0.0, 0.0, 0.0, 0.0, 0.0, 0.0, 0.0, 1.695760906985373E9, 0.0, 2023-09-26 15:41:46.985
6.0, 12588.01073885092, 37204.27748015851, -44582.74478706656, -45978.901800978405, -24735.7368154212, -26193.09290565168, -187500.02235174447, 4042.156522531095, -12600.862991912723, -34051.787442182, -45238.343803685166, -41003.96227883843, -21036.277238878876, -25161.001105427877, -48236.182121775404, -33127.16282929931, -0.008, 1.012, -0.01, 192.0, 0.0, 0.0, 0.0, 0.0, 0.0, 0.0, 0.0, 0.0, 0.0, 1.695760906985384E9, 0.0, 2023-09-26 15:41:46.985
8.0, 12590.290616785362, 37219.387259410294, -44588.31037143593, -45977.29247537762, -24743.42581551383, -26200.960719699946, -187500.02235174447, 4130.758837551933, -12637.050466185865, -34069.914706935255, -45262.57309467472, -41018.893244134575, -21066.78737006037, -25186.638556318114, -48253.392965005994, -33135.90236138134, -0.008, 1.008, -0.006, 192.0, 127.5, 96.0, 15.5, 64.0, 127.5, 104.0, 0.0, 0.0, 0.0, 1.695760906985404E9, 0.0, 2023-09-26 15:41:46.985
10.0, 12588.569532462303, 37207.69729706017, -44575.9722084966, -45965.401347327395, -24731.378225252418, -26187.99670791587, -187500.02235174447, 4066.966958876486, -12627.103939903252, -34079.637715773315, -45261.276693496315, -41015.02639234381, -21069.000192761447, -25170.768817754844, -48249.615520193045, -33138.025777104594, -0.008, 1.008, -0.006, 192.0, 0.0, 0.0, 0.0, 0.0, 0.0, 0.0, 0.0, 0.0, 0.0, 1.695760906985414E9, 0.0, 2023-09-26 15:41:46.985
12.0, 12596.30323604384, 37222.5835588674, -44582.09658647735, -45972.86682997547, -24736.407367754862, -26193.070553907222, -187500.02235174447, 4123.405113626136, -12613.804651952345, -34062.44922428718, -45247.75388810085, -41000.43070321449, -21045.530861083374, -25166.231413630416, -48235.75743863075, -33122.424259474785, -0.008, 1.008, -0.006, 192.0, 0.0, 0.0, 0.0, 0.0, 0.0, 0.0, 0.0, 0.0, 0.0, 1.695760906985423E9, 0.0, 2023-09-26 15:41:46.985
14.0, 12597.890209900166, 37215.02866924151, -44578.94499050915, -45968.66470201787, -24733.52399272013, -26197.093867909178, -187500.02235174447, 4082.836697439754, -12626.947477692065, -34078.520128550546, -45263.511867941845, -41014.288784776785, -21047.967201229003, -25175.17211141254, -48245.771020146734, -33138.31634978251, -0.008, 1.008, -0.006, 192.0, 0.0, 0.0, 0.0, 0.0, 0.0, 0.0, 0.0, 0.0, 0.0, 1.695760906985432E9, 0.0, 2023-09-26 15:41:46.985
16.0, 12601.801765179845, 37226.27159670253, -44571.25599041653, -45974.67732127635, -24737.524954977627, -26199.86548422164, -187500.02235174447, 4114.084436188274, -12634.189442895586, -34070.78642496901, -45253.40887944805, -41006.42097072852, -21067.88260553868, -25174.41215210106, -48234.05870605215, -33132.706061924226, -0.008, 1.008, -0.006, 192.0, 0.0, 0.0, 0.0, 0.0, 0.0, 0.0, 0.0, 0.0, 0.0, 1.695760907045517E9, 0.0, 2023-09-26 15:41:47.045
18.0, 12604.551029747849, 37219.253148943564, -44577.04509223045, -45968.128260150945, -24736.22855379922, -26194.65752776355, -187500.02235174447, 4070.6549967116116, -12627.193346881075, -34065.98079991112, -45251.79955384726, -41004.76694163882, -21053.108102453723, -25166.54433805279, -48241.05480206666, -33132.66135843532, -0.014, 1.01, -0.012, 192.0, 127.5, 72.0, 15.5, 72.0, 127.5, 80.0, 0.0, 0.0, 0.0, 1.695760907045539E9, 0.0, 2023-09-26 15:41:47.045
20.0, 12613.49172752997, 37226.539817635996, -44580.554316109934, -45969.71523400727, -24740.676550945827, -26197.85382722066, -187500.02235174447, 4088.8493166982316, -12614.765776963923, -34066.36077956686, -45252.894789325575, -41006.3315637507, -21043.563907571308, -25173.31691662275, -48249.07907832612, -33134.51655322511, -0.014, 1.01, -0.012, 192.0, 0.0, 0.0, 0.0, 0.0, 0.0, 0.0, 0.0, 0.0, 0.0, 1.69576090704555E9, 0.0, 2023-09-26 15:41:47.045
22.0, 12618.766739221424, 37226.9868525251, -44571.904191005735, -45962.09328914801, -24737.547306722085, -26186.968527670924, -187500.02235174447, 4074.2983310578265, -12610.764814706423, -34056.10132886187, -45241.696565353464, -40996.317982234716, -21059.768922301402, -25169.852396232178, -48242.66412766745, -33124.27945426458, -0.014, 1.01, -0.012, 192.0, 0.0, 0.0, 0.0, 0.0, 0.0, 0.0, 0.0, 0.0, 0.0, 1.695760907045559E9, 0.0, 2023-09-26 15:41:47.045
24.0, 12607.747329204956, 37227.21036996965, -44570.920714249696, -45957.26531234566, -24737.077920088523, -26187.907300938048, -187500.02235174447, 4084.9154096740976, -12606.696797215558, -34061.33163706442, -45237.98617577388, -40994.79806361176, -21053.890413509656, -25171.30525962177, -48240.02662182172, -33122.021928074595, -0.014, 1.01, -0.012, 192.0, 0.0, 0.0, 0.0, 0.0, 0.0, 0.0, 0.0, 0.0, 0.0, 1.695760907045568E9, 0.0, 2023-09-26 15:41:47.045
26.0, 12615.905715931143, 37228.57382638143, -44556.43678384266, -45948.63753898592, -24723.13043154841, -26183.16873111352, -187500.02235174447, 4086.4353282970583, -12606.585038493282, -34060.97400915313, -45239.50609439684, -40993.099331033154, -21038.423006346584, -25158.587117026702, -48233.946947329874, -33116.74691638314, -0.014, 1.01, -0.012, 192.0, 0.0, 0.0, 0.0, 0.0, 0.0, 0.0, 0.0, 0.0, 0.0, 1.695760907045607E9, 0.0, 2023-09-26 15:41:47.045
28.0, 12612.35178856275, 37218.87316928782, -44550.804144239926, -45949.79982969759, -24721.677568158815, -26182.2299578464, -187500.02235174447, 4040.189569019028, -12614.430500797094, -34060.348160308386, -45235.125152483604, -40995.42391245651, -21063.144035714155, -25152.507442534858, -48219.910051811945, -33107.49329417864, -0.016, 1.01, -0.01, 192.0, 127.5, 64.0, 15.5, 72.0, 127.5, 88.0, 0.0, 0.0, 0.0, 1.695760907045618E9, 0.0, 2023-09-26 15:41:47.045
30.0, 12612.932933918588, 37225.332823435405, -44569.78077528248, -45958.31584433506, -24726.170268794333, -26189.315460838734, -187500.02235174447, 4059.4344209950473, -12605.78037569289, -34045.730119434615, -45230.56539661472, -40988.2266507419, -21040.412311603108, -25151.479262289915, -48220.5806041456, -33112.94711982574, -0.016, 1.01, -0.01, 192.0, 0.0, 0.0, 0.0, 0.0, 0.0, 0.0, 0.0, 0.0, 0.0, 1.695760907105862E9, 0.0, 2023-09-26 15:41:47.105
32.0, 12605.40039603715, 37215.00631749706, -44570.74190029406, -45959.65694900238, -24727.31020776155, -26185.873292192617, -187500.02235174447, 4038.0885050402294, -12634.748236506968, -34067.36660806735, -45254.772335859816, -41001.25771775934, -21047.766035528904, -25169.807692743267, -48233.92459558542, -33118.95973908422, -0.016, 1.01, -0.01, 192.0, 0.0, 0.0, 0.0, 0.0, 0.0, 0.0, 0.0, 0.0, 0.0, 1.695760907105887E9, 0.0, 2023-09-26 15:41:47.105
34.0, 12614.385797308183, 37224.95284377967, -44561.95766472312, -45952.70555647678, -24723.912742604345, -26182.274661335312, -187500.02235174447, 4078.701624715522, -12630.523756804914, -34061.93513416471, -45249.6314346351, -40992.09350253266, -21045.68732329456, -25165.35969559666, -48229.52130192772, -33115.40581171582, -0.016, 1.01, -0.01, 192.0, 0.0, 0.0, 0.0, 0.0, 0.0, 0.0, 0.0, 0.0, 0.0, 1.695760907105897E9, 0.0, 2023-09-26 15:41:47.105
36.0, 12604.193401836563, 37211.07241047292, -44557.084984431865, -45947.76582095216, -24721.252885014164, -26177.826664188706, -187500.02235174447, 4000.783443544322, -12607.143832104664, -34052.90502940476, -45245.38460318859, -40994.61924965611, -21042.11104418171, -25149.7358262224, -48224.514511169735, -33111.44955294723, -0.016, 1.01, -0.01, 192.0, 0.0, 0.0, 0.0, 0.0, 0.0, 0.0, 0.0, 0.0, 0.0, 1.695760907105906E9, 0.0, 2023-09-26 15:41:47.105
38.0, 12617.49268978747, 37225.623396113326, -44552.65933902971, -45948.74929770819, -24723.778632137615, -26184.487484036385, -187500.02235174447, 4070.2750170558716, -12600.952398890544, -34059.565849252445, -45240.55662638624, -40987.019656541306, -21042.55807907082, -25152.082759390207, -48222.212281490836, -33111.06957329149, -0.014, 1.01, -0.012, 192.0, 127.5, 72.0, 15.5, 72.0, 127.5, 80.0, 0.0, 0.0, 0.0, 1.695760907105915E9, 0.0, 2023-09-26 15:41:47.105
40.0, 12596.750270932946, 37198.60013706686, -44558.0684611879, -45960.28279784713, -24727.98076009521, -26187.907300938048, -187500.02235174447, 4002.392769145104, -12627.59567828127, -34085.98561119862, -45250.83842883568, -41007.20328178445, -21061.579413602285, -25163.012762428854, -48222.81577859113, -33118.4680007062, -0.014, 1.01, -0.012, 192.0, 0.0, 0.0, 0.0, 0.0, 0.0, 0.0, 0.0, 0.0, 0.0, 1.695760907105924E9, 0.0, 2023-09-26 15:41:47.105
42.0, 12606.652093726647, 37221.018936755536, -44570.04899621594, -45972.01746368617, -24735.222725298732, -26200.983071444403, -187500.02235174447, 4075.6170839806896, -12615.771605464412, -34062.82920394292, -45250.301986968756, -40995.87094734561, -21049.174195429587, -25160.755236238867, -48231.01886880623, -33126.60403568793, -0.014, 1.01, -0.012, 192.0, 0.0, 0.0, 0.0, 0.0, 0.0, 0.0, 0.0, 0.0, 0.0, 1.695760907105933E9, 0.0, 2023-09-26 15:41:47.105
44.0, 12595.722090688001, 37201.21529116813, -44575.14519395175, -45955.00778615568, -24732.31699851954, -26192.914091696035, -187500.02235174447, 4010.84172854921, -12625.561669535837, -34077.402541327785, -45258.974463817416, -41006.800950384255, -21022.95559918351, -25170.12061716564, -48239.9372148439, -33130.71675666771, -0.014, 1.01, -0.012, 192.0, 0.0, 0.0, 0.0, 0.0, 0.0, 0.0, 0.0, 0.0, 0.0, 1.695760907105942E9, 0.0, 2023-09-26 15:41:47.105
46.0, 12611.435367040083, 37223.4329251567, -44563.74580427955, -45955.45482104478, -24728.852478128967, -26196.445667319975, -187500.02235174447, 4090.1680696210947, -12622.54418403437, -34085.27035537605, -45257.14162077208, -41002.24119451537, -21055.589146088263, -25178.7930940143, -48242.19474103388, -33128.727451411185, -0.014, 1.01, -0.012, 192.0, 0.0, 0.0, 0.0, 0.0, 0.0, 0.0, 0.0, 0.0, 0.0, 1.695760907164531E9, 0.0, 2023-09-26 15:41:47.164
48.0, 12599.96892213451, 37203.96455573614, -44558.04610944344, -45946.20119884029, -24730.394748496386, -26185.538016025785, -187500.02235174447, 4016.4073129185813, -12623.63941951268, -34067.56777376745, -45249.69848986846, -40999.313115991725, -21048.905974496123, -25163.21392812895, -48239.17725553242, -33123.00540483063, -0.018000000000000002, 1.012, -0.016, 192.0, 127.5, 56.0, 15.5, 80.0, 127.5, 64.0, 0.0, 0.0, 0.0, 1.695760907164584E9, 0.0, 2023-09-26 15:41:47.164
50.0, 12607.814384438323, 37220.303680932964, -44558.87312398829, -45961.86977170346, -24731.333521763507, -26195.730411497407, -187500.02235174447, 4106.507194817924, -12649.723905292023, -34075.81556747146, -45254.59352190418, -40997.68143864649, -21057.421989133596, -25169.494768320892, -48238.52905494321, -33127.78867814406, -0.018000000000000002, 1.012, -0.016, 192.0, 0.0, 0.0, 0.0, 0.0, 0.0, 0.0, 0.0, 0.0, 0.0, 1.695760907164595E9, 0.0, 2023-09-26 15:41:47.164
52.0, 12595.431518010082, 37199.605965567345, -44562.315292634405, -45969.96110319628, -24734.172193309332, -26204.358184857156, -187500.02235174447, 4047.051554566807, -12596.660863955125, -34090.99240195661, -45247.19509448947, -41011.38305799759, -21037.55128831283, -25174.345096867695, -48240.3395462441, -33135.20945730322, -0.018000000000000002, 1.012, -0.016, 192.0, 0.0, 0.0, 0.0, 0.0, 0.0, 0.0, 0.0, 0.0, 0.0, 1.695760907164609E9, 0.0, 2023-09-26 15:41:47.164
54.0, 12608.149660605153, 37218.60494835436, -44552.27935937397, -45959.79105946911, -24726.170268794333, -26208.1356296701, -187500.02235174447, 4128.568366595312, -12610.11661411722, -34082.87871871933, -45247.55272240075, -41004.431665471995, -21048.570698329295, -25183.956346983476, -48234.97512757482, -33133.37661425789, -0.018000000000000002, 1.012, -0.016, 192.0, 0.0, 0.0, 0.0, 0.0, 0.0, 0.0, 0.0, 0.0, 0.0, 1.695760907164618E9, 0.0, 2023-09-26 15:41:47.164
56.0, 12597.711395944525, 37197.46019809964, -44556.48148733157, -45970.74341425222, -24726.483193216707, -26214.014138461847, -187500.02235174447, 4057.512170971891, -12612.35178856275, -34096.08859969242, -45244.80345783275, -41011.47246497541, -21040.83699474776, -25183.732829538923, -48232.918767084935, -33140.395062016854, -0.018000000000000002, 1.012, -0.016, 192.0, 0.0, 0.0, 0.0, 0.0, 0.0, 0.0, 0.0, 0.0, 0.0, 1.695760907164628E9, 0.0, 2023-09-26 15:41:47.164
58.0, 12613.49172752997, 37222.91883503424, -44546.66907151569, -45954.784268711126, -24728.94188510679, -26209.47673433742, -187500.02235174447, 4116.81134901182, -12613.625837996702, -34088.10902692188, -45247.41861193402, -41008.767903896325, -21026.129546896165, -25182.23526266042, -48236.85267410907, -33141.66911145081, -0.02, 1.012, -0.014, 192.0, 127.5, 48.0, 15.5, 80.0, 127.5, 72.0, 0.0, 0.0, 0.0, 1.695760907164637E9, 0.0, 2023-09-26 15:41:47.164
60.0, 12610.20602109504, 37201.97525047961, -44546.33379534886, -45946.00003314019, -24727.71253916175, -26198.300862109765, -187500.02235174447, 4036.1886067615283, -12600.862991912723, -34057.80006144048, -45232.688812337976, -40985.85736582963, -21028.275314363877, -25168.578346798226, -48232.85171185157, -33128.41452698881, -0.02, 1.012, -0.014, 192.0, 0.0, 0.0, 0.0, 0.0, 0.0, 0.0, 0.0, 0.0, 0.0, 1.695760907224969E9, 0.0, 2023-09-26 15:41:47.224
62.0, 12608.864916427723, 37210.871244772825, -44545.73029824857, -45960.12633563594, -24729.41127174035, -26202.637100534095, -187500.02235174447, 4107.647133785144, -12631.194309138575, -34083.3928088418, -45249.318510212725, -40998.82137761371, -21049.88945125216, -25182.771704527346, -48237.79144737619, -33133.84600089145, -0.02, 1.012, -0.014, 192.0, 0.0, 0.0, 0.0, 0.0, 0.0, 0.0, 0.0, 0.0, 0.0, 1.695760907224993E9, 0.0, 2023-09-26 15:41:47.224
64.0, 12609.758986205934, 37198.622488811314, -44550.82649598438, -45966.027196172145, -24731.624094441428, -26206.90628372506, -187500.02235174447, 4080.892095672142, -12608.820212938812, -34100.8495212614, -45247.10568751165, -41010.9807265974, -21047.810739017816, -25188.337288896717, -48240.36189798855, -33135.432974747775, -0.02, 1.012, -0.014, 192.0, 0.0, 0.0, 0.0, 0.0, 0.0, 0.0, 0.0, 0.0, 0.0, 1.695760907225003E9, 0.0, 2023-09-26 15:41:47.225
66.0, 12612.865878685223, 37208.25609067155, -44555.92269372019, -45971.704539263796, -24733.926324120323, -26207.152152914066, -187500.02235174447, 4126.489654360968, -12627.148643392164, -34112.18185570024, -45250.61491139113, -41014.73581966589, -21039.987628458457, -25189.61133833067, -48241.233616022306, -33136.72937592618, -0.02, 1.012, -0.014, 192.0, 0.0, 0.0, 0.0, 0.0, 0.0, 0.0, 0.0, 0.0, 0.0, 1.695760907225013E9, 0.0, 2023-09-26 15:41:47.225
68.0, 12608.574343749804, 37203.85279701386, -44555.65447278672, -45962.49562054821, -24724.739757149193, -26199.99959468837, -187500.02235174447, 4087.2399910974495, -12590.78235516338, -34076.88845120531, -45248.67030962352, -41008.2314620294, -21031.270448120886, -25189.276062163837, -48244.13934280149, -33137.80225966004, -0.02, 1.006, -0.012, 192.0, 127.5, 48.0, 15.5, 56.0, 127.5, 80.0, 0.0, 0.0, 0.0, 1.695760907225022E9, 0.0, 2023-09-26 15:41:47.225
70.0, 12603.54520124736, 37202.332878390895, -44557.4649640876, -45964.775498482646, -24729.277161273618, -26200.46898132193, -187500.02235174447, 4089.452813798525, -12616.665675242624, -34085.47152107615, -45255.91227482704, -41010.444284730474, -21030.912820209604, -25184.626899317136, -48240.943043344385, -33132.437840990766, -0.02, 1.006, -0.012, 192.0, 0.0, 0.0, 0.0, 0.0, 0.0, 0.0, 0.0, 0.0, 0.0, 1.695760907225065E9, 0.0, 2023-09-26 15:41:47.225
72.0, 12611.100090873253, 37204.12101794732, -44549.64185352825, -45954.203123355284, -24725.544419949583, -26196.602129531162, -187500.02235174447, 4089.1398893761507, -12599.611294223225, -34082.72225650815, -45245.33989969968, -41007.49385446237, -21038.82533774678, -25179.441294603505, -48239.37842123252, -33131.521419468096, -0.02, 1.006, -0.012, 192.0, 0.0, 0.0, 0.0, 0.0, 0.0, 0.0, 0.0, 0.0, 0.0, 1.695760907225075E9, 0.0, 2023-09-26 15:41:47.225
74.0, 12596.124422088198, 37197.571956821914, -44566.24919965854, -45967.16713513937, -24737.56965846654, -26201.407754589054, -187500.02235174447, 4070.2079618225057, -12623.214736368029, -34093.27227989105, -45250.033766035296, -41007.67266841801, -21043.385093615663, -25184.40338187258, -48243.02175557873, -33130.31442526751, -0.02, 1.006, -0.012, 192.0, 0.0, 0.0, 0.0, 0.0, 0.0, 0.0, 0.0, 0.0, 0.0, 1.695760907225084E9, 0.0, 2023-09-26 15:41:47.225
76.0, 12609.557820505837, 37203.49516910257, -44556.70500477612, -45968.57529504005, -24735.870925887935, -26206.950987213968, -187500.02235174447, 4097.499441802435, -12626.008704424943, -34088.734875766626, -45256.582827160695, -41010.31017426374, -21031.717483009994, -25185.722134795444, -48253.683537683915, -33142.31731204001, -0.02, 1.006, -0.012, 192.0, 0.0, 0.0, 0.0, 0.0, 0.0, 0.0, 0.0, 0.0, 0.0, 1.695760907285318E9, 0.0, 2023-09-26 15:41:47.285
78.0, 12606.093300115264, 37196.677887043705, -44545.752649993025, -45964.17200138236, -24732.1381845639, -26199.4855045659, -187500.02235174447, 4078.8133834377986, -12594.939779632066, -34096.02154445905, -45244.177608988, -41012.12066556462, -21046.246116905942, -25185.208044672974, -48244.40756373496, -33134.60596020293, -0.018000000000000002, 1.01, -0.014, 192.0, 127.5, 56.0, 15.5, 72.0, 127.5, 72.0, 0.0, 0.0, 0.0, 1.695760907285342E9, 0.0, 2023-09-26 15:41:47.285
80.0, 12608.909619916632, 37209.99952673907, -44554.58158905287, -45960.72983273624, -24732.741681664193, -26207.24155989189, -187500.02235174447, 4126.7802270388875, -12622.298314845362, -34087.885509477324, -45253.163010259035, -41008.36557249613, -21036.768977256892, -25196.585082600723, -48248.16265680345, -33138.13753582687, -0.018000000000000002, 1.01, -0.014, 192.0, 0.0, 0.0, 0.0, 0.0, 0.0, 0.0, 0.0, 0.0, 0.0, 1.695760907285352E9, 0.0, 2023-09-26 15:41:47.285
82.0, 12608.797861194356, 37204.79157028098, -44540.38823132375, -45938.556902236574, -24723.17513503732, -26190.27658585031, -187500.02235174447, 4065.938778631542, -12610.697759473058, -34089.83011124493, -45242.85885606514, -41005.325735250204, -21040.12173892519, -25173.428675345025, -48241.54654044468, -33124.48061996468, -0.018000000000000002, 1.01, -0.014, 192.0, 0.0, 0.0, 0.0, 0.0, 0.0, 0.0, 0.0, 0.0, 0.0, 1.695760907285362E9, 0.0, 2023-09-26 15:41:47.285
84.0, 12610.675407728602, 37213.84402678538, -44560.661263544716, -45957.42177455685, -24739.71542593425, -26209.543789570784, -187500.02235174447, 4117.571308323301, -12602.584076235782, -34066.271372589035, -45242.389469431575, -40991.75822636583, -21022.687378250048, -25171.26055613286, -48246.41922073594, -33125.933483354274, -0.018000000000000002, 1.01, -0.014, 192.0, 0.0, 0.0, 0.0, 0.0, 0.0, 0.0, 0.0, 0.0, 0.0, 1.695760907285371E9, 0.0, 2023-09-26 15:41:47.285
86.0, 12596.839677910768, 37199.673020800714, -44548.63602502776, -45954.87367568895, -24735.42389099883, -26200.04429817728, -187500.02235174447, 4077.8522584262205, -12631.551937049859, -34087.05849493248, -45256.381661460604, -41011.38305799759, -21055.969125744003, -25189.141951697107, -48255.40462200697, -33141.244428306156, -0.018000000000000002, 1.01, -0.014, 192.0, 0.0, 0.0, 0.0, 0.0, 0.0, 0.0, 0.0, 0.0, 0.0, 1.69576090728538E9, 0.0, 2023-09-26 15:41:47.285
88.0, 12608.149660605153, 37211.96648025113, -44552.79344949644, -45962.674434503846, -24738.59783871148, -26211.33192912721, -187500.02235174447, 4157.960910554041, -12642.25842264395, -34085.918555965254, -45256.314606227235, -41005.79512188377, -21051.945811742047, -25191.6453470761, -48251.98480510531, -33135.05299509204, -0.014, 1.01, -0.01, 192.0, 127.5, 72.0, 15.5, 72.0, 127.5, 88.0, 0.0, 0.0, 0.0, 1.695760907285389E9, 0.0, 2023-09-26 15:41:47.285
90.0, 12607.747329204956, 37202.71285804664, -44546.803181982425, -45946.69293721831, -24731.914667119345, -26199.21728363243, -187500.02235174447, 4093.632590011667, -12609.557820505837, -34095.08277119193, -45250.61491139113, -41013.864101632134, -21035.78550050086, -25194.55107385529, -48252.70006092788, -33140.41741376131, -0.014, 1.01, -0.01, 192.0, 0.0, 0.0, 0.0, 0.0, 0.0, 0.0, 0.0, 0.0, 0.0, 1.695760907345555E9, 0.0, 2023-09-26 15:41:47.345
92.0, 12624.712303246535, 37227.724460092126, -44539.15888537871, -45947.83287618552, -24729.99241709619, -26204.20172264597, -187500.02235174447, 4161.246616988971, -12594.8727243987, -34078.542480295, -45237.74030658488, -40992.317019977214, -21014.39488105713, -25173.585137556212, -48246.10629631356, -33129.59916944494, -0.014, 1.01, -0.01, 192.0, 0.0, 0.0, 0.0, 0.0, 0.0, 0.0, 0.0, 0.0, 0.0, 1.695760907345579E9, 0.0, 2023-09-26 15:41:47.345
94.0, 12610.697759473058, 37210.67007907273, -44539.82943771237, -45943.67545171684, -24731.445280485783, -26206.36984185813, -187500.02235174447, 4081.7861654503545, -12609.289599572374, -34071.41227381376, -45234.94633852796, -40995.625078156605, -21047.609573317717, -25173.003992200374, -48238.52905494321, -33130.56029445652, -0.014, 1.01, -0.01, 192.0, 0.0, 0.0, 0.0, 0.0, 0.0, 0.0, 0.0, 0.0, 0.0, 1.695760907345589E9, 0.0, 2023-09-26 15:41:47.345
96.0, 12611.480070528993, 37222.27063444503, -44544.09862090333, -45945.061259873066, -24734.619228198437, -26203.665280779038, -187500.02235174447, 4157.379765198203, -12628.713265504035, -34076.486119805115, -45241.29423395327, -40993.7251798779, -21040.45701509202, -25178.54722482529, -48247.64856668098, -33134.51655322511, -0.014, 1.01, -0.01, 192.0, 0.0, 0.0, 0.0, 0.0, 0.0, 0.0, 0.0, 0.0, 0.0, 1.695760907345598E9, 0.0, 2023-09-26 15:41:47.345
98.0, 12606.49563151546, 37210.89359651728, -44533.25802484251, -45942.66962321635, -24727.80194613957, -26197.719716753927, -187500.02235174447, 4091.1068428882177, -12641.520815076927, -34074.29564884849, -45247.016280533826, -41001.63769741508, -21030.44343357604, -25180.73769578191, -48247.380345747515, -33129.621521189394, -0.012, 1.006, -0.014, 192.0, 127.5, 80.0, 15.5, 56.0, 127.5, 72.0, 0.0, 0.0, 0.0, 1.695760907345607E9, 0.0, 2023-09-26 15:41:47.345
100.0, 12617.202117109551, 37226.69627984718, -44522.57389099287, -45940.32269004854, -24722.482230959205, -26191.79650447327, -187500.02235174447, 4170.008500815452, -12578.824171879789, -34070.78642496901, -45222.407009888535, -40989.21012749793, -21034.824375489283, -25171.998163699885, -48228.11314202704, -33116.29988149404, -0.012, 1.006, -0.014, 192.0, 0.0, 0.0, 0.0, 0.0, 0.0, 0.0, 0.0, 0.0, 0.0, 1.695760907345617E9, 0.0, 2023-09-26 15:41:47.345
102.0, 12601.39943377965, 37203.741038291584, -44530.84403644133, -45944.90479766188, -24725.253847271666, -26196.669184764527, -187500.02235174447, 4102.19330813805, -12616.017474653421, -34078.38601808382, -45240.511922897334, -41003.76111313833, -21035.025541189378, -25189.79015228631, -48240.54071194419, -33127.47575372169, -0.012, 1.006, -0.014, 192.0, 0.0, 0.0, 0.0, 0.0, 0.0, 0.0, 0.0, 0.0, 0.0, 1.695760907345626E9, 0.0, 2023-09-26 15:41:47.345
104.0, 12614.654018241647, 37220.25897744405, -44525.56902474988, -45943.98837613921, -24718.145992534875, -26193.316423096232, -187500.02235174447, 4155.144590752672, -12606.696797215558, -34075.81556747146, -45236.242739706366, -40999.00019156936, -21019.78165147086, -25183.486960349914, -48235.24334850828, -33123.966529842204, -0.012, 1.006, -0.014, 192.0, 0.0, 0.0, 0.0, 0.0, 0.0, 0.0, 0.0, 0.0, 0.0, 1.695760907345635E9, 0.0, 2023-09-26 15:41:47.345
106.0, 12600.43830876807, 37200.388276623285, -44529.592338751834, -45948.346966307996, -24724.449184471272, -26199.574911543717, -187500.02235174447, 4092.447947555536, -12596.124422088198, -34079.280087862026, -45229.6266233476, -41004.94575559447, -21031.15868939861, -25168.39953284258, -48232.9858223183, -33122.73718389716, -0.012, 1.006, -0.014, 192.0, 0.0, 0.0, 0.0, 0.0, 0.0, 0.0, 0.0, 0.0, 0.0, 1.695760907404729E9, 0.0, 2023-09-26 15:41:47.404
108.0, 12595.073890098798, 37199.98594522309, -44549.64185352825, -45955.879504189434, -24729.210106040253, -26202.10065866717, -187500.02235174447, 4131.451741630047, -12619.370236321716, -34087.93021296623, -45246.43513517799, -41013.104142320655, -21009.119869365677, -25185.789190028812, -48247.536807958706, -33135.7682509146, -0.014, 1.006, -0.016, 192.0, 127.5, 72.0, 15.5, 56.0, 127.5, 64.0, 0.0, 0.0, 0.0, 1.695760907404764E9, 0.0, 2023-09-26 15:41:47.404
110.0, 12597.309064544328, 37191.31346837443, -44533.77211496498, -45960.19339086931, -24729.008940340154, -26215.84698150718, -187500.02235174447, 4078.053424126318, -12627.908602703645, -34099.26254740507, -45250.167876502026, -41020.79314241328, -21046.514337839406, -25178.167245169552, -48249.14613355949, -33140.86444865041, -0.014, 1.006, -0.016, 192.0, 0.0, 0.0, 0.0, 0.0, 0.0, 0.0, 0.0, 0.0, 0.0, 1.695760907404776E9, 0.0, 2023-09-26 15:41:47.404
112.0, 12594.895076143155, 37200.70120104566, -44545.193856381644, -45959.120507135456, -24737.27908578862, -26201.94419645598, -187500.02235174447, 4131.876424774698, -12645.588832567792, -34087.5949367994, -45253.095955025674, -41022.76009592535, -21038.132433668667, -25192.09238196521, -48256.812781907654, -33144.79835567455, -0.014, 1.006, -0.016, 192.0, 0.0, 0.0, 0.0, 0.0, 0.0, 0.0, 0.0, 0.0, 0.0, 1.695760907404923E9, 0.0, 2023-09-26 15:41:47.404
114.0, 12605.579209992793, 37201.50586384605, -44538.15305687822, -45955.38776581142, -24727.55607695056, -26207.46507733644, -187500.02235174447, 4103.847337227742, -12603.768718691912, -34083.92925070873, -45247.86564682313, -41020.45786624645, -21036.612515045705, -25192.673527321047, -48250.06255508215, -33134.98593985867, -0.014, 1.006, -0.016, 192.0, 0.0, 0.0, 0.0, 0.0, 0.0, 0.0, 0.0, 0.0, 0.0, 1.695760907404936E9, 0.0, 2023-09-26 15:41:47.404
116.0, 12596.191477321563, 37197.661363799736, -44542.891626702745, -45962.16034438138, -24737.27908578862, -26215.24348440689, -187500.02235174447, 4120.745256035955, -12611.658884484636, -34089.070151933454, -45255.398184704565, -41025.7328779379, -21031.337503354254, -25194.640480833114, -48254.39879350648, -33142.764346929114, -0.014, 1.006, -0.016, 192.0, 0.0, 0.0, 0.0, 0.0, 0.0, 0.0, 0.0, 0.0, 0.0, 1.695760907404945E9, 0.0, 2023-09-26 15:41:47.404
118.0, 12596.035015110376, 37195.73911377658, -44541.57287377988, -45955.58893151151, -24734.261600287155, -26214.48352509541, -187500.02235174447, 4099.309933103315, -12612.843526940767, -34096.51328283707, -45250.4808009244, -41024.52588373731, -21037.17130865709, -25199.736678568923, -48251.02368009373, -33144.68659695228, -0.014, 1.01, -0.016, 192.0, 127.5, 72.0, 15.5, 72.0, 127.5, 64.0, 0.0, 0.0, 0.0, 1.695760907404955E9, 0.0, 2023-09-26 15:41:47.404
120.0, 12583.026299837387, 37190.866433485324, -44549.70890876161, -45964.30611184909, -24742.442338757795, -26216.76340302985, -187500.02235174447, 4097.410034824614, -12619.459643299539, -34091.573547312444, -45258.4827254394, -41029.15269483956, -21038.19948890203, -25187.89025400761, -48255.47167724033, -33143.63606496288, -0.014, 1.01, -0.016, 192.0, 0.0, 0.0, 0.0, 0.0, 0.0, 0.0, 0.0, 0.0, 0.0, 1.695760907464615E9, 0.0, 2023-09-26 15:41:47.464
122.0, 12581.72989865898, 37187.111340416835, -44559.29780713294, -45970.81046948558, -24747.337370793506, -26231.694368325996, -187500.02235174447, 4120.901718247142, -12657.524664106926, -34108.60557658739, -45281.39326350609, -41041.66967173453, -21045.106177938724, -25201.211893702974, -48269.41916578045, -33156.73418721368, -0.014, 1.01, -0.016, 192.0, 0.0, 0.0, 0.0, 0.0, 0.0, 0.0, 0.0, 0.0, 0.0, 1.695760907464639E9, 0.0, 2023-09-26 15:41:47.464
124.0, 12586.82609639479, 37189.63708754028, -44547.652548271726, -45961.91447519237, -24739.581315467516, -26213.164772172546, -187500.02235174447, 4100.896906959642, -12619.68316074409, -34108.583224842936, -45263.06483305274, -41034.51711350884, -21024.341407339743, -25202.016556503364, -48262.691290699404, -33151.36976854441, -0.014, 1.01, -0.016, 192.0, 0.0, 0.0, 0.0, 0.0, 0.0, 0.0, 0.0, 0.0, 0.0, 1.695760907464652E9, 0.0, 2023-09-26 15:41:47.464
126.0, 12596.571456977303, 37197.41549461073, -44550.46886807309, -45962.98735892622, -24737.86023114446, -26221.636083321107, -187500.02235174447, 4119.2029856685385, -12619.370236321716, -34102.25768116208, -45260.941417329486, -41027.96805238343, -21046.134358183666, -25196.003937244885, -48257.75155517478, -33148.55344874304, -0.014, 1.01, -0.016, 192.0, 0.0, 0.0, 0.0, 0.0, 0.0, 0.0, 0.0, 0.0, 0.0, 1.695760907464669E9, 0.0, 2023-09-26 15:41:47.464
128.0, 12587.49664872845, 37185.770235749515, -44549.41833608369, -45965.28958860512, -24738.75430092267, -26221.077289709723, -187500.02235174447, 4083.1719736065834, -12646.952288979566, -34114.238216190126, -45270.776184889815, -41037.132267610104, -21043.29568663784, -25206.71042283898, -48264.099450600086, -33156.44361453576, -0.016, 1.01, -0.016, 192.0, 127.5, 64.0, 15.5, 72.0, 127.5, 64.0, 0.0, 0.0, 0.0, 1.695760907464686E9, 0.0, 2023-09-26 15:41:47.464
130.0, 12600.237143067974, 37203.808093524945, -44548.01017618301, -45963.74731823771, -24736.496774732685, -26219.646778064583, -187500.02235174447, 4126.377895638692, -12653.300184404872, -34098.144960182304, -45264.67415865352, -41029.19739832848, -21053.622192576193, -25202.731812325936, -48255.65049119598, -33152.04032087807, -0.016, 1.01, -0.016, 192.0, 0.0, 0.0, 0.0, 0.0, 0.0, 0.0, 0.0, 0.0, 0.0, 1.695760907464695E9, 0.0, 2023-09-26 15:41:47.464
132.0, 12592.63754995317, 37193.79451200897, -44533.70505973161, -45954.58310301103, -24735.602704954472, -26211.80131576077, -187500.02235174447, 4072.1749153345727, -12613.134099618686, -34100.6483555613, -45258.46037369494, -41030.091468106686, -21035.40552084512, -25194.32755641074, -48249.481409726315, -33150.85567842194, -0.016, 1.01, -0.016, 192.0, 0.0, 0.0, 0.0, 0.0, 0.0, 0.0, 0.0, 0.0, 0.0, 1.695760907464705E9, 0.0, 2023-09-26 15:41:47.464
134.0, 12588.72599467349, 37196.16379692123, -44553.84398148584, -45969.67053051836, -24750.33250455052, -26226.307597912266, -187500.02235174447, 4143.6781458471, -12628.221527126017, -34095.50745433658, -45255.35348121566, -41021.39663951357, -21029.750529497927, -25198.70849832398, -48255.203456306874, -33145.223038819204, -0.016, 1.01, -0.016, 192.0, 0.0, 0.0, 0.0, 0.0, 0.0, 0.0, 0.0, 0.0, 0.0, 1.695760907464757E9, 0.0, 2023-09-26 15:41:47.464
136.0, 12579.472372468994, 37181.81397698093, -44545.126801148275, -45959.321672835555, -24745.079844603522, -26213.298882639276, -187500.02235174447, 4087.6870259865555, -12653.478998360515, -34122.08367849394, -45271.37968199011, -41043.25664559086, -21046.78255877287, -25202.597701859202, -48270.33558730312, -33155.70600696874, -0.016, 1.01, -0.016, 192.0, 0.0, 0.0, 0.0, 0.0, 0.0, 0.0, 0.0, 0.0, 0.0, 1.695760907524992E9, 0.0, 2023-09-26 15:41:47.524
138.0, 12592.212866808519, 37203.40576212475, -44536.8119522109, -45959.63459725793, -24740.788309668103, -26213.388289617098, -187500.02235174447, 4150.987166283985, -12613.871707185712, -34080.464730318155, -45247.843295078674, -41021.620156958124, -21028.632942275162, -25182.41407661606, -48255.87400864053, -33146.497088253156, -0.01, 1.014, -0.018000000000000002, 192.0, 127.5, 88.0, 15.5, 88.0, 127.5, 56.0, 0.0, 0.0, 0.0, 1.695760907525014E9, 0.0, 2023-09-26 15:41:47.525
140.0, 12577.080735812277, 37182.66334327023, -44533.61565275379, -45953.443164043805, -24739.2907427896, -26211.37663261612, -187500.02235174447, 4081.517944516891, -12632.557765550348, -34113.94764351221, -45254.4817631819, -41030.38204078461, -21040.50171858093, -25195.333384911228, -48252.633005694515, -33142.764346929114, -0.01, 1.014, -0.018000000000000002, 192.0, 0.0, 0.0, 0.0, 0.0, 0.0, 0.0, 0.0, 0.0, 0.0, 1.695760907525024E9, 0.0, 2023-09-26 15:41:47.525
142.0, 12591.20703830803, 37210.20069243916, -44543.69628950313, -45960.66277750287, -24743.470519002738, -26222.32898739922, -187500.02235174447, 4165.292282735381, -12624.846413713267, -34099.44136136072, -45255.889923082585, -41017.574491211715, -21035.047892933835, -25196.18275120053, -48258.22094180834, -33145.87123940841, -0.01, 1.014, -0.018000000000000002, 192.0, 0.0, 0.0, 0.0, 0.0, 0.0, 0.0, 0.0, 0.0, 0.0, 1.695760907525033E9, 0.0, 2023-09-26 15:41:47.525
144.0, 12584.680328927081, 37188.94418346217, -44537.929539433666, -45949.15162910839, -24737.61436195545, -26212.538923327797, -187500.02235174447, 4091.6209330106894, -12626.16516663613, -34111.287785922024, -45258.259207994844, -41032.43840127449, -21047.050779706333, -25194.148742455094, -48256.20928480736, -33149.492222010165, -0.01, 1.014, -0.018000000000000002, 192.0, 0.0, 0.0, 0.0, 0.0, 0.0, 0.0, 0.0, 0.0, 0.0, 1.695760907525043E9, 0.0, 2023-09-26 15:41:47.525
146.0, 12602.606427980236, 37209.664250572234, -44536.99076616654, -45953.55492276608, -24738.37432126693, -26220.09381295369, -187500.02235174447, 4158.676166376611, -12664.252539187974, -34086.52205306555, -45262.461335952445, -41015.56283421074, -21036.54545981234, -25190.259538919872, -48254.62231095103, -33141.6244079619, -0.01, 1.014, -0.018000000000000002, 192.0, 0.0, 0.0, 0.0, 0.0, 0.0, 0.0, 0.0, 0.0, 0.0, 1.695760907525056E9, 0.0, 2023-09-26 15:41:47.525
148.0, 12598.761927933923, 37191.55933756344, -44533.10156263132, -45950.17980935333, -24742.37528352443, -26210.683728538006, -187500.02235174447, 4084.6248369961786, -12607.613218738225, -34107.28682366453, -45255.554646915756, -41027.25279656086, -21022.888543950146, -25191.89121626511, -48257.25981679676, -33145.46890800821, -0.008, 1.012, -0.018000000000000002, 192.0, 127.5, 96.0, 15.5, 80.0, 127.5, 56.0, 0.0, 0.0, 0.0, 1.695760907525087E9, 0.0, 2023-09-26 15:41:47.525
150.0, 12603.187573336074, 37207.67494531572, -44527.67008872868, -45950.090402375514, -24737.547306722085, -26210.393155860085, -187500.02235174447, 4141.86765454622, -12620.532527033392, -34093.674611291244, -45250.14552475757, -41016.43455224449, -21038.69122728005, -25190.773629042345, -48252.05186033867, -33136.50585848163, -0.008, 1.012, -0.018000000000000002, 192.0, 0.0, 0.0, 0.0, 0.0, 0.0, 0.0, 0.0, 0.0, 0.0, 1.695760907585253E9, 0.0, 2023-09-26 15:41:47.585
152.0, 12596.593808721758, 37193.90627073125, -44529.614690496295, -45950.224512842244, -24737.077920088523, -26217.590417574695, -187500.02235174447, 4092.894982444642, -12619.057311899342, -34088.578413555435, -45251.82190559172, -41022.178950569505, -21043.630962804673, -25180.78239927082, -48251.850694638575, -33137.64579744885, -0.008, 1.012, -0.018000000000000002, 192.0, 0.0, 0.0, 0.0, 0.0, 0.0, 0.0, 0.0, 0.0, 0.0, 1.69576090758528E9, 0.0, 2023-09-26 15:41:47.585
154.0, 12588.770698162401, 37197.303735888454, -44537.77307722248, -45959.254617602186, -24740.117757334443, -26216.562237329752, -187500.02235174447, 4140.303032434348, -12634.211794640041, -34095.9991927146, -45255.71110912694, -41025.15173258206, -21027.470651563486, -25191.332422653726, -48252.25302603877, -33133.55542821353, -0.008, 1.012, -0.018000000000000002, 192.0, 0.0, 0.0, 0.0, 0.0, 0.0, 0.0, 0.0, 0.0, 0.0, 1.69576090758529E9, 0.0, 2023-09-26 15:41:47.585
156.0, 12593.375157520195, 37195.09091318738, -44525.59137649434, -45947.788172696615, -24736.720292177237, -26216.361071629653, -187500.02235174447, 4093.699645245033, -12644.270079644928, -34103.956413740685, -45259.82383010672, -41038.607482744155, -21059.076018223288, -25194.863998277666, -48261.95368313238, -33144.88776265237, -0.008, 1.012, -0.018000000000000002, 192.0, 0.0, 0.0, 0.0, 0.0, 0.0, 0.0, 0.0, 0.0, 0.0, 1.695760907585333E9, 0.0, 2023-09-26 15:41:47.585
158.0, 12596.035015110376, 37209.7313058056, -44527.7594957065, -45961.66860600336, -24739.02252185613, -26224.05007172228, -187500.02235174447, 4139.431314400592, -12615.63749499768, -34076.977858183134, -45239.90842579704, -41014.04291558778, -21045.709675039016, -25190.013669730863, -48252.5883022056, -33136.88583813737, -0.012, 1.014, -0.016, 192.0, 127.5, 80.0, 15.5, 88.0, 127.5, 64.0, 0.0, 0.0, 0.0, 1.695760907585345E9, 0.0, 2023-09-26 15:41:47.585
160.0, 12589.508305729427, 37194.30860213144, -44543.80804822541, -45969.13408865143, -24743.023484113633, -26223.021891477336, -187500.02235174447, 4108.027113440885, -12614.16227986363, -34084.91272746476, -45250.90548406905, -41026.02345061582, -21058.78544554537, -25185.923300495542, -48254.93523537341, -33149.71573945472, -0.012, 1.014, -0.016, 192.0, 0.0, 0.0, 0.0, 0.0, 0.0, 0.0, 0.0, 0.0, 0.0, 1.69576090758536E9, 0.0, 2023-09-26 15:41:47.585
162.0, 12584.680328927081, 37199.404799867254, -44561.73414727857, -45965.22253337175, -24749.438434772306, -26222.70896705496, -187500.02235174447, 4137.039677743874, -12641.006724954454, -34099.195492171704, -45268.85393486666, -41036.81934318774, -21049.10714019622, -25194.394611644104, -48259.91967438694, -33150.7215679552, -0.012, 1.014, -0.016, 192.0, 0.0, 0.0, 0.0, 0.0, 0.0, 0.0, 0.0, 0.0, 0.0, 1.695760907585369E9, 0.0, 2023-09-26 15:41:47.585
164.0, 12599.29836980085, 37203.115189446835, -44544.23273137006, -45966.47423106125, -24738.59783871148, -26219.892647253593, -187500.02235174447, 4125.215604927016, -12623.773529979413, -34102.481198606634, -45262.036652807794, -41025.41995351553, -21085.227559236, -25194.104038966187, -48255.51638072925, -33146.474736508695, -0.012, 1.014, -0.016, 192.0, 0.0, 0.0, 0.0, 0.0, 0.0, 0.0, 0.0, 0.0, 0.0, 1.695760907585378E9, 0.0, 2023-09-26 15:41:47.585
166.0, 12603.612256480725, 37213.88873027429, -44556.70500477612, -45960.34985308049, -24738.70959743376, -26213.835324506203, -187500.02235174447, 4118.800654268343, -12653.523701849426, -34095.73097178114, -45262.61779816363, -41022.044840102775, -21070.810684062326, -25182.682297549523, -48249.30259577067, -33149.44751852125, -0.012, 1.014, -0.016, 192.0, 0.0, 0.0, 0.0, 0.0, 0.0, 0.0, 0.0, 0.0, 0.0, 1.695760907645452E9, 0.0, 2023-09-26 15:41:47.645
168.0, 12607.59086699377, 37215.56511110844, -44570.04899621594, -45977.359530610986, -24740.743606179192, -26218.95387398647, -187500.02235174447, 4128.680125317589, -12591.11763133021, -34075.45793956017, -45253.319472470226, -41004.699886405455, -21044.83795700526, -25184.805713272777, -48244.94400560189, -33146.631198719886, -0.022, 1.012, -0.016, 192.0, 127.5, 40.0, 15.5, 80.0, 127.5, 64.0, 0.0, 0.0, 0.0, 1.695760907645473E9, 0.0, 2023-09-26 15:41:47.645
170.0, 12598.672520956103, 37208.54666334947, -44571.45715611662, -45969.469364818266, -24738.84370790049, -26204.067612179235, -187500.02235174447, 4118.24186065696, -12614.899887430656, -34083.12458790834, -45270.79853663428, -41023.74357268138, -21071.525939884894, -25186.593852829203, -48250.6884039269, -33150.49805051065, -0.022, 1.012, -0.016, 192.0, 0.0, 0.0, 0.0, 0.0, 0.0, 0.0, 0.0, 0.0, 0.0, 1.695760907645484E9, 0.0, 2023-09-26 15:41:47.645
172.0, 12599.11955584521, 37208.41255288274, -44573.222943928595, -45977.493641077715, -24734.105138075967, -26206.928635469514, -187500.02235174447, 4128.724828806499, -12621.49365204497, -34088.153730410784, -45270.932647101006, -41022.26835754733, -21052.035218719866, -25174.23333814542, -48242.32885150061, -33141.69146319526, -0.022, 1.012, -0.016, 192.0, 0.0, 0.0, 0.0, 0.0, 0.0, 0.0, 0.0, 0.0, 0.0, 1.695760907645493E9, 0.0, 2023-09-26 15:41:47.645
174.0, 12589.530657473882, 37204.74686679207, -44576.53100210798, -45979.035911445135, -24736.51912647714, -26204.402888346063, -187500.02235174447, 4100.293409859349, -12606.719148960014, -34091.77471301254, -45257.90158008356, -41020.502569735356, -21083.819399335312, -25168.82421598723, -48233.27639499622, -33139.38923351637, -0.022, 1.012, -0.016, 192.0, 0.0, 0.0, 0.0, 0.0, 0.0, 0.0, 0.0, 0.0, 0.0, 1.695760907645502E9, 0.0, 2023-09-26 15:41:47.645
176.0, 12601.220619824007, 37220.63895709979, -44583.59415335586, -45986.233173159744, -24739.491908489694, -26210.348452371178, -187500.02235174447, 4149.86957906122, -12622.320666589818, -34082.923422208245, -45266.171725532025, -41012.65710743154, -21076.97976553199, -25175.708553279466, -48244.34050850159, -33145.06657660801, -0.022, 1.012, -0.016, 192.0, 0.0, 0.0, 0.0, 0.0, 0.0, 0.0, 0.0, 0.0, 0.0, 1.695760907645542E9, 0.0, 2023-09-26 15:41:47.645
178.0, 12592.34697727525, 37210.02187848352, -44575.748691052046, -45968.37412933995, -24730.484155474205, -26198.47967606541, -187500.02235174447, 4085.675368985578, -12619.213774110529, -34071.9934191696, -45261.85783885215, -41010.220767285915, -21062.808759547326, -25166.320820608238, -48238.50670319876, -33139.25512304963, -0.02, 1.006, -0.016, 192.0, 127.5, 48.0, 15.5, 56.0, 127.5, 64.0, 0.0, 0.0, 0.0, 1.695760907645554E9, 0.0, 2023-09-26 15:41:47.645
180.0, 12606.45092802655, 37220.52719837752, -44570.87601076079, -45975.593742799014, -24728.003111839666, -26205.43106859101, -187500.02235174447, 4125.260308415926, -12636.223451641019, -34085.6950385207, -45256.22519924941, -41004.78929338328, -21056.08088446628, -25174.188634656508, -48227.174368759916, -33136.08117533698, -0.02, 1.006, -0.016, 192.0, 0.0, 0.0, 0.0, 0.0, 0.0, 0.0, 0.0, 0.0, 0.0, 1.695760907704851E9, 0.0, 2023-09-26 15:41:47.704
182.0, 12600.43830876807, 37207.719648804625, -44571.837135772366, -45967.368300839466, -24731.22176304123, -26187.2814520933, -187500.02235174447, 4065.379985020159, -12587.429593495082, -34083.191643141705, -45250.994891046874, -41010.846616130664, -21036.567811556793, -25181.274137648837, -48225.073304781115, -33138.40575676033, -0.02, 1.006, -0.016, 192.0, 0.0, 0.0, 0.0, 0.0, 0.0, 0.0, 0.0, 0.0, 0.0, 1.695760907704875E9, 0.0, 2023-09-26 15:41:47.704
184.0, 12609.624875739202, 37221.55537862246, -44580.353150409836, -45977.784213755636, -24742.062359102056, -26199.84313247718, -187500.02235174447, 4145.7345063369885, -12595.11859358771, -34071.61343951386, -45245.36225144414, -40995.42391245651, -21066.0721142378, -25164.242108373895, -48227.800217604665, -33133.08604157997, -0.02, 1.006, -0.016, 192.0, 0.0, 0.0, 0.0, 0.0, 0.0, 0.0, 0.0, 0.0, 0.0, 1.695760907704885E9, 0.0, 2023-09-26 15:41:47.704
186.0, 12597.130250588687, 37194.88974748728, -44588.31037143593, -45983.03687370264, -24740.833013157015, -26197.60795803165, -187500.02235174447, 4066.877551898665, -12614.54225951937, -34096.87091074835, -45259.041519050785, -41018.04387784527, -21046.112006439213, -25167.483111319914, -48237.232653764804, -33144.03839636307, -0.02, 1.006, -0.016, 192.0, 0.0, 0.0, 0.0, 0.0, 0.0, 0.0, 0.0, 0.0, 0.0, 1.695760907704895E9, 0.0, 2023-09-26 15:41:47.704
188.0, 12608.239067582974, 37207.76435229354, -44589.96440052562, -45996.29145816463, -24742.08471084651, -26205.073440679724, -187500.02235174447, 4141.442971401569, -12619.16907062162, -34101.31890789496, -45266.931684843505, -41024.81645641523, -21077.60561437674, -25179.50834983687, -48241.94887184488, -33148.21817257621, -0.014, 1.004, -0.006, 192.0, 127.5, 72.0, 15.5, 48.0, 127.5, 104.0, 0.0, 0.0, 0.0, 1.695760907704905E9, 0.0, 2023-09-26 15:41:47.704
190.0, 12607.792032693867, 37196.8790527438, -44571.81478402791, -45968.53059155114, -24729.120699062434, -26195.819818475225, -187500.02235174447, 4068.7103949439997, -12605.981541392988, -34088.62311704434, -45256.649882394064, -41014.86993013262, -21070.65422185114, -25182.61524231616, -48234.01400256324, -33144.93246614128, -0.014, 1.004, -0.006, 192.0, 0.0, 0.0, 0.0, 0.0, 0.0, 0.0, 0.0, 0.0, 0.0, 1.695760907704915E9, 0.0, 2023-09-26 15:41:47.704
192.0, 12612.374140307205, 37209.88776801679, -44587.706874335636, -45987.61898131597, -24736.764995666148, -26215.33289138471, -187500.02235174447, 4144.01342201393, -12615.302218830851, -34083.16929139725, -45259.26503649534, -41004.34225849417, -21059.813625790313, -25180.067143448254, -48231.10827578405, -33141.46794575071, -0.014, 1.004, -0.006, 192.0, 0.0, 0.0, 0.0, 0.0, 0.0, 0.0, 0.0, 0.0, 0.0, 1.695760907704924E9, 0.0, 2023-09-26 15:41:47.704
194.0, 12609.110785616731, 37193.101607930854, -44576.083967218874, -45978.0524346891, -24731.534687463605, -26198.546731298775, -187500.02235174447, 4070.163258333595, -12595.990311621466, -34098.502588093594, -45256.47106843842, -41020.2790522908, -21057.801968789336, -25178.234300402917, -48240.3395462441, -33147.16764058681, -0.014, 1.004, -0.006, 192.0, 0.0, 0.0, 0.0, 0.0, 0.0, 0.0, 0.0, 0.0, 0.0, 1.695760907704933E9, 0.0, 2023-09-26 15:41:47.704
196.0, 12617.872669443212, 37209.664250572234, -44576.933333508176, -45974.38674859843, -24731.869963630434, -26203.15119065657, -187500.02235174447, 4120.499386846946, -12602.137041346676, -34085.06918967595, -45251.19605674697, -41008.11970330712, -21046.000247716936, -25182.570538827247, -48235.37745897502, -33136.3717480149, -0.014, 1.004, -0.006, 192.0, 0.0, 0.0, 0.0, 0.0, 0.0, 0.0, 0.0, 0.0, 0.0, 1.695760907764634E9, 0.0, 2023-09-26 15:41:47.764
198.0, 12605.758023948434, 37196.72259053261, -44582.789490555464, -45977.67245503336, -24734.28395203161, -26207.107449425155, -187500.02235174447, 4072.2419705679386, -12613.938762419077, -34080.50943380707, -45258.79564986177, -41011.09248531968, -21052.951640242536, -25185.208044672974, -48241.97122358933, -33142.563181229016, -0.01, 1.006, -0.01, 192.0, 127.5, 88.0, 15.5, 56.0, 127.5, 88.0, 0.0, 0.0, 0.0, 1.695760907764706E9, 0.0, 2023-09-26 15:41:47.764
200.0, 12600.237143067974, 37205.0821429589, -44580.30844692093, -45981.67341729086, -24728.31603626204, -26201.966548200435, -187500.02235174447, 4119.828834513287, -12642.683105788603, -34079.905936706775, -45263.10953654165, -41009.05847657424, -21060.662992079615, -25171.819349744244, -48236.45034270887, -33135.88000963688, -0.01, 1.006, -0.01, 192.0, 0.0, 0.0, 0.0, 0.0, 0.0, 0.0, 0.0, 0.0, 0.0, 1.695760907764717E9, 0.0, 2023-09-26 15:41:47.764
202.0, 12590.424727252093, 37187.06663692792, -44581.80601379943, -45986.38963537093, -24731.288818274596, -26206.727469769416, -187500.02235174447, 4055.567569204279, -12622.745349734469, -34074.36270408186, -45267.66929241053, -41022.69304069198, -21067.79319856086, -25169.919451465543, -48236.472694453325, -33143.189030073765, -0.01, 1.006, -0.01, 192.0, 0.0, 0.0, 0.0, 0.0, 0.0, 0.0, 0.0, 0.0, 0.0, 1.695760907764727E9, 0.0, 2023-09-26 15:41:47.764
204.0, 12601.265323312919, 37204.94803249217, -44578.5203073645, -45976.66662653287, -24728.047815328577, -26210.169638415533, -187500.02235174447, 4109.211755897017, -12594.850372654246, -34073.066302903455, -45256.13579227159, -41011.51716846433, -21062.965221758514, -25174.97094571244, -48233.65637465196, -33138.875143393896, -0.01, 1.006, -0.01, 192.0, 0.0, 0.0, 0.0, 0.0, 0.0, 0.0, 0.0, 0.0, 0.0, 1.695760907764737E9, 0.0, 2023-09-26 15:41:47.764
206.0, 12591.519962730405, 37192.2298898971, -44588.8244615584, -45982.63454230244, -24728.36073975095, -26214.86350475115, -187500.02235174447, 4087.9552469200194, -12616.889192687178, -34080.28591636252, -45267.423423221524, -41017.55213946726, -21067.21205320502, -25187.532626096327, -48241.233616022306, -33147.01117837562, -0.01, 1.006, -0.01, 192.0, 0.0, 0.0, 0.0, 0.0, 0.0, 0.0, 0.0, 0.0, 0.0, 1.695760907764746E9, 0.0, 2023-09-26 15:41:47.764
208.0, 12598.940741889566, 37203.383410380295, -44581.80601379943, -45976.040777688126, -24729.16540255134, -26201.966548200435, -187500.02235174447, 4121.572270580801, -12629.629687026703, -34060.4375672862, -45267.57988543271, -41010.95837485294, -21053.44337862055, -25169.919451465543, -48234.08105779661, -33137.93637012677, -0.018000000000000002, 1.01, -0.014, 192.0, 127.5, 56.0, 15.5, 72.0, 127.5, 72.0, 0.0, 0.0, 0.0, 1.695760907764757E9, 0.0, 2023-09-26 15:41:47.764
210.0, 12594.090413342765, 37191.13465441879, -44575.30165616294, -45977.2030683998, -24719.062414057546, -26193.04820216277, -187500.02235174447, 4084.0883951292512, -12609.289599572374, -34070.98759066911, -45254.772335859816, -41013.104142320655, -21055.142111199155, -25174.859186990165, -48228.80604610516, -33131.07438457899, -0.018000000000000002, 1.01, -0.014, 192.0, 0.0, 0.0, 0.0, 0.0, 0.0, 0.0, 0.0, 0.0, 0.0, 1.695760907824832E9, 0.0, 2023-09-26 15:41:47.824
212.0, 12589.374195262695, 37191.224061396606, -44580.04022598746, -45981.829879502046, -24723.46570771524, -26194.65752776355, -187500.02235174447, 4086.547087019335, -12618.16324212113, -34094.9486607252, -45263.48951619739, -41026.04580236028, -21059.657163579126, -25177.27317539134, -48229.92363332792, -33128.41452698881, -0.018000000000000002, 1.01, -0.014, 192.0, 0.0, 0.0, 0.0, 0.0, 0.0, 0.0, 0.0, 0.0, 0.0, 1.695760907824856E9, 0.0, 2023-09-26 15:41:47.824
214.0, 12593.486916242471, 37187.35720960584, -44594.94883953915, -45990.81528077308, -24730.953542107767, -26207.509780825352, -187500.02235174447, 4092.090319644251, -12613.335265318783, -34054.15672709426, -45263.66833015303, -41013.14884580956, -21051.096445452746, -25180.022439959343, -48237.27735725372, -33135.924713125794, -0.018000000000000002, 1.01, -0.014, 192.0, 0.0, 0.0, 0.0, 0.0, 0.0, 0.0, 0.0, 0.0, 0.0, 1.695760907824866E9, 0.0, 2023-09-26 15:41:47.824
216.0, 12592.279922041884, 37184.853814226844, -44584.66703708971, -45993.96687674128, -24726.997283339177, -26203.665280779038, -187500.02235174447, 4087.3741015641813, -12618.16324212113, -34084.13041640883, -45264.137716786594, -41026.96222388294, -21052.571660586796, -25175.88736723511, -48238.841979365585, -33143.74782368515, -0.018000000000000002, 1.01, -0.014, 192.0, 0.0, 0.0, 0.0, 0.0, 0.0, 0.0, 0.0, 0.0, 0.0, 1.695760907824875E9, 0.0, 2023-09-26 15:41:47.824
218.0, 12608.68610247208, 37196.2308521546, -44583.370635911306, -45986.99313247122, -24728.852478128967, -26212.1365919276, -187500.02235174447, 4111.8716134871975, -12643.755989522457, -34069.06534064595, -45261.343748729676, -41014.33348826569, -21059.21012869002, -25175.440332346003, -48237.8361508651, -33140.23859980567, -0.02, 1.01, -0.012, 192.0, 127.5, 48.0, 15.5, 72.0, 127.5, 80.0, 0.0, 0.0, 0.0, 1.695760907824884E9, 0.0, 2023-09-26 15:41:47.824
220.0, 12600.080680856787, 37187.31250611693, -44580.33079866538, -45985.473213848265, -24730.014768840643, -26210.57196981573, -187500.02235174447, 4091.28565684386, -12594.671558698603, -34077.98368668362, -45255.64405389358, -41024.97291862642, -21064.21691944801, -25178.92720448103, -48238.66316540995, -33147.21234407572, -0.02, 1.01, -0.012, 192.0, 0.0, 0.0, 0.0, 0.0, 0.0, 0.0, 0.0, 0.0, 0.0, 1.695760907824929E9, 0.0, 2023-09-26 15:41:47.824
222.0, 12606.808555937834, 37190.84408174087, -44583.996484756055, -45986.367283626474, -24731.624094441428, -26208.51560932584, -187500.02235174447, 4111.29046813136, -12631.373123094216, -34080.956468696175, -45266.6858156545, -41018.200340056464, -21066.295631682355, -25191.198312186996, -48249.50376147077, -33152.017969133616, -0.02, 1.01, -0.012, 192.0, 0.0, 0.0, 0.0, 0.0, 0.0, 0.0, 0.0, 0.0, 0.0, 1.695760907824939E9, 0.0, 2023-09-26 15:41:47.824
224.0, 12601.555895990838, 37188.631259039794, -44572.731205550575, -45980.28760913463, -24725.65617867186, -26201.027774933315, -187500.02235174447, 4076.578208992268, -12597.733747688979, -34079.43655007322, -45252.09012652518, -41022.00013661387, -21051.275259408387, -25181.520006837847, -48244.45226722387, -33145.60301847494, -0.02, 1.01, -0.012, 192.0, 0.0, 0.0, 0.0, 0.0, 0.0, 0.0, 0.0, 0.0, 0.0, 1.695760907824948E9, 0.0, 2023-09-26 15:41:47.824
226.0, 12605.132175103687, 37197.90723298874, -44571.747728794544, -45972.106870663985, -24720.76114663615, -26194.121085896622, -187500.02235174447, 4101.746273248944, -12617.850317698756, -34075.94967793819, -45253.25241723686, -41012.50064522036, -21056.371457144196, -25172.869881733644, -48233.052877551665, -33135.9694166147, -0.02, 1.01, -0.012, 192.0, 0.0, 0.0, 0.0, 0.0, 0.0, 0.0, 0.0, 0.0, 0.0, 1.695760907885169E9, 0.0, 2023-09-26 15:41:47.885
228.0, 12599.097204100754, 37186.37373284981, -44566.67388280319, -45971.838649730526, -24721.11877454743, -26191.260062606343, -187500.02235174447, 4039.7648858743773, -12610.071910628309, -34068.730064479125, -45258.43802195049, -41016.389848755585, -21051.1187971972, -25170.12061716564, -48234.19281651889, -33137.31052128202, -0.014, 1.014, -0.018000000000000002, 192.0, 127.5, 72.0, 15.5, 88.0, 127.5, 56.0, 0.0, 0.0, 0.0, 1.695760907885192E9, 0.0, 2023-09-26 15:41:47.885
230.0, 12607.948494905055, 37199.78477952299, -44582.7224353221, -45981.04756844611, -24732.406405497364, -26205.743993013384, -187500.02235174447, 4109.412921597114, -12607.769680949412, -34079.5930122844, -45252.62656839211, -41005.86217711713, -21028.29766610833, -25174.345096867695, -48235.06453455264, -33139.925675383296, -0.014, 1.014, -0.018000000000000002, 192.0, 0.0, 0.0, 0.0, 0.0, 0.0, 0.0, 0.0, 0.0, 0.0, 1.695760907885202E9, 0.0, 2023-09-26 15:41:47.885
232.0, 12599.25366631194, 37180.56227929143, -44584.01883650051, -45985.607324314995, -24732.786385153104, -26207.71094652545, -187500.02235174447, 4055.7910866488323, -12653.099018704776, -34085.13624490932, -45267.40107147707, -41018.11093307864, -21070.587166617774, -25188.98548948592, -48244.27345326823, -33151.928562155794, -0.014, 1.014, -0.018000000000000002, 192.0, 0.0, 0.0, 0.0, 0.0, 0.0, 0.0, 0.0, 0.0, 0.0, 1.695760907885211E9, 0.0, 2023-09-26 15:41:47.885
234.0, 12624.533489290892, 37200.96942197912, -44569.06551945991, -45973.80560324259, -24720.89525710288, -26199.396097588076, -187500.02235174447, 4103.690875016556, -12616.442157798072, -34088.086675177416, -45259.77912661781, -41013.55117720976, -21072.777637574392, -25177.049657946787, -48240.943043344385, -33152.66616972282, -0.014, 1.014, -0.018000000000000002, 192.0, 0.0, 0.0, 0.0, 0.0, 0.0, 0.0, 0.0, 0.0, 0.0, 1.69576090788522E9, 0.0, 2023-09-26 15:41:47.885
236.0, 12610.8765734287, 37181.90338395874, -44569.95958923812, -45961.86977170346, -24720.671739658326, -26193.13760914059, -187500.02235174447, 4019.6930193535113, -12590.514134229916, -34074.385055826315, -45252.67127188102, -41012.0312585868, -21045.955544228025, -25170.947631710485, -48232.60584266256, -33135.9694166147, -0.014, 1.014, -0.018000000000000002, 192.0, 0.0, 0.0, 0.0, 0.0, 0.0, 0.0, 0.0, 0.0, 0.0, 1.695760907885229E9, 0.0, 2023-09-26 15:41:47.885
238.0, 12620.823099711311, 37202.42228536872, -44565.24337115805, -45971.16809739687, -24721.834030370002, -26202.882969723105, -187500.02235174447, 4091.1738981215835, -12600.147736090154, -34062.60568649837, -45246.23396947789, -40999.51428169182, -21049.800044274336, -25175.909718979565, -48228.426066449414, -33137.13170732638, -0.016, 1.012, -0.018000000000000002, 192.0, 127.5, 64.0, 15.5, 80.0, 127.5, 56.0, 0.0, 0.0, 0.0, 1.695760907885238E9, 0.0, 2023-09-26 15:41:47.885
240.0, 12611.569477506815, 37185.59142179387, -44570.47367936059, -45968.9999781847, -24725.07503331602, -26199.507856310353, -187500.02235174447, 4023.0457810218077, -12623.214736368029, -34073.759206981566, -45255.554646915756, -41008.74555215187, -21055.49973911044, -25172.579309055724, -48232.7846566182, -33140.99855911715, -0.016, 1.012, -0.018000000000000002, 192.0, 0.0, 0.0, 0.0, 0.0, 0.0, 0.0, 0.0, 0.0, 0.0, 1.695760907946038E9, 0.0, 2023-09-26 15:41:47.946
242.0, 12618.900849688156, 37196.58848006588, -44573.26764741751, -45990.837632517534, -24725.142088549386, -26206.302786624765, -187500.02235174447, 4108.004761696429, -12602.11468960222, -34076.50847154957, -45249.07264102372, -41010.06430507473, -21048.21307041801, -25175.954422468476, -48232.918767084935, -33139.99273061666, -0.016, 1.012, -0.018000000000000002, 192.0, 0.0, 0.0, 0.0, 0.0, 0.0, 0.0, 0.0, 0.0, 0.0, 1.695760907946072E9, 0.0, 2023-09-26 15:41:47.946
244.0, 12610.742462961969, 37176.74013098957, -44575.167545696204, -45972.308036364084, -24725.45501297176, -26195.685708008496, -187500.02235174447, 4029.2148624914726, -12617.671503743113, -34085.851500731886, -45254.638225393086, -41029.91265415104, -21048.481291351472, -25175.39562885709, -48232.80700836265, -33142.31731204001, -0.016, 1.012, -0.018000000000000002, 192.0, 0.0, 0.0, 0.0, 0.0, 0.0, 0.0, 0.0, 0.0, 0.0, 1.695760907946082E9, 0.0, 2023-09-26 15:41:47.946
246.0, 12620.197250866564, 37197.571956821914, -44573.13353695077, -45975.549039310106, -24733.94867586478, -26210.929597727016, -187500.02235174447, 4125.170901438106, -12602.53937274687, -34080.37532334034, -45247.55272240075, -41011.49481671987, -21041.820471503794, -25182.279966149326, -48235.60097641957, -33134.65066369184, -0.016, 1.012, -0.018000000000000002, 192.0, 0.0, 0.0, 0.0, 0.0, 0.0, 0.0, 0.0, 0.0, 0.0, 1.695760907946091E9, 0.0, 2023-09-26 15:41:47.946
248.0, 12610.898925173155, 37183.69152351517, -44575.63693232977, -45962.36151008147, -24724.784460638104, -26196.62448127562, -187500.02235174447, 4061.736650673944, -12623.460605557038, -34073.826262214934, -45254.16883875953, -41009.527863207804, -21064.373381659196, -25169.628878787626, -48236.5844531756, -33139.322178283, -0.014, 1.008, -0.012, 192.0, 127.5, 72.0, 15.5, 64.0, 127.5, 80.0, 0.0, 0.0, 0.0, 1.6957609079461E9, 0.0, 2023-09-26 15:41:47.946
250.0, 12620.420768311116, 37194.82269225391, -44574.11701370681, -45972.330388108545, -24725.589123438494, -26196.445667319975, -187500.02235174447, 4119.739427535466, -12646.371143623728, -34078.31896285045, -45261.142583029585, -40999.6260404141, -21065.200396204043, -25169.47241657644, -48231.48825543979, -33129.97914910068, -0.014, 1.008, -0.012, 192.0, 0.0, 0.0, 0.0, 0.0, 0.0, 0.0, 0.0, 0.0, 0.0, 1.695760907946109E9, 0.0, 2023-09-26 15:41:47.946
252.0, 12620.644285755669, 37184.83146248239, -44565.37748162478, -45962.16034438138, -24721.40934722535, -26195.551597541762, -187500.02235174447, 4074.678310713567, -12590.201209807541, -34084.48804432011, -45247.17274274502, -41003.71640964942, -21050.93998324156, -25176.155588168574, -48229.208377505354, -33129.80033514504, -0.014, 1.008, -0.012, 192.0, 0.0, 0.0, 0.0, 0.0, 0.0, 0.0, 0.0, 0.0, 0.0, 1.695760907946118E9, 0.0, 2023-09-26 15:41:47.946
254.0, 12624.958172435543, 37192.54281431947, -44561.71179553411, -45960.46161180277, -24720.716443147237, -26193.338774840686, -187500.02235174447, 4117.079569945285, -12597.44317501106, -34078.36366633936, -45244.848161321665, -41004.20814802744, -21055.544442599352, -25170.299431121282, -48228.157845515954, -33127.185181043766, -0.014, 1.008, -0.012, 192.0, 0.0, 0.0, 0.0, 0.0, 0.0, 0.0, 0.0, 0.0, 0.0, 1.695760907946127E9, 0.0, 2023-09-26 15:41:47.946
0.0, 12624.332323590796, 37184.18326189319, -44564.66222580221, -45959.18756236882, -24719.68826290229, -26194.52341729682, -187500.02235174447, 4072.800764179321, -12606.629741982191, -34074.98855292661, -45248.84912357916, -41005.66101141703, -21047.02842796188, -25166.11965490814, -48230.817703106135, -33129.39800374484, -0.014, 1.008, -0.012, 192.0, 0.0, 0.0, 0.0, 0.0, 0.0, 0.0, 0.0, 0.0, 0.0, 1.695760908005064E9, 0.0, 2023-09-26 15:41:48.005
2.0, 12622.410073567638, 37187.379561350295, -44564.01402521301, -45968.17296363985, -24722.929265848314, -26199.440801076988, -187500.02235174447, 4106.842470984754, -12605.847430926256, -34080.17415764024, -45246.12221075562, -41004.565775938725, -21046.35787562822, -25163.057465917766, -48226.772037359726, -33128.68274792227, -0.016, 1.012, -0.016, 192.0, 127.5, 64.0, 15.5, 80.0, 127.5, 64.0, 0.0, 0.0, 0.0, 1.695760908005089E9, 0.0, 2023-09-26 15:41:48.005
4.0, 12613.536431018882, 37174.01321816602, -44573.04412997295, -45971.52572530815, -24728.60660893996, -26210.549618071273, -187500.02235174447, 4098.773491236388, -12619.236125854984, -34091.52884382354, -45256.47106843842, -41009.55021495226, -21025.146070140134, -25185.811541773266, -48232.09175254009, -33142.11614633991, -0.016, 1.012, -0.016, 192.0, 0.0, 0.0, 0.0, 0.0, 0.0, 0.0, 0.0, 0.0, 0.0, 1.695760908005099E9, 0.0, 2023-09-26 15:41:48.005
6.0, 12600.125384345698, 37167.106529129334, -44563.43287985717, -45969.603475284996, -24723.42100422633, -26203.531170312308, -187500.02235174447, 4118.040694956862, -12615.525736275404, -34101.9000532508, -45259.667367895534, -41016.90393887806, -21056.30440191083, -25190.907739509075, -48235.66803165293, -33139.277474794086, -0.016, 1.012, -0.016, 192.0, 0.0, 0.0, 0.0, 0.0, 0.0, 0.0, 0.0, 0.0, 0.0, 1.695760908005146E9, 0.0, 2023-09-26 15:41:48.005
8.0, 12591.966997619511, 37157.02589237999, -44577.62623758629, -45969.62582702945, -24723.66687341534, -26203.37470810112, -187500.02235174447, 4105.411959339614, -12632.446006828071, -34097.85438750439, -45266.26113250985, -41021.03901160229, -21064.26162293692, -25188.22553017444, -48232.87406359602, -33143.92663764079, -0.016, 1.012, -0.016, 192.0, 0.0, 0.0, 0.0, 0.0, 0.0, 0.0, 0.0, 0.0, 0.0, 1.695760908005159E9, 0.0, 2023-09-26 15:41:48.005
10.0, 12585.484991727471, 37156.51180225752, -44556.593246053846, -45958.49465829071, -24722.0351960701, -26194.769286485825, -187500.02235174447, 4089.5645725208014, -12643.040733699887, -34102.43649511773, -45271.80436513476, -41025.55406398226, -21065.11098922622, -25182.190559171508, -48233.07522929612, -33136.30469278153, -0.016, 1.012, -0.016, 192.0, 0.0, 0.0, 0.0, 0.0, 0.0, 0.0, 0.0, 0.0, 0.0, 1.695760908005172E9, 0.0, 2023-09-26 15:41:48.005
12.0, 12570.218750264496, 37147.034662608465, -44572.932371250674, -45972.08451891953, -24733.23342004221, -26208.001519203368, -187500.02235174447, 4117.7948257678545, -12651.824969270823, -34110.237253932624, -45267.60223717716, -41021.84367440268, -21069.26841369491, -25184.64925106159, -48236.182121775404, -33137.71285268222, -0.018000000000000002, 1.012, -0.022, 192.0, 127.5, 56.0, 15.5, 80.0, 127.5, 40.0, 0.0, 0.0, 0.0, 1.695760908005185E9, 0.0, 2023-09-26 15:41:48.005
14.0, 12551.130360499665, 37129.89087461124, -44561.622388556294, -45961.847419959005, -24724.918571104834, -26197.272681864823, -187500.02235174447, 4074.030110124363, -12655.825931528323, -34110.66193707728, -45273.61485643564, -41029.64443321758, -21054.940945499056, -25175.6414980461, -48235.39981071947, -33137.601093959944, -0.018000000000000002, 1.012, -0.022, 192.0, 0.0, 0.0, 0.0, 0.0, 0.0, 0.0, 0.0, 0.0, 0.0, 1.695760908065358E9, 0.0, 2023-09-26 15:41:48.065
16.0, 12542.547290628827, 37126.80633387641, -44574.98873174057, -45973.73854800923, -24731.22176304123, -26208.984995959403, -187500.02235174447, 4108.76472100791, -12657.144684451187, -34131.002024531605, -45281.39326350609, -41031.8349041742, -21063.658125836628, -25197.79207680131, -48238.26083400975, -33141.33383528398, -0.018000000000000002, 1.012, -0.022, 192.0, 0.0, 0.0, 0.0, 0.0, 0.0, 0.0, 0.0, 0.0, 0.0, 1.695760908065388E9, 0.0, 2023-09-26 15:41:48.065
18.0, 12508.57263905676, 37096.09503699482, -44582.521269622004, -45986.99313247122, -24730.640617685392, -26213.65651055056, -187500.02235174447, 4056.215769793483, -12669.572254368337, -34129.99619603112, -45294.11140610116, -41043.8377909467, -21064.1722159591, -25191.153608698085, -48241.90416835596, -33144.97716963019, -0.018000000000000002, 1.012, -0.022, 192.0, 0.0, 0.0, 0.0, 0.0, 0.0, 0.0, 0.0, 0.0, 0.0, 1.695760908065398E9, 0.0, 2023-09-26 15:41:48.065
20.0, 12494.066356905265, 37094.820987560866, -44590.836118559375, -45987.551926082604, -24732.808736897558, -26209.543789570784, -187500.02235174447, 4098.6617325141115, -12697.780155870934, -34142.066138036986, -45309.645868497595, -41052.867895706644, -21060.081846723777, -25206.88923679462, -48246.50862771376, -33145.75948068613, -0.018000000000000002, 1.012, -0.022, 192.0, 0.0, 0.0, 0.0, 0.0, 0.0, 0.0, 0.0, 0.0, 0.0, 1.695760908065407E9, 0.0, 2023-09-26 15:41:48.065
22.0, 12469.837065915712, 37064.824946501845, -44584.04118824496, -45979.28178063414, -24740.65419920137, -26212.650682050073, -187500.02235174447, 4041.3965632196146, -12701.98228382853, -34155.43248122126, -45316.93253719003, -41065.742500512904, -21067.726143327494, -25213.751222342402, -48249.50376147077, -33146.94412314226, -0.016, 1.01, -0.016, 192.0, 127.5, 64.0, 15.5, 72.0, 127.5, 64.0, 0.0, 0.0, 0.0, 1.695760908065416E9, 0.0, 2023-09-26 15:41:48.065
24.0, 12461.298699533785, 37061.606295300284, -44599.91092680823, -45997.96783899878, -24742.688207946805, -26225.033548478314, -187500.02235174447, 4101.343941848748, -12720.690693937624, -34185.58498449147, -45317.93836569052, -41070.50342208188, -21091.575454661306, -25220.501449167903, -48247.84973238107, -33146.78766093107, -0.016, 1.01, -0.016, 192.0, 0.0, 0.0, 0.0, 0.0, 0.0, 0.0, 0.0, 0.0, 0.0, 1.695760908065425E9, 0.0, 2023-09-26 15:41:48.065
26.0, 12452.9391471075, 37050.02809167244, -44585.58345861238, -45987.842498760525, -24730.66296942985, -26213.589455317197, -187500.02235174447, 4035.5404061723243, -12723.976400372554, -34177.58305997647, -45330.567101307766, -41080.87463150914, -21085.674594125107, -25221.41787069057, -48252.1859708054, -33153.18025984529, -0.016, 1.01, -0.016, 192.0, 0.0, 0.0, 0.0, 0.0, 0.0, 0.0, 0.0, 0.0, 0.0, 1.695760908065434E9, 0.0, 2023-09-26 15:41:48.065
28.0, 12459.823484399734, 37067.484804092026, -44591.14904298175, -46001.4547111338, -24739.313094534053, -26226.28524616781, -187500.02235174447, 4104.875517472687, -12755.224139121074, -34189.22831883768, -45333.67399378705, -41081.14285244261, -21092.827152350805, -25230.13505102814, -48250.26372078225, -33156.42126279131, -0.016, 1.01, -0.016, 192.0, 0.0, 0.0, 0.0, 0.0, 0.0, 0.0, 0.0, 0.0, 0.0, 1.695760908065484E9, 0.0, 2023-09-26 15:41:48.065
30.0, 12448.267632516341, 37052.62089402925, -44597.16166224023, -45998.57133609907, -24741.57062072404, -26232.007292748367, -187500.02235174447, 4038.2449672514163, -12698.294245993406, -34159.120519056385, -45320.73233374743, -41070.10109068169, -21071.995326518456, -25212.767745586367, -48253.12474407253, -33160.869259937914, -0.016, 1.01, -0.016, 192.0, 0.0, 0.0, 0.0, 0.0, 0.0, 0.0, 0.0, 0.0, 0.0, 1.695760908125666E9, 0.0, 2023-09-26 15:41:48.125
32.0, 12457.811827398757, 37067.350693625296, -44601.14027275328, -45998.39252214343, -24745.348065536986, -26231.873182281637, -187500.02235174447, 4108.787072752366, -12741.835444192344, -34183.238051323664, -45338.92665373405, -41073.0962244387, -21077.806780076837, -25225.485888181436, -48263.02656686623, -33169.11705364192, -0.012, 1.012, -0.008, 192.0, 127.5, 80.0, 15.5, 80.0, 127.5, 96.0, 0.0, 0.0, 0.0, 1.695760908125689E9, 0.0, 2023-09-26 15:41:48.125
34.0, 12447.105341804665, 37041.534428779414, -44590.16556622572, -45994.99505698622, -24738.776652667126, -26222.41839437704, -187500.02235174447, 4029.3266212137487, -12714.61101944578, -34173.805615163525, -45322.74399074841, -41070.61518080416, -21078.387925432675, -25220.568504401268, -48253.97411036183, -33157.382387802885, -0.012, 1.012, -0.008, 192.0, 0.0, 0.0, 0.0, 0.0, 0.0, 0.0, 0.0, 0.0, 0.0, 1.6957609081257E9, 0.0, 2023-09-26 15:41:48.125
36.0, 12455.46489423095, 37055.30310336388, -44581.8730690328, -45982.20985915779, -24737.390844510897, -26215.24348440689, -187500.02235174447, 4101.410997082115, -12723.864641650278, -34197.09613288595, -45327.37080185066, -41076.96307622946, -21088.625024393205, -25231.654969651103, -48252.007156849766, -33149.916905154816, -0.012, 1.012, -0.008, 192.0, 0.0, 0.0, 0.0, 0.0, 0.0, 0.0, 0.0, 0.0, 0.0, 1.695760908125709E9, 0.0, 2023-09-26 15:41:48.125
38.0, 12453.65440293007, 37047.703510249085, -44585.58345861238, -45978.477117833754, -24742.442338757795, -26214.975263473425, -187500.02235174447, 4048.7055836565, -12721.830632904845, -34183.796844935045, -45324.040391926814, -41071.55395407128, -21067.234404949475, -25215.94169329902, -48249.39200274849, -33144.664245207816, -0.012, 1.012, -0.008, 192.0, 0.0, 0.0, 0.0, 0.0, 0.0, 0.0, 0.0, 0.0, 0.0, 1.695760908125718E9, 0.0, 2023-09-26 15:41:48.125
40.0, 12454.213196541454, 37064.400263357194, -44589.13738598077, -45984.400330114404, -24742.12941433542, -26220.56319958725, -187500.02235174447, 4098.125290647184, -12722.32237128286, -34169.9164116283, -45323.48159831543, -41064.37904410113, -21090.770791860916, -25215.673472365557, -48251.9401016164, -33144.48543125218, -0.012, 1.012, -0.008, 192.0, 0.0, 0.0, 0.0, 0.0, 0.0, 0.0, 0.0, 0.0, 0.0, 1.695760908125728E9, 0.0, 2023-09-26 15:41:48.125
42.0, 12447.373562738128, 37050.27396086144, -44592.33368543789, -45991.35172264001, -24744.409292269862, -26224.586513589205, -187500.02235174447, 4058.6521099391116, -12779.364023132805, -34164.641399936845, -45340.759496779385, -41073.96794247245, -21082.143018501167, -25220.747318356913, -48261.50664824327, -33156.197745346755, -0.01, 1.014, -0.008, 192.0, 127.5, 88.0, 15.5, 88.0, 127.5, 96.0, 0.0, 0.0, 0.0, 1.695760908125739E9, 0.0, 2023-09-26 15:41:48.125
44.0, 12461.477513489428, 37061.87451623374, -44575.48047011858, -45984.02035045867, -24736.295609032586, -26220.585551331707, -187500.02235174447, 4085.764775963399, -12689.666472633657, -34170.54226047305, -45316.48550230092, -41067.55299181378, -21073.001155018945, -25200.720155324958, -48250.21901729334, -33146.74295744216, -0.01, 1.014, -0.008, 192.0, 0.0, 0.0, 0.0, 0.0, 0.0, 0.0, 0.0, 0.0, 0.0, 1.695760908184566E9, 0.0, 2023-09-26 15:41:48.184
46.0, 12456.962461109455, 37060.95809471108, -44572.798260783944, -45970.028158429646, -24740.833013157015, -26214.438821606498, -187500.02235174447, 4070.7220519449775, -12713.694597923113, -34175.23612680866, -45321.469941314455, -41072.53743082732, -21088.915597071125, -25219.18269624504, -48252.85652313907, -33148.933428398785, -0.01, 1.014, -0.008, 192.0, 0.0, 0.0, 0.0, 0.0, 0.0, 0.0, 0.0, 0.0, 0.0, 1.69576090818459E9, 0.0, 2023-09-26 15:41:48.184
48.0, 12461.9916036119, 37068.55768782589, -44569.75842353802, -45966.34012059452, -24738.776652667126, -26212.38246111661, -187500.02235174447, 4110.91048847562, -12711.168850799662, -34163.92614411427, -45314.00445866638, -41062.74736675589, -21073.805817819335, -25212.03013801934, -48243.64760442348, -33134.874181136394, -0.01, 1.014, -0.008, 192.0, 0.0, 0.0, 0.0, 0.0, 0.0, 0.0, 0.0, 0.0, 0.0, 1.695760908184607E9, 0.0, 2023-09-26 15:41:48.184
50.0, 12465.500827491383, 37059.661693532675, -44573.17824043969, -45968.9999781847, -24732.339350263996, -26213.05301345027, -187500.02235174447, 4080.668578227589, -12726.368037029271, -34180.28762105556, -45325.62736578314, -41076.56074482927, -21068.486102638974, -25220.680263123544, -48246.754496902766, -33141.13266958388, -0.01, 1.014, -0.008, 192.0, 0.0, 0.0, 0.0, 0.0, 0.0, 0.0, 0.0, 0.0, 0.0, 1.69576090818465E9, 0.0, 2023-09-26 15:41:48.184
52.0, 12479.627129987137, 37073.855051261795, -44563.20936241262, -45971.16809739687, -24736.60853345496, -26217.70217629697, -187500.02235174447, 4108.8764797301865, -12704.575086185347, -34153.64434166483, -45309.712923730964, -41062.68031152253, -21070.40835266213, -25202.150666970098, -48240.60776717756, -33138.38340501588, -0.014, 1.016, -0.006, 192.0, 127.5, 72.0, 15.5, 96.0, 127.5, 104.0, 0.0, 0.0, 0.0, 1.69576090818466E9, 0.0, 2023-09-26 15:41:48.184
54.0, 12483.650443989092, 37072.156318683185, -44573.60292358434, -45977.89597247791, -24737.65906544436, -26219.71383329795, -187500.02235174447, 4115.783168766877, -12709.626580432247, -34164.84256563694, -45312.26102259887, -41068.51411682536, -21052.83988152026, -25219.47326892296, -48253.14709581698, -33149.46987026571, -0.014, 1.016, -0.006, 192.0, 0.0, 0.0, 0.0, 0.0, 0.0, 0.0, 0.0, 0.0, 0.0, 1.695760908184669E9, 0.0, 2023-09-26 15:41:48.184
56.0, 12487.964330668967, 37079.13006295324, -44564.63987405776, -45968.01650142867, -24735.535649721107, -26214.0364902063, -187500.02235174447, 4101.992142437952, -12719.506051481492, -34177.80657742102, -45311.63517375412, -41070.32460812624, -21081.60657663424, -25210.666681607567, -48244.69813641288, -33146.38532953088, -0.014, 1.016, -0.006, 192.0, 0.0, 0.0, 0.0, 0.0, 0.0, 0.0, 0.0, 0.0, 0.0, 1.695760908184678E9, 0.0, 2023-09-26 15:41:48.184
58.0, 12510.874868735656, 37104.8569208213, -44537.81778071139, -45949.79982969759, -24718.615379168437, -26210.549618071273, -187500.02235174447, 4116.699590289544, -12673.975548026032, -34120.16142847078, -45286.936496131006, -41039.30038682227, -21067.748495071948, -25195.825123289243, -48240.9877468333, -33145.155983585835, -0.014, 1.016, -0.006, 192.0, 0.0, 0.0, 0.0, 0.0, 0.0, 0.0, 0.0, 0.0, 0.0, 1.695760908184688E9, 0.0, 2023-09-26 15:41:48.184
60.0, 12497.70969125148, 37100.23010971905, -44544.568007536895, -45957.95821642378, -24725.387957738396, -26218.842115264193, -187500.02235174447, 4088.2011161090277, -12695.70144363659, -34116.09341097992, -45284.45545249647, -41040.4850292784, -21061.132378713177, -25184.783361528323, -48227.62140364903, -33135.9694166147, -0.014, 1.016, -0.006, 192.0, 0.0, 0.0, 0.0, 0.0, 0.0, 0.0, 0.0, 0.0, 0.0, 1.695760908244915E9, 0.0, 2023-09-26 15:41:48.244
62.0, 12513.534726325837, 37108.589662145336, -44549.887722717256, -45968.64235027342, -24730.75237640767, -26217.52336234133, -187500.02235174447, 4143.3875731691805, -12683.452687675082, -34141.44028919224, -45291.04921711078, -41048.10697413766, -21068.26258519442, -25214.108850253684, -48234.93042408591, -33142.51847774011, -0.012, 1.014, -0.008, 192.0, 127.5, 80.0, 15.5, 88.0, 127.5, 96.0, 0.0, 0.0, 0.0, 1.695760908244939E9, 0.0, 2023-09-26 15:41:48.244
64.0, 12514.026464703855, 37101.7053248531, -44549.84301922834, -45958.47230654625, -24728.60660893996, -26210.795487260282, -187500.02235174447, 4092.8055754668208, -12673.059126503364, -34134.69006236673, -45286.95884787546, -41055.34893934118, -21054.158634443123, -25204.56465537127, -48233.72342988532, -33137.26581779311, -0.012, 1.014, -0.008, 192.0, 0.0, 0.0, 0.0, 0.0, 0.0, 0.0, 0.0, 0.0, 0.0, 1.69576090824495E9, 0.0, 2023-09-26 15:41:48.244
66.0, 12535.618249847681, 37120.614900662295, -44546.445554071135, -45951.207989598275, -24726.907876361358, -26211.443687849485, -187500.02235174447, 4133.418695142114, -12678.26708296145, -34131.359652442894, -45282.91318212905, -41037.46754377694, -21047.743683784447, -25209.191466473516, -48234.30457524116, -33127.49810546614, -0.012, 1.014, -0.008, 192.0, 0.0, 0.0, 0.0, 0.0, 0.0, 0.0, 0.0, 0.0, 0.0, 1.695760908244959E9, 0.0, 2023-09-26 15:41:48.244
68.0, 12530.343238156229, 37117.463304694094, -44538.10835338931, -45934.55593997907, -24722.348120492476, -26196.400963831064, -187500.02235174447, 4075.728842702966, -12663.64904208768, -34107.666803320266, -45274.46422272494, -41025.35289828216, -21048.12366344019, -25184.783361528323, -48231.9352903289, -33120.613768173906, -0.012, 1.014, -0.008, 192.0, 0.0, 0.0, 0.0, 0.0, 0.0, 0.0, 0.0, 0.0, 0.0, 1.695760908244968E9, 0.0, 2023-09-26 15:41:48.244
70.0, 12542.569642373282, 37134.89766536924, -44550.46886807309, -45950.582140753526, -24721.342291991987, -26205.05108893527, -187500.02235174447, 4140.280680689893, -12704.41862397416, -34121.055498249, -45286.06477809725, -41025.15173258206, -21070.944794529056, -25194.282852921828, -48234.77396187472, -33124.03358507557, -0.012, 1.014, -0.008, 192.0, 0.0, 0.0, 0.0, 0.0, 0.0, 0.0, 0.0, 0.0, 0.0, 1.695760908245011E9, 0.0, 2023-09-26 15:41:48.245
72.0, 12536.869947537178, 37119.072630294875, -44547.920769205186, -45955.34306232251, -24719.68826290229, -26204.112315668146, -187500.02235174447, 4064.262397797394, -12650.953251237066, -34109.32083240996, -45267.46812671043, -41028.41508727254, -21045.128529683177, -25183.822236516746, -48225.11800827003, -33120.189085029255, -0.012, 1.012, -0.01, 192.0, 127.5, 80.0, 15.5, 80.0, 127.5, 88.0, 0.0, 0.0, 0.0, 1.695760908245025E9, 0.0, 2023-09-26 15:41:48.245
74.0, 12550.526863399371, 37141.647892194735, -44549.12776340578, -45962.741489737215, -24727.33255950601, -26215.198780917977, -187500.02235174447, 4138.91722427812, -12664.833684543812, -34137.75225135711, -45287.3388275312, -41044.0389566468, -21048.83891926276, -25201.07778323624, -48242.10533405606, -33139.85862014993, -0.012, 1.012, -0.01, 192.0, 0.0, 0.0, 0.0, 0.0, 0.0, 0.0, 0.0, 0.0, 0.0, 1.695760908305057E9, 0.0, 2023-09-26 15:41:48.305
76.0, 12540.781502816857, 37131.43314497866, -44540.45528655712, -45945.754163951184, -24722.19165828129, -26203.218245889933, -187500.02235174447, 4064.1059355862067, -12662.665565331647, -34092.44526534621, -45274.978312847416, -41032.90778790806, -21067.904957283135, -25192.8970447656, -48236.85267410907, -33130.29207352306, -0.012, 1.012, -0.01, 192.0, 0.0, 0.0, 0.0, 0.0, 0.0, 0.0, 0.0, 0.0, 0.0, 1.695760908305082E9, 0.0, 2023-09-26 15:41:48.305
78.0, 12550.370401188184, 37152.46613651111, -44557.17439140969, -45970.54224855212, -24734.32865552052, -26230.397967147586, -187500.02235174447, 4164.688785635089, -12714.208688045584, -34124.36355642838, -45290.37866477712, -41035.8358664317, -21057.35493390023, -25210.353757185192, -48241.65829916696, -33136.483506737175, -0.012, 1.012, -0.01, 192.0, 0.0, 0.0, 0.0, 0.0, 0.0, 0.0, 0.0, 0.0, 0.0, 1.695760908305092E9, 0.0, 2023-09-26 15:41:48.305
80.0, 12554.505473912415, 37145.24652305204, -44534.04033589844, -45944.346004050494, -24724.829164127015, -26199.306690610254, -187500.02235174447, 4083.350787562226, -12638.235108641997, -34101.095390450406, -45271.46908896793, -41031.49962800737, -21055.83501527727, -25193.299376165793, -48239.5348834437, -33136.058823592524, -0.012, 1.012, -0.01, 192.0, 0.0, 0.0, 0.0, 0.0, 0.0, 0.0, 0.0, 0.0, 0.0, 1.695760908305102E9, 0.0, 2023-09-26 15:41:48.305
82.0, 12562.172122260587, 37161.74211046006, -44538.823609211875, -45947.60935874097, -24727.153745550364, -26207.219208147435, -187500.02235174447, 4152.06005001784, -12652.808446026856, -34107.82326553146, -45270.977350589914, -41026.73870643839, -21051.945811742047, -25190.751277297888, -48236.74091538679, -33125.10646880943, -0.014, 1.014, -0.012, 192.0, 127.5, 72.0, 15.5, 88.0, 127.5, 80.0, 0.0, 0.0, 0.0, 1.695760908305111E9, 0.0, 2023-09-26 15:41:48.305
84.0, 12550.169235488085, 37135.32234851389, -44547.563141293904, -45959.165210624364, -24729.210106040253, -26218.57389433073, -187500.02235174447, 4074.8571246692095, -12650.59562332578, -34114.37232665686, -45269.12215580013, -41034.7853344423, -21030.59989578723, -25198.730850068434, -48241.300671255674, -33139.41158526082, -0.014, 1.014, -0.012, 192.0, 0.0, 0.0, 0.0, 0.0, 0.0, 0.0, 0.0, 0.0, 0.0, 1.695760908305121E9, 0.0, 2023-09-26 15:41:48.305
86.0, 12571.135171787164, 37162.68088372718, -44537.34839407783, -45943.451934272285, -24725.767937394136, -26214.61763556214, -187500.02235174447, 4147.924977293608, -12663.805504298867, -34121.45782964919, -45271.60319943466, -41035.679404220515, -21064.55219561484, -25199.8484372912, -48246.486275969306, -33143.25608530713, -0.014, 1.014, -0.012, 192.0, 0.0, 0.0, 0.0, 0.0, 0.0, 0.0, 0.0, 0.0, 0.0, 1.69576090830513E9, 0.0, 2023-09-26 15:41:48.305
88.0, 12575.180837533575, 37149.53805798746, -44526.39603929473, -45944.23424532822, -24724.136260048897, -26208.3367953702, -187500.02235174447, 4075.2371043249495, -12627.841547470278, -34085.583279798426, -45252.69362362548, -41016.97099411142, -21043.1168726822, -25181.7435242824, -48239.95956658835, -33133.622483446896, -0.014, 1.014, -0.012, 192.0, 0.0, 0.0, 0.0, 0.0, 0.0, 0.0, 0.0, 0.0, 0.0, 1.695760908305139E9, 0.0, 2023-09-26 15:41:48.305
90.0, 12578.757116646424, 37159.775156947995, -44535.00146091002, -45955.34306232251, -24726.907876361358, -26212.494219838885, -187500.02235174447, 4146.695631348566, -12645.320611634328, -34105.074000963454, -45261.410803963045, -41021.37428776912, -21032.343331854743, -25186.07976270673, -48246.55333120267, -33143.5243062406, -0.014, 1.014, -0.012, 192.0, 0.0, 0.0, 0.0, 0.0, 0.0, 0.0, 0.0, 0.0, 0.0, 1.695760908365324E9, 0.0, 2023-09-26 15:41:48.365
92.0, 12578.95828234652, 37148.867505653805, -44528.76532420699, -45945.57534999554, -24719.621207668926, -26207.91211222555, -187500.02235174447, 4084.2448573404386, -12625.718131747024, -34108.94085275422, -45255.01820504883, -41025.79993317126, -21032.67860802157, -25197.300338423294, -48241.21126427785, -33136.79643115955, -0.012, 1.016, -0.01, 192.0, 127.5, 80.0, 15.5, 96.0, 127.5, 88.0, 0.0, 0.0, 0.0, 1.695760908365412E9, 0.0, 2023-09-26 15:41:48.365
94.0, 12579.20415153553, 37164.26785758351, -44526.753667206016, -45940.657966215374, -24719.442393713285, -26209.007347703857, -187500.02235174447, 4135.497407376457, -12657.45760887356, -34097.13913168182, -45256.448716693965, -41018.53561622329, -21044.614439560704, -25191.578291842736, -48232.896415340474, -33135.81295440352, -0.012, 1.016, -0.01, 192.0, 0.0, 0.0, 0.0, 0.0, 0.0, 0.0, 0.0, 0.0, 0.0, 1.695760908365424E9, 0.0, 2023-09-26 15:41:48.365
96.0, 12580.344090502751, 37157.00354063553, -44534.30855683191, -45946.13414360692, -24722.348120492476, -26219.780888531317, -187500.02235174447, 4105.970752950997, -12641.8337394993, -34098.18966367122, -45259.37679521761, -41019.72025867942, -21035.897259223137, -25203.55882687078, -48238.37259273203, -33139.478640494184, -0.012, 1.016, -0.01, 192.0, 0.0, 0.0, 0.0, 0.0, 0.0, 0.0, 0.0, 0.0, 0.0, 1.695760908365433E9, 0.0, 2023-09-26 15:41:48.365
98.0, 12584.814439393813, 37163.21732559411, -44522.752704948514, -45953.57727451054, -24724.248018771177, -26221.41256587655, -187500.02235174447, 4140.638308601178, -12620.890154944678, -34106.79508528651, -45252.20188524746, -41018.490912734385, -21019.87105844868, -25197.680318079034, -48237.90320609847, -33141.17737307279, -0.012, 1.016, -0.01, 192.0, 0.0, 0.0, 0.0, 0.0, 0.0, 0.0, 0.0, 0.0, 0.0, 1.695760908365442E9, 0.0, 2023-09-26 15:41:48.365
100.0, 12585.44028823856, 37157.09294761335, -44521.14337934773, -45960.796887969605, -24721.275236758618, -26225.10060371168, -187500.02235174447, 4123.047485714851, -12627.863899214733, -34107.733858553634, -45251.57603640271, -41027.58807272769, -21049.710637296517, -25188.918434252555, -48235.9362525864, -33149.29105631007, -0.012, 1.016, -0.01, 192.0, 0.0, 0.0, 0.0, 0.0, 0.0, 0.0, 0.0, 0.0, 0.0, 1.695760908365451E9, 0.0, 2023-09-26 15:41:48.365
102.0, 12584.702680671535, 37162.03268313798, -44524.13851310474, -45950.53743726462, -24720.403518724863, -26212.42716460552, -187500.02235174447, 4135.273889931905, -12638.123349919719, -34111.46659987767, -45252.91714107003, -41029.51032275085, -21040.21114590301, -25200.809562302777, -48235.06453455264, -33145.26774230811, -0.012, 1.014, -0.016, 192.0, 127.5, 80.0, 15.5, 88.0, 127.5, 64.0, 0.0, 0.0, 0.0, 1.69576090836546E9, 0.0, 2023-09-26 15:41:48.365
104.0, 12583.674500426592, 37162.09973837134, -44539.605920267815, -45957.511181534675, -24728.159574050853, -26226.486411867907, -187500.02235174447, 4145.712154592533, -12642.951326722066, -34088.578413555435, -45253.788859103784, -41013.75234290986, -21030.286971364854, -25187.443219118504, -48236.629156664516, -33140.93150388378, -0.012, 1.014, -0.016, 192.0, 0.0, 0.0, 0.0, 0.0, 0.0, 0.0, 0.0, 0.0, 0.0, 1.695760908425573E9, 0.0, 2023-09-26 15:41:48.425
106.0, 12580.791125391857, 37162.68088372718, -44531.33577481935, -45952.19146635431, -24731.60174269697, -26216.115202440644, -187500.02235174447, 4142.717020835522, -12648.69572504708, -34113.59001560092, -45263.511867941845, -41030.80672392926, -21030.82341323178, -25203.692937337513, -48246.01688933574, -33154.81193719053, -0.012, 1.014, -0.016, 192.0, 0.0, 0.0, 0.0, 0.0, 0.0, 0.0, 0.0, 0.0, 0.0, 1.6957609084256E9, 0.0, 2023-09-26 15:41:48.425
108.0, 12588.994215606954, 37170.16871811971, -44522.79740843742, -45944.05543137258, -24724.248018771177, -26205.207551146457, -187500.02235174447, 4125.707343305033, -12631.753102749957, -34102.57060558446, -45251.95601605845, -41018.267395289826, -21046.715503539504, -25194.014631988364, -48239.11020029905, -33139.59039921646, -0.012, 1.014, -0.016, 192.0, 0.0, 0.0, 0.0, 0.0, 0.0, 0.0, 0.0, 0.0, 0.0, 1.69576090842561E9, 0.0, 2023-09-26 15:41:48.425
110.0, 12579.092392813254, 37160.021026137, -44530.73227771906, -45950.62684424244, -24734.32865552052, -26219.914998998047, -187500.02235174447, 4113.704456532533, -12643.59952731127, -34099.26254740507, -45260.494382440374, -41028.8844739061, -21042.73689302646, -25199.55786461328, -48246.44157248039, -33148.642855720864, -0.012, 1.014, -0.016, 192.0, 0.0, 0.0, 0.0, 0.0, 0.0, 0.0, 0.0, 0.0, 0.0, 1.695760908425619E9, 0.0, 2023-09-26 15:41:48.425
112.0, 12588.770698162401, 37173.96851467711, -44521.366896792286, -45943.56369299456, -24726.259675772155, -26216.89751349658, -187500.02235174447, 4156.686861120089, -12635.910527218644, -34114.88641677933, -45254.548818415264, -41019.809665657245, -21037.372474357187, -25196.42862038954, -48242.86529336754, -33147.65937896483, -0.014, 1.012, -0.02, 192.0, 127.5, 72.0, 15.5, 80.0, 127.5, 48.0, 0.0, 0.0, 0.0, 1.695760908425628E9, 0.0, 2023-09-26 15:41:48.425
114.0, 12573.280939254873, 37157.249409824544, -44533.61565275379, -45948.346966307996, -24735.7368154212, -26216.785754774304, -187500.02235174447, 4111.6927995315555, -12685.21847548705, -34086.11972166535, -45258.616835906134, -41017.35097376716, -21042.468672092997, -25191.734754053923, -48248.40852599246, -33146.474736508695, -0.014, 1.012, -0.02, 192.0, 0.0, 0.0, 0.0, 0.0, 0.0, 0.0, 0.0, 0.0, 0.0, 1.695760908425674E9, 0.0, 2023-09-26 15:41:48.425
116.0, 12594.090413342765, 37176.27074435601, -44527.915957917685, -45945.24007382871, -24725.142088549386, -26210.460211093454, -187500.02235174447, 4167.527457180912, -12612.642361240669, -34091.104160678886, -45250.86078058014, -41016.70277317796, -21043.943887227048, -25188.80667553028, -48248.47558122582, -33141.26678005061, -0.014, 1.012, -0.02, 192.0, 0.0, 0.0, 0.0, 0.0, 0.0, 0.0, 0.0, 0.0, 0.0, 1.695760908425683E9, 0.0, 2023-09-26 15:41:48.425
118.0, 12571.828075865278, 37152.24261906655, -44523.311498559895, -45946.581178496024, -24724.806812382558, -26208.1356296701, -187500.02235174447, 4083.2390288399497, -12628.668562015124, -34085.717390265156, -45249.877303824105, -41020.25670054635, -21046.559041328317, -25174.389800356603, -48240.47365671083, -33133.04133809106, -0.014, 1.012, -0.02, 192.0, 0.0, 0.0, 0.0, 0.0, 0.0, 0.0, 0.0, 0.0, 0.0, 1.695760908425693E9, 0.0, 2023-09-26 15:41:48.425
120.0, 12581.618139936703, 37172.8732791988, -44527.714792217594, -45963.367338581964, -24730.707672918757, -26233.10252822668, -187500.02235174447, 4163.593550156778, -12658.262271673952, -34096.35682062588, -45256.158144016044, -41024.50353199286, -21062.45113163604, -25186.571501084745, -48248.09560157009, -33145.848887663946, -0.014, 1.012, -0.02, 192.0, 0.0, 0.0, 0.0, 0.0, 0.0, 0.0, 0.0, 0.0, 0.0, 1.695760908484514E9, 0.0, 2023-09-26 15:41:48.484
122.0, 12571.470447953994, 37157.85290692483, -44522.61859448178, -45947.25173082969, -24720.582332680504, -26203.9335017125, -187500.02235174447, 4069.4256507665696, -12638.436274342093, -34091.32767812344, -45251.75485035835, -41027.297500049775, -21058.36076240072, -25185.006878972876, -48242.84294162309, -33144.82070741901, -0.012, 1.01, -0.02, 192.0, 127.5, 80.0, 15.5, 72.0, 127.5, 48.0, 0.0, 0.0, 0.0, 1.695760908484535E9, 0.0, 2023-09-26 15:41:48.484
124.0, 12568.095334541242, 37168.425282052194, -44537.28133884446, -45957.55588502358, -24726.28202751661, -26218.171562930533, -187500.02235174447, 4143.432276658092, -12634.07768417331, -34086.36559085436, -45255.30877772674, -41016.05457258876, -21050.604707074726, -25193.03115523233, -48236.71856364233, -33137.91401838232, -0.012, 1.01, -0.02, 192.0, 0.0, 0.0, 0.0, 0.0, 0.0, 0.0, 0.0, 0.0, 0.0, 1.695760908484545E9, 0.0, 2023-09-26 15:41:48.484
126.0, 12548.33639244275, 37136.909322370215, -44543.1151441473, -45959.746355980205, -24724.292722260085, -26212.583626816708, -187500.02235174447, 4073.0466333683294, -12652.383762882206, -34104.55991084098, -45279.40395824957, -41041.893189179085, -21055.477387365983, -25202.351832670192, -48241.8371131226, -33147.07823360899, -0.012, 1.01, -0.02, 192.0, 0.0, 0.0, 0.0, 0.0, 0.0, 0.0, 0.0, 0.0, 0.0, 1.695760908484554E9, 0.0, 2023-09-26 15:41:48.484
128.0, 12554.349011701228, 37144.33010152938, -44549.23952212805, -45964.12729789344, -24724.963274593745, -26214.751746028873, -187500.02235174447, 4159.570236154823, -12649.701553547568, -34122.7542308276, -45280.923876872526, -41039.47920077792, -21058.98661124547, -25197.61326284567, -48235.5339211862, -33141.78087017308, -0.012, 1.01, -0.02, 192.0, 0.0, 0.0, 0.0, 0.0, 0.0, 0.0, 0.0, 0.0, 0.0, 1.695760908484563E9, 0.0, 2023-09-26 15:41:48.484
130.0, 12530.43264513405, 37111.13776101324, -44562.896437990246, -45971.32455960805, -24727.75724265066, -26211.175466916022, -187500.02235174447, 4089.09518588724, -12655.98239373951, -34129.817382075475, -45287.271772297834, -41045.044785147285, -21077.31504169882, -25194.32755641074, -48235.48921769729, -33145.62537021939, -0.012, 1.01, -0.02, 192.0, 0.0, 0.0, 0.0, 0.0, 0.0, 0.0, 0.0, 0.0, 0.0, 1.695760908484572E9, 0.0, 2023-09-26 15:41:48.484
132.0, 12509.645522790614, 37105.95215629961, -44580.46490913211, -45981.0028649572, -24731.959370608256, -26211.309577382755, -187500.02235174447, 4153.289395962882, -12690.94052206761, -34128.364518685885, -45304.057932383774, -41049.00104391587, -21097.252797752953, -25190.907739509075, -48234.237520007795, -33141.110317839426, -0.018000000000000002, 1.01, -0.016, 192.0, 127.5, 56.0, 15.5, 72.0, 127.5, 64.0, 0.0, 0.0, 0.0, 1.695760908484581E9, 0.0, 2023-09-26 15:41:48.484
134.0, 12488.254903346886, 37072.35748438328, -44580.91194402122, -45986.85902200449, -24731.959370608256, -26211.980129716412, -187500.02235174447, 4090.8162702102986, -12717.89672588071, -34157.7123591557, -45321.49229305891, -41072.80565176078, -21101.924312344112, -25207.71625133947, -48244.854598624064, -33152.39794878935, -0.018000000000000002, 1.01, -0.016, 192.0, 0.0, 0.0, 0.0, 0.0, 0.0, 0.0, 0.0, 0.0, 0.0, 1.695760908544752E9, 0.0, 2023-09-26 15:41:48.544
136.0, 12483.941016667011, 37079.26417341998, -44576.508650363525, -45982.07574869106, -24727.086690317, -26205.453420335463, -187500.02235174447, 4142.292337690871, -12674.64610035969, -34147.2070392617, -45305.667257984554, -41061.540372555304, -21089.69790812706, -25194.75223955539, -48229.58835716109, -33136.95289337074, -0.018000000000000002, 1.01, -0.016, 192.0, 0.0, 0.0, 0.0, 0.0, 0.0, 0.0, 0.0, 0.0, 0.0, 1.695760908544824E9, 0.0, 2023-09-26 15:41:48.544
138.0, 12460.292871033296, 37050.31866435035, -44597.65340061825, -46002.19231870083, -24739.760129423157, -26220.60790307616, -187500.02235174447, 4091.6209330106894, -12728.826728919355, -34168.15062381633, -45321.738162247915, -41076.784262273824, -21086.70277437005, -25201.971853014453, -48238.082020054106, -33148.41933827631, -0.018000000000000002, 1.01, -0.016, 192.0, 0.0, 0.0, 0.0, 0.0, 0.0, 0.0, 0.0, 0.0, 0.0, 1.695760908544833E9, 0.0, 2023-09-26 15:41:48.544
140.0, 12471.424039772039, 37061.02514994444, -44583.92942952269, -45994.81624303058, -24729.634789184904, -26207.33096686971, -187500.02235174447, 4134.044543986863, -12703.055167562386, -34168.59765870543, -45315.05499065578, -41073.83383200572, -21095.352899474252, -25198.261463434872, -48237.12089504253, -33146.74295744216, -0.018000000000000002, 1.01, -0.016, 192.0, 0.0, 0.0, 0.0, 0.0, 0.0, 0.0, 0.0, 0.0, 0.0, 1.695760908544842E9, 0.0, 2023-09-26 15:41:48.544
142.0, 12468.56301648176, 37042.89788519119, -44590.59024937037, -45994.03393197464, -24723.912742604345, -26202.70415576746, -187500.02235174447, 4072.845467668232, -12708.196068787107, -34163.52381271408, -45312.35042957669, -41070.81634650425, -21080.243120222465, -25200.13900996912, -48228.51547342724, -33140.86444865041, -0.01, 1.01, -0.018000000000000002, 192.0, 127.5, 88.0, 15.5, 72.0, 127.5, 56.0, 0.0, 0.0, 0.0, 1.695760908544852E9, 0.0, 2023-09-26 15:41:48.544
144.0, 12470.37350778264, 37053.33614985182, -44582.387159155274, -45996.380865142455, -24728.494850217685, -26206.48160058041, -187500.02235174447, 4118.443026357058, -12713.13580431173, -34161.75802490211, -45319.01124942437, -41072.82800350523, -21089.854370338246, -25200.6978035805, -48222.94988905786, -33141.28913179506, -0.01, 1.01, -0.018000000000000002, 192.0, 0.0, 0.0, 0.0, 0.0, 0.0, 0.0, 0.0, 0.0, 0.0, 1.695760908544862E9, 0.0, 2023-09-26 15:41:48.544
146.0, 12458.080048332222, 37040.68506249011, -44600.96145879763, -46009.81426356009, -24739.693074189792, -26221.65843506556, -187500.02235174447, 4107.825947740787, -12712.107624066786, -34175.30318204203, -45316.32904008973, -41074.52673608383, -21084.288785968874, -25205.302262938294, -48229.85657809456, -33151.54858250005, -0.01, 1.01, -0.018000000000000002, 192.0, 0.0, 0.0, 0.0, 0.0, 0.0, 0.0, 0.0, 0.0, 0.0, 1.695760908544871E9, 0.0, 2023-09-26 15:41:48.544
148.0, 12475.536760751816, 37056.308931864376, -44586.34341792386, -45989.36241738348, -24737.457899744262, -26207.62153954763, -187500.02235174447, 4122.466340359013, -12715.683903179635, -34180.98052513367, -45322.54282504831, -41077.67833205203, -21103.690100156084, -25203.916454782066, -48236.29388049768, -33156.622428491406, -0.01, 1.01, -0.018000000000000002, 192.0, 0.0, 0.0, 0.0, 0.0, 0.0, 0.0, 0.0, 0.0, 0.0, 1.69576090854488E9, 0.0, 2023-09-26 15:41:48.544
150.0, 12479.381260798129, 37060.555763310884, -44591.93135403769, -45991.061149962086, -24739.22368755623, -26217.14338268559, -187500.02235174447, 4124.567404337812, -12735.979287145054, -34159.746367901134, -45317.424275568046, -41060.13221265462, -21098.03510880889, -25195.288681422317, -48234.97512757482, -33151.168602844315, -0.01, 1.01, -0.018000000000000002, 192.0, 0.0, 0.0, 0.0, 0.0, 0.0, 0.0, 0.0, 0.0, 0.0, 1.695760908605042E9, 0.0, 2023-09-26 15:41:48.605
152.0, 12479.314205564762, 37062.25449588949, -44587.349246424346, -45993.25162091871, -24735.714463676748, -26212.56127507225, -187500.02235174447, 4125.528529349391, -12693.108641279774, -34154.04667306503, -45307.79067370781, -41060.623951032634, -21086.613367392227, -25188.73962029691, -48231.28708973969, -33149.51457375462, -0.008, 1.004, -0.016, 192.0, 127.5, 96.0, 15.5, 48.0, 127.5, 64.0, 0.0, 0.0, 0.0, 1.695760908605064E9, 0.0, 2023-09-26 15:41:48.605
154.0, 12484.298644578295, 37068.133004681236, -44600.290906463975, -46001.76763555618, -24742.665856202348, -26222.0384147213, -187500.02235174447, 4151.233035472994, -12701.155269283685, -34165.64722843734, -45314.0938656442, -41061.965055699955, -21061.64646883565, -25197.926187268044, -48239.35606948806, -33161.293943082565, -0.008, 1.004, -0.016, 192.0, 0.0, 0.0, 0.0, 0.0, 0.0, 0.0, 0.0, 0.0, 0.0, 1.695760908605075E9, 0.0, 2023-09-26 15:41:48.605
156.0, 12491.384147570629, 37074.45854836208, -44578.69912132015, -45995.82207153107, -24726.907876361358, -26208.984995959403, -187500.02235174447, 4114.062084443818, -12678.825876572833, -34146.29061773904, -45300.079321870726, -41060.82511673273, -21087.17216100361, -25195.8474750337, -48235.3327554861, -33153.046149378555, -0.008, 1.004, -0.016, 192.0, 0.0, 0.0, 0.0, 0.0, 0.0, 0.0, 0.0, 0.0, 0.0, 1.695760908605114E9, 0.0, 2023-09-26 15:41:48.605
158.0, 12507.343293111719, 37090.08241773635, -44586.03049350149, -45990.16708018388, -24728.830126384513, -26210.884894238105, -187500.02235174447, 4139.453666145047, -12694.449745947093, -34134.26537922208, -45306.31545857376, -41056.35476784167, -21097.968053575525, -25204.36348967117, -48232.427028706916, -33151.14625109985, -0.008, 1.004, -0.016, 192.0, 0.0, 0.0, 0.0, 0.0, 0.0, 0.0, 0.0, 0.0, 0.0, 1.695760908605123E9, 0.0, 2023-09-26 15:41:48.605
160.0, 12499.564886041271, 37085.947345012115, -44589.11503423632, -45992.603420329506, -24736.072091588034, -26210.70608028246, -187500.02235174447, 4099.444043570047, -12686.313710965362, -34127.33633844094, -45299.58758349271, -41054.32075909624, -21082.433591179084, -25193.7464110549, -48234.63985140799, -33147.99465513166, -0.008, 1.004, -0.016, 192.0, 0.0, 0.0, 0.0, 0.0, 0.0, 0.0, 0.0, 0.0, 0.0, 1.695760908605132E9, 0.0, 2023-09-26 15:41:48.605
162.0, 12516.641618805126, 37103.18053998715, -44585.96343826812, -45996.157347697896, -24732.27229503063, -26216.606940818663, -187500.02235174447, 4141.755895823943, -12708.978379843044, -34138.37810020186, -45303.3426765612, -41053.56079978476, -21074.655184108637, -25192.56176859877, -48239.24431076578, -33150.16277434382, -0.01, 1.014, -0.014, 192.0, 127.5, 88.0, 15.5, 88.0, 127.5, 72.0, 0.0, 0.0, 0.0, 1.695760908605141E9, 0.0, 2023-09-26 15:41:48.605
164.0, 12512.439490847528, 37097.10086549531, -44586.25401094604, -45998.39252214343, -24734.485117731707, -26226.106432212167, -187500.02235174447, 4099.175822636584, -12669.773420068434, -34126.37521342936, -45293.82083342324, -41050.65507300557, -21074.96810853101, -25193.88052152163, -48236.87502585352, -33152.822631934, -0.01, 1.014, -0.014, 192.0, 0.0, 0.0, 0.0, 0.0, 0.0, 0.0, 0.0, 0.0, 0.0, 1.695760908665368E9, 0.0, 2023-09-26 15:41:48.665
166.0, 12528.733912555446, 37118.5585401724, -44591.7748918265, -46005.25450769121, -24730.75237640767, -26226.888743268104, -187500.02235174447, 4175.887009607197, -12668.432315401116, -34134.53360015555, -45299.67699047053, -41057.69587250899, -21085.607538891738, -25210.689033352024, -48243.69230791239, -33162.009198905136, -0.01, 1.014, -0.014, 192.0, 0.0, 0.0, 0.0, 0.0, 0.0, 0.0, 0.0, 0.0, 0.0, 1.695760908665391E9, 0.0, 2023-09-26 15:41:48.665
168.0, 12532.489005623938, 37114.06583953689, -44574.74286255155, -45981.762824268684, -24717.07310880102, -26207.822705247727, -187500.02235174447, 4087.508212030913, -12684.50321966448, -34106.83978877542, -45290.75864443286, -41052.30910209526, -21048.01190471791, -25177.966079469454, -48229.36483971654, -33150.386291788374, -0.01, 1.014, -0.014, 192.0, 0.0, 0.0, 0.0, 0.0, 0.0, 0.0, 0.0, 0.0, 0.0, 1.695760908665401E9, 0.0, 2023-09-26 15:41:48.665
170.0, 12546.928232542066, 37141.7149474281, -44579.63789458727, -45985.13793768143, -24724.449184471272, -26209.655548293063, -187500.02235174447, 4169.9190938376305, -12638.749198764468, -34098.32377413795, -45278.01815009334, -41030.292633806785, -21076.197454476056, -25184.85041676169, -48224.02277279172, -33141.17737307279, -0.01, 1.014, -0.014, 192.0, 0.0, 0.0, 0.0, 0.0, 0.0, 0.0, 0.0, 0.0, 0.0, 1.695760908665411E9, 0.0, 2023-09-26 15:41:48.665
172.0, 12531.751398056913, 37118.9608715726, -44587.282191190985, -45998.86190877699, -24728.539553706596, -26212.494219838885, -187500.02235174447, 4095.4207295680917, -12655.98239373951, -34109.544349854514, -45283.58373446271, -41046.00591015886, -21076.59978587625, -25193.008803487875, -48230.393019961484, -33147.05588186454, -0.014, 1.008, -0.018000000000000002, 192.0, 127.5, 72.0, 15.5, 64.0, 127.5, 56.0, 0.0, 0.0, 0.0, 1.69576090866542E9, 0.0, 2023-09-26 15:41:48.665
174.0, 12539.239232449441, 37137.177543303675, -44595.21706047262, -45990.077673206055, -24731.60174269697, -26209.47673433742, -187500.02235174447, 4159.994919299474, -12683.475039419538, -34114.52878886805, -45296.95007764699, -41048.44225030449, -21081.070134767313, -25197.434448890028, -48234.32692698562, -33148.84402142096, -0.014, 1.008, -0.018000000000000002, 192.0, 0.0, 0.0, 0.0, 0.0, 0.0, 0.0, 0.0, 0.0, 0.0, 1.695760908665429E9, 0.0, 2023-09-26 15:41:48.665
176.0, 12543.977802273967, 37130.80729613391, -44584.86820278981, -45978.81239400058, -24724.717405404735, -26197.339737098187, -187500.02235174447, 4094.3701975786926, -12659.178693196618, -34105.74455329711, -45291.85387991117, -41044.64245374709, -21073.023506763402, -25187.867902263155, -48233.76813337424, -33142.786698673575, -0.014, 1.008, -0.018000000000000002, 192.0, 0.0, 0.0, 0.0, 0.0, 0.0, 0.0, 0.0, 0.0, 0.0, 1.695760908665438E9, 0.0, 2023-09-26 15:41:48.665
178.0, 12566.038974051355, 37158.366997047306, -44574.38523464027, -45978.544173067115, -24718.771841379625, -26203.061783678746, -187500.02235174447, 4163.370032712225, -12638.145701664174, -34113.94764351221, -45282.734368173406, -41038.3839652996, -21071.3247741848, -25186.280928406828, -48228.02373504922, -33137.84696314895, -0.014, 1.008, -0.018000000000000002, 192.0, 0.0, 0.0, 0.0, 0.0, 0.0, 0.0, 0.0, 0.0, 0.0, 1.69576090866548E9, 0.0, 2023-09-26 15:41:48.665
180.0, 12560.160465259609, 37144.62067420729, -44584.71174057863, -45991.105853451, -24727.37726299492, -26215.578760573717, -187500.02235174447, 4101.343941848748, -12648.829835513812, -34091.52884382354, -45274.88890586959, -41030.62790997361, -21037.886564479657, -25186.45974236247, -48225.699153625865, -33143.25608530713, -0.014, 1.008, -0.018000000000000002, 192.0, 0.0, 0.0, 0.0, 0.0, 0.0, 0.0, 0.0, 0.0, 0.0, 1.695760908727179E9, 0.0, 2023-09-26 15:41:48.727
182.0, 12579.360613746718, 37173.70029374365, -44570.27251366049, -45983.86388824748, -24729.210106040253, -26210.259045393355, -187500.02235174447, 4185.699425423077, -12642.951326722066, -34091.03710544552, -45273.25722852436, -41034.24889257537, -21067.659088094126, -25189.298413908295, -48236.897377597976, -33148.55344874304, -0.014, 1.01, -0.014, 192.0, 127.5, 72.0, 15.5, 72.0, 127.5, 72.0, 0.0, 0.0, 0.0, 1.695760908727229E9, 0.0, 2023-09-26 15:41:48.727
184.0, 12577.661881168115, 37156.24358132405, -44569.15492643773, -45972.755071253196, -24717.162515778844, -26204.00055694587, -187500.02235174447, 4107.200098896039, -12632.758931250446, -34077.42489307224, -45262.036652807794, -41028.057459361255, -21061.668820580104, -25172.467550333447, -48228.60488040506, -33138.56221897152, -0.014, 1.01, -0.014, 192.0, 0.0, 0.0, 0.0, 0.0, 0.0, 0.0, 0.0, 0.0, 0.0, 1.69576090872724E9, 0.0, 2023-09-26 15:41:48.727
186.0, 12574.376174733183, 37169.31935183041, -44578.63206608678, -45981.67341729086, -24730.081824074012, -26211.354280871667, -187500.02235174447, 4172.10956479425, -12670.511027635459, -34075.39088432681, -45273.72661515792, -41024.32471803722, -21067.949660772047, -25163.482149062416, -48231.443551950884, -33146.72060569771, -0.014, 1.01, -0.014, 192.0, 0.0, 0.0, 0.0, 0.0, 0.0, 0.0, 0.0, 0.0, 0.0, 1.69576090872725E9, 0.0, 2023-09-26 15:41:48.727
188.0, 12577.058384067821, 37160.177488348185, -44576.083967218874, -45973.69384452031, -24725.253847271666, -26199.753725499362, -187500.02235174447, 4123.6733345596, -12636.894003974678, -34090.36655311186, -45275.313589014244, -41027.31985179423, -21059.03131473438, -25183.732829538923, -48235.22099676383, -33142.25025680665, -0.014, 1.01, -0.014, 192.0, 0.0, 0.0, 0.0, 0.0, 0.0, 0.0, 0.0, 0.0, 0.0, 1.695760908727259E9, 0.0, 2023-09-26 15:41:48.727
190.0, 12588.234256295475, 37176.024875167, -44561.95766472312, -45964.44022231582, -24718.973007079723, -26196.780943486803, -187500.02235174447, 4164.979358313008, -12627.081588158797, -34080.55413729598, -45267.1328505436, -41017.06040108924, -21066.54150087136, -25187.08559120722, -48227.934328071395, -33140.23859980567, -0.014, 1.01, -0.014, 192.0, 0.0, 0.0, 0.0, 0.0, 0.0, 0.0, 0.0, 0.0, 0.0, 1.695760908727268E9, 0.0, 2023-09-26 15:41:48.727
192.0, 12578.06421256831, 37158.94814240315, -44570.13840319376, -45961.95917868128, -24714.770879122127, -26197.026812675813, -187500.02235174447, 4113.816215254809, -12633.78711149539, -34083.23634663062, -45264.987083075895, -41015.607537699645, -21051.58818383076, -25174.814483501254, -48214.29976395366, -33128.54863745554, -0.012, 1.01, -0.014, 192.0, 127.5, 80.0, 15.5, 72.0, 127.5, 72.0, 0.0, 0.0, 0.0, 1.695760908727278E9, 0.0, 2023-09-26 15:41:48.727
194.0, 12591.989349363965, 37179.623506024305, -44565.042205457954, -45960.52866703614, -24719.040062313088, -26195.14926614157, -187500.02235174447, 4152.0153465289295, -12630.099073660263, -34087.77375075504, -45272.251400023866, -41022.3801162696, -21048.168366929098, -25179.843626003698, -48219.64183087848, -33133.622483446896, -0.012, 1.01, -0.014, 192.0, 0.0, 0.0, 0.0, 0.0, 0.0, 0.0, 0.0, 0.0, 0.0, 1.695760908784443E9, 0.0, 2023-09-26 15:41:48.784
196.0, 12591.564666219314, 37175.779005977995, -44571.36774913881, -45966.42952757234, -24716.60372216746, -26197.116219653635, -187500.02235174447, 4145.175712725605, -12637.8327772418, -34065.98079991112, -45272.09493781268, -41010.31017426374, -21038.512413324406, -25162.923355451032, -48218.05485702215, -33132.54959971304, -0.012, 1.01, -0.014, 192.0, 0.0, 0.0, 0.0, 0.0, 0.0, 0.0, 0.0, 0.0, 0.0, 1.69576090878447E9, 0.0, 2023-09-26 15:41:48.784
198.0, 12591.050576096843, 37176.85188971185, -44555.36390010881, -45962.85324845949, -24711.909855831847, -26192.28824285129, -187500.02235174447, 4146.3827069261915, -12632.133082405697, -34076.10614014937, -45269.56919068923, -41020.368459268626, -21070.922442784602, -25161.78341648381, -48214.21035697584, -33130.24737003414, -0.012, 1.01, -0.014, 192.0, 0.0, 0.0, 0.0, 0.0, 0.0, 0.0, 0.0, 0.0, 0.0, 1.69576090878448E9, 0.0, 2023-09-26 15:41:48.784
200.0, 12586.893151628155, 37172.40389256524, -44569.91488574921, -45974.073824176055, -24721.878733858914, -26207.88976048109, -187500.02235174447, 4155.6810326196, -12625.964000936032, -34086.611460043365, -45269.6362459226, -41023.60946221465, -21063.792236303358, -25167.997201442387, -48218.4795401668, -33132.41548924631, -0.012, 1.01, -0.014, 192.0, 0.0, 0.0, 0.0, 0.0, 0.0, 0.0, 0.0, 0.0, 0.0, 1.695760908784523E9, 0.0, 2023-09-26 15:41:48.784
202.0, 12578.466543968505, 37164.91605817271, -44571.03247297197, -45967.23419037273, -24720.068242558034, -26196.445667319975, -187500.02235174447, 4136.972622510508, -12638.771550508924, -34077.42489307224, -45277.05702508176, -41028.39273552808, -21054.851538521238, -25173.719248022946, -48223.64279313598, -33135.790602659064, -0.012, 1.014, -0.018000000000000002, 192.0, 127.5, 80.0, 15.5, 88.0, 127.5, 56.0, 0.0, 0.0, 0.0, 1.695760908784532E9, 0.0, 2023-09-26 15:41:48.784
204.0, 12588.994215606954, 37174.90728794423, -44569.26668516001, -45963.76966998216, -24716.9837018232, -26197.42914407601, -187500.02235174447, 4148.349660438259, -12666.599472355781, -34082.632849530324, -45279.06868208274, -41025.68817444899, -21050.93998324156, -25171.79699799979, -48224.29099372518, -33137.399928259845, -0.012, 1.014, -0.018000000000000002, 192.0, 0.0, 0.0, 0.0, 0.0, 0.0, 0.0, 0.0, 0.0, 0.0, 1.695760908784543E9, 0.0, 2023-09-26 15:41:48.784
206.0, 12598.15843083363, 37176.51661354502, -44552.949911707634, -45956.594760012005, -24714.882637844403, -26198.90435921006, -187500.02235174447, 4103.71322676101, -12616.106881631242, -34068.75241622358, -45252.604216647655, -41009.57256669671, -21035.003189444924, -25161.761064739356, -48212.60103137506, -33123.899474608836, -0.012, 1.014, -0.018000000000000002, 192.0, 0.0, 0.0, 0.0, 0.0, 0.0, 0.0, 0.0, 0.0, 0.0, 1.695760908784552E9, 0.0, 2023-09-26 15:41:48.784
208.0, 12606.026244881898, 37183.49035781507, -44556.99557745404, -45962.02623391464, -24720.9846640807, -26201.452458077965, -187500.02235174447, 4176.423451474125, -12613.983465907988, -34084.46569257566, -45259.26503649534, -41013.104142320655, -21069.111951483723, -25167.371352597638, -48220.24532797877, -33135.164753814315, -0.012, 1.014, -0.018000000000000002, 192.0, 0.0, 0.0, 0.0, 0.0, 0.0, 0.0, 0.0, 0.0, 0.0, 1.695760908784561E9, 0.0, 2023-09-26 15:41:48.784
210.0, 12605.959189648533, 37178.014180423525, -44543.91980694769, -45947.005861640675, -24706.41132669584, -26185.739181725883, -187500.02235174447, 4098.438215069558, -12612.731768218491, -34070.0935208909, -45251.28546372479, -41013.59588069867, -21034.31028536681, -25167.438407831003, -48207.97422027281, -33122.580721685976, -0.012, 1.014, -0.018000000000000002, 192.0, 0.0, 0.0, 0.0, 0.0, 0.0, 0.0, 0.0, 0.0, 0.0, 1.695760908844822E9, 0.0, 2023-09-26 15:41:48.844
212.0, 12610.362483306228, 37188.74301776207, -44563.94696997965, -45962.674434503846, -24723.37630073742, -26206.302786624765, -187500.02235174447, 4165.292282735381, -12612.195326351562, -34081.96229719667, -45255.62170214912, -41009.99724984136, -21052.571660586796, -25169.628878787626, -48216.04320002117, -33128.995672344645, -0.012, 1.014, -0.014, 192.0, 127.5, 80.0, 15.5, 88.0, 127.5, 72.0, 0.0, 0.0, 0.0, 1.695760908844845E9, 0.0, 2023-09-26 15:41:48.844
214.0, 12608.104957116242, 37179.80231997995, -44549.44068782815, -45952.70555647678, -24711.70869013175, -26197.540902798286, -187500.02235174447, 4096.583020279768, -12624.108806146241, -34075.435587815715, -45257.11926902763, -41016.30044177776, -21054.180986187577, -25161.336381594705, -48216.758455843745, -33129.93444561177, -0.012, 1.014, -0.014, 192.0, 0.0, 0.0, 0.0, 0.0, 0.0, 0.0, 0.0, 0.0, 0.0, 1.695760908844856E9, 0.0, 2023-09-26 15:41:48.844
216.0, 12612.530602518393, 37191.93931721918, -44559.320158877395, -45955.38776581142, -24715.21791401123, -26198.591434787686, -187500.02235174447, 4179.507992208957, -12606.517983259915, -34064.37147431034, -45251.79955384726, -41002.48706370438, -21049.040084962857, -25168.198367142486, -48212.39986567496, -33124.7711926426, -0.012, 1.014, -0.014, 192.0, 0.0, 0.0, 0.0, 0.0, 0.0, 0.0, 0.0, 0.0, 0.0, 1.695760908844865E9, 0.0, 2023-09-26 15:41:48.844
218.0, 12598.426651767095, 37168.89466868576, -44564.3716531243, -45952.325576821044, -24716.67077740083, -26193.763457985337, -187500.02235174447, 4104.719055261499, -12631.015495182932, -34076.86609946085, -45265.0317865648, -41015.182854554994, -21015.288950835344, -25170.41118984356, -48218.18896748889, -33124.97235834269, -0.012, 1.014, -0.014, 192.0, 0.0, 0.0, 0.0, 0.0, 0.0, 0.0, 0.0, 0.0, 0.0, 1.695760908844875E9, 0.0, 2023-09-26 15:41:48.844
220.0, 12617.157413620642, 37189.83825324038, -44546.33379534886, -45946.13414360692, -24713.005091310155, -26189.293109094277, -187500.02235174447, 4164.889951335186, -12631.618992283225, -34067.36660806735, -45259.68971963999, -41004.856348616646, -21065.55802411533, -25166.07495141923, -48217.16078724394, -33122.446611219246, -0.012, 1.014, -0.014, 192.0, 0.0, 0.0, 0.0, 0.0, 0.0, 0.0, 0.0, 0.0, 0.0, 1.695760908844884E9, 0.0, 2023-09-26 15:41:48.844
222.0, 12612.552954262848, 37173.99086642157, -44543.092792402844, -45943.36252729446, -24706.99247205168, -26187.549673026762, -187500.02235174447, 4090.637456254656, -12606.227410581996, -34071.07699764693, -45249.36321370163, -41007.13622655108, -21051.252907663933, -25169.7406375099, -48214.29976395366, -33118.110372794916, -0.014, 1.014, -0.01, 192.0, 127.5, 72.0, 15.5, 88.0, 127.5, 88.0, 0.0, 0.0, 0.0, 1.695760908844925E9, 0.0, 2023-09-26 15:41:48.844
224.0, 12615.503384530948, 37186.64195378327, -44556.28032163147, -45952.07970763203, -24713.429774454806, -26197.451495820464, -187500.02235174447, 4172.690710150088, -12621.158375878142, -34080.35297159588, -45251.978367802905, -41002.86704336012, -21033.0138841884, -25163.660963018057, -48215.68557210989, -33121.93252109677, -0.014, 1.014, -0.01, 192.0, 0.0, 0.0, 0.0, 0.0, 0.0, 0.0, 0.0, 0.0, 0.0, 1.695760908905052E9, 0.0, 2023-09-26 15:41:48.905
226.0, 12607.903791416144, 37172.0239129095, -44547.093754660345, -45954.02430939965, -24714.502658188663, -26204.84992323517, -187500.02235174447, 4127.383724139181, -12630.143777149175, -34083.30340186398, -45260.3826237181, -41015.67459293301, -21042.98276221547, -25169.494768320892, -48222.12287451302, -33132.281378779575, -0.014, 1.014, -0.01, 192.0, 0.0, 0.0, 0.0, 0.0, 0.0, 0.0, 0.0, 0.0, 0.0, 1.695760908905076E9, 0.0, 2023-09-26 15:41:48.905
228.0, 12621.963038678532, 37190.732323018594, -44538.66714700069, -45945.35183255099, -24711.060489542546, -26198.926710954514, -187500.02235174447, 4204.83251867682, -12611.390663551172, -34060.59402949739, -45255.15231551556, -41005.616307928125, -21062.048800235843, -25174.23333814542, -48214.657391864945, -33127.83338163297, -0.014, 1.014, -0.01, 192.0, 0.0, 0.0, 0.0, 0.0, 0.0, 0.0, 0.0, 0.0, 0.0, 1.695760908905086E9, 0.0, 2023-09-26 15:41:48.905
230.0, 12615.033997897388, 37171.68863674267, -44540.164713879196, -45940.657966215374, -24713.385070965895, -26199.731373754905, -187500.02235174447, 4137.285546932882, -12606.339169304272, -34074.76503548206, -45248.983234045896, -41006.733895150894, -21040.88169823667, -25176.870843991142, -48211.21522321883, -33124.70413740923, -0.014, 1.014, -0.01, 192.0, 0.0, 0.0, 0.0, 0.0, 0.0, 0.0, 0.0, 0.0, 0.0, 1.695760908905095E9, 0.0, 2023-09-26 15:41:48.905
232.0, 12614.49755603046, 37184.45148282665, -44554.62629254178, -45948.682242474824, -24716.491963445184, -26203.665280779038, -187500.02235174447, 4192.404948759669, -12615.928067675599, -34070.11587263535, -45250.74902185786, -41003.60465092715, -21033.751491755425, -25173.7415997674, -48214.61268837604, -33122.35720424142, -0.018, 1.014, -0.008, 192.0, 127.5, 40.0, 15.5, 88.0, 127.5, 104.0, 0.0, 0.0, 0.0, 1.695760908905105E9, 0.0, 2023-09-26 15:41:48.905
234.0, 12622.410073567638, 37178.95295369065, -44539.13653363425, -45937.41696326935, -24707.17128600732, -26201.497161566873, -187500.02235174447, 4128.814235784321, -12636.379913852206, -34078.69894250619, -45261.209638262946, -41011.71833416443, -21047.386055873165, -25166.74550375289, -48221.49702566827, -33130.11325956741, -0.018, 1.014, -0.008, 192.0, 0.0, 0.0, 0.0, 0.0, 0.0, 0.0, 0.0, 0.0, 0.0, 1.695760908905115E9, 0.0, 2023-09-26 15:41:48.905
236.0, 12627.148643392164, 37190.821729996416, -44540.90232144622, -45936.16526557985, -24710.613454653438, -26189.829550961203, -187500.02235174447, 4164.77819261291, -12587.317834772806, -34064.37147431034, -45231.9288530265, -40991.69117113247, -21036.97014295699, -25165.270288618838, -48206.2307842053, -33111.874236091884, -0.018, 1.014, -0.008, 192.0, 0.0, 0.0, 0.0, 0.0, 0.0, 0.0, 0.0, 0.0, 0.0, 1.695760908905125E9, 0.0, 2023-09-26 15:41:48.905
238.0, 12626.54514629187, 37181.38929383628, -44540.09765864583, -45934.84651265699, -24714.055623299555, -26195.439838819486, -187500.02235174447, 4119.33709613527, -12612.731768218491, -34065.019674899544, -45242.90355955405, -40999.335467736186, -21022.620323016683, -25167.03607643081, -48216.11025525454, -33117.6186344169, -0.018, 1.014, -0.008, 192.0, 0.0, 0.0, 0.0, 0.0, 0.0, 0.0, 0.0, 0.0, 0.0, 1.695760908905134E9, 0.0, 2023-09-26 15:41:48.905
240.0, 12634.79293999588, 37194.286250386984, -44539.00242316752, -45938.91453014786, -24713.60858841045, -26197.98793768739, -187500.02235174447, 4157.782096598398, -12603.656959969636, -34078.87775646183, -45237.159161229036, -40997.05558980174, -21043.765073271403, -25170.299431121282, -48217.384304688494, -33117.0151373166, -0.018, 1.014, -0.008, 192.0, 0.0, 0.0, 0.0, 0.0, 0.0, 0.0, 0.0, 0.0, 0.0, 1.695760908966364E9, 0.0, 2023-09-26 15:41:48.966
242.0, 12620.06314039983, 37180.91990720271, -44550.848847728834, -45946.804695940584, -24713.27331224362, -26204.961681957448, -187500.02235174447, 4129.998878240452, -12627.305105603351, -34067.545422022995, -45245.116382255124, -41001.68240090399, -21026.10719515171, -25173.674544534035, -48218.94892680037, -33125.95583509873, -0.013999999999999999, 1.0110000000000001, -0.006, 192.0, 127.5, 88.0, 15.5, 64.0, 127.5, 112.0, 0.0, 0.0, 0.0, 1.695760908966421E9, 0.0, 2023-09-26 15:41:48.966
