%OpenBCI Raw EXG Data
%Number of channels = 16
%Sample Rate = 125 Hz
%Board = OpenBCI_GUI$BoardCytonSerialDaisy
Sample Index, EXG Channel 0, EXG Channel 1, EXG Channel 2, EXG Channel 3, EXG Channel 4, EXG Channel 5, EXG Channel 6, EXG Channel 7, EXG Channel 8, EXG Channel 9, EXG Channel 10, EXG Channel 11, EXG Channel 12, EXG Channel 13, EXG Channel 14, EXG Channel 15, Accel Channel 0, Accel Channel 1, Accel Channel 2, Other, Other, Other, Other, Other, Other, Other, Analog Channel 0, Analog Channel 1, Analog Channel 2, Timestamp, Other, Timestamp (Formatted)
0.0, 12558.215863491996, 37125.085249553355, -44487.39224522022, -45864.05853796704, -24647.670942267294, -26219.55737108676, -187500.02235174447, 4616.48459631021, 0.0, 0.0, 0.0, 0.0, 0.0, 0.0, 0.0, 0.0, 0.0, 0.0, 0.0, 192.0, 0.0, 0.0, 0.0, 0.0, 0.0, 0.0, 0.0, 0.0, 0.0, 1.695760922363518E9, 0.0, 2023-09-26 15:42:02.363
224.0, 12553.745514600936, 37107.740295856034, -44472.483631668525, -45853.86614249541, -24638.55143052953, -26199.954891199457, -187500.02235174447, 4528.195205711747, -12602.20409658004, -33997.51740664452, -45181.07863439067, -40969.272371443796, -21011.578561255763, -25101.500761687847, -48058.910436500366, -33040.281598601534, 0.0, 0.0, 0.0, 192.0, 0.0, 0.0, 0.0, 0.0, 0.0, 0.0, 0.0, 0.0, 0.0, 1.695760922363536E9, 0.0, 2023-09-26 15:42:02.363
226.0, 12568.967052574999, 37136.35052875883, -44478.76447186047, -45851.54156107206, -24644.966381188202, -26203.19589414548, -187500.02235174447, 4595.049273377571, -12599.700701201047, -33989.73899957407, -45175.06601513219, -40955.079013714676, -21015.40070955762, -25097.432744196984, -48061.05620396807, -33039.72280499015, 0.0, 0.0, 0.0, 192.0, 0.0, 0.0, 0.0, 0.0, 0.0, 0.0, 0.0, 0.0, 0.0, 1.695760922363546E9, 0.0, 2023-09-26 15:42:02.363
228.0, 12561.993308304944, 37116.61393840479, -44484.84414635231, -45848.859351737425, -24652.856546980925, -26212.76244077235, -187500.02235174447, 4523.993077754149, -12608.619047238713, -33980.708894814125, -45177.14472736654, -40951.97212123539, -21005.990625141934, -25108.25098851335, -48076.50125938669, -33047.81413648297, -0.012, 1.016, -0.026000000000000002, 192.0, 127.5, 80.0, 15.5, 96.0, 127.5, 24.0, 0.0, 0.0, 0.0, 1.695760922363555E9, 0.0, 2023-09-26 15:42:02.363
230.0, 12583.406279493127, 37139.278607282475, -44474.51764041396, -45853.28499713958, -24652.49891906964, -26214.327062884222, -187500.02235174447, 4603.498232781677, -12604.729843703491, -33995.662211854724, -45177.54705876673, -40951.34627239064, -21020.608666015705, -25114.01773858282, -48078.982303021236, -33053.73734876363, -0.012, 1.016, -0.026000000000000002, 192.0, 0.0, 0.0, 0.0, 0.0, 0.0, 0.0, 0.0, 0.0, 0.0, 1.695760922363565E9, 0.0, 2023-09-26 15:42:02.363
232.0, 12569.659956653113, 37118.62559540577, -44477.49042242652, -45858.40354661984, -24655.20348014873, -26218.015100719345, -187500.02235174447, 4522.920194020295, -12578.555950946326, -33986.07331348339, -45163.55486673771, -40952.75443229132, -21018.64171250364, -25110.44145946997, -48072.41089015137, -33051.412767340276, -0.012, 1.016, -0.026000000000000002, 192.0, 0.0, 0.0, 0.0, 0.0, 0.0, 0.0, 0.0, 0.0, 0.0, 1.695760922363574E9, 0.0, 2023-09-26 15:42:02.363
234.0, 12575.382003233672, 37135.88114212527, -44492.64490516722, -45871.52402061511, -24661.73018952968, -26228.85569678017, -187500.02235174447, 4588.164936085336, -12595.610331965725, -33992.55531937544, -45174.97660815437, -40956.10719395962, -21017.43471830305, -25123.8301543987, -48078.08823324302, -33055.97252320916, -0.012, 1.016, -0.026000000000000002, 192.0, 0.0, 0.0, 0.0, 0.0, 0.0, 0.0, 0.0, 0.0, 0.0, 1.695760922363583E9, 0.0, 2023-09-26 15:42:02.363
236.0, 12558.618194892191, 37119.34085122834, -44502.01028609399, -45877.76015731814, -24662.870128496903, -26232.76725205985, -187500.02235174447, 4519.187452696258, -12612.977637407499, -33997.38329617778, -45187.91826819399, -40969.80881331072, -21012.629093245163, -25130.110994590643, -48088.191221736815, -33068.333037892946, -0.012, 1.016, -0.026000000000000002, 192.0, 0.0, 0.0, 0.0, 0.0, 0.0, 0.0, 0.0, 0.0, 0.0, 1.695760922363612E9, 0.0, 2023-09-26 15:42:02.363
238.0, 12567.313023485307, 37138.384537504266, -44490.9014690997, -45875.301465428056, -24664.524157586595, -26233.14723171559, -187500.02235174447, 4579.581866214498, -12639.375047609217, -34003.46297066963, -45191.785119984765, -40970.032330755275, -21041.48519533696, -25129.418090512525, -48092.08042527204, -33071.52933735005, -0.016, 1.016, -0.026000000000000002, 192.0, 127.5, 64.0, 15.5, 96.0, 127.5, 24.0, 0.0, 0.0, 0.0, 1.695760922363621E9, 0.0, 2023-09-26 15:42:02.363
0.0, 6301.157927651158, 18567.325898090112, -22201.116049422748, -22878.016278507268, -12296.164011497976, -13111.622704460944, -93750.01117587223, 2374.0905373204396, -6287.456308300056, -16999.820411183886, -22584.962556953735, -20485.932586900304, -10509.298504507364, -12561.792142604845, -24044.218545462914, -16535.664085824978, -0.024, 1.02, -0.026000000000000002, 192.0, 127.5, 32.0, 15.5, 112.0, 127.5, 24.0, 0.0, 0.0, 0.0, 1.695760922533651E9, 0.0, 2023-09-26 15:42:02.533
2.0, 12604.551029747849, 37142.988996862056, -44420.5828810433, -45769.71182462118, -24602.38630800084, -26235.62827535013, -187500.02235174447, 4820.578374931619, -12534.321848669273, -33883.45645468908, -45092.588078092114, -40856.59722764459, -20976.307508505288, -25041.95571445891, -47960.69687136375, -32970.70061811216, -0.024, 1.02, -0.026000000000000002, 192.0, 0.0, 0.0, 0.0, 0.0, 0.0, 0.0, 0.0, 0.0, 0.0, 1.695760922533729E9, 0.0, 2023-09-26 15:42:02.533
4.0, 12596.079718599287, 37125.375822231275, -44414.70437225156, -45757.61953087086, -24589.288185750032, -26219.80324027577, -187500.02235174447, 4730.053809887625, -12537.786369059846, -33883.63526864473, -45096.276115927234, -40864.330931226126, -20951.765293093362, -25032.411519576493, -47965.54719991055, -32972.265240224035, -0.024, 1.02, -0.026000000000000002, 192.0, 0.0, 0.0, 0.0, 0.0, 0.0, 0.0, 0.0, 0.0, 0.0, 1.695760922533742E9, 0.0, 2023-09-26 15:42:02.533
6.0, 12602.226448324496, 37138.80922064892, -44407.752979725956, -45761.30756870599, -24581.599185657407, -26222.574856588228, -187500.02235174447, 4775.6290168319965, -12528.53274685535, -33875.365123196265, -45089.03415072372, -40856.485468922314, -20981.649575430107, -25028.589371274637, -47951.77852532608, -32963.257487208546, -0.024, 1.02, -0.026000000000000002, 192.0, 0.0, 0.0, 0.0, 0.0, 0.0, 0.0, 0.0, 0.0, 0.0, 1.695760922533755E9, 0.0, 2023-09-26 15:42:02.533
8.0, 12582.109878314719, 37117.15038027172, -44419.06296242034, -45773.377510711856, -24595.680784664248, -26239.808051563272, -187500.02235174447, 4719.704952204818, -12577.01368057891, -33877.734408108525, -45104.5462613757, -40869.11420453957, -20985.15879930959, -25034.7584527443, -47959.31106320752, -32973.65104838026, -0.024, 1.012, -0.03, 192.0, 127.5, 32.0, 15.5, 80.0, 127.5, 8.0, 0.0, 0.0, 0.0, 1.695760922533768E9, 0.0, 2023-09-26 15:42:02.533
10.0, 12594.8727243987, 37134.83061013587, -44411.038686160886, -45764.99560654111, -24591.00927007309, -26233.14723171559, -187500.02235174447, 4784.256790191745, -12542.122607484176, -33887.7479896245, -45103.629839853034, -40867.5942859166, -20999.48626750544, -25048.549479073226, -47964.36255745442, -32977.04851353747, -0.024, 1.012, -0.03, 192.0, 0.0, 0.0, 0.0, 0.0, 0.0, 0.0, 0.0, 0.0, 0.0, 1.695760922533782E9, 0.0, 2023-09-26 15:42:02.533
12.0, 12585.842619638755, 37119.698479139624, -44406.45657854755, -45768.035443787034, -24588.63998516083, -26229.66035958056, -187500.02235174447, 4702.6058676965085, -12527.48221486595, -33884.48463493403, -45093.1915751924, -40870.7458818848, -20968.171473523555, -25045.397883105026, -47956.87472306189, -32973.27106872453, -0.024, 1.012, -0.03, 192.0, 0.0, 0.0, 0.0, 0.0, 0.0, 0.0, 0.0, 0.0, 0.0, 1.695760922533797E9, 0.0, 2023-09-26 15:42:02.533
14.0, 12589.664767940614, 37135.63527293626, -44421.454599077064, -45778.92074333677, -24595.56902594197, -26235.76238581686, -187500.02235174447, 4771.85157201905, -12531.9078602681, -33884.50698667848, -45100.478243884834, -40870.7458818848, -20964.48343568843, -25045.73315927186, -47960.85333357493, -32975.550946658965, -0.024, 1.012, -0.03, 192.0, 0.0, 0.0, 0.0, 0.0, 0.0, 0.0, 0.0, 0.0, 0.0, 1.695760922533812E9, 0.0, 2023-09-26 15:42:02.533
16.0, 12578.399488735138, 37119.497313439526, -44409.65287800466, -45768.460126931684, -24591.053973562, -26232.856659037672, -187500.02235174447, 4719.235565571256, -12551.018601777389, -33894.11823679427, -45113.64342136901, -40880.22302153385, -20969.937261335526, -25049.82352850718, -47964.76488885461, -32980.04364729448, -0.024, 1.012, -0.03, 192.0, 0.0, 0.0, 0.0, 0.0, 0.0, 0.0, 0.0, 0.0, 0.0, 1.695760922594015E9, 0.0, 2023-09-26 15:42:02.594
18.0, 12586.714337672513, 37134.383575246764, -44400.95804941154, -45767.901333320304, -24584.750781625604, -26229.190972947, -187500.02235174447, 4757.345289867555, -12537.67461033757, -33894.67703040565, -45097.70662757238, -40872.80224237469, -20975.68165966054, -25041.486327825347, -47953.544313138045, -32969.113644255835, -0.022, 1.012, -0.026000000000000002, 192.0, 127.5, 40.0, 15.5, 80.0, 127.5, 24.0, 0.0, 0.0, 0.0, 1.695760922594079E9, 0.0, 2023-09-26 15:42:02.594
20.0, 12568.564721174804, 37111.56244415789, -44410.12226463822, -45774.91978107927, -24588.215302016175, -26240.076272496735, -187500.02235174447, 4703.812861897095, -12533.651296335614, -33891.59248967082, -45102.62401135254, -40877.38434998803, -20960.30365947529, -25047.72246452838, -47957.07588876199, -32974.14278675828, -0.022, 1.012, -0.026000000000000002, 192.0, 0.0, 0.0, 0.0, 0.0, 0.0, 0.0, 0.0, 0.0, 0.0, 1.695760922594089E9, 0.0, 2023-09-26 15:42:02.594
22.0, 12573.236235765962, 37123.699441397126, -44405.584860513794, -45771.14233626632, -24578.313479222477, -26231.940237515002, -187500.02235174447, 4736.17818786838, -12553.410238434106, -33910.725582924555, -45115.990354536814, -40887.73320767083, -20957.62145014065, -25054.226822164874, -47958.998138785144, -32977.40614144876, -0.022, 1.012, -0.026000000000000002, 192.0, 0.0, 0.0, 0.0, 0.0, 0.0, 0.0, 0.0, 0.0, 0.0, 1.695760922594098E9, 0.0, 2023-09-26 15:42:02.594
24.0, 12569.056459552821, 37113.50704592551, -44410.09991289376, -45781.22297301567, -24589.131723538845, -26244.01017952087, -187500.02235174447, 4701.398873495922, -12551.599747133227, -33895.39228622822, -45113.03992426872, -40882.70406516839, -20963.030572298834, -25050.87406049658, -47960.22748473019, -32980.75890311705, -0.022, 1.012, -0.026000000000000002, 192.0, 0.0, 0.0, 0.0, 0.0, 0.0, 0.0, 0.0, 0.0, 0.0, 1.695760922594107E9, 0.0, 2023-09-26 15:42:02.594
26.0, 12577.10308755673, 37120.81606636239, -44412.67036350613, -45772.77401361156, -24591.23278751764, -26240.031569007824, -187500.02235174447, 4739.016859414203, -12553.700811112025, -33911.26202479148, -45113.86693881356, -40884.51455646927, -20989.986776111935, -25073.42697065198, -47966.3742144554, -32979.57426066092, -0.022, 1.012, -0.026000000000000002, 192.0, 0.0, 0.0, 0.0, 0.0, 0.0, 0.0, 0.0, 0.0, 0.0, 1.695760922594116E9, 0.0, 2023-09-26 15:42:02.594
28.0, 12569.324680486285, 37109.148455756724, -44408.64704950417, -45775.14329852382, -24586.270700248566, -26244.390159176608, -187500.02235174447, 4712.015952112192, -12568.609424663715, -33906.16582705567, -45114.06810451366, -40885.0509983362, -20974.988755582424, -25058.585412333658, -47966.73184236668, -32978.61313564934, -0.016, 1.01, -0.032, 192.0, 127.5, 64.0, 15.5, 72.0, 127.5, 0.0, 0.0, 0.0, 0.0, 1.695760922594126E9, 0.0, 2023-09-26 15:42:02.594
30.0, 12572.990366576954, 37110.9589470576, -44403.282630834896, -45776.17147876877, -24589.802275872502, -26241.95381903098, -187500.02235174447, 4738.212196613812, -12551.19741573303, -33907.81985614537, -45109.24012771132, -40885.81095764768, -20969.043191557314, -25053.645676809036, -47960.741574852655, -32979.10487402736, -0.016, 1.01, -0.032, 192.0, 0.0, 0.0, 0.0, 0.0, 0.0, 0.0, 0.0, 0.0, 0.0, 1.695760922653322E9, 0.0, 2023-09-26 15:42:02.653
32.0, 12583.965073104511, 37122.69361289664, -44395.9289069091, -45763.58744664043, -24583.990822314125, -26243.22786846493, -187500.02235174447, 4750.46095257532, -12538.658087093603, -33910.792638157924, -45107.51904338825, -40878.21136453287, -20978.542682950818, -25065.156825203518, -47961.948569053246, -32979.50720542755, -0.016, 1.01, -0.032, 192.0, 0.0, 0.0, 0.0, 0.0, 0.0, 0.0, 0.0, 0.0, 0.0, 1.695760922653363E9, 0.0, 2023-09-26 15:42:02.653
34.0, 12581.931064359078, 37125.55463618692, -44395.59363074227, -45763.60979838488, -24586.09188629292, -26239.316313185253, -187500.02235174447, 4747.778743240684, -12533.405427146607, -33892.352448982296, -45095.91848801595, -40865.2473527488, -20962.941165321015, -25053.15393843102, -47956.695909106245, -32978.2331559936, -0.016, 1.01, -0.032, 192.0, 0.0, 0.0, 0.0, 0.0, 0.0, 0.0, 0.0, 0.0, 0.0, 1.695760922653374E9, 0.0, 2023-09-26 15:42:02.653
36.0, 12585.842619638755, 37128.013328077, -44402.6791337346, -45762.82748732895, -24583.968470569667, -26235.04712999429, -187500.02235174447, 4744.5824437835745, -12553.566700645293, -33893.62649841625, -45105.35092417609, -40864.71091088187, -20961.309487975777, -25054.09271169814, -47961.456830675226, -32974.05337978046, -0.016, 1.01, -0.032, 192.0, 0.0, 0.0, 0.0, 0.0, 0.0, 0.0, 0.0, 0.0, 0.0, 1.695760922653385E9, 0.0, 2023-09-26 15:42:02.653
38.0, 12580.187628291564, 37120.63725240675, -44398.812281943836, -45766.82844958645, -24586.270700248566, -26236.43293815052, -187500.02235174447, 4720.464911516298, -12540.848558050224, -33898.342716496314, -45102.378142163536, -40869.67299815095, -20961.644764142606, -25056.05966521021, -47964.943702810255, -32976.22149899262, -0.02, 1.012, -0.03, 192.0, 127.5, 48.0, 15.5, 80.0, 127.5, 8.0, 0.0, 0.0, 0.0, 1.695760922653395E9, 0.0, 2023-09-26 15:42:02.653
40.0, 12587.519000472905, 37133.288339768456, -44408.244718103975, -45767.051967031, -24588.05883980499, -26240.456252152475, -187500.02235174447, 4764.60960681553, -12546.280031952863, -33904.914129366174, -45101.48407238532, -40864.71091088187, -20980.06260157378, -25070.029505494775, -47966.19540049975, -32975.975629803615, -0.02, 1.012, -0.03, 192.0, 0.0, 0.0, 0.0, 0.0, 0.0, 0.0, 0.0, 0.0, 0.0, 1.695760922653454E9, 0.0, 2023-09-26 15:42:02.653
42.0, 12577.10308755673, 37117.64211864974, -44399.30402032185, -45756.68075760374, -24580.414543201274, -26228.341606657697, -187500.02235174447, 4714.005257368714, -12565.055497295321, -33903.34950725431, -45107.474339899345, -40868.80128011719, -20959.074313530247, -25055.52322334328, -47963.0214527871, -32974.12043501383, -0.02, 1.012, -0.03, 192.0, 0.0, 0.0, 0.0, 0.0, 0.0, 0.0, 0.0, 0.0, 0.0, 1.695760922653465E9, 0.0, 2023-09-26 15:42:02.653
44.0, 12584.479163226983, 37127.23101702106, -44404.62373550222, -45766.806097841996, -24586.516569437572, -26239.53983062981, -187500.02235174447, 4779.674682578407, -12530.05266547831, -33908.53511196794, -45100.99233400731, -40868.8459836061, -20977.29098526132, -25057.266659410794, -47954.30427244953, -32969.5830308894, -0.02, 1.012, -0.03, 192.0, 0.0, 0.0, 0.0, 0.0, 0.0, 0.0, 0.0, 0.0, 0.0, 1.695760922653475E9, 0.0, 2023-09-26 15:42:02.653
46.0, 12571.358689231718, 37111.026002290964, -44399.21461334403, -45756.61370237037, -24585.130761281343, -26236.00825500587, -187500.02235174447, 4726.723399963785, -12545.140092985643, -33902.99187934302, -45111.74352309031, -40877.58551568812, -20962.09179903171, -25051.745778530334, -47965.077813276985, -32973.82986233591, -0.02, 1.012, -0.03, 192.0, 0.0, 0.0, 0.0, 0.0, 0.0, 0.0, 0.0, 0.0, 0.0, 1.695760922713101E9, 0.0, 2023-09-26 15:42:02.713
48.0, 12583.786259148868, 37129.44383972214, -44390.8774126622, -45756.74781283711, -24576.3018222215, -26230.822650292237, -187500.02235174447, 4774.533781353686, -12548.559909887304, -33906.322289266864, -45107.38493292152, -40867.10254753859, -20975.68165966054, -25047.18602266145, -47958.6181591294, -32970.81237683444, -0.02, 1.016, -0.03, 192.0, 127.5, 48.0, 15.5, 96.0, 127.5, 8.0, 0.0, 0.0, 0.0, 1.695760922713121E9, 0.0, 2023-09-26 15:42:02.713
50.0, 12569.458790953016, 37109.4613801791, -44396.30888656484, -45759.83235357194, -24590.361069483886, -26238.0422637513, -187500.02235174447, 4730.41143779891, -12549.252813965419, -33907.50693172299, -45101.50642412978, -40871.03645456272, -20964.841063599713, -25055.38911287655, -47959.8698568189, -32976.02033329252, -0.02, 1.016, -0.03, 192.0, 0.0, 0.0, 0.0, 0.0, 0.0, 0.0, 0.0, 0.0, 0.0, 1.69576092271313E9, 0.0, 2023-09-26 15:42:02.713
52.0, 12580.791125391857, 37126.560464687405, -44397.29236332088, -45760.12292624985, -24587.678860149248, -26239.450423651986, -187500.02235174447, 4817.918517341437, -12552.605575633714, -33915.486504493536, -45106.04382825421, -40875.68561740943, -20966.584499667228, -25064.530976358772, -47964.451964432235, -32975.79681584797, -0.02, 1.016, -0.03, 192.0, 0.0, 0.0, 0.0, 0.0, 0.0, 0.0, 0.0, 0.0, 0.0, 1.695760922713141E9, 0.0, 2023-09-26 15:42:02.713
54.0, 12567.894168841145, 37105.14749349922, -44389.89393590617, -45743.917911519755, -24577.017078044068, -26230.845002036694, -187500.02235174447, 4719.83906267155, -12549.521034898882, -33914.078344592854, -45106.2449939543, -40876.02089357626, -20945.48445290142, -25057.043141966242, -47955.35480443893, -32968.39838843327, -0.02, 1.016, -0.03, 192.0, 0.0, 0.0, 0.0, 0.0, 0.0, 0.0, 0.0, 0.0, 0.0, 1.69576092271315E9, 0.0, 2023-09-26 15:42:02.713
56.0, 12580.969939347498, 37127.83451412136, -44389.26808706142, -45760.61466462787, -24580.01221180108, -26243.943124287503, -187500.02235174447, 4806.183851502401, -12567.760058374413, -33908.31159452338, -45104.00981950877, -40864.71091088187, -20972.753581136894, -25058.585412333658, -47942.860179288415, -32964.91151629824, -0.02, 1.016, -0.03, 192.0, 0.0, 0.0, 0.0, 0.0, 0.0, 0.0, 0.0, 0.0, 0.0, 1.695760922713159E9, 0.0, 2023-09-26 15:42:02.713
58.0, 12567.693003141047, 37104.454589421104, -44389.67041846162, -45756.61370237037, -24577.017078044068, -26238.645760851596, -187500.02235174447, 4715.88280390296, -12536.847595792724, -33912.893702136724, -45102.512252630266, -40879.46306222237, -20963.05292404329, -25067.90608977152, -47952.62789161538, -32979.0825222829, -0.02, 1.008, -0.026000000000000002, 192.0, 127.5, 48.0, 15.5, 64.0, 127.5, 24.0, 0.0, 0.0, 0.0, 1.695760922713168E9, 0.0, 2023-09-26 15:42:02.713
60.0, 12569.525846186381, 37119.34085122834, -44403.5285000239, -45773.31045547849, -24590.562235183985, -26250.76040634637, -187500.02235174447, 4802.540517156186, -12562.842674594245, -33921.43206851865, -45114.42573242495, -40879.5971726891, -20972.217139269967, -25071.19179620645, -47963.334377209474, -32983.55287117397, -0.02, 1.008, -0.026000000000000002, 192.0, 0.0, 0.0, 0.0, 0.0, 0.0, 0.0, 0.0, 0.0, 0.0, 1.695760922773445E9, 0.0, 2023-09-26 15:42:02.773
62.0, 12564.384944961661, 37104.83456907685, -44390.229212073, -45750.80224881199, -24579.47576993415, -26236.522345128342, -187500.02235174447, 4730.210272098812, -12539.954488272011, -33908.8033329014, -45106.62497361004, -40881.0500360787, -20954.849833828193, -25059.85946176761, -47964.183743498776, -32979.41779844974, -0.02, 1.008, -0.026000000000000002, 192.0, 0.0, 0.0, 0.0, 0.0, 0.0, 0.0, 0.0, 0.0, 0.0, 1.695760922773498E9, 0.0, 2023-09-26 15:42:02.773
64.0, 12577.751288145935, 37124.10177279732, -44389.87158416171, -45749.05881274448, -24581.01804030157, -26240.970342274948, -187500.02235174447, 4787.7213105823175, -12534.031275991354, -33916.00059461601, -45097.39370315, -40864.21917250385, -20962.29296473181, -25055.43381636546, -47954.34897593844, -32969.33716170039, -0.02, 1.008, -0.026000000000000002, 192.0, 0.0, 0.0, 0.0, 0.0, 0.0, 0.0, 0.0, 0.0, 0.0, 1.695760922773508E9, 0.0, 2023-09-26 15:42:02.773
66.0, 12563.088543783253, 37102.28647020894, -44406.36717156973, -45765.532048408044, -24587.72356363816, -26250.134557501624, -187500.02235174447, 4743.397801327444, -12558.573491403282, -33910.50206548, -45112.21290972387, -40870.99175107381, -20961.622412398152, -25062.58637459116, -47968.072947034, -32985.36336247485, -0.02, 1.008, -0.026000000000000002, 192.0, 0.0, 0.0, 0.0, 0.0, 0.0, 0.0, 0.0, 0.0, 0.0, 1.695760922773518E9, 0.0, 2023-09-26 15:42:02.773
68.0, 12576.253721267429, 37121.933653585154, -44389.33514229478, -45769.42125194326, -24589.645813661315, -26254.53785115932, -187500.02235174447, 4820.779540631716, -12547.822302320279, -33924.82953367585, -45111.944688790405, -40880.24537327831, -20961.10832227568, -25064.374514147585, -47970.12930752389, -32989.319621243434, -0.024, 1.01, -0.032, 192.0, 127.5, 32.0, 15.5, 72.0, 127.5, 0.0, 0.0, 0.0, 0.0, 1.695760922773527E9, 0.0, 2023-09-26 15:42:02.773
70.0, 12565.636642651158, 37106.46624642208, -44401.40508430065, -45753.03742325753, -24587.835322360435, -26245.73126384393, -187500.02235174447, 4756.428868344888, -12549.453979665515, -33913.877178892755, -45107.72020908835, -40876.55733544318, -20948.904269803083, -25067.92844151598, -47970.10695577943, -32985.92215608623, -0.024, 1.01, -0.032, 192.0, 0.0, 0.0, 0.0, 0.0, 0.0, 0.0, 0.0, 0.0, 0.0, 1.695760922773536E9, 0.0, 2023-09-26 15:42:02.773
72.0, 12571.96218633201, 37122.425391963174, -44390.45272951755, -45760.86053381688, -24588.684688649737, -26247.564106889262, -187500.02235174447, 4791.968142028826, -12551.44328492204, -33903.32715550985, -45102.53460437472, -40870.0976812956, -20959.275479230342, -25058.764226289302, -47962.32854870898, -32980.378923461314, -0.024, 1.01, -0.032, 192.0, 0.0, 0.0, 0.0, 0.0, 0.0, 0.0, 0.0, 0.0, 0.0, 1.695760922773545E9, 0.0, 2023-09-26 15:42:02.773
74.0, 12574.309119499818, 37119.005575061514, -44385.69180794857, -45750.3999174118, -24581.91211007978, -26243.585496376218, -187500.02235174447, 4762.150914925446, -12554.550177401326, -33919.80039117341, -45104.948592775894, -40876.490280209815, -20982.521293463862, -25067.816682793702, -47961.948569053246, -32984.37988571881, -0.024, 1.01, -0.032, 192.0, 0.0, 0.0, 0.0, 0.0, 0.0, 0.0, 0.0, 0.0, 0.0, 1.695760922773554E9, 0.0, 2023-09-26 15:42:02.773
76.0, 12572.073945054288, 37120.749011129024, -44384.753034681446, -45754.80321106949, -24587.410639215785, -26244.770138832348, -187500.02235174447, 4773.3267871531, -12545.117741241187, -33893.33592573833, -45093.906831014974, -40869.58359117313, -20960.080142030733, -25053.511566342302, -47951.13032473688, -32975.72976061461, -0.024, 1.01, -0.032, 192.0, 0.0, 0.0, 0.0, 0.0, 0.0, 0.0, 0.0, 0.0, 0.0, 1.695760922833584E9, 0.0, 2023-09-26 15:42:02.833
78.0, 12572.565683432304, 37113.93172907016, -44388.664589961125, -45756.501943648094, -24587.29888049351, -26252.123862758144, -187500.02235174447, 4778.110060466535, -12551.331526199761, -33908.46805673457, -45105.395627665, -40876.95966684338, -20966.942127578513, -25068.040200238254, -47965.994234799655, -32986.883281097806, -0.022, 1.012, -0.034, 192.0, 127.5, 40.0, 15.5, 80.0, 127.0, 120.0, 0.0, 0.0, 0.0, 1.695760922833603E9, 0.0, 2023-09-26 15:42:02.833
80.0, 12575.113782300208, 37117.195083760635, -44388.73164519449, -45749.9975860116, -24583.208511258188, -26244.47956615443, -187500.02235174447, 4769.079955706591, -12539.283935938352, -33911.23967304703, -45094.4432728819, -40878.300771510694, -20942.42226391104, -25051.92459248598, -47962.06032777552, -32982.45763569565, -0.022, 1.012, -0.034, 192.0, 0.0, 0.0, 0.0, 0.0, 0.0, 0.0, 0.0, 0.0, 0.0, 1.695760922833612E9, 0.0, 2023-09-26 15:42:02.833
82.0, 12580.947587603045, 37122.13481928525, -44381.91436313562, -45750.17639996725, -24580.638060645826, -26248.927563301037, -187500.02235174447, 4783.094499480069, -12556.427723935572, -33903.34950725431, -45098.69010432841, -40872.10933829658, -20955.58744139522, -25058.406598378016, -47959.60163588544, -32978.72489437162, -0.022, 1.012, -0.034, 192.0, 0.0, 0.0, 0.0, 0.0, 0.0, 0.0, 0.0, 0.0, 0.0, 1.69576092283365E9, 0.0, 2023-09-26 15:42:02.833
84.0, 12586.82609639479, 37124.12412454178, -44361.261351258916, -45737.23473992762, -24577.128836766344, -26238.444595151497, -187500.02235174447, 4765.481324849287, -12528.331581155251, -33900.98022234204, -45085.97196173334, -40871.90817259648, -20958.49316817441, -25046.20254590542, -47950.66093810331, -32968.487795411085, -0.022, 1.012, -0.034, 192.0, 0.0, 0.0, 0.0, 0.0, 0.0, 0.0, 0.0, 0.0, 0.0, 1.695760922833659E9, 0.0, 2023-09-26 15:42:02.833
86.0, 12589.553009218336, 37127.029851320964, -44364.614112927215, -45737.502960861086, -24579.54282516752, -26241.3950254196, -187500.02235174447, 4781.75339481275, -12525.492909609427, -33893.42533271615, -45076.852449995575, -40858.89945732349, -20945.372694179143, -25057.780749533267, -47945.944720023246, -32959.56944937342, -0.022, 1.012, -0.034, 192.0, 0.0, 0.0, 0.0, 0.0, 0.0, 0.0, 0.0, 0.0, 0.0, 1.695760922833668E9, 0.0, 2023-09-26 15:42:02.833
88.0, 12572.431572965572, 37111.56244415789, -44379.232153800986, -45750.91400753427, -24586.002479315102, -26250.58159239073, -187500.02235174447, 4753.74665901025, -12548.828130820768, -33917.69932719461, -45096.76785430525, -40877.02672207674, -20946.400874424085, -25067.77197930479, -47961.590941141956, -32973.807510591454, -0.018000000000000002, 1.01, -0.028, 192.0, 127.5, 56.0, 15.5, 72.0, 127.5, 16.0, 0.0, 0.0, 0.0, 1.695760922833677E9, 0.0, 2023-09-26 15:42:02.833
90.0, 12588.234256295475, 37121.62072916278, -44368.25744727343, -45748.43296389973, -24582.67206939126, -26253.442615681008, -187500.02235174447, 4798.271333965223, -12557.67942162507, -33893.82766411635, -45091.22462168034, -40867.7954516167, -20957.129711762635, -25052.70690354191, -47958.32758645149, -32975.975629803615, -0.018000000000000002, 1.01, -0.028, 192.0, 0.0, 0.0, 0.0, 0.0, 0.0, 0.0, 0.0, 0.0, 0.0, 1.69576092289408E9, 0.0, 2023-09-26 15:42:02.894
92.0, 12575.002023577932, 37106.06391502189, -44372.25840953093, -45737.32414690544, -24580.548653668007, -26235.069481738745, -187500.02235174447, 4738.07808614708, -12565.770753117891, -33903.394210743216, -45089.83881352411, -40871.41643421846, -20955.676848373038, -25058.00426697782, -47953.49960964914, -32966.69965585466, -0.018000000000000002, 1.01, -0.028, 192.0, 0.0, 0.0, 0.0, 0.0, 0.0, 0.0, 0.0, 0.0, 0.0, 1.695760922894109E9, 0.0, 2023-09-26 15:42:02.894
94.0, 12591.83288715278, 37128.39330773274, -44367.29632226185, -45750.75754532308, -24582.113275779877, -26248.39112143411, -187500.02235174447, 4785.486136136787, -12541.228537705963, -33897.26983276246, -45086.10607220007, -40864.28622773722, -20938.197784208987, -25055.478519854372, -47956.405336428325, -32967.638429121784, -0.018000000000000002, 1.01, -0.028, 192.0, 0.0, 0.0, 0.0, 0.0, 0.0, 0.0, 0.0, 0.0, 0.0, 1.69576092289412E9, 0.0, 2023-09-26 15:42:02.894
96.0, 12578.24302652395, 37116.16690351569, -44368.950351351545, -45756.52429539255, -24587.991784571623, -26257.331819216233, -187500.02235174447, 4737.161664624413, -12517.513336838883, -33888.7985216139, -45077.29948488468, -40864.263875992765, -20948.18901398051, -25054.360932631607, -47958.01466202911, -32975.43918793669, -0.018000000000000002, 1.01, -0.028, 192.0, 0.0, 0.0, 0.0, 0.0, 0.0, 0.0, 0.0, 0.0, 0.0, 1.695760922894129E9, 0.0, 2023-09-26 15:42:02.894
98.0, 12586.960206861522, 37131.14257230074, -44375.7229299215, -45749.796420311504, -24588.01413631608, -26257.309467471776, -187500.02235174447, 4805.1556712574575, -12535.975877758967, -33902.678954920644, -45088.40830187897, -40867.057844049676, -20955.229813483933, -25069.649525839035, -47965.63660688837, -32981.34004847289, -0.016, 1.012, -0.03, 192.0, 127.5, 64.0, 15.5, 80.0, 127.5, 8.0, 0.0, 0.0, 0.0, 1.695760922894138E9, 0.0, 2023-09-26 15:42:02.894
100.0, 12569.794067119845, 37105.63923187724, -44377.84634564476, -45748.276501688546, -24591.053973562, -26250.87216506865, -187500.02235174447, 4738.949804180837, -12544.558947629805, -33905.60703344429, -45092.43161588092, -40876.28911450972, -20964.885767088625, -25073.87400554109, -47964.63077838788, -32977.13792051529, -0.016, 1.012, -0.03, 192.0, 0.0, 0.0, 0.0, 0.0, 0.0, 0.0, 0.0, 0.0, 0.0, 1.695760922894148E9, 0.0, 2023-09-26 15:42:02.894
102.0, 12584.412107993616, 37131.61195893431, -44375.85704038823, -45742.01801324106, -24587.500046193607, -26248.659342367573, -187500.02235174447, 4830.703715169873, -12544.111912740698, -33898.83445487433, -45093.906831014974, -40868.93539058392, -20965.265746744364, -25063.77101704729, -47968.49763017865, -32980.11070252785, -0.016, 1.012, -0.03, 192.0, 0.0, 0.0, 0.0, 0.0, 0.0, 0.0, 0.0, 0.0, 0.0, 1.695760922894157E9, 0.0, 2023-09-26 15:42:02.894
104.0, 12570.174046775586, 37110.422505190676, -44387.12231959371, -45742.1968271967, -24589.53405493904, -26245.86537431066, -187500.02235174447, 4754.596025299553, -12554.706639612514, -33899.415600230175, -45094.264458926256, -40868.8459836061, -20943.070464500244, -25053.869194253588, -47968.34116796746, -32974.232193736105, -0.016, 1.012, -0.03, 192.0, 0.0, 0.0, 0.0, 0.0, 0.0, 0.0, 0.0, 0.0, 0.0, 1.695760922894209E9, 0.0, 2023-09-26 15:42:02.894
106.0, 12587.317834772806, 37133.57891244637, -44379.00863635643, -45748.65648134428, -24595.792543386528, -26252.30267671379, -187500.02235174447, 4840.4937792412975, -12539.19452896053, -33900.01909733046, -45089.95057224639, -40861.51461142476, -20960.23660424192, -25057.803101277725, -47972.36448196942, -32980.46833043913, -0.016, 1.012, -0.03, 192.0, 0.0, 0.0, 0.0, 0.0, 0.0, 0.0, 0.0, 0.0, 0.0, 1.695760922953308E9, 0.0, 2023-09-26 15:42:02.953
108.0, 12572.833904365767, 37106.3097842109, -44373.420700242605, -45748.254149944085, -24585.66720314827, -26247.05001676679, -187500.02235174447, 4753.567845054608, -12551.800912833323, -33891.27956524844, -45090.17408969094, -40869.40477721748, -20968.394990968107, -25047.163670916998, -47963.35672895393, -32979.10487402736, -0.016, 1.014, -0.034, 192.0, 127.5, 64.0, 15.5, 88.0, 127.0, 120.0, 0.0, 0.0, 0.0, 1.695760922953329E9, 0.0, 2023-09-26 15:42:02.953
110.0, 12580.29938701384, 37125.28641525345, -44378.15927006713, -45750.15404822279, -24589.601110172407, -26249.419301679052, -187500.02235174447, 4831.553081459175, -12569.525846186381, -33898.23095777404, -45101.05938924067, -40871.75171038529, -20967.567976423263, -25060.686476312458, -47964.317853965505, -32978.18845250469, -0.016, 1.014, -0.034, 192.0, 0.0, 0.0, 0.0, 0.0, 0.0, 0.0, 0.0, 0.0, 0.0, 1.695760922953341E9, 0.0, 2023-09-26 15:42:02.953
112.0, 12575.49376195595, 37111.741258113536, -44375.655874688135, -45749.86347554487, -24588.19295027172, -26256.01306629337, -187500.02235174447, 4776.903066265949, -12537.451092893016, -33911.82081840287, -45087.603639078574, -40872.46696620786, -20951.608830882175, -25061.53584260176, -47966.30715922203, -32980.378923461314, -0.016, 1.014, -0.034, 192.0, 0.0, 0.0, 0.0, 0.0, 0.0, 0.0, 0.0, 0.0, 0.0, 1.69576092295335E9, 0.0, 2023-09-26 15:42:02.953
114.0, 12582.758078903924, 37128.236845521555, -44364.480002460485, -45734.686641059714, -24579.609880400883, -26233.482507882418, -187500.02235174447, 4811.7270841273175, -12572.029241565377, -33905.42821948865, -45089.05650246817, -40869.158908028476, -20928.452423626473, -25051.276391896772, -47959.847505074446, -32970.56650764543, -0.016, 1.014, -0.034, 192.0, 0.0, 0.0, 0.0, 0.0, 0.0, 0.0, 0.0, 0.0, 0.0, 1.695760922953359E9, 0.0, 2023-09-26 15:42:02.953
116.0, 12581.841657381256, 37119.6090721618, -44363.74239489346, -45732.6973358032, -24582.180331013245, -26238.48929864041, -187500.02235174447, 4757.099420678547, -12525.135281698142, -33902.18721654263, -45076.47247033983, -40865.62733240454, -20961.756522864882, -25052.90806924201, -47950.8174003145, -32960.50822264054, -0.016, 1.014, -0.034, 192.0, 0.0, 0.0, 0.0, 0.0, 0.0, 0.0, 0.0, 0.0, 0.0, 1.695760922953368E9, 0.0, 2023-09-26 15:42:02.953
118.0, 12590.938817374566, 37134.92001711369, -44370.60438044124, -45744.85668478688, -24589.310537494486, -26247.2958859558, -187500.02235174447, 4831.530729714719, -12545.028334263365, -33892.17363502665, -45084.09441519909, -40863.7944893592, -20954.469854172454, -25052.14810993053, -47960.316891708004, -32968.59955413336, -0.02, 1.01, -0.03, 192.0, 127.5, 48.0, 15.5, 72.0, 127.5, 8.0, 0.0, 0.0, 0.0, 1.695760922953377E9, 0.0, 2023-09-26 15:42:02.953
120.0, 12581.081698069776, 37121.0619355514, -44382.78608116938, -45751.02576625655, -24592.417429973775, -26251.76623484686, -187500.02235174447, 4805.222726490823, -12552.002078533422, -33908.02102184547, -45093.772720548244, -40872.154041785485, -20953.754598349882, -25062.116987957597, -47966.128345266385, -32981.65297289527, -0.02, 1.01, -0.03, 192.0, 0.0, 0.0, 0.0, 0.0, 0.0, 0.0, 0.0, 0.0, 0.0, 1.695760923013048E9, 0.0, 2023-09-26 15:42:03.013
122.0, 12587.854276639733, 37130.65083392273, -44368.92799960709, -45737.48060911663, -24581.509778679585, -26243.965476031957, -187500.02235174447, 4808.776653859217, -12550.705677355014, -33898.074495562854, -45090.33055190212, -40866.52140218275, -20954.827482083736, -25049.309438384706, -47959.33341495197, -32973.89691756927, -0.02, 1.01, -0.03, 192.0, 0.0, 0.0, 0.0, 0.0, 0.0, 0.0, 0.0, 0.0, 0.0, 1.695760923013083E9, 0.0, 2023-09-26 15:42:03.013
124.0, 12585.01560509391, 37119.83258960636, -44373.30894152033, -45739.96165275117, -24589.422296216762, -26248.167603989557, -187500.02235174447, 4787.497793137764, -12554.930157057066, -33903.61772818777, -45099.96415376236, -40871.81876561866, -20964.684601388526, -25054.495043098337, -47962.19443824225, -32979.70837112765, -0.02, 1.01, -0.03, 192.0, 0.0, 0.0, 0.0, 0.0, 0.0, 0.0, 0.0, 0.0, 0.0, 1.695760923013093E9, 0.0, 2023-09-26 15:42:03.013
126.0, 12592.056404597331, 37127.879217610265, -44358.28856924636, -45736.72064980515, -24584.86254034788, -26239.226906207434, -187500.02235174447, 4790.783499572694, -12555.108971012709, -33909.36212651278, -45088.27419141224, -40868.46600395036, -20948.412531425063, -25058.518357100293, -47955.75713583912, -32969.65008612276, -0.02, 1.01, -0.03, 192.0, 0.0, 0.0, 0.0, 0.0, 0.0, 0.0, 0.0, 0.0, 0.0, 1.695760923013134E9, 0.0, 2023-09-26 15:42:03.013
128.0, 12585.887323127667, 37121.01723206249, -44372.48192697548, -45755.250245958596, -24596.910130609293, -26260.036380295325, -187500.02235174447, 4822.321810999133, -12537.696962082025, -33914.59243471533, -45088.050673967686, -40874.18805053092, -20956.168586751057, -25062.564022846702, -47971.53746742457, -32981.071827539425, -0.02, 1.016, -0.034, 192.0, 127.5, 48.0, 15.5, 96.0, 127.0, 120.0, 0.0, 0.0, 0.0, 1.695760923013143E9, 0.0, 2023-09-26 15:42:03.013
130.0, 12579.382965491173, 37114.311708725894, -44370.58202869678, -45745.52723712054, -24586.807142115493, -26247.89938305609, -187500.02235174447, 4798.5842583875965, -12554.974860545977, -33915.128876582254, -45090.621124580044, -40879.26189652227, -20944.925659290035, -25064.24040368085, -47969.95049356824, -32977.316734470936, -0.02, 1.016, -0.034, 192.0, 0.0, 0.0, 0.0, 0.0, 0.0, 0.0, 0.0, 0.0, 0.0, 1.695760923013153E9, 0.0, 2023-09-26 15:42:03.013
132.0, 12581.10404981423, 37109.707249368104, -44368.1233368067, -45752.21040871268, -24586.829493859947, -26250.715702857462, -187500.02235174447, 4809.670723637429, -12548.224633720474, -33901.002574086495, -45093.48214787032, -40880.4465389784, -20951.139444248613, -25065.96148800391, -47974.68906339277, -32981.496510684075, -0.02, 1.016, -0.034, 192.0, 0.0, 0.0, 0.0, 0.0, 0.0, 0.0, 0.0, 0.0, 0.0, 1.695760923013162E9, 0.0, 2023-09-26 15:42:03.013
134.0, 12568.520017685893, 37098.84430156282, -44376.840517144265, -45752.43392615723, -24593.378554985353, -26256.080121526735, -187500.02235174447, 4769.482287106787, -12553.991383789944, -33905.22705378855, -45092.141043203, -40887.263821037275, -20966.2492235004, -25056.64081056605, -47965.30133072154, -32977.56260365994, -0.02, 1.016, -0.034, 192.0, 0.0, 0.0, 0.0, 0.0, 0.0, 0.0, 0.0, 0.0, 0.0, 1.695760923013171E9, 0.0, 2023-09-26 15:42:03.013
136.0, 12574.040898566354, 37112.61297614729, -44380.86383114622, -45760.25703671659, -24596.731316653648, -26266.652496654096, -187500.02235174447, 4821.159520287457, -12579.695889913546, -33909.18331255714, -45103.696895086396, -40883.3969692465, -20964.036400799323, -25068.844863038645, -47977.05834830503, -32986.92798458671, -0.02, 1.016, -0.034, 192.0, 0.0, 0.0, 0.0, 0.0, 0.0, 0.0, 0.0, 0.0, 0.0, 1.695760923073283E9, 0.0, 2023-09-26 15:42:03.073
138.0, 12570.978709575977, 37108.27673772296, -44372.75014790895, -45759.8994088053, -24593.937348596737, -26254.11316801467, -187500.02235174447, 4794.76211008574, -12576.968977089999, -33908.199835801104, -45104.45685439788, -40892.44942575091, -20976.218101527465, -25069.046028738743, -47980.45581346224, -32992.94060384519, -0.024, 1.012, -0.03, 192.0, 127.5, 32.0, 15.5, 80.0, 127.5, 8.0, 0.0, 0.0, 0.0, 1.695760923073303E9, 0.0, 2023-09-26 15:42:03.073
140.0, 12575.829038122778, 37119.25144425052, -44381.10970033523, -45753.931493035736, -24581.666240890772, -26245.351284188186, -187500.02235174447, 4841.164331574957, -12545.05068600782, -33902.94717585411, -45099.40536015098, -40885.67684718095, -20983.638880686627, -25064.687438569956, -47965.59190339946, -32981.25064149507, -0.024, 1.012, -0.03, 192.0, 0.0, 0.0, 0.0, 0.0, 0.0, 0.0, 0.0, 0.0, 0.0, 1.695760923073313E9, 0.0, 2023-09-26 15:42:03.073
142.0, 12566.10602928472, 37103.135836498244, -44388.664589961125, -45758.29008320452, -24582.940290324725, -26250.0451505238, -187500.02235174447, 4783.832107047094, -12563.96026181701, -33925.14245809823, -45113.50931090228, -40896.18216707494, -20975.122866049154, -25058.943040244943, -47961.25566497513, -32981.65297289527, -0.024, 1.012, -0.03, 192.0, 0.0, 0.0, 0.0, 0.0, 0.0, 0.0, 0.0, 0.0, 0.0, 1.695760923073322E9, 0.0, 2023-09-26 15:42:03.073
144.0, 12593.956302876033, 37130.047336822434, -44384.44011025907, -45763.63215012934, -24574.2007582427, -26245.194821977, -187500.02235174447, 4846.662860710962, -12534.344200413729, -33888.351486724794, -45089.32472340164, -40867.23665800532, -20984.555302209297, -25046.493118583337, -47951.666766603805, -32979.95424031666, -0.024, 1.012, -0.03, 192.0, 0.0, 0.0, 0.0, 0.0, 0.0, 0.0, 0.0, 0.0, 0.0, 1.695760923073331E9, 0.0, 2023-09-26 15:42:03.073
146.0, 12583.048651581843, 37107.94146155613, -44392.91142140763, -45758.08891750442, -24578.11231352238, -26239.606885863173, -187500.02235174447, 4771.18101968539, -12528.24217417743, -33895.16876878366, -45087.98361873432, -40879.28424826673, -20968.90908109058, -25052.639848308547, -47952.62789161538, -32981.11653102834, -0.024, 1.012, -0.03, 192.0, 0.0, 0.0, 0.0, 0.0, 0.0, 0.0, 0.0, 0.0, 0.0, 1.69576092307334E9, 0.0, 2023-09-26 15:42:03.073
148.0, 12582.825134137289, 37119.51966518399, -44410.45754080505, -45772.528144422555, -24589.087020049934, -26256.840080838214, -187500.02235174447, 4866.958244676381, -12549.67749711007, -33906.47875147805, -45096.92431651644, -40875.573858687145, -20982.9012731196, -25064.776845547778, -47956.51709515061, -32978.836653093895, -0.026000000000000002, 1.01, -0.03, 192.0, 127.5, 24.0, 15.5, 72.0, 127.5, 8.0, 0.0, 0.0, 0.0, 1.695760923073378E9, 0.0, 2023-09-26 15:42:03.073
150.0, 12575.694927656046, 37107.3603162003, -44402.34385756777, -45755.09378374741, -24578.358182711385, -26237.170545717545, -187500.02235174447, 4806.5638311581415, -12551.286822710852, -33915.844132404825, -45105.68620034292, -40888.67198093796, -20990.2549970454, -25062.094636213144, -47958.55110389604, -32986.52565318652, -0.026000000000000002, 1.01, -0.03, 192.0, 0.0, 0.0, 0.0, 0.0, 0.0, 0.0, 0.0, 0.0, 0.0, 1.695760923133738E9, 0.0, 2023-09-26 15:42:03.133
152.0, 12603.880477414188, 37134.69649966914, -44401.181566856096, -45754.53499013603, -24572.926708808747, -26229.012158991358, -187500.02235174447, 4868.768735977261, -12540.468578394482, -33891.39132397072, -45091.4928426138, -40861.55931491367, -20969.557281679783, -25046.023731949776, -47944.58126361147, -32972.42170243522, -0.026000000000000002, 1.01, -0.03, 192.0, 0.0, 0.0, 0.0, 0.0, 0.0, 0.0, 0.0, 0.0, 0.0, 1.695760923133763E9, 0.0, 2023-09-26 15:42:03.133
154.0, 12599.141907589665, 37116.79275236044, -44410.30107859386, -45761.396975683805, -24579.0510867895, -26230.08504272521, -187500.02235174447, 4800.305342710655, -12536.400560903618, -33882.78590235543, -45087.04484546719, -40862.31927422515, -20955.654496628584, -25036.09955741162, -47942.8154757995, -32969.895955311775, -0.026000000000000002, 1.01, -0.03, 192.0, 0.0, 0.0, 0.0, 0.0, 0.0, 0.0, 0.0, 0.0, 0.0, 1.695760923133773E9, 0.0, 2023-09-26 15:42:03.133
156.0, 12607.724977460502, 37131.41079323421, -44405.40604655815, -45763.27452221805, -24585.06370604798, -26229.392138647097, -187500.02235174447, 4882.179782650445, -12535.350028914218, -33902.678954920644, -45089.45883386837, -40873.2492772638, -20994.59123546973, -25050.29291514074, -47947.174065968284, -32974.27689722501, -0.026000000000000002, 1.01, -0.03, 192.0, 0.0, 0.0, 0.0, 0.0, 0.0, 0.0, 0.0, 0.0, 0.0, 1.695760923133782E9, 0.0, 2023-09-26 15:42:03.133
158.0, 12604.752195447945, 37113.66350813669, -44399.77340695541, -45749.237626700124, -24571.630307630337, -26221.725490298926, -187500.02235174447, 4790.895258294971, -12544.268374951886, -33894.07353330535, -45089.54824084619, -40872.73518714133, -20981.761334152383, -25022.576752016157, -47944.603615355925, -32971.52763265701, -0.018000000000000002, 1.006, -0.028, 192.0, 127.5, 56.0, 15.5, 56.0, 127.5, 16.0, 0.0, 0.0, 0.0, 1.695760923133792E9, 0.0, 2023-09-26 15:42:03.133
160.0, 12609.289599572374, 37132.573083945885, -44405.11547388023, -45744.47670513114, -24578.827569344947, -26223.04424322179, -187500.02235174447, 4838.415067006954, -12556.561834402304, -33889.49142569202, -45086.46370011136, -40851.948064797885, -20962.181206009533, -25036.05485392271, -47935.97584199618, -32962.09519649687, -0.018000000000000002, 1.006, -0.028, 192.0, 0.0, 0.0, 0.0, 0.0, 0.0, 0.0, 0.0, 0.0, 0.0, 1.695760923133801E9, 0.0, 2023-09-26 15:42:03.133
162.0, 12603.835773925279, 37113.03765929194, -44397.895860421166, -45752.05394650149, -24576.48063617714, -26220.965530987447, -187500.02235174447, 4781.03813899018, -12533.67364808007, -33885.17753901214, -45083.82619426563, -40856.73133811133, -20968.037363056825, -25038.200621390417, -47939.283900175564, -32968.5324989, -0.018000000000000002, 1.006, -0.028, 192.0, 0.0, 0.0, 0.0, 0.0, 0.0, 0.0, 0.0, 0.0, 0.0, 1.695760923133811E9, 0.0, 2023-09-26 15:42:03.133
164.0, 12605.556858248337, 37117.77622911647, -44407.7306279815, -45763.18511524023, -24583.47673219165, -26225.637045578605, -187500.02235174447, 4846.886378155516, -12520.352008384707, -33910.43501024664, -45088.453005367875, -40870.00827431778, -20971.457179958485, -25043.185060403954, -47933.09246696144, -32965.96204828764, -0.018000000000000002, 1.006, -0.028, 192.0, 0.0, 0.0, 0.0, 0.0, 0.0, 0.0, 0.0, 0.0, 0.0, 1.69576092313382E9, 0.0, 2023-09-26 15:42:03.133
166.0, 12606.160355348631, 37107.82970283386, -44403.774369212915, -45753.372699424355, -24577.73233386664, -26219.80324027577, -187500.02235174447, 4781.641636090474, -12539.48510163845, -33916.604091716305, -45099.87474678454, -40878.032550577234, -20956.414455940063, -25042.29099062574, -47942.703717077224, -32974.075731524914, -0.018000000000000002, 1.006, -0.028, 192.0, 0.0, 0.0, 0.0, 0.0, 0.0, 0.0, 0.0, 0.0, 0.0, 1.695760923193893E9, 0.0, 2023-09-26 15:42:03.193
168.0, 12608.97667515, 37116.43512444915, -44404.73549422449, -45758.02186227106, -24583.834360102937, -26227.402833390577, -187500.02235174447, 4821.047761565181, -12523.794177030824, -33891.994821071006, -45082.73095878732, -40855.457288677375, -20978.877959117646, -25029.416385819484, -47934.21005418421, -32966.65495236575, -0.016, 1.008, -0.034, 192.0, 127.5, 64.0, 15.5, 64.0, 127.0, 120.0, 0.0, 0.0, 0.0, 1.695760923193953E9, 0.0, 2023-09-26 15:42:03.193
170.0, 12609.758986205934, 37111.65185113571, -44406.16600586963, -45762.2016384842, -24579.945156567712, -26233.14723171559, -187500.02235174447, 4787.2519239487565, -12536.691133581537, -33900.22026303056, -45086.46370011136, -40859.68176837942, -20972.798284625806, -25040.34638885813, -47946.74938282363, -32978.61313564934, -0.016, 1.008, -0.034, 192.0, 0.0, 0.0, 0.0, 0.0, 0.0, 0.0, 0.0, 0.0, 0.0, 1.695760923193964E9, 0.0, 2023-09-26 15:42:03.193
172.0, 12601.265323312919, 37113.0600110364, -44409.563471026835, -45759.653539616294, -24585.264871748077, -26236.209420705967, -187500.02235174447, 4804.909802068449, -12548.381095931662, -33888.88792859172, -45094.040941481704, -40863.54862017019, -20954.179281494533, -25042.156880159007, -47948.89515029135, -32978.546080415974, -0.016, 1.008, -0.034, 192.0, 0.0, 0.0, 0.0, 0.0, 0.0, 0.0, 0.0, 0.0, 0.0, 1.695760923193974E9, 0.0, 2023-09-26 15:42:03.193
174.0, 12600.058329112331, 37106.93563305565, -44410.83752046079, -45770.53883916603, -24591.903339851302, -26239.740996329903, -187500.02235174447, 4808.575488159119, -12543.709581340503, -33901.494312464514, -45092.67748506993, -40867.52723068324, -20984.935281865037, -25051.142281430042, -47948.33635667996, -32977.27203098202, -0.016, 1.008, -0.034, 192.0, 0.0, 0.0, 0.0, 0.0, 0.0, 0.0, 0.0, 0.0, 0.0, 1.695760923193984E9, 0.0, 2023-09-26 15:42:03.193
176.0, 12604.238105325474, 37117.329194227364, -44407.23888960348, -45758.42419367125, -24585.66720314827, -26235.404757905577, -187500.02235174447, 4828.088561068602, -12531.9078602681, -33903.7518386545, -45089.05650246817, -40870.72353014035, -20976.173398038554, -25042.335694114652, -47950.03508925856, -32978.00963854905, -0.016, 1.008, -0.034, 192.0, 0.0, 0.0, 0.0, 0.0, 0.0, 0.0, 0.0, 0.0, 0.0, 1.695760923193994E9, 0.0, 2023-09-26 15:42:03.193
178.0, 12608.484936771982, 37120.59254891784, -44409.27289834892, -45749.81877205596, -24582.336793224433, -26228.319254913244, -187500.02235174447, 4823.95348834437, -12537.42874114856, -33894.67703040565, -45087.760101289765, -40857.02191078924, -20956.39210419561, -25034.557287044205, -47944.067173489, -32968.3313331999, -0.02, 1.012, -0.032, 192.0, 127.5, 48.0, 15.5, 80.0, 127.5, 0.0, 0.0, 0.0, 0.0, 1.695760923194003E9, 0.0, 2023-09-26 15:42:03.194
180.0, 12603.522849502904, 37120.2125692621, -44390.340970795274, -45735.044268971, -24575.273641976553, -26211.57779831622, -187500.02235174447, 4794.985627530293, -12524.800005531313, -33874.091073762305, -45076.3383598731, -40848.260026962766, -20968.73026713494, -25029.349330586116, -47932.84659777243, -32950.98637950258, -0.02, 1.012, -0.032, 192.0, 0.0, 0.0, 0.0, 0.0, 0.0, 0.0, 0.0, 0.0, 0.0, 1.695760923253233E9, 0.0, 2023-09-26 15:42:03.253
182.0, 12594.783317420879, 37118.78205761696, -44405.584860513794, -45755.96550178117, -24573.9995925426, -26226.15113570108, -187500.02235174447, 4829.988459347303, -12559.042878036844, -33883.814082600366, -45087.760101289765, -40849.80229733018, -20968.28323224583, -25032.500926554316, -47935.931138507265, -32953.75799581504, -0.02, 1.012, -0.032, 192.0, 0.0, 0.0, 0.0, 0.0, 0.0, 0.0, 0.0, 0.0, 0.0, 1.695760923253266E9, 0.0, 2023-09-26 15:42:03.253
184.0, 12590.603541207736, 37106.60035688882, -44404.62373550222, -45763.63215012934, -24577.53116816654, -26230.0403392363, -187500.02235174447, 4790.202354216856, -12527.661028821592, -33888.5973559138, -45087.98361873432, -40865.96260857137, -20969.78079912434, -25032.90325795451, -47938.322775163986, -32959.03300750649, -0.02, 1.012, -0.032, 192.0, 0.0, 0.0, 0.0, 0.0, 0.0, 0.0, 0.0, 0.0, 0.0, 1.695760923253276E9, 0.0, 2023-09-26 15:42:03.253
186.0, 12602.025282624398, 37115.63046164876, -44411.91040419464, -45764.16859199627, -24582.917938580267, -26236.276475939332, -187500.02235174447, 4848.227482822834, -12541.474406894971, -33888.46324544707, -45094.08564497062, -40863.57097191465, -20982.163665552576, -25042.894487726033, -47948.4704671467, -32968.7336646001, -0.02, 1.012, -0.032, 192.0, 0.0, 0.0, 0.0, 0.0, 0.0, 0.0, 0.0, 0.0, 0.0, 1.695760923253285E9, 0.0, 2023-09-26 15:42:03.253
188.0, 12591.58701796377, 37107.896758067225, -44412.446846061575, -45754.17736222474, -24579.96750831217, -26222.507801354863, -187500.02235174447, 4798.204278731857, -12544.760113329901, -33899.66146941918, -45091.0905112136, -40866.208477760374, -20963.924642077047, -25047.56600231719, -47944.96124326721, -32961.06701625192, -0.018000000000000002, 1.01, -0.036000000000000004, 192.0, 127.5, 56.0, 15.5, 72.0, 127.0, 112.0, 0.0, 0.0, 0.0, 1.695760923253294E9, 0.0, 2023-09-26 15:42:03.253
190.0, 12610.8765734287, 37125.085249553355, -44411.57512802781, -45754.15501048029, -24581.509778679585, -26228.833345035717, -187500.02235174447, 4850.596767735096, -12535.037104491843, -33877.734408108525, -45092.07398796964, -40853.84796307659, -20952.1452727491, -25039.854650480112, -47947.0176037571, -32959.122414484315, -0.018000000000000002, 1.01, -0.036000000000000004, 192.0, 0.0, 0.0, 0.0, 0.0, 0.0, 0.0, 0.0, 0.0, 0.0, 1.695760923253333E9, 0.0, 2023-09-26 15:42:03.253
192.0, 12599.790108178868, 37108.29908946742, -44405.20488085805, -45755.898446547806, -24580.325136223455, -26230.822650292237, -187500.02235174447, 4790.336464683588, -12536.892299281633, -33874.515756906956, -45097.68427582792, -40863.57097191465, -20978.229758528443, -25025.705996239903, -47947.37523166838, -32963.257487208546, -0.018000000000000002, 1.01, -0.036000000000000004, 192.0, 0.0, 0.0, 0.0, 0.0, 0.0, 0.0, 0.0, 0.0, 0.0, 1.695760923253342E9, 0.0, 2023-09-26 15:42:03.253
194.0, 12600.974750635, 37115.58575815985, -44406.38952331418, -45771.72348162216, -24581.040392046023, -26239.808051563272, -187500.02235174447, 4879.8775529715485, -12537.965183015489, -33889.826701858845, -45094.37621764853, -40867.057844049676, -20979.503807962396, -25041.173403402976, -47946.86114154591, -32971.41587393473, -0.018000000000000002, 1.01, -0.036000000000000004, 192.0, 0.0, 0.0, 0.0, 0.0, 0.0, 0.0, 0.0, 0.0, 0.0, 1.695760923253351E9, 0.0, 2023-09-26 15:42:03.253
196.0, 12586.691985928057, 37093.12225498226, -44402.52267152342, -45759.29591170501, -24577.419409444265, -26229.325083413733, -187500.02235174447, 4781.127545968002, -12558.72995361447, -33896.01813507296, -45101.23820319631, -40884.08987332462, -20967.791493867815, -25038.893525468535, -47948.62692935788, -32974.656876880756, -0.018000000000000002, 1.01, -0.036000000000000004, 192.0, 0.0, 0.0, 0.0, 0.0, 0.0, 0.0, 0.0, 0.0, 0.0, 1.695760923313038E9, 0.0, 2023-09-26 15:42:03.313
198.0, 12602.11468960222, 37116.34571747133, -44405.383694813696, -45763.788612340526, -24588.036488060534, -26228.028682235323, -187500.02235174447, 4859.693927728406, -12545.654183108114, -33882.070646532855, -45096.18670894941, -40869.002445817285, -20978.2521102729, -25037.820641734677, -47950.8174003145, -32970.00771403405, -0.012, 1.014, -0.032, 192.0, 127.5, 80.0, 15.5, 88.0, 127.5, 0.0, 0.0, 0.0, 0.0, 1.695760923313062E9, 0.0, 2023-09-26 15:42:03.313
200.0, 12585.082660327276, 37091.177653214654, -44414.883186207204, -45768.37071995386, -24592.976223585156, -26232.208458448466, -187500.02235174447, 4787.810717560139, -12547.86700580919, -33891.68189664864, -45103.07104624165, -40884.51455646927, -20973.87116835966, -25041.933362714455, -47964.78724059907, -32982.681153140205, -0.012, 1.014, -0.032, 192.0, 0.0, 0.0, 0.0, 0.0, 0.0, 0.0, 0.0, 0.0, 0.0, 1.695760923313072E9, 0.0, 2023-09-26 15:42:03.313
202.0, 12593.799840664846, 37108.81317958989, -44419.46529382054, -45771.52231592206, -24595.077287563956, -26237.10349048418, -187500.02235174447, 4866.354747576088, -12591.497610985949, -33901.51666420897, -45113.755180091284, -40881.63118143454, -20976.463970716475, -25052.170461674985, -47965.90482782183, -32987.26326075355, -0.012, 1.014, -0.032, 192.0, 0.0, 0.0, 0.0, 0.0, 0.0, 0.0, 0.0, 0.0, 0.0, 1.695760923313082E9, 0.0, 2023-09-26 15:42:03.313
204.0, 12586.602578950236, 37095.35742942779, -44416.000773429965, -45762.78278384004, -24592.752706140604, -26232.47667938193, -187500.02235174447, 4793.7115780963395, -12524.397674131116, -33894.56527168337, -45100.59000260711, -40876.847908121104, -20982.47658997495, -25046.53782207225, -47961.814458586516, -32985.698638641676, -0.012, 1.014, -0.032, 192.0, 0.0, 0.0, 0.0, 0.0, 0.0, 0.0, 0.0, 0.0, 0.0, 1.695760923313092E9, 0.0, 2023-09-26 15:42:03.313
206.0, 12595.610331965725, 37115.45164769312, -44416.38075308571, -45773.46691768967, -24595.680784664248, -26240.880935297126, -187500.02235174447, 4872.210904623378, -12552.806741333812, -33888.75381812499, -45102.98163926383, -40869.67299815095, -20981.96249985248, -25046.359008116604, -47960.87568531939, -32982.971725818126, -0.012, 1.014, -0.032, 192.0, 0.0, 0.0, 0.0, 0.0, 0.0, 0.0, 0.0, 0.0, 0.0, 1.695760923313101E9, 0.0, 2023-09-26 15:42:03.313
208.0, 12590.8717621412, 37098.464321907086, -44414.57026178483, -45764.81679258547, -24588.43881946073, -26236.276475939332, -187500.02235174447, 4805.8038718466605, -12543.128435984665, -33910.23384454654, -45103.898060786494, -40883.12874831304, -20978.363868995177, -25044.8614412381, -47961.657996375325, -32989.05140030997, -0.01, 1.018, -0.036000000000000004, 192.0, 127.5, 88.0, 15.5, 104.0, 127.0, 112.0, 0.0, 0.0, 0.0, 1.695760923313111E9, 0.0, 2023-09-26 15:42:03.313
210.0, 12607.836736182779, 37118.1115052833, -44405.78602621389, -45760.994644283615, -24588.908206094293, -26232.09669972619, -187500.02235174447, 4853.413087536465, -12545.363610430195, -33886.29512623491, -45096.83490953862, -40867.30371323868, -20956.682676873526, -25032.612685276592, -47952.94081603776, -32980.08835078339, -0.01, 1.018, -0.036000000000000004, 192.0, 0.0, 0.0, 0.0, 0.0, 0.0, 0.0, 0.0, 0.0, 0.0, 1.695760923373502E9, 0.0, 2023-09-26 15:42:03.373
212.0, 12595.476221498993, 37095.044505005426, -44417.20776763055, -45768.84010658743, -24591.992746829124, -26238.690464340507, -187500.02235174447, 4814.006962061759, -12536.33350567025, -33894.006478071984, -45096.41022639397, -40875.10447205359, -20980.1520085516, -25048.258906395306, -47953.477257904684, -32979.61896414983, -0.01, 1.018, -0.036000000000000004, 192.0, 0.0, 0.0, 0.0, 0.0, 0.0, 0.0, 0.0, 0.0, 0.0, 1.69576092337356E9, 0.0, 2023-09-26 15:42:03.373
214.0, 12596.929084888588, 37103.96285104309, -44422.79570374438, -45779.72540613716, -24596.083116064445, -26250.782758090827, -187500.02235174447, 4865.483029542331, -12556.159503002109, -33909.56329221288, -45109.3965899225, -40885.85566113659, -20986.18697955453, -25046.604877305614, -47959.132249251874, -32988.269089254034, -0.01, 1.018, -0.036000000000000004, 192.0, 0.0, 0.0, 0.0, 0.0, 0.0, 0.0, 0.0, 0.0, 0.0, 1.695760923373571E9, 0.0, 2023-09-26 15:42:03.373
216.0, 12601.019454123909, 37098.41961841817, -44405.00371515795, -45766.984911797634, -24582.62736590235, -26241.976170775437, -187500.02235174447, 4825.138130800501, -12535.618249847681, -33884.305820978385, -45095.33734266011, -40877.29494301021, -20988.355098766697, -25055.72438904338, -47956.003005028135, -32988.64906890978, -0.01, 1.018, -0.036000000000000004, 192.0, 0.0, 0.0, 0.0, 0.0, 0.0, 0.0, 0.0, 0.0, 0.0, 1.69576092337358E9, 0.0, 2023-09-26 15:42:03.373
218.0, 12598.717224445014, 37102.88996730924, -44414.30204085136, -45783.636961416836, -24592.573892184962, -26248.681694112027, -187500.02235174447, 4870.333358089132, -12546.637659864147, -33901.628422931244, -45097.30429617218, -40881.40766398999, -20978.16270329508, -25054.13741518705, -47952.47142940419, -32982.90467058476, -0.01, 1.016, -0.036000000000000004, 192.0, 127.5, 88.0, 15.5, 96.0, 127.0, 112.0, 0.0, 0.0, 0.0, 1.695760923373589E9, 0.0, 2023-09-26 15:42:03.373
220.0, 12597.06319535532, 37091.22235670356, -44424.82971248981, -45791.54947895402, -24595.546674197518, -26249.709874356973, -187500.02235174447, 4867.338224332121, -12542.971973773478, -33917.34169928333, -45105.663848598466, -40894.9528211299, -20981.940148108024, -25061.088807712655, -47959.31106320752, -32991.51009220006, -0.01, 1.016, -0.036000000000000004, 192.0, 0.0, 0.0, 0.0, 0.0, 0.0, 0.0, 0.0, 0.0, 0.0, 1.695760923373599E9, 0.0, 2023-09-26 15:42:03.373
222.0, 12600.974750635, 37098.53137714045, -44422.12515141072, -45769.19773449871, -24586.76243862658, -26237.48347013992, -187500.02235174447, 4856.542331760208, -12562.10506702722, -33907.90926312319, -45111.92233704595, -40896.405684519494, -20972.887691603624, -25061.021752479286, -47961.88151381988, -32989.677249154716, -0.01, 1.016, -0.036000000000000004, 192.0, 0.0, 0.0, 0.0, 0.0, 0.0, 0.0, 0.0, 0.0, 0.0, 1.695760923373608E9, 0.0, 2023-09-26 15:42:03.373
224.0, 12591.519962730405, 37090.842377047826, -44433.79276201639, -45783.10051954991, -24590.361069483886, -26248.458176667475, -187500.02235174447, 4855.335337559622, -12542.860215051202, -33899.61676593027, -45104.07687474214, -40879.507765711285, -20952.994639038403, -25044.593220304636, -47954.84071431646, -32981.74237987308, -0.01, 1.016, -0.036000000000000004, 192.0, 0.0, 0.0, 0.0, 0.0, 0.0, 0.0, 0.0, 0.0, 0.0, 1.695760923373617E9, 0.0, 2023-09-26 15:42:03.373
226.0, 12586.11084057222, 37094.64217360523, -44410.14461638268, -45784.39692072832, -24583.275566491553, -26254.828423837236, -187500.02235174447, 4852.429610780431, -12541.988497017444, -33900.75670489749, -45104.45685439788, -40892.69529493991, -20979.906139362593, -25042.760377259303, -47956.53944689506, -32992.962955589646, -0.01, 1.016, -0.036000000000000004, 192.0, 0.0, 0.0, 0.0, 0.0, 0.0, 0.0, 0.0, 0.0, 0.0, 1.695760923433545E9, 0.0, 2023-09-26 15:42:03.433
228.0, 12589.307140029328, 37096.363257928286, -44418.07948566431, -45781.78176662705, -24585.398982214807, -26252.10151101369, -187500.02235174447, 4882.760928006283, -12559.19934024803, -33905.78584739994, -45106.80378756569, -40888.62727744905, -20999.262750060887, -25068.978973505375, -47953.94664453824, -32995.84633062439, -0.01, 1.016, -0.032, 192.0, 127.5, 88.0, 15.5, 96.0, 127.5, 0.0, 0.0, 0.0, 0.0, 1.695760923433569E9, 0.0, 2023-09-26 15:42:03.433
230.0, 12586.736689416968, 37092.11642648178, -44408.62469775971, -45772.595199655916, -24581.57683391295, -26252.548545902795, -187500.02235174447, 4835.732857672317, -12564.854331595223, -33902.88012062074, -45107.67550559944, -40892.24826005081, -20980.554339951796, -25067.079075226677, -47952.53848463756, -32990.10193229937, -0.01, 1.016, -0.032, 192.0, 0.0, 0.0, 0.0, 0.0, 0.0, 0.0, 0.0, 0.0, 0.0, 1.695760923433581E9, 0.0, 2023-09-26 15:42:03.433
232.0, 12589.173029562597, 37098.173749229165, -44414.16793038463, -45769.73417636564, -24580.928633323747, -26245.507746399373, -187500.02235174447, 4869.998081922303, -12537.875776037667, -33906.72462066706, -45103.78630206422, -40884.71572216937, -20972.753581136894, -25063.39103739155, -47952.31496719301, -32987.509129942555, -0.01, 1.016, -0.032, 192.0, 0.0, 0.0, 0.0, 0.0, 0.0, 0.0, 0.0, 0.0, 0.0, 1.695760923433595E9, 0.0, 2023-09-26 15:42:03.433
234.0, 12575.9184451006, 37090.75297007, -44422.50513106646, -45780.26184800409, -24589.712868894683, -26255.34251395971, -187500.02235174447, 4833.184758804412, -12535.081807980754, -33911.507893980495, -45101.14879621849, -40891.801225161704, -20968.05971480128, -25064.39686589204, -47954.28192070507, -32986.05626655296, -0.01, 1.016, -0.032, 192.0, 0.0, 0.0, 0.0, 0.0, 0.0, 0.0, 0.0, 0.0, 0.0, 1.695760923433663E9, 0.0, 2023-09-26 15:42:03.433
236.0, 12585.999081849943, 37105.19219698813, -44420.627584532216, -45781.71471139368, -24590.741049139626, -26264.86435709767, -187500.02235174447, 4883.96792220687, -12562.216825749496, -33903.99770784351, -45109.17307247795, -40883.50872796878, -20971.881863103135, -25069.82833979468, -47964.76488885461, -32997.74622890309, -0.01, 1.016, -0.032, 192.0, 0.0, 0.0, 0.0, 0.0, 0.0, 0.0, 0.0, 0.0, 0.0, 1.695760923433673E9, 0.0, 2023-09-26 15:42:03.433
238.0, 12572.476276454483, 37088.69660958012, -44414.525558295914, -45782.98876082763, -24589.288185750032, -26264.976115819947, -187500.02235174447, 4817.4267789634205, -12549.141055243143, -33913.69836493711, -45102.82517705264, -40892.27061179526, -20964.081104288234, -25071.102389228632, -47961.18860974177, -33000.96488010465, -0.018000000000000002, 1.008, -0.032, 192.0, 127.5, 56.0, 15.5, 64.0, 127.5, 0.0, 0.0, 0.0, 0.0, 1.695760923433684E9, 0.0, 2023-09-26 15:42:03.433
240.0, 12590.49178248546, 37116.05514479341, -44410.45754080505, -45772.14816476681, -24584.1025810364, -26266.518386187363, -187500.02235174447, 4881.710396016883, -12550.48215991046, -33912.536074225434, -45101.327610174136, -40878.68075116644, -20984.39883999811, -25061.379380390572, -47957.053537017535, -32992.62767942282, -0.018000000000000002, 1.008, -0.032, 192.0, 0.0, 0.0, 0.0, 0.0, 0.0, 0.0, 0.0, 0.0, 0.0, 1.695760923494261E9, 0.0, 2023-09-26 15:42:03.494
242.0, 12584.747384160446, 37098.598432373816, -44399.48283427749, -45757.82069657096, -24577.397057699807, -26243.071406253744, -187500.02235174447, 4788.257752449244, -12526.923421254567, -33902.25427177599, -45088.85533676807, -40874.97036158686, -20974.2511480154, -25049.935287229455, -47948.40341191333, -32985.832749108406, -0.018000000000000002, 1.008, -0.032, 192.0, 0.0, 0.0, 0.0, 0.0, 0.0, 0.0, 0.0, 0.0, 0.0, 1.695760923494282E9, 0.0, 2023-09-26 15:42:03.494
244.0, 12592.391680764162, 37116.703345382615, -44411.731590239004, -45766.090842019425, -24585.24252000362, -26253.24144998091, -187500.02235174447, 4867.382927821031, -12543.86604355169, -33897.22512927355, -45096.58904034961, -40869.650646406495, -20955.81095883977, -25067.34729616014, -47955.77948758358, -32987.17385377573, -0.018000000000000002, 1.008, -0.032, 192.0, 0.0, 0.0, 0.0, 0.0, 0.0, 0.0, 0.0, 0.0, 0.0, 1.695760923494291E9, 0.0, 2023-09-26 15:42:03.494
246.0, 12588.278959784384, 37101.750028342016, -44402.65678199015, -45761.754603595095, -24582.314441479975, -26247.742920844907, -187500.02235174447, 4795.857345564049, -12533.360723657695, -33917.90049289471, -45095.672618826946, -40878.881916866536, -20978.58738643973, -25066.117950215095, -47954.170161982795, -32986.19037701969, -0.018000000000000002, 1.008, -0.032, 192.0, 0.0, 0.0, 0.0, 0.0, 0.0, 0.0, 0.0, 0.0, 0.0, 1.6957609234943E9, 0.0, 2023-09-26 15:42:03.494
248.0, 12605.668616970614, 37125.77815363147, -44398.521709265915, -45763.229818729145, -24581.308612979486, -26251.453310424487, -187500.02235174447, 4868.34405283261, -12546.0118110194, -33893.78296062743, -45090.487014113314, -40862.296922480695, -20971.792456125317, -25058.138377444553, -47949.94568228075, -32983.55287117397, -0.016, 1.012, -0.026000000000000002, 192.0, 127.5, 64.0, 15.5, 80.0, 127.5, 24.0, 0.0, 0.0, 0.0, 1.695760923494309E9, 0.0, 2023-09-26 15:42:03.494
250.0, 12590.514134229916, 37102.085304508844, -44397.15825285414, -45756.54664713701, -24582.850883346902, -26249.553412145786, -187500.02235174447, 4795.991456030781, -12531.080845723254, -33909.49623697952, -45088.3412466456, -40868.644817906, -20954.20163323899, -25062.094636213144, -47949.1186677359, -32984.715161885644, -0.016, 1.012, -0.026000000000000002, 192.0, 0.0, 0.0, 0.0, 0.0, 0.0, 0.0, 0.0, 0.0, 0.0, 1.695760923494318E9, 0.0, 2023-09-26 15:42:03.494
252.0, 12591.83288715278, 37116.81510410489, -44410.614003016235, -45763.654501873796, -24591.791581129026, -26257.689447127515, -187500.02235174447, 4884.057329184691, -12562.127418771675, -33911.32908002485, -45104.03217125323, -40873.11516679706, -20980.040249829322, -25071.460017139914, -47956.003005028135, -32986.168025275234, -0.016, 1.012, -0.026000000000000002, 192.0, 0.0, 0.0, 0.0, 0.0, 0.0, 0.0, 0.0, 0.0, 0.0, 1.695760923494327E9, 0.0, 2023-09-26 15:42:03.494
254.0, 12587.317834772806, 37097.883176551244, -44401.27097383392, -45762.82748732895, -24583.543787425016, -26245.641856866107, -187500.02235174447, 4823.327639499622, -12550.839787821746, -33919.263949306485, -45108.5472236332, -40887.04030359272, -20962.114150776168, -25062.16169144651, -47957.83584807347, -32988.24673750958, -0.016, 1.012, -0.026000000000000002, 192.0, 0.0, 0.0, 0.0, 0.0, 0.0, 0.0, 0.0, 0.0, 0.0, 1.69576092349436E9, 0.0, 2023-09-26 15:42:03.494
0.0, 12595.9232563881, 37114.42346744817, -44398.76757845492, -45759.2512082161, -24582.0015170576, -26250.313371457265, -187500.02235174447, 4881.44217508342, -12532.62311609067, -33916.84996090531, -45103.24986019729, -40876.33381799863, -20956.57091815125, -25056.551403588226, -47948.805743313525, -32980.91536532824, -0.016, 1.012, -0.026000000000000002, 192.0, 0.0, 0.0, 0.0, 0.0, 0.0, 0.0, 0.0, 0.0, 0.0, 1.695760923553278E9, 0.0, 2023-09-26 15:42:03.553
2.0, 12586.602578950236, 37095.11156023879, -44400.35455231125, -45752.612740112876, -24582.761476369084, -26248.1452522451, -187500.02235174447, 4811.883546338505, -12551.018601777389, -33908.848036390315, -45105.26151719827, -40872.24344876331, -20968.082066545736, -25060.977048990375, -47950.124496236385, -32983.82109210743, -0.014, 1.01, -0.026000000000000002, 192.0, 127.5, 72.0, 15.5, 72.0, 127.5, 24.0, 0.0, 0.0, 0.0, 1.695760923553296E9, 0.0, 2023-09-26 15:42:03.553
4.0, 12597.957265133533, 37105.4604179216, -44395.794796442366, -45755.27259770306, -24581.77799961305, -26247.38529293362, -187500.02235174447, 4862.912578929971, -12554.170197745587, -33922.48260050805, -45108.25665095528, -40874.43391971993, -20977.805075383792, -25064.553328103226, -47946.74938282363, -32978.68019088271, -0.014, 1.01, -0.026000000000000002, 192.0, 0.0, 0.0, 0.0, 0.0, 0.0, 0.0, 0.0, 0.0, 0.0, 1.695760923553306E9, 0.0, 2023-09-26 15:42:03.553
6.0, 12590.380023763184, 37091.51292938148, -44401.673305234115, -45756.68075760374, -24581.53213042404, -26247.47469991144, -187500.02235174447, 4829.04968608018, -12546.458845908504, -33908.1551323122, -45107.31787768816, -40879.46306222237, -20955.63214488413, -25056.104368699118, -47951.15267648133, -32985.51982468603, -0.014, 1.01, -0.026000000000000002, 192.0, 0.0, 0.0, 0.0, 0.0, 0.0, 0.0, 0.0, 0.0, 0.0, 1.695760923553314E9, 0.0, 2023-09-26 15:42:03.553
8.0, 12593.486916242471, 37104.8569208213, -44402.992058156975, -45751.42809765674, -24587.254177004597, -26250.939220302014, -187500.02235174447, 4865.997119664803, -12546.369438930684, -33907.21635904507, -45103.09339798611, -40873.58455343063, -20972.351249736697, -25057.512528599804, -47950.70564159223, -32981.60826940635, -0.014, 1.01, -0.026000000000000002, 192.0, 0.0, 0.0, 0.0, 0.0, 0.0, 0.0, 0.0, 0.0, 0.0, 1.695760923553323E9, 0.0, 2023-09-26 15:42:03.553
10.0, 12593.196343564552, 37095.938574783635, -44410.614003016235, -45764.302702463, -24589.712868894683, -26265.02081930886, -187500.02235174447, 4852.854293925082, -12550.146883743631, -33907.23871078953, -45115.74448534781, -40876.53498369873, -20964.57284266625, -25067.14613046004, -47967.11182202242, -32993.99113583459, -0.014, 1.01, -0.026000000000000002, 192.0, 0.0, 0.0, 0.0, 0.0, 0.0, 0.0, 0.0, 0.0, 0.0, 1.695760923553332E9, 0.0, 2023-09-26 15:42:03.553
12.0, 12595.11859358771, 37102.82291207587, -44400.71218022254, -45766.984911797634, -24593.1550375408, -26252.190917991513, -187500.02235174447, 4875.384852336032, -12538.81454930479, -33915.59826321581, -45104.70272358689, -40881.318257012164, -20976.128694549643, -25066.09559847064, -47961.792106842055, -32992.80649337846, -0.014, 1.008, -0.03, 192.0, 127.5, 72.0, 15.5, 64.0, 127.5, 8.0, 0.0, 0.0, 0.0, 1.695760923553341E9, 0.0, 2023-09-26 15:42:03.553
14.0, 12600.706529701536, 37103.02407777597, -44399.46048253304, -45750.04228950051, -24582.359144968887, -26246.29005745531, -187500.02235174447, 4853.971881147848, -12545.855348808213, -33914.81595215988, -45103.20515670838, -40877.65257092149, -20960.77304610885, -25061.379380390572, -47956.80766782852, -32981.09417928388, -0.014, 1.008, -0.03, 192.0, 0.0, 0.0, 0.0, 0.0, 0.0, 0.0, 0.0, 0.0, 0.0, 1.695760923612914E9, 0.0, 2023-09-26 15:42:03.612
16.0, 12604.238105325474, 37109.640194134736, -44395.59363074227, -45748.34355692191, -24584.929595581245, -26245.06071151027, -187500.02235174447, 4841.05257285268, -12548.448151165028, -33905.964661355574, -45098.98067700633, -40872.10933829658, -20956.503862917885, -25050.49408084084, -47956.762964339614, -32982.32352522892, -0.014, 1.008, -0.03, 192.0, 0.0, 0.0, 0.0, 0.0, 0.0, 0.0, 0.0, 0.0, 0.0, 1.695760923612935E9, 0.0, 2023-09-26 15:42:03.612
18.0, 12609.446061783561, 37112.925900569666, -44389.8268806728, -45747.62830109934, -24584.326098480953, -26248.368769689652, -187500.02235174447, 4853.703660214384, -12529.024485233365, -33886.63040240174, -45091.42578738044, -40853.84796307659, -20974.698182904503, -25053.35510413112, -47953.43255441577, -32979.551908916466, -0.014, 1.008, -0.03, 192.0, 0.0, 0.0, 0.0, 0.0, 0.0, 0.0, 0.0, 0.0, 0.0, 1.695760923612944E9, 0.0, 2023-09-26 15:42:03.612
20.0, 12592.771660419901, 37100.118350996774, -44401.181566856096, -45756.41253667027, -24591.43395321774, -26256.01306629337, -187500.02235174447, 4835.688154183406, -12562.239177493952, -33902.45543747609, -45097.50546187228, -40869.31537023966, -20972.48536020343, -25055.679685554467, -47956.830019572975, -32983.32935372941, -0.014, 1.008, -0.03, 192.0, 0.0, 0.0, 0.0, 0.0, 0.0, 0.0, 0.0, 0.0, 0.0, 1.695760923612984E9, 0.0, 2023-09-26 15:42:03.612
22.0, 12596.414994766117, 37105.99685978852, -44396.1300726092, -45758.96063553818, -24584.080229291943, -26262.405665207585, -187500.02235174447, 4856.497628271298, -12548.537558142849, -33914.011289359485, -45092.27515366974, -40869.87416385105, -20962.225909498444, -25059.34537164514, -47952.382022426376, -32984.715161885644, -0.012, 1.01, -0.03, 192.0, 127.5, 80.0, 15.5, 72.0, 127.5, 8.0, 0.0, 0.0, 0.0, 1.695760923612993E9, 0.0, 2023-09-26 15:42:03.612
24.0, 12587.071965583798, 37099.76072308549, -44393.47021501901, -45744.074373730946, -24584.326098480953, -26241.842060308703, -187500.02235174447, 4813.068188794636, -12547.889357553644, -33923.9578156421, -45103.24986019729, -40880.93827735642, -20968.976136323945, -25063.614554836102, -47953.67842360478, -32981.60826940635, -0.012, 1.01, -0.03, 192.0, 0.0, 0.0, 0.0, 0.0, 0.0, 0.0, 0.0, 0.0, 0.0, 1.695760923613002E9, 0.0, 2023-09-26 15:42:03.613
26.0, 12601.801765179845, 37118.5585401724, -44386.07178760431, -45749.70701333368, -24585.443685703718, -26247.631162122627, -187500.02235174447, 4858.777506205739, -12525.381150887151, -33908.199835801104, -45089.25766816827, -40858.56418115666, -20963.43290369903, -25054.025656464775, -47947.24112120165, -32970.030065778505, -0.012, 1.01, -0.03, 192.0, 0.0, 0.0, 0.0, 0.0, 0.0, 0.0, 0.0, 0.0, 0.0, 1.695760923613011E9, 0.0, 2023-09-26 15:42:03.613
28.0, 12592.995177864454, 37105.7062871106, -44386.49647074896, -45742.77797255254, -24579.073438533957, -26242.981999275926, -187500.02235174447, 4792.839860062583, -12524.62119157567, -33907.68574567864, -45083.4909180988, -40856.932503811426, -20940.678827843527, -25055.746740787836, -47948.314004935506, -32969.963010545136, -0.012, 1.01, -0.03, 192.0, 0.0, 0.0, 0.0, 0.0, 0.0, 0.0, 0.0, 0.0, 0.0, 1.69576092361302E9, 0.0, 2023-09-26 15:42:03.613
30.0, 12592.25757029743, 37109.148455756724, -44397.828805187804, -45763.14041175132, -24589.310537494486, -26258.024723294347, -187500.02235174447, 4858.3975265499985, -12544.737761585446, -33913.117219581276, -45098.4442351394, -40861.08992828011, -20940.3435516767, -25054.070359953686, -47958.506400407125, -32979.86483333884, -0.012, 1.01, -0.03, 192.0, 0.0, 0.0, 0.0, 0.0, 0.0, 0.0, 0.0, 0.0, 0.0, 1.695760923673364E9, 0.0, 2023-09-26 15:42:03.673
32.0, 12576.767811389902, 37086.975525257054, -44390.07274986181, -45752.2998156905, -24583.47673219165, -26248.368769689652, -187500.02235174447, 4781.03813899018, -12562.932081572066, -33928.71873721108, -45109.91068004497, -40886.66032393698, -20984.443543487017, -25062.988705991353, -47957.455868417725, -32985.74334213058, -0.016, 1.01, -0.028, 192.0, 127.5, 64.0, 15.5, 72.0, 127.5, 16.0, 0.0, 0.0, 0.0, 1.695760923673395E9, 0.0, 2023-09-26 15:42:03.673
34.0, 12595.96795987701, 37110.80248484641, -44384.66362770362, -45749.595254611406, -24582.0015170576, -26249.95574354598, -187500.02235174447, 4842.259567053266, -12550.146883743631, -33909.831513146346, -45098.15366246148, -40866.02966380473, -20965.221043255457, -25056.931383243966, -47946.52586537908, -32966.409083176746, -0.016, 1.01, -0.028, 192.0, 0.0, 0.0, 0.0, 0.0, 0.0, 0.0, 0.0, 0.0, 0.0, 1.695760923673404E9, 0.0, 2023-09-26 15:42:03.673
36.0, 12584.479163226983, 37091.02119100347, -44391.34679929576, -45748.83529529993, -24586.024831059556, -26255.56603140426, -187500.02235174447, 4764.3637376265215, -12549.208110476507, -33916.1570568272, -45098.801863050685, -40870.209440017876, -20971.121903791656, -25058.183080933464, -47952.091449748455, -32975.46153968114, -0.016, 1.01, -0.028, 192.0, 0.0, 0.0, 0.0, 0.0, 0.0, 0.0, 0.0, 0.0, 0.0, 1.695760923673413E9, 0.0, 2023-09-26 15:42:03.673
38.0, 12603.9251809031, 37110.44485693513, -44375.87939213269, -45750.33286217843, -24581.39801995731, -26255.454272681985, -187500.02235174447, 4848.6521659674845, -12535.774712058868, -33910.52441722446, -45093.86212752607, -40862.095756780596, -20957.24147048491, -25060.462958867905, -47952.11380149291, -32976.98145830411, -0.016, 1.01, -0.028, 192.0, 0.0, 0.0, 0.0, 0.0, 0.0, 0.0, 0.0, 0.0, 0.0, 1.695760923673422E9, 0.0, 2023-09-26 15:42:03.673
40.0, 12577.751288145935, 37087.891946779724, -44385.4235870151, -45749.37173716685, -24579.52047342306, -26251.00627553538, -187500.02235174447, 4762.374432369999, -12543.508415640405, -33921.87910340776, -45092.7445403033, -40874.880954609034, -20944.992714523403, -25053.7127320424, -47946.59292061245, -32975.483891425596, -0.016, 1.01, -0.028, 192.0, 0.0, 0.0, 0.0, 0.0, 0.0, 0.0, 0.0, 0.0, 0.0, 1.69576092367343E9, 0.0, 2023-09-26 15:42:03.673
42.0, 12589.955340618533, 37108.47790342306, -44383.34487478076, -45755.92079829226, -24584.840188603426, -26255.364865704163, -187500.02235174447, 4852.921349158448, -12567.87181709669, -33926.729431954554, -45105.21681370936, -40876.53498369873, -20957.308525718276, -25058.160729189007, -47950.52682763658, -32982.882318840304, -0.018000000000000002, 1.012, -0.026000000000000002, 192.0, 127.5, 56.0, 15.5, 80.0, 127.5, 24.0, 0.0, 0.0, 0.0, 1.695760923673467E9, 0.0, 2023-09-26 15:42:03.673
44.0, 12579.338262002262, 37090.59650785882, -44382.383749769186, -45744.63316734233, -24584.750781625604, -26242.646723109094, -187500.02235174447, 4772.3433103970665, -12560.004003048422, -33930.52922851196, -45104.03217125323, -40883.08404482413, -20958.582575152228, -25063.949831002934, -47948.89515029135, -32969.22540297811, -0.018000000000000002, 1.012, -0.026000000000000002, 192.0, 0.0, 0.0, 0.0, 0.0, 0.0, 0.0, 0.0, 0.0, 0.0, 1.695760923733709E9, 0.0, 2023-09-26 15:42:03.733
46.0, 12584.881494627178, 37111.026002290964, -44385.6247527152, -45742.62151034135, -24588.19295027172, -26248.43582492302, -187500.02235174447, 4836.828093150627, -12561.076886782275, -33906.76932415597, -45107.07200849915, -40867.95191382789, -20972.39595322561, -25055.746740787836, -47953.745478838144, -32966.029103521, -0.018000000000000002, 1.012, -0.026000000000000002, 192.0, 0.0, 0.0, 0.0, 0.0, 0.0, 0.0, 0.0, 0.0, 0.0, 1.695760923733743E9, 0.0, 2023-09-26 15:42:03.733
48.0, 12577.706584657024, 37090.21652820308, -44395.05718887534, -45754.758507580584, -24596.9548340982, -26261.24337449591, -187500.02235174447, 4795.432662419398, -12551.756209344412, -33922.63906271924, -45109.10601724458, -40881.98880934582, -20941.215269710454, -25068.442531638448, -47965.793069099556, -32976.601478648365, -0.018000000000000002, 1.012, -0.026000000000000002, 192.0, 0.0, 0.0, 0.0, 0.0, 0.0, 0.0, 0.0, 0.0, 0.0, 1.695760923733754E9, 0.0, 2023-09-26 15:42:03.733
50.0, 12589.374195262695, 37110.93659531315, -44389.75982543943, -45758.2006762267, -24595.21139803069, -26256.258935482376, -187500.02235174447, 4860.00685215078, -12550.348049443728, -33928.070536621875, -45103.96511601986, -40875.015065075764, -20985.806999898792, -25066.25206068183, -47967.08947027796, -32978.94841181617, -0.018000000000000002, 1.012, -0.026000000000000002, 192.0, 0.0, 0.0, 0.0, 0.0, 0.0, 0.0, 0.0, 0.0, 0.0, 1.695760923733764E9, 0.0, 2023-09-26 15:42:03.733
52.0, 12589.01656735141, 37100.341868441334, -44383.81426141432, -45749.90817903378, -24582.42620020225, -26247.631162122627, -187500.02235174447, 4794.672703107918, -12551.599747133227, -33929.411641289196, -45098.533642117225, -40878.54664069971, -20964.371676966155, -25061.602897835124, -47960.11572600791, -32983.6869816407, -0.018000000000000002, 1.006, -0.032, 192.0, 127.5, 56.0, 15.5, 56.0, 127.5, 0.0, 0.0, 0.0, 0.0, 1.69576092373379E9, 0.0, 2023-09-26 15:42:03.733
54.0, 12587.653110939636, 37110.46720867958, -44378.15927006713, -45747.38243191033, -24577.66527863327, -26241.99852251989, -187500.02235174447, 4823.327639499622, -12546.995287775433, -33914.97241437106, -45095.00206649328, -40869.56123942867, -20970.80897936928, -25051.23168840786, -47941.13909496535, -32963.30219069745, -0.018000000000000002, 1.006, -0.032, 192.0, 0.0, 0.0, 0.0, 0.0, 0.0, 0.0, 0.0, 0.0, 0.0, 1.695760923733799E9, 0.0, 2023-09-26 15:42:03.733
56.0, 12579.271206768895, 37103.47111266507, -44389.46925276152, -45746.71187957667, -24583.163807769277, -26255.81190059327, -187500.02235174447, 4790.515278639231, -12554.796046590334, -33925.16480984269, -45106.155586976485, -40879.5971726891, -20962.896461832104, -25054.249173909328, -47947.330528179475, -32972.17583324621, -0.018000000000000002, 1.006, -0.032, 192.0, 0.0, 0.0, 0.0, 0.0, 0.0, 0.0, 0.0, 0.0, 0.0, 1.695760923733808E9, 0.0, 2023-09-26 15:42:03.733
58.0, 12577.214846279008, 37103.78403708745, -44379.03098810089, -45748.63412959983, -24581.86740659087, -26253.196746491998, -187500.02235174447, 4792.61634261803, -12583.49568647095, -33907.26106253399, -45109.17307247795, -40874.59038193111, -20954.447502427996, -25053.869194253588, -47950.43742065876, -32976.55677515946, -0.018000000000000002, 1.006, -0.032, 192.0, 0.0, 0.0, 0.0, 0.0, 0.0, 0.0, 0.0, 0.0, 0.0, 1.695760923733817E9, 0.0, 2023-09-26 15:42:03.733
60.0, 12581.416974236605, 37097.36908642877, -44384.73068293699, -45754.33382443593, -24585.95777582619, -26255.14134825961, -187500.02235174447, 4798.070168265124, -12522.43072061905, -33925.36597554278, -45097.63957233901, -40878.65839942198, -20962.739999620917, -25065.536804859257, -47959.51222890762, -32980.24481299458, -0.018000000000000002, 1.006, -0.032, 192.0, 0.0, 0.0, 0.0, 0.0, 0.0, 0.0, 0.0, 0.0, 0.0, 1.695760923793853E9, 0.0, 2023-09-26 15:42:03.793
62.0, 12578.265378268406, 37098.84430156282, -44393.06788361882, -45755.49611514761, -24595.613729430883, -26257.085950027224, -187500.02235174447, 4810.989476560292, -12534.344200413729, -33940.25223735002, -45102.89223228601, -40883.77694890225, -20957.219118740453, -25068.241365938353, -47964.9213510658, -32980.04364729448, -0.018000000000000002, 1.006, -0.03, 192.0, 127.5, 56.0, 15.5, 56.0, 127.5, 8.0, 0.0, 0.0, 0.0, 1.695760923793872E9, 0.0, 2023-09-26 15:42:03.793
64.0, 12581.10404981423, 37101.191234730635, -44393.53727025238, -45758.37949018234, -24598.8547323769, -26258.963496561468, -187500.02235174447, 4840.762000174761, -12558.260566980907, -33926.57296974337, -45111.78822657922, -40882.48054772384, -20957.755560607384, -25065.29093567025, -47975.8737058489, -32982.85996709585, -0.018000000000000002, 1.006, -0.03, 192.0, 0.0, 0.0, 0.0, 0.0, 0.0, 0.0, 0.0, 0.0, 0.0, 1.69576092379392E9, 0.0, 2023-09-26 15:42:03.793
66.0, 12573.482104954972, 37100.43127541915, -44383.434281758586, -45750.37756566734, -24593.87029336337, -26251.654476124582, -187500.02235174447, 4817.315020241144, -12566.217788006996, -33933.926693669164, -45113.64342136901, -40885.43097799194, -20970.831331113735, -25067.28024092677, -47967.82707784499, -32978.546080415974, -0.018000000000000002, 1.006, -0.03, 192.0, 0.0, 0.0, 0.0, 0.0, 0.0, 0.0, 0.0, 0.0, 0.0, 1.695760923793929E9, 0.0, 2023-09-26 15:42:03.793
68.0, 12587.675462684092, 37111.942423813634, -44371.38669149717, -45737.502960861086, -24583.968470569667, -26248.659342367573, -187500.02235174447, 4829.921404113938, -12543.374305173673, -33920.49329525152, -45100.56765086266, -40872.75753888578, -20977.96153759498, -25059.658296067515, -47958.46169691822, -32972.51110941304, -0.018000000000000002, 1.006, -0.03, 192.0, 0.0, 0.0, 0.0, 0.0, 0.0, 0.0, 0.0, 0.0, 0.0, 1.695760923793937E9, 0.0, 2023-09-26 15:42:03.793
70.0, 12572.655090410124, 37103.404057431704, -44370.917304863615, -45735.80422828248, -24583.744953125115, -26251.989752291414, -187500.02235174447, 4797.556078142653, -12546.05651450831, -33899.37089674126, -45090.151737946486, -40861.402852702486, -20951.43001692653, -25040.033464435754, -47946.771734568094, -32963.43630116419, -0.018000000000000002, 1.006, -0.03, 192.0, 0.0, 0.0, 0.0, 0.0, 0.0, 0.0, 0.0, 0.0, 0.0, 1.695760923793946E9, 0.0, 2023-09-26 15:42:03.793
72.0, 12566.687174640558, 37102.53233939795, -44383.7248544365, -45761.30756870599, -24589.62346191686, -26262.76329311887, -187500.02235174447, 4855.670613726451, -12564.049668794833, -33923.68959470864, -45103.898060786494, -40873.80807087518, -20966.986831067425, -25057.087845455153, -47952.292615448554, -32973.315772213435, -0.012, 1.01, -0.028, 192.0, 127.5, 80.0, 15.5, 72.0, 127.5, 16.0, 0.0, 0.0, 0.0, 1.695760923793955E9, 0.0, 2023-09-26 15:42:03.793
74.0, 12569.838770608756, 37096.698534095114, -44371.87842987519, -45741.32510916294, -24588.01413631608, -26254.940182559512, -187500.02235174447, 4807.793177103184, -12555.935985557555, -33918.973376628564, -45094.66679032645, -40879.75363490029, -20959.744865863904, -25061.804063535223, -47953.67842360478, -32977.76376936004, -0.012, 1.01, -0.028, 192.0, 0.0, 0.0, 0.0, 0.0, 0.0, 0.0, 0.0, 0.0, 0.0, 1.695760923853279E9, 0.0, 2023-09-26 15:42:03.853
76.0, 12578.600654435237, 37103.3593539428, -44382.78608116938, -45755.67492910325, -24598.362993998886, -26261.91392682957, -187500.02235174447, 4871.4285935674425, -12558.640546636647, -33930.506876767504, -45090.10703445757, -40876.02089357626, -20974.608775926685, -25078.59022362116, -47962.12738300889, -32976.55677515946, -0.012, 1.01, -0.028, 192.0, 0.0, 0.0, 0.0, 0.0, 0.0, 0.0, 0.0, 0.0, 0.0, 1.6957609238533E9, 0.0, 2023-09-26 15:42:03.853
78.0, 12570.710488642513, 37087.33315316834, -44381.802604413344, -45745.03549874252, -24596.15017129781, -26253.509670914373, -187500.02235174447, 4800.685322366396, -12587.898980128644, -33937.61473150429, -45100.5452991182, -40889.94603037191, -20968.998488068402, -25069.20249094993, -47964.76488885461, -32978.568432160435, -0.012, 1.01, -0.028, 192.0, 0.0, 0.0, 0.0, 0.0, 0.0, 0.0, 0.0, 0.0, 0.0, 1.695760923853309E9, 0.0, 2023-09-26 15:42:03.853
80.0, 12580.969939347498, 37107.740295856034, -44380.01446485692, -45747.60594935488, -24603.839171390435, -26262.830348352236, -187500.02235174447, 4906.677294573462, -12536.869947537178, -33917.96754812808, -45102.48990088581, -40870.63412316253, -20964.1481595216, -25066.408522893016, -47965.21192374372, -32979.41779844974, -0.012, 1.01, -0.028, 192.0, 0.0, 0.0, 0.0, 0.0, 0.0, 0.0, 0.0, 0.0, 0.0, 1.695760923853319E9, 0.0, 2023-09-26 15:42:03.853
82.0, 12568.274148496885, 37083.30983916639, -44372.794851397855, -45739.42521088424, -24590.964566584178, -26249.262839467865, -187500.02235174447, 4814.945735328882, -12563.289709483352, -33926.77413544347, -45100.99233400731, -40879.932448855936, -20974.564072437774, -25054.249173909328, -47956.02535677259, -32973.98632454709, -0.008, 1.012, -0.028, 192.0, 127.5, 96.0, 15.5, 80.0, 127.5, 16.0, 0.0, 0.0, 0.0, 1.695760923853344E9, 0.0, 2023-09-26 15:42:03.853
84.0, 12592.168163319608, 37109.01434528999, -44367.45278447304, -45741.839199285416, -24591.50100845111, -26259.879918084138, -187500.02235174447, 4866.935892931926, -12560.428686193072, -33913.78777191493, -45090.57642109114, -40871.61759991856, -20949.038380269812, -25049.42119710698, -47950.884455547864, -32971.25941172355, -0.008, 1.012, -0.028, 192.0, 0.0, 0.0, 0.0, 0.0, 0.0, 0.0, 0.0, 0.0, 0.0, 1.695760923853391E9, 0.0, 2023-09-26 15:42:03.853
86.0, 12582.355747503729, 37087.064932234876, -44370.425566485595, -45741.74979230759, -24594.138514296832, -26249.57576389024, -187500.02235174447, 4799.031293276703, -12542.949622029022, -33907.19400730062, -45083.87089775454, -40877.8984401105, -20965.86924384466, -25050.38232211856, -47954.326624193985, -32976.64618213727, -0.008, 1.012, -0.028, 192.0, 0.0, 0.0, 0.0, 0.0, 0.0, 0.0, 0.0, 0.0, 0.0, 1.6957609238534E9, 0.0, 2023-09-26 15:42:03.853
88.0, 12587.250779539441, 37100.118350996774, -44364.92703734959, -45748.00828075508, -24593.400906729807, -26255.364865704163, -187500.02235174447, 4867.62879701004, -12555.488950668449, -33916.84996090531, -45087.134252445016, -40870.70117839589, -20978.43092422854, -25059.05479896722, -47952.31496719301, -32969.13599600029, -0.008, 1.012, -0.028, 192.0, 0.0, 0.0, 0.0, 0.0, 0.0, 0.0, 0.0, 0.0, 0.0, 1.695760923853409E9, 0.0, 2023-09-26 15:42:03.853
90.0, 12561.72508737148, 37073.76564428397, -44383.03195035839, -45757.083089003936, -24603.906226623803, -26263.925583830547, -187500.02235174447, 4801.5793921446075, -12564.273186239385, -33922.549655741415, -45100.36648516256, -40889.40958850498, -20984.063563831278, -25068.308421171718, -47967.06711853351, -32982.92702232922, -0.008, 1.012, -0.028, 192.0, 0.0, 0.0, 0.0, 0.0, 0.0, 0.0, 0.0, 0.0, 0.0, 1.695760923912938E9, 0.0, 2023-09-26 15:42:03.912
92.0, 12572.58803517676, 37094.37395267176, -44374.0241973429, -45753.28329244653, -24586.471865948664, -26252.570897647252, -187500.02235174447, 4849.032145623225, -12549.833959321257, -33923.82370517537, -45101.86405204106, -40888.24729779331, -20972.172435781056, -25068.643697338546, -47964.7201853657, -32980.378923461314, -0.012, 1.016, -0.026000000000000002, 192.0, 127.5, 80.0, 15.5, 96.0, 127.5, 24.0, 0.0, 0.0, 0.0, 1.695760923912956E9, 0.0, 2023-09-26 15:42:03.912
94.0, 12544.134264485154, 37065.54020232442, -44395.236002830985, -45782.6087811719, -24600.575816699962, -26277.426037481553, -187500.02235174447, 4800.037121777192, -12570.48697119796, -33932.898513424225, -45113.151682990996, -40901.725399699855, -20972.284194503332, -25072.376438662584, -47962.12738300889, -32986.033914808504, -0.012, 1.016, -0.026000000000000002, 192.0, 0.0, 0.0, 0.0, 0.0, 0.0, 0.0, 0.0, 0.0, 0.0, 1.695760923912966E9, 0.0, 2023-09-26 15:42:03.912
96.0, 12562.954433316521, 37089.16599621368, -44382.942543380566, -45770.136507765834, -24589.511703194585, -26264.976115819947, -187500.02235174447, 4859.984500406325, -12593.956302876033, -33949.05882466541, -45124.238148240824, -40908.162702102985, -20992.78074416885, -25083.239386467863, -47967.38004295588, -32997.8356358809, -0.012, 1.016, -0.026000000000000002, 192.0, 0.0, 0.0, 0.0, 0.0, 0.0, 0.0, 0.0, 0.0, 0.0, 1.695760923912975E9, 0.0, 2023-09-26 15:42:03.912
98.0, 12562.328584471774, 37079.24182167552, -44401.181566856096, -45768.05779553149, -24595.792543386528, -26263.232679752433, -187500.02235174447, 4796.974932786815, -12553.142017500642, -33920.96268188509, -45111.45295041239, -40892.56118447318, -20979.123828306656, -25062.16169144651, -47955.801839328036, -32987.777350876015, -0.012, 1.016, -0.026000000000000002, 192.0, 0.0, 0.0, 0.0, 0.0, 0.0, 0.0, 0.0, 0.0, 0.0, 1.695760923912983E9, 0.0, 2023-09-26 15:42:03.912
100.0, 12584.479163226983, 37106.33213595535, -44391.83853767378, -45762.08987976192, -24595.054935819502, -26261.176319262544, -187500.02235174447, 4857.950491660892, -12542.48023539546, -33915.50885623799, -45108.100188744094, -40888.0014286043, -21000.87207566167, -25056.976086732877, -47955.55597013902, -32985.76569387504, -0.012, 1.016, -0.026000000000000002, 192.0, 0.0, 0.0, 0.0, 0.0, 0.0, 0.0, 0.0, 0.0, 0.0, 1.695760923912992E9, 0.0, 2023-09-26 15:42:03.912
102.0, 12577.795991634846, 37092.67522009316, -44418.168892642134, -45776.015016557576, -24601.20166554471, -26265.28904024232, -187500.02235174447, 4843.108933342568, -12559.53461641486, -33925.16480984269, -45109.66481085597, -40884.06752158017, -20998.614549471684, -25068.889566527556, -47957.90290330684, -32987.75499913156, -0.02, 1.018, -0.024, 192.0, 127.5, 48.0, 15.5, 104.0, 127.5, 32.0, 0.0, 0.0, 0.0, 1.695760923913001E9, 0.0, 2023-09-26 15:42:03.913
104.0, 12592.749308675446, 37111.450685435615, -44398.678171477106, -45752.34451917941, -24585.48838919263, -26246.848851066694, -187500.02235174447, 4857.011718393769, -12538.702790582514, -33922.415545274685, -45101.88640378552, -40881.65353317899, -21002.749622195915, -25068.57664210518, -47950.03508925856, -32980.378923461314, -0.02, 1.018, -0.024, 192.0, 0.0, 0.0, 0.0, 0.0, 0.0, 0.0, 0.0, 0.0, 0.0, 1.695760923973254E9, 0.0, 2023-09-26 15:42:03.973
106.0, 12581.10404981423, 37095.58094687235, -44405.584860513794, -45767.208429242186, -24586.471865948664, -26252.459138924976, -187500.02235174447, 4815.705694640362, -12535.707656825502, -33922.66141446369, -45099.561822362164, -40876.93731509892, -20991.81961915727, -25059.8147582787, -47945.29651943404, -32976.601478648365, -0.02, 1.018, -0.024, 192.0, 0.0, 0.0, 0.0, 0.0, 0.0, 0.0, 0.0, 0.0, 0.0, 1.695760923973308E9, 0.0, 2023-09-26 15:42:03.973
108.0, 12568.475314196983, 37088.92012702467, -44424.807360745355, -45787.749682396614, -24594.33967999693, -26265.28904024232, -187500.02235174447, 4836.2692995392445, -12545.922404041577, -33920.26977780697, -45113.46460741337, -40885.07335008065, -20994.524180236363, -25051.946944230433, -47950.99621427014, -32985.43041770821, -0.02, 1.018, -0.024, 192.0, 0.0, 0.0, 0.0, 0.0, 0.0, 0.0, 0.0, 0.0, 0.0, 1.695760923973317E9, 0.0, 2023-09-26 15:42:03.973
110.0, 12564.876683339678, 37082.639286832724, -44428.74126776949, -45789.80604288651, -24591.165732284277, -26256.77302560485, -187500.02235174447, 4824.6463924224845, -12557.612366391704, -33934.88781868074, -45125.98158430834, -40898.84202466512, -20985.315261520776, -25071.6164793511, -47958.14877249584, -32993.36528698984, -0.02, 1.018, -0.024, 192.0, 0.0, 0.0, 0.0, 0.0, 0.0, 0.0, 0.0, 0.0, 0.0, 1.695760923973393E9, 0.0, 2023-09-26 15:42:03.973
112.0, 12568.855293852723, 37088.58485085784, -44419.0853141648, -45778.92074333677, -24591.09867705091, -26242.534964386818, -187500.02235174447, 4822.09829355458, -12559.735782114958, -33918.839266161835, -45117.957308048884, -40891.935335628434, -20993.071316846766, -25044.794386004734, -47951.934987537265, -32980.3342199724, -0.016, 1.012, -0.026000000000000002, 192.0, 127.5, 64.0, 15.5, 80.0, 127.5, 24.0, 0.0, 0.0, 0.0, 1.695760923973402E9, 0.0, 2023-09-26 15:42:03.973
114.0, 12585.082660327276, 37100.543034141425, -44420.51582580994, -45774.02571130106, -24588.19295027172, -26245.418339421554, -187500.02235174447, 4842.304270542178, -12544.536595885349, -33920.29212955143, -45105.21681370936, -40884.96159135838, -20998.30162504931, -25050.24821165183, -47946.414106656805, -32976.66853388173, -0.016, 1.012, -0.026000000000000002, 192.0, 0.0, 0.0, 0.0, 0.0, 0.0, 0.0, 0.0, 0.0, 0.0, 1.695760923973413E9, 0.0, 2023-09-26 15:42:03.973
116.0, 12573.571511932792, 37088.92012702467, -44426.84136949079, -45770.18121125474, -24591.568063684474, -26239.740996329903, -187500.02235174447, 4815.213956262345, -12549.498683154427, -33909.02685034595, -45103.428674152936, -40875.10447205359, -21002.63786347364, -25035.585467289147, -47939.23919668665, -32968.487795411085, -0.016, 1.012, -0.026000000000000002, 192.0, 0.0, 0.0, 0.0, 0.0, 0.0, 0.0, 0.0, 0.0, 0.0, 1.695760923973433E9, 0.0, 2023-09-26 15:42:03.973
118.0, 12580.768773647402, 37092.96579277108, -44427.377811357714, -45770.94117056623, -24590.539883439527, -26240.858583552672, -187500.02235174447, 4858.196360849901, -12590.312968529817, -33926.19299008763, -45124.17109300746, -40884.2016320469, -21007.39878504262, -25065.04506648124, -47948.13519097986, -32974.18749024719, -0.016, 1.012, -0.026000000000000002, 192.0, 0.0, 0.0, 0.0, 0.0, 0.0, 0.0, 0.0, 0.0, 0.0, 1.695760923973442E9, 0.0, 2023-09-26 15:42:03.973
120.0, 12574.979671833476, 37082.169900199166, -44421.36519209924, -45771.879943833344, -24587.656508404794, -26241.14915623059, -187500.02235174447, 4801.8699648225265, -12524.174156686564, -33917.18523707214, -45104.52390963124, -40882.56995470166, -20980.219063784967, -25048.750644773325, -47939.216844942195, -32974.232193736105, -0.016, 1.012, -0.026000000000000002, 192.0, 0.0, 0.0, 0.0, 0.0, 0.0, 0.0, 0.0, 0.0, 0.0, 1.695760924033573E9, 0.0, 2023-09-26 15:42:04.033
122.0, 12582.221637036997, 37093.47988289355, -44433.36807887174, -45786.363874240385, -24596.39604048682, -26253.554374403284, -187500.02235174447, 4849.993270634803, -12554.72899135697, -33930.730394212056, -45112.61524112407, -40881.85469887909, -20977.648613172605, -25051.142281430042, -47951.64441485935, -32988.24673750958, -0.016, 1.012, -0.022, 192.0, 127.5, 64.0, 15.5, 80.0, 127.5, 40.0, 0.0, 0.0, 0.0, 1.695760924033594E9, 0.0, 2023-09-26 15:42:04.033
124.0, 12577.326605001284, 37082.25930717699, -44424.44973283407, -45771.119984521865, -24587.410639215785, -26233.482507882418, -187500.02235174447, 4794.873868808016, -12561.121590271187, -33925.79065868743, -45113.554014391186, -40887.42028324846, -20999.240398316433, -25047.454243594915, -47949.61040611391, -32986.72681888662, -0.016, 1.012, -0.022, 192.0, 0.0, 0.0, 0.0, 0.0, 0.0, 0.0, 0.0, 0.0, 0.0, 1.695760924033605E9, 0.0, 2023-09-26 15:42:04.033
126.0, 12599.499535500949, 37104.052258020914, -44415.26316586294, -45760.01116752758, -24580.056915289988, -26224.631217078117, -187500.02235174447, 4851.2449683243, -12538.032238248854, -33906.16582705567, -45095.47145312685, -40868.46600395036, -20987.14810456611, -25034.24436262183, -47936.17700769628, -32963.83863256438, -0.016, 1.012, -0.022, 192.0, 0.0, 0.0, 0.0, 0.0, 0.0, 0.0, 0.0, 0.0, 0.0, 1.695760924033613E9, 0.0, 2023-09-26 15:42:04.033
128.0, 12589.150677818141, 37092.80933055989, -44410.83752046079, -45746.15308596529, -24579.72163912316, -26223.156001944066, -187500.02235174447, 4788.749490827262, -12549.476331409971, -33895.99578332851, -45095.225583937834, -40870.9470475849, -20989.562092967284, -25027.561191029694, -47935.662917573805, -32962.542231385974, -0.016, 1.012, -0.022, 192.0, 0.0, 0.0, 0.0, 0.0, 0.0, 0.0, 0.0, 0.0, 0.0, 1.69576092403365E9, 0.0, 2023-09-26 15:42:04.033
130.0, 12592.056404597331, 37110.1095807683, -44421.07461942132, -45757.57482738195, -24583.2532147471, -26234.398929405088, -187500.02235174447, 4878.089413415124, -12559.646375137136, -33883.881137833734, -45101.23820319631, -40852.149230497984, -21006.0576803753, -25026.153031129008, -47935.70762106271, -32958.72008308412, -0.016, 1.012, -0.022, 192.0, 0.0, 0.0, 0.0, 0.0, 0.0, 0.0, 0.0, 0.0, 0.0, 1.695760924033659E9, 0.0, 2023-09-26 15:42:04.033
132.0, 12584.412107993616, 37093.211661960086, -44418.101837408765, -45755.473763403155, -24578.469941433665, -26229.749766558383, -187500.02235174447, 4807.524956169719, -12546.771770330879, -33886.473940190546, -45097.28194442773, -40860.73230036882, -20994.0547936028, -25017.547609513716, -47932.48896986115, -32958.76478657303, -0.01, 1.01, -0.024, 192.0, 127.5, 88.0, 15.5, 72.0, 127.5, 32.0, 0.0, 0.0, 0.0, 1.695760924033668E9, 0.0, 2023-09-26 15:42:04.033
134.0, 12582.288692270362, 37104.119313254276, -44423.10862816675, -45764.23564722963, -24583.67789789175, -26236.120013728145, -187500.02235174447, 4897.06604445768, -12560.920424571088, -33903.32715550985, -45103.80865380867, -40866.923733582946, -20997.653424460106, -25042.402749348017, -47939.216844942195, -32962.4304726637, -0.01, 1.01, -0.024, 192.0, 0.0, 0.0, 0.0, 0.0, 0.0, 0.0, 0.0, 0.0, 0.0, 1.695760924093973E9, 0.0, 2023-09-26 15:42:04.093
136.0, 12580.478200969483, 37094.23984220503, -44410.50224429396, -45757.86540005987, -24575.988897799125, -26233.728377071428, -187500.02235174447, 4827.99915409078, -12598.20313432254, -33904.6012049438, -45104.97094452035, -40871.93052434093, -20981.71663066347, -25042.38039760356, -47935.90878676281, -32965.67147560972, -0.01, 1.01, -0.024, 192.0, 0.0, 0.0, 0.0, 0.0, 0.0, 0.0, 0.0, 0.0, 0.0, 1.695760924093994E9, 0.0, 2023-09-26 15:42:04.093
138.0, 12599.052500611842, 37120.77136287348, -44399.080502877296, -45755.473763403155, -24576.145360010312, -26232.990769504402, -187500.02235174447, 4901.514041604286, -12532.913688768589, -33890.385495470226, -45084.11676694355, -40853.93737005441, -20987.77395341086, -25028.18703987444, -47925.47052210218, -32958.02717900601, -0.01, 1.01, -0.024, 192.0, 0.0, 0.0, 0.0, 0.0, 0.0, 0.0, 0.0, 0.0, 0.0, 1.695760924094005E9, 0.0, 2023-09-26 15:42:04.094
140.0, 12582.512209714916, 37097.0561620064, -44394.677209219604, -45755.42905991424, -24566.80233082799, -26232.007292748367, -187500.02235174447, 4813.649334150474, -12537.920479526578, -33877.75675985298, -45080.9428192309, -40858.07244277864, -20965.28809848882, -25027.337673585138, -47924.93408023525, -32958.831841806394, -0.01, 1.01, -0.024, 192.0, 0.0, 0.0, 0.0, 0.0, 0.0, 0.0, 0.0, 0.0, 0.0, 1.695760924094019E9, 0.0, 2023-09-26 15:42:04.094
142.0, 12589.485953984971, 37109.997822046025, -44399.41577904413, -45756.47959190364, -24572.01028728608, -26234.778909060828, -187500.02235174447, 4883.073852428657, -12539.418046405084, -33881.60125989929, -45080.60754306406, -40856.73133811133, -20982.43188648604, -25022.442641549427, -47918.1615016653, -32951.008731247035, -0.016, 1.008, -0.026000000000000002, 192.0, 127.5, 64.0, 15.5, 64.0, 127.5, 24.0, 0.0, 0.0, 0.0, 1.695760924094028E9, 0.0, 2023-09-26 15:42:04.094
144.0, 12587.362538261717, 37095.91622303918, -44400.95804941154, -45754.02090001356, -24572.792598342014, -26235.538868372307, -187500.02235174447, 4828.356782002065, -12541.496758639427, -33895.973431584054, -45089.28001991272, -40866.58845741612, -20964.39402871061, -25037.15008940102, -47931.28197566056, -32959.10006273986, -0.016, 1.008, -0.026000000000000002, 192.0, 0.0, 0.0, 0.0, 0.0, 0.0, 0.0, 0.0, 0.0, 0.0, 1.695760924094037E9, 0.0, 2023-09-26 15:42:04.094
146.0, 12600.304198301339, 37119.989051817545, -44384.060130603335, -45741.7944957965, -24564.38834242682, -26231.873182281637, -187500.02235174447, 4884.660826284984, -12551.756209344412, -33869.53131789342, -45080.83106050862, -40845.55546588367, -20991.35023252371, -25022.509696782792, -47920.88841448884, -32952.19337370317, -0.016, 1.008, -0.026000000000000002, 192.0, 0.0, 0.0, 0.0, 0.0, 0.0, 0.0, 0.0, 0.0, 0.0, 1.695760924094047E9, 0.0, 2023-09-26 15:42:04.094
148.0, 12592.883419142177, 37098.307859695895, -44388.1281480942, -45744.543760364504, -24560.990877269614, -26231.627313092627, -187500.02235174447, 4827.038029079203, -12531.326714912262, -33884.32817272284, -45075.667807539445, -40849.0423380187, -20979.459104473484, -25027.784708474246, -47916.10514117541, -32954.227382448604, -0.016, 1.008, -0.026000000000000002, 192.0, 0.0, 0.0, 0.0, 0.0, 0.0, 0.0, 0.0, 0.0, 0.0, 1.695760924094057E9, 0.0, 2023-09-26 15:42:04.094
150.0, 12599.25366631194, 37110.28839472394, -44388.30696204984, -45743.87320803085, -24563.986011026624, -26222.932484499514, -187500.02235174447, 4865.259512097778, -12544.111912740698, -33884.015248300464, -45085.63668556651, -40851.27751246423, -20962.51648217636, -25027.740004985335, -47913.1100074184, -32947.588914345375, -0.016, 1.008, -0.026000000000000002, 192.0, 0.0, 0.0, 0.0, 0.0, 0.0, 0.0, 0.0, 0.0, 0.0, 1.695760924153267E9, 0.0, 2023-09-26 15:42:04.153
152.0, 12608.239067582974, 37111.51774066898, -44386.563525982325, -45741.258053929574, -24567.472883161652, -26228.363958402155, -187500.02235174447, 4847.378116533532, -12531.706694568002, -33873.35346619529, -45081.56866807564, -40849.39996592998, -20978.16270329508, -25027.963522429887, -47917.28978363154, -32949.35470215735, -0.014, 1.01, -0.026000000000000002, 192.0, 127.5, 72.0, 15.5, 72.0, 127.5, 24.0, 0.0, 0.0, 0.0, 1.695760924153296E9, 0.0, 2023-09-26 15:42:04.153
154.0, 12609.31195131683, 37114.13289477026, -44385.75886318194, -45742.3979928968, -24565.505929649586, -26225.413528134053, -187500.02235174447, 4856.67644222694, -12549.208110476507, -33875.25336447398, -45073.499688327276, -40848.461192662864, -20965.779836866837, -25020.14041187053, -47917.06626618699, -32944.862001521826, -0.014, 1.01, -0.026000000000000002, 192.0, 0.0, 0.0, 0.0, 0.0, 0.0, 0.0, 0.0, 0.0, 0.0, 1.695760924153305E9, 0.0, 2023-09-26 15:42:04.153
156.0, 12608.172012349607, 37109.23786273454, -44391.9279446516, -45745.77310630955, -24566.422351172252, -26230.576781103227, -187500.02235174447, 4840.9631658748585, -12523.458900863994, -33875.18630924062, -45082.26157215376, -40853.75855609877, -20968.037363056825, -25021.213295604386, -47925.649336057824, -32954.20503070415, -0.014, 1.01, -0.026000000000000002, 192.0, 0.0, 0.0, 0.0, 0.0, 0.0, 0.0, 0.0, 0.0, 0.0, 1.695760924153314E9, 0.0, 2023-09-26 15:42:04.153
158.0, 12595.96795987701, 37101.77238008647, -44399.75105521096, -45763.654501873796, -24576.368877454865, -26241.350321930688, -187500.02235174447, 4847.311061300166, -12528.778616044357, -33883.56821341136, -45085.41316812196, -40865.33675972662, -20962.605889154183, -25024.923685183967, -47926.05166745802, -32957.33427492789, -0.014, 1.01, -0.026000000000000002, 192.0, 0.0, 0.0, 0.0, 0.0, 0.0, 0.0, 0.0, 0.0, 0.0, 1.695760924153323E9, 0.0, 2023-09-26 15:42:04.153
160.0, 12605.243933825963, 37112.32240346938, -44396.53240400939, -45747.78476331053, -24572.34556345291, -26232.47667938193, -187500.02235174447, 4878.87172447106, -12564.58611066176, -33895.68285890613, -45104.99329626481, -40871.37173072955, -20967.210348511977, -25032.635037021046, -47938.68040307527, -32970.36534194533, -0.014, 1.01, -0.026000000000000002, 192.0, 0.0, 0.0, 0.0, 0.0, 0.0, 0.0, 0.0, 0.0, 0.0, 1.695760924153331E9, 0.0, 2023-09-26 15:42:04.153
162.0, 12604.103994858742, 37110.623670890775, -44385.22242131501, -45738.62054808385, -24566.288240705522, -26228.073385724234, -187500.02235174447, 4849.032145623225, -12519.927325240056, -33861.372931167236, -45082.95447623188, -40846.22601821733, -20977.939185850526, -25019.559266514694, -47921.84953950042, -32956.328446427404, -0.01, 1.014, -0.026000000000000002, 192.0, 127.5, 88.0, 15.5, 88.0, 127.5, 24.0, 0.0, 0.0, 0.0, 1.69576092415334E9, 0.0, 2023-09-26 15:42:04.153
164.0, 12608.97667515, 37112.54592091393, -44390.92211615111, -45750.01993775606, -24571.071514018957, -26236.65645559507, -187500.02235174447, 4882.559762306186, -12536.668781837081, -33878.024980786446, -45088.20713617887, -40849.154096740975, -20987.572787710764, -25020.878019437554, -47924.35293487942, -32962.341065685876, -0.01, 1.014, -0.026000000000000002, 192.0, 0.0, 0.0, 0.0, 0.0, 0.0, 0.0, 0.0, 0.0, 0.0, 1.695760924213022E9, 0.0, 2023-09-26 15:42:04.213
166.0, 12596.504401743938, 37100.118350996774, -44395.57127899781, -45754.57969362494, -24570.177444240744, -26226.553467101276, -187500.02235174447, 4843.667726953951, -12541.608517361703, -33897.023963573454, -45095.225583937834, -40868.08602429462, -20978.520331206364, -25030.198696875417, -47927.52688259207, -32969.04658902247, -0.01, 1.014, -0.026000000000000002, 192.0, 0.0, 0.0, 0.0, 0.0, 0.0, 0.0, 0.0, 0.0, 0.0, 1.695760924213051E9, 0.0, 2023-09-26 15:42:04.213
168.0, 12611.88240192919, 37119.363202972796, -44389.69277020607, -45748.85764704438, -24569.23867097362, -26226.553467101276, -187500.02235174447, 4889.019416453769, -12538.434569649049, -33876.9968005415, -45090.554069346676, -40850.361090941566, -20965.019877555358, -25031.360987587093, -47922.38598136735, -32959.748263329064, -0.01, 1.014, -0.026000000000000002, 192.0, 0.0, 0.0, 0.0, 0.0, 0.0, 0.0, 0.0, 0.0, 0.0, 1.695760924213061E9, 0.0, 2023-09-26 15:42:04.213
170.0, 12595.096241843254, 37102.15235974221, -44398.812281943836, -45750.75754532308, -24577.687630377728, -26236.790566061805, -187500.02235174447, 4853.614253236563, -12528.130415455153, -33895.16876878366, -45086.82132802264, -40859.48060267933, -20970.071371802256, -25040.279333624763, -47926.96808898069, -32964.26331570903, -0.01, 1.014, -0.026000000000000002, 192.0, 0.0, 0.0, 0.0, 0.0, 0.0, 0.0, 0.0, 0.0, 0.0, 1.695760924213098E9, 0.0, 2023-09-26 15:42:04.213
172.0, 12603.813422180823, 37114.98226105956, -44401.56154651184, -45755.00437676959, -24572.18910124172, -26238.33283642922, -187500.02235174447, 4919.238974957344, -12553.76786634539, -33891.32426873735, -45094.331514159625, -40853.87031482105, -20978.00624108389, -25029.170516630475, -47930.03027797107, -32963.883336053295, -0.01, 1.012, -0.032, 192.0, 127.5, 88.0, 15.5, 80.0, 127.5, 0.0, 0.0, 0.0, 0.0, 1.695760924213107E9, 0.0, 2023-09-26 15:42:04.213
174.0, 12590.804706907835, 37095.13391198324, -44397.24765983196, -45755.33965293642, -24574.80425534299, -26234.33187417172, -187500.02235174447, 4867.762907476772, -12556.092447768742, -33894.60997517228, -45095.53850836021, -40868.242486505806, -20958.515519918863, -25032.635037021046, -47927.95156573672, -32961.26818195202, -0.01, 1.012, -0.032, 192.0, 0.0, 0.0, 0.0, 0.0, 0.0, 0.0, 0.0, 0.0, 0.0, 1.695760924213117E9, 0.0, 2023-09-26 15:42:04.213
176.0, 12608.999026894455, 37118.46913319459, -44375.655874688135, -45745.08020223143, -24558.666295846262, -26225.27941766732, -187500.02235174447, 4917.093207489635, -12528.756264299902, -33884.015248300464, -45079.244086652296, -40854.92084681045, -20982.565996952773, -25033.640865521535, -47917.66976328728, -32956.19433596067, -0.01, 1.012, -0.032, 192.0, 0.0, 0.0, 0.0, 0.0, 0.0, 0.0, 0.0, 0.0, 0.0, 1.695760924213126E9, 0.0, 2023-09-26 15:42:04.213
178.0, 12591.452907497038, 37096.51972013947, -44384.39540677016, -45746.98010051013, -24557.727522579138, -26230.822650292237, -187500.02235174447, 4817.292668496689, -12574.219712521997, -33892.195986771105, -45081.5910198201, -40856.776041600235, -20976.262805016377, -25022.08501363814, -47911.187757395244, -32956.596667360864, -0.01, 1.012, -0.032, 192.0, 0.0, 0.0, 0.0, 0.0, 0.0, 0.0, 0.0, 0.0, 0.0, 1.695760924213135E9, 0.0, 2023-09-26 15:42:04.213
180.0, 12598.91839014511, 37113.73056337006, -44392.710255707534, -45754.08795524692, -24568.545766895506, -26242.356150431177, -187500.02235174447, 4906.073797473168, -12518.899144995112, -33894.07353330535, -45078.797051763184, -40849.712890352355, -20959.208423996977, -25031.025711420265, -47915.0099056971, -32957.11075748334, -0.01, 1.012, -0.032, 192.0, 0.0, 0.0, 0.0, 0.0, 0.0, 0.0, 0.0, 0.0, 0.0, 1.695760924273322E9, 0.0, 2023-09-26 15:42:04.273
182.0, 12588.681291184581, 37096.16209222819, -44384.976552126, -45746.06367898747, -24562.376685425843, -26231.38144390362, -187500.02235174447, 4827.976802346326, -12539.19452896053, -33884.32817272284, -45082.68625529841, -40863.61567540356, -20979.280290517843, -25039.362912102093, -47917.558004565006, -32956.90959178324, -0.012, 1.014, -0.026000000000000002, 192.0, 127.5, 80.0, 15.5, 88.0, 127.5, 24.0, 0.0, 0.0, 0.0, 1.695760924273356E9, 0.0, 2023-09-26 15:42:04.273
184.0, 12598.091375600265, 37114.602281403815, -44399.39342729967, -45761.91106580628, -24569.10456050689, -26243.76431033186, -187500.02235174447, 4914.008666754802, -12536.154691714608, -33900.55553919739, -45085.815499522156, -40859.368843957054, -20974.608775926685, -25043.073301681674, -47918.29561213203, -32961.06701625192, -0.012, 1.014, -0.026000000000000002, 192.0, 0.0, 0.0, 0.0, 0.0, 0.0, 0.0, 0.0, 0.0, 0.0, 1.695760924273366E9, 0.0, 2023-09-26 15:42:04.273
186.0, 12591.609369708225, 37099.648964363216, -44391.21268882903, -45747.76241156607, -24559.20273771319, -26226.732281056917, -187500.02235174447, 4842.930119386926, -12528.823319533269, -33890.34079198132, -45079.8922872415, -40859.07827127913, -20956.325048962244, -25030.71278699789, -47918.78735051004, -32960.3294086849, -0.012, 1.014, -0.026000000000000002, 192.0, 0.0, 0.0, 0.0, 0.0, 0.0, 0.0, 0.0, 0.0, 0.0, 1.695760924273375E9, 0.0, 2023-09-26 15:42:04.273
188.0, 12588.413070251116, 37110.131932512755, -44401.85211918976, -45759.85470531639, -24569.171615740255, -26237.192897462, -187500.02235174447, 4905.023265483769, -12553.969032045488, -33896.5992804288, -45089.74940654629, -40858.34066371211, -20956.280345473333, -25039.631133035557, -47922.34127787844, -32958.29539993947, -0.012, 1.014, -0.026000000000000002, 192.0, 0.0, 0.0, 0.0, 0.0, 0.0, 0.0, 0.0, 0.0, 0.0, 1.695760924273384E9, 0.0, 2023-09-26 15:42:04.273
190.0, 12583.138058559663, 37095.26802244998, -44387.59170622727, -45757.44071691522, -24570.57977564094, -26244.457214409977, -187500.02235174447, 4868.008776665781, -12558.707601870014, -33902.075457820356, -45095.516156615755, -40870.76823362926, -20986.410496999088, -25045.95667671641, -47926.31988839149, -32964.68799885368, -0.012, 1.014, -0.026000000000000002, 192.0, 0.0, 0.0, 0.0, 0.0, 0.0, 0.0, 0.0, 0.0, 0.0, 1.695760924273393E9, 0.0, 2023-09-26 15:42:04.273
192.0, 12598.650169211647, 37113.19412150313, -44382.227287557995, -45748.052984243994, -24560.275621447043, -26236.365882917155, -187500.02235174447, 4904.7103410613945, -12529.873851522667, -33900.309670008384, -45084.407339621466, -40859.25708523477, -20968.216177012466, -25043.207412148407, -47923.68238254576, -32961.983437774594, -0.014, 1.014, -0.02, 192.0, 127.5, 72.0, 15.5, 88.0, 127.5, 48.0, 0.0, 0.0, 0.0, 1.695760924273434E9, 0.0, 2023-09-26 15:42:04.273
194.0, 12592.056404597331, 37100.99006903054, -44393.98430514149, -45756.12196399236, -24569.350429695896, -26245.395987677097, -187500.02235174447, 4859.850389939594, -12534.299496924818, -33900.42142873066, -45081.34515063109, -40855.90432356648, -20974.54172069332, -25042.335694114652, -47922.229519156164, -32962.49752789707, -0.014, 1.014, -0.02, 192.0, 0.0, 0.0, 0.0, 0.0, 0.0, 0.0, 0.0, 0.0, 0.0, 1.695760924333541E9, 0.0, 2023-09-26 15:42:04.333
196.0, 12597.711395944525, 37115.809275604406, -44386.80939517134, -45750.57873136744, -24565.10359824939, -26237.505821884373, -187500.02235174447, 4903.704512560906, -12536.981706259456, -33902.94717585411, -45087.73774954531, -40857.44659393389, -20969.490226446418, -25042.38039760356, -47922.18481566725, -32960.70938834064, -0.014, 1.014, -0.02, 192.0, 0.0, 0.0, 0.0, 0.0, 0.0, 0.0, 0.0, 0.0, 0.0, 1.695760924333564E9, 0.0, 2023-09-26 15:42:04.333
198.0, 12593.464564498016, 37106.421542933174, -44389.13397659468, -45734.64193757081, -24560.722656336147, -26235.896496283593, -187500.02235174447, 4840.694944941395, -12543.419008662584, -33874.60516388478, -45091.24697342479, -40851.27751246423, -20957.15206350709, -25024.38724331704, -47921.35780112241, -32958.27304819501, -0.014, 1.014, -0.02, 192.0, 0.0, 0.0, 0.0, 0.0, 0.0, 0.0, 0.0, 0.0, 0.0, 1.695760924333574E9, 0.0, 2023-09-26 15:42:04.333
200.0, 12595.275055798897, 37114.69168838164, -44386.8764504047, -45742.95678650818, -24570.24449947411, -26236.879973039624, -187500.02235174447, 4883.8114599956825, -12568.542369430348, -33869.79953882689, -45087.268362911745, -40840.213398958855, -20945.14917673459, -25012.362004800085, -47919.14497842133, -32950.181716702195, -0.014, 1.014, -0.02, 192.0, 0.0, 0.0, 0.0, 0.0, 0.0, 0.0, 0.0, 0.0, 0.0, 1.695760924333594E9, 0.0, 2023-09-26 15:42:04.333
202.0, 12599.566590734315, 37111.76360985799, -44390.65389521765, -45737.52531260554, -24567.830511072938, -26225.74880430088, -187500.02235174447, 4876.5918465366185, -12538.993363260433, -33893.42533271615, -45094.040941481704, -40855.70315786638, -20983.124790564158, -25033.260885865795, -47927.83980701445, -32957.155460972244, -0.012, 1.014, -0.02, 192.0, 127.5, 80.0, 15.5, 88.0, 127.5, 48.0, 0.0, 0.0, 0.0, 1.695760924333603E9, 0.0, 2023-09-26 15:42:04.333
204.0, 12600.527715745893, 37118.35737447231, -44380.148575323656, -45731.22212066915, -24562.980182526135, -26224.497106611387, -187500.02235174447, 4868.500515043797, -12528.890374766634, -33873.21935572855, -45083.11093844306, -40839.47579139183, -20951.452368670987, -25027.516487540783, -47916.641583042336, -32940.50341135304, -0.012, 1.014, -0.02, 192.0, 0.0, 0.0, 0.0, 0.0, 0.0, 0.0, 0.0, 0.0, 0.0, 1.695760924333612E9, 0.0, 2023-09-26 15:42:04.333
206.0, 12591.318797030306, 37106.555653399904, -44387.770520182916, -45744.16378070877, -24569.52924365154, -26236.18706896151, -187500.02235174447, 4864.454849297386, -12546.10121799722, -33884.797559356404, -45094.57738334863, -40848.93057929642, -20972.328897992244, -25032.411519576493, -47922.721257534184, -32952.126318469804, -0.012, 1.014, -0.02, 192.0, 0.0, 0.0, 0.0, 0.0, 0.0, 0.0, 0.0, 0.0, 0.0, 1.695760924333621E9, 0.0, 2023-09-26 15:42:04.333
208.0, 12593.464564498016, 37104.52164465447, -44382.987246869474, -45732.51852184755, -24569.10456050689, -26233.52721137133, -187500.02235174447, 4851.267320068756, -12550.236290721452, -33903.461265976584, -45095.33734266011, -40857.200724744886, -20961.421246698053, -25035.563115544694, -47922.788312767545, -32950.76286205803, -0.012, 1.014, -0.02, 192.0, 0.0, 0.0, 0.0, 0.0, 0.0, 0.0, 0.0, 0.0, 0.0, 1.69576092433363E9, 0.0, 2023-09-26 15:42:04.333
210.0, 12602.271151813407, 37113.77526685897, -44385.20006957055, -45738.397030639295, -24571.697362863706, -26239.629237607627, -187500.02235174447, 4890.58403856564, -12541.429703406062, -33879.053161031385, -45091.336380402616, -40845.51076239476, -20974.161741037577, -25036.948923700922, -47926.230481413666, -32955.30026618246, -0.012, 1.014, -0.02, 192.0, 0.0, 0.0, 0.0, 0.0, 0.0, 0.0, 0.0, 0.0, 0.0, 1.695760924393865E9, 0.0, 2023-09-26 15:42:04.393
212.0, 12595.58798022127, 37109.41667669018, -44371.85607813073, -45740.43103938473, -24562.935479037224, -26241.462080652964, -187500.02235174447, 4842.281918797722, -12539.730970827457, -33888.88792859172, -45088.58711583461, -40853.8926665655, -20961.264784486866, -25028.119984641075, -47924.263527901596, -32959.30122843996, -0.012, 1.014, -0.02, 192.0, 127.5, 80.0, 15.5, 88.0, 127.5, 48.0, 0.0, 0.0, 0.0, 1.695760924393884E9, 0.0, 2023-09-26 15:42:04.393
214.0, 12594.984483120978, 37108.74612435653, -44380.282685790386, -45748.07533598845, -24571.429141930243, -26248.704045856484, -187500.02235174447, 4889.689968787428, -12550.81743607729, -33894.14058853872, -45092.56572634765, -40849.51172465226, -20964.885767088625, -25043.22976389286, -47925.9622604802, -32964.95621978715, -0.012, 1.014, -0.02, 192.0, 0.0, 0.0, 0.0, 0.0, 0.0, 0.0, 0.0, 0.0, 0.0, 1.695760924393917E9, 0.0, 2023-09-26 15:42:04.393
216.0, 12594.425689509593, 37102.71115335359, -44378.85217414524, -45739.67108007325, -24570.400961685296, -26239.562182374262, -187500.02235174447, 4841.544311230697, -12542.368476673184, -33901.11433280878, -45090.487014113314, -40855.300826466184, -20958.224947240942, -25044.012074948798, -47925.515225591094, -32961.31288544094, -0.012, 1.014, -0.02, 192.0, 0.0, 0.0, 0.0, 0.0, 0.0, 0.0, 0.0, 0.0, 0.0, 1.695760924393926E9, 0.0, 2023-09-26 15:42:04.393
218.0, 12600.617122723714, 37108.656717378704, -44389.8268806728, -45749.63995810032, -24578.24642398911, -26252.794415091805, -187500.02235174447, 4914.008666754802, -12563.267357738896, -33900.577890941844, -45102.73577007482, -40851.053995019676, -20943.00340926688, -25034.24436262183, -47936.691097818744, -32969.15834774475, -0.012, 1.014, -0.02, 192.0, 0.0, 0.0, 0.0, 0.0, 0.0, 0.0, 0.0, 0.0, 0.0, 1.695760924393935E9, 0.0, 2023-09-26 15:42:04.393
220.0, 12596.079718599287, 37096.96675502858, -44371.00671184143, -45732.40676312528, -24569.81981632946, -26234.42128114954, -187500.02235174447, 4840.717296685851, -12530.700866067513, -33925.120106353774, -45086.95543848937, -40859.72647186834, -20963.34349672121, -25045.017903449287, -47925.69403954674, -32953.98151325959, -0.012, 1.014, -0.02, 192.0, 0.0, 0.0, 0.0, 0.0, 0.0, 0.0, 0.0, 0.0, 0.0, 1.695760924393943E9, 0.0, 2023-09-26 15:42:04.393
222.0, 12609.155489105642, 37114.803447103914, -44374.203011298545, -45737.1453329498, -24568.210490728678, -26240.746824830392, -187500.02235174447, 4895.791995023727, -12534.76888355838, -33900.39907698621, -45082.90977274296, -40840.59337861459, -20968.05971480128, -25049.756473273814, -47925.87285350238, -32955.09910048236, -0.014, 1.012, -0.018000000000000002, 192.0, 127.5, 72.0, 15.5, 80.0, 127.5, 56.0, 0.0, 0.0, 0.0, 1.695760924393952E9, 0.0, 2023-09-26 15:42:04.393
224.0, 12590.40237550764, 37092.8540340488, -44387.45759576054, -45745.92956852073, -24582.44855194671, -26245.57480163274, -187500.02235174447, 4833.2741657822335, -12538.56868011578, -33906.03171658894, -45085.48022335532, -40853.0433002762, -20948.501938402886, -25039.72054001338, -47928.44330411474, -32957.35662667234, -0.014, 1.012, -0.018000000000000002, 192.0, 0.0, 0.0, 0.0, 0.0, 0.0, 0.0, 0.0, 0.0, 0.0, 1.695760924453223E9, 0.0, 2023-09-26 15:42:04.453
226.0, 12602.986407635977, 37111.33892671334, -44383.79190966987, -45742.24153068561, -24572.9490605532, -26243.518441142853, -187500.02235174447, 4921.362390680599, -12542.301421439817, -33917.87814115026, -45095.91848801595, -40854.809088088165, -20967.232700256434, -25051.09757794113, -47938.590996097446, -32964.218612220124, -0.014, 1.012, -0.018000000000000002, 192.0, 0.0, 0.0, 0.0, 0.0, 0.0, 0.0, 0.0, 0.0, 0.0, 1.695760924453247E9, 0.0, 2023-09-26 15:42:04.453
228.0, 12589.664767940614, 37091.602336359305, -44376.46053748853, -45734.552530592984, -24569.66335411827, -26236.72351082844, -187500.02235174447, 4837.632755951018, -12540.490930138938, -33907.015193344974, -45091.604601336076, -40851.29986420868, -20961.71181937597, -25043.922667970975, -47925.60463256892, -32953.33331267039, -0.014, 1.012, -0.018000000000000002, 192.0, 0.0, 0.0, 0.0, 0.0, 0.0, 0.0, 0.0, 0.0, 0.0, 1.695760924453258E9, 0.0, 2023-09-26 15:42:04.453
230.0, 12600.751233190445, 37107.78499934495, -44375.186488054576, -45733.77021953705, -24565.550633138497, -26235.225943949932, -187500.02235174447, 4899.345922392121, -12571.87277935419, -33912.93840562563, -45094.599735093085, -40848.729413596324, -20958.984906552425, -25043.565040059693, -47924.97878372417, -32951.74633881406, -0.014, 1.012, -0.018000000000000002, 192.0, 0.0, 0.0, 0.0, 0.0, 0.0, 0.0, 0.0, 0.0, 0.0, 1.695760924453268E9, 0.0, 2023-09-26 15:42:04.453
232.0, 12597.309064544328, 37093.65869684919, -44372.81720314231, -45731.91502474726, -24569.328077951443, -26235.158888716567, -187500.02235174447, 4826.546290701186, -12535.595898103225, -33909.80916140189, -45079.6911215414, -40849.914056052454, -20946.490281401908, -25040.078167924665, -47916.641583042336, -32946.44897537815, -0.01, 1.01, -0.016, 192.0, 127.5, 88.0, 15.5, 72.0, 127.5, 64.0, 0.0, 0.0, 0.0, 1.695760924453276E9, 0.0, 2023-09-26 15:42:04.453
234.0, 12604.126346603198, 37109.72960111256, -44379.52272647891, -45738.66525157276, -24568.121083750855, -26242.57966787573, -187500.02235174447, 4896.216678168378, -12535.10415972521, -33910.43501024664, -45086.48605185581, -40845.6895763504, -20946.065598257257, -25033.842031221633, -47923.995306968136, -32949.555867857445, -0.01, 1.01, -0.016, 192.0, 0.0, 0.0, 0.0, 0.0, 0.0, 0.0, 0.0, 0.0, 0.0, 1.695760924453286E9, 0.0, 2023-09-26 15:42:04.453
236.0, 12592.749308675446, 37090.19417645862, -44377.73458692248, -45739.2463969286, -24573.75372335359, -26242.400853920088, -187500.02235174447, 4822.835901121605, -12541.228537705963, -33921.94615864112, -45090.71053155787, -40859.59236140161, -20949.418359925552, -25041.95571445891, -47931.527844849574, -32960.798795318464, -0.01, 1.01, -0.016, 192.0, 0.0, 0.0, 0.0, 0.0, 0.0, 0.0, 0.0, 0.0, 0.0, 1.695760924453394E9, 0.0, 2023-09-26 15:42:04.453
238.0, 12602.651131469147, 37108.70142086761, -44372.25840953093, -45735.603062582384, -24570.33390645193, -26240.970342274948, -187500.02235174447, 4889.8017275097045, -12528.95743, -33895.36993448376, -45084.42969136592, -40842.716794337844, -20961.622412398152, -25047.94598197293, -47928.64446981483, -32953.22155394811, -0.01, 1.01, -0.016, 192.0, 0.0, 0.0, 0.0, 0.0, 0.0, 0.0, 0.0, 0.0, 0.0, 1.695760924453404E9, 0.0, 2023-09-26 15:42:04.453
240.0, 12587.876628384189, 37087.62372584626, -44390.07274986181, -45748.83529529993, -24579.76634261207, -26250.715702857462, -187500.02235174447, 4853.480142769831, -12553.365534945195, -33916.22411206056, -45101.70758982988, -40867.616637661056, -20942.80224356678, -25048.705941284414, -47938.34512690844, -32963.61511511983, -0.01, 1.01, -0.016, 192.0, 0.0, 0.0, 0.0, 0.0, 0.0, 0.0, 0.0, 0.0, 0.0, 1.695760924514006E9, 0.0, 2023-09-26 15:42:04.514
