%OpenBCI Raw EXG Data
%Number of channels = 16
%Sample Rate = 125 Hz
%Board = OpenBCI_GUI$BoardCytonSerialDaisy
Sample Index, EXG Channel 0, EXG Channel 1, EXG Channel 2, EXG Channel 3, EXG Channel 4, EXG Channel 5, EXG Channel 6, EXG Channel 7, EXG Channel 8, EXG Channel 9, EXG Channel 10, EXG Channel 11, EXG Channel 12, EXG Channel 13, EXG Channel 14, EXG Channel 15, Accel Channel 0, Accel Channel 1, Accel Channel 2, Other, Other, Other, Other, Other, Other, Other, Analog Channel 0, Analog Channel 1, Analog Channel 2, Timestamp, Other, Timestamp (Formatted)
0.0, 26243.898420798592, 12682.692728363601, -36559.384949133986, -63009.81348869962, -187500.02235174447, 7756.614119602933, -122334.38311033048, -187500.02235174447, 0.0, 0.0, 0.0, 0.0, 0.0, 0.0, 0.0, 0.0, 0.0, 0.0, 0.0, 192.0, 0.0, 0.0, 0.0, 0.0, 0.0, 0.0, 0.0, 0.0, 0.0, 1.695418076543332E9, 0.0, 2023-09-22 16:27:56.543
254.0, 26271.882804856636, 12711.7499961555, -36545.59392280506, -62975.43650572735, -187500.02235174447, 7764.325471440015, -122332.79613647416, -187500.02235174447, -39322.328784743404, 6397.31513229789, -5937.875025019053, -69846.7874344334, 1415.1112932099454, -21204.027081015956, -6112.889184104108, 8256.77910527934, 0.0, 0.0, 0.0, 192.0, 0.0, 0.0, 0.0, 0.0, 0.0, 0.0, 0.0, 0.0, 0.0, 1.695418076543341E9, 0.0, 2023-09-22 16:27:56.543
0.0, 26251.520365657852, 12691.968702312553, -36543.85048673755, -62998.23528507177, -187500.02235174447, 7730.596689056956, -122401.99713730779, -187500.02235174447, -39295.551394885944, 6416.761149974007, -6001.398682761036, -69819.3841957312, 1433.0820957520123, -21244.908421624714, -6096.393596696091, 8178.302130496756, -0.022, 0.488, 0.13, 192.0, 127.0, 80.0, 15.0, 64.0, 4.0, 16.0, 0.0, 0.0, 0.0, 1.695418076543347E9, 0.0, 2023-09-22 16:27:56.543
2.0, 26254.448444181497, 12690.694652878601, -36558.64734156696, -63000.962197895315, -187500.02235174447, 7773.82496283352, -122359.17119493142, -187500.02235174447, -39325.21215977814, 6393.224763062569, -5934.74578079531, -69852.6882949696, 1406.5282233391076, -21197.030985001446, -6112.39744572609, 8250.654727298586, -0.022, 0.488, 0.13, 192.0, 0.0, 0.0, 0.0, 0.0, 0.0, 0.0, 0.0, 0.0, 0.0, 1.69541807654335E9, 0.0, 2023-09-22 16:27:56.543
4.0, 26265.557261175785, 12703.23398151803, -36542.01764369221, -62985.04775584314, -187500.02235174447, 7725.634601787878, -122472.36042885309, -187500.02235174447, -39296.22194721961, 6416.582336018364, -5980.723319139876, -69822.51343995493, 1416.89943276637, -21233.553735441415, -6114.811434127264, 8193.925999871017, -0.022, 0.488, 0.13, 192.0, 0.0, 0.0, 0.0, 0.0, 0.0, 0.0, 0.0, 0.0, 0.0, 1.695418076543354E9, 0.0, 2023-09-22 16:27:56.543
6.0, 26266.518386187363, 12706.765557141967, -36545.72803327179, -62983.66194768691, -187500.02235174447, 7760.592730115978, -122432.55197197819, -187500.02235174447, -39289.203499460644, 6432.69794377064, -5949.609690858089, -69818.1324980417, 1429.9752032727247, -21208.58683688484, -6095.745396106887, 8224.033799652314, -0.022, 0.488, 0.13, 192.0, 0.0, 0.0, 0.0, 0.0, 0.0, 0.0, 0.0, 0.0, 0.0, 1.695418076543358E9, 0.0, 2023-09-22 16:27:56.543
8.0, 26248.502880156386, 12690.962873812065, -36553.774661275704, -62994.815468170105, -187500.02235174447, 7733.837692002976, -122517.0192142748, -187500.02235174447, -39292.01981926201, 6440.342240374356, -5972.766098113787, -69818.46777420852, 1413.1443396978784, -21235.05130231992, -6108.888221846607, 8188.226305034913, -0.022, 0.488, 0.13, 192.0, 0.0, 0.0, 0.0, 0.0, 0.0, 0.0, 0.0, 0.0, 0.0, 1.695418076543362E9, 0.0, 2023-09-22 16:27:56.543
10.0, 26264.48437744193, 12706.832612375334, -36545.191591404866, -62977.58227319507, -187500.02235174447, 7784.039710049595, -122450.20985009789, -187500.02235174447, -39294.88084255229, 6433.435551337666, -5939.5067023642905, -69821.23939052098, 1414.2395751761885, -21204.071784504868, -6099.29932347528, 8236.975459691937, -0.032, 0.731, 0.192, 192.0, 127.0, 88.0, 15.0, 56.0, 3.5, 120.0, 0.0, 0.0, 0.0, 1.695418076543366E9, 0.0, 2023-09-22 16:27:56.543
12.0, 26254.493147670408, 12696.684920392623, -36551.00304496325, -62994.90487514793, -187500.02235174447, 7735.715238537221, -122569.59051723368, -187500.02235174447, -39275.90421150973, 6445.8407695103615, -5966.6864236219435, -69800.6757856221, 1415.9383077547918, -21218.48865967854, -6106.653047401077, 8202.017331363837, -0.032, 0.731, 0.192, 192.0, 0.0, 0.0, 0.0, 0.0, 0.0, 0.0, 0.0, 0.0, 0.0, 1.695418076543369E9, 0.0, 2023-09-22 16:27:56.543
0.0, 13174.431106380356, 6393.0683008513815, -18277.602586460423, -31507.577777812217, -93750.01117587223, 3849.775058004267, -60459.412391115715, -93750.01117587223, -19642.17658545692, 3218.584146330851, -2961.91906475056, -34908.30628970937, 705.5998689651334, -10593.72104331506, -3056.042260651858, 4128.4789596174915, -0.046, 0.972, 0.258, 192.0, 127.0, 72.0, 15.0, 48.0, 4.0, 8.0, 0.0, 0.0, 0.0, 1.695418076643581E9, 0.0, 2023-09-22 16:27:56.643
2.0, 26355.321866908296, 12792.328034916884, -36554.847545009565, -63009.54526776615, -187500.02235174447, 7754.334241668492, -120827.98729276506, -187500.02235174447, -39360.95259916218, 6454.222673681102, -5839.326183715604, -69805.86139033573, 1125.3656298358, -21475.913700570312, -6031.864110453619, 8266.747983306406, -0.046, 0.972, 0.258, 192.0, 0.0, 0.0, 0.0, 0.0, 0.0, 0.0, 0.0, 0.0, 0.0, 1.695418076702095E9, 0.0, 2023-09-22 16:27:56.702
4.0, 26359.702808821537, 12798.810040808921, -36555.98748397678, -63001.20806708433, -187500.02235174447, 7705.473328289191, -120949.26785817956, -187500.02235174447, -39352.97302639163, 6463.811572052428, -5820.863642795521, -69796.27249196441, 1123.108103645814, -21482.552168673537, -6039.128427401594, 8272.06769848677, -0.046, 0.972, 0.258, 192.0, 0.0, 0.0, 0.0, 0.0, 0.0, 0.0, 0.0, 0.0, 0.0, 1.695418076702107E9, 0.0, 2023-09-22 16:27:56.702
6.0, 26353.0196372294, 12788.52823835948, -36553.148812430954, -63014.35089282405, -187500.02235174447, 7744.9018055083525, -120876.5799852109, -187500.02235174447, -39350.849610668374, 6457.173103949202, -5844.288270984683, -69800.58637864428, 1136.5191503189983, -21491.694032155756, -6020.330610314681, 8247.436076097021, -0.046, 0.972, 0.258, 192.0, 0.0, 0.0, 0.0, 0.0, 0.0, 0.0, 0.0, 0.0, 0.0, 1.695418076702112E9, 0.0, 2023-09-22 16:27:56.702
8.0, 26361.759169311426, 12798.318302430906, -36549.55018157366, -63001.63275022898, -187500.02235174447, 7693.515145005602, -121002.15208556081, -187500.02235174447, -39348.39091877829, 6464.280958685989, -5820.975401517797, -69797.70300360954, 1130.819455482895, -21485.144971030353, -6034.76983723281, 8265.11630596117, -0.04, 0.976, 0.26, 192.0, 127.0, 96.0, 15.0, 64.0, 4.0, 16.0, 0.0, 0.0, 0.0, 1.69541807670213E9, 0.0, 2023-09-22 16:27:56.702
10.0, 26338.267485888897, 12773.038479451952, -36558.110899700034, -63029.30420986465, -187500.02235174447, 7745.885282264386, -120915.11439265186, -187500.02235174447, -39362.40546255177, 6441.504531086031, -5854.659480411945, -69810.979939816, 1129.880682215772, -21505.529761973594, -6026.879671440086, 8234.025029423838, -0.04, 0.976, 0.26, 192.0, 0.0, 0.0, 0.0, 0.0, 0.0, 0.0, 0.0, 0.0, 0.0, 1.695418076702134E9, 0.0, 2023-09-22 16:27:56.702
12.0, 26353.444320374052, 12789.936398260164, -36556.14394618797, -63012.04866314515, -187500.02235174447, 7710.189546369261, -121005.10251582891, -187500.02235174447, -39362.65133174078, 6429.926327458183, -5802.758729786722, -69810.66701539363, 1119.9565076776157, -21492.87867461189, -6040.961270446929, 8285.612855626685, -0.04, 0.976, 0.26, 192.0, 0.0, 0.0, 0.0, 0.0, 0.0, 0.0, 0.0, 0.0, 0.0, 1.695418076702138E9, 0.0, 2023-09-22 16:27:56.702
14.0, 26337.686340533062, 12777.844104509844, -36558.28971365568, -63029.61713428702, -187500.02235174447, 7745.281785164093, -120941.73532029812, -187500.02235174447, -39369.44626205519, 6440.342240374356, -5849.116247787028, -69819.36184398674, 1124.2256908685792, -21516.9291516458, -6029.271308096803, 8240.976421949437, -0.04, 0.976, 0.26, 192.0, 0.0, 0.0, 0.0, 0.0, 0.0, 0.0, 0.0, 0.0, 0.0, 1.695418076702142E9, 0.0, 2023-09-22 16:27:56.702
16.0, 26347.431701115573, 12785.57780809138, -36562.871821269015, -63015.40142481345, -187500.02235174447, 7717.140938894861, -121017.57478923498, -187500.02235174447, -39372.240230112104, 6448.679441056185, -5794.779157016177, -69817.99838757496, 1120.3141355889006, -21484.183846018776, -6040.313069857725, 8295.78289935385, -0.04, 0.976, 0.26, 192.0, 0.0, 0.0, 0.0, 0.0, 0.0, 0.0, 0.0, 0.0, 0.0, 1.69541807676231E9, 0.0, 2023-09-22 16:27:56.762
18.0, 26331.45020383003, 12773.8654939968, -36559.2284869228, -63030.533555809685, -187500.02235174447, 7733.81534025852, -120988.38341097634, -187500.02235174447, -39373.93896269071, 6435.89424322775, -5853.944224589375, -69817.10431779675, 1124.0468769129368, -21525.73573896119, -6039.8213314797085, 8241.982250449926, -0.046, 0.978, 0.258, 192.0, 127.0, 72.0, 15.0, 72.0, 4.0, 8.0, 0.0, 0.0, 0.0, 1.695418076762342E9, 0.0, 2023-09-22 16:27:56.762
20.0, 26343.520145835897, 12786.024842980487, -36563.56472534713, -63012.4733462898, -187500.02235174447, 7731.133130923883, -121019.7652601916, -187500.02235174447, -39389.07109368695, 6424.338391344356, -5797.707235539822, -69832.68348368209, 1111.909879673705, -21484.273252996594, -6039.24018612387, 8311.11619605019, -0.046, 0.978, 0.258, 192.0, 0.0, 0.0, 0.0, 0.0, 0.0, 0.0, 0.0, 0.0, 0.0, 1.695418076762346E9, 0.0, 2023-09-22 16:27:56.762
22.0, 26334.0653579313, 12772.837313751856, -36556.25570491025, -63024.18566038438, -187500.02235174447, 7731.714276279721, -121011.94214963225, -187500.02235174447, -39366.540535276006, 6444.6114235653195, -5873.21142830985, -69811.35991947174, 1133.8592927288166, -21524.17111684932, -6021.381142304081, 8235.567299791253, -0.046, 0.978, 0.258, 192.0, 0.0, 0.0, 0.0, 0.0, 0.0, 0.0, 0.0, 0.0, 0.0, 1.695418076762349E9, 0.0, 2023-09-22 16:27:56.762
24.0, 26347.07407320429, 12784.974310991087, -36561.01662647923, -63010.46168928882, -187500.02235174447, 7733.39065711387, -121028.88477192937, -187500.02235174447, -39383.12552966184, 6425.634792522764, -5813.018180491707, -69832.50466972646, 1115.9331936756605, -21478.998241305144, -6032.109979642628, 8304.54478318033, -0.046, 0.978, 0.258, 192.0, 0.0, 0.0, 0.0, 0.0, 0.0, 0.0, 0.0, 0.0, 0.0, 1.695418076762353E9, 0.0, 2023-09-22 16:27:56.762
26.0, 26333.908895720113, 12773.284348640962, -36560.72605380131, -63029.55007905365, -187500.02235174447, 7720.158424396328, -121045.13449014837, -187500.02235174447, -39362.78544220751, 6451.048725968448, -5877.502963245269, -69808.9235793261, 1128.1595978927135, -21509.374262019905, -6030.455950552935, 8234.919099202049, -0.046, 0.978, 0.258, 192.0, 0.0, 0.0, 0.0, 0.0, 0.0, 0.0, 0.0, 0.0, 0.0, 1.695418076762356E9, 0.0, 2023-09-22 16:27:56.762
28.0, 26344.771843525392, 12783.543799345947, -36577.28869644269, -63026.75611099674, -187500.02235174447, 7742.778389785099, -121025.28614107207, -187500.02235174447, -39392.736779777624, 6422.08086515437, -5804.949200743342, -69839.0313791074, 1102.8797749137611, -21473.834988335966, -6041.989450691874, 8315.631248430163, -0.05, 0.982, 0.256, 192.0, 127.0, 56.0, 15.0, 88.0, 4.0, 0.0, 0.0, 0.0, 0.0, 1.695418076762359E9, 0.0, 2023-09-22 16:27:56.762
30.0, 26318.68735774605, 12753.748923987023, -36589.22452798182, -63057.5344631117, -187500.02235174447, 7729.501453578646, -121060.93717347828, -187500.02235174447, -39377.783462737025, 6431.93798445916, -5865.388317750492, -69830.11303306973, 1111.6193069957862, -21530.20608785225, -6044.895177471063, 8245.938509218515, -0.05, 0.982, 0.256, 192.0, 0.0, 0.0, 0.0, 0.0, 0.0, 0.0, 0.0, 0.0, 0.0, 1.695418076762363E9, 0.0, 2023-09-22 16:27:56.762
32.0, 26353.60078258524, 12788.19296219265, -36567.073949226615, -63018.48596554828, -187500.02235174447, 7750.735610811188, -121032.32694057548, -187500.02235174447, -39387.23825064162, 6407.909859169706, -5810.157157201428, -69844.4852047545, 1102.2092225801018, -21497.997224092152, -6047.5103315723345, 8321.152129310623, -0.05, 0.982, 0.256, 192.0, 0.0, 0.0, 0.0, 0.0, 0.0, 0.0, 0.0, 0.0, 0.0, 1.695418076821225E9, 0.0, 2023-09-22 16:27:56.821
34.0, 26344.83889875876, 12779.252264410528, -36560.770757290215, -63028.81247148663, -187500.02235174447, 7706.300342834037, -121114.26843574864, -187500.02235174447, -39358.60566599437, 6440.923385730194, -5873.300835287671, -69813.46098345054, 1125.1197606467915, -21532.35185531996, -6036.222700622404, 8242.898671972594, -0.05, 0.982, 0.256, 192.0, 0.0, 0.0, 0.0, 0.0, 0.0, 0.0, 0.0, 0.0, 0.0, 1.695418076821255E9, 0.0, 2023-09-22 16:27:56.821
36.0, 26353.757244796427, 12788.058851725918, -36561.46366136833, -63018.150689381444, -187500.02235174447, 7750.042706733073, -121060.57954556699, -187500.02235174447, -39375.9953231806, 6425.947716945138, -5825.5128056422245, -69830.35890225874, 1118.749513477029, -21479.28881398306, -6031.327668586692, 8297.705149377007, -0.05, 0.982, 0.256, 192.0, 0.0, 0.0, 0.0, 0.0, 0.0, 0.0, 0.0, 0.0, 0.0, 1.695418076821259E9, 0.0, 2023-09-22 16:27:56.821
38.0, 26360.686285577573, 12798.228895453083, -36531.914655198416, -63002.95150315184, -187500.02235174447, 7687.502525747124, -121199.83091352355, -187500.02235174447, -39346.78159317751, 6453.775638791995, -5872.54087597619, -69794.08202100778, 1135.1333421627692, -21522.6288464819, -6028.086665640672, 8240.685849271518, -0.05, 0.986, 0.256, 192.0, 127.0, 56.0, 15.0, 104.0, 4.0, 0.0, 0.0, 0.0, 0.0, 1.695418076821262E9, 0.0, 2023-09-22 16:27:56.821
40.0, 26347.87873600468, 12786.33776740286, -36544.65514953794, -63013.9262096794, -187500.02235174447, 7738.397447871858, -121135.41318600335, -187500.02235174447, -39364.17125036374, 6441.549234574943, -5841.091971527573, -69811.6281404052, 1133.233443884068, -21493.50452345664, -6009.042979364751, 8276.806268311295, -0.05, 0.986, 0.256, 192.0, 0.0, 0.0, 0.0, 0.0, 0.0, 0.0, 0.0, 0.0, 0.0, 1.695418076821266E9, 0.0, 2023-09-22 16:27:56.821
42.0, 26354.02546572989, 12794.518505873502, -36540.81064949163, -63002.03508162917, -187500.02235174447, 7692.33050254947, -121244.10971928951, -187500.02235174447, -39368.954523677174, 6441.258661897024, -5853.251320511261, -69812.58926541678, 1117.6766297431743, -21509.173096319806, -6038.748447745854, 8254.946262234005, -0.05, 0.986, 0.256, 192.0, 0.0, 0.0, 0.0, 0.0, 0.0, 0.0, 0.0, 0.0, 0.0, 1.695418076821269E9, 0.0, 2023-09-22 16:27:56.821
44.0, 26353.17609944059, 12795.323168673895, -36540.96711170282, -63000.11283160601, -187500.02235174447, 7740.811436273031, -121169.32078234205, -187500.02235174447, -39365.042968397494, 6451.629871324286, -5847.305756486149, -69806.26372173593, 1129.880682215772, -21487.71542164271, -6016.329648057181, 8269.899579274605, -0.05, 0.986, 0.256, 192.0, 0.0, 0.0, 0.0, 0.0, 0.0, 0.0, 0.0, 0.0, 0.0, 1.695418076821273E9, 0.0, 2023-09-22 16:27:56.821
46.0, 26358.11583496521, 12803.034520510975, -36540.31891111361, -62992.53559023567, -187500.02235174447, 7689.223610070183, -121284.94635640936, -187500.02235174447, -39363.25482884107, 6451.741630046562, -5849.786800120688, -69798.5747216433, 1121.498778045032, -21493.325709500994, -6030.567709275211, 8251.504093587888, -0.05, 0.986, 0.256, 192.0, 0.0, 0.0, 0.0, 0.0, 0.0, 0.0, 0.0, 0.0, 0.0, 1.695418076881488E9, 0.0, 2023-09-22 16:27:56.881
48.0, 26331.494907318942, 12772.233816651562, -36573.935934774396, -63031.89701222146, -187500.02235174447, 7763.96784352873, -121147.68429370932, -187500.02235174447, -39382.522032561545, 6438.107065928825, -5831.748942345255, -69813.43863170609, 1115.977897164571, -21479.512331427613, -6019.5706510032005, 8276.336881677733, -0.048, 0.984, 0.26, 192.0, 127.0, 64.0, 15.0, 96.0, 4.0, 16.0, 0.0, 0.0, 0.0, 1.695418076881502E9, 0.0, 2023-09-22 16:27:56.881
50.0, 26360.328657666287, 12799.905276287232, -36550.712472285326, -63004.82904968609, -187500.02235174447, 7711.396540569847, -121265.32152477761, -187500.02235174447, -39373.00018942358, 6440.006964207526, -5812.794663047155, -69808.36478571473, 1107.0371993824483, -21489.034174565575, -6050.527817073801, 8295.604085398209, -0.048, 0.984, 0.26, 192.0, 0.0, 0.0, 0.0, 0.0, 0.0, 0.0, 0.0, 0.0, 0.0, 1.695418076881506E9, 0.0, 2023-09-22 16:27:56.881
52.0, 26339.049796944833, 12777.218255665095, -36572.527774873706, -63038.177852413406, -187500.02235174447, 7775.926026812319, -121155.82032869106, -187500.02235174447, -39378.45401507068, 6434.46373158261, -5827.591517876568, -69820.79235563187, 1111.88752792925, -21490.308223999527, -6029.092494141161, 8287.579809138753, -0.048, 0.984, 0.26, 192.0, 0.0, 0.0, 0.0, 0.0, 0.0, 0.0, 0.0, 0.0, 0.0, 1.695418076881509E9, 0.0, 2023-09-22 16:27:56.881
54.0, 26345.129471436678, 12789.33290115987, -36566.67161782642, -63023.559811539635, -187500.02235174447, 7728.652087289344, -121267.33318177858, -187500.02235174447, -39378.342256348405, 6432.295612370445, -5807.676113566889, -69819.3841957312, 1100.2869725569456, -21488.76595363211, -6053.813523508731, 8310.110367549702, -0.048, 0.984, 0.26, 192.0, 0.0, 0.0, 0.0, 0.0, 0.0, 0.0, 0.0, 0.0, 0.0, 1.695418076881512E9, 0.0, 2023-09-22 16:27:56.881
56.0, 26343.3189801358, 12785.53310460247, -36560.32372240111, -63027.96310519733, -187500.02235174447, 7770.405145931858, -121183.1565121599, -187500.02235174447, -39386.67945703024, 6421.231498865069, -5836.06282902513, -69824.14511730017, 1102.946830147127, -21496.946692102756, -6039.95544194644, 8290.3067219623, -0.048, 0.984, 0.26, 192.0, 0.0, 0.0, 0.0, 0.0, 0.0, 0.0, 0.0, 0.0, 0.0, 1.695418076881515E9, 0.0, 2023-09-22 16:27:56.881
58.0, 26364.21786120151, 12805.135584489773, -36549.23725715128, -63003.01855838521, -187500.02235174447, 7719.1302441513835, -121298.62562401601, -187500.02235174447, -39367.144032376294, 6444.544368331954, -5808.81605253411, -69798.50766640993, 1113.6980192301296, -21491.24699726665, -6033.764008732321, 8311.317361750289, -0.046, 0.986, 0.262, 192.0, 127.0, 72.0, 15.0, 104.0, 4.0, 24.0, 0.0, 0.0, 0.0, 1.695418076881519E9, 0.0, 2023-09-22 16:27:56.881
60.0, 26346.64939005964, 12782.448563867638, -36553.66290255343, -63021.458747560835, -187500.02235174447, 7754.446000390769, -121235.59370465204, -187500.02235174447, -39381.78442499452, 6437.660031039719, -5848.646861153467, -69813.68450089509, 1114.234461097057, -21497.416078736314, -6016.709627712921, 8272.58178860924, -0.046, 0.986, 0.262, 192.0, 0.0, 0.0, 0.0, 0.0, 0.0, 0.0, 0.0, 0.0, 0.0, 1.695418076881522E9, 0.0, 2023-09-22 16:27:56.881
62.0, 26338.491003333453, 12774.781915519467, -36564.279981169704, -63024.0739016621, -187500.02235174447, 7741.481988606691, -121295.20580711435, -187500.02235174447, -39390.009866954075, 6422.684362254663, -5796.4555378503255, -69825.46387022303, 1100.823414423873, -21474.214967991706, -6035.507444799834, 8327.07534159128, -0.046, 0.986, 0.262, 192.0, 0.0, 0.0, 0.0, 0.0, 0.0, 0.0, 0.0, 0.0, 0.0, 1.695418076941833E9, 0.0, 2023-09-22 16:27:56.941
64.0, 26344.816547014303, 12783.923779001687, -36542.41997509241, -63014.23913410177, -187500.02235174447, 7755.854160291453, -121258.95127760783, -187500.02235174447, -39382.03029418353, 6432.764999004006, -5850.591462921079, -69816.0314340629, 1111.4181412956884, -21506.78145966309, -6033.294622098759, 8281.321320691266, -0.046, 0.986, 0.262, 192.0, 0.0, 0.0, 0.0, 0.0, 0.0, 0.0, 0.0, 0.0, 0.0, 1.695418076941844E9, 0.0, 2023-09-22 16:27:56.941
66.0, 26338.178078911078, 12779.609892321812, -36566.76102480424, -63016.92134343641, -187500.02235174447, 7749.372154399414, -121302.47012406233, -187500.02235174447, -39385.74068376311, 6431.4015425922325, -5797.304904139627, -69817.75251838595, 1103.6844377141522, -21468.58232838897, -6040.111904157628, 8337.22303357399, -0.046, 0.986, 0.262, 192.0, 0.0, 0.0, 0.0, 0.0, 0.0, 0.0, 0.0, 0.0, 0.0, 1.695418076941848E9, 0.0, 2023-09-22 16:27:56.941
68.0, 26337.35106436623, 12780.079278955374, -36558.04384446667, -63016.206087613835, -187500.02235174447, 7754.781276557598, -121288.25441458875, -187500.02235174447, -39386.12066341885, 6434.173158904691, -5853.430134466903, -69812.85748635024, 1108.0877313718477, -21507.295549785562, -6038.971965190407, 8283.221218969968, -0.042, 0.98, 0.256, 192.0, 127.0, 88.0, 15.0, 80.0, 4.0, 0.0, 0.0, 0.0, 0.0, 1.695418076941852E9, 0.0, 2023-09-22 16:27:56.941
70.0, 26355.187756441566, 12798.586523364369, -36558.401472377955, -62998.79407868315, -187500.02235174447, 7738.732724038688, -121328.19698193038, -187500.02235174447, -39384.04195118451, 6438.576452562386, -5806.849099022043, -69812.16458227213, 1112.4910250295432, -21466.14598824334, -6032.24409010936, 8336.328963795777, -0.042, 0.98, 0.256, 192.0, 0.0, 0.0, 0.0, 0.0, 0.0, 0.0, 0.0, 0.0, 0.0, 1.695418076941855E9, 0.0, 2023-09-22 16:27:56.941
72.0, 26338.22278239999, 12779.744002788544, -36554.221696164816, -63017.72600623679, -187500.02235174447, 7734.620003058912, -121330.52156335373, -187500.02235174447, -39375.972971436146, 6445.527845087987, -5875.111326588551, -69805.86139033573, 1117.9224989321826, -21503.808677650533, -6029.4948255413565, 8258.991927980414, -0.042, 0.98, 0.256, 192.0, 0.0, 0.0, 0.0, 0.0, 0.0, 0.0, 0.0, 0.0, 0.0, 1.695418076941859E9, 0.0, 2023-09-22 16:27:56.941
74.0, 26350.11391045021, 12786.784802291966, -36556.2780566547, -63007.533610765175, -187500.02235174447, 7748.612195087933, -121325.87240050703, -187500.02235174447, -39386.724160519145, 6432.206205392624, -5806.4914711107585, -69820.85941086525, 1106.9030889157164, -21457.7640840726, -6034.702781999444, 8331.903318393626, -0.042, 0.98, 0.256, 192.0, 0.0, 0.0, 0.0, 0.0, 0.0, 0.0, 0.0, 0.0, 0.0, 1.695418076941862E9, 0.0, 2023-09-22 16:27:56.941
76.0, 26327.561000294805, 12762.890787469243, -36566.1798794484, -63035.11566342303, -187500.02235174447, 7742.309003151537, -121342.07741523713, -187500.02235174447, -39383.5949162954, 6431.669763525697, -5861.990852593285, -69822.20051553256, 1107.819510438384, -21497.952520603245, -6038.10024715665, 8271.397146153111, -0.042, 0.98, 0.256, 192.0, 0.0, 0.0, 0.0, 0.0, 0.0, 0.0, 0.0, 0.0, 0.0, 1.695418077003576E9, 0.0, 2023-09-22 16:27:57.003
78.0, 26331.383148596666, 12767.070563682386, -36571.56664986213, -63028.43249183089, -187500.02235174447, 7776.73068961271, -121298.64797576047, -187500.02235174447, -39402.28097466004, 6408.535708014454, -5803.809261776121, -69842.80882392035, 1098.1412050892359, -21466.90594755482, -6032.691124998466, 8346.297841822845, -0.046, 0.98, 0.258, 192.0, 127.0, 72.0, 15.0, 80.0, 4.0, 8.0, 0.0, 0.0, 0.0, 1.695418077003592E9, 0.0, 2023-09-22 16:27:57.003
80.0, 26328.991511939945, 12766.176493904173, -36554.780489776196, -63027.47136681931, -187500.02235174447, 7743.873625263408, -121355.15318574347, -187500.02235174447, -39383.21493663966, 6425.299516355934, -5861.856742126553, -69822.91577135512, 1109.2500220835236, -21518.471422013215, -6038.927261701497, 8283.556495136798, -0.046, 0.98, 0.258, 192.0, 0.0, 0.0, 0.0, 0.0, 0.0, 0.0, 0.0, 0.0, 0.0, 1.695418077003596E9, 0.0, 2023-09-22 16:27:57.003
82.0, 26339.45212834503, 12776.033613208963, -36554.15464093145, -63014.21678235731, -187500.02235174447, 7779.055271036062, -121290.89192043447, -187500.02235174447, -39396.67068680176, 6418.79515871944, -5805.217421676805, -69836.25976279494, 1105.9419639041382, -21472.29271796855, -6029.517177285812, 8345.627289489184, -0.046, 0.98, 0.258, 192.0, 0.0, 0.0, 0.0, 0.0, 0.0, 0.0, 0.0, 0.0, 0.0, 1.695418077003599E9, 0.0, 2023-09-22 16:27:57.003
84.0, 26332.478384074973, 12770.266863139495, -36546.26447513873, -63014.596762013054, -187500.02235174447, 7729.568508812012, -121369.36889521706, -187500.02235174447, -39377.627000525834, 6431.379190847778, -5854.838294367587, -69816.74668988546, 1117.4084088097106, -21514.49281150017, -6024.197462105449, 8287.333939949744, -0.046, 0.98, 0.258, 192.0, 0.0, 0.0, 0.0, 0.0, 0.0, 0.0, 0.0, 0.0, 0.0, 1.695418077003602E9, 0.0, 2023-09-22 16:27:57.003
86.0, 26342.827241757783, 12781.889770256254, -36538.687233768374, -63004.02438688569, -187500.02235174447, 7760.793895816076, -121301.30783335064, -187500.02235174447, -39381.73972150561, 6427.288821612457, -5826.496282398258, -69823.76513764443, 1122.2810891009676, -21483.82621810749, -6008.037150864262, 8325.398960757133, -0.046, 0.98, 0.258, 192.0, 0.0, 0.0, 0.0, 0.0, 0.0, 0.0, 0.0, 0.0, 0.0, 1.695418077003605E9, 0.0, 2023-09-22 16:27:57.003
88.0, 26324.275293859875, 12768.411668349705, -36544.31987337111, -63014.32854107959, -187500.02235174447, 7722.505357564135, -121374.95683133088, -187500.02235174447, -39377.26937261455, 6436.676554283686, -5855.665308912434, -69813.5280386839, 1122.8398827123503, -21516.079785356498, -6012.194575332949, 8284.338806192733, -0.048, 0.98, 0.262, 192.0, 127.0, 64.0, 15.0, 80.0, 4.0, 24.0, 0.0, 0.0, 0.0, 1.695418077003609E9, 0.0, 2023-09-22 16:27:57.003
90.0, 26334.199468398034, 12774.491342841548, -36546.64445479446, -63007.623017743, -187500.02235174447, 7780.865762336942, -121273.81518767063, -187500.02235174447, -39400.917518248265, 6423.377266332778, -5814.605154348034, -69836.77385291742, 1107.5065860160096, -21483.44623845175, -6012.060464866217, 8338.74295219695, -0.048, 0.98, 0.262, 192.0, 0.0, 0.0, 0.0, 0.0, 0.0, 0.0, 0.0, 0.0, 0.0, 1.695418077003612E9, 0.0, 2023-09-22 16:27:57.003
92.0, 26349.108081949722, 12789.33290115987, -36531.199399375844, -62990.769802423696, -187500.02235174447, 7714.168156882305, -121394.42520075146, -187500.02235174447, -39366.18290736472, 6444.387906120766, -5839.572052904613, -69799.46879142152, 1124.0021734240263, -21511.40827076534, -6012.708665455421, 8301.795518612327, -0.048, 0.98, 0.262, 192.0, 0.0, 0.0, 0.0, 0.0, 0.0, 0.0, 0.0, 0.0, 0.0, 1.695418077062513E9, 0.0, 2023-09-22 16:27:57.062
94.0, 26341.799061512836, 12776.637110309257, -36543.47050708181, -63008.36062531002, -187500.02235174447, 7769.242855220182, -121283.8287691866, -187500.02235174447, -39388.28878263102, 6423.354914588323, -5829.558471388635, -69821.48525971, 1114.234461097057, -21493.772744390102, -6008.260668308815, 8318.939306609549, -0.048, 0.98, 0.262, 192.0, 0.0, 0.0, 0.0, 0.0, 0.0, 0.0, 0.0, 0.0, 0.0, 1.695418077062524E9, 0.0, 2023-09-22 16:27:57.062
96.0, 26351.946753495547, 12787.947093003642, -36538.79899249065, -62998.458802516325, -187500.02235174447, 7712.134148136873, -121384.41161923548, -187500.02235174447, -39377.2470208701, 6433.681420526675, -5829.4467126663585, -69809.81764910433, 1110.5240715174762, -21502.825200894502, -6027.013781906818, 8307.070530303781, -0.048, 0.98, 0.262, 192.0, 0.0, 0.0, 0.0, 0.0, 0.0, 0.0, 0.0, 0.0, 0.0, 1.695418077062528E9, 0.0, 2023-09-22 16:27:57.062
98.0, 26339.02744520038, 12773.999604463532, -36548.92433272891, -63019.17886962639, -187500.02235174447, 7768.371137186425, -121261.78994915367, -187500.02235174447, -39385.71833201866, 6431.848577481339, -5838.208596492839, -69823.36280624423, 1118.4812925435654, -21501.417040993816, -6007.925392141985, 8304.07539654677, -0.04, 0.978, 0.26, 192.0, 127.0, 96.0, 15.0, 72.0, 4.0, 16.0, 0.0, 0.0, 0.0, 1.695418077062531E9, 0.0, 2023-09-22 16:27:57.062
100.0, 26338.535706822364, 12771.227988151073, -36558.60263807805, -63019.4247388154, -187500.02235174447, 7717.207994128227, -121348.22414496234, -187500.02235174447, -39388.86992798685, 6412.469615038588, -5815.655686337434, -69826.87203012372, 1102.7680161914845, -21503.20518055024, -6035.865072711119, 8318.715789164995, -0.04, 0.978, 0.26, 192.0, 0.0, 0.0, 0.0, 0.0, 0.0, 0.0, 0.0, 0.0, 0.0, 1.695418077062534E9, 0.0, 2023-09-22 16:27:57.062
102.0, 26337.507526577418, 12767.718764271589, -36557.68621655538, -63027.538422052676, -187500.02235174447, 7757.463485892235, -121249.2729722587, -187500.02235174447, -39392.602669310894, 6409.116853370292, -5836.956898803342, -69832.39291100418, 1108.8700424277833, -21508.368433519416, -6018.296601569248, 8304.857707602705, -0.04, 0.978, 0.26, 192.0, 0.0, 0.0, 0.0, 0.0, 0.0, 0.0, 0.0, 0.0, 0.0, 1.695418077062537E9, 0.0, 2023-09-22 16:27:57.062
104.0, 26349.242192416456, 12782.627377823279, -36560.12255670101, -63016.09432889156, -187500.02235174447, 7711.776520225588, -121340.31162742515, -187500.02235174447, -39387.17119540825, 6408.8039289479175, -5814.0687124811075, -69828.52605921341, 1103.88560341425, -21501.841724138467, -6031.707648242432, 8324.214318301001, -0.04, 0.978, 0.26, 192.0, 0.0, 0.0, 0.0, 0.0, 0.0, 0.0, 0.0, 0.0, 0.0, 1.695418077062541E9, 0.0, 2023-09-22 16:27:57.062
106.0, 26344.883602247668, 12777.330014387371, -36555.38398687649, -63023.93979119537, -187500.02235174447, 7753.1719509568165, -121244.69086464535, -187500.02235174447, -39387.9982099531, 6421.70088549863, -5847.238701252782, -69826.93908535708, 1111.909879673705, -21518.002035379654, -6022.43167429348, 8288.74209985043, -0.04, 0.978, 0.26, 192.0, 0.0, 0.0, 0.0, 0.0, 0.0, 0.0, 0.0, 0.0, 0.0, 1.695418077121796E9, 0.0, 2023-09-22 16:27:57.121
108.0, 26353.39961688514, 12787.29889241444, -36556.83685026608, -63008.13710786547, -187500.02235174447, 7715.531613294079, -121310.49440032178, -187500.02235174447, -39387.95350646419, 6421.3656093318, -5800.992941974752, -69825.66503592313, 1104.7349697035515, -21494.644462423857, -6033.048752909751, 8329.757550925917, -0.038, 0.982, 0.254, 192.0, 127.0, 104.0, 15.0, 88.0, 3.5, 120.0, 0.0, 0.0, 0.0, 1.695418077121809E9, 0.0, 2023-09-22 16:27:57.121
110.0, 26337.440471344053, 12767.227025893573, -36556.81449852163, -63025.21384062932, -187500.02235174447, 7745.907634008841, -121228.28468421516, -187500.02235174447, -39388.065265186466, 6421.499719798532, -5853.899521100464, -69821.48525971, 1113.7874262079508, -21523.92524766031, -6025.225642350393, 8280.360195679688, -0.038, 0.982, 0.254, 192.0, 0.0, 0.0, 0.0, 0.0, 0.0, 0.0, 0.0, 0.0, 0.0, 1.695418077121813E9, 0.0, 2023-09-22 16:27:57.121
112.0, 26337.619285299694, 12771.250339895529, -36575.00881850825, -63023.693922006365, -187500.02235174447, 7732.138959424372, -121256.4255304844, -187500.02235174447, -39406.03606772853, 6406.0993678688255, -5795.896744238943, -69837.71262618454, 1091.0333503524485, -21491.135238544375, -6045.297508871259, 8342.766266198905, -0.038, 0.982, 0.254, 192.0, 0.0, 0.0, 0.0, 0.0, 0.0, 0.0, 0.0, 0.0, 0.0, 1.695418077121816E9, 0.0, 2023-09-22 16:27:57.121
114.0, 26343.050759202335, 12780.034575466463, -36555.540449087675, -63019.4247388154, -187500.02235174447, 7739.000944972151, -121210.53739911765, -187500.02235174447, -39394.52491933405, 6416.872908696283, -5858.414573480436, -69823.51926845542, 1103.1703475916802, -21528.283837829094, -6038.614337279122, 8285.277579459856, -0.038, 0.982, 0.254, 192.0, 0.0, 0.0, 0.0, 0.0, 0.0, 0.0, 0.0, 0.0, 0.0, 1.695418077121819E9, 0.0, 2023-09-22 16:27:57.121
116.0, 26339.40742485612, 12776.43594460916, -36574.65119059696, -63021.101119649546, -187500.02235174447, 7728.585032055978, -121229.02229178218, -187500.02235174447, -39398.50352984709, 6415.487100540055, -5802.065825708607, -69828.01196909093, 1101.0022283795154, -21489.838837365965, -6032.467607553913, 8340.531091753375, -0.038, 0.982, 0.254, 192.0, 0.0, 0.0, 0.0, 0.0, 0.0, 0.0, 0.0, 0.0, 0.0, 1.695418077121823E9, 0.0, 2023-09-22 16:27:57.121
118.0, 26302.34823254922, 12738.750903457512, -36593.69487687288, -63061.42366664692, -187500.02235174447, 7751.607328844944, -121169.81252072008, -187500.02235174447, -39414.52973062154, 6398.700940454119, -5858.25811126925, -69843.8817076542, 1087.591181706331, -21530.295494830072, -6040.380125091091, 8287.31158820529, -0.048, 0.986, 0.256, 192.0, 127.0, 64.0, 15.0, 104.0, 4.0, 0.0, 0.0, 0.0, 0.0, 1.695418077121826E9, 0.0, 2023-09-22 16:27:57.121
120.0, 26335.585276554262, 12775.273653897484, -36577.95924877635, -63021.726968494295, -187500.02235174447, 7755.317718424526, -121161.49767178271, -187500.02235174447, -39429.7065651067, 6386.541591470432, -5785.52553481168, -69857.44921653857, 1070.6038559202977, -21493.415116478816, -6057.188636921482, 8375.332757870288, -0.048, 0.986, 0.256, 192.0, 0.0, 0.0, 0.0, 0.0, 0.0, 0.0, 0.0, 0.0, 0.0, 1.695418077121829E9, 0.0, 2023-09-22 16:27:57.121
122.0, 26334.557096309316, 12776.123020186786, -36557.82032702212, -63020.00588417124, -187500.02235174447, 7750.19916894426, -121156.66969498036, -187500.02235174447, -39403.37621013835, 6418.973972675082, -5848.088067542085, -69825.17329754512, 1099.5046615010097, -21535.21287861024, -6026.365581317614, 8308.858669860205, -0.048, 0.986, 0.256, 192.0, 0.0, 0.0, 0.0, 0.0, 0.0, 0.0, 0.0, 0.0, 0.0, 1.695418077181634E9, 0.0, 2023-09-22 16:27:57.181
124.0, 26348.973971482992, 12789.57877034888, -36555.94278048787, -63006.907761920425, -187500.02235174447, 7769.242855220182, -121128.97588360023, -187500.02235174447, -39401.208090926186, 6426.595917534342, -5788.632427290968, -69819.96534108702, 1106.4113505376995, -21484.474418696693, -6014.139177100561, 8380.406603861644, -0.048, 0.986, 0.256, 192.0, 0.0, 0.0, 0.0, 0.0, 0.0, 0.0, 0.0, 0.0, 0.0, 1.695418077181646E9, 0.0, 2023-09-22 16:27:57.181
126.0, 26340.703826034525, 12778.58171207687, -36549.84075425157, -63018.82124171511, -187500.02235174447, 7746.511131109135, -121150.45591002177, -187500.02235174447, -39393.2508699001, 6424.8301297223725, -5838.5438726596685, -69818.60188467526, 1104.3326383033561, -21513.285817299584, -6020.464720781412, 8322.113254322203, -0.048, 0.986, 0.256, 192.0, 0.0, 0.0, 0.0, 0.0, 0.0, 0.0, 0.0, 0.0, 0.0, 1.69541807718165E9, 0.0, 2023-09-22 16:27:57.181
128.0, 26332.187811397056, 12768.85870323881, -36572.05838824015, -63031.80760524364, -187500.02235174447, 7775.970730301229, -121072.13539745039, -187500.02235174447, -39411.691059075725, 6402.008998633504, -5785.614941789501, -69841.62418146423, 1097.9623911335934, -21472.67269762429, -6022.409322549024, 8378.730223027495, -0.05, 0.986, 0.258, 192.0, 127.0, 56.0, 15.0, 104.0, 4.0, 8.0, 0.0, 0.0, 0.0, 1.695418077181653E9, 0.0, 2023-09-22 16:27:57.181
130.0, 26316.25101760042, 12753.324240842372, -36572.25955394025, -63044.659858305444, -187500.02235174447, 7722.684171519777, -121122.13624979691, -187500.02235174447, -39399.03997171402, 6415.308286584412, -5847.8198466086205, -69832.19174530408, 1101.5610219908979, -21534.296457087574, -6031.282965097781, 8307.45050995952, -0.05, 0.986, 0.258, 192.0, 0.0, 0.0, 0.0, 0.0, 0.0, 0.0, 0.0, 0.0, 0.0, 1.695418077181656E9, 0.0, 2023-09-22 16:27:57.181
132.0, 26317.793287967837, 12750.150293129718, -36583.54718489017, -63042.20116641536, -187500.02235174447, 7760.257453949149, -121026.18021085027, -187500.02235174447, -39436.54619891002, 6372.907027352694, -5807.206726933328, -69872.51429230145, 1078.5163734574764, -21503.898084628356, -6035.328630844192, 8360.401792574143, -0.05, 0.986, 0.258, 192.0, 0.0, 0.0, 0.0, 0.0, 0.0, 0.0, 0.0, 0.0, 0.0, 1.69541807718166E9, 0.0, 2023-09-22 16:27:57.181
134.0, 26315.44635480003, 12744.875281438266, -36578.1827662209, -63042.00000071526, -187500.02235174447, 7714.48108130468, -121078.10331321995, -187500.02235174447, -39416.228463200154, 6393.291818295935, -5855.128867045506, -69851.14602460219, 1086.5406497169315, -21536.82220421102, -6036.915604700519, 8307.83048961526, -0.05, 0.986, 0.258, 192.0, 0.0, 0.0, 0.0, 0.0, 0.0, 0.0, 0.0, 0.0, 0.0, 1.695418077181663E9, 0.0, 2023-09-22 16:27:57.181
136.0, 26333.372453853186, 12762.935490958154, -36567.90096377146, -63027.13609065248, -187500.02235174447, 7755.4071254023465, -120967.93156479974, -187500.02235174447, -39429.371288939874, 6381.69126292363, -5821.91417478492, -69858.45504503907, 1085.177193305158, -21496.142029302362, -6027.349058073647, 8351.461094792021, -0.05, 0.986, 0.258, 192.0, 0.0, 0.0, 0.0, 0.0, 0.0, 0.0, 0.0, 0.0, 0.0, 1.695418077241809E9, 0.0, 2023-09-22 16:27:57.241
138.0, 26334.713558520503, 12766.444714837637, -36563.54237360268, -63025.10208190705, -187500.02235174447, 7696.845554929442, -121046.00620818212, -187500.02235174447, -39404.069114216465, 6401.070225366381, -5849.675041398411, -69826.60380919026, 1094.430815509655, -21524.394634293873, -6026.47734003989, 8305.707073892007, -0.048, 0.978, 0.264, 192.0, 127.0, 64.0, 15.0, 72.0, 4.0, 32.0, 0.0, 0.0, 0.0, 1.695418077241824E9, 0.0, 2023-09-22 16:27:57.241
140.0, 26321.861305458704, 12755.760580988, -36593.15843500596, -63042.51409083773, -187500.02235174447, 7757.351727169958, -120902.0386221455, -187500.02235174447, -39436.59090239894, 6380.372510000767, -5820.10368348404, -69856.10811187126, 1081.7126729145853, -21493.996261834654, -6024.353924316636, 8340.17346384209, -0.048, 0.978, 0.264, 192.0, 0.0, 0.0, 0.0, 0.0, 0.0, 0.0, 0.0, 0.0, 0.0, 1.695418077241828E9, 0.0, 2023-09-22 16:27:57.241
142.0, 26330.802003240828, 12765.707107270611, -36618.12533356254, -63033.14870991096, -187500.02235174447, 7701.271200331593, -120976.93931781522, -187500.02235174447, -39420.40823941329, 6406.971085902583, -5836.241642980772, -69837.91379188464, 1082.115004314781, -21514.425756266806, -6045.968061204918, 8318.246402531435, -0.048, 0.978, 0.264, 192.0, 0.0, 0.0, 0.0, 0.0, 0.0, 0.0, 0.0, 0.0, 0.0, 1.695418077241832E9, 0.0, 2023-09-22 16:27:57.241
144.0, 26320.363738580196, 12749.166816373685, -36638.26425531677, -63054.159349698944, -187500.02235174447, 7766.337128440992, -120822.04172873995, -187500.02235174447, -39436.03210878755, 6395.057606107904, -5830.921927800408, -69852.6882949696, 1076.8176408788731, -21496.454953724737, -6035.753313988843, 8329.98106837047, -0.048, 0.978, 0.264, 192.0, 0.0, 0.0, 0.0, 0.0, 0.0, 0.0, 0.0, 0.0, 0.0, 1.695418077241835E9, 0.0, 2023-09-22 16:27:57.241
146.0, 26337.753395766427, 12764.76833400349, -36631.08934534661, -63038.33431462459, -187500.02235174447, 7713.7881772265655, -120900.16107561125, -187500.02235174447, -39427.069059260975, 6394.565867729887, -5817.175604960395, -69848.21794607854, 1070.5815041758424, -21508.949578875254, -6058.797962522264, 8336.328963795777, -0.048, 0.978, 0.264, 192.0, 0.0, 0.0, 0.0, 0.0, 0.0, 0.0, 0.0, 0.0, 0.0, 1.695418077241839E9, 0.0, 2023-09-22 16:27:57.241
148.0, 26323.87296245968, 12751.7596187305, -36635.76085993777, -63050.42660837491, -187500.02235174447, 7767.186494730294, -120765.08948386784, -187500.02235174447, -39431.047669774016, 6387.972103115571, -5831.3242592006045, -69852.50948101396, 1081.109175814292, -21513.39757602186, -6034.121636643606, 8327.768245669395, -0.044, 0.98, 0.266, 192.0, 127.0, 80.0, 15.0, 80.0, 4.0, 40.0, 0.0, 0.0, 0.0, 1.695418077241849E9, 0.0, 2023-09-22 16:27:57.241
150.0, 26327.382186339164, 12757.705182755612, -36638.71129020587, -63037.529651824196, -187500.02235174447, 7718.571450540001, -120840.05723477092, -187500.02235174447, -39429.66186161779, 6379.031405333449, -5812.3699799025035, -69852.66594322515, 1076.303550756401, -21510.91653238732, -6046.370392605114, 8345.068495877802, -0.044, 0.98, 0.266, 192.0, 0.0, 0.0, 0.0, 0.0, 0.0, 0.0, 0.0, 0.0, 0.0, 1.695418077241852E9, 0.0, 2023-09-22 16:27:57.241
152.0, 26338.15572716662, 12769.082220683364, -36618.10298181808, -63024.40917782894, -187500.02235174447, 7753.328413168003, -120737.70859691007, -187500.02235174447, -39429.304233706505, 6392.151879328714, -5845.741134374277, -69849.1343676012, 1085.9595043610937, -21523.947599404764, -6029.517177285812, 8320.682742677063, -0.044, 0.98, 0.266, 192.0, 0.0, 0.0, 0.0, 0.0, 0.0, 0.0, 0.0, 0.0, 0.0, 1.695418077302584E9, 0.0, 2023-09-22 16:27:57.302
154.0, 26343.29662839134, 12772.859665496311, -36616.15838005047, -63018.03893065917, -187500.02235174447, 7708.244944601649, -120814.71035655861, -187500.02235174447, -39409.7017538192, 6419.55511803092, -5822.5176718852135, -69828.59311444678, 1099.3258475453672, -21515.29747430056, -6021.492901026357, 8334.205548072523, -0.044, 0.98, 0.266, 192.0, 0.0, 0.0, 0.0, 0.0, 0.0, 0.0, 0.0, 0.0, 0.0, 1.6954180773026E9, 0.0, 2023-09-22 16:27:57.302
156.0, 26327.67275901708, 12751.558453030402, -36622.52862722023, -63039.4295501029, -187500.02235174447, 7753.551930612556, -120702.57165462634, -187500.02235174447, -39424.6550708598, 6391.771899672974, -5851.507884443747, -69844.2840390544, 1089.4910799850322, -21525.758090705647, -6020.174148103493, 8302.354312223712, -0.044, 0.98, 0.266, 192.0, 0.0, 0.0, 0.0, 0.0, 0.0, 0.0, 0.0, 0.0, 0.0, 1.695418077302604E9, 0.0, 2023-09-22 16:27:57.302
158.0, 26338.379244611177, 12764.209540392107, -36630.687013946415, -63030.958238954336, -187500.02235174447, 7726.8192442440095, -120752.01371336148, -187500.02235174447, -39431.02531802956, 6382.697091424119, -5794.265066893705, -69849.44729202359, 1074.7165769000742, -21501.394689249362, -6035.4180378220135, 8357.451362306043, -0.048, 0.976, 0.254, 192.0, 127.0, 64.0, 15.0, 64.0, 3.5, 120.0, 0.0, 0.0, 0.0, 1.695418077302607E9, 0.0, 2023-09-22 16:27:57.302
160.0, 26332.88071547517, 12758.040458922442, -36626.775458666736, -63040.323619881114, -187500.02235174447, 7758.469314392724, -120673.1344071787, -187500.02235174447, -39429.147771495314, 6388.195620560125, -5841.606061650045, -69849.22377457902, 1079.3210362578675, -21528.730872718203, -6030.612412764122, 8311.138547794646, -0.048, 0.976, 0.254, 192.0, 0.0, 0.0, 0.0, 0.0, 0.0, 0.0, 0.0, 0.0, 0.0, 1.695418077302611E9, 0.0, 2023-09-22 16:27:57.302
162.0, 26359.83691928827, 12787.030671480976, -36615.95721435037, -63013.210953856826, -187500.02235174447, 7734.15061642535, -120720.00601530148, -187500.02235174447, -39422.799876070014, 6403.081882367359, -5784.944389455842, -69839.09843434078, 1078.9634083465826, -21496.253788024642, -6027.952555173941, 8369.253083378444, -0.048, 0.976, 0.254, 192.0, 0.0, 0.0, 0.0, 0.0, 0.0, 0.0, 0.0, 0.0, 0.0, 1.695418077302614E9, 0.0, 2023-09-22 16:27:57.302
164.0, 26340.949695223535, 12765.081258425864, -36622.32746152013, -63041.15063442596, -187500.02235174447, 7746.1311514533945, -120664.9313169636, -187500.02235174447, -39414.30621317699, 6404.60180099032, -5845.718782629822, -69829.88951562518, 1089.401673007211, -21536.553983277558, -6019.771816703298, 8300.901448834116, -0.048, 0.976, 0.254, 192.0, 0.0, 0.0, 0.0, 0.0, 0.0, 0.0, 0.0, 0.0, 0.0, 1.695418077302618E9, 0.0, 2023-09-22 16:27:57.302
166.0, 26348.906916249623, 12773.105534685319, -36632.20693256938, -63034.62392504501, -187500.02235174447, 7744.633584574889, -120663.09847391826, -187500.02235174447, -39420.27412894656, 6399.840879421339, -5778.99882543073, -69834.98571336099, 1077.8905246127279, -21500.835895637978, -6031.282965097781, 8369.186028145079, -0.048, 0.976, 0.254, 192.0, 0.0, 0.0, 0.0, 0.0, 0.0, 0.0, 0.0, 0.0, 0.0, 1.695418077361735E9, 0.0, 2023-09-22 16:27:57.361
168.0, 26340.03327370087, 12764.14248515874, -36626.06020284417, -63045.3304106391, -187500.02235174447, 7748.545139854567, -120624.13938333266, -187500.02235174447, -39428.96895753968, 6388.352082771312, -5828.44088416587, -69844.9322396436, 1069.6650826531747, -21536.621038510926, -6041.900043714052, 8315.541841452341, -0.05, 0.978, 0.254, 192.0, 127.0, 56.0, 15.0, 72.0, 3.5, 120.0, 0.0, 0.0, 0.0, 1.695418077361746E9, 0.0, 2023-09-22 16:27:57.361
170.0, 26340.793233012348, 12764.56716830339, -36636.23024657134, -63044.168119927424, -187500.02235174447, 7769.309910453548, -120582.43102817907, -187500.02235174447, -39427.1584662388, 6387.413309504189, -5762.100906622518, -69849.3355333013, 1075.6106466782865, -21492.766915889613, -6025.091531883661, 8389.459060366042, -0.05, 0.978, 0.254, 192.0, 0.0, 0.0, 0.0, 0.0, 0.0, 0.0, 0.0, 0.0, 0.0, 1.695418077361749E9, 0.0, 2023-09-22 16:27:57.361
172.0, 26342.827241757783, 12767.361136360305, -36621.5451504642, -63034.601573300555, -187500.02235174447, 7750.53444511109, -120587.37076370369, -187500.02235174447, -39415.96024226669, 6403.88654516775, -5816.259183437727, -69834.09164358278, 1081.2209345365686, -21534.60938150995, -6030.746523230854, 8330.405751515122, -0.05, 0.978, 0.254, 192.0, 0.0, 0.0, 0.0, 0.0, 0.0, 0.0, 0.0, 0.0, 0.0, 1.695418077361753E9, 0.0, 2023-09-22 16:27:57.361
174.0, 26347.83403251577, 12773.843142252344, -36627.133086578026, -63024.6773987624, -187500.02235174447, 7774.696680867277, -120526.32814959624, -187500.02235174447, -39422.37519292536, 6400.019693376982, -5762.369127555982, -69838.65139945167, 1080.460975225088, -21498.15368630334, -6013.625086978089, 8393.75059530146, -0.05, 0.978, 0.254, 192.0, 0.0, 0.0, 0.0, 0.0, 0.0, 0.0, 0.0, 0.0, 0.0, 1.695418077361756E9, 0.0, 2023-09-22 16:27:57.361
176.0, 26359.36753265471, 12787.164781947708, -36610.391629981, -63011.91455267842, -187500.02235174447, 7733.368305369414, -120573.80325481932, -187500.02235174447, -39400.31402114797, 6413.006056905515, -5819.991924761764, -69816.09848929626, 1085.8700973832724, -21542.65600951386, -6018.162491102516, 8331.836263160261, -0.05, 0.978, 0.254, 192.0, 0.0, 0.0, 0.0, 0.0, 0.0, 0.0, 0.0, 0.0, 0.0, 1.69541807736176E9, 0.0, 2023-09-22 16:27:57.361
178.0, 26355.679494819582, 12784.370813890793, -36628.6977086899, -63020.09529114906, -187500.02235174447, 7767.834695319498, -120503.23879757391, -187500.02235174447, -39396.78244552403, 6418.348123830334, -5777.165982385395, -69820.34532074277, 1091.9944753640266, -21507.45201199675, -6003.052711850729, 8377.858504993737, -0.048, 0.978, 0.258, 192.0, 127.0, 64.0, 15.0, 72.0, 4.0, 8.0, 0.0, 0.0, 0.0, 1.695418077361763E9, 0.0, 2023-09-22 16:27:57.361
180.0, 26352.483195362474, 12783.7673167905, -36622.70744117587, -63019.290628348666, -187500.02235174447, 7724.807587243032, -120566.4048274046, -187500.02235174447, -39384.421930840246, 6440.386943863266, -5822.003581762741, -69807.96245431453, 1085.4230624941663, -21541.426663568815, -6027.259651095826, 8324.88487063466, -0.048, 0.978, 0.258, 192.0, 0.0, 0.0, 0.0, 0.0, 0.0, 0.0, 0.0, 0.0, 0.0, 1.695418077361766E9, 0.0, 2023-09-22 16:27:57.361
182.0, 26349.06337846081, 12778.849933010333, -36639.96298789537, -63028.588954042076, -187500.02235174447, 7777.803573346565, -120462.35745696515, -187500.02235174447, -39403.577375838446, 6419.17513837518, -5783.871505721987, -69830.38125400321, 1072.7049198990965, -21506.69205268527, -6013.71449395591, 8378.819630005317, -0.048, 0.978, 0.258, 192.0, 0.0, 0.0, 0.0, 0.0, 0.0, 0.0, 0.0, 0.0, 0.0, 1.695418077422137E9, 0.0, 2023-09-22 16:27:57.422
184.0, 26351.276201161887, 12783.588502834858, -36633.212761069866, -63026.89022146347, -187500.02235174447, 7727.981534955685, -120541.39322535912, -187500.02235174447, -39381.94088720571, 6432.742647259552, -5817.2426601937605, -69810.35409097125, 1073.68839665513, -21532.061282642044, -6031.752351731343, 8339.547614997342, -0.048, 0.978, 0.258, 192.0, 0.0, 0.0, 0.0, 0.0, 0.0, 0.0, 0.0, 0.0, 0.0, 1.695418077422159E9, 0.0, 2023-09-22 16:27:57.422
186.0, 26350.091558705757, 12780.325148144382, -36631.26815930226, -63026.01850342972, -187500.02235174447, 7775.903675067863, -120439.64808459856, -187500.02235174447, -39390.07692218744, 6430.954507703127, -5797.886049495465, -69823.49691671097, 1076.6388269232307, -21508.234323052686, -6018.386008547069, 8374.639853792174, -0.048, 0.978, 0.258, 192.0, 0.0, 0.0, 0.0, 0.0, 0.0, 0.0, 0.0, 0.0, 0.0, 1.695418077422162E9, 0.0, 2023-09-22 16:27:57.422
188.0, 26343.475442346986, 12773.731383530067, -36626.998976111296, -63028.23132613079, -187500.02235174447, 7716.872717961397, -120546.26590565038, -187500.02235174447, -39366.02644515353, 6445.550196832442, -5825.557509131135, -69802.5756839008, 1086.4512427391103, -21540.64435251288, -6015.480281767879, 8338.072399863291, -0.042, 0.974, 0.258, 192.0, 127.0, 88.0, 15.0, 56.0, 4.0, 8.0, 0.0, 0.0, 0.0, 1.695418077422165E9, 0.0, 2023-09-22 16:27:57.422
190.0, 26349.30924764982, 12777.754697532022, -36623.33329002062, -63026.554945296644, -187500.02235174447, 7766.672404607822, -120447.47119515792, -187500.02235174447, -39386.47829133014, 6432.8097024929175, -5812.168814202406, -69821.30644575435, 1080.5727339473647, -21521.19833483676, -6011.076988110183, 8361.787600730373, -0.042, 0.974, 0.258, 192.0, 0.0, 0.0, 0.0, 0.0, 0.0, 0.0, 0.0, 0.0, 0.0, 1.695418077422169E9, 0.0, 2023-09-22 16:27:57.422
192.0, 26352.572602340297, 12783.901427257231, -36621.612205697566, -63020.31880859361, -187500.02235174447, 7710.994209169652, -120557.3076674113, -187500.02235174447, -39367.52401203204, 6444.812589265417, -5816.303886926638, -69804.6767478796, 1083.4561089820993, -21534.005884409653, -6016.173185845993, 8345.2696615779, -0.042, 0.974, 0.258, 192.0, 0.0, 0.0, 0.0, 0.0, 0.0, 0.0, 0.0, 0.0, 0.0, 1.695418077422172E9, 0.0, 2023-09-22 16:27:57.422
194.0, 26333.43950908655, 12763.024897935975, -36634.330348292635, -63039.09427393607, -187500.02235174447, 7767.789991830587, -120453.14853824956, -187500.02235174447, -39382.7455500061, 6441.571586319397, -5823.858776552532, -69818.26660850842, 1082.5843909483422, -21526.428643039304, -6005.287886296259, 8344.532054010875, -0.042, 0.974, 0.258, 192.0, 0.0, 0.0, 0.0, 0.0, 0.0, 0.0, 0.0, 0.0, 0.0, 1.695418077422175E9, 0.0, 2023-09-22 16:27:57.422
196.0, 26332.701901519526, 12764.701278770122, -36631.178752324435, -63030.15357615395, -187500.02235174447, 7725.209918643227, -120547.15997542859, -187500.02235174447, -39395.93307923473, 6427.445283823644, -5803.0940059535515, -69827.69904466857, 1065.5970651623088, -21524.12641336041, -6022.8563574381305, 8360.46884780751, -0.042, 0.974, 0.258, 192.0, 0.0, 0.0, 0.0, 0.0, 0.0, 0.0, 0.0, 0.0, 0.0, 1.695418077482373E9, 0.0, 2023-09-22 16:27:57.482
198.0, 26334.668855031596, 12768.456371838614, -36616.62776668403, -63027.69488426387, -187500.02235174447, 7766.381831929903, -120464.4361691995, -187500.02235174447, -39387.93115471973, 6435.715429272107, -5831.927756300897, -69824.54744870037, 1082.4055769926997, -21522.584142992993, -5998.627066448577, 8341.782789442872, -0.046, 0.98, 0.26, 192.0, 127.0, 72.0, 15.0, 80.0, 4.0, 16.0, 0.0, 0.0, 0.0, 1.695418077482387E9, 0.0, 2023-09-22 16:27:57.482
200.0, 26344.79419526985, 12782.739136545557, -36625.38965051051, -63017.748357981254, -187500.02235174447, 7717.789139484065, -120577.42423742107, -187500.02235174447, -39387.12649191934, 6441.191606663658, -5808.10079671154, -69815.56204742934, 1073.5319344439429, -21518.761994691133, -6023.728075471888, 8362.927539697594, -0.046, 0.98, 0.26, 192.0, 0.0, 0.0, 0.0, 0.0, 0.0, 0.0, 0.0, 0.0, 0.0, 1.69541807748239E9, 0.0, 2023-09-22 16:27:57.482
202.0, 26340.346198123243, 12774.156066674717, -36626.641348200006, -63031.49468082126, -187500.02235174447, 7765.174837729316, -120503.23879757391, -187500.02235174447, -39388.78052100903, 6435.089580427359, -5848.311584986638, -69813.23746600599, 1079.4774984690546, -21529.624942496415, -6012.418092777502, 8332.953850383026, -0.046, 0.98, 0.26, 192.0, 0.0, 0.0, 0.0, 0.0, 0.0, 0.0, 0.0, 0.0, 0.0, 1.695418077482394E9, 0.0, 2023-09-22 16:27:57.482
204.0, 26360.462768133017, 12797.178363463685, -36621.947481864394, -63012.56275326762, -187500.02235174447, 7729.233232645182, -120603.12874354467, -187500.02235174447, -39381.44914882769, 6448.366516633811, -5808.190203689362, -69808.05186129235, 1072.883733854739, -21508.748413175155, -6020.576479503689, 8373.365804358222, -0.046, 0.98, 0.26, 192.0, 0.0, 0.0, 0.0, 0.0, 0.0, 0.0, 0.0, 0.0, 0.0, 1.695418077482397E9, 0.0, 2023-09-22 16:27:57.482
206.0, 26335.272352131888, 12772.747906774033, -36635.380880282035, -63036.99320995727, -187500.02235174447, 7766.962977285741, -120548.43402486254, -187500.02235174447, -39388.78052100903, 6444.432609609677, -5853.273672255716, -69814.91384684014, 1075.8788676117501, -21536.241058855183, -6020.822348692697, 8329.22110905899, -0.046, 0.98, 0.26, 192.0, 0.0, 0.0, 0.0, 0.0, 0.0, 0.0, 0.0, 0.0, 0.0, 1.6954180774824E9, 0.0, 2023-09-22 16:27:57.482
208.0, 26369.26935544841, 12807.7730903355, -36619.4440864854, -63004.09144211906, -187500.02235174447, 7734.172968169805, -120648.7263022335, -187500.02235174447, -39385.27129712955, 6442.309193886423, -5797.014331461708, -69811.6728438941, 1071.49792569851, -21511.251808554152, -6030.992392419862, 8383.915827741126, -0.044, 0.972, 0.252, 192.0, 127.0, 80.0, 15.0, 48.0, 3.5, 112.0, 0.0, 0.0, 0.0, 1.695418077482404E9, 0.0, 2023-09-22 16:27:57.482
210.0, 26348.817509271805, 12785.95778774712, -36619.0417550852, -63022.3751690835, -187500.02235174447, 7745.862930519931, -120627.53684848986, -187500.02235174447, -39360.75143346208, 6458.581263849886, -5862.862570627042, -69791.80214307334, 1098.856460911806, -21542.499547302672, -6000.705778682921, 8309.104539049213, -0.044, 0.972, 0.252, 192.0, 0.0, 0.0, 0.0, 0.0, 0.0, 0.0, 0.0, 0.0, 0.0, 1.695418077482407E9, 0.0, 2023-09-22 16:27:57.482
212.0, 26355.523032608395, 12793.467973884104, -36631.91635989146, -63021.27993360519, -187500.02235174447, 7745.348840397459, -120668.12761642071, -187500.02235174447, -39387.23825064162, 6439.157597918224, -5789.682959280367, -69812.29869273886, 1071.9673123320715, -21492.543398445057, -6016.821386435197, 8382.217095162523, -0.044, 0.972, 0.252, 192.0, 0.0, 0.0, 0.0, 0.0, 0.0, 0.0, 0.0, 0.0, 0.0, 1.695418077542781E9, 0.0, 2023-09-22 16:27:57.542
214.0, 26352.1702709401, 12788.304720914928, -36619.55584520767, -63030.42179708741, -187500.02235174447, 7749.841541032975, -120665.11013091925, -187500.02235174447, -39374.11777664635, 6447.383039877777, -5846.2328727522945, -69803.98384380148, 1076.750585645507, -21535.682265243802, -6018.117787613605, 8324.16961481209, -0.044, 0.972, 0.252, 192.0, 0.0, 0.0, 0.0, 0.0, 0.0, 0.0, 0.0, 0.0, 0.0, 1.695418077542794E9, 0.0, 2023-09-22 16:27:57.542
216.0, 26374.454960162042, 12816.356160206338, -36608.02234506873, -63004.82904968609, -187500.02235174447, 7744.968860741718, -120700.0906109918, -187500.02235174447, -39371.972009178644, 6445.147865432247, -5788.967703457797, -69801.94983505605, 1082.6961496706188, -21514.02342486661, -6008.28302005327, 8384.921656241615, -0.044, 0.972, 0.252, 192.0, 0.0, 0.0, 0.0, 0.0, 0.0, 0.0, 0.0, 0.0, 0.0, 1.695418077542798E9, 0.0, 2023-09-22 16:27:57.542
218.0, 26354.852480274738, 12797.044252996953, -36614.01261258276, -63023.068073161616, -187500.02235174447, 7744.0747909635065, -120711.93703555311, -187500.02235174447, -39365.44529979769, 6456.591958593364, -5849.92091058742, -69792.42799191808, 1087.1664985616803, -21556.625849798424, -6003.052711850729, 8314.73717865195, -0.048, 0.974, 0.254, 192.0, 127.0, 64.0, 15.0, 56.0, 3.5, 120.0, 0.0, 0.0, 0.0, 1.695418077542801E9, 0.0, 2023-09-22 16:27:57.542
220.0, 26366.16246296912, 12808.287180457972, -36613.00678408227, -63011.445166044854, -187500.02235174447, 7757.843465547975, -120706.6396721172, -187500.02235174447, -39375.9953231806, 6450.042897467959, -5792.007540703719, -69802.68744262308, 1080.3268647583564, -21517.197372579263, -6003.812671162209, 8383.737013785483, -0.048, 0.974, 0.254, 192.0, 0.0, 0.0, 0.0, 0.0, 0.0, 0.0, 0.0, 0.0, 0.0, 1.695418077542805E9, 0.0, 2023-09-22 16:27:57.542
222.0, 26339.720349278494, 12780.749831289033, -36624.58498771012, -63040.65889604794, -187500.02235174447, 7750.288575922082, -120729.3937479727, -187500.02235174447, -39381.11387266086, 6444.544368331954, -5845.070582040618, -69810.01881480441, 1073.5095826994875, -21547.573393294024, -6020.3976655480465, 8323.3649520117, -0.048, 0.974, 0.254, 192.0, 0.0, 0.0, 0.0, 0.0, 0.0, 0.0, 0.0, 0.0, 0.0, 1.695418077542808E9, 0.0, 2023-09-22 16:27:57.542
224.0, 26357.802910542836, 12801.291084443461, -36623.4450487429, -63019.82707021559, -187500.02235174447, 7782.96682631574, -120686.76897129643, -187500.02235174447, -39392.96029722218, 6425.8806617117725, -5783.916209210898, -69824.63685567818, 1065.0382715509263, -21504.658043939835, -6023.6833719829765, 8397.57274360332, -0.048, 0.974, 0.254, 192.0, 0.0, 0.0, 0.0, 0.0, 0.0, 0.0, 0.0, 0.0, 0.0, 1.695418077542811E9, 0.0, 2023-09-22 16:27:57.542
226.0, 26366.251869946944, 12812.556363648935, -36603.95432757787, -63007.75712820973, -187500.02235174447, 7738.866834505419, -120762.51903325546, -187500.02235174447, -39359.72325321713, 6459.251816183546, -5838.029782537196, -69786.95181452655, 1087.5017747285099, -21542.857175213954, -6016.910793413019, 8326.136568324157, -0.048, 0.974, 0.254, 192.0, 0.0, 0.0, 0.0, 0.0, 0.0, 0.0, 0.0, 0.0, 0.0, 1.695418077602066E9, 0.0, 2023-09-22 16:27:57.602
228.0, 26360.283954177376, 12801.469898399104, -36620.852246386086, -63016.94369518086, -187500.02235174447, 7780.329320470014, -120693.49684637749, -187500.02235174447, -39383.41610233976, 6445.773714276996, -5791.113470925507, -69806.55429441384, 1077.5776001903535, -21503.49575322816, -6011.255802065826, 8374.125763669701, -0.048, 0.972, 0.26, 192.0, 127.0, 64.0, 15.0, 48.0, 4.0, 16.0, 0.0, 0.0, 0.0, 1.695418077602079E9, 0.0, 2023-09-22 16:27:57.602
230.0, 26359.59105009926, 12802.274561199494, -36613.856150371575, -63017.03310215868, -187500.02235174447, 7734.709410036732, -120787.15065564522, -187500.02235174447, -39376.665875514256, 6458.313042916423, -5828.44088416587, -69796.67482336459, 1073.1296030437475, -21532.754186720158, -6031.461779053424, 8325.354257268222, -0.048, 0.972, 0.26, 192.0, 0.0, 0.0, 0.0, 0.0, 0.0, 0.0, 0.0, 0.0, 0.0, 1.695418077602082E9, 0.0, 2023-09-22 16:27:57.602
232.0, 26358.9204977656, 12801.49225014356, -36624.07089758765, -63019.40238707094, -187500.02235174447, 7787.459526951257, -120707.95842504007, -187500.02235174447, -39397.87768100234, 6437.570624061897, -5791.00171220323, -69816.56787592982, 1065.977044818049, -21502.378166005394, -6022.699895226943, 8371.957644457538, -0.048, 0.972, 0.26, 192.0, 0.0, 0.0, 0.0, 0.0, 0.0, 0.0, 0.0, 0.0, 0.0, 1.695418077602086E9, 0.0, 2023-09-22 16:27:57.602
234.0, 26355.143052952655, 12800.195848965152, -36621.254577786276, -63020.43056731589, -187500.02235174447, 7736.117569937417, -120825.50624913053, -187500.02235174447, -39381.44914882769, 6449.014717223015, -5818.5837648610795, -69798.15003849864, 1073.30841699939, -21526.808622695044, -6036.28975585577, 8334.74198993945, -0.048, 0.972, 0.26, 192.0, 0.0, 0.0, 0.0, 0.0, 0.0, 0.0, 0.0, 0.0, 0.0, 1.695418077602089E9, 0.0, 2023-09-22 16:27:57.602
236.0, 26355.612439586217, 12799.994683265053, -36630.73171743533, -63025.012674929225, -187500.02235174447, 7794.455622965768, -120737.12745155425, -187500.02235174447, -39408.58416659643, 6431.289783869956, -5794.846212249543, -69825.55327720086, 1060.3891087042223, -21503.16047706133, -6030.2547848528375, 8372.60584504674, -0.048, 0.972, 0.26, 192.0, 0.0, 0.0, 0.0, 0.0, 0.0, 0.0, 0.0, 0.0, 0.0, 1.695418077602092E9, 0.0, 2023-09-22 16:27:57.602
238.0, 26362.183852456077, 12804.196811222651, -36616.225435283835, -63019.13416613748, -187500.02235174447, 7730.686096034778, -120872.06493283094, -187500.02235174447, -39375.682398758225, 6453.440362625166, -5818.851985794543, -69799.58055014379, 1076.9741030900602, -21533.245925098174, -6032.28879359827, 8336.373667284688, -0.052000000000000005, 0.974, 0.258, 192.0, 127.0, 48.0, 15.0, 56.0, 4.0, 8.0, 0.0, 0.0, 0.0, 1.695418077602095E9, 0.0, 2023-09-22 16:27:57.602
240.0, 26356.618268086706, 12797.424232652693, -36618.21474054036, -63025.929096451895, -187500.02235174447, 7785.805497861565, -120791.41983883618, -187500.02235174447, -39391.5968408104, 6435.715429272107, -5819.4107794059255, -69813.25981775044, 1078.2481525240128, -21516.370358034415, -6017.491938768857, 8347.616594745707, -0.052000000000000005, 0.974, 0.258, 192.0, 0.0, 0.0, 0.0, 0.0, 0.0, 0.0, 0.0, 0.0, 0.0, 1.695418077602098E9, 0.0, 2023-09-22 16:27:57.602
242.0, 26356.662971575617, 12801.089918743362, -36621.56750220865, -63019.02240741521, -187500.02235174447, 7741.370229884414, -120912.27572110602, -187500.02235174447, -39390.009866954075, 6440.61046130782, -5812.727607813788, -69806.3754804582, 1070.6038559202977, -21514.984549878187, -6031.595889520156, 8353.316289581811, -0.052000000000000005, 0.974, 0.258, 192.0, 0.0, 0.0, 0.0, 0.0, 0.0, 0.0, 0.0, 0.0, 0.0, 1.695418077661815E9, 0.0, 2023-09-22 16:27:57.661
244.0, 26346.82820401528, 12789.735232560068, -36623.82502839864, -63029.080692420095, -187500.02235174447, 7796.154355544371, -120807.49074309955, -187500.02235174447, -39411.10991371988, 6426.618269278797, -5821.645953851456, -69826.46969872352, 1062.3560622162893, -21510.558904476038, -6023.5716132607, 8362.03346991938, -0.052000000000000005, 0.974, 0.258, 192.0, 0.0, 0.0, 0.0, 0.0, 0.0, 0.0, 0.0, 0.0, 0.0, 1.695418077661827E9, 0.0, 2023-09-22 16:27:57.661
246.0, 26358.652276832137, 12801.24638095455, -36614.258481771765, -63015.915514935914, -187500.02235174447, 7742.398410129358, -120923.47394507813, -187500.02235174447, -39392.42385535525, 6440.051667696437, -5806.804395533132, -69809.25885549294, 1066.8264111073509, -21507.563770719025, -6028.600755763145, 8375.109240425736, -0.052000000000000005, 0.974, 0.258, 192.0, 0.0, 0.0, 0.0, 0.0, 0.0, 0.0, 0.0, 0.0, 0.0, 1.69541807766183E9, 0.0, 2023-09-22 16:27:57.661
248.0, 26364.55313736834, 12805.627322867791, -36598.47815018632, -63011.2216486003, -187500.02235174447, 7780.3516722144695, -120851.45662444313, -187500.02235174447, -39386.79121575251, 6440.565757818909, -5834.989945291275, -69810.44349794906, 1076.3929577342221, -21516.415061523327, -6017.044903879751, 8349.963527913515, -0.052000000000000005, 0.974, 0.256, 192.0, 127.0, 48.0, 15.0, 56.0, 4.0, 0.0, 0.0, 0.0, 0.0, 1.695418077661833E9, 0.0, 2023-09-22 16:27:57.661
250.0, 26378.74649509746, 12819.261886985529, -36593.20313849487, -62995.575427481584, -187500.02235174447, 7732.027200702096, -120959.79552981802, -187500.02235174447, -39365.668817242244, 6460.034127239482, -5807.251430422239, -69785.49895113695, 1086.3841875057444, -21497.371375247407, -6004.99731361834, 8363.061650164325, -0.052000000000000005, 0.974, 0.256, 192.0, 0.0, 0.0, 0.0, 0.0, 0.0, 0.0, 0.0, 0.0, 0.0, 1.695418077661838E9, 0.0, 2023-09-22 16:27:57.661
252.0, 26358.384055898674, 12793.982064006575, -36605.89892934548, -63016.80958471413, -187500.02235174447, 7773.48968666669, -120875.86472938833, -187500.02235174447, -39382.052645927986, 6432.60853679282, -5841.047268038663, -69806.86721883623, 1076.6835304121412, -21508.25667479714, -6003.5668019732, 8326.02480960188, -0.052000000000000005, 0.974, 0.256, 192.0, 0.0, 0.0, 0.0, 0.0, 0.0, 0.0, 0.0, 0.0, 0.0, 1.695418077661843E9, 0.0, 2023-09-22 16:27:57.661
254.0, 26376.868948563213, 12813.651599127246, -36595.50536817376, -62992.20031406884, -187500.02235174447, 7732.384828613381, -120965.048189765, -187500.02235174447, -39375.525936547034, 6439.716391529607, -5798.198973917839, -69804.29676822385, 1073.822507121862, -21491.8728461114, -6008.394778775547, 8367.241426377466, -0.052000000000000005, 0.974, 0.256, 192.0, 0.0, 0.0, 0.0, 0.0, 0.0, 0.0, 0.0, 0.0, 0.0, 1.695418077661846E9, 0.0, 2023-09-22 16:27:57.661
0.0, 26351.052683717335, 12784.281406912973, -36606.43537121241, -63026.5772970411, -187500.02235174447, 7758.491666137179, -120899.0881918774, -187500.02235174447, -39377.55994529247, 6444.432609609677, -5851.262015254738, -69807.18014325859, 1080.2821612694456, -21520.371320291917, -6000.325799027181, 8307.606972170708, -0.052000000000000005, 0.974, 0.256, 192.0, 0.0, 0.0, 0.0, 0.0, 0.0, 0.0, 0.0, 0.0, 0.0, 1.695418077661849E9, 0.0, 2023-09-22 16:27:57.661
2.0, 26367.21299495852, 12804.196811222651, -36607.59766192408, -63010.819317200105, -187500.02235174447, 7738.308040894037, -120951.45832913618, -187500.02235174447, -39381.42679708324, 6431.915632714705, -5789.928828469376, -69812.8798380947, 1069.083937297337, -21482.082782039975, -6015.793206190254, 8370.236560134479, -0.046, 0.978, 0.254, 192.0, 127.0, 72.0, 15.0, 72.0, 3.5, 120.0, 0.0, 0.0, 0.0, 1.69541807772301E9, 0.0, 2023-09-22 16:27:57.723
4.0, 26346.336465637265, 12782.33680514536, -36617.611243440064, -63038.20020415786, -187500.02235174447, 7757.1058579809505, -120910.4428780607, -187500.02235174447, -39391.5968408104, 6432.228557137079, -5844.288270984683, -69822.11110855475, 1064.9041610841944, -21522.91941915982, -6019.078912625184, 8317.553498453319, -0.046, 0.978, 0.254, 192.0, 0.0, 0.0, 0.0, 0.0, 0.0, 0.0, 0.0, 0.0, 0.0, 1.695418077723021E9, 0.0, 2023-09-22 16:27:57.723
6.0, 26356.998247742446, 12794.786726806966, -36625.099077832594, -63028.49954706425, -187500.02235174447, 7753.283709679093, -120933.48752659411, -187500.02235174447, -39394.43551235623, 6432.317964114901, -5783.491526066247, -69822.62519867721, 1060.7020331265967, -21491.64932866685, -6028.936031929974, 8387.313292898332, -0.046, 0.978, 0.254, 192.0, 0.0, 0.0, 0.0, 0.0, 0.0, 0.0, 0.0, 0.0, 0.0, 1.695418077723025E9, 0.0, 2023-09-22 16:27:57.723
8.0, 26350.650352317138, 12788.349424403837, -36617.25361552878, -63034.28864887818, -187500.02235174447, 7758.15638997035, -120911.56046528346, -187500.02235174447, -39402.63860257132, 6417.252888352024, -5835.794608091665, -69826.96143710153, 1053.6165301342644, -21524.394634293873, -6037.988488434374, 8333.199719572034, -0.046, 0.978, 0.254, 192.0, 0.0, 0.0, 0.0, 0.0, 0.0, 0.0, 0.0, 0.0, 0.0, 1.695418077723028E9, 0.0, 2023-09-22 16:27:57.723
10.0, 26361.066265233312, 12797.91597103071, -36621.41103999747, -63022.53163129469, -187500.02235174447, 7763.25258770616, -120900.74222096709, -187500.02235174447, -39393.56379432247, 6421.812644220906, -5778.104755652518, -69818.49012595297, 1060.8361435933284, -21490.554093188537, -6028.757217974332, 8397.148060458669, -0.046, 0.978, 0.254, 192.0, 0.0, 0.0, 0.0, 0.0, 0.0, 0.0, 0.0, 0.0, 0.0, 1.695418077723032E9, 0.0, 2023-09-22 16:27:57.723
12.0, 26357.422930887096, 12796.15018321874, -36601.58504266561, -63019.067110904114, -187500.02235174447, 7735.558776326035, -120925.03856719001, -187500.02235174447, -39387.5958785529, 6431.4015425922325, -5835.682849369389, -69808.56595141483, 1064.144201772714, -21534.251753598663, -6032.959345931929, 8330.830434659772, -0.044, 0.978, 0.256, 192.0, 127.0, 80.0, 15.0, 72.0, 4.0, 0.0, 0.0, 0.0, 0.0, 1.695418077723036E9, 0.0, 2023-09-22 16:27:57.723
14.0, 26363.301439678842, 12803.526258888991, -36605.96598457885, -63011.8251457006, -187500.02235174447, 7751.026183489107, -120890.66158421774, -187500.02235174447, -39392.2003379107, 6432.563833303909, -5781.7257382542775, -69817.05961430784, 1063.0042628054932, -21497.103154313943, -6019.14596785855, 8386.329816142299, -0.044, 0.978, 0.256, 192.0, 0.0, 0.0, 0.0, 0.0, 0.0, 0.0, 0.0, 0.0, 0.0, 1.695418077723039E9, 0.0, 2023-09-22 16:27:57.723
16.0, 26352.997285484947, 12791.881000027777, -36604.31195548915, -63020.967009182816, -187500.02235174447, 7725.925174465797, -120922.33400611092, -187500.02235174447, -39385.830090740936, 6443.627946809286, -5834.118227257518, -69805.07907927979, 1064.077146539348, -21536.174003621818, -6025.426808050491, 8321.487405477454, -0.044, 0.978, 0.256, 192.0, 0.0, 0.0, 0.0, 0.0, 0.0, 0.0, 0.0, 0.0, 0.0, 1.695418077783222E9, 0.0, 2023-09-22 16:27:57.783
18.0, 26363.3237914233, 12799.637055353769, -36615.376068994534, -63014.64146550196, -187500.02235174447, 7762.380869672403, -120847.56742090792, -187500.02235174447, -39410.32760266395, 6412.246097594035, -5774.617883517491, -69827.58728594628, 1049.6826231101302, -21486.888407097867, -6027.997258662851, 8391.738938300483, -0.044, 0.978, 0.256, 192.0, 0.0, 0.0, 0.0, 0.0, 0.0, 0.0, 0.0, 0.0, 0.0, 1.695418077783234E9, 0.0, 2023-09-22 16:27:57.783
20.0, 26371.21395721602, 12809.471822914104, -36599.32751647562, -63007.37714855399, -187500.02235174447, 7708.222592857193, -120931.31940738195, -187500.02235174447, -39373.4919278016, 6441.7951037639505, -5831.0336865226855, -69795.73605009748, 1070.268579753468, -21522.65119822636, -6017.2237178353935, 8323.119082822692, -0.044, 0.978, 0.256, 192.0, 0.0, 0.0, 0.0, 0.0, 0.0, 0.0, 0.0, 0.0, 0.0, 1.695418077783237E9, 0.0, 2023-09-22 16:27:57.783
22.0, 26361.535651866874, 12802.185154221674, -36624.67439468794, -63028.0748639196, -187500.02235174447, 7758.648128348366, -120842.18065049418, -187500.02235174447, -39396.514224590566, 6434.888414727261, -5796.053206450129, -69816.94785558556, 1065.0829750398368, -21488.050697809544, -6012.708665455421, 8363.016946675414, -0.044, 0.978, 0.256, 192.0, 127.0, 80.0, 15.0, 72.0, 4.0, 0.0, 0.0, 0.0, 0.0, 1.695418077783241E9, 0.0, 2023-09-22 16:27:57.783
24.0, 26358.629925087684, 12795.412575651715, -36607.642365413, -63016.11668063601, -187500.02235174447, 7707.596744012445, -120934.8956864948, -187500.02235174447, -39387.014733197066, 6439.247004896046, -5830.34078244457, -69810.979939816, 1062.1325447717363, -21524.7299104607, -6030.567709275211, 8322.292068277844, -0.044, 0.978, 0.256, 192.0, 0.0, 0.0, 0.0, 0.0, 0.0, 0.0, 0.0, 0.0, 0.0, 1.695418077783244E9, 0.0, 2023-09-22 16:27:57.783
26.0, 26345.59885807024, 12784.236703424061, -36622.238054542315, -63027.873698219504, -187500.02235174447, 7764.191360973283, -120834.69281610165, -187500.02235174447, -39396.82714901294, 6419.108083141814, -5809.128976956485, -69818.71364339752, 1069.0392338084262, -21499.651253181848, -6004.147947329038, 8352.310461081323, -0.044, 0.978, 0.256, 192.0, 0.0, 0.0, 0.0, 0.0, 0.0, 0.0, 0.0, 0.0, 0.0, 1.695418077783247E9, 0.0, 2023-09-22 16:27:57.783
28.0, 26320.430793813564, 12755.022973420975, -36638.89010416152, -63049.264317663234, -187500.02235174447, 7716.917421450308, -120917.8413054754, -187500.02235174447, -39409.05355323, 6406.07701612437, -5824.194052719361, -69830.78358540339, 1048.6544428651862, -21522.718253459723, -6030.14302613056, 8329.31051603681, -0.044, 0.978, 0.256, 192.0, 0.0, 0.0, 0.0, 0.0, 0.0, 0.0, 0.0, 0.0, 0.0, 1.695418077783251E9, 0.0, 2023-09-22 16:27:57.783
30.0, 26325.39288108264, 12757.615775777791, -36628.00480461178, -63042.223518159815, -187500.02235174447, 7771.545084899079, -120796.91836797219, -187500.02235174447, -39429.930082551255, 6389.73789092754, -5811.833538035577, -69855.16933860414, 1040.630166605731, -21511.050642854054, -6029.941860430463, 8359.395964073654, -0.044, 0.978, 0.256, 192.0, 0.0, 0.0, 0.0, 0.0, 0.0, 0.0, 0.0, 0.0, 0.0, 1.695418077783254E9, 0.0, 2023-09-22 16:27:57.783
32.0, 26345.196526670043, 12779.05109871043, -36611.173941036934, -63020.65408476044, -187500.02235174447, 7710.6812847472775, -120901.70334597866, -187500.02235174447, -39403.51032060508, 6409.295667325934, -5827.815035321121, -69826.3802917457, 1054.3988411902, -21527.59093375098, -6037.206177378438, 8333.93732713906, -0.05, 0.972, 0.258, 192.0, 127.0, 56.0, 15.0, 48.0, 4.0, 8.0, 0.0, 0.0, 0.0, 1.695418077842699E9, 0.0, 2023-09-22 16:27:57.842
34.0, 26339.094500433745, 12776.547703331436, -36608.2905660022, -63027.29255286367, -187500.02235174447, 7758.066982992528, -120791.0622109249, -187500.02235174447, -39403.73383804964, 6418.124606385781, -5839.1920732488725, -69822.71460565503, 1065.30649248439, -21518.091442357476, -6010.182918331971, 8323.499062478431, -0.05, 0.972, 0.258, 192.0, 0.0, 0.0, 0.0, 0.0, 0.0, 0.0, 0.0, 0.0, 0.0, 1.695418077842706E9, 0.0, 2023-09-22 16:27:57.842
36.0, 26325.191715382545, 12765.774162503978, -36621.90277837548, -63036.92615472391, -187500.02235174447, 7719.510223807124, -120869.09215081837, -187500.02235174447, -39415.71437307768, 6412.246097594035, -5820.3495526730485, -69834.62808544972, 1040.853684050284, -21520.505430758647, -6040.916566958019, 8338.02769637438, -0.05, 0.972, 0.258, 192.0, 0.0, 0.0, 0.0, 0.0, 0.0, 0.0, 0.0, 0.0, 0.0, 1.69541807784271E9, 0.0, 2023-09-22 16:27:57.842
38.0, 26315.245189099933, 12754.173607131674, -36618.21474054036, -63052.32650665361, -187500.02235174447, 7785.4031664613685, -120736.59100968731, -187500.02235174447, -39436.12151576537, 6384.105251324803, -5833.604137135046, -69853.60471649226, 1033.790532802407, -21521.667721470323, -6033.808712221231, 8343.50387376593, -0.05, 0.972, 0.258, 192.0, 0.0, 0.0, 0.0, 0.0, 0.0, 0.0, 0.0, 0.0, 0.0, 1.695418077842713E9, 0.0, 2023-09-22 16:27:57.842
40.0, 26343.274276646887, 12782.113287700808, -36585.5364901467, -63020.20704987134, -187500.02235174447, 7727.042761688562, -120842.18065049418, -187500.02235174447, -39408.89709101881, 6407.753396958518, -5818.404950905437, -69830.06832958083, 1044.9217015411498, -21521.19833483676, -6037.563805289723, 8362.055821663836, -0.05, 0.972, 0.258, 192.0, 0.0, 0.0, 0.0, 0.0, 0.0, 0.0, 0.0, 0.0, 0.0, 1.695418077842716E9, 0.0, 2023-09-22 16:27:57.842
42.0, 26336.72521552148, 12774.111363185808, -36577.60162086506, -63030.66766627642, -187500.02235174447, 7770.1369249983945, -120745.41994874716, -187500.02235174447, -39418.821265556966, 6405.205298090613, -5855.084163556596, -69838.13730932919, 1047.3356899423231, -21538.74445423418, -6027.9078516850295, 8328.952888125526, -0.044, 0.976, 0.26, 192.0, 127.0, 80.0, 15.0, 64.0, 4.0, 16.0, 0.0, 0.0, 0.0, 1.69541807784272E9, 0.0, 2023-09-22 16:27:57.842
44.0, 26323.35887233721, 12765.036554936953, -36597.78524610821, -63042.424683859914, -187500.02235174447, 7751.026183489107, -120793.52090281498, -187500.02235174447, -39416.362573666884, 6408.356894058811, -5809.039569978663, -69834.56103021634, 1043.4464864070997, -21513.621093466412, -6033.294622098759, 8368.56017930033, -0.044, 0.976, 0.26, 192.0, 0.0, 0.0, 0.0, 0.0, 0.0, 0.0, 0.0, 0.0, 0.0, 1.695418077842723E9, 0.0, 2023-09-22 16:27:57.842
46.0, 26343.45309060253, 12783.47674411258, -36564.95053350336, -63020.967009182816, -187500.02235174447, 7784.039710049595, -120708.45016341808, -187500.02235174447, -39426.84554181642, 6403.55126900092, -5842.030744794696, -69841.24420180848, 1032.1365037127143, -21526.58510525049, -6037.161473889527, 8346.633117989673, -0.044, 0.976, 0.26, 192.0, 0.0, 0.0, 0.0, 0.0, 0.0, 0.0, 0.0, 0.0, 0.0, 1.695418077902503E9, 0.0, 2023-09-22 16:27:57.902
48.0, 26350.02450347239, 12790.58459884937, -36562.380082891, -63008.382977054476, -187500.02235174447, 7750.266224177626, -120762.76490244448, -187500.02235174447, -39402.07980895994, 6412.402559805222, -5805.7315117992775, -69815.74086138497, 1058.3998034477, -21506.110907329432, -6009.557069487223, 8375.511571825931, -0.044, 0.976, 0.26, 192.0, 0.0, 0.0, 0.0, 0.0, 0.0, 0.0, 0.0, 0.0, 0.0, 1.695418077902526E9, 0.0, 2023-09-22 16:27:57.902
50.0, 26341.039102201357, 12780.034575466463, -36557.03801596618, -63020.251753360244, -187500.02235174447, 7761.48679989419, -120701.43171565911, -187500.02235174447, -39407.26541367357, 6411.061455137904, -5855.0394600676855, -69823.74278589997, 1056.499905168999, -21533.96118092074, -6004.99731361834, 8315.854765874716, -0.044, 0.976, 0.26, 192.0, 0.0, 0.0, 0.0, 0.0, 0.0, 0.0, 0.0, 0.0, 0.0, 1.69541807790253E9, 0.0, 2023-09-22 16:27:57.902
52.0, 26340.03327370087, 12777.799401020933, -36573.19832720737, -63024.90091620695, -187500.02235174447, 7757.44113414778, -120704.13627673821, -187500.02235174447, -39412.27220443156, 6407.485176025054, -5797.997808217741, -69830.20244004756, 1051.0237277774488, -21504.568636962016, -6009.042979364751, 8371.443554335065, -0.042, 0.972, 0.262, 192.0, 127.0, 88.0, 15.0, 48.0, 4.0, 24.0, 0.0, 0.0, 0.0, 1.695418077902534E9, 0.0, 2023-09-22 16:27:57.902
54.0, 26337.462823088506, 12776.324185886882, -36561.977751490806, -63026.15261389645, -187500.02235174447, 7767.074736008017, -120650.53679353438, -187500.02235174447, -39417.12253297836, 6400.354969543811, -5844.936471573887, -69833.97988486051, 1045.5028468969879, -21538.78915772309, -6019.168319603004, 8323.230841544968, -0.042, 0.972, 0.262, 192.0, 0.0, 0.0, 0.0, 0.0, 0.0, 0.0, 0.0, 0.0, 0.0, 1.695418077902537E9, 0.0, 2023-09-22 16:27:57.902
56.0, 26347.1187766932, 12787.410651136715, -36573.5336033742, -63015.55788702463, -187500.02235174447, 7765.86774180743, -120626.66513045611, -187500.02235174447, -39422.08462024744, 6398.008036376004, -5783.759746999711, -69835.32098952783, 1042.0606782508705, -21501.1264683159, -6013.915659656008, 8388.989673732482, -0.042, 0.972, 0.262, 192.0, 0.0, 0.0, 0.0, 0.0, 0.0, 0.0, 0.0, 0.0, 0.0, 1.695418077902541E9, 0.0, 2023-09-22 16:27:57.902
58.0, 26324.319997348786, 12763.226063636073, -36576.61814410903, -63040.16715766992, -187500.02235174447, 7758.066982992528, -120600.84886561023, -187500.02235174447, -39403.84559677191, 6420.560946531409, -5848.5798059201015, -69818.55718118635, 1055.9858150465268, -21553.831881741513, -6011.546374743745, 8314.111329807201, -0.042, 0.972, 0.262, 192.0, 0.0, 0.0, 0.0, 0.0, 0.0, 0.0, 0.0, 0.0, 0.0, 1.695418077902544E9, 0.0, 2023-09-22 16:27:57.902
60.0, 26334.199468398034, 12772.166761418195, -36591.66086812745, -63032.05347443265, -187500.02235174447, 7784.956131572263, -120540.99089395892, -187500.02235174447, -39448.79495487153, 6368.347271483812, -5774.394366072937, -69867.37339107673, 1019.7759890289294, -21508.033157352587, -6033.294622098759, 8400.165545960135, -0.042, 0.972, 0.262, 192.0, 0.0, 0.0, 0.0, 0.0, 0.0, 0.0, 0.0, 0.0, 0.0, 1.695418077902547E9, 0.0, 2023-09-22 16:27:57.902
62.0, 26342.156689424122, 12780.72747954458, -36568.683274827396, -63024.96797144032, -187500.02235174447, 7753.909558523841, -120566.7624553159, -187500.02235174447, -39401.25279441509, 6409.116853370292, -5854.055983311651, -69816.83609686329, 1055.0246900349487, -21558.816320755046, -6013.960363144918, 8315.74300715244, -0.048, 0.974, 0.258, 192.0, 127.0, 64.0, 15.0, 56.0, 4.0, 8.0, 0.0, 0.0, 0.0, 1.695418077962698E9, 0.0, 2023-09-22 16:27:57.962
64.0, 26339.675645789583, 12779.319319643893, -36590.45387392687, -63030.108872665034, -187500.02235174447, 7789.672349652333, -120491.77235266834, -187500.02235174447, -39428.70073660621, 6393.403577018211, -5797.90840123992, -69842.3841407757, 1037.9256055266387, -21517.957331890742, -6015.167357345505, 8380.585417817285, -0.048, 0.974, 0.258, 192.0, 0.0, 0.0, 0.0, 0.0, 0.0, 0.0, 0.0, 0.0, 0.0, 1.695418077962708E9, 0.0, 2023-09-22 16:27:57.962
66.0, 26346.984666226468, 12786.427174380682, -36580.01560926624, -63027.47136681931, -187500.02235174447, 7750.91442476683, -120532.8995624661, -187500.02235174447, -39412.80864629849, 6404.154766101214, -5846.031707052196, -69820.74765214296, 1045.011108518971, -21564.516015591147, -6020.151796359039, 8322.046199088836, -0.048, 0.974, 0.258, 192.0, 0.0, 0.0, 0.0, 0.0, 0.0, 0.0, 0.0, 0.0, 0.0, 1.695418077962712E9, 0.0, 2023-09-22 16:27:57.962
68.0, 26364.150805968144, 12802.051043754942, -36574.11474873003, -63014.90968643543, -187500.02235174447, 7777.356538457459, -120463.25152674336, -187500.02235174447, -39410.908748019785, 6404.400635290222, -5803.652799564934, -69825.19564928957, 1050.3531754437895, -21527.41211979534, -6002.158642072516, 8370.3259671123, -0.048, 0.974, 0.258, 192.0, 0.0, 0.0, 0.0, 0.0, 0.0, 0.0, 0.0, 0.0, 0.0, 1.695418077962715E9, 0.0, 2023-09-22 16:27:57.962
70.0, 26343.229573157976, 12778.894636499243, -36592.21966173883, -63038.155500668945, -187500.02235174447, 7740.587918828478, -120515.82282970224, -187500.02235174447, -39410.99815499761, 6405.697036468629, -5845.5846721630905, -69824.12276555572, 1042.820637562351, -21555.37415210893, -6014.943839900951, 8320.54863221033, -0.048, 0.974, 0.258, 192.0, 0.0, 0.0, 0.0, 0.0, 0.0, 0.0, 0.0, 0.0, 0.0, 1.695418077962719E9, 0.0, 2023-09-22 16:27:57.962
72.0, 26350.203317428033, 12787.410651136715, -36590.31976346013, -63031.2264598878, -187500.02235174447, 7785.514925183646, -120419.08447969968, -187500.02235174447, -39424.76682958208, 6395.817565419384, -5813.353456658538, -69838.87491689622, 1039.5572828718762, -21528.149727362365, -6007.545412486245, 8368.783696744884, -0.05, 0.974, 0.258, 192.0, 127.0, 56.0, 15.0, 56.0, 4.0, 8.0, 0.0, 0.0, 0.0, 1.695418077962722E9, 0.0, 2023-09-22 16:27:57.962
74.0, 26349.68922730556, 12790.808116293922, -36583.14485348998, -63027.06903541912, -187500.02235174447, 7730.172005912305, -120500.86951266165, -187500.02235174447, -39410.59582359741, 6412.179042360669, -5845.852893096554, -69821.66407366563, 1044.9217015411498, -21551.954335207265, -6016.843738179653, 8324.862518890204, -0.05, 0.974, 0.258, 192.0, 0.0, 0.0, 0.0, 0.0, 0.0, 0.0, 0.0, 0.0, 0.0, 1.695418077962726E9, 0.0, 2023-09-22 16:27:57.962
76.0, 26331.092575918745, 12768.434020094159, -36603.373182222036, -63048.079675207104, -187500.02235174447, 7795.170878788338, -120361.95342087191, -187500.02235174447, -39431.20413198521, 6383.457050735599, -5821.91417478492, -69843.27821055391, 1041.6583468506751, -21521.712424959234, -6006.628990963578, 8359.530074540386, -0.05, 0.974, 0.258, 192.0, 0.0, 0.0, 0.0, 0.0, 0.0, 0.0, 0.0, 0.0, 0.0, 1.695418078022927E9, 0.0, 2023-09-22 16:27:58.022
78.0, 26327.29277936134, 12761.080296168364, -36601.51798743224, -63042.24586990427, -187500.02235174447, 7750.19916894426, -120434.59659035166, -187500.02235174447, -39437.5073239216, 6379.254922778002, -5826.473930653802, -69850.36371354625, 1026.1685879431473, -21540.286724601596, -6029.76304647482, 8355.03737390487, -0.05, 0.974, 0.258, 192.0, 0.0, 0.0, 0.0, 0.0, 0.0, 0.0, 0.0, 0.0, 0.0, 1.695418078022944E9, 0.0, 2023-09-22 16:27:58.022
80.0, 26343.07311094679, 12777.017089964997, -36581.78139707821, -63023.537459795174, -187500.02235174447, 7790.588771175, -120330.1021850231, -187500.02235174447, -39429.97478604016, 6382.115946068281, -5825.6916195978665, -69848.4414635231, 1044.8322945633286, -21539.191489123285, -6007.277191552782, 8369.23073163399, -0.05, 0.974, 0.258, 192.0, 0.0, 0.0, 0.0, 0.0, 0.0, 0.0, 0.0, 0.0, 0.0, 1.695418078022947E9, 0.0, 2023-09-22 16:27:58.022
82.0, 26325.772860738383, 12763.404877591716, -36599.52868217572, -63035.920326223415, -187500.02235174447, 7742.152540940349, -120413.89887498604, -187500.02235174447, -39425.07975400445, 6388.329731026856, -5823.702314341344, -69840.70775994155, 1043.0888584958147, -21546.656971771357, -6014.027418378284, 8355.819684960805, -0.05, 0.976, 0.258, 192.0, 127.0, 56.0, 15.0, 64.0, 4.0, 8.0, 0.0, 0.0, 0.0, 1.69541807802295E9, 0.0, 2023-09-22 16:27:58.022
84.0, 26333.193639897545, 12769.10457242782, -36596.66765888544, -63030.42179708741, -187500.02235174447, 7805.363274259958, -120294.16057993897, -187500.02235174447, -39446.492725192635, 6382.205353046103, -5825.177529475395, -69853.22473683652, 1033.7681810579516, -21539.97380017922, -6016.039075379262, 8369.744821756462, -0.05, 0.976, 0.258, 192.0, 0.0, 0.0, 0.0, 0.0, 0.0, 0.0, 0.0, 0.0, 0.0, 1.695418078022954E9, 0.0, 2023-09-22 16:27:58.022
86.0, 26362.183852456077, 12799.324130931394, -36575.56761211963, -63002.862096174016, -187500.02235174447, 7746.91346250933, -120410.21083715092, -187500.02235174447, -39412.96510850968, 6412.134338871759, -5812.6605525804225, -69817.3278352413, 1051.984852789027, -21530.87664018591, -6011.322857299192, 8375.153943914645, -0.05, 0.976, 0.258, 192.0, 0.0, 0.0, 0.0, 0.0, 0.0, 0.0, 0.0, 0.0, 0.0, 1.695418078022957E9, 0.0, 2023-09-22 16:27:58.022
88.0, 26360.283954177376, 12795.680796585179, -36578.09335924308, -63011.8251457006, -187500.02235174447, 7800.825870135531, -120298.36270789657, -187500.02235174447, -39420.96703302467, 6411.21791734909, -5831.078390011596, -69824.12276555572, 1048.9673672875604, -21523.45586102675, -6006.964267130407, 8356.624347761197, -0.05, 0.976, 0.258, 192.0, 0.0, 0.0, 0.0, 0.0, 0.0, 0.0, 0.0, 0.0, 0.0, 1.69541807802296E9, 0.0, 2023-09-22 16:27:58.022
90.0, 26375.59489912926, 12811.148203748251, -36575.79112956418, -63000.42575602839, -187500.02235174447, 7750.400334644358, -120389.75899097431, -187500.02235174447, -39403.51032060508, 6422.036161665459, -5797.036683206164, -69804.36382345723, 1054.756469101485, -21497.706651414235, -6011.345209043648, 8382.954702729548, -0.05, 0.976, 0.258, 192.0, 0.0, 0.0, 0.0, 0.0, 0.0, 0.0, 0.0, 0.0, 0.0, 1.695418078022963E9, 0.0, 2023-09-22 16:27:58.022
92.0, 26346.984666226468, 12778.738174288055, -36590.990315793795, -63038.04374194667, -187500.02235174447, 7777.177724501816, -120300.35201315308, -187500.02235174447, -39406.77367529555, 6409.765053959496, -5838.7226866153105, -69813.43863170609, 1058.690376125619, -21520.661892969834, -6001.152813572027, 8332.439760260553, -0.05, 0.972, 0.256, 192.0, 127.0, 56.0, 15.0, 48.0, 4.0, 0.0, 0.0, 0.0, 0.0, 1.695418078083283E9, 0.0, 2023-09-22 16:27:58.083
94.0, 26327.44924157253, 12759.42626707867, -36618.885292874016, -63053.332335154104, -187500.02235174447, 7751.428514889302, -120341.18865027293, -187500.02235174447, -39438.311986721994, 6379.903123367206, -5790.331159869571, -69846.07217861083, 1024.5145588534544, -21510.73771843168, -6033.4287325654905, 8375.220999148012, -0.05, 0.972, 0.256, 192.0, 0.0, 0.0, 0.0, 0.0, 0.0, 0.0, 0.0, 0.0, 0.0, 1.695418078083292E9, 0.0, 2023-09-22 16:27:58.083
96.0, 26324.00707292641, 12754.888862954243, -36603.4402374554, -63051.588899086586, -187500.02235174447, 7788.375948473925, -120247.19956483836, -187500.02235174447, -39450.71720489469, 6365.9556348270935, -5832.888881312476, -69860.66786774015, 1020.3571343847674, -21550.03208518411, -6040.6483460245545, 8339.748780697439, -0.05, 0.972, 0.256, 192.0, 0.0, 0.0, 0.0, 0.0, 0.0, 0.0, 0.0, 0.0, 0.0, 1.695418078083296E9, 0.0, 2023-09-22 16:27:58.083
98.0, 26344.72714003648, 12775.117191686297, -36591.14677800498, -63028.70071276435, -187500.02235174447, 7763.118477239428, -120284.37051586754, -187500.02235174447, -39425.95147203821, 6395.839917163839, -5788.163040657407, -69836.41622500613, 1041.0995532392924, -21525.713387216736, -6020.732941714877, 8387.380348131699, -0.05, 0.972, 0.256, 192.0, 0.0, 0.0, 0.0, 0.0, 0.0, 0.0, 0.0, 0.0, 0.0, 1.695418078083299E9, 0.0, 2023-09-22 16:27:58.083
100.0, 26318.754412979415, 12747.602194261814, -36598.99224030879, -63053.19822468737, -187500.02235174447, 7783.324454227025, -120204.23951199527, -187500.02235174447, -39438.93783556674, 6376.617416932276, -5837.895672070465, -69849.51434725695, 1033.0082217464712, -21553.02721894112, -6018.922450413997, 8330.852786404228, -0.05, 0.972, 0.256, 192.0, 0.0, 0.0, 0.0, 0.0, 0.0, 0.0, 0.0, 0.0, 0.0, 1.695418078083303E9, 0.0, 2023-09-22 16:27:58.083
102.0, 26350.02450347239, 12781.398031878238, -36587.72696110332, -63013.50152653475, -187500.02235174447, 7759.475142893213, -120221.60681743704, -187500.02235174447, -39437.28380647705, 6382.674739679664, -5783.491526066247, -69844.4852047545, 1029.342535655801, -21514.6269219669, -6017.938973657963, 8390.196667933067, -0.048, 0.976, 0.258, 192.0, 127.0, 64.0, 15.0, 64.0, 4.0, 8.0, 0.0, 0.0, 0.0, 1.695418078083306E9, 0.0, 2023-09-22 16:27:58.083
104.0, 26347.364645882208, 12778.33584288786, -36576.305219686656, -63016.340198080565, -187500.02235174447, 7758.983404515196, -120195.79055259116, -187500.02235174447, -39427.65020461681, 6395.728158441563, -5850.412648965436, -69829.733053414, 1042.3959544177, -21551.21672764024, -6004.259706051315, 8313.373722240178, -0.048, 0.976, 0.258, 192.0, 0.0, 0.0, 0.0, 0.0, 0.0, 0.0, 0.0, 0.0, 0.0, 1.69541807808331E9, 0.0, 2023-09-22 16:27:58.083
106.0, 26338.60276205573, 12772.300871884927, -36595.10303677357, -63026.66670401892, -187500.02235174447, 7765.241892962682, -120169.19197668934, -187500.02235174447, -39422.9563382812, 6405.831146935362, -5793.058072693118, -69822.87106786622, 1052.1860184891248, -21510.581256220492, -5991.116880311594, 8366.682632766084, -0.048, 0.976, 0.258, 192.0, 0.0, 0.0, 0.0, 0.0, 0.0, 0.0, 0.0, 0.0, 0.0, 1.695418078143437E9, 0.0, 2023-09-22 16:27:58.143
108.0, 26318.910875190602, 12754.039496664942, -36605.742467134296, -63048.6831723074, -187500.02235174447, 7766.53829414109, -120139.19593563033, -187500.02235174447, -39452.95237934022, 6380.6854344231415, -5837.113361014529, -69858.74561771698, 1016.2891168939016, -21547.528689805116, -6020.777645203787, 8324.348428767733, -0.048, 0.976, 0.258, 192.0, 0.0, 0.0, 0.0, 0.0, 0.0, 0.0, 0.0, 0.0, 0.0, 1.695418078143459E9, 0.0, 2023-09-22 16:27:58.143
110.0, 26339.563887067306, 12773.552569574425, -36600.981545565315, -63028.76776799772, -187500.02235174447, 7780.39637570338, -120088.47982746123, -187500.02235174447, -39451.03012931706, 6382.853553635306, -5787.0678051790965, -69858.92443167263, 1024.2463379199908, -21511.989416121178, -6010.04880786524, 8390.084909210791, -0.048, 0.976, 0.258, 192.0, 0.0, 0.0, 0.0, 0.0, 0.0, 0.0, 0.0, 0.0, 0.0, 1.695418078143465E9, 0.0, 2023-09-22 16:27:58.143
112.0, 26335.406462598618, 12769.059868938908, -36595.527719918224, -63040.01069545874, -187500.02235174447, 7745.862930519931, -120112.3961940284, -187500.02235174447, -39426.33145169395, 6400.131452099258, -5856.782896135199, -69825.5309254564, 1040.429000905633, -21561.69969578978, -6009.311200298214, 8307.226992514967, -0.04, 0.98, 0.264, 192.0, 127.0, 96.0, 15.0, 80.0, 4.0, 32.0, 0.0, 0.0, 0.0, 1.695418078143468E9, 0.0, 2023-09-22 16:27:58.143
114.0, 26320.363738580196, 12750.664383252191, -36634.598569226095, -63065.44698064888, -187500.02235174447, 7810.884155140419, -119984.67832621078, -187500.02235174447, -39477.80751917452, 6352.477532920544, -5779.870543464487, -69880.33740286081, 999.4135498301447, -21509.463668997727, -6027.483168540379, 8393.258856923445, -0.04, 0.98, 0.264, 192.0, 0.0, 0.0, 0.0, 0.0, 0.0, 0.0, 0.0, 0.0, 0.0, 1.695418078143471E9, 0.0, 2023-09-22 16:27:58.143
116.0, 26344.034235958366, 12773.95490097462, -36597.71819087484, -63039.31779138062, -187500.02235174447, 7749.729782310699, -120060.07076025853, -187500.02235174447, -39436.792068099036, 6383.8593821357945, -5836.532215658691, -69846.36275128875, 1025.5427390983987, -21565.678306302823, -6033.607546521133, 8333.423237016588, -0.04, 0.98, 0.264, 192.0, 0.0, 0.0, 0.0, 0.0, 0.0, 0.0, 0.0, 0.0, 0.0, 1.695418078143475E9, 0.0, 2023-09-22 16:27:58.143
118.0, 26336.1664219101, 12765.707107270611, -36609.1399322915, -63048.504358351754, -187500.02235174447, 7793.15922178736, -119962.50539571112, -187500.02235174447, -39443.18466701325, 6381.981835601549, -5806.24560192175, -69853.64941998117, 1033.3211461688454, -21534.721140232225, -6011.233450321371, 8364.648624020652, -0.04, 0.98, 0.264, 192.0, 0.0, 0.0, 0.0, 0.0, 0.0, 0.0, 0.0, 0.0, 0.0, 1.695418078143478E9, 0.0, 2023-09-22 16:27:58.143
120.0, 26349.845689516747, 12775.340709130849, -36585.871766313525, -63030.22063138731, -187500.02235174447, 7737.9727647272075, -120037.60725708095, -187500.02235174447, -39438.82607684447, 6391.749547928518, -5840.15319826045, -69845.87101291073, 1030.4824746230215, -21565.36538188045, -6024.711552227921, 8321.532108966365, -0.04, 0.98, 0.264, 192.0, 0.0, 0.0, 0.0, 0.0, 0.0, 0.0, 0.0, 0.0, 0.0, 1.695418078143481E9, 0.0, 2023-09-22 16:27:58.143
122.0, 26351.678532562084, 12776.8159242649, -36587.99518203678, -63032.96989595531, -187500.02235174447, 7783.324454227025, -119929.558924384, -187500.02235174447, -39439.921312322775, 6392.665969451185, -5817.644991593957, -69842.3841407757, 1040.9877945170158, -21539.16913737883, -5997.017740847796, 8351.170522114102, -0.054, 0.974, 0.256, 192.0, 127.0, 40.0, 15.0, 56.0, 4.0, 0.0, 0.0, 0.0, 0.0, 1.695418078202485E9, 0.0, 2023-09-22 16:27:58.202
124.0, 26355.187756441566, 12780.8168865224, -36587.45874016985, -63026.845517974565, -187500.02235174447, 7722.483005819679, -120014.45084982525, -187500.02235174447, -39426.085582504944, 6401.472556766576, -5830.832520822588, -69829.35307375826, 1035.4222101476444, -21563.42078011284, -6016.731979457376, 8319.878079876671, -0.054, 0.974, 0.256, 192.0, 0.0, 0.0, 0.0, 0.0, 0.0, 0.0, 0.0, 0.0, 0.0, 1.695418078202496E9, 0.0, 2023-09-22 16:27:58.202
126.0, 26330.15380265162, 12753.950089687121, -36613.565577693655, -63051.030105475205, -187500.02235174447, 7794.388567732402, -119863.84479568539, -187500.02235174447, -39458.450908476225, 6372.97408258606, -5801.2164594193055, -69854.11880661474, 1017.9654977280495, -21527.38976805088, -6014.452101522935, 8349.851769191238, -0.054, 0.974, 0.256, 192.0, 0.0, 0.0, 0.0, 0.0, 0.0, 0.0, 0.0, 0.0, 0.0, 1.6954180782025E9, 0.0, 2023-09-22 16:27:58.202
128.0, 26349.55511683883, 12776.212427164606, -36589.55980414865, -63024.16330863992, -187500.02235174447, 7736.7434187821655, -119961.99130558864, -187500.02235174447, -39443.698757135724, 6393.269466551479, -5799.182450673873, -69833.71166392704, 1020.7147622960523, -21549.205070639262, -6033.987526176873, 8346.655469734129, -0.054, 0.974, 0.256, 192.0, 0.0, 0.0, 0.0, 0.0, 0.0, 0.0, 0.0, 0.0, 0.0, 1.695418078202503E9, 0.0, 2023-09-22 16:27:58.202
130.0, 26331.02552068538, 12754.218310620585, -36611.57627243713, -63050.404256630456, -187500.02235174447, 7803.396320747891, -119819.87891434181, -187500.02235174447, -39461.870725377885, 6370.873018607262, -5797.126090183984, -69856.84571943828, 1015.4173988601445, -21534.899954187866, -6013.669790466999, 8358.70305999554, -0.054, 0.974, 0.256, 192.0, 0.0, 0.0, 0.0, 0.0, 0.0, 0.0, 0.0, 0.0, 0.0, 1.695418078202507E9, 0.0, 2023-09-22 16:27:58.202
132.0, 26360.306305921833, 12788.841162781855, -36589.85037682657, -63017.547192281156, -187500.02235174447, 7735.424665859302, -119931.54822964052, -187500.02235174447, -39443.13996352434, 6388.7320624270515, -5792.275761637183, -69838.53964072939, 1020.6030035737758, -21544.39944558137, -6028.444293551957, 8364.492161809465, -0.044, 0.978, 0.258, 192.0, 127.0, 80.0, 15.0, 72.0, 4.0, 8.0, 0.0, 0.0, 0.0, 1.69541807820251E9, 0.0, 2023-09-22 16:27:58.202
134.0, 26358.473462876496, 12784.52727610198, -36582.22843196731, -63028.63365753098, -187500.02235174447, 7772.595616888478, -119841.76127216355, -187500.02235174447, -39425.884416804845, 6408.960391159105, -5825.6916195978665, -69825.5309254564, 1045.2569777079796, -21544.06416941454, -5997.777700159276, 8326.896527635638, -0.044, 0.978, 0.258, 192.0, 0.0, 0.0, 0.0, 0.0, 0.0, 0.0, 0.0, 0.0, 0.0, 1.695418078202514E9, 0.0, 2023-09-22 16:27:58.202
136.0, 26341.955523724024, 12766.064735181897, -36612.380935237525, -63048.75022754076, -187500.02235174447, 7737.928061238296, -119912.1022119644, -187500.02235174447, -39437.261454732594, 6392.710672940097, -5786.888991223454, -69842.65236170916, 1023.4863786085104, -21523.858192426946, -6025.00212490584, 8352.84690294825, -0.044, 0.978, 0.258, 192.0, 0.0, 0.0, 0.0, 0.0, 0.0, 0.0, 0.0, 0.0, 0.0, 1.695418078262804E9, 0.0, 2023-09-22 16:27:58.262
138.0, 26352.505547106928, 12774.647805052735, -36595.527719918224, -63035.96502971233, -187500.02235174447, 7777.423593690824, -119823.34343473238, -187500.02235174447, -39448.14675428233, 6382.428870490655, -5811.364151402015, -69851.8389286803, 1013.5845558148094, -21530.25079134116, -6023.5716132607, 8341.98395514297, -0.044, 0.978, 0.258, 192.0, 0.0, 0.0, 0.0, 0.0, 0.0, 0.0, 0.0, 0.0, 0.0, 1.695418078262818E9, 0.0, 2023-09-22 16:27:58.262
140.0, 26358.473462876496, 12784.996662735542, -36596.86882458554, -63027.6278290305, -187500.02235174447, 7723.6229447869, -119923.76982257007, -187500.02235174447, -39416.27316668906, 6416.202356362624, -5789.370034857993, -69819.65241666466, 1035.8021898033846, -21527.322712817517, -6005.690217696455, 8352.51162678142, -0.044, 0.978, 0.258, 192.0, 0.0, 0.0, 0.0, 0.0, 0.0, 0.0, 0.0, 0.0, 0.0, 1.695418078262821E9, 0.0, 2023-09-22 16:27:58.262
142.0, 26337.39576785514, 12761.057944423908, -36611.19629278139, -63055.4333991329, -187500.02235174447, 7772.953244799763, -119829.9819028356, -187500.02235174447, -39429.013661028584, 6394.4094055187, -5825.378695175493, -69841.82534716433, 1017.1831866721138, -21540.286724601596, -6013.37921778908, 8315.11715830769, -0.042, 0.984, 0.254, 192.0, 127.0, 88.0, 15.0, 96.0, 3.5, 120.0, 0.0, 0.0, 0.0, 1.695418078262825E9, 0.0, 2023-09-22 16:27:58.262
144.0, 26359.725160565995, 12783.856723768322, -36599.372219964534, -63022.151651638946, -187500.02235174447, 7746.265261920126, -119887.35883085238, -187500.02235174447, -39426.86789356088, 6397.337484042345, -5761.922092666876, -69839.47841399652, 1009.2483173904798, -21516.88444815689, -6023.102226627139, 8379.646644550163, -0.042, 0.984, 0.254, 192.0, 0.0, 0.0, 0.0, 0.0, 0.0, 0.0, 0.0, 0.0, 0.0, 1.695418078262828E9, 0.0, 2023-09-22 16:27:58.262
146.0, 26347.297590648843, 12772.636148051757, -36593.89604257298, -63033.126358166504, -187500.02235174447, 7756.211788202738, -119850.94783913468, -187500.02235174447, -39407.13130320684, 6420.560946531409, -5827.546814387658, -69820.36767248722, 1029.7001635670858, -21562.54906207908, -5997.107147825617, 8316.54766995283, -0.042, 0.984, 0.254, 192.0, 0.0, 0.0, 0.0, 0.0, 0.0, 0.0, 0.0, 0.0, 0.0, 1.695418078262831E9, 0.0, 2023-09-22 16:27:58.262
148.0, 26356.08182621978, 12784.214351679606, -36603.75316187777, -63025.9737999408, -187500.02235174447, 7737.0339914600845, -119900.36754612537, -187500.02235174447, -39412.89805327631, 6420.650353509231, -5770.706328237811, -69822.55814344385, 1018.5019395949769, -21521.935942403787, -6009.154738087027, 8377.143249171168, -0.042, 0.984, 0.254, 192.0, 0.0, 0.0, 0.0, 0.0, 0.0, 0.0, 0.0, 0.0, 0.0, 1.695418078262834E9, 0.0, 2023-09-22 16:27:58.262
150.0, 26343.229573157976, 12771.987947462554, -36604.2896037447, -63044.52574783871, -187500.02235174447, 7743.203072929749, -119884.74367675111, -187500.02235174447, -39407.01954448457, 6422.639658765753, -5834.967593546819, -69820.21121027604, 1020.6700588071417, -21560.31388763355, -6016.508462012824, 8311.205603028013, -0.042, 0.984, 0.254, 192.0, 0.0, 0.0, 0.0, 0.0, 0.0, 0.0, 0.0, 0.0, 0.0, 1.695418078262837E9, 0.0, 2023-09-22 16:27:58.262
152.0, 26360.21689894401, 12786.851857525333, -36604.44606595589, -63031.85230873255, -187500.02235174447, 7735.670535048311, -119912.68335732025, -187500.02235174447, -39396.20130016819, 6425.075998911381, -5779.222342875283, -69816.232599763, 1023.016991974949, -21524.908724416342, -6013.513328255812, 8369.811876989826, -0.038, 0.98, 0.254, 192.0, 127.0, 104.0, 15.0, 80.0, 3.5, 120.0, 0.0, 0.0, 0.0, 1.695418078322963E9, 0.0, 2023-09-22 16:27:58.322
154.0, 26338.58041031127, 12765.796514248434, -36612.023307326235, -63053.84642527657, -187500.02235174447, 7740.811436273031, -119904.3461566384, -187500.02235174447, -39400.157558936786, 6416.403522062722, -5828.552642888146, -69822.28992251038, 1013.5175005814434, -21563.085503946008, -6017.581345746678, 8309.149242538124, -0.038, 0.98, 0.254, 192.0, 0.0, 0.0, 0.0, 0.0, 0.0, 0.0, 0.0, 0.0, 0.0, 1.695418078322974E9, 0.0, 2023-09-22 16:27:58.322
156.0, 26349.197488927544, 12778.604063821324, -36614.01261258276, -63039.47425359181, -187500.02235174447, 7759.385735915392, -119877.5464150365, -187500.02235174447, -39413.94858526571, 6416.627039507275, -5761.676223477867, -69829.64364643618, 1008.6895237790972, -21522.785308693088, -6019.637706236566, 8384.2287521635, -0.038, 0.98, 0.254, 192.0, 0.0, 0.0, 0.0, 0.0, 0.0, 0.0, 0.0, 0.0, 0.0, 1.695418078322978E9, 0.0, 2023-09-22 16:27:58.322
158.0, 26343.028407457878, 12772.993775963043, -36604.17784502242, -63047.49852985127, -187500.02235174447, 7745.907634008841, -119887.40353434128, -187500.02235174447, -39405.43257062824, 6430.08278966937, -5820.282497439683, -69816.38906197419, 1012.0199337029379, -21570.88626276091, -6021.403494048535, 8320.258059532413, -0.038, 0.98, 0.254, 192.0, 0.0, 0.0, 0.0, 0.0, 0.0, 0.0, 0.0, 0.0, 0.0, 1.695418078322981E9, 0.0, 2023-09-22 16:27:58.322
160.0, 26361.2227274445, 12792.082165727874, -36601.36152522106, -63031.517032565724, -187500.02235174447, 7773.15441049986, -119831.65828366975, -187500.02235174447, -39411.1546172088, 6424.114873899803, -5760.648043232924, -69829.71070166954, 1009.8294627463177, -21527.479175028704, -6016.508462012824, 8392.990635989981, -0.038, 0.98, 0.254, 192.0, 0.0, 0.0, 0.0, 0.0, 0.0, 0.0, 0.0, 0.0, 0.0, 1.695418078322985E9, 0.0, 2023-09-22 16:27:58.322
162.0, 26352.93023025158, 12783.566151090403, -36600.422751953934, -63043.698733293866, -187500.02235174447, 7739.3809246278915, -119887.15766515228, -187500.02235174447, -39384.44428258471, 6438.7999700069395, -5818.404950905437, -69802.64273913417, 1032.628242090731, -21569.9921929827, -6014.250935822837, 8318.089940320247, -0.046, 0.974, 0.262, 192.0, 127.0, 72.0, 15.0, 56.0, 4.0, 24.0, 0.0, 0.0, 0.0, 1.695418078322988E9, 0.0, 2023-09-22 16:27:58.322
164.0, 26355.70184656404, 12784.594331335347, -36605.56365317865, -63037.127320424006, -187500.02235174447, 7784.620855405433, -119810.06649852592, -187500.02235174447, -39410.46171313068, 6414.056588894915, -5763.129086867462, -69831.63295169269, 1016.0655994493485, -21528.373244806917, -6013.558031744723, 8385.882781253193, -0.046, 0.974, 0.262, 192.0, 0.0, 0.0, 0.0, 0.0, 0.0, 0.0, 0.0, 0.0, 0.0, 1.695418078322991E9, 0.0, 2023-09-22 16:27:58.322
166.0, 26343.49779409144, 12774.603101563824, -36602.54616767719, -63046.09036995058, -187500.02235174447, 7734.0388577030735, -119885.61539478487, -187500.02235174447, -39394.279050145036, 6424.450150066633, -5813.1299392139845, -69812.49985843895, 1022.7487710414853, -21574.03785872911, -6024.510386527823, 8328.282335791866, -0.046, 0.974, 0.262, 192.0, 0.0, 0.0, 0.0, 0.0, 0.0, 0.0, 0.0, 0.0, 0.0, 1.695418078383326E9, 0.0, 2023-09-22 16:27:58.383
168.0, 26343.207221413522, 12776.123020186786, -36605.63070841202, -63045.62098331702, -187500.02235174447, 7786.654864150866, -119792.76624831752, -187500.02235174447, -39419.55887312399, 6412.670780738686, -5776.562485285102, -69835.20923080554, 1014.6350878042088, -21543.438320569792, -6024.577441761189, 8374.75161251445, -0.046, 0.974, 0.262, 192.0, 0.0, 0.0, 0.0, 0.0, 0.0, 0.0, 0.0, 0.0, 0.0, 1.695418078383343E9, 0.0, 2023-09-22 16:27:58.383
170.0, 26340.055625445322, 12772.524389329481, -36605.384839223014, -63048.14673044047, -187500.02235174447, 7745.348840397459, -119882.82142672795, -187500.02235174447, -39407.93596600723, 6425.523033800488, -5806.849099022043, -69825.26270452293, 1014.7691982709406, -21579.46933263175, -6032.959345931929, 8338.02769637438, -0.046, 0.974, 0.262, 192.0, 0.0, 0.0, 0.0, 0.0, 0.0, 0.0, 0.0, 0.0, 0.0, 1.695418078383347E9, 0.0, 2023-09-22 16:27:58.383
172.0, 26344.92830573658, 12774.223121908084, -36607.86588285755, -63045.7327420393, -187500.02235174447, 7806.078530082528, -119774.34841088635, -187500.02235174447, -39424.74447783762, 6398.656236965208, -5784.206781888817, -69843.00998962045, 1008.242488889991, -21551.08261717351, -6025.315049328215, 8377.65733929364, -0.048, 0.974, 0.262, 192.0, 127.0, 64.0, 15.0, 56.0, 4.0, 24.0, 0.0, 0.0, 0.0, 1.69541807838335E9, 0.0, 2023-09-22 16:27:58.383
174.0, 26351.186794184065, 12779.967520233098, -36601.048600798684, -63038.06609369112, -187500.02235174447, 7749.148636954861, -119873.88072894583, -187500.02235174447, -39405.16434969477, 6418.325772085878, -5809.285439167672, -69820.70294865406, 1013.2492796479797, -21584.721992578747, -6034.591023277167, 8350.187045358069, -0.048, 0.974, 0.262, 192.0, 0.0, 0.0, 0.0, 0.0, 0.0, 0.0, 0.0, 0.0, 0.0, 1.695418078383353E9, 0.0, 2023-09-22 16:27:58.383
176.0, 26357.020599486903, 12784.683738313168, -36592.55493790566, -63036.14384366797, -187500.02235174447, 7795.617913677444, -119760.40092234623, -187500.02235174447, -39411.22167244216, 6416.627039507275, -5807.407892633426, -69827.00614059046, 1018.7478087839853, -21565.946527236287, -6016.486110268368, 8360.781772229884, -0.048, 0.974, 0.262, 192.0, 0.0, 0.0, 0.0, 0.0, 0.0, 0.0, 0.0, 0.0, 0.0, 1.695418078383357E9, 0.0, 2023-09-22 16:27:58.383
178.0, 26348.21401217151, 12779.364023132805, -36598.880481586515, -63039.58601231409, -187500.02235174447, 7731.446055346258, -119851.4395775127, -187500.02235174447, -39397.22948041314, 6434.307269371423, -5816.885032282476, -69814.24329450646, 1020.3347826403121, -21566.907652247864, -6023.482206282879, 8341.961603398515, -0.048, 0.974, 0.262, 192.0, 0.0, 0.0, 0.0, 0.0, 0.0, 0.0, 0.0, 0.0, 0.0, 1.69541807838336E9, 0.0, 2023-09-22 16:27:58.383
180.0, 26323.425927570574, 12754.441828065137, -36620.852246386086, -63067.12336148303, -187500.02235174447, 7803.418672492347, -119699.29125300543, -187500.02235174447, -39430.57828314046, 6405.652332979719, -5816.10272122654, -69845.62514372173, 1000.3746748417229, -21562.437303356804, -6028.533700529779, 8349.538844768864, -0.048, 0.974, 0.262, 192.0, 0.0, 0.0, 0.0, 0.0, 0.0, 0.0, 0.0, 0.0, 0.0, 1.695418078383363E9, 0.0, 2023-09-22 16:27:58.383
182.0, 26335.093538176247, 12765.57299680388, -36616.96304285086, -63052.348858398065, -187500.02235174447, 7769.3769656869135, -119769.81100676191, -187500.02235174447, -39423.71629759268, 6400.444376521633, -5789.571200558091, -69839.59017271879, 993.1550613826587, -21565.343030135995, -6046.996241449862, 8378.283188138388, -0.05, 0.98, 0.262, 192.0, 127.0, 56.0, 15.0, 80.0, 4.0, 24.0, 0.0, 0.0, 0.0, 1.695418078443521E9, 0.0, 2023-09-22 16:27:58.443
184.0, 26339.765052767405, 12769.19397940564, -36601.31682173214, -63047.69969555136, -187500.02235174447, 7818.6849139553215, -119658.00758099648, -187500.02235174447, -39424.09627724842, 6402.657199222708, -5816.549756115646, -69842.02651286442, 1003.9286022101168, -21577.50237911968, -6024.7339039723765, 8363.329871097789, -0.05, 0.98, 0.262, 192.0, 0.0, 0.0, 0.0, 0.0, 0.0, 0.0, 0.0, 0.0, 0.0, 1.695418078443532E9, 0.0, 2023-09-22 16:27:58.443
186.0, 26360.41806464411, 12795.032595995975, -36589.62685938202, -63022.3751690835, -187500.02235174447, 7756.658823091844, -119758.72454151209, -187500.02235174447, -39401.23044267064, 6422.550251787931, -5796.053206450129, -69815.91967534061, 1017.6972767945858, -21570.93096624982, -6019.928278914485, 8377.053842193347, -0.05, 0.98, 0.262, 192.0, 0.0, 0.0, 0.0, 0.0, 0.0, 0.0, 0.0, 0.0, 0.0, 1.695418078443535E9, 0.0, 2023-09-22 16:27:58.443
188.0, 26333.0148259419, 12762.980194447066, -36602.56851942164, -63050.65012581946, -187500.02235174447, 7796.511983455656, -119671.08335150282, -187500.02235174447, -39412.29455617601, 6428.562871046409, -5836.398105191959, -69825.24035277848, 1017.8984424946836, -21583.6938123338, -6006.673694452488, 8334.719638194996, -0.05, 0.98, 0.262, 192.0, 0.0, 0.0, 0.0, 0.0, 0.0, 0.0, 0.0, 0.0, 0.0, 1.695418078443539E9, 0.0, 2023-09-22 16:27:58.443
190.0, 26350.49389010595, 12777.95586323212, -36597.137045519004, -63034.176890155904, -187500.02235174447, 7762.090296994484, -119751.03554141946, -187500.02235174447, -39415.535559122036, 6408.111024869803, -5787.38072960147, -69834.53867847189, 1007.1025499227703, -21551.820224740535, -6022.297563826748, 8383.111164940736, -0.05, 0.98, 0.262, 192.0, 0.0, 0.0, 0.0, 0.0, 0.0, 0.0, 0.0, 0.0, 0.0, 1.695418078443542E9, 0.0, 2023-09-22 16:27:58.443
192.0, 26342.044930701846, 12768.724592772078, -36587.078760514116, -63041.463558848336, -187500.02235174447, 7794.254457265671, -119694.37386922525, -187500.02235174447, -39411.3557829089, 6406.121719613281, -5832.419494678914, -69831.85646913726, 1016.8255587608289, -21572.383829639417, -6007.210136319415, 8334.339658539255, -0.05, 0.986, 0.262, 192.0, 127.0, 56.0, 15.0, 104.0, 4.0, 24.0, 0.0, 0.0, 0.0, 1.695418078443545E9, 0.0, 2023-09-22 16:27:58.443
194.0, 26351.007980228424, 12783.29793015694, -36589.89508031548, -63026.46553831882, -187500.02235174447, 7777.222427990727, -119748.71095999611, -187500.02235174447, -39410.640527086325, 6414.45892029511, -5776.875409707476, -69827.52023071292, 1016.4902825939993, -21541.18079437981, -6007.791281675253, 8388.274417909912, -0.05, 0.986, 0.262, 192.0, 0.0, 0.0, 0.0, 0.0, 0.0, 0.0, 0.0, 0.0, 0.0, 1.695418078443548E9, 0.0, 2023-09-22 16:27:58.443
196.0, 26326.44341307204, 12759.180397889662, -36597.561728663655, -63052.773541542716, -187500.02235174447, 7792.354558986969, -119702.17462804016, -187500.02235174447, -39419.53652137954, 6413.4977952835325, -5832.687715612378, -69834.09164358278, 1012.2210994030356, -21574.998983740687, -6010.272325309793, 8329.84695790374, -0.05, 0.986, 0.262, 192.0, 0.0, 0.0, 0.0, 0.0, 0.0, 0.0, 0.0, 0.0, 0.0, 1.695418078502967E9, 0.0, 2023-09-22 16:27:58.502
198.0, 26334.2665236314, 12767.808171249411, -36609.11758054705, -63043.0281809602, -187500.02235174447, 7791.9745793312295, -119717.66438694768, -187500.02235174447, -39444.14579202483, 6382.585332701842, -5772.829743961066, -69851.66011472465, 991.501032292966, -21537.045721655577, -6028.95838367443, 8398.980903504003, -0.05, 0.986, 0.262, 192.0, 0.0, 0.0, 0.0, 0.0, 0.0, 0.0, 0.0, 0.0, 0.0, 1.695418078502984E9, 0.0, 2023-09-22 16:27:58.502
200.0, 26322.30834034781, 12754.888862954243, -36605.96598457885, -63060.57430035762, -187500.02235174447, 7797.808384634064, -119686.52840692144, -187500.02235174447, -39436.97088205467, 6389.447318249621, -5837.247471481261, -69845.49103325499, 993.8479654607733, -21574.373134895937, -6030.612412764122, 8338.966469641504, -0.05, 0.986, 0.262, 192.0, 0.0, 0.0, 0.0, 0.0, 0.0, 0.0, 0.0, 0.0, 0.0, 1.695418078502987E9, 0.0, 2023-09-22 16:27:58.502
202.0, 26339.899163234135, 12774.178418419173, -36604.4907694448, -63043.92225073842, -187500.02235174447, 7804.268038781648, -119669.6975433466, -187500.02235174447, -39443.18466701325, 6387.390957759733, -5772.919150938887, -69854.65524848166, 990.115224136737, -21529.7814047076, -6034.14398838806, 8412.369598432731, -0.052000000000000005, 0.984, 0.26, 192.0, 127.0, 48.0, 15.0, 96.0, 4.0, 16.0, 0.0, 0.0, 0.0, 1.695418078502991E9, 0.0, 2023-09-22 16:27:58.502
204.0, 26328.25390437292, 12762.890787469243, -36600.86978684304, -63057.892091022986, -187500.02235174447, 7781.066928037039, -119681.70043011909, -187500.02235174447, -39420.43059115775, 6399.5279549989655, -5843.796532606666, -69832.482317982, 1008.9353929681055, -21583.31383267806, -6029.539529030268, 8334.02673411688, -0.052000000000000005, 0.984, 0.26, 192.0, 0.0, 0.0, 0.0, 0.0, 0.0, 0.0, 0.0, 0.0, 0.0, 1.695418078502994E9, 0.0, 2023-09-22 16:27:58.502
206.0, 26339.87681148968, 12777.62058706529, -36606.211853767854, -63042.33527688209, -187500.02235174447, 7801.027035835628, -119640.95319997707, -187500.02235174447, -39443.497591435626, 6392.285989795446, -5777.300092852127, -69851.01191413545, 989.0870438917929, -21539.347951334472, -6035.485093055379, 8405.731130329506, -0.052000000000000005, 0.984, 0.26, 192.0, 0.0, 0.0, 0.0, 0.0, 0.0, 0.0, 0.0, 0.0, 0.0, 1.695418078502997E9, 0.0, 2023-09-22 16:27:58.502
208.0, 26342.894296991148, 12779.542837088447, -36587.279926214214, -63035.04860818966, -187500.02235174447, 7764.146657484372, -119685.32141272086, -187500.02235174447, -39419.11183823489, 6418.4151790637, -5836.845140081065, -69827.25200977946, 1006.8566807337619, -21585.50430363468, -6022.409322549024, 8334.116141094702, -0.052000000000000005, 0.984, 0.26, 192.0, 0.0, 0.0, 0.0, 0.0, 0.0, 0.0, 0.0, 0.0, 0.0, 1.695418078503E9, 0.0, 2023-09-22 16:27:58.503
210.0, 26349.800986027836, 12783.342633645849, -36591.95144080537, -63027.85134647505, -187500.02235174447, 7795.483803210713, -119627.60920853725, -187500.02235174447, -39425.303271449004, 6412.5590220164095, -5785.994921445242, -69831.02945459241, 1008.8459859902842, -21537.69392224478, -6004.706740940421, 8384.94400798607, -0.052000000000000005, 0.984, 0.26, 192.0, 0.0, 0.0, 0.0, 0.0, 0.0, 0.0, 0.0, 0.0, 0.0, 1.695418078503003E9, 0.0, 2023-09-22 16:27:58.503
212.0, 26334.557096309316, 12767.919929971687, -36603.48494094431, -63047.8338060181, -187500.02235174447, 7763.587863872989, -119686.59546215482, -187500.02235174447, -39419.11183823489, 6412.067283638392, -5829.491416155269, -69825.48622196748, 1003.9062504656614, -21568.226405170728, -6018.140139358061, 8327.79059741385, -0.046, 0.972, 0.252, 192.0, 127.0, 72.0, 15.0, 48.0, 3.5, 112.0, 0.0, 0.0, 0.0, 1.695418078562674E9, 0.0, 2023-09-22 16:27:58.562
214.0, 26337.14989866613, 12773.261996896506, -36607.70942064636, -63047.34206764008, -187500.02235174447, 7809.207774306271, -119607.20206584956, -187500.02235174447, -39435.83094308746, 6400.064396865892, -5782.597456288035, -69843.72524544303, 993.8703172052285, -21531.8824686864, -6025.113883628116, 8385.726319042005, -0.046, 0.972, 0.252, 192.0, 0.0, 0.0, 0.0, 0.0, 0.0, 0.0, 0.0, 0.0, 0.0, 1.695418078562684E9, 0.0, 2023-09-22 16:27:58.562
216.0, 26343.676608047084, 12782.739136545557, -36589.91743205994, -63029.59478254257, -187500.02235174447, 7761.017413260629, -119696.02789831495, -187500.02235174447, -39422.01756501407, 6415.21887960659, -5815.834500293076, -69823.36280624423, 997.692465507086, -21568.472274359738, -6031.618241264611, 8343.369763299199, -0.046, 0.972, 0.252, 192.0, 0.0, 0.0, 0.0, 0.0, 0.0, 0.0, 0.0, 0.0, 0.0, 1.695418078562687E9, 0.0, 2023-09-22 16:27:58.562
218.0, 26347.83403251577, 12786.114249958307, -36591.97379254983, -63029.125395909, -187500.02235174447, 7810.660637695866, -119604.76572570392, -187500.02235174447, -39423.89511154832, 6418.392827319244, -5784.899685966931, -69826.1344225567, 1007.6389917896977, -21538.476233300717, -6010.272325309793, 8379.937217228082, -0.046, 0.972, 0.252, 192.0, 0.0, 0.0, 0.0, 0.0, 0.0, 0.0, 0.0, 0.0, 0.0, 1.695418078562691E9, 0.0, 2023-09-22 16:27:58.562
220.0, 26352.84082327376, 12792.082165727874, -36583.30131570117, -63027.06903541912, -187500.02235174447, 7747.315793909525, -119712.14350606722, -187500.02235174447, -39404.71731480567, 6430.261603625012, -5807.139671699962, -69806.7778118584, 1014.3668668707451, -21567.533501092614, -6024.24216559436, 8341.156940598124, -0.046, 0.972, 0.252, 192.0, 0.0, 0.0, 0.0, 0.0, 0.0, 0.0, 0.0, 0.0, 0.0, 1.695418078562694E9, 0.0, 2023-09-22 16:27:58.562
222.0, 26342.335503379763, 12777.508828343014, -36601.83091185462, -63046.5821083286, -187500.02235174447, 7815.063931353561, -119584.4256382496, -187500.02235174447, -39435.741536109635, 6400.60083873282, -5782.262180121205, -69838.56199247384, 994.5632212833431, -21538.230364111707, -6021.76112195982, 8376.27153113741, -0.048, 0.974, 0.252, 192.0, 127.0, 64.0, 15.0, 56.0, 3.5, 112.0, 0.0, 0.0, 0.0, 1.695418078562698E9, 0.0, 2023-09-22 16:27:58.562
224.0, 26364.039047245868, 12800.799346065443, -36577.75808307625, -63019.625904515495, -187500.02235174447, 7739.112703694428, -119714.40103225721, -187500.02235174447, -39395.93307923473, 6430.4627693251105, -5804.524517598691, -69798.77588734339, 1015.5515093268764, -21570.193358682794, -6025.76208421732, 8342.74391445445, -0.048, 0.974, 0.252, 192.0, 0.0, 0.0, 0.0, 0.0, 0.0, 0.0, 0.0, 0.0, 0.0, 1.695418078562702E9, 0.0, 2023-09-22 16:27:58.562
226.0, 26337.686340533062, 12775.586578319857, -36603.775513622226, -63053.06411422064, -187500.02235174447, 7812.269963296648, -119576.71428641252, -187500.02235174447, -39432.656995374804, 6403.685379467653, -5792.879258737476, -69835.11982382773, 999.1676806411364, -21552.26725962964, -6023.392799305057, 8352.019888403403, -0.048, 0.974, 0.252, 192.0, 0.0, 0.0, 0.0, 0.0, 0.0, 0.0, 0.0, 0.0, 0.0, 1.695418078623084E9, 0.0, 2023-09-22 16:27:58.623
228.0, 26356.12652970869, 12796.932494274675, -36591.59381289408, -63032.52286106621, -187500.02235174447, 7756.323546925015, -119682.95212780859, -187500.02235174447, -39414.64148934383, 6420.292725597946, -5782.798621988132, -69821.55231494336, 1000.5087853084548, -21556.424684098325, -6049.410229851035, 8356.46788555001, -0.048, 0.974, 0.252, 192.0, 0.0, 0.0, 0.0, 0.0, 0.0, 0.0, 0.0, 0.0, 0.0, 1.695418078623095E9, 0.0, 2023-09-22 16:27:58.623
230.0, 26345.464747603506, 12783.677909812679, -36596.10886527406, -63044.6822100499, -187500.02235174447, 7805.6538469378775, -119567.66182990812, -187500.02235174447, -39422.174027225265, 6402.634847478253, -5806.402064132937, -69831.99057960398, 1007.5272330674212, -21560.35859112246, -6029.517177285812, 8338.318269052299, -0.048, 0.974, 0.252, 192.0, 0.0, 0.0, 0.0, 0.0, 0.0, 0.0, 0.0, 0.0, 0.0, 1.695418078623098E9, 0.0, 2023-09-22 16:27:58.623
232.0, 26341.955523724024, 12781.487438856058, -36606.68124040142, -63045.710390294844, -187500.02235174447, 7762.135000483394, -119658.45461588558, -187500.02235174447, -39412.56277710948, 6410.547365015432, -5789.101813924529, -69826.67086442362, 1003.7497882544743, -21556.9387742208, -6036.759142489332, 8351.818722703305, -0.036000000000000004, 0.978, 0.254, 192.0, 127.0, 112.0, 15.0, 72.0, 3.5, 120.0, 0.0, 0.0, 0.0, 1.695418078623101E9, 0.0, 2023-09-22 16:27:58.623
234.0, 26341.575544068284, 12778.894636499243, -36599.662792642455, -63043.6316780605, -187500.02235174447, 7811.018265607151, -119566.16426302961, -187500.02235174447, -39438.535504166546, 6400.757300944007, -5811.5429653576575, -69848.39676003419, 990.7857764703962, -21554.30126837507, -6032.646421509555, 8343.615632488207, -0.036000000000000004, 0.978, 0.254, 192.0, 0.0, 0.0, 0.0, 0.0, 0.0, 0.0, 0.0, 0.0, 0.0, 1.695418078623105E9, 0.0, 2023-09-22 16:27:58.623
236.0, 26359.725160565995, 12796.619569852302, -36587.48109191431, -63021.25758186074, -187500.02235174447, 7754.781276557598, -119699.1571425387, -187500.02235174447, -39416.228463200154, 6414.011885406004, -5787.827764490577, -69822.55814344385, 1003.9062504656614, -21545.27116361513, -6025.6726772394995, 8366.079135665792, -0.036000000000000004, 0.978, 0.254, 192.0, 0.0, 0.0, 0.0, 0.0, 0.0, 0.0, 0.0, 0.0, 0.0, 1.695418078623108E9, 0.0, 2023-09-22 16:27:58.623
238.0, 26339.228610900478, 12772.90436898522, -36588.41986518143, -63049.487835107786, -187500.02235174447, 7785.626683905922, -119650.47504311503, -187500.02235174447, -39416.80960855599, 6409.0945016258365, -5839.750866860255, -69828.01196909093, 1007.6389917896977, -21572.540291850604, -6008.6182962201, 8309.797443127329, -0.036000000000000004, 0.978, 0.254, 192.0, 0.0, 0.0, 0.0, 0.0, 0.0, 0.0, 0.0, 0.0, 0.0, 1.695418078623111E9, 0.0, 2023-09-22 16:27:58.623
240.0, 26341.195564412545, 12774.29017714145, -36604.35665897807, -63045.62098331702, -187500.02235174447, 7767.4994191526675, -119724.03463411744, -187500.02235174447, -39429.9077308068, 6388.530896726954, -5784.229133633272, -69845.982771633, 991.0316456594045, -21537.157480377853, -6033.987526176873, 8362.189932130568, -0.036000000000000004, 0.978, 0.254, 192.0, 0.0, 0.0, 0.0, 0.0, 0.0, 0.0, 0.0, 0.0, 0.0, 1.695418078623114E9, 0.0, 2023-09-22 16:27:58.623
242.0, 26333.05952943081, 12767.67406078268, -36603.90962408896, -63055.52280611072, -187500.02235174447, 7796.579038689022, -119680.58284289633, -187500.02235174447, -39431.20413198521, 6401.293742810934, -5834.699372613356, -69842.1382715867, 995.3455323392789, -21563.912518490855, -6036.28975585577, 8314.357198996211, -0.042, 0.974, 0.252, 192.0, 127.0, 88.0, 15.0, 56.0, 3.5, 112.0, 0.0, 0.0, 0.0, 1.695418078683232E9, 0.0, 2023-09-22 16:27:58.683
244.0, 26345.0177127144, 12781.420383622693, -36609.72107764734, -63041.66472454843, -187500.02235174447, 7771.388622687891, -119742.1171953818, -187500.02235174447, -39432.05349827451, 6409.519184770487, -5785.637293533957, -69835.70096918357, 991.8810119487063, -21532.240096597685, -6036.490921555868, 8370.303615367844, -0.042, 0.974, 0.252, 192.0, 0.0, 0.0, 0.0, 0.0, 0.0, 0.0, 0.0, 0.0, 0.0, 1.695418078683245E9, 0.0, 2023-09-22 16:27:58.683
246.0, 26319.983758924456, 12755.268842609983, -36619.95817660787, -63068.59857661708, -187500.02235174447, 7786.408994961857, -119711.65176768921, -187500.02235174447, -39447.252684504114, 6396.7116351975965, -5847.3504599750595, -69851.68246646911, 978.9393519090834, -21568.852254015477, -6042.6376512810775, 8312.50200420642, -0.042, 0.974, 0.252, 192.0, 0.0, 0.0, 0.0, 0.0, 0.0, 0.0, 0.0, 0.0, 0.0, 1.695418078683249E9, 0.0, 2023-09-22 16:27:58.683
248.0, 26336.054663187824, 12771.540912573448, -36617.76770565125, -63051.74536129778, -187500.02235174447, 7780.329320470014, -119736.0151691455, -187500.02235174447, -39454.31583575199, 6386.362777514789, -5784.787927244655, -69862.56776601884, 975.4971832629661, -21534.721140232225, -6046.705668771943, 8386.083946953291, -0.042, 0.974, 0.252, 192.0, 0.0, 0.0, 0.0, 0.0, 0.0, 0.0, 0.0, 0.0, 0.0, 1.695418078683253E9, 0.0, 2023-09-22 16:27:58.683
250.0, 26331.271389874386, 12764.455409581115, -36607.17297877943, -63056.08159972211, -187500.02235174447, 7761.9785382722075, -119766.27943113798, -187500.02235174447, -39437.060289032495, 6393.7165014405855, -5852.334898988593, -69846.85448966676, 987.9247531801169, -21587.113629235464, -6041.676526269499, 8313.798405384829, -0.042, 0.974, 0.252, 192.0, 0.0, 0.0, 0.0, 0.0, 0.0, 0.0, 0.0, 0.0, 0.0, 1.695418078683256E9, 0.0, 2023-09-22 16:27:58.683
252.0, 26325.68345376056, 12762.421400835681, -36625.47905748833, -63058.04855323417, -187500.02235174447, 7779.703471625266, -119769.38632361726, -187500.02235174447, -39446.984463570654, 6387.770937415474, -5799.808299518621, -69854.90111767067, 983.3202938223236, -21550.769692751135, -6041.117732658116, 8372.382327602189, -0.034, 0.976, 0.256, 192.0, 127.0, 120.0, 15.0, 64.0, 4.0, 0.0, 0.0, 0.0, 0.0, 1.695418078683259E9, 0.0, 2023-09-22 16:27:58.683
