%OpenBCI Raw EXG Data
%Number of channels = 16
%Sample Rate = 125 Hz
%Board = OpenBCI_GUI$BoardCytonSerialDaisy
Sample Index, EXG Channel 0, EXG Channel 1, EXG Channel 2, EXG Channel 3, EXG Channel 4, EXG Channel 5, EXG Channel 6, EXG Channel 7, EXG Channel 8, EXG Channel 9, EXG Channel 10, EXG Channel 11, EXG Channel 12, EXG Channel 13, EXG Channel 14, EXG Channel 15, Accel Channel 0, Accel Channel 1, Accel Channel 2, Other, Other, Other, Other, Other, Other, Other, Analog Channel 0, Analog Channel 1, Analog Channel 2, Timestamp, Other, Timestamp (Formatted)
0.0, 25785.62060423143, 11872.374936625354, -35201.87410138537, -62431.149176496176, -187500.02235174447, 9955.82460830505, -138562.80011687282, -187500.02235174447, 0.0, 0.0, 0.0, 0.0, 0.0, 0.0, 0.0, 0.0, 0.0, 0.0, 0.0, 192.0, 0.0, 0.0, 0.0, 0.0, 0.0, 0.0, 0.0, 0.0, 0.0, 1.695417998122126E9, 0.0, 2023-09-22 16:26:38.122
224.0, 25771.449598246767, 11860.416753341766, -35213.988746880146, -62435.50776666496, -187500.02235174447, 9928.913107980861, -138658.6220453527, -187500.02235174447, -35035.46536391561, 7070.013233424811, -8289.792631839828, -70041.44877689467, 8026.913765300962, -17544.308906115166, -4968.41281275902, 2863.9066653140385, 0.0, 0.0, 0.0, 192.0, 0.0, 0.0, 0.0, 0.0, 0.0, 0.0, 0.0, 0.0, 0.0, 1.695417998122136E9, 0.0, 2023-09-22 16:26:38.122
226.0, 25762.06186557554, 11847.408038068777, -35211.10537184541, -62443.867319091245, -187500.02235174447, 9968.16277124438, -138573.17132630007, -187500.02235174447, -35043.91432331972, 7061.653680998526, -8310.780919883362, -70051.86468981084, 8027.450207167889, -17553.56252831966, -4957.840437631659, 2851.3002814412453, -0.023, 0.493, 0.112, 192.0, 127.0, 72.0, 15.0, 104.0, 3.5, 0.0, 0.0, 0.0, 0.0, 1.69541799812214E9, 0.0, 2023-09-22 16:26:38.122
228.0, 25772.90246163636, 11856.281680617534, -35212.60293872392, -62431.81972882983, -187500.02235174447, 9943.978183743739, -138656.16335346262, -187500.02235174447, -35046.328311720885, 7053.741163461347, -8275.509867132887, -70053.36225668935, 8018.0848262411155, -17520.549001759173, -4972.100850594145, 2887.5995144366643, -0.023, 0.493, 0.112, 192.0, 0.0, 0.0, 0.0, 0.0, 0.0, 0.0, 0.0, 0.0, 0.0, 1.695417998122143E9, 0.0, 2023-09-22 16:26:38.122
230.0, 25769.23677554569, 11851.297241604, -35203.66224094179, -62447.018915059445, -187500.02235174447, 9960.764343829673, -138573.73011991146, -187500.02235174447, -35037.186448238666, 7057.20568385192, -8324.102559578725, -70046.56732637493, 8034.289840971213, -17557.205862665876, -4957.952196353936, 2846.2487871943463, -0.023, 0.493, 0.112, 192.0, 0.0, 0.0, 0.0, 0.0, 0.0, 0.0, 0.0, 0.0, 0.0, 1.695417998122146E9, 0.0, 2023-09-22 16:26:38.122
232.0, 25776.322278538024, 11858.785075996528, -35214.43578176925, -62438.30173472187, -187500.02235174447, 9950.057858235581, -138635.59974856375, -187500.02235174447, -35049.07757628889, 7041.805331922214, -8281.96952128047, -70053.9881055341, 8019.694151841897, -17530.473176297328, -4981.108603609634, 2889.700578415463, -0.023, 0.493, 0.112, 192.0, 0.0, 0.0, 0.0, 0.0, 0.0, 0.0, 0.0, 0.0, 0.0, 1.695417998122149E9, 0.0, 2023-09-22 16:26:38.122
234.0, 25735.440937929267, 11814.930953375215, -35245.437651328764, -62491.387127803224, -187500.02235174447, 9989.084004054548, -138542.32591895174, -187500.02235174447, -35058.73352989358, 7042.96762263389, -8324.661353190108, -70063.82287309442, 8014.374436661535, -17567.57707209314, -4978.918132653014, 2856.195313476958, -0.023, 0.493, 0.112, 192.0, 0.0, 0.0, 0.0, 0.0, 0.0, 0.0, 0.0, 0.0, 0.0, 1.695417998122153E9, 0.0, 2023-09-22 16:26:38.122
236.0, 25781.798455929573, 11864.082439432435, -35220.67191847228, -62440.20163300057, -187500.02235174447, 9979.584512661042, -138594.5172422549, -187500.02235174447, -35078.291306291976, 7012.032808307745, -8269.027861240847, -70084.7441059046, 7991.240381150292, -17536.57520253363, -5014.032723192301, 2937.622718527641, -0.036500000000000005, 0.7415, 0.168, 192.0, 127.0, 56.0, 15.0, 120.0, 3.5, 0.0, 0.0, 0.0, 0.0, 1.695417998122156E9, 0.0, 2023-09-22 16:26:38.122
238.0, 25779.876205906417, 11864.551826065997, -35209.63015671136, -62449.522310438435, -187500.02235174447, 9968.140419499925, -138571.47259372147, -187500.02235174447, -35044.36135820882, 7050.276643070775, -8345.381420300177, -70045.53914612999, 8029.104236257582, -17587.514828147272, -4977.979359385891, 2864.934845558983, -0.036500000000000005, 0.7415, 0.168, 192.0, 0.0, 0.0, 0.0, 0.0, 0.0, 0.0, 0.0, 0.0, 0.0, 1.695417998122159E9, 0.0, 2023-09-22 16:26:38.122
0.0, 12817.496099173559, 5980.052766806218, -17864.855273348723, -31423.55757040472, -93750.01117587223, 4601.710093225252, -93750.01117587223, -93750.01117587223, -17524.080577383113, 3526.121798291421, -4144.371049925215, -35024.69182308815, 4009.299458181794, -8774.043175464056, -2493.9852945787065, 1453.3104244840652, -0.04525, 0.86775, 0.184, 192.0, 127.0, 40.0, 15.5, 8.0, 3.0, 32.0, 0.0, 0.0, 0.0, 1.695417998251797E9, 0.0, 2023-09-22 16:26:38.251
2.0, 25640.98246586114, 11962.921853413804, -35725.866046651136, -62849.551480955066, -187500.02235174447, 9251.655250985057, -187500.02235174447, -187500.02235174447, -37129.220322277586, 6563.545055812008, -7806.369102760447, -70109.24161782762, 5874.6866434439, -18965.678687772597, -5837.068657525619, 3464.252169639131, -0.04525, 0.86775, 0.184, 192.0, 0.0, 0.0, 0.0, 0.0, 0.0, 0.0, 0.0, 0.0, 0.0, 1.69541799825181E9, 0.0, 2023-09-22 16:26:38.251
4.0, 25661.70253297121, 11986.70410951425, -35720.814552404234, -62833.50292843616, -187500.02235174447, 9213.813747622222, -187500.02235174447, -187500.02235174447, -37103.96285104309, 6583.527515355053, -7770.405145931858, -70090.60026295189, 5887.02480638323, -18950.211280609525, -5834.63231737999, 3494.2258589536978, -0.04525, 0.86775, 0.184, 192.0, 0.0, 0.0, 0.0, 0.0, 0.0, 0.0, 0.0, 0.0, 0.0, 1.695417998251814E9, 0.0, 2023-09-22 16:26:38.251
6.0, 25646.74921593061, 11975.148257630857, -35713.46082847844, -62839.31438199453, -187500.02235174447, 9237.193672322474, -187500.02235174447, -187500.02235174447, -37115.11637152629, 6579.191276930724, -7818.528451744134, -70097.17167582175, 5884.610817982057, -18976.496932088965, -5827.658573109934, 3454.864436967902, -0.04525, 0.86775, 0.184, 192.0, 0.0, 0.0, 0.0, 0.0, 0.0, 0.0, 0.0, 0.0, 0.0, 1.695417998251818E9, 0.0, 2023-09-22 16:26:38.251
8.0, 25685.32832686047, 12016.923668017826, -35687.97983979939, -62796.37668089589, -187500.02235174447, 9215.557183689736, -187500.02235174447, -187500.02235174447, -37106.510949911, 6589.16015495779, -7763.140828983883, -70082.26306227005, 5894.937323920408, -18939.75066420444, -5823.3446864300595, 3506.0722835150104, -0.054, 0.994, 0.192, 192.0, 127.0, 40.0, 15.5, 8.0, 3.0, 0.0, 0.0, 0.0, 0.0, 1.695417998251822E9, 0.0, 2023-09-22 16:26:38.251
10.0, 25662.12721611586, 11992.068528183525, -35699.78156087179, -62827.91499232233, -187500.02235174447, 9234.533814732291, -187500.02235174447, -187500.02235174447, -37096.76558932848, 6602.414739419787, -7819.936611644818, -70066.37097196233, 5912.93047820693, -18969.36672560772, -5794.667398293901, 3448.4047828203184, -0.054, 0.994, 0.192, 192.0, 0.0, 0.0, 0.0, 0.0, 0.0, 0.0, 0.0, 0.0, 0.0, 1.695417998251825E9, 0.0, 2023-09-22 16:26:38.251
12.0, 25699.678146800776, 12030.781749580116, -35682.19073798546, -62789.80526802603, -187500.02235174447, 9221.212175036928, -187500.02235174447, -187500.02235174447, -37090.417693903175, 6608.874393567371, -7755.541235869078, -70054.90452705676, 5908.705998504877, -18931.234649566966, -5804.993904232252, 3506.899298059857, -0.054, 0.994, 0.192, 192.0, 0.0, 0.0, 0.0, 0.0, 0.0, 0.0, 0.0, 0.0, 0.0, 1.695417998251828E9, 0.0, 2023-09-22 16:26:38.251
14.0, 25678.37693433487, 12005.636037067896, -35697.2781654928, -62817.029692772594, -187500.02235174447, 9241.284041557794, -187500.02235174447, -187500.02235174447, -37106.53330165545, 6591.976474759159, -7805.273867282137, -70070.84132085339, 5893.953847164375, -18962.728257504496, -5810.62654383499, 3460.832352737469, -0.054, 0.994, 0.192, 192.0, 0.0, 0.0, 0.0, 0.0, 0.0, 0.0, 0.0, 0.0, 0.0, 1.695417998251832E9, 0.0, 2023-09-22 16:26:38.251
16.0, 25674.241861610637, 12005.99366497918, -35714.667822679025, -62825.8809835769, -187500.02235174447, 9258.517236532836, -187500.02235174447, -187500.02235174447, -37106.287432466444, 6594.166945715779, -7743.225424674204, -70070.14841677528, 5894.870268687042, -18931.525222244887, -5815.409817148426, 3524.959507579745, -0.054, 0.994, 0.192, 192.0, 0.0, 0.0, 0.0, 0.0, 0.0, 0.0, 0.0, 0.0, 0.0, 1.695417998312086E9, 0.0, 2023-09-22 16:26:38.312
18.0, 25668.341001074434, 11999.444603853775, -35704.318964996215, -62831.91595457983, -187500.02235174447, 9249.934166661998, -187500.02235174447, -187500.02235174447, -37111.69655462463, 6590.367149158376, -7792.131041542416, -70074.4399517107, 5888.16474535045, -18965.03048718339, -5832.508901656735, 3488.5261641175944, -0.058, 0.998, 0.192, 192.0, 127.0, 24.0, 15.5, 24.0, 3.0, 0.0, 0.0, 0.0, 0.0, 1.695417998312105E9, 0.0, 2023-09-22 16:26:38.312
20.0, 25688.524626317576, 12020.276429686122, -35694.68536313598, -62807.41844265681, -187500.02235174447, 9273.224684384428, -187500.02235174447, -187500.02235174447, -37111.67420288017, 6586.813221789983, -7728.6744390338, -70073.81410286594, 5891.137527363006, -18928.530088487874, -5817.622639849501, 3560.5881882415047, -0.058, 0.998, 0.192, 192.0, 0.0, 0.0, 0.0, 0.0, 0.0, 0.0, 0.0, 0.0, 0.0, 1.695417998312108E9, 0.0, 2023-09-22 16:26:38.312
22.0, 25664.18357660575, 11994.504868329153, -35713.550235456256, -62834.08407379199, -187500.02235174447, 9270.944806449987, -187500.02235174447, -187500.02235174447, -37120.50314194002, 6585.11448921138, -7783.324454227025, -70072.74121913209, 5882.107422603062, -18956.939155690572, -5821.109511984529, 3519.8186063550243, -0.058, 0.998, 0.192, 192.0, 0.0, 0.0, 0.0, 0.0, 0.0, 0.0, 0.0, 0.0, 0.0, 1.695417998312112E9, 0.0, 2023-09-22 16:26:38.312
24.0, 25698.69467004474, 12031.340543191498, -35689.231537488886, -62794.99087273966, -187500.02235174447, 9294.145917194595, -187500.02235174447, -187500.02235174447, -37111.741258113536, 6599.330198684955, -7733.837692002976, -70063.91228007225, 5895.07143438714, -18922.025730851383, -5812.861718280521, 3586.7620809986693, -0.058, 0.998, 0.192, 192.0, 0.0, 0.0, 0.0, 0.0, 0.0, 0.0, 0.0, 0.0, 0.0, 1.695417998312115E9, 0.0, 2023-09-22 16:26:38.312
26.0, 25685.730658260665, 12019.985857008203, -35692.83016834619, -62805.11621297792, -187500.02235174447, 9251.968175407432, -187500.02235174447, -187500.02235174447, -37099.13487424074, 6618.083312282957, -7791.34873048648, -70053.40696017825, 5904.749739736288, -18945.18213810708, -5807.586706589068, 3532.156769294354, -0.058, 0.998, 0.192, 192.0, 0.0, 0.0, 0.0, 0.0, 0.0, 0.0, 0.0, 0.0, 0.0, 1.695417998312118E9, 0.0, 2023-09-22 16:26:38.312
28.0, 25705.37784163688, 12037.889604316904, -35691.042028789765, -62790.85580001543, -187500.02235174447, 9270.900102961077, -187500.02235174447, -187500.02235174447, -37107.62853713376, 6611.266030224089, -7755.273014935615, -70069.09788478588, 5904.213297869361, -18922.5174692294, -5801.283514652671, 3574.0662901480546, -0.056, 0.994, 0.19, 192.0, 127.0, 32.0, 15.5, 8.0, 2.5, 120.0, 0.0, 0.0, 0.0, 1.695417998312123E9, 0.0, 2023-09-22 16:26:38.312
30.0, 25676.633498267354, 12006.887734757393, -35706.21886327492, -62824.56223065403, -187500.02235174447, 9205.387139962571, -187500.02235174447, -187500.02235174447, -37087.95900201309, 6620.7655216175945, -7816.382684276425, -70056.22327997962, 5919.166614909961, -18962.258870870934, -5799.6294855629785, 3500.4843474011836, -0.056, 0.994, 0.19, 192.0, 0.0, 0.0, 0.0, 0.0, 0.0, 0.0, 0.0, 0.0, 0.0, 1.695417998371605E9, 0.0, 2023-09-22 16:26:38.371
32.0, 25666.28464058455, 11995.376586362909, -35729.64349146408, -62840.14139653938, -187500.02235174447, 9252.862245185643, -187500.02235174447, -187500.02235174447, -37135.94819735864, 6570.183523915234, -7780.597541403478, -70107.05114687099, 5884.476707515324, -18944.645696240153, -5816.929735771387, 3542.8409031439905, -0.056, 0.994, 0.19, 192.0, 0.0, 0.0, 0.0, 0.0, 0.0, 0.0, 0.0, 0.0, 0.0, 1.695417998371624E9, 0.0, 2023-09-22 16:26:38.371
34.0, 25679.516873302087, 12012.81094703805, -35705.01186907433, -62820.33775095198, -187500.02235174447, 9191.752575844834, -187500.02235174447, -187500.02235174447, -37108.07557202287, 6591.73060557015, -7819.668390711355, -70075.26696625554, 5897.798347210687, -18974.015888454425, -5820.863642795521, 3501.4231206683066, -0.056, 0.994, 0.19, 192.0, 0.0, 0.0, 0.0, 0.0, 0.0, 0.0, 0.0, 0.0, 0.0, 1.695417998371628E9, 0.0, 2023-09-22 16:26:38.371
36.0, 25678.265175612592, 12009.18996443629, -35709.705735409945, -62824.2269544872, -187500.02235174447, 9231.382218764093, -187500.02235174447, -187500.02235174447, -37119.02792680597, 6584.265122922078, -7803.105748069972, -70083.045373326, 5901.128757134528, -18958.168501635613, -5796.768462272699, 3517.181100509298, -0.056, 0.994, 0.19, 192.0, 0.0, 0.0, 0.0, 0.0, 0.0, 0.0, 0.0, 0.0, 0.0, 1.695417998371631E9, 0.0, 2023-09-22 16:26:38.371
38.0, 25651.979524133152, 11983.172533890312, -35736.192552589484, -62848.76916989913, -187500.02235174447, 9195.284151468773, -187500.02235174447, -187500.02235174447, -37134.54003745795, 6571.189352415723, -7809.900678384385, -70094.8917978873, 5876.586541722601, -18955.66510625662, -5822.048285251652, 3507.7263126047033, -0.058, 0.988, 0.188, 192.0, 127.0, 24.0, 15.0, 112.0, 2.5, 112.0, 0.0, 0.0, 0.0, 1.695417998371643E9, 0.0, 2023-09-22 16:26:38.371
40.0, 25655.041713123526, 11988.112269414934, -35735.67846246701, -62852.278393778615, -187500.02235174447, 9254.918605675532, -187500.02235174447, -187500.02235174447, -37157.4729272691, 6554.626709774341, -7802.681064925321, -70115.23188534164, 5861.767335148733, -18951.150053876645, -5830.452541166847, 3534.3248885065186, -0.058, 0.988, 0.188, 192.0, 0.0, 0.0, 0.0, 0.0, 0.0, 0.0, 0.0, 0.0, 0.0, 1.695417998371647E9, 0.0, 2023-09-22 16:26:38.371
42.0, 25687.60820479491, 12021.57283086453, -35700.85444460565, -62813.63222761539, -187500.02235174447, 9196.066462524708, -187500.02235174447, -187500.02235174447, -37127.54394144344, 6583.72868105515, -7802.435195736313, -70082.79950413699, 5876.675948700422, -18953.60874576673, -5838.521520915213, 3536.0459728295773, -0.058, 0.988, 0.188, 192.0, 0.0, 0.0, 0.0, 0.0, 0.0, 0.0, 0.0, 0.0, 0.0, 1.695417998371651E9, 0.0, 2023-09-22 16:26:38.371
44.0, 25667.402227807313, 11998.796403264572, -35716.29950002426, -62841.84012911798, -187500.02235174447, 9239.361791534639, -187500.02235174447, -187500.02235174447, -37130.22615077808, 6582.119355454369, -7821.568288990055, -70087.2475012836, 5890.914009918453, -18968.964394207527, -5806.849099022043, 3513.604821396449, -0.058, 0.988, 0.188, 192.0, 0.0, 0.0, 0.0, 0.0, 0.0, 0.0, 0.0, 0.0, 0.0, 1.695417998371654E9, 0.0, 2023-09-22 16:26:38.371
46.0, 25677.728733745666, 12010.486365614697, -35714.801933145754, -62828.58554465599, -187500.02235174447, 9196.714663113913, -187500.02235174447, -187500.02235174447, -37125.018194319986, 6587.461422379187, -7797.607218933967, -70081.1901785362, 5878.486440001302, -18957.363838835223, -5829.804340577643, 3534.1013710619654, -0.058, 0.988, 0.188, 192.0, 0.0, 0.0, 0.0, 0.0, 0.0, 0.0, 0.0, 0.0, 0.0, 1.695417998431367E9, 0.0, 2023-09-22 16:26:38.431
48.0, 25661.523719015568, 11990.548609560563, -35725.26254955084, -62844.72350415272, -187500.02235174447, 9241.686372957989, -187500.02235174447, -187500.02235174447, -37148.711043442614, 6567.478962836142, -7816.3379807875135, -70104.03366136953, 5870.6856811864, -18966.863330228727, -5824.328163186093, 3527.1052750474546, -0.058, 0.986, 0.192, 192.0, 127.0, 24.0, 15.0, 104.0, 3.0, 0.0, 0.0, 0.0, 0.0, 1.695417998431378E9, 0.0, 2023-09-22 16:26:38.431
50.0, 25680.47799831367, 12013.570906349529, -35720.52397972631, -62817.70024510625, -187500.02235174447, 9205.58830566267, -187500.02235174447, -187500.02235174447, -37134.517685713494, 6584.242771177623, -7778.295311724582, -70083.67122217074, 5874.977216121819, -18939.99653339345, -5827.144482987462, 3557.7942201845913, -0.058, 0.986, 0.192, 192.0, 0.0, 0.0, 0.0, 0.0, 0.0, 0.0, 0.0, 0.0, 0.0, 1.695417998431382E9, 0.0, 2023-09-22 16:26:38.431
52.0, 25652.44891076671, 11985.27359786911, -35737.98069214591, -62846.891623364885, -187500.02235174447, 9241.574614235713, -187500.02235174447, -187500.02235174447, -37154.18722083417, 6574.050375706002, -7815.063931353561, -70099.2503880561, 5867.176457306917, -18955.687458001074, -5820.528366628691, 3525.8759291024126, -0.058, 0.986, 0.192, 192.0, 0.0, 0.0, 0.0, 0.0, 0.0, 0.0, 0.0, 0.0, 0.0, 1.695417998431385E9, 0.0, 2023-09-22 16:26:38.431
54.0, 25672.31961158748, 12008.631170824907, -35719.51815122583, -62820.15893699634, -187500.02235174447, 9212.405587721538, -187500.02235174447, -187500.02235174447, -37138.07161308189, 6590.389500902832, -7776.171896001327, -70086.28637627201, 5873.7031666878665, -18935.235611824468, -5826.049247509151, 3566.3325865665183, -0.058, 0.986, 0.192, 192.0, 0.0, 0.0, 0.0, 0.0, 0.0, 0.0, 0.0, 0.0, 0.0, 1.695417998431388E9, 0.0, 2023-09-22 16:26:38.431
56.0, 25663.31185857199, 11997.2317811527, -35716.277148279805, -62832.72061738022, -187500.02235174447, 9239.674715957013, -187500.02235174447, -187500.02235174447, -37148.48752599806, 6579.101869952902, -7824.004629135684, -70096.79169616601, 5870.171591063928, -18969.098504674257, -5823.188224218872, 3531.240347771686, -0.058, 0.986, 0.192, 192.0, 0.0, 0.0, 0.0, 0.0, 0.0, 0.0, 0.0, 0.0, 0.0, 1.695417998431391E9, 0.0, 2023-09-22 16:26:38.431
58.0, 25690.69274552974, 12026.244345455689, -35708.74461039837, -62806.45731764523, -187500.02235174447, 9215.378369734093, -187500.02235174447, -187500.02235174447, -37129.130915299764, 6597.653817850807, -7771.232160476704, -70071.80244586497, 5881.839201669598, -18931.636980967163, -5824.775198075199, 3574.8486012039903, -0.06, 0.988, 0.188, 192.0, 127.0, 16.0, 15.0, 112.0, 2.5, 112.0, 0.0, 0.0, 0.0, 1.695417998431395E9, 0.0, 2023-09-22 16:26:38.431
60.0, 25676.74525698963, 12010.620476081429, -35711.516226710824, -62828.518489422626, -187500.02235174447, 9219.15581454704, -187500.02235174447, -187500.02235174447, -37126.73927864305, 6602.124166741868, -7829.972544905251, -70068.18146326322, 5884.16378309295, -18962.03535342638, -5819.053151494641, 3514.051856285555, -0.06, 0.988, 0.188, 192.0, 0.0, 0.0, 0.0, 0.0, 0.0, 0.0, 0.0, 0.0, 0.0, 1.695417998491495E9, 0.0, 2023-09-22 16:26:38.491
62.0, 25673.817178465986, 12004.987836478691, -35734.96320664445, -62836.2298412597, -187500.02235174447, 9227.515366973324, -187500.02235174447, -187500.02235174447, -37140.195028805145, 6588.109622968391, -7763.453753406257, -70083.85003612639, 5870.998605608775, -18924.864402397205, -5828.48558765478, 3572.211095358264, -0.06, 0.988, 0.188, 192.0, 0.0, 0.0, 0.0, 0.0, 0.0, 0.0, 0.0, 0.0, 0.0, 1.695417998491508E9, 0.0, 2023-09-22 16:26:38.491
64.0, 25682.199082636726, 12012.453319126764, -35717.35003201366, -62825.74687311016, -187500.02235174447, 9220.340457003173, -187500.02235174447, -187500.02235174447, -37145.62650270778, 6580.174753686757, -7818.2155273217595, -70090.51085597406, 5863.644881682978, -18964.963431950026, -5840.197901749361, 3530.1227605489207, -0.06, 0.988, 0.188, 192.0, 0.0, 0.0, 0.0, 0.0, 0.0, 0.0, 0.0, 0.0, 0.0, 1.695417998491512E9, 0.0, 2023-09-22 16:26:38.491
66.0, 25718.05128074304, 12050.943023078802, -35691.57847065669, -62789.224122670195, -187500.02235174447, 9200.357997460127, -187500.02235174447, -187500.02235174447, -37113.685859881145, 6615.378751203865, -7775.344881456481, -70056.40209393526, 5897.865402444053, -18940.063588626814, -5807.00556123323, 3565.3267580660295, -0.06, 0.988, 0.188, 192.0, 0.0, 0.0, 0.0, 0.0, 0.0, 0.0, 0.0, 0.0, 0.0, 1.695417998491515E9, 0.0, 2023-09-22 16:26:38.491
68.0, 25679.628632024367, 12010.24049642569, -35711.85150287765, -62831.55832666854, -187500.02235174447, 9184.845886808143, -187500.02235174447, -187500.02235174447, -37115.13872327074, 6616.943373315737, -7837.147454875405, -70053.16109098925, 5896.569001265646, -18972.0265831979, -5805.2621251657165, 3490.1354897183764, -0.062, 0.99, 0.186, 192.0, 127.0, 8.0, 15.0, 120.0, 2.5, 104.0, 0.0, 0.0, 0.0, 1.695417998491518E9, 0.0, 2023-09-22 16:26:38.491
70.0, 25696.794771766043, 12026.110234988957, -35711.00213658835, -62812.76050958163, -187500.02235174447, 9206.907058585532, -187500.02235174447, -187500.02235174447, -37141.0667468389, 6583.460460121687, -7759.96688127123, -70089.57208270695, 5868.226989296316, -18926.205507064522, -5818.941392772364, 3564.186819098809, -0.062, 0.99, 0.186, 192.0, 0.0, 0.0, 0.0, 0.0, 0.0, 0.0, 0.0, 0.0, 0.0, 1.695417998491521E9, 0.0, 2023-09-22 16:26:38.491
72.0, 25673.28073659906, 12004.451394611764, -35717.059459335745, -62836.16278602634, -187500.02235174447, 9176.754555315323, -187500.02235174447, -187500.02235174447, -37113.685859881145, 6611.623658135374, -7823.937573902318, -70061.02890503751, 5887.6730069724335, -18961.56596679282, -5810.335971157071, 3494.9411147762676, -0.062, 0.99, 0.186, 192.0, 0.0, 0.0, 0.0, 0.0, 0.0, 0.0, 0.0, 0.0, 0.0, 1.695417998491524E9, 0.0, 2023-09-22 16:26:38.491
74.0, 25680.500350058122, 12013.928534260815, -35730.64931996457, -62828.16086151134, -187500.02235174447, 9218.999352335853, -187500.02235174447, -187500.02235174447, -37142.02787185048, 6587.64023633483, -7758.446962648269, -70091.71785017465, 5865.857704384053, -18922.27160004039, -5826.496282398258, 3564.700909221281, -0.062, 0.99, 0.186, 192.0, 0.0, 0.0, 0.0, 0.0, 0.0, 0.0, 0.0, 0.0, 0.0, 1.695417998491527E9, 0.0, 2023-09-22 16:26:38.491
76.0, 25675.60531802241, 12011.335731903999, -35724.323776283716, -62829.07728303401, -187500.02235174447, 9179.213247205407, -187500.02235174447, -187500.02235174447, -37124.884083853256, 6606.013370277092, -7808.380759761425, -70075.06580055544, 5870.663329441944, -18956.67093475711, -5837.806265092643, 3520.6903243887814, -0.062, 0.99, 0.186, 192.0, 0.0, 0.0, 0.0, 0.0, 0.0, 0.0, 0.0, 0.0, 0.0, 1.695417998553235E9, 0.0, 2023-09-22 16:26:38.553
78.0, 25681.08149541396, 12014.353217405465, -35723.630872205606, -62828.67495163381, -187500.02235174447, 9222.709741915434, -187500.02235174447, -187500.02235174447, -37120.68195589566, 6605.812204576994, -7767.4994191526675, -70078.70913490167, 5878.888771401497, -18938.722483959496, -5824.730494586289, 3565.349109810485, -0.068, 0.988, 0.188, 192.0, 126.5, 112.0, 15.0, 112.0, 2.5, 112.0, 0.0, 0.0, 0.0, 1.69541799855325E9, 0.0, 2023-09-22 16:26:38.553
80.0, 25665.055294639504, 11998.528182331107, -35731.56574148723, -62842.46597796273, -187500.02235174447, 9190.25500896633, -187500.02235174447, -187500.02235174447, -37109.707249368104, 6609.343780200932, -7790.63347466391, -70073.83645461041, 5870.216294552839, -18957.497949301953, -5842.0083930502415, 3540.002231598167, -0.068, 0.988, 0.188, 192.0, 0.0, 0.0, 0.0, 0.0, 0.0, 0.0, 0.0, 0.0, 0.0, 1.695417998553254E9, 0.0, 2023-09-22 16:26:38.553
82.0, 25680.813274480497, 12015.157880205856, -35725.26254955084, -62829.703131878756, -187500.02235174447, 9235.360829277139, -187500.02235174447, -187500.02235174447, -37118.71500238359, 6602.235925464145, -7757.038802747585, -70082.4865797146, 5865.7235939173215, -18938.029579881382, -5839.259128482238, 3586.337397854018, -0.068, 0.988, 0.188, 192.0, 0.0, 0.0, 0.0, 0.0, 0.0, 0.0, 0.0, 0.0, 0.0, 1.695417998553259E9, 0.0, 2023-09-22 16:26:38.553
84.0, 25678.064009912494, 12018.555345363064, -35720.23340704839, -62826.126852765905, -187500.02235174447, 9177.939197771455, -187500.02235174447, -187500.02235174447, -37092.2058334596, 6628.320411243488, -7779.345843713981, -70054.14456774529, 5875.044271355185, -18948.445492797553, -5842.254262239249, 3557.8836271624123, -0.068, 0.988, 0.188, 192.0, 0.0, 0.0, 0.0, 0.0, 0.0, 0.0, 0.0, 0.0, 0.0, 1.695417998553264E9, 0.0, 2023-09-22 16:26:38.553
86.0, 25675.06887615548, 12016.074301728524, -35720.41222100404, -62827.7808818556, -187500.02235174447, 9224.028494838298, -187500.02235174447, -187500.02235174447, -37101.83943531984, 6623.805358863517, -7767.477067408213, -70066.21450975115, 5873.345538776582, -18939.147167104147, -5829.603174877546, 3574.2898075926078, -0.068, 0.988, 0.188, 192.0, 0.0, 0.0, 0.0, 0.0, 0.0, 0.0, 0.0, 0.0, 0.0, 1.695417998553268E9, 0.0, 2023-09-22 16:26:38.553
88.0, 25691.94444321924, 12035.408560682365, -35700.36270622763, -62806.77024206761, -187500.02235174447, 9166.942139499442, -187500.02235174447, -187500.02235174447, -37075.97846698505, 6645.419495751798, -7777.624759390922, -70039.21360244913, 5884.5661144931455, -18945.092731129258, -5833.313564457127, 3556.8107434285575, -0.064, 0.988, 0.18, 192.0, 127.0, 0.0, 15.0, 112.0, 2.5, 80.0, 0.0, 0.0, 0.0, 1.695417998553273E9, 0.0, 2023-09-22 16:26:38.553
90.0, 25684.166036148792, 12027.026656511624, -35701.457941705936, -62820.29304746307, -187500.02235174447, 9209.321046986704, -187500.02235174447, -187500.02235174447, -37075.37496988475, 6645.464199240709, -7775.747212856676, -70041.44877689467, 5899.027693155729, -18946.880870685683, -5810.157157201428, 3553.0109468711553, -0.064, 0.988, 0.18, 192.0, 0.0, 0.0, 0.0, 0.0, 0.0, 0.0, 0.0, 0.0, 0.0, 1.695417998612179E9, 0.0, 2023-09-22 16:26:38.612
92.0, 25688.211701895205, 12030.781749580116, -35704.810703374234, -62816.09091950547, -187500.02235174447, 9162.315328397195, -187500.02235174447, -187500.02235174447, -37075.442025118115, 6644.145446317845, -7756.368250413925, -70042.76752981753, 5888.567076750645, -18933.760396690417, -5827.256241709739, 3559.470601018739, -0.064, 0.988, 0.18, 192.0, 0.0, 0.0, 0.0, 0.0, 0.0, 0.0, 0.0, 0.0, 0.0, 1.695417998612192E9, 0.0, 2023-09-22 16:26:38.612
94.0, 25670.017381908583, 12007.088900457491, -35716.433610490996, -62836.05102730406, -187500.02235174447, 9207.845831852655, -187500.02235174447, -187500.02235174447, -37096.564423628384, 6628.83450136596, -7769.3769656869135, -70062.3923614493, 5880.051062113173, -18940.108292115725, -5819.76840731721, 3553.0109468711553, -0.064, 0.988, 0.18, 192.0, 0.0, 0.0, 0.0, 0.0, 0.0, 0.0, 0.0, 0.0, 0.0, 1.695417998612196E9, 0.0, 2023-09-22 16:26:38.612
96.0, 25671.246727853624, 12009.61464758094, -35719.38404075909, -62827.11032952194, -187500.02235174447, 9175.547561114736, -187500.02235174447, -187500.02235174447, -37091.311763681384, 6627.716914143195, -7743.985383985685, -70058.12317825832, 5873.189076565394, -18922.673931440586, -5835.526387158202, 3580.5482960400936, -0.064, 0.988, 0.18, 192.0, 0.0, 0.0, 0.0, 0.0, 0.0, 0.0, 0.0, 0.0, 0.0, 1.695417998612204E9, 0.0, 2023-09-22 16:26:38.612
98.0, 25668.877442941364, 12005.323112645521, -35716.008927346345, -62835.76045462614, -187500.02235174447, 9206.460023696425, -187500.02235174447, -187500.02235174447, -37097.682010851146, 6628.767446132594, -7779.479954180712, -70061.5876986489, 5880.833373169109, -18946.769111963407, -5830.0949132555625, 3562.9351214093117, -0.062, 0.992, 0.18, 192.0, 127.0, 8.0, 15.5, 0.0, 2.5, 80.0, 0.0, 0.0, 0.0, 1.695417998612209E9, 0.0, 2023-09-22 16:26:38.612
100.0, 25671.582004020456, 12006.910086501848, -35723.966148372434, -62828.31732372253, -187500.02235174447, 9184.82353506369, -187500.02235174447, -187500.02235174447, -37107.58383364485, 6614.618791892385, -7734.061209447528, -70072.33888773191, 5862.035556082196, -18923.70211168553, -5853.966576333831, 3611.058427221588, -0.062, 0.992, 0.18, 192.0, 0.0, 0.0, 0.0, 0.0, 0.0, 0.0, 0.0, 0.0, 0.0, 1.695417998612212E9, 0.0, 2023-09-22 16:26:38.612
102.0, 25682.13202740336, 12018.309476174054, -35692.60665090164, -62816.44854741676, -187500.02235174447, 9185.918770541999, -187500.02235174447, -187500.02235174447, -37087.51196712398, 6631.159082789312, -7797.450756722779, -70053.69753285618, 5889.930533162419, -18965.633984283686, -5830.5642998891235, 3562.80101094258, -0.062, 0.992, 0.18, 192.0, 0.0, 0.0, 0.0, 0.0, 0.0, 0.0, 0.0, 0.0, 0.0, 1.695417998612216E9, 0.0, 2023-09-22 16:26:38.612
104.0, 25682.7131727592, 12021.751644820171, -35706.19651153046, -62810.10065199145, -187500.02235174447, 9165.62338657658, -187500.02235174447, -187500.02235174447, -37092.56346137088, 6625.414684464298, -7745.795875286565, -70055.50802415705, 5877.838239412098, -18928.440681510056, -5832.128922000996, 3600.083720694032, -0.062, 0.992, 0.18, 192.0, 0.0, 0.0, 0.0, 0.0, 0.0, 0.0, 0.0, 0.0, 0.0, 1.69541799861222E9, 0.0, 2023-09-22 16:26:38.612
106.0, 25662.261326582593, 12000.115156187434, -35712.4773517224, -62830.10546327895, -187500.02235174447, 9181.470773395393, -187500.02235174447, -187500.02235174447, -37099.20192947411, 6624.498262941631, -7795.506154955167, -70055.97741079061, 5878.7546609347655, -18958.436722569077, -5826.518634142713, 3557.1907230842976, -0.062, 0.992, 0.18, 192.0, 0.0, 0.0, 0.0, 0.0, 0.0, 0.0, 0.0, 0.0, 0.0, 1.695417998671891E9, 0.0, 2023-09-22 16:26:38.671
108.0, 25665.21175685069, 12004.697263800772, -35726.067212351234, -62824.4281201873, -187500.02235174447, 9175.14522971454, -187500.02235174447, -187500.02235174447, -37101.10182775281, 6627.8063211210165, -7741.213767673227, -70057.5420329025, 5874.083146343607, -18927.479556498474, -5834.654669124445, 3609.180880687342, -0.06, 0.992, 0.184, 192.0, 127.0, 16.0, 15.5, 0.0, 2.5, 96.0, 0.0, 0.0, 0.0, 1.695417998671904E9, 0.0, 2023-09-22 16:26:38.671
110.0, 25629.516020955565, 11968.778010461094, -35752.30816034176, -62868.37164978644, -187500.02235174447, 9194.367729946105, -187500.02235174447, -187500.02235174447, -37125.0628978089, 6608.427358678265, -7799.976503846229, -70079.82672212443, 5853.676003655912, -18962.147112148657, -5849.20565476485, 3566.109069121965, -0.06, 0.992, 0.184, 192.0, 0.0, 0.0, 0.0, 0.0, 0.0, 0.0, 0.0, 0.0, 0.0, 1.695417998671908E9, 0.0, 2023-09-22 16:26:38.671
112.0, 25656.718093957676, 12000.875115498915, -35737.824229934726, -62836.118082537425, -187500.02235174447, 9205.834174851678, -187500.02235174447, -187500.02235174447, -37128.28154901046, 6598.838460306938, -7736.274032148604, -70088.92388211774, 5846.501093685758, -18928.2171640655, -5864.471896227825, 3646.664756138892, -0.06, 0.992, 0.184, 192.0, 0.0, 0.0, 0.0, 0.0, 0.0, 0.0, 0.0, 0.0, 0.0, 1.695417998671911E9, 0.0, 2023-09-22 16:26:38.671
114.0, 25667.961021418694, 12012.542726104586, -35710.7786191438, -62822.88584981988, -187500.02235174447, 9168.976148244876, -187500.02235174447, -187500.02235174447, -37096.564423628384, 6630.756751389116, -7814.9298208868295, -70059.55368990346, 5873.345538776582, -18976.631042555695, -5850.032669309696, 3577.6425692609037, -0.06, 0.992, 0.184, 192.0, 0.0, 0.0, 0.0, 0.0, 0.0, 0.0, 0.0, 0.0, 0.0, 1.695417998671916E9, 0.0, 2023-09-22 16:26:38.671
116.0, 25662.216623093682, 12005.747795790172, -35723.764982672335, -62828.60789640044, -187500.02235174447, 9178.43093614947, -187500.02235174447, -187500.02235174447, -37096.363257928286, 6632.701353156728, -7761.151523727361, -70059.33017245891, 5877.011224867252, -18939.683608971074, -5831.994811534263, 3616.892232524423, -0.06, 0.992, 0.184, 192.0, 0.0, 0.0, 0.0, 0.0, 0.0, 0.0, 0.0, 0.0, 0.0, 1.695417998671932E9, 0.0, 2023-09-22 16:26:38.671
118.0, 25647.531526986546, 11993.722557273217, -35713.70669766745, -62830.77601561261, -187500.02235174447, 9160.281319651762, -187500.02235174447, -187500.02235174447, -37107.00268828901, 6617.904498327315, -7811.599410962989, -70069.81314060846, 5864.918931116931, -18968.718525018518, -5842.991869806275, 3567.450173789284, -0.06, 0.988, 0.188, 192.0, 127.0, 16.0, 15.0, 112.0, 2.5, 112.0, 0.0, 0.0, 0.0, 1.695417998671935E9, 0.0, 2023-09-22 16:26:38.671
120.0, 25646.860974652885, 11991.107403171945, -35721.48510473789, -62829.837242345486, -187500.02235174447, 9194.077157268186, -187500.02235174447, -187500.02235174447, -37111.026002290964, 6621.816053606994, -7754.15542771285, -70070.55074817548, 5870.5962742085785, -18932.240478067455, -5821.981230018286, 3626.212909962286, -0.06, 0.988, 0.188, 192.0, 0.0, 0.0, 0.0, 0.0, 0.0, 0.0, 0.0, 0.0, 0.0, 1.695417998731321E9, 0.0, 2023-09-22 16:26:38.731
122.0, 25635.84156463642, 11978.545722788063, -35724.34612802817, -62841.34839073997, -187500.02235174447, 9170.876046523577, -187500.02235174447, -187500.02235174447, -37118.26796749449, 6603.8005475760165, -7802.166974802849, -70082.93361460372, 5854.2795007562045, -18959.911937703127, -5852.737230388789, 3588.3714065994513, -0.06, 0.988, 0.188, 192.0, 0.0, 0.0, 0.0, 0.0, 0.0, 0.0, 0.0, 0.0, 0.0, 1.695417998731335E9, 0.0, 2023-09-22 16:26:38.731
124.0, 25661.233146337647, 12005.479574856708, -35708.856369120644, -62812.29112294807, -187500.02235174447, 9197.67578812549, -187500.02235174447, -187500.02235174447, -37114.28935698144, 6606.1474807438235, -7761.844427805475, -70077.97152733464, 5864.628358439012, -18937.001399636436, -5841.427247694403, 3640.987413047244, -0.06, 0.988, 0.188, 192.0, 0.0, 0.0, 0.0, 0.0, 0.0, 0.0, 0.0, 0.0, 0.0, 1.695417998731338E9, 0.0, 2023-09-22 16:26:38.731
126.0, 25668.94449817473, 12014.71084531675, -35691.91374682352, -62805.205619955734, -187500.02235174447, 9146.37853460056, -187500.02235174447, -187500.02235174447, -37087.690781079626, 6633.707181657217, -7817.254402310182, -70046.030884508, 5881.5709807361345, -18965.008135438937, -5830.229023722294, 3584.4822030642276, -0.06, 0.988, 0.188, 192.0, 0.0, 0.0, 0.0, 0.0, 0.0, 0.0, 0.0, 0.0, 0.0, 1.695417998731342E9, 0.0, 2023-09-22 16:26:38.731
128.0, 25665.23410859515, 12011.38043539291, -35704.96716558542, -62814.19102122677, -187500.02235174447, 9191.596113633646, -187500.02235174447, -187500.02235174447, -37110.690726124136, 6612.517727913586, -7775.478991923213, -70066.79565510698, 5871.915027131442, -18936.733178702973, -5826.742151587267, 3626.078799495554, -0.06, 0.988, 0.19, 192.0, 127.0, 16.0, 15.0, 112.0, 2.5, 120.0, 0.0, 0.0, 0.0, 1.695417998731345E9, 0.0, 2023-09-22 16:26:38.731
130.0, 25674.68889649974, 12020.209374452756, -35692.56194741272, -62805.18326821128, -187500.02235174447, 9129.033580903242, -187500.02235174447, -187500.02235174447, -37083.73452231104, 6633.774236890583, -7811.733521429721, -70040.28648618299, 5887.650655227978, -18957.207376624036, -5837.359230203537, 3582.179973385331, -0.06, 0.988, 0.19, 192.0, 0.0, 0.0, 0.0, 0.0, 0.0, 0.0, 0.0, 0.0, 0.0, 1.695417998731348E9, 0.0, 2023-09-22 16:26:38.731
132.0, 25653.097111355917, 11995.868324740926, -35722.26741579383, -62838.39796047187, -187500.02235174447, 9190.791450833256, -187500.02235174447, -187500.02235174447, -37121.307804740405, 6598.234963206645, -7777.870628579931, -70081.12312330284, 5865.813000895143, -18935.369722291198, -5838.163893003928, 3610.2090609322863, -0.06, 0.988, 0.19, 192.0, 0.0, 0.0, 0.0, 0.0, 0.0, 0.0, 0.0, 0.0, 0.0, 1.695417998731352E9, 0.0, 2023-09-22 16:26:38.731
134.0, 25648.760872931587, 11991.08505142749, -35727.16244782954, -62844.4329314748, -187500.02235174447, 9150.178331157962, -187500.02235174447, -187500.02235174447, -37113.52939766996, 6601.721835341673, -7790.655826408366, -70072.45064645418, 5860.515637459235, -18947.97610616399, -5861.722631659822, 3597.04388344811, -0.06, 0.988, 0.19, 192.0, 0.0, 0.0, 0.0, 0.0, 0.0, 0.0, 0.0, 0.0, 0.0, 1.695417998731355E9, 0.0, 2023-09-22 16:26:38.731
136.0, 25671.336134831447, 12014.062644727546, -35708.096409809164, -62819.398977684854, -187500.02235174447, 9192.736052600867, -187500.02235174447, -187500.02235174447, -37125.28641525345, 6590.143631713824, -7778.6529396358665, -70087.22514953914, 5853.698355400366, -18935.526184502385, -5854.882997856498, 3627.643421607426, -0.06, 0.988, 0.19, 192.0, 0.0, 0.0, 0.0, 0.0, 0.0, 0.0, 0.0, 0.0, 0.0, 1.695417998792882E9, 0.0, 2023-09-22 16:26:38.792
138.0, 25664.6082597504, 12010.933400503804, -35711.33741275519, -62820.538916652076, -187500.02235174447, 9145.462113077892, -187500.02235174447, -187500.02235174447, -37096.40796141719, 6623.961821074703, -7786.610160661956, -70051.61882062184, 5875.960692877852, -18941.628210738687, -5837.53804415918, 3610.6113923324815, -0.058, 0.988, 0.18, 192.0, 127.0, 24.0, 15.0, 112.0, 2.5, 80.0, 0.0, 0.0, 0.0, 1.695417998792892E9, 0.0, 2023-09-22 16:26:38.792
140.0, 25664.049466139015, 12011.112214459446, -35715.53954071278, -62825.09867252096, -187500.02235174447, 9188.131593243073, -187500.02235174447, -187500.02235174447, -37119.76553437299, 6606.169832488279, -7788.264189751648, -70075.0881522999, 5863.644881682978, -18943.863385184217, -5837.850968581554, 3618.568613358571, -0.058, 0.988, 0.18, 192.0, 0.0, 0.0, 0.0, 0.0, 0.0, 0.0, 0.0, 0.0, 0.0, 1.695417998792896E9, 0.0, 2023-09-22 16:26:38.792
142.0, 25670.889099942342, 12019.516470374641, -35718.445267491974, -62817.34261719497, -187500.02235174447, 9148.591357301637, -187500.02235174447, -187500.02235174447, -37107.22620573357, 6617.144539015835, -7773.579093644512, -70058.86078582535, 5861.96850084883, -18935.526184502385, -5853.027803066708, 3627.2634419516853, -0.058, 0.988, 0.18, 192.0, 0.0, 0.0, 0.0, 0.0, 0.0, 0.0, 0.0, 0.0, 0.0, 1.695417998792899E9, 0.0, 2023-09-22 16:26:38.792
144.0, 25675.5606145335, 12019.225897696722, -35706.01769757482, -62815.777995083095, -187500.02235174447, 9181.068441995198, -187500.02235174447, -187500.02235174447, -37109.12610401226, 6614.998771548125, -7796.44492822229, -70057.29616371349, 5869.948073619375, -18949.630135253687, -5842.701297128356, 3611.7736830441577, -0.058, 0.988, 0.18, 192.0, 0.0, 0.0, 0.0, 0.0, 0.0, 0.0, 0.0, 0.0, 0.0, 1.695417998792903E9, 0.0, 2023-09-22 16:26:38.792
146.0, 25647.419768264266, 11991.554438061052, -35741.22169509193, -62838.44266396078, -187500.02235174447, 9163.477619108871, -187500.02235174447, -187500.02235174447, -37115.00461280401, 6607.242716222134, -7755.608291102445, -70067.6897248852, 5855.933529845897, -18931.79344317835, -5859.576864192112, 3641.702668869814, -0.058, 0.988, 0.18, 192.0, 0.0, 0.0, 0.0, 0.0, 0.0, 0.0, 0.0, 0.0, 0.0, 1.695417998792906E9, 0.0, 2023-09-22 16:26:38.792
148.0, 25637.048558837007, 11981.853780967449, -35738.38302354611, -62845.63992567539, -187500.02235174447, 9210.036302809274, -187500.02235174447, -187500.02235174447, -37148.35341553133, 6580.0853467089355, -7780.843410592486, -70099.33979503391, 5834.565262146623, -18951.440626554566, -5868.428154996414, 3640.67448862487, -0.062, 0.99, 0.176, 192.0, 127.0, 8.0, 15.0, 120.0, 2.5, 64.0, 0.0, 0.0, 0.0, 1.695417998792909E9, 0.0, 2023-09-22 16:26:38.792
150.0, 25663.244803338624, 12008.51941210263, -35725.21784606193, -62820.76243409663, -187500.02235174447, 9184.711776341412, -187500.02235174447, -187500.02235174447, -37124.48175245306, 6591.864716036883, -7741.884320006886, -70079.44674246869, 5845.2940994851715, -18928.440681510056, -5866.103573573062, 3690.183602593375, -0.062, 0.99, 0.176, 192.0, 0.0, 0.0, 0.0, 0.0, 0.0, 0.0, 0.0, 0.0, 0.0, 1.695417998851691E9, 0.0, 2023-09-22 16:26:38.851
152.0, 25671.380838320358, 12016.074301728524, -35706.33062199719, -62819.488384662676, -187500.02235174447, 9190.322064199694, -187500.02235174447, -187500.02235174447, -37111.026002290964, 6605.812204576994, -7802.479899225224, -70065.00751555056, 5863.957806105353, -18961.36480109272, -5846.255224496749, 3642.3955729479285, -0.062, 0.99, 0.176, 192.0, 0.0, 0.0, 0.0, 0.0, 0.0, 0.0, 0.0, 0.0, 0.0, 1.695417998851705E9, 0.0, 2023-09-22 16:26:38.851
154.0, 25675.493559300132, 12018.890621529892, -35716.94770061346, -62818.81783232902, -187500.02235174447, 9160.594244074136, -187500.02235174447, -187500.02235174447, -37094.86569104978, 6623.760655374605, -7760.302157438059, -70046.90260254176, 5876.675948700422, -18938.78953919286, -5835.5487389026575, 3670.9163988729, -0.062, 0.99, 0.176, 192.0, 0.0, 0.0, 0.0, 0.0, 0.0, 0.0, 0.0, 0.0, 0.0, 1.695417998851708E9, 0.0, 2023-09-22 16:26:38.851
156.0, 25645.02813160755, 11985.050080424558, -35728.2800350523, -62847.83039663201, -187500.02235174447, 9187.304578698227, -187500.02235174447, -187500.02235174447, -37125.97931933157, 6593.16111721529, -7799.171841045838, -70075.60224242238, 5851.038497810185, -18967.600937795753, -5855.7323641458, 3633.209005976797, -0.062, 0.99, 0.176, 192.0, 0.0, 0.0, 0.0, 0.0, 0.0, 0.0, 0.0, 0.0, 0.0, 1.695417998851712E9, 0.0, 2023-09-22 16:26:38.851
158.0, 25675.582966277954, 12020.343484919487, -35717.10416282465, -62813.45341365974, -187500.02235174447, 9178.833267549666, -187500.02235174447, -187500.02235174447, -37124.0123658195, 6593.608152104396, -7734.552947825546, -70071.40011446478, 5849.071544298118, -18931.949905389538, -5855.821771123621, 3698.990189908766, -0.06, 0.99, 0.184, 192.0, 127.0, 16.0, 15.0, 120.0, 2.5, 96.0, 0.0, 0.0, 0.0, 1.695417998851715E9, 0.0, 2023-09-22 16:26:38.851
160.0, 25671.559652276, 12018.935325018803, -35700.63092716109, -62814.34748343796, -187500.02235174447, 9166.763325543801, -187500.02235174447, -187500.02235174447, -37102.800560331416, 6621.950164073725, -7805.11740507095, -70047.84137580889, 5868.025823596218, -18969.679650030095, -5842.6565936394445, 3634.6171658774815, -0.06, 0.99, 0.184, 192.0, 0.0, 0.0, 0.0, 0.0, 0.0, 0.0, 0.0, 0.0, 0.0, 1.695417998851718E9, 0.0, 2023-09-22 16:26:38.851
162.0, 25666.93284117375, 12013.973237749726, -35719.78637215929, -62816.80617532804, -187500.02235174447, 9173.67001458049, -187500.02235174447, -187500.02235174447, -37115.094019781835, 6612.8977075693265, -7740.900843250853, -70064.89575682828, 5857.028765324208, -18922.204544807024, -5836.509863914235, 3689.535402004171, -0.06, 0.99, 0.184, 192.0, 0.0, 0.0, 0.0, 0.0, 0.0, 0.0, 0.0, 0.0, 0.0, 1.695417998851721E9, 0.0, 2023-09-22 16:26:38.851
164.0, 25650.12432934336, 11994.236647395688, -35714.801933145754, -62829.07728303401, -187500.02235174447, 9152.569967814681, -187500.02235174447, -187500.02235174447, -37117.37389771627, 6606.058073766002, -7806.078530082528, -70065.63336439531, 5859.688622914389, -18959.28608885838, -5840.957861060841, 3631.912604798389, -0.06, 0.99, 0.184, 192.0, 0.0, 0.0, 0.0, 0.0, 0.0, 0.0, 0.0, 0.0, 0.0, 1.695417998851724E9, 0.0, 2023-09-22 16:26:38.851
166.0, 25657.142777102326, 12000.450432354264, -35714.9807471014, -62817.029692772594, -187500.02235174447, 9165.221055176384, -187500.02235174447, -187500.02235174447, -37119.76553437299, 6599.039626007036, -7749.05922997704, -70072.47299819863, 5864.918931116931, -18922.74098667395, -5843.751829117755, 3685.2885705576628, -0.06, 0.99, 0.184, 192.0, 0.0, 0.0, 0.0, 0.0, 0.0, 0.0, 0.0, 0.0, 0.0, 1.695417998911487E9, 0.0, 2023-09-22 16:26:38.911
168.0, 25645.4528147522, 11989.27456012661, -35720.23340704839, -62827.7808818556, -187500.02235174447, 9150.603014302613, -187500.02235174447, -187500.02235174447, -37133.467153724094, 6581.582913587441, -7791.907524097864, -70080.3408122469, 5848.49039894228, -18953.22876611099, -5861.834390382099, 3642.4402764368388, -0.058, 0.986, 0.188, 192.0, 127.0, 24.0, 15.0, 104.0, 2.5, 112.0, 0.0, 0.0, 0.0, 1.695417998911499E9, 0.0, 2023-09-22 16:26:38.911
170.0, 25664.78707370604, 12009.413481880842, -35719.16052331454, -62816.269733461115, -187500.02235174447, 9183.840058307655, -187500.02235174447, -187500.02235174447, -37131.90253161222, 6582.722852554662, -7730.954316968241, -70082.6877454147, 5846.2328727522945, -18912.772108646885, -5851.999622821763, 3705.539251034171, -0.058, 0.986, 0.188, 192.0, 0.0, 0.0, 0.0, 0.0, 0.0, 0.0, 0.0, 0.0, 0.0, 1.695417998911503E9, 0.0, 2023-09-22 16:26:38.911
172.0, 25662.216623093682, 12008.407653380353, -35712.18677904449, -62821.14241375237, -187500.02235174447, 9137.907223451999, -187500.02235174447, -187500.02235174447, -37103.404057431704, 6613.992943047637, -7796.288466011103, -70050.90356479926, 5869.1881143078945, -18952.871138199705, -5848.2892332421825, 3644.273119482174, -0.058, 0.986, 0.188, 192.0, 0.0, 0.0, 0.0, 0.0, 0.0, 0.0, 0.0, 0.0, 0.0, 1.695417998911506E9, 0.0, 2023-09-22 16:26:38.911
174.0, 25660.51789051508, 12007.580638835507, -35727.56477922974, -62824.74104460968, -187500.02235174447, 9184.91294204151, -187500.02235174447, -187500.02235174447, -37136.752860159024, 6582.454631621198, -7747.136979953883, -70085.05703032698, 5849.987965820786, -18918.538858716354, -5850.546759432168, 3698.58785850857, -0.058, 0.986, 0.188, 192.0, 0.0, 0.0, 0.0, 0.0, 0.0, 0.0, 0.0, 0.0, 0.0, 1.69541799891151E9, 0.0, 2023-09-22 16:26:38.911
176.0, 25668.07278014097, 12015.917839517337, -35706.75530514184, -62815.353311938445, -187500.02235174447, 9138.510720552293, -187500.02235174447, -187500.02235174447, -37110.91424356869, 6612.182451746757, -7791.952227586774, -70052.7364078446, 5863.264902027238, -18945.51741427391, -5843.1259802730065, 3660.0981545565314, -0.058, 0.986, 0.188, 192.0, 0.0, 0.0, 0.0, 0.0, 0.0, 0.0, 0.0, 0.0, 0.0, 1.695417998911513E9, 0.0, 2023-09-22 16:26:38.911
178.0, 25663.624782994364, 12011.022807481624, -35725.35195652866, -62829.63607664539, -187500.02235174447, 9193.563067145715, -187500.02235174447, -187500.02235174447, -37141.35731951682, 6587.103794467902, -7752.859026534442, -70083.58181519293, 5849.339765231582, -18921.288123284357, -5841.851930839054, 3703.7734632222014, -0.058, 0.986, 0.19, 192.0, 127.0, 24.0, 15.0, 104.0, 2.5, 120.0, 0.0, 0.0, 0.0, 1.695417998911517E9, 0.0, 2023-09-22 16:26:38.911
180.0, 25660.204966092704, 12012.09569121548, -35718.95935761444, -62829.03257954509, -187500.02235174447, 9146.020906689275, -187500.02235174447, -187500.02235174447, -37119.27379599497, 6600.850117307916, -7782.519791426635, -70061.61005039336, 5855.933529845897, -18940.734140960474, -5850.055021054151, 3679.767689677202, -0.058, 0.986, 0.19, 192.0, 0.0, 0.0, 0.0, 0.0, 0.0, 0.0, 0.0, 0.0, 0.0, 1.69541799897172E9, 0.0, 2023-09-22 16:26:38.971
182.0, 25660.294373070526, 12013.61560983844, -35716.92534886901, -62826.685646377286, -187500.02235174447, 9196.982884047377, -187500.02235174447, -187500.02235174447, -37137.55752295942, 6584.645102577818, -7759.0504597485615, -70075.40107672228, 5851.597291421568, -18931.592277478252, -5841.874282583509, 3712.244774370763, -0.058, 0.986, 0.19, 192.0, 0.0, 0.0, 0.0, 0.0, 0.0, 0.0, 0.0, 0.0, 0.0, 1.695417998971735E9, 0.0, 2023-09-22 16:26:38.971
184.0, 25665.010591150596, 12017.705979073762, -35704.318964996215, -62818.013169528625, -187500.02235174447, 9146.557348556204, -187500.02235174447, -187500.02235174447, -37123.140647785745, 6596.469175394675, -7770.53925639859, -70062.30295447147, 5855.5088467012465, -18937.22491708099, -5850.792628621177, 3699.4595765423273, -0.058, 0.986, 0.19, 192.0, 0.0, 0.0, 0.0, 0.0, 0.0, 0.0, 0.0, 0.0, 0.0, 1.695417998971739E9, 0.0, 2023-09-22 16:26:38.971
186.0, 25670.039733653037, 12019.114138974446, -35702.19554927296, -62817.72259685071, -187500.02235174447, 9185.471735652893, -187500.02235174447, -187500.02235174447, -37129.980281589065, 6590.165983458279, -7768.974634286718, -70070.61780340884, 5861.096782815073, -18934.40859727962, -5835.414628435926, 3712.2224226263074, -0.058, 0.986, 0.19, 192.0, 0.0, 0.0, 0.0, 0.0, 0.0, 0.0, 0.0, 0.0, 0.0, 1.695417998971742E9, 0.0, 2023-09-22 16:26:38.971
188.0, 25659.042675381028, 12009.212316180745, -35719.920482626025, -62826.126852765905, -187500.02235174447, 9138.443665318926, -187500.02235174447, -187500.02235174447, -37120.79371461794, 6596.692692839229, -7764.303119695559, -70062.92880331622, 5855.687660656889, -18933.291010056855, -5847.752791375255, 3711.596573781559, -0.056, 0.996, 0.19, 192.0, 127.0, 32.0, 15.5, 16.0, 2.5, 120.0, 0.0, 0.0, 0.0, 1.695417998971746E9, 0.0, 2023-09-22 16:26:38.971
190.0, 25667.424579551767, 12016.90131627337, -35714.377250001104, -62818.81783232902, -187500.02235174447, 9182.186029217963, -187500.02235174447, -187500.02235174447, -37136.79756364794, 6581.2029339317005, -7777.177724501816, -70079.89377735779, 5850.971442576819, -18936.64377172515, -5846.501093685758, 3719.0397046851763, -0.056, 0.996, 0.19, 192.0, 0.0, 0.0, 0.0, 0.0, 0.0, 0.0, 0.0, 0.0, 0.0, 1.69541799897175E9, 0.0, 2023-09-22 16:26:38.971
192.0, 25657.679218969253, 12008.117080702434, -35726.40248851806, -62827.020922544114, -187500.02235174447, 9153.419334103983, -187500.02235174447, -187500.02235174447, -37127.745107143535, 6596.580934116952, -7756.3458986694695, -70067.62266965183, 5851.373773977015, -18919.3658732612, -5849.362116976037, 3735.1553124374527, -0.056, 0.996, 0.19, 192.0, 0.0, 0.0, 0.0, 0.0, 0.0, 0.0, 0.0, 0.0, 0.0, 1.695417998971753E9, 0.0, 2023-09-22 16:26:38.971
194.0, 25644.06700659597, 11992.202638650257, -35737.935988657, -62848.47859722121, -187500.02235174447, 9200.894439327054, -187500.02235174447, -187500.02235174447, -37150.29801729894, 6571.614035560374, -7772.953244799763, -70095.00355660958, 5838.610927893034, -18934.587411235265, -5855.128867045506, 3739.7374200507907, -0.056, 0.996, 0.19, 192.0, 0.0, 0.0, 0.0, 0.0, 0.0, 0.0, 0.0, 0.0, 0.0, 1.695417998971756E9, 0.0, 2023-09-22 16:26:38.971
196.0, 25672.476073798665, 12018.488290129697, -35727.45302050746, -62822.05883527504, -187500.02235174447, 9165.981014487865, -187500.02235174447, -187500.02235174447, -37133.04247057944, 6582.476983365654, -7742.48781710718, -70082.33011750343, 5845.271747740716, -18921.22106805099, -5863.331957260604, 3779.143545525497, -0.056, 0.996, 0.19, 192.0, 0.0, 0.0, 0.0, 0.0, 0.0, 0.0, 0.0, 0.0, 0.0, 1.695417999032065E9, 0.0, 2023-09-22 16:26:39.032
198.0, 25661.03198063755, 12000.56219107654, -35736.79604968978, -62844.87996636391, -187500.02235174447, 9199.06159628172, -187500.02235174447, -187500.02235174447, -37144.71008118511, 6571.792849516017, -7790.946399086285, -70089.92971061823, 5843.193035506372, -18954.525167289397, -5852.267843755227, 3748.879283533011, -0.056, 0.99, 0.192, 192.0, 127.0, 32.0, 15.0, 120.0, 3.0, 0.0, 0.0, 0.0, 0.0, 1.695417999032076E9, 0.0, 2023-09-22 16:26:39.032
200.0, 25689.776324007074, 12025.193813466289, -35722.423878005015, -62816.58265788349, -187500.02235174447, 9162.248273163828, -187500.02235174447, -187500.02235174447, -37134.741203158046, 6587.0143874900805, -7754.53540736859, -70071.15424527577, 5849.071544298118, -18932.307533300824, -5858.861608369542, 3790.4758799643378, -0.056, 0.99, 0.192, 192.0, 0.0, 0.0, 0.0, 0.0, 0.0, 0.0, 0.0, 0.0, 0.0, 1.69541799903208E9, 0.0, 2023-09-22 16:26:39.032
202.0, 25681.64028902534, 12008.832336525003, -35721.865084393634, -62835.5816406705, -187500.02235174447, 9183.594189118647, -187500.02235174447, -187500.02235174447, -37137.08813632585, 6581.784079287539, -7804.558611459567, -70078.39621047929, 5852.625471666512, -18959.28608885838, -5851.910215843942, 3749.527484122215, -0.056, 0.99, 0.192, 192.0, 0.0, 0.0, 0.0, 0.0, 0.0, 0.0, 0.0, 0.0, 0.0, 1.695417999032083E9, 0.0, 2023-09-22 16:26:39.032
204.0, 25725.025025013096, 12047.299688732588, -35696.16057827003, -62797.15899195183, -187500.02235174447, 9161.801238274722, -187500.02235174447, -187500.02235174447, -37119.63142390626, 6600.179564974256, -7746.7793520425985, -70058.10082651387, 5862.862570627042, -18922.65157969613, -5847.3504599750595, 3802.6352289480246, -0.056, 0.99, 0.192, 192.0, 0.0, 0.0, 0.0, 0.0, 0.0, 0.0, 0.0, 0.0, 0.0, 1.695417999032086E9, 0.0, 2023-09-22 16:26:39.032
206.0, 25706.495428859645, 12021.371665164432, -35704.76599988532, -62825.94803881026, -187500.02235174447, 9163.365860386593, -187500.02235174447, -187500.02235174447, -37116.0104413045, 6597.0503207505135, -7801.697588169288, -70052.04350376649, 5873.569056221135, -18953.36287657772, -5834.051172024152, 3739.648013072969, -0.056, 0.99, 0.192, 192.0, 0.0, 0.0, 0.0, 0.0, 0.0, 0.0, 0.0, 0.0, 0.0, 1.69541799903209E9, 0.0, 2023-09-22 16:26:39.032
208.0, 25716.218437697702, 12030.893508302392, -35705.74947664136, -62812.15701248134, -187500.02235174447, 9171.14426745704, -187500.02235174447, -187500.02235174447, -37131.187275789656, 6589.227210191156, -7732.429532102291, -70063.37583820532, 5864.740117161288, -18906.02188182138, -5833.626488879501, 3801.830566147634, -0.058, 0.99, 0.192, 192.0, 127.0, 24.0, 15.0, 120.0, 3.0, 0.0, 0.0, 0.0, 0.0, 1.695417999032093E9, 0.0, 2023-09-22 16:26:39.032
210.0, 25708.305920160525, 12018.130662218413, -35703.693116151466, -62824.27165797611, -187500.02235174447, 9167.255063921817, -187500.02235174447, -187500.02235174447, -37121.240749507044, 6592.244695692622, -7791.795765375587, -70061.25242248207, 5870.193942808383, -18941.494100271953, -5835.01229703573, 3752.0308795012093, -0.058, 0.99, 0.192, 192.0, 0.0, 0.0, 0.0, 0.0, 0.0, 0.0, 0.0, 0.0, 0.0, 1.69541799909234E9, 0.0, 2023-09-22 16:26:39.092
212.0, 25715.23496094167, 12020.946982019781, -35715.94187211298, -62816.761471839134, -187500.02235174447, 9189.53975314376, -187500.02235174447, -187500.02235174447, -37141.29026428345, 6583.035776977036, -7722.86298547542, -70076.9880505786, 5855.374736234515, -18900.813925363294, -5836.576919147601, 3827.646830993513, -0.058, 0.99, 0.192, 192.0, 0.0, 0.0, 0.0, 0.0, 0.0, 0.0, 0.0, 0.0, 0.0, 1.695417999092359E9, 0.0, 2023-09-22 16:26:39.092
214.0, 25702.18154217977, 12004.47374635622, -35721.61921520463, -62833.01119005814, -187500.02235174447, 9177.62627334908, -187500.02235174447, -187500.02235174447, -37141.15615381672, 6578.900704252805, -7780.664596636844, -70070.21547200864, 5851.418477465925, -18940.46592002701, -5845.629375652001, 3780.5517054261813, -0.058, 0.99, 0.192, 192.0, 0.0, 0.0, 0.0, 0.0, 0.0, 0.0, 0.0, 0.0, 0.0, 1.695417999092362E9, 0.0, 2023-09-22 16:26:39.092
216.0, 25724.4215279128, 12025.909069288859, -35716.768886657825, -62810.97237002521, -187500.02235174447, 9196.222924735896, -187500.02235174447, -187500.02235174447, -37145.11241258531, 6575.994977473614, -7724.092331420462, -70072.11537028734, 5853.743058889278, -18907.340634744243, -5843.1259802730065, 3847.8304562366557, -0.058, 0.99, 0.192, 192.0, 0.0, 0.0, 0.0, 0.0, 0.0, 0.0, 0.0, 0.0, 0.0, 1.695417999092365E9, 0.0, 2023-09-22 16:26:39.092
218.0, 25694.961928720706, 11997.634112552896, -35729.0846978527, -62840.90135585086, -187500.02235174447, 9169.177313944974, -187500.02235174447, -187500.02235174447, -37134.249464780034, 6583.885143266338, -7789.82881186352, -70068.82966385242, 5860.895617114976, -18938.56602174831, -5841.829579094599, 3793.9627520993654, -0.064, 0.996, 0.196, 192.0, 127.0, 0.0, 15.5, 16.0, 3.0, 16.0, 0.0, 0.0, 0.0, 1.695417999092368E9, 0.0, 2023-09-22 16:26:39.092
220.0, 25702.695632302242, 12005.144298689878, -35731.49868625387, -62835.91691683733, -187500.02235174447, 9218.39585523556, -187500.02235174447, -187500.02235174447, -37166.14540411776, 6554.604358029886, -7733.904747236342, -70099.42920201173, 5838.186244748384, -18903.45143120902, -5850.077372798607, 3870.808049536711, -0.064, 0.996, 0.196, 192.0, 0.0, 0.0, 0.0, 0.0, 0.0, 0.0, 0.0, 0.0, 0.0, 1.695417999092371E9, 0.0, 2023-09-22 16:26:39.092
222.0, 25710.563446350512, 12014.599086594473, -35719.51815122583, -62829.278448734105, -187500.02235174447, 9189.472697910393, -187500.02235174447, -187500.02235174447, -37152.30967429992, 6568.596550058908, -7779.547009414078, -70084.0959053154, 5840.086143027084, -18930.295876299846, -5860.82856188161, 3839.716772999379, -0.064, 0.996, 0.196, 192.0, 0.0, 0.0, 0.0, 0.0, 0.0, 0.0, 0.0, 0.0, 0.0, 1.695417999092375E9, 0.0, 2023-09-22 16:26:39.092
224.0, 25746.169775267816, 12048.081999788523, -35698.5745666712, -62800.08707047547, -187500.02235174447, 9220.943954103464, -187500.02235174447, -187500.02235174447, -37140.10562182732, 6588.131974712846, -7740.274994406104, -70066.97446906262, 5858.861608369542, -18907.02771032187, -5830.921927800408, 3886.454270655426, -0.064, 0.996, 0.196, 192.0, 0.0, 0.0, 0.0, 0.0, 0.0, 0.0, 0.0, 0.0, 0.0, 1.695417999092378E9, 0.0, 2023-09-22 16:26:39.092
226.0, 25749.075502047006, 12053.245252757699, -35685.56585139821, -62791.95103549374, -187500.02235174447, 9177.469811137893, -187500.02235174447, -187500.02235174447, -37114.758743615006, 6617.412759949299, -7768.996986031174, -70036.77726230351, 5871.758564920255, -18916.057815081815, -5829.245546966261, 3844.0530114237085, -0.064, 0.996, 0.196, 192.0, 0.0, 0.0, 0.0, 0.0, 0.0, 0.0, 0.0, 0.0, 0.0, 1.695417999152421E9, 0.0, 2023-09-22 16:26:39.152
228.0, 25737.296132719057, 12040.437703184809, -35695.89235733657, -62805.42913740029, -187500.02235174447, 9222.218003537417, -187500.02235174447, -187500.02235174447, -37125.17465653118, 6616.965725060192, -7736.542253082068, -70043.21456470664, 5877.301797545171, -18890.576826402765, -5819.611945106023, 3871.500953614826, -0.062, 0.99, 0.192, 192.0, 127.0, 8.0, 15.0, 120.0, 3.0, 0.0, 0.0, 0.0, 0.0, 1.695417999152431E9, 0.0, 2023-09-22 16:26:39.152
230.0, 25720.57702786649, 12020.477595386219, -35711.44917147746, -62819.95777129624, -187500.02235174447, 9161.644776063535, -187500.02235174447, -187500.02235174447, -37138.60805494882, 6591.820012547972, -7755.608291102445, -70062.66058238276, 5849.362116976037, -18910.42517547908, -5855.374736234515, 3849.171560903974, -0.062, 0.99, 0.192, 192.0, 0.0, 0.0, 0.0, 0.0, 0.0, 0.0, 0.0, 0.0, 0.0, 1.695417999152434E9, 0.0, 2023-09-22 16:26:39.152
232.0, 25708.641196327353, 12006.485403357197, -35721.48510473789, -62831.647733646365, -187500.02235174447, 9203.777814361789, -187500.02235174447, -187500.02235174447, -37154.34368304535, 6578.6771868082515, -7753.909558523841, -70082.15130354778, 5854.793590878677, -18917.957713360516, -5840.443770938369, 3859.587473820147, -0.062, 0.99, 0.192, 192.0, 0.0, 0.0, 0.0, 0.0, 0.0, 0.0, 0.0, 0.0, 0.0, 1.695417999152438E9, 0.0, 2023-09-22 16:26:39.152
234.0, 25703.388536380357, 12000.271618398621, -35732.81743917673, -62832.47474819121, -187500.02235174447, 9176.91101752651, -187500.02235174447, -187500.02235174447, -37171.04043615347, 6557.599491786897, -7746.734648553687, -70096.9928618661, 5827.703276598844, -18913.397957491634, -5869.389280007992, 3873.4455553824373, -0.062, 0.99, 0.192, 192.0, 0.0, 0.0, 0.0, 0.0, 0.0, 0.0, 0.0, 0.0, 0.0, 1.695417999152441E9, 0.0, 2023-09-22 16:26:39.152
236.0, 25719.88412378837, 12014.196755194278, -35717.662956436034, -62820.740082352175, -187500.02235174447, 9223.357942504637, -187500.02235174447, -187500.02235174447, -37165.36309306182, 6563.500352323098, -7751.808494545043, -70086.37578324984, 5840.15319826045, -18917.17540230458, -5849.116247787028, 3892.735110847367, -0.062, 0.99, 0.192, 192.0, 0.0, 0.0, 0.0, 0.0, 0.0, 0.0, 0.0, 0.0, 0.0, 1.695417999152444E9, 0.0, 2023-09-22 16:26:39.152
238.0, 25723.99684476815, 12023.09274948749, -35712.83497963369, -62809.09482349096, -187500.02235174447, 9178.565046616202, -187500.02235174447, -187500.02235174447, -37148.91220914271, 6582.812259532483, -7744.521825852612, -70063.62170739433, 5849.093896042574, -18918.203582549522, -5850.233835009794, 3899.4406341839594, -0.06, 0.988, 0.194, 192.0, 127.0, 16.0, 15.0, 112.0, 3.0, 8.0, 0.0, 0.0, 0.0, 1.695417999152447E9, 0.0, 2023-09-22 16:26:39.152
240.0, 25729.361263437422, 12024.1879849658, -35703.22372951791, -62807.82077405701, -187500.02235174447, 9217.546488946258, -187500.02235174447, -187500.02235174447, -37160.82568893739, 6585.136840955835, -7758.670480092822, -70072.69651564318, 5849.563282676135, -18925.78082391987, -5832.195977234362, 3899.239468483862, -0.06, 0.988, 0.194, 192.0, 0.0, 0.0, 0.0, 0.0, 0.0, 0.0, 0.0, 0.0, 0.0, 1.695417999215178E9, 0.0, 2023-09-22 16:26:39.215
242.0, 25736.044435029562, 12028.032485012112, -35710.68921216598, -62802.67987283229, -187500.02235174447, 9180.777869317279, -187500.02235174447, -187500.02235174447, -37142.854886395326, 6598.011445762092, -7734.307078636537, -70055.12804450131, 5859.822733381121, -18907.631207422164, -5836.241642980772, 3920.004239082842, -0.06, 0.988, 0.194, 192.0, 0.0, 0.0, 0.0, 0.0, 0.0, 0.0, 0.0, 0.0, 0.0, 1.695417999215196E9, 0.0, 2023-09-22 16:26:39.215
244.0, 25731.03764427157, 12020.432891897308, -35711.29270926627, -62814.54864913806, -187500.02235174447, 9217.211212779428, -187500.02235174447, -187500.02235174447, -37156.489450513065, 6586.0756142229575, -7765.82303831852, -70070.32723073092, 5854.5700734341235, -18924.216201808, -5826.563337631624, 3905.0285702977862, -0.06, 0.988, 0.194, 192.0, 0.0, 0.0, 0.0, 0.0, 0.0, 0.0, 0.0, 0.0, 0.0, 1.6954179992152E9, 0.0, 2023-09-22 16:26:39.215
246.0, 25744.605153155942, 12034.536842648607, -35708.47638946491, -62802.27754143209, -187500.02235174447, 9179.347357672139, -187500.02235174447, -187500.02235174447, -37139.25625553802, 6598.391425417832, -7738.6209653164115, -70051.84233806639, 5862.661404926945, -18905.12781204317, -5830.363134189026, 3933.2364718003837, -0.06, 0.988, 0.194, 192.0, 0.0, 0.0, 0.0, 0.0, 0.0, 0.0, 0.0, 0.0, 0.0, 1.695417999215203E9, 0.0, 2023-09-22 16:26:39.215
248.0, 25733.317522206013, 12021.595182608984, -35714.243139534374, -62818.14727999536, -187500.02235174447, 9202.995503305854, -187500.02235174447, -187500.02235174447, -37167.15123261824, 6579.437146119732, -7776.35070995697, -70075.80340812248, 5848.400991964459, -18927.256039053922, -5835.794608091665, 3902.3016574742387, -0.062, 0.996, 0.19, 192.0, 127.0, 8.0, 15.5, 16.0, 2.5, 120.0, 0.0, 0.0, 0.0, 1.695417999215211E9, 0.0, 2023-09-22 16:26:39.215
250.0, 25725.65087385784, 12016.767205806638, -35720.36751751513, -62821.18711724128, -187500.02235174447, 9191.193782233451, -187500.02235174447, -187500.02235174447, -37151.527363243986, 6589.987169502637, -7729.836729745475, -70063.35348646087, 5858.816904880632, -18901.775050374872, -5828.306773699138, 3945.328765550705, -0.062, 0.996, 0.19, 192.0, 0.0, 0.0, 0.0, 0.0, 0.0, 0.0, 0.0, 0.0, 0.0, 1.695417999215216E9, 0.0, 2023-09-22 16:26:39.215
252.0, 25718.85594354343, 12007.737101046694, -35717.99823260286, -62830.15016676786, -187500.02235174447, 9220.452215725449, -187500.02235174447, -187500.02235174447, -37184.20561363764, 6560.460515077176, -7765.845390062976, -70094.1988938092, 5832.643012123467, -18927.591315220754, -5849.719744887322, 3928.810826398233, -0.062, 0.996, 0.19, 192.0, 0.0, 0.0, 0.0, 0.0, 0.0, 0.0, 0.0, 0.0, 0.0, 1.695417999215219E9, 0.0, 2023-09-22 16:26:39.215
254.0, 25746.750920623654, 12035.877947315927, -35708.40933423154, -62800.690567575766, -187500.02235174447, 9204.24720099535, -187500.02235174447, -187500.02235174447, -37151.34854928834, 6581.381747887343, -7720.2478313741485, -70068.00264930757, 5855.39708797897, -18907.810021377805, -5836.599270892057, 3981.315074123749, -0.062, 0.996, 0.19, 192.0, 0.0, 0.0, 0.0, 0.0, 0.0, 0.0, 0.0, 0.0, 0.0, 1.695417999215223E9, 0.0, 2023-09-22 16:26:39.215
0.0, 25735.3738826959, 12019.918801774837, -35708.655203420545, -62815.48742240518, -187500.02235174447, 9205.454195195936, -187500.02235174447, -187500.02235174447, -37152.421433022195, 6587.9531607572035, -7783.503268182668, -70067.15328301827, 5857.2746345132155, -18944.26571658441, -5836.286346469682, 3929.548433965258, -0.062, 0.996, 0.19, 192.0, 0.0, 0.0, 0.0, 0.0, 0.0, 0.0, 0.0, 0.0, 0.0, 1.695417999273188E9, 0.0, 2023-09-22 16:26:39.273
2.0, 25746.214478756727, 12029.194775723789, -35715.80776164625, -62802.03167224309, -187500.02235174447, 9215.154852289541, -187500.02235174447, -187500.02235174447, -37160.28924707046, 6583.013425232581, -7713.743473737654, -70075.78105637802, 5851.351422232559, -18902.02091956388, -5833.291212712671, 4000.0458359772965, -0.058, 0.992, 0.186, 192.0, 127.0, 24.0, 15.5, 0.0, 2.5, 104.0, 0.0, 0.0, 0.0, 1.695417999273199E9, 0.0, 2023-09-22 16:26:39.273
4.0, 25735.53034490709, 12014.107348216457, -35715.13720931258, -62817.163803239324, -187500.02235174447, 9202.570820161203, -187500.02235174447, -187500.02235174447, -37153.49431675605, 6591.372977658865, -7777.088317523995, -70068.04735279648, 5855.151218789962, -18938.78953919286, -5836.3757534475035, 3948.614471985635, -0.058, 0.992, 0.186, 192.0, 0.0, 0.0, 0.0, 0.0, 0.0, 0.0, 0.0, 0.0, 0.0, 1.695417999273202E9, 0.0, 2023-09-22 16:26:39.273
6.0, 25745.00748455614, 12026.065531500046, -35718.46761923643, -62807.597256612455, -187500.02235174447, 9217.702951157446, -187500.02235174447, -187500.02235174447, -37158.299941813944, 6585.941503756226, -7713.832880715476, -70071.60128016488, 5853.653651911456, -18899.3610619737, -5835.682849369389, 4013.3004204392937, -0.058, 0.992, 0.186, 192.0, 0.0, 0.0, 0.0, 0.0, 0.0, 0.0, 0.0, 0.0, 0.0, 1.695417999273205E9, 0.0, 2023-09-22 16:26:39.273
8.0, 25726.924923291794, 12008.944095247281, -35722.982671616395, -62825.72452136571, -187500.02235174447, 9206.30356148524, -187500.02235174447, -187500.02235174447, -37167.06182564042, 6580.107698453391, -7763.9231400398185, -70077.90447210128, 5842.097800028062, -18927.121928587192, -5848.021012308719, 3970.161553640551, -0.058, 0.992, 0.186, 192.0, 0.0, 0.0, 0.0, 0.0, 0.0, 0.0, 0.0, 0.0, 0.0, 1.695417999273208E9, 0.0, 2023-09-22 16:26:39.273
10.0, 25747.533231679587, 12029.66416235735, -35718.60172970316, -62801.76345130962, -187500.02235174447, 9233.840910654177, -187500.02235174447, -187500.02235174447, -37173.49912804355, 6577.649006563307, -7707.127357378884, -70085.32525126044, 5842.589538406079, -18897.327053228266, -5841.628413394501, 4037.3732492176596, -0.058, 0.992, 0.186, 192.0, 0.0, 0.0, 0.0, 0.0, 0.0, 0.0, 0.0, 0.0, 0.0, 1.695417999273216E9, 0.0, 2023-09-22 16:26:39.273
12.0, 25737.43024318579, 12021.930458775814, -35706.30827025274, -62808.04429150156, -187500.02235174447, 9187.282226953772, -187500.02235174447, -187500.02235174447, -37135.25529328052, 6608.650876122818, -7774.562570400545, -70051.14943398826, 5870.216294552839, -18937.73900720346, -5821.645953851456, 3969.4462978179813, -0.056, 0.998, 0.184, 192.0, 127.0, 32.0, 15.5, 24.0, 2.5, 96.0, 0.0, 0.0, 0.0, 1.695417999273223E9, 0.0, 2023-09-22 16:26:39.273
14.0, 25745.05218804505, 12028.345409434487, -35709.32575575421, -62801.36111990942, -187500.02235174447, 9218.172337791008, -187500.02235174447, -187500.02235174447, -37164.44667153915, 6577.224323418656, -7721.588936041468, -70080.05023956898, 5850.613814665534, -18904.2113905205, -5821.15421547344, 4022.330525199238, -0.056, 0.998, 0.184, 192.0, 0.0, 0.0, 0.0, 0.0, 0.0, 0.0, 0.0, 0.0, 0.0, 1.69541799933202E9, 0.0, 2023-09-22 16:26:39.332
16.0, 25731.462327416222, 12013.302685416065, -35709.281052265294, -62813.49811714866, -187500.02235174447, 9180.956683272922, -187500.02235174447, -187500.02235174447, -37148.39811902024, 6591.976474759159, -7766.068907507528, -70063.91228007225, 5858.191056035884, -18924.685588441564, -5829.4467126663585, 3976.8670769771434, -0.056, 0.998, 0.184, 192.0, 0.0, 0.0, 0.0, 0.0, 0.0, 0.0, 0.0, 0.0, 0.0, 1.695417999332034E9, 0.0, 2023-09-22 16:26:39.332
18.0, 25741.386501954377, 12021.483423886708, -35709.12459005411, -62806.50202113415, -187500.02235174447, 9221.994486092864, -187500.02235174447, -187500.02235174447, -37153.20374407813, 6584.734509555639, -7723.287668620071, -70074.2387860106, 5857.788724635688, -18900.903332341117, -5821.735360829278, 4023.269298466361, -0.056, 0.998, 0.184, 192.0, 0.0, 0.0, 0.0, 0.0, 0.0, 0.0, 0.0, 0.0, 0.0, 1.695417999332038E9, 0.0, 2023-09-22 16:26:39.332
20.0, 25725.986150024673, 12005.121946945423, -35725.10608733965, -62823.31053296453, -187500.02235174447, 9191.663168867013, -187500.02235174447, -187500.02235174447, -37151.527363243986, 6583.661625821785, -7743.895977007864, -70076.45160871168, 5841.941337816875, -18918.36004476071, -5837.716858114822, 4000.1799464440282, -0.056, 0.998, 0.184, 192.0, 0.0, 0.0, 0.0, 0.0, 0.0, 0.0, 0.0, 0.0, 0.0, 1.695417999332041E9, 0.0, 2023-09-22 16:26:39.332
22.0, 25751.19891777026, 12033.709828103762, -35706.73295339739, -62799.72944256419, -187500.02235174447, 9228.431788495993, -187500.02235174447, -187500.02235174447, -37138.33983401535, 6595.440995149732, -7721.6559912748335, -70065.07457078392, 5852.647823410967, -18913.420309236088, -5821.91417478492, 4036.300365483805, -0.058, 0.998, 0.182, 192.0, 127.0, 24.0, 15.5, 24.0, 2.5, 88.0, 0.0, 0.0, 0.0, 1.695417999332045E9, 0.0, 2023-09-22 16:26:39.332
24.0, 25744.56044966703, 12029.977086779725, -35711.180950543996, -62800.24353268666, -187500.02235174447, 9181.090793739653, -187500.02235174447, -187500.02235174447, -37119.229092506066, 6617.1221872713795, -7733.1000844359505, -70043.39337866228, 5855.575901934612, -18924.35031227473, -5835.615794136023, 4013.0769029947405, -0.058, 0.998, 0.182, 192.0, 0.0, 0.0, 0.0, 0.0, 0.0, 0.0, 0.0, 0.0, 0.0, 1.695417999332048E9, 0.0, 2023-09-22 16:26:39.332
26.0, 25755.155176538847, 12042.516415419152, -35711.8291511332, -62792.219256427205, -187500.02235174447, 9225.59311695017, -187500.02235174447, -187500.02235174447, -37125.17465653118, 6614.998771548125, -7717.476215061691, -70049.65186710976, 5855.486494956791, -18916.616608693195, -5828.597346377057, 4034.9145573275755, -0.058, 0.998, 0.182, 192.0, 0.0, 0.0, 0.0, 0.0, 0.0, 0.0, 0.0, 0.0, 0.0, 1.695417999332052E9, 0.0, 2023-09-22 16:26:39.332
28.0, 25752.13769103738, 12044.751589864683, -35711.02448833281, -62791.52635234909, -187500.02235174447, 9170.116087212096, -187500.02235174447, -187500.02235174447, -37102.219414975574, 6640.747981160639, -7725.299325621048, -70024.41674761972, 5863.01903283823, -18923.657408196617, -5831.234852222783, 4018.8660048086654, -0.058, 0.998, 0.182, 192.0, 0.0, 0.0, 0.0, 0.0, 0.0, 0.0, 0.0, 0.0, 0.0, 1.695417999332055E9, 0.0, 2023-09-22 16:26:39.332
30.0, 25738.01138854163, 12032.14520599189, -35719.562854714735, -62806.14439322286, -187500.02235174447, 9220.899250614555, -187500.02235174447, -187500.02235174447, -37119.4079064617, 6625.638201908851, -7728.585032055978, -70040.80057630547, 5857.0958205575735, -18926.250210553433, -5822.383561418482, 4019.8271298202435, -0.058, 0.998, 0.182, 192.0, 0.0, 0.0, 0.0, 0.0, 0.0, 0.0, 0.0, 0.0, 0.0, 1.695417999395302E9, 0.0, 2023-09-22 16:26:39.395
32.0, 25745.275705489603, 12046.673839887839, -35719.33933727018, -62792.912160505315, -187500.02235174447, 9182.588360618158, -187500.02235174447, -187500.02235174447, -37114.78109535946, 6625.973478075681, -7707.8649649459085, -70037.87249778182, 5843.707125628845, -18916.393091248643, -5838.007430792741, 4037.909691084587, -0.054, 0.99, 0.186, 192.0, 127.0, 40.0, 15.0, 120.0, 2.5, 104.0, 0.0, 0.0, 0.0, 1.695417999395315E9, 0.0, 2023-09-22 16:26:39.395
34.0, 25743.3758072109, 12046.562081165563, -35711.20330228845, -62802.009320498626, -187500.02235174447, 9211.220945265406, -187500.02235174447, -187500.02235174447, -37107.29326096693, 6639.116303815402, -7735.1564449258385, -70028.9317999997, 5857.185227535395, -18932.396940278642, -5819.880166039487, 4017.9495832859975, -0.054, 0.99, 0.186, 192.0, 0.0, 0.0, 0.0, 0.0, 0.0, 0.0, 0.0, 0.0, 0.0, 1.695417999395318E9, 0.0, 2023-09-22 16:26:39.395
36.0, 25737.631408885885, 12041.801159596582, -35723.31794778323, -62803.417480399316, -187500.02235174447, 9184.421203663493, -187500.02235174447, -187500.02235174447, -37110.5119121685, 6639.183359048768, -7698.656046230322, -70031.07756746741, 5846.6799076414, -18905.373681232177, -5831.905404556443, 4044.838731865732, -0.054, 0.99, 0.186, 192.0, 0.0, 0.0, 0.0, 0.0, 0.0, 0.0, 0.0, 0.0, 0.0, 1.695417999395321E9, 0.0, 2023-09-22 16:26:39.395
38.0, 25714.072670229994, 12015.04612148358, -35728.0341658633, -62830.753663868156, -187500.02235174447, 9228.275326284805, -187500.02235174447, -187500.02235174447, -37130.71788915609, 6621.0560942955135, -7728.2274041446935, -70050.07655025441, 5838.320355215115, -18924.305608785824, -5834.654669124445, 4027.449074679503, -0.054, 0.99, 0.186, 192.0, 0.0, 0.0, 0.0, 0.0, 0.0, 0.0, 0.0, 0.0, 0.0, 1.695417999395324E9, 0.0, 2023-09-22 16:26:39.395
40.0, 25737.497298419155, 12041.220014240744, -35713.68434592299, -62802.836335043474, -187500.02235174447, 9199.933314315476, -187500.02235174447, -187500.02235174447, -37125.86756060929, 6625.727608886673, -7678.8076971540095, -70047.10376824185, 5838.275651726205, -18899.11519278469, -5845.227044251806, 4079.6851014715558, -0.054, 0.99, 0.186, 192.0, 0.0, 0.0, 0.0, 0.0, 0.0, 0.0, 0.0, 0.0, 0.0, 1.695417999395328E9, 0.0, 2023-09-22 16:26:39.395
42.0, 25736.446766429755, 12041.890566574404, -35702.7766946288, -62803.46218388822, -187500.02235174447, 9210.036302809274, -187500.02235174447, -187500.02235174447, -37112.501217425015, 6632.9695740901925, -7736.318735637515, -70037.35840765934, 5849.071544298118, -18935.392074035655, -5833.8500063240535, 4031.092409025718, -0.048, 1.0, 0.184, 192.0, 127.0, 64.0, 15.5, 32.0, 2.5, 96.0, 0.0, 0.0, 0.0, 1.695417999395331E9, 0.0, 2023-09-22 16:26:39.395
44.0, 25732.199934983248, 12040.23653748471, -35714.801933145754, -62800.17647745329, -187500.02235174447, 9197.25110498084, -187500.02235174447, -187500.02235174447, -37111.69655462463, 6637.596385192441, -7689.871810659387, -70033.49155586858, 5851.485532699291, -18902.579713175262, -5836.241642980772, 4073.761889190899, -0.048, 1.0, 0.184, 192.0, 0.0, 0.0, 0.0, 0.0, 0.0, 0.0, 0.0, 0.0, 0.0, 1.695417999454212E9, 0.0, 2023-09-22 16:26:39.454
46.0, 25727.126088991892, 12034.693304859795, -35707.537616197784, -62803.842163543966, -187500.02235174447, 9210.148061531552, -187500.02235174447, -187500.02235174447, -37129.82381937788, 6619.335009972455, -7745.550006097556, -70050.81415782144, 5837.91802381492, -18930.586448977763, -5848.065715797629, 4039.2060922629944, -0.048, 1.0, 0.184, 192.0, 0.0, 0.0, 0.0, 0.0, 0.0, 0.0, 0.0, 0.0, 0.0, 1.695417999454228E9, 0.0, 2023-09-22 16:26:39.454
48.0, 25732.80343208354, 12041.152959007379, -35716.85829363565, -62797.58367509648, -187500.02235174447, 9208.672846397501, -187500.02235174447, -187500.02235174447, -37112.94825231413, 6630.175606033279, -7697.493755518646, -70035.54791635847, 5850.479704198802, -18901.37271897468, -5836.889843569976, 4086.6811974860666, -0.048, 1.0, 0.184, 192.0, 0.0, 0.0, 0.0, 0.0, 0.0, 0.0, 0.0, 0.0, 0.0, 1.695417999454231E9, 0.0, 2023-09-22 16:26:39.454
50.0, 25729.540077393067, 12039.633040384417, -35700.25094750535, -62796.71195706272, -187500.02235174447, 9193.7195293569, -187500.02235174447, -187500.02235174447, -37111.62949939126, 6630.421475222287, -7762.313814439037, -70034.38562564678, 5850.099724543063, -18940.689437471563, -5840.86845408302, 4034.959260816486, -0.048, 1.0, 0.184, 192.0, 0.0, 0.0, 0.0, 0.0, 0.0, 0.0, 0.0, 0.0, 0.0, 1.695417999454235E9, 0.0, 2023-09-22 16:26:39.454
52.0, 25725.963798280216, 12040.325944462533, -35721.01571810433, -62796.37668089589, -187500.02235174447, 9202.72728237239, -187500.02235174447, -187500.02235174447, -37121.665432651695, 6627.471044954186, -7702.321732320993, -70040.82292804992, 5846.970480319319, -18899.539875929342, -5833.268860968216, 4087.3964533086364, -0.052000000000000005, 0.996, 0.184, 192.0, 127.0, 48.0, 15.5, 16.0, 2.5, 96.0, 0.0, 0.0, 0.0, 1.695417999454238E9, 0.0, 2023-09-22 16:26:39.454
54.0, 25718.163039465315, 12029.977086779725, -35711.672688922015, -62803.28336993258, -187500.02235174447, 9179.459116394415, -187500.02235174447, -187500.02235174447, -37116.8598075938, 6633.349553745932, -7767.789991830587, -70038.00660824854, 5846.948128574864, -18934.83328042427, -5838.990907548775, 4028.32079271326, -0.052000000000000005, 0.996, 0.184, 192.0, 0.0, 0.0, 0.0, 0.0, 0.0, 0.0, 0.0, 0.0, 0.0, 1.695417999454242E9, 0.0, 2023-09-22 16:26:39.454
56.0, 25712.932731262772, 12022.690418087295, -35724.48023849491, -62810.391224669365, -187500.02235174447, 9207.53290743028, -187500.02235174447, -187500.02235174447, -37136.59639794784, 6610.97545754617, -7707.797909712543, -70062.88409982731, 5838.163893003928, -18897.997605561926, -5835.302869713649, 4086.5247352748797, -0.052000000000000005, 0.996, 0.184, 192.0, 0.0, 0.0, 0.0, 0.0, 0.0, 0.0, 0.0, 0.0, 0.0, 1.695417999454245E9, 0.0, 2023-09-22 16:26:39.454
58.0, 25733.250466972648, 12044.461017186764, -35689.47740667789, -62787.458334858224, -187500.02235174447, 9154.246348648829, -187500.02235174447, -187500.02235174447, -37111.42833369116, 6626.1075885424125, -7771.701547110266, -70044.82389030742, 5846.568148919124, -18940.242402582455, -5843.885939584487, 4028.611365391179, -0.052000000000000005, 0.996, 0.184, 192.0, 0.0, 0.0, 0.0, 0.0, 0.0, 0.0, 0.0, 0.0, 0.0, 1.695417999454248E9, 0.0, 2023-09-22 16:26:39.454
60.0, 25719.66060634382, 12028.770092579138, -35714.198436045466, -62811.68762584778, -187500.02235174447, 9186.634026364569, -187500.02235174447, -187500.02235174447, -37106.86857782228, 6638.557510204018, -7720.985438941174, -70041.33701817239, 5861.342652004082, -18911.02867257937, -5820.595421862057, 4058.6074064502013, -0.052000000000000005, 0.996, 0.184, 192.0, 0.0, 0.0, 0.0, 0.0, 0.0, 0.0, 0.0, 0.0, 0.0, 1.695417999512086E9, 0.0, 2023-09-22 16:26:39.512
62.0, 25705.33313814797, 12015.627266839418, -35711.672688922015, -62826.59623939946, -187500.02235174447, 9151.586491058648, -187500.02235174447, -187500.02235174447, -37117.99974656102, 6619.469120439187, -7754.53540736859, -70053.94340204519, 5840.019087793718, -18938.476614770487, -5860.761506648244, 4021.682324610034, -0.05, 1.002, 0.184, 192.0, 127.0, 56.0, 15.5, 40.0, 2.5, 96.0, 0.0, 0.0, 0.0, 1.695417999512099E9, 0.0, 2023-09-22 16:26:39.512
64.0, 25693.21849265319, 12005.658388812351, -35732.10218335417, -62840.99076282868, -187500.02235174447, 9211.511517943325, -187500.02235174447, -187500.02235174447, -37145.984130619065, 6588.936637513237, -7701.785290454065, -70081.1901785362, 5826.429227164892, -18914.3143790143, -5867.869361385031, 4081.227371838972, -0.05, 1.002, 0.184, 192.0, 0.0, 0.0, 0.0, 0.0, 0.0, 0.0, 0.0, 0.0, 0.0, 1.695417999512103E9, 0.0, 2023-09-22 16:26:39.512
66.0, 25699.834609011963, 12015.202583694767, -35720.23340704839, -62826.03744578808, -187500.02235174447, 9172.328909913173, -187500.02235174447, -187500.02235174447, -37134.316520013395, 6597.251486450611, -7733.882395491886, -70072.85297785437, 5820.528366628691, -18941.807024694328, -5886.778937194221, 4060.5073047289025, -0.05, 1.002, 0.184, 192.0, 0.0, 0.0, 0.0, 0.0, 0.0, 0.0, 0.0, 0.0, 0.0, 1.695417999512106E9, 0.0, 2023-09-22 16:26:39.512
68.0, 25706.853056770928, 12022.2880866871, -35727.02833736281, -62817.63318987289, -187500.02235174447, 9211.01977956531, -187500.02235174447, -187500.02235174447, -37137.35635725932, 6601.475966152664, -7716.671552261299, -70073.52353018803, 5834.520558657713, -18934.877983913182, -5858.705146158355, 4086.0553486413182, -0.05, 1.002, 0.184, 192.0, 0.0, 0.0, 0.0, 0.0, 0.0, 0.0, 0.0, 0.0, 0.0, 1.695417999512109E9, 0.0, 2023-09-22 16:26:39.512
70.0, 25710.742260306153, 12028.61363036795, -35711.71739241092, -62808.938361279776, -187500.02235174447, 9154.536921326748, -187500.02235174447, -187500.02235174447, -37115.026964548466, 6624.542966430541, -7755.027145746607, -70045.60620136335, 5842.947166317364, -18951.306516087832, -5864.7848206501985, 4037.7755806178548, -0.05, 1.002, 0.184, 192.0, 0.0, 0.0, 0.0, 0.0, 0.0, 0.0, 0.0, 0.0, 0.0, 1.695417999512113E9, 0.0, 2023-09-22 16:26:39.512
72.0, 25708.127106204884, 12023.629191354417, -35717.484142480396, -62819.51073640714, -187500.02235174447, 9204.426014950994, -187500.02235174447, -187500.02235174447, -37147.1687730752, 6597.363245172888, -7731.580165812989, -70072.40594296527, 5828.776160332699, -18935.32501880229, -5858.548683947169, 4059.6579384396005, -0.052000000000000005, 0.996, 0.184, 192.0, 127.0, 48.0, 15.5, 16.0, 2.5, 96.0, 0.0, 0.0, 0.0, 1.695417999512116E9, 0.0, 2023-09-22 16:26:39.512
74.0, 25703.27677765808, 12018.935325018803, -35719.67461343701, -62816.33678869448, -187500.02235174447, 9163.142342942041, -187500.02235174447, -187500.02235174447, -37138.3174822709, 6596.513878883587, -7734.2176716587155, -70065.56630916195, 5823.188224218872, -18940.063588626814, -5875.446602755381, 4052.907711614098, -0.052000000000000005, 0.996, 0.184, 192.0, 0.0, 0.0, 0.0, 0.0, 0.0, 0.0, 0.0, 0.0, 0.0, 1.695417999571733E9, 0.0, 2023-09-22 16:26:39.571
76.0, 25696.504199088122, 12011.983932493202, -35723.45205824996, -62826.28331497709, -187500.02235174447, 9219.088759313674, -187500.02235174447, -187500.02235174447, -37151.63912196626, 6589.450727635709, -7733.860043747431, -70072.67416389873, 5825.177529475395, -18942.566984005807, -5857.140524046484, 4064.910598386598, -0.052000000000000005, 0.996, 0.184, 192.0, 0.0, 0.0, 0.0, 0.0, 0.0, 0.0, 0.0, 0.0, 0.0, 1.695417999571744E9, 0.0, 2023-09-22 16:26:39.571
78.0, 25693.84434149794, 12012.430967382308, -35728.21297981894, -62829.56902141202, -187500.02235174447, 9176.061651237209, -187500.02235174447, -187500.02235174447, -37151.48265975507, 6588.310788668488, -7725.902822721341, -70074.41759996624, 5818.561413116624, -18934.185079835068, -5882.062719114151, 4068.866857155187, -0.052000000000000005, 0.996, 0.184, 192.0, 0.0, 0.0, 0.0, 0.0, 0.0, 0.0, 0.0, 0.0, 0.0, 1.695417999571747E9, 0.0, 2023-09-22 16:26:39.571
80.0, 25714.251484185635, 12030.871156557938, -35703.179026029, -62810.83825955848, -187500.02235174447, 9204.068387039708, -187500.02235174447, -187500.02235174447, -37153.85194466734, 6589.517782869075, -7753.015488745629, -70074.30584124397, 5827.300945198649, -18947.84199569726, -5863.801343894165, 4052.974766847464, -0.052000000000000005, 0.996, 0.184, 192.0, 0.0, 0.0, 0.0, 0.0, 0.0, 0.0, 0.0, 0.0, 0.0, 1.695417999571751E9, 0.0, 2023-09-22 16:26:39.571
82.0, 25714.966740008207, 12034.849767070982, -35713.907863367545, -62810.79355606956, -187500.02235174447, 9167.76915404429, -187500.02235174447, -187500.02235174447, -37135.858790380815, 6605.16400398779, -7734.307078636537, -70057.69849511367, 5832.933584801386, -18932.486347256465, -5863.577826449612, 4052.281862769349, -0.052000000000000005, 0.996, 0.188, 192.0, 127.0, 48.0, 15.5, 16.0, 2.5, 112.0, 0.0, 0.0, 0.0, 1.695417999571754E9, 0.0, 2023-09-22 16:26:39.571
84.0, 25709.89289401685, 12031.497005402685, -35713.147904056066, -62825.366893454426, -187500.02235174447, 9191.216133977907, -187500.02235174447, -187500.02235174447, -37136.23877003655, 6606.035722021547, -7768.415840675336, -70054.8374718234, 5839.125018015507, -18949.496024786953, -5856.894654857476, 4022.330525199238, -0.052000000000000005, 0.996, 0.188, 192.0, 0.0, 0.0, 0.0, 0.0, 0.0, 0.0, 0.0, 0.0, 0.0, 1.695417999571757E9, 0.0, 2023-09-22 16:26:39.571
86.0, 25720.822897055496, 12047.031467799125, -35713.416124989526, -62809.34069267997, -187500.02235174447, 9160.460133607405, -187500.02235174447, -187500.02235174447, -37147.1687730752, 6594.770442816072, -7729.792026256565, -70067.041524296, 5821.2883259401715, -18927.948943132036, -5874.753698677266, 4052.5053802139023, -0.052000000000000005, 0.996, 0.188, 192.0, 0.0, 0.0, 0.0, 0.0, 0.0, 0.0, 0.0, 0.0, 0.0, 1.695417999571761E9, 0.0, 2023-09-22 16:26:39.571
88.0, 25711.591626595455, 12036.637906627406, -35704.92246209651, -62818.23668697318, -187500.02235174447, 9180.509648383815, -187500.02235174447, -187500.02235174447, -37135.791735147446, 6606.169832488279, -7777.088317523995, -70052.17761423321, 5841.3601924610375, -18957.073266157302, -5855.2182740233275, 4005.5890686022126, -0.052000000000000005, 0.996, 0.188, 192.0, 0.0, 0.0, 0.0, 0.0, 0.0, 0.0, 0.0, 0.0, 0.0, 1.695417999571764E9, 0.0, 2023-09-22 16:26:39.571
90.0, 25711.07753647298, 12037.755493850173, -35715.91952036852, -62809.81007931353, -187500.02235174447, 9165.221055176384, -187500.02235174447, -187500.02235174447, -37150.36507253231, 6594.815146304983, -7719.3090581070255, -70063.53230041651, 5821.713009084822, -18918.807079649818, -5869.143410818984, 4050.8289993797544, -0.052000000000000005, 0.996, 0.188, 192.0, 0.0, 0.0, 0.0, 0.0, 0.0, 0.0, 0.0, 0.0, 0.0, 1.695417999632067E9, 0.0, 2023-09-22 16:26:39.632
92.0, 25700.929844490274, 12024.14328147689, -35715.56189245723, -62821.56709689702, -187500.02235174447, 9175.547561114736, -187500.02235174447, -187500.02235174447, -37142.25138929503, 6600.291323696533, -7779.837582091997, -70056.0891695129, 5831.525424900702, -18951.820606210305, -5854.950053089864, 3996.558963842269, -0.054, 0.996, 0.186, 192.0, 127.0, 40.0, 15.5, 16.0, 2.5, 104.0, 0.0, 0.0, 0.0, 1.695417999632079E9, 0.0, 2023-09-22 16:26:39.632
94.0, 25713.491524874156, 12040.638868884906, -35721.28393903779, -62803.21631469922, -187500.02235174447, 9166.070421465685, -187500.02235174447, -187500.02235174447, -37147.816973664405, 6594.792794560528, -7719.376113340392, -70064.58283240591, 5821.355381173537, -18917.063643582303, -5868.562265463146, 4044.771676632366, -0.054, 0.996, 0.186, 192.0, 0.0, 0.0, 0.0, 0.0, 0.0, 0.0, 0.0, 0.0, 0.0, 1.695417999632083E9, 0.0, 2023-09-22 16:26:39.632
96.0, 25706.048393970537, 12034.246269970688, -35707.42585747551, -62808.13369847938, -187500.02235174447, 9158.739049284346, -187500.02235174447, -187500.02235174447, -37136.886970625754, 6609.2543732231115, -7781.379852459414, -70051.37295143283, 5832.195977234362, -18956.492120801464, -5851.5749396771125, 3979.7504520118778, -0.054, 0.996, 0.186, 192.0, 0.0, 0.0, 0.0, 0.0, 0.0, 0.0, 0.0, 0.0, 0.0, 1.695417999632086E9, 0.0, 2023-09-22 16:26:39.632
98.0, 25710.5187428616, 12041.95762180777, -35715.718354668425, -62796.823715784994, -187500.02235174447, 9168.90909301151, -187500.02235174447, -187500.02235174447, -37151.862639410814, 6593.138765470835, -7711.932982436774, -70063.0852655274, 5817.376770660493, -18911.58746619075, -5857.185227535395, 4038.4461329515143, -0.054, 0.996, 0.186, 192.0, 0.0, 0.0, 0.0, 0.0, 0.0, 0.0, 0.0, 0.0, 0.0, 1.695417999632089E9, 0.0, 2023-09-22 16:26:39.632
100.0, 25705.75782129262, 12040.23653748471, -35704.318964996215, -62800.109422219924, -187500.02235174447, 9151.631194547557, -187500.02235174447, -187500.02235174447, -37133.48950546855, 6612.718893613684, -7780.865762336942, -70045.09211124088, 5827.345648687559, -18954.636926011673, -5853.966576333831, 3970.876809463121, -0.054, 0.996, 0.186, 192.0, 0.0, 0.0, 0.0, 0.0, 0.0, 0.0, 0.0, 0.0, 0.0, 1.695417999632093E9, 0.0, 2023-09-22 16:26:39.632
102.0, 25701.265120657103, 12036.637906627406, -35722.87091289412, -62803.93157052178, -187500.02235174447, 9168.551465100225, -187500.02235174447, -187500.02235174447, -37144.82183990739, 6605.052245265513, -7721.141901152361, -70054.52454740102, 5821.690657340367, -18912.101556313224, -5855.419439723425, 4020.944717043009, -0.056, 0.996, 0.188, 192.0, 127.0, 32.0, 15.5, 16.0, 2.5, 112.0, 0.0, 0.0, 0.0, 1.695417999632096E9, 0.0, 2023-09-22 16:26:39.632
104.0, 25705.355489892423, 12041.354124707475, -35710.93508135499, -62804.311550177525, -187500.02235174447, 9150.580662558159, -187500.02235174447, -187500.02235174447, -37156.6682644687, 6595.664512594284, -7774.048480278073, -70063.39818994977, 5807.6090583335235, -18939.03540838187, -5876.385376022503, 3974.9224752095315, -0.056, 0.996, 0.188, 192.0, 0.0, 0.0, 0.0, 0.0, 0.0, 0.0, 0.0, 0.0, 0.0, 1.695417999692477E9, 0.0, 2023-09-22 16:26:39.692
106.0, 25713.80444929653, 12047.09852303249, -35713.773752900815, -62802.88103853239, -187500.02235174447, 9173.424145391482, -187500.02235174447, -187500.02235174447, -37141.44672649464, 6609.857870323404, -7723.24296513116, -70052.55759388895, 5825.646916108956, -18904.121983542682, -5849.809151865144, 4017.3013826967936, -0.056, 0.996, 0.188, 192.0, 0.0, 0.0, 0.0, 0.0, 0.0, 0.0, 0.0, 0.0, 0.0, 1.695417999692489E9, 0.0, 2023-09-22 16:26:39.692
108.0, 25694.5148938316, 12028.591278623495, -35724.815514661736, -62825.29983822106, -187500.02235174447, 9146.087961922642, -187500.02235174447, -187500.02235174447, -37143.3689765178, 6606.303942955011, -7771.813305832542, -70052.37877993331, 5814.046360736652, -18935.66029496912, -5873.792573665688, 3964.394803571082, -0.056, 0.996, 0.188, 192.0, 0.0, 0.0, 0.0, 0.0, 0.0, 0.0, 0.0, 0.0, 0.0, 1.695417999692492E9, 0.0, 2023-09-22 16:26:39.692
110.0, 25713.647987085344, 12046.763246865661, -35720.21105530394, -62810.77120432511, -187500.02235174447, 9171.211322690408, -187500.02235174447, -187500.02235174447, -37154.58955223436, 6591.954123014703, -7724.8299389874865, -70066.39332370678, 5809.978343245786, -18911.922742357583, -5870.1268875750175, 4013.188661717017, -0.056, 0.996, 0.188, 192.0, 0.0, 0.0, 0.0, 0.0, 0.0, 0.0, 0.0, 0.0, 0.0, 1.695417999692495E9, 0.0, 2023-09-22 16:26:39.692
112.0, 25705.914283503807, 12039.00719153967, -35717.59590120267, -62819.1754602403, -187500.02235174447, 9126.910165179988, -187500.02235174447, -187500.02235174447, -37134.942368858145, 6610.662533123796, -7778.585884402501, -70043.75100657357, 5827.166834731917, -18949.339562575766, -5870.864495142043, 3946.9827946403975, -0.056, 0.994, 0.19, 192.0, 127.0, 32.0, 15.5, 8.0, 2.5, 120.0, 0.0, 0.0, 0.0, 1.695417999692498E9, 0.0, 2023-09-22 16:26:39.692
114.0, 25708.708251560718, 12040.929441562825, -35725.46371525094, -62817.29791370606, -187500.02235174447, 9179.05678499422, -187500.02235174447, -187500.02235174447, -37155.52832550148, 6589.987169502637, -7726.729837266188, -70069.67903014172, 5814.336933414571, -18919.544687216843, -5870.909198630953, 3994.0779202077297, -0.056, 0.994, 0.19, 192.0, 0.0, 0.0, 0.0, 0.0, 0.0, 0.0, 0.0, 0.0, 0.0, 1.695417999692502E9, 0.0, 2023-09-22 16:26:39.692
116.0, 25690.446876340735, 12023.42802565432, -35731.521037998325, -62833.21235575824, -187500.02235174447, 9137.393133329528, -187500.02235174447, -187500.02235174447, -37141.379671261275, 6602.146518486324, -7760.615081860434, -70053.00462877806, 5822.070636996107, -18944.84686194025, -5873.97138762133, 3945.194655083973, -0.056, 0.994, 0.19, 192.0, 0.0, 0.0, 0.0, 0.0, 0.0, 0.0, 0.0, 0.0, 0.0, 1.695417999692505E9, 0.0, 2023-09-22 16:26:39.692
118.0, 25681.953213447716, 12016.655447084362, -35747.97192191743, -62841.59425992898, -187500.02235174447, 9194.814764835211, -187500.02235174447, -187500.02235174447, -37184.07150317091, 6559.097058665402, -7717.677380761788, -70096.59053046591, 5790.822898247588, -18921.735158173462, -5884.677873215423, 3995.2178591749503, -0.056, 0.994, 0.19, 192.0, 0.0, 0.0, 0.0, 0.0, 0.0, 0.0, 0.0, 0.0, 0.0, 1.69541799969251E9, 0.0, 2023-09-22 16:26:39.692
120.0, 25701.265120657103, 12038.358990950464, -35720.121648326116, -62815.19684972726, -187500.02235174447, 9133.861557705588, -187500.02235174447, -187500.02235174447, -37155.05893886792, 6581.806431031994, -7743.359535140937, -70068.27087024103, 5809.1960321898505, -18947.3726090637, -5891.40574829647, 3968.842800717688, -0.056, 0.994, 0.19, 192.0, 0.0, 0.0, 0.0, 0.0, 0.0, 0.0, 0.0, 0.0, 0.0, 1.695417999752693E9, 0.0, 2023-09-22 16:26:39.752
122.0, 25691.676222285776, 12028.1889472233, -35726.916578640536, -62827.71382662223, -187500.02235174447, 9177.223941948885, -187500.02235174447, -187500.02235174447, -37154.43309002317, 6587.148497956812, -7738.866834505419, -70068.00264930757, 5824.886956797476, -18947.3726090637, -5857.788724635688, 3965.35592858266, -0.058, 0.992, 0.192, 192.0, 127.0, 24.0, 15.5, 0.0, 3.0, 0.0, 0.0, 0.0, 0.0, 1.695417999752704E9, 0.0, 2023-09-22 16:26:39.752
124.0, 25701.399231123833, 12038.358990950464, -35723.8320379057, -62817.49907940616, -187500.02235174447, 9118.885888920533, -187500.02235174447, -187500.02235174447, -37150.320369043395, 6587.439070634731, -7744.655936319344, -70063.21937599413, 5818.092026483063, -18949.18310036458, -5884.677873215423, 3949.419134786026, -0.058, 0.992, 0.192, 192.0, 0.0, 0.0, 0.0, 0.0, 0.0, 0.0, 0.0, 0.0, 0.0, 1.695417999752708E9, 0.0, 2023-09-22 16:26:39.752
126.0, 25672.99016392114, 12008.832336525003, -35741.713433469944, -62843.7847308856, -187500.02235174447, 9181.7166425844, -187500.02235174447, -187500.02235174447, -37171.241601853566, 6566.830762246938, -7747.852235776453, -70084.1406088043, 5807.564354844613, -18940.309457815823, -5875.714823688844, 3949.4414865304816, -0.058, 0.992, 0.192, 192.0, 0.0, 0.0, 0.0, 0.0, 0.0, 0.0, 0.0, 0.0, 0.0, 1.695417999752711E9, 0.0, 2023-09-22 16:26:39.752
128.0, 25686.669431527785, 12021.416368653343, -35732.37040428763, -62827.06562603303, -187500.02235174447, 9134.219185616874, -187500.02235174447, -187500.02235174447, -37166.68184598468, 6568.440087847721, -7730.350819867947, -70076.38455347832, 5799.383616373971, -18927.054873353823, -5901.084053645618, 3966.3394053386937, -0.058, 0.992, 0.192, 192.0, 0.0, 0.0, 0.0, 0.0, 0.0, 0.0, 0.0, 0.0, 0.0, 1.695417999752715E9, 0.0, 2023-09-22 16:26:39.752
130.0, 25682.288489614548, 12016.431929639808, -35729.3305670417, -62831.580678412996, -187500.02235174447, 9177.603921604625, -187500.02235174447, -187500.02235174447, -37171.91215418722, 6569.49061983712, -7760.436267904791, -70077.61389942335, 5806.759692044222, -18948.110216630725, -5883.06854761464, 3941.2160445709283, -0.058, 0.992, 0.192, 192.0, 0.0, 0.0, 0.0, 0.0, 0.0, 0.0, 0.0, 0.0, 0.0, 1.695417999752718E9, 0.0, 2023-09-22 16:26:39.752
132.0, 25686.960004205706, 12018.75651106316, -35732.54921824327, -62826.59623939946, -187500.02235174447, 9142.57873804316, -187500.02235174447, -187500.02235174447, -37171.710988487124, 6572.351643127399, -7726.618078543911, -70070.39428596428, 5801.462328608314, -18931.949905389538, -5896.12196637654, 3961.332614580705, -0.06, 0.992, 0.192, 192.0, 127.0, 16.0, 15.5, 0.0, 3.0, 0.0, 0.0, 0.0, 0.0, 1.695417999752721E9, 0.0, 2023-09-22 16:26:39.752
134.0, 25688.65873678431, 12018.823566296527, -35722.06625009373, -62831.580678412996, -187500.02235174447, 9162.71765979739, -187500.02235174447, -187500.02235174447, -37169.18524136367, 6572.597512316408, -7772.282692466104, -70070.66250689776, 5815.119244470507, -18962.951774949048, -5873.233780054305, 3920.361866994127, -0.06, 0.992, 0.192, 192.0, 0.0, 0.0, 0.0, 0.0, 0.0, 0.0, 0.0, 0.0, 0.0, 1.695417999812021E9, 0.0, 2023-09-22 16:26:39.812
136.0, 25690.536283318554, 12024.500909388174, -35727.810648418745, -62823.51169866463, -187500.02235174447, 9138.845996719123, -187500.02235174447, -187500.02235174447, -37165.31838957291, 6573.178657672246, -7730.887261734875, -70071.04248655349, 5811.0735787240965, -18939.3706845487, -5882.755623192265, 3939.562015481236, -0.06, 0.992, 0.192, 192.0, 0.0, 0.0, 0.0, 0.0, 0.0, 0.0, 0.0, 0.0, 0.0, 1.695417999812066E9, 0.0, 2023-09-22 16:26:39.812
138.0, 25679.60628027991, 12014.554383105564, -35728.97293913042, -62833.72644588071, -187500.02235174447, 9160.057802207208, -187500.02235174447, -187500.02235174447, -37167.955895418636, 6571.368166371366, -7780.910465825852, -70072.62946040982, 5816.885032282476, -18963.398809838156, -5875.647768455478, 3891.48341315787, -0.06, 0.992, 0.192, 192.0, 0.0, 0.0, 0.0, 0.0, 0.0, 0.0, 0.0, 0.0, 0.0, 1.695417999812069E9, 0.0, 2023-09-22 16:26:39.812
140.0, 25671.514948787088, 12008.541763847084, -35750.385910318604, -62838.66618140533, -187500.02235174447, 9160.907168496511, -187500.02235174447, -187500.02235174447, -37174.393197821766, 6564.081497678936, -7726.841595988464, -70082.33011750343, 5797.349607628537, -18927.390149520656, -5889.4387947844025, 3941.4395620154814, -0.06, 0.992, 0.192, 192.0, 0.0, 0.0, 0.0, 0.0, 0.0, 0.0, 0.0, 0.0, 0.0, 1.695417999812072E9, 0.0, 2023-09-22 16:26:39.812
142.0, 25683.3613733484, 12018.264772685145, -35727.341261785186, -62825.12102426541, -187500.02235174447, 9167.299767410728, -187500.02235174447, -187500.02235174447, -37184.56324154893, 6560.460515077176, -7782.072756537528, -70087.2922047725, 5794.376825615982, -18960.649545270153, -5897.731291977321, 3894.3444364481497, -0.062, 0.99, 0.192, 192.0, 127.0, 8.0, 15.0, 120.0, 3.0, 0.0, 0.0, 0.0, 0.0, 1.695417999812076E9, 0.0, 2023-09-22 16:26:39.812
144.0, 25700.12518168988, 12034.648601370884, -35720.97101461542, -62804.4233088998, -187500.02235174447, 9153.084057937152, -187500.02235174447, -187500.02235174447, -37158.81403193641, 6589.853059035905, -7737.346915882459, -70060.82773933742, 5820.707180584333, -18927.121928587192, -5878.508791745758, 3921.322992005705, -0.062, 0.99, 0.192, 192.0, 0.0, 0.0, 0.0, 0.0, 0.0, 0.0, 0.0, 0.0, 0.0, 1.695417999812079E9, 0.0, 2023-09-22 16:26:39.812
146.0, 25681.84145472544, 12015.56021160605, -35728.794125174776, -62822.66233237533, -187500.02235174447, 9149.418371846483, -187500.02235174447, -187500.02235174447, -37174.01321816602, 6576.844343762916, -7789.3370734855025, -70070.50604468657, 5807.586706589068, -18947.46201604152, -5885.2143150823495, 3865.063651211697, -0.062, 0.99, 0.192, 192.0, 0.0, 0.0, 0.0, 0.0, 0.0, 0.0, 0.0, 0.0, 0.0, 1.695417999812082E9, 0.0, 2023-09-22 16:26:39.812
148.0, 25682.422600081278, 12021.282258186611, -35742.04870963677, -62823.28818122008, -187500.02235174447, 9159.990746973843, -187500.02235174447, -187500.02235174447, -37178.05888391243, 6574.877390250849, -7726.483968077179, -70074.90933834427, 5804.412758876415, -18908.83820162275, -5893.730329719821, 3915.9809250808867, -0.062, 0.99, 0.192, 192.0, 0.0, 0.0, 0.0, 0.0, 0.0, 0.0, 0.0, 0.0, 0.0, 1.695417999812085E9, 0.0, 2023-09-22 16:26:39.812
150.0, 25663.84830043892, 12004.831374267504, -35748.79893646228, -62845.66227741984, -187500.02235174447, 9149.217206146384, -187500.02235174447, -187500.02235174447, -37191.73815151908, 6563.053317433992, -7782.2292187487155, -70088.45449548418, 5787.29132262365, -18951.3735713212, -5910.427082827936, 3861.5991308211246, -0.062, 0.99, 0.192, 192.0, 0.0, 0.0, 0.0, 0.0, 0.0, 0.0, 0.0, 0.0, 0.0, 1.695417999872837E9, 0.0, 2023-09-22 16:26:39.872
152.0, 25688.010536195106, 12030.513528646652, -35738.159506101554, -62823.19877424226, -187500.02235174447, 9165.62338657658, -187500.02235174447, -187500.02235174447, -37181.34459034736, 6569.065936692469, -7721.208956385727, -70084.25236752658, 5796.544944828146, -18918.494155227443, -5902.648675757489, 3916.159739036529, -0.06, 0.992, 0.192, 192.0, 127.0, 16.0, 15.5, 0.0, 3.0, 0.0, 0.0, 0.0, 0.0, 1.695417999872848E9, 0.0, 2023-09-22 16:26:39.872
154.0, 25687.071762927982, 12026.512566389152, -35729.21880831943, -62829.546669667565, -187500.02235174447, 9139.248328119318, -187500.02235174447, -187500.02235174447, -37173.11914838781, 6580.219457175667, -7777.289483224093, -70069.07553304142, 5802.334046642071, -18955.016905667413, -5897.284257088216, 3854.33481387315, -0.06, 0.992, 0.192, 192.0, 0.0, 0.0, 0.0, 0.0, 0.0, 0.0, 0.0, 0.0, 0.0, 1.695417999872851E9, 0.0, 2023-09-22 16:26:39.872
156.0, 25705.75782129262, 12042.516415419152, -35729.844657164176, -62815.710939849734, -187500.02235174447, 9159.76722952929, -187500.02235174447, -187500.02235174447, -37172.560354776426, 6581.895838009816, -7724.226441887194, -70071.86950109834, 5807.094968211051, -18922.003379106925, -5880.855724913565, 3901.809919096222, -0.06, 0.992, 0.192, 192.0, 0.0, 0.0, 0.0, 0.0, 0.0, 0.0, 0.0, 0.0, 0.0, 1.695417999872855E9, 0.0, 2023-09-22 16:26:39.872
158.0, 25675.113579644392, 12011.291028415088, -35753.31398884225, -62846.22107103123, -187500.02235174447, 9131.224051859863, -187500.02235174447, -187500.02235174447, -37174.75082573305, 6578.230151919145, -7775.590750645489, -70073.16590227674, 5802.512860597713, -18957.05091441285, -5896.948980921386, 3840.8120084776892, -0.06, 0.992, 0.192, 192.0, 0.0, 0.0, 0.0, 0.0, 0.0, 0.0, 0.0, 0.0, 0.0, 1.695417999872858E9, 0.0, 2023-09-22 16:26:39.872
160.0, 25688.74814376213, 12022.33279017601, -35749.82711670722, -62829.77018711212, -187500.02235174447, 9169.490238367349, -187500.02235174447, -187500.02235174447, -37192.54281431947, 6555.856055719382, -7726.483968077179, -70095.4505914987, 5789.817069747099, -18926.764300675906, -5905.912030447964, 3895.2161544819064, -0.06, 0.992, 0.192, 192.0, 0.0, 0.0, 0.0, 0.0, 0.0, 0.0, 0.0, 0.0, 0.0, 1.695417999872861E9, 0.0, 2023-09-22 16:26:39.872
162.0, 25679.80744598001, 12012.699188315772, -35742.22752359242, -62828.362027211435, -187500.02235174447, 9129.793540214723, -187500.02235174447, -187500.02235174447, -37177.85771821233, 6566.271968635556, -7774.674329122821, -70084.0959053154, 5800.635314063467, -18960.001344680946, -5906.157899636973, 3840.5437875442253, -0.064, 0.986, 0.192, 192.0, 127.0, 0.0, 15.0, 104.0, 3.0, 0.0, 0.0, 0.0, 0.0, 1.695417999872864E9, 0.0, 2023-09-22 16:26:39.872
164.0, 25670.41971330878, 12003.46791785573, -35750.520020785334, -62836.18513777079, -187500.02235174447, 9181.00138676183, -187500.02235174447, -187500.02235174447, -37181.94808744766, 6567.63542504733, -7745.170026441816, -70087.13574256131, 5806.513822855213, -18934.98974263546, -5884.454355770869, 3873.467907126893, -0.064, 0.986, 0.192, 192.0, 0.0, 0.0, 0.0, 0.0, 0.0, 0.0, 0.0, 0.0, 0.0, 1.695417999933662E9, 0.0, 2023-09-22 16:26:39.933
166.0, 25668.229242352158, 12000.673949798816, -35753.470451053436, -62833.54763192507, -187500.02235174447, 9148.032563690253, -187500.02235174447, -187500.02235174447, -37205.43977087019, 6549.10582889388, -7765.711279596243, -70102.15611483528, 5776.942464940842, -18942.544632261353, -5918.02667594274, 3860.3474331316274, -0.064, 0.986, 0.192, 192.0, 0.0, 0.0, 0.0, 0.0, 0.0, 0.0, 0.0, 0.0, 0.0, 1.695417999933676E9, 0.0, 2023-09-22 16:26:39.933
168.0, 25686.37885884987, 12018.890621529892, -35738.36067180165, -62820.29304746307, -187500.02235174447, 9193.138384001062, -187500.02235174447, -187500.02235174447, -37186.887822972276, 6565.310843623977, -7751.67438407831, -70084.87821637133, 5804.479814109781, -18934.3191903018, -5880.922780146931, 3876.395985650538, -0.064, 0.986, 0.192, 192.0, 0.0, 0.0, 0.0, 0.0, 0.0, 0.0, 0.0, 0.0, 0.0, 1.69541799993368E9, 0.0, 2023-09-22 16:26:39.933
170.0, 25677.348754089922, 12010.933400503804, -35741.55697125876, -62824.29400972057, -187500.02235174447, 9155.18512191595, -187500.02235174447, -187500.02235174447, -37187.8265962394, 6565.869637235361, -7756.837637047486, -70081.10077155838, 5793.19218315985, -18940.60003049374, -5894.244419842294, 3858.3804796195604, -0.064, 0.986, 0.192, 192.0, 0.0, 0.0, 0.0, 0.0, 0.0, 0.0, 0.0, 0.0, 0.0, 1.695417999933684E9, 0.0, 2023-09-22 16:26:39.933
172.0, 25668.36335281889, 12006.597162079473, -35740.93112241401, -62834.86638484793, -187500.02235174447, 9199.240410237362, -187500.02235174447, -187500.02235174447, -37196.90140448826, 6557.420677831255, -7752.099067222962, -70094.17654206474, 5798.757767529222, -18937.426082781087, -5883.6273412260225, 3866.8964942570324, -0.064, 0.994, 0.192, 192.0, 127.0, 0.0, 15.5, 8.0, 3.0, 0.0, 0.0, 0.0, 0.0, 1.695417999933687E9, 0.0, 2023-09-22 16:26:39.933
174.0, 25672.02903890956, 12017.348351162476, -35731.45398276496, -62823.332884708994, -187500.02235174447, 9147.00438344531, -187500.02235174447, -187500.02235174447, -37189.972363707115, 6567.367204113866, -7757.195264958771, -70085.25819602706, 5800.0988721965405, -18943.952792162036, -5891.942190163397, 3856.1453051740295, -0.064, 0.994, 0.192, 192.0, 0.0, 0.0, 0.0, 0.0, 0.0, 0.0, 0.0, 0.0, 0.0, 1.695417999933691E9, 0.0, 2023-09-22 16:26:39.933
176.0, 25677.102884900916, 12021.61753435344, -35729.66584320854, -62830.306628979044, -187500.02235174447, 9193.227790978885, -187500.02235174447, -187500.02235174447, -37202.332878390895, 6562.427468589243, -7768.617006375433, -70097.84222815541, 5798.936581484864, -18946.635001496674, -5874.3513672770705, 3848.1880841479406, -0.064, 0.994, 0.192, 192.0, 0.0, 0.0, 0.0, 0.0, 0.0, 0.0, 0.0, 0.0, 0.0, 1.695417999933695E9, 0.0, 2023-09-22 16:26:39.933
178.0, 25677.684030256754, 12025.394979166387, -35735.65611072256, -62827.71382662223, -187500.02235174447, 9160.504837096314, -187500.02235174447, -187500.02235174447, -37189.83825324038, 6566.361375613377, -7741.884320006886, -70080.65373666928, 5796.835517506065, -18924.93145763057, -5890.422271540436, 3861.107392443108, -0.064, 0.994, 0.192, 192.0, 0.0, 0.0, 0.0, 0.0, 0.0, 0.0, 0.0, 0.0, 0.0, 1.695417999933698E9, 0.0, 2023-09-22 16:26:39.933
180.0, 25680.522701802576, 12026.512566389152, -35730.93989264249, -62832.18417551329, -187500.02235174447, 9203.666055639513, -187500.02235174447, -187500.02235174447, -37194.710933531635, 6565.48965757962, -7762.336166183492, -70083.91709135975, 5799.696540796344, -18933.84980366824, -5876.653596955967, 3846.4446480804263, -0.064, 0.994, 0.192, 192.0, 0.0, 0.0, 0.0, 0.0, 0.0, 0.0, 0.0, 0.0, 0.0, 1.69541799999386E9, 0.0, 2023-09-22 16:26:39.993
182.0, 25679.18159713526, 12024.925592532825, -35743.70273872647, -62829.72548362321, -187500.02235174447, 9179.43676464996, -187500.02235174447, -187500.02235174447, -37195.87322424331, 6573.268064650067, -7719.3090581070255, -70081.32428900294, 5792.499279081736, -18899.49517244043, -5899.318265833648, 3876.6642065840015, -0.064, 0.994, 0.194, 192.0, 127.0, 0.0, 15.5, 8.0, 3.0, 8.0, 0.0, 0.0, 0.0, 1.69541799999387E9, 0.0, 2023-09-22 16:26:39.993
184.0, 25669.346829574923, 12011.335731903999, -35740.685253225005, -62843.42710297431, -187500.02235174447, 9187.48339265387, -187500.02235174447, -187500.02235174447, -37195.068561442924, 6575.726756540151, -7767.767640086132, -70080.02788782453, 5801.752901286233, -18931.905201900627, -5891.293989574193, 3835.9393281864322, -0.064, 0.994, 0.194, 192.0, 0.0, 0.0, 0.0, 0.0, 0.0, 0.0, 0.0, 0.0, 0.0, 1.695417999993873E9, 0.0, 2023-09-22 16:26:39.993
186.0, 25669.771512719573, 12011.626304581918, -35756.28677085481, -62838.17444302732, -187500.02235174447, 9157.24148240584, -187500.02235174447, -187500.02235174447, -37207.98786973809, 6555.029041174536, -7729.1661774118165, -70099.049222356, 5785.279665622672, -18912.772108646885, -5903.4086350689695, 3862.5602558327028, -0.064, 0.994, 0.194, 192.0, 0.0, 0.0, 0.0, 0.0, 0.0, 0.0, 0.0, 0.0, 0.0, 1.695417999993877E9, 0.0, 2023-09-22 16:26:39.993
188.0, 25666.396399306825, 12005.725444045716, -35742.38398580361, -62838.86734710543, -187500.02235174447, 9170.406659890015, -187500.02235174447, -187500.02235174447, -37206.84793077087, 6549.217587616156, -7786.297236239581, -70099.00451886708, 5789.750014513733, -18949.876004442693, -5897.5971815105895, 3806.0326941052313, -0.064, 0.994, 0.194, 192.0, 0.0, 0.0, 0.0, 0.0, 0.0, 0.0, 0.0, 0.0, 0.0, 1.69541799999388E9, 0.0, 2023-09-22 16:26:39.993
190.0, 25664.541204517034, 12002.976179477713, -35754.029244664816, -62834.642867403374, -187500.02235174447, 9161.734183041357, -187500.02235174447, -187500.02235174447, -37202.64580281327, 6558.314747609466, -7734.776465270098, -70091.40492575227, 5795.829689005576, -18915.767242403894, -5891.7857279522095, 3839.4038485770047, -0.064, 0.994, 0.194, 192.0, 0.0, 0.0, 0.0, 0.0, 0.0, 0.0, 0.0, 0.0, 0.0, 1.695417999993884E9, 0.0, 2023-09-22 16:26:39.993
192.0, 25644.916372885273, 11983.574865290508, -35763.46168082496, -62850.87023387793, -187500.02235174447, 9182.543657129247, -187500.02235174447, -187500.02235174447, -37224.304643190466, 6540.679221234229, -7784.39733796088, -70108.05697537148, 5779.982302186764, -18946.70205673004, -5897.664236743955, 3796.0638160781646, -0.056, 0.994, 0.192, 192.0, 127.0, 32.0, 15.5, 8.0, 3.0, 0.0, 0.0, 0.0, 0.0, 1.695417999993887E9, 0.0, 2023-09-22 16:26:39.993
194.0, 25667.5586900185, 12006.865383012937, -35750.520020785334, -62824.60693414295, -187500.02235174447, 9177.089831482153, -187500.02235174447, -187500.02235174447, -37213.57580585191, 6553.330308595933, -7728.808549500532, -70094.95885312067, 5789.951180213831, -18910.916913857094, -5893.3727018085365, 3852.591377805636, -0.056, 0.994, 0.192, 192.0, 0.0, 0.0, 0.0, 0.0, 0.0, 0.0, 0.0, 0.0, 0.0, 1.695417999993891E9, 0.0, 2023-09-22 16:26:39.993
196.0, 25678.17576863477, 12017.504813373664, -35731.40927927605, -62816.29208520557, -187500.02235174447, 9162.29297665274, -187500.02235174447, -187500.02235174447, -37208.703125560656, 6555.945462697204, -7791.169916530838, -70087.6945361727, 5793.818032004599, -18942.03054213888, -5888.008283139263, 3794.722711410846, -0.056, 0.994, 0.192, 192.0, 0.0, 0.0, 0.0, 0.0, 0.0, 0.0, 0.0, 0.0, 0.0, 1.695418000052858E9, 0.0, 2023-09-22 16:26:40.052
198.0, 25669.883271441853, 12010.531069103608, -35754.63274176511, -62832.988838313686, -187500.02235174447, 9179.257950694317, -187500.02235174447, -187500.02235174447, -37199.06952370042, 6570.138820426324, -7736.408142615336, -70077.50214070108, 5802.825785020088, -18904.2113905205, -5878.441736512392, 3839.8285317216555, -0.056, 0.994, 0.192, 192.0, 0.0, 0.0, 0.0, 0.0, 0.0, 0.0, 0.0, 0.0, 0.0, 1.695418000052889E9, 0.0, 2023-09-22 16:26:40.052
200.0, 25669.391533063834, 12006.865383012937, -35737.533657256805, -62834.59816391447, -187500.02235174447, 9166.249235421328, -187500.02235174447, -187500.02235174447, -37212.32410816242, 6551.005727172581, -7786.744271128688, -70091.87431238584, 5784.653816777924, -18940.55532700483, -5899.78765246721, 3798.969542857354, -0.056, 0.994, 0.192, 192.0, 0.0, 0.0, 0.0, 0.0, 0.0, 0.0, 0.0, 0.0, 0.0, 1.695418000052892E9, 0.0, 2023-09-22 16:26:40.052
202.0, 25699.432277611766, 12037.33081070552, -35725.374308273116, -62803.32807342149, -187500.02235174447, 9181.224904206385, -187500.02235174447, -187500.02235174447, -37202.22111966862, 6562.718041267162, -7726.126340165894, -70080.7431436471, 5802.758729786722, -18905.664253910098, -5871.847971898076, 3853.61955805058, -0.054, 0.996, 0.196, 192.0, 127.0, 40.0, 15.5, 16.0, 3.0, 16.0, 0.0, 0.0, 0.0, 1.695418000052896E9, 0.0, 2023-09-22 16:26:40.052
204.0, 25696.95123397723, 12037.57667989453, -35711.091543566174, -62805.71971007821, -187500.02235174447, 9132.743970482823, -187500.02235174447, -187500.02235174447, -37166.16775586221, 6602.370035930877, -7791.415785719846, -70039.61593384933, 5831.368962689515, -18944.623344495696, -5854.681832156401, 3771.141621010497, -0.054, 0.996, 0.196, 192.0, 0.0, 0.0, 0.0, 0.0, 0.0, 0.0, 0.0, 0.0, 0.0, 1.695418000052899E9, 0.0, 2023-09-22 16:26:40.052
206.0, 25661.41196029329, 12001.344502132477, -35761.04769242379, -62843.85178611896, -187500.02235174447, 9190.232657221874, -187500.02235174447, -187500.02235174447, -37221.86830304484, 6552.39153532881, -7718.48204356218, -70091.87431238584, 5792.789851759655, -18904.971349831983, -5868.405803251959, 3833.7041537409013, -0.054, 0.996, 0.196, 192.0, 0.0, 0.0, 0.0, 0.0, 0.0, 0.0, 0.0, 0.0, 0.0, 1.695418000052903E9, 0.0, 2023-09-22 16:26:40.052
208.0, 25678.93572794625, 12018.622400596429, -35736.43842177849, -62822.37175969742, -187500.02235174447, 9156.079191694163, -187500.02235174447, -187500.02235174447, -37215.92273901973, 6554.358488840877, -7753.0601922345395, -70089.08034432893, 5779.6693777643895, -18939.705960715528, -5898.290085588705, 3806.7703016722567, -0.054, 0.996, 0.196, 192.0, 0.0, 0.0, 0.0, 0.0, 0.0, 0.0, 0.0, 0.0, 0.0, 1.695418000052906E9, 0.0, 2023-09-22 16:26:40.052
210.0, 25691.922091474786, 12029.418293168343, -35732.34805254317, -62812.358178181436, -187500.02235174447, 9185.00234901933, -187500.02235174447, -187500.02235174447, -37202.46698885763, 6563.209779645179, -7715.822185971998, -70082.08424831441, 5805.843270521555, -18925.624361708684, -5870.283349786205, 3838.5768340321583, -0.054, 0.996, 0.196, 192.0, 0.0, 0.0, 0.0, 0.0, 0.0, 0.0, 0.0, 0.0, 0.0, 1.695418000113515E9, 0.0, 2023-09-22 16:26:40.113
212.0, 25679.293355857535, 12017.728330818216, -35735.991386889385, -62822.416463186324, -187500.02235174447, 9135.47088330637, -187500.02235174447, -187500.02235174447, -37190.41939859622, 6576.39730887381, -7758.379907414903, -70069.25434699707, 5808.369017645004, -18947.41731255261, -5876.340672533593, 3787.9277810964327, -0.052000000000000005, 0.998, 0.194, 192.0, 127.0, 48.0, 15.5, 24.0, 3.0, 8.0, 0.0, 0.0, 0.0, 1.695418000113527E9, 0.0, 2023-09-22 16:26:40.113
214.0, 25687.85407398392, 12023.852708798971, -35735.566703744735, -62817.163803239324, -187500.02235174447, 9180.219075705896, -187500.02235174447, -187500.02235174447, -37210.67007907273, 6550.804561472483, -7724.33820060947, -70091.02494609654, 5798.2213256622945, -18923.456242496522, -5873.457297498858, 3828.2503280938067, -0.052000000000000005, 0.998, 0.194, 192.0, 0.0, 0.0, 0.0, 0.0, 0.0, 0.0, 0.0, 0.0, 0.0, 1.695418000113531E9, 0.0, 2023-09-22 16:26:40.113
216.0, 25675.69472500023, 12019.360008163454, -35748.17308761753, -62823.55640215355, -187500.02235174447, 9134.554461783704, -187500.02235174447, -187500.02235174447, -37200.522387090015, 6570.071765192958, -7755.898863780363, -70073.14355053229, 5799.942409985353, -18938.029579881382, -5884.990797637796, 3797.1366998120193, -0.052000000000000005, 0.998, 0.194, 192.0, 0.0, 0.0, 0.0, 0.0, 0.0, 0.0, 0.0, 0.0, 0.0, 1.695418000113534E9, 0.0, 2023-09-22 16:26:40.113
218.0, 25655.756968946098, 11998.528182331107, -35770.70364602848, -62847.33865825399, -187500.02235174447, 9206.39296846306, -187500.02235174447, -187500.02235174447, -37229.71376534865, 6549.575215527441, -7732.496587335657, -70100.36797527886, 5782.463345821303, -18915.096690070237, -5884.0967278595845, 3830.396095561516, -0.052000000000000005, 0.998, 0.194, 192.0, 0.0, 0.0, 0.0, 0.0, 0.0, 0.0, 0.0, 0.0, 0.0, 1.695418000113538E9, 0.0, 2023-09-22 16:26:40.113
220.0, 25660.36142830389, 12003.356159133455, -35761.852355224175, -62841.57190818452, -187500.02235174447, 9174.519380869791, -187500.02235174447, -187500.02235174447, -37230.652538615774, 6546.8035992149835, -7736.050514704051, -70101.95494913518, 5770.214589859795, -18912.928570858072, -5912.952829951386, 3836.2075491198957, -0.052000000000000005, 0.998, 0.194, 192.0, 0.0, 0.0, 0.0, 0.0, 0.0, 0.0, 0.0, 0.0, 0.0, 1.695418000113541E9, 0.0, 2023-09-22 16:26:40.113
222.0, 25670.330306330958, 12014.733197061205, -35748.46366029545, -62839.44849246127, -187500.02235174447, 9216.138329045574, -187500.02235174447, -187500.02235174447, -37224.706974590656, 6547.541206782009, -7740.811436273031, -70102.42433576874, 5785.436127833859, -18916.348387759732, -5882.35329179207, 3846.2434823803287, -0.054, 0.998, 0.196, 192.0, 127.0, 40.0, 15.5, 24.0, 3.0, 16.0, 0.0, 0.0, 0.0, 1.695418000113545E9, 0.0, 2023-09-22 16:26:40.113
224.0, 25677.54991979002, 12024.031522754613, -35749.335378329204, -62830.35133246796, -187500.02235174447, 9164.662261565001, -187500.02235174447, -187500.02235174447, -37210.804189539456, 6559.208817387679, -7734.307078636537, -70086.08521057191, 5786.62077028999, -18911.676873168573, -5895.563172765157, 3845.103543413108, -0.054, 0.998, 0.196, 192.0, 0.0, 0.0, 0.0, 0.0, 0.0, 0.0, 0.0, 0.0, 0.0, 1.695418000113548E9, 0.0, 2023-09-22 16:26:40.113
226.0, 25665.21175685069, 12011.514545859642, -35754.520983042836, -62841.10252155096, -187500.02235174447, 9212.62910516609, -187500.02235174447, -187500.02235174447, -37220.75071582207, 6558.113581909369, -7747.561663098534, -70089.50502747358, 5787.693654023845, -18920.014073850405, -5879.02288186823, 3840.968470688876, -0.054, 0.998, 0.196, 192.0, 0.0, 0.0, 0.0, 0.0, 0.0, 0.0, 0.0, 0.0, 0.0, 1.695418000173207E9, 0.0, 2023-09-22 16:26:40.173
228.0, 25683.227262881668, 12027.71956058974, -35748.0389771508, -62819.01899802912, -187500.02235174447, 9170.63017733457, -187500.02235174447, -187500.02235174447, -37211.1841691952, 6565.668471535262, -7723.488834320168, -70080.5866814359, 5780.272874864683, -18909.955788845517, -5898.826527455632, 3863.5660843331916, -0.054, 0.998, 0.196, 192.0, 0.0, 0.0, 0.0, 0.0, 0.0, 0.0, 0.0, 0.0, 0.0, 1.695418000173219E9, 0.0, 2023-09-22 16:26:40.173
230.0, 25662.663657982786, 12007.602990579962, -35758.27607611133, -62840.588431428485, -187500.02235174447, 9207.421148708005, -187500.02235174447, -187500.02235174447, -37209.686602316695, 6556.660718519774, -7757.955224270252, -70087.7392396616, 5785.771404000689, -18933.760396690417, -5877.748832434277, 3831.8042554622, -0.054, 0.998, 0.196, 192.0, 0.0, 0.0, 0.0, 0.0, 0.0, 0.0, 0.0, 0.0, 0.0, 1.695418000173229E9, 0.0, 2023-09-22 16:26:40.173
232.0, 25667.804559207507, 12015.291990672587, -35762.9922941914, -62829.94900106776, -187500.02235174447, 9177.335700671161, -187500.02235174447, -187500.02235174447, -37206.043267970475, 6562.561579055975, -7718.437340073269, -70084.11825705985, 5780.854020220521, -18916.437794737554, -5889.930533162419, 3862.426145365971, -0.058, 0.996, 0.188, 192.0, 127.0, 24.0, 15.5, 16.0, 2.5, 112.0, 0.0, 0.0, 0.0, 1.695418000173237E9, 0.0, 2023-09-22 16:26:40.173
234.0, 25682.22143438118, 12028.166595478844, -35739.07592762422, -62818.46020441774, -187500.02235174447, 9192.177258989484, -187500.02235174447, -187500.02235174447, -37195.80616900995, 6573.960968728182, -7763.543160384079, -70077.77036163454, 5790.889953480953, -18946.74676021895, -5875.06662309964, 3827.1327408710413, -0.058, 0.996, 0.188, 192.0, 0.0, 0.0, 0.0, 0.0, 0.0, 0.0, 0.0, 0.0, 0.0, 1.69541800017324E9, 0.0, 2023-09-22 16:26:40.173
236.0, 25690.201007151725, 12040.594165395996, -35739.85823868016, -62806.345558922956, -187500.02235174447, 9154.089886437641, -187500.02235174447, -187500.02235174447, -37167.08417738488, 6602.481794653153, -7723.198261642249, -70051.4847101551, 5805.507994354724, -18918.516506971897, -5860.82856188161, 3849.5962440486246, -0.058, 0.996, 0.188, 192.0, 0.0, 0.0, 0.0, 0.0, 0.0, 0.0, 0.0, 0.0, 0.0, 1.695418000173244E9, 0.0, 2023-09-22 16:26:40.173
238.0, 25658.193309091726, 12008.09472895798, -35762.88053546912, -62845.6846291643, -187500.02235174447, 9186.477564153382, -187500.02235174447, -187500.02235174447, -37188.38538985079, 6585.449765378209, -7769.421669175825, -70071.28835574251, 5783.670340021889, -18938.208393837023, -5873.658463198956, 3808.1561098284856, -0.058, 0.996, 0.188, 192.0, 0.0, 0.0, 0.0, 0.0, 0.0, 0.0, 0.0, 0.0, 0.0, 1.695418000173247E9, 0.0, 2023-09-22 16:26:40.173
240.0, 25696.03481245456, 12046.852653843482, -35744.50740152686, -62804.6244745999, -187500.02235174447, 9168.842037778144, -187500.02235174447, -187500.02235174447, -37181.81397698093, 6595.239829449633, -7707.99907541264, -70066.97446906262, 5782.6645115214005, -18895.673024138574, -5885.929570904919, 3873.6243693380798, -0.058, 0.996, 0.188, 192.0, 0.0, 0.0, 0.0, 0.0, 0.0, 0.0, 0.0, 0.0, 0.0, 1.695418000233154E9, 0.0, 2023-09-22 16:26:40.233
242.0, 25680.589757035945, 12030.088845502001, -35745.55793351626, -62828.652599889356, -187500.02235174447, 9162.829418519666, -187500.02235174447, -187500.02235174447, -37158.1211278583, 6617.636277393852, -7776.462468679246, -70043.84041355138, 5806.647933321945, -18930.429986766576, -5865.634186939501, 3805.5856592161254, -0.062, 0.994, 0.186, 192.0, 127.0, 8.0, 15.5, 8.0, 2.5, 104.0, 0.0, 0.0, 0.0, 1.695418000233194E9, 0.0, 2023-09-22 16:26:40.233
244.0, 25681.41677158079, 12032.413426925354, -35757.940799944496, -62830.39603595687, -187500.02235174447, 9170.71958431239, -187500.02235174447, -187500.02235174447, -37173.87910769929, 6598.614942862385, -7710.52482253609, -70063.62170739433, 5785.503183067225, -18896.097707283225, -5878.978178379319, 3865.8683140120884, -0.062, 0.994, 0.186, 192.0, 0.0, 0.0, 0.0, 0.0, 0.0, 0.0, 0.0, 0.0, 0.0, 1.695418000233197E9, 0.0, 2023-09-22 16:26:40.233
246.0, 25673.191329621237, 12022.645714598384, -35752.08464289721, -62837.727408138206, -187500.02235174447, 9164.461095864905, -187500.02235174447, -187500.02235174447, -37177.0754071564, 6597.117375983879, -7769.712241853744, -70062.92880331622, 5779.803488231121, -18939.75066420444, -5889.416443039947, 3813.1629005864743, -0.062, 0.994, 0.186, 192.0, 0.0, 0.0, 0.0, 0.0, 0.0, 0.0, 0.0, 0.0, 0.0, 1.695418000233201E9, 0.0, 2023-09-22 16:26:40.233
248.0, 25697.80060026653, 12046.092694532, -35739.85823868016, -62811.84408805896, -187500.02235174447, 9174.38527040306, -187500.02235174447, -187500.02235174447, -37176.11428214482, 6602.660608608796, -7708.736682979666, -70059.15135850327, 5785.100851667029, -18902.579713175262, -5884.342597048592, 3872.52913385977, -0.062, 0.994, 0.186, 192.0, 0.0, 0.0, 0.0, 0.0, 0.0, 0.0, 0.0, 0.0, 0.0, 1.695418000233204E9, 0.0, 2023-09-22 16:26:40.233
250.0, 25685.4624373272, 12032.346371691987, -35741.06523288074, -62824.60693414295, -187500.02235174447, 9147.451418334416, -187500.02235174447, -187500.02235174447, -37164.31256107242, 6608.0250272780695, -7771.0756982655175, -70049.29423919848, 5792.7004447818335, -18937.31432405881, -5883.225009825827, 3807.8655371505665, -0.062, 0.994, 0.186, 192.0, 0.0, 0.0, 0.0, 0.0, 0.0, 0.0, 0.0, 0.0, 0.0, 1.695418000233207E9, 0.0, 2023-09-22 16:26:40.233
252.0, 25688.770495506586, 12034.983877537714, -35748.8883434401, -62817.6778933618, -187500.02235174447, 9175.43580239246, -187500.02235174447, -187500.02235174447, -37176.40485482274, 6601.699483597217, -7714.391674326858, -70060.62657363732, 5788.878296479977, -18901.037442807847, -5880.431041768914, 3865.5777413341693, -0.058, 0.988, 0.188, 192.0, 127.0, 24.0, 15.0, 112.0, 2.5, 112.0, 0.0, 0.0, 0.0, 1.69541800023321E9, 0.0, 2023-09-22 16:26:40.233
