%OpenBCI Raw EXG Data
%Number of channels = 16
%Sample Rate = 125 Hz
%Board = OpenBCI_GUI$BoardCytonSerialDaisy
Sample Index, EXG Channel 0, EXG Channel 1, EXG Channel 2, EXG Channel 3, EXG Channel 4, EXG Channel 5, EXG Channel 6, EXG Channel 7, EXG Channel 8, EXG Channel 9, EXG Channel 10, EXG Channel 11, EXG Channel 12, EXG Channel 13, EXG Channel 14, EXG Channel 15, Accel Channel 0, Accel Channel 1, Accel Channel 2, Other, Other, Other, Other, Other, Other, Other, Analog Channel 0, Analog Channel 1, Analog Channel 2, Timestamp, Other, Timestamp (Formatted)
0.0, 26475.082513699832, 13346.628945664042, -37077.36427514128, -63407.294560348346, -187500.02235174447, 7296.7940326683565, -114113.41149966855, -187500.02235174447, 0.0, 0.0, 0.0, 0.0, 0.0, 0.0, 0.0, 0.0, 0.0, 0.0, 0.0, 192.0, 0.0, 0.0, 0.0, 0.0, 0.0, 0.0, 0.0, 0.0, 0.0, 1.695418155297032E9, 0.0, 2023-09-22 16:29:15.297
226.0, 26480.178711435645, 13348.685306153931, -37086.506138623496, -63409.68619700506, -187500.02235174447, 7322.945573681066, -114038.95783888792, -187500.02235174447, -40443.693452321706, 6407.485176025054, -5200.580382416294, -69732.61472375569, -4320.9498311221405, -22783.55780643914, -4661.188085220824, 8520.172061940679, -0.018000000000000002, 0.49, 0.131, 192.0, 127.0, 112.0, 15.0, 80.0, 4.0, 24.0, 0.0, 0.0, 0.0, 1.695418155297042E9, 0.0, 2023-09-22 16:29:15.297
228.0, 26457.022304179944, 13322.377302930034, -37105.81804583288, -63435.50246185094, -187500.02235174447, 7289.485012231471, -114091.43973486898, -187500.02235174447, -40457.77505132855, 6395.281123552457, -5222.730961171504, -69749.02090418589, -4344.396811055757, -22801.19333281438, -4690.848850113017, 8481.682357988639, -0.018000000000000002, 0.49, 0.131, 192.0, 0.0, 0.0, 0.0, 0.0, 0.0, 0.0, 0.0, 0.0, 0.0, 1.695418155297046E9, 0.0, 2023-09-22 16:29:15.297
230.0, 26455.61414427926, 13317.750491827786, -37104.14166499873, -63438.56465084132, -187500.02235174447, 7343.4644750910375, -113985.26894870627, -187500.02235174447, -40471.58842940193, 6376.393899487723, -5197.6746556371045, -69762.43195085907, -4347.883683190785, -22798.175847312912, -4675.537905161132, 8525.089445720845, -0.018000000000000002, 0.49, 0.131, 192.0, 0.0, 0.0, 0.0, 0.0, 0.0, 0.0, 0.0, 0.0, 0.0, 1.695418155297049E9, 0.0, 2023-09-22 16:29:15.297
232.0, 26461.13502515972, 13325.3947884315, -37095.96092652809, -63427.50053733594, -187500.02235174447, 7301.309085048329, -114064.63999326706, -187500.02235174447, -40465.553458398994, 6376.975044843561, -5211.756254643948, -69759.03448570186, -4355.036241416484, -22821.823992946625, -4696.012103082193, 8503.83293674385, -0.018000000000000002, 0.49, 0.131, 192.0, 0.0, 0.0, 0.0, 0.0, 0.0, 0.0, 0.0, 0.0, 0.0, 1.695418155297052E9, 0.0, 2023-09-22 16:29:15.297
234.0, 26475.73071428904, 13339.968125816362, -37081.58875484333, -63408.23333361547, -187500.02235174447, 7341.765742512434, -113976.52941662425, -187500.02235174447, -40460.14433624081, 6388.195620560125, -5206.79416737487, -69749.02090418589, -4338.965337153118, -22805.306053794153, -4666.910131801383, 8523.144843953234, -0.018000000000000002, 0.49, 0.131, 192.0, 0.0, 0.0, 0.0, 0.0, 0.0, 0.0, 0.0, 0.0, 0.0, 1.695418155297056E9, 0.0, 2023-09-22 16:29:15.297
236.0, 26467.728789774035, 13331.653276878988, -37085.23208918954, -63412.033130172866, -187500.02235174447, 7290.8708203877, -114076.1287899171, -187500.02235174447, -40441.90531276528, 6400.511431754999, -5213.387931989185, -69726.53504926384, -4331.969241138607, -22805.171943327423, -4668.3853469354335, 8495.182811639645, -0.028, 0.735, 0.1975, 192.0, 127.0, 104.0, 15.0, 80.0, 4.0, 32.0, 0.0, 0.0, 0.0, 1.695418155297059E9, 0.0, 2023-09-22 16:29:15.297
238.0, 26461.09032167081, 13319.091596495104, -37091.08824623683, -63422.29258087785, -187500.02235174447, 7342.033963445898, -113954.13296868003, -187500.02235174447, -40464.458222920686, 6384.015844346982, -5209.006990075945, -69756.2181659005, -4341.625194743299, -22803.04852760417, -4661.568064876565, 8510.91843973618, -0.028, 0.735, 0.1975, 192.0, 0.0, 0.0, 0.0, 0.0, 0.0, 0.0, 0.0, 0.0, 0.0, 1.695418155297062E9, 0.0, 2023-09-22 16:29:15.297
240.0, 26474.791941021915, 13333.083788524127, -37087.86959503527, -63410.982598183466, -187500.02235174447, 7308.662808974124, -114034.64395220805, -187500.02235174447, -40465.44169967672, 6373.599931430809, -5191.907905567635, -69756.48638683396, -4352.130514637293, -22813.106812609054, -4679.047129040615, 8523.055436975412, -0.028, 0.735, 0.1975, 192.0, 0.0, 0.0, 0.0, 0.0, 0.0, 0.0, 0.0, 0.0, 0.0, 1.695418155297065E9, 0.0, 2023-09-22 16:29:15.297
0.0, 13229.706970418332, 6667.503019273641, -18540.63791521048, -31711.202169800064, -93750.01117587223, 3629.7444855862245, -56953.56362504526, -93750.01117587223, -20224.43952851767, 3195.2042216306, -2601.2736679641807, -34869.70482703505, -2161.6595580172016, -11400.127279773627, -2317.495920359602, 4258.253187925004, -0.034, 0.978, 0.258, 192.0, 127.0, 120.0, 15.0, 72.0, 4.0, 8.0, 0.0, 0.0, 0.0, 1.695418155453003E9, 0.0, 2023-09-22 16:29:15.453
2.0, 26465.71713277306, 13340.459864194378, -37097.123217239765, -63417.0175691864, -187500.02235174447, 7303.097224604753, -113853.8183395646, -187500.02235174447, -40558.335549632975, 6439.984612463071, -5141.839997987748, -69710.3076827893, -4697.219097282779, -22781.188521526878, -4627.34754411549, 8761.59325380245, -0.034, 0.978, 0.258, 192.0, 0.0, 0.0, 0.0, 0.0, 0.0, 0.0, 0.0, 0.0, 0.0, 1.695418155453016E9, 0.0, 2023-09-22 16:29:15.453
4.0, 26480.62574632475, 13360.59878594861, -37077.49838560801, -63399.53850502235, -187500.02235174447, 7255.890340315144, -113953.1941954129, -187500.02235174447, -40532.16165687581, 6459.251816183546, -5164.817591287803, -69678.2999847293, -4685.640893654931, -22793.884312377493, -4629.24744239419, 8730.211404587199, -0.034, 0.978, 0.258, 192.0, 0.0, 0.0, 0.0, 0.0, 0.0, 0.0, 0.0, 0.0, 0.0, 1.695418155453019E9, 0.0, 2023-09-22 16:29:15.453
6.0, 26480.111656202276, 13356.910748113483, -37083.063969977375, -63403.04772890184, -187500.02235174447, 7288.054500586331, -113878.00292706526, -187500.02235174447, -40537.25785461162, 6452.903920758238, -5164.191742443054, -69686.25720575538, -4682.086966286536, -22791.51502746523, -4614.718808498241, 8740.090875636444, -0.034, 0.978, 0.258, 192.0, 0.0, 0.0, 0.0, 0.0, 0.0, 0.0, 0.0, 0.0, 0.0, 1.695418155453022E9, 0.0, 2023-09-22 16:29:15.453
8.0, 26475.86482475577, 13354.653221923498, -37088.96483051358, -63406.55695278132, -187500.02235174447, 7247.128456488665, -113956.03286695873, -187500.02235174447, -40534.083906898966, 6464.549179619454, -5167.231579688976, -69687.33008948923, -4687.339626233534, -22789.03398383069, -4641.742067544707, 8719.683732948748, -0.032, 0.976, 0.254, 192.0, 127.5, 0.0, 15.0, 64.0, 3.5, 120.0, 0.0, 0.0, 0.0, 1.695418155453025E9, 0.0, 2023-09-22 16:29:15.453
10.0, 26473.652002054692, 13349.847596865608, -37083.13102521074, -63410.96024643901, -187500.02235174447, 7288.076852330787, -113850.37617091849, -187500.02235174447, -40551.205343151734, 6454.222673681102, -5165.666957577105, -69700.49526697342, -4687.764309378184, -22786.08355356259, -4628.10750342697, 8734.078256377967, -0.032, 0.976, 0.254, 192.0, 0.0, 0.0, 0.0, 0.0, 0.0, 0.0, 0.0, 0.0, 0.0, 1.695418155453029E9, 0.0, 2023-09-22 16:29:15.453
12.0, 26479.038772468422, 13360.777599904251, -37075.017341973464, -63402.08660389026, -187500.02235174447, 7245.183854721053, -113942.30889586317, -187500.02235174447, -40527.78071496257, 6462.738688318574, -5164.884646521169, -69682.41270570907, -4676.074347028059, -22788.83281813059, -4629.269794138646, 8725.29402080703, -0.032, 0.976, 0.254, 192.0, 0.0, 0.0, 0.0, 0.0, 0.0, 0.0, 0.0, 0.0, 0.0, 1.695418155453032E9, 0.0, 2023-09-22 16:29:15.453
14.0, 26449.57917327633, 13330.06630302266, -37101.884138808746, -63433.021418216405, -187500.02235174447, 7295.475279745493, -113811.57354254408, -187500.02235174447, -40563.45409911324, 6431.915632714705, -5175.769946070904, -69714.06277585779, -4692.54758269162, -22803.249693304264, -4624.5982795474865, 8728.736189453148, -0.032, 0.976, 0.254, 192.0, 0.0, 0.0, 0.0, 0.0, 0.0, 0.0, 0.0, 0.0, 0.0, 1.695418155453035E9, 0.0, 2023-09-22 16:29:15.453
16.0, 26472.17678692064, 13354.027373078748, -37090.44004564763, -63412.41310982861, -187500.02235174447, 7275.872799858189, -113876.7288776313, -187500.02235174447, -40561.01775896761, 6431.89328097025, -5142.689364277049, -69711.06764210077, -4702.292943274134, -22793.280815277198, -4649.207550192779, 8759.581596801472, -0.032, 0.976, 0.254, 192.0, 0.0, 0.0, 0.0, 0.0, 0.0, 0.0, 0.0, 0.0, 0.0, 1.695418155512698E9, 0.0, 2023-09-22 16:29:15.512
18.0, 26475.95423173359, 13354.228538778847, -37069.518812837465, -63408.5686097823, -187500.02235174447, 7296.905791390633, -113795.48028653626, -187500.02235174447, -40540.655319768826, 6449.014717223015, -5180.754385084437, -69691.8004383803, -4676.87900982845, -22817.24188533329, -4619.166805644847, 8727.283326063553, -0.036000000000000004, 0.978, 0.252, 192.0, 127.0, 112.0, 15.0, 72.0, 3.5, 112.0, 0.0, 0.0, 0.0, 1.695418155512709E9, 0.0, 2023-09-22 16:29:15.512
20.0, 26469.47222584155, 13351.993364333317, -37084.29331592242, -63411.67550226158, -187500.02235174447, 7284.768794151401, -113834.21585967731, -187500.02235174447, -40550.713604773715, 6445.997231721549, -5138.710753764004, -69701.0987640737, -4689.664207656885, -22786.329422751598, -4630.499140083688, 8763.224931147686, -0.036000000000000004, 0.978, 0.252, 192.0, 0.0, 0.0, 0.0, 0.0, 0.0, 0.0, 0.0, 0.0, 0.0, 1.695418155512712E9, 0.0, 2023-09-22 16:29:15.512
22.0, 26469.069894441356, 13351.725143399854, -37073.8997547507, -63407.1157463927, -187500.02235174447, 7297.151660579641, -113755.76123663918, -187500.02235174447, -40556.74857577665, 6444.499664843043, -5177.6027891162385, -69701.25522628489, -4689.507745445699, -22807.831800917604, -4623.324230113534, 8743.063657649, -0.036000000000000004, 0.978, 0.252, 192.0, 0.0, 0.0, 0.0, 0.0, 0.0, 0.0, 0.0, 0.0, 0.0, 1.695418155512715E9, 0.0, 2023-09-22 16:29:15.512
24.0, 26478.368220134762, 13360.419971992967, -37080.985257743036, -63395.85046718723, -187500.02235174447, 7278.555009192826, -113818.36847285849, -187500.02235174447, -40547.852581483436, 6448.478275356088, -5147.293823634842, -69697.27661577184, -4685.037396554637, -22784.183655283887, -4622.810139991062, 8768.656405050326, -0.036000000000000004, 0.978, 0.252, 192.0, 0.0, 0.0, 0.0, 0.0, 0.0, 0.0, 0.0, 0.0, 0.0, 1.695418155512718E9, 0.0, 2023-09-22 16:29:15.512
26.0, 26462.878461227236, 13346.15955903048, -37075.106748951286, -63402.75715622392, -187500.02235174447, 7285.595808696247, -113767.0041641002, -187500.02235174447, -40550.62419779589, 6448.165350933713, -5195.417129447118, -69690.23581626842, -4676.677844128352, -22809.686995707394, -4608.013285161649, 8720.957782382702, -0.036000000000000004, 0.978, 0.252, 192.0, 0.0, 0.0, 0.0, 0.0, 0.0, 0.0, 0.0, 0.0, 0.0, 1.695418155512722E9, 0.0, 2023-09-22 16:29:15.512
28.0, 26458.18459489162, 13344.840806107619, -37098.665487607184, -63415.72116800799, -187500.02235174447, 7289.73088142048, -113782.35981254099, -187500.02235174447, -40568.77381429361, 6432.8097024929175, -5142.264681132398, -69708.36308102169, -4694.246315270223, -22779.400381970452, -4623.3912853469, 8772.210332418721, -0.034, 0.972, 0.256, 192.0, 127.0, 120.0, 15.0, 48.0, 4.0, 0.0, 0.0, 0.0, 0.0, 1.695418155512725E9, 0.0, 2023-09-22 16:29:15.512
30.0, 26479.86578701327, 13362.163408060482, -37067.17187966965, -63393.92821716407, -187500.02235174447, 7280.7678318939015, -113763.13731230942, -187500.02235174447, -40553.28405538607, 6456.882531271283, -5197.384082959185, -69699.64590068412, -4681.1258412749585, -22801.0815740921, -4618.585660289009, 8725.361076040397, -0.034, 0.972, 0.256, 192.0, 0.0, 0.0, 0.0, 0.0, 0.0, 0.0, 0.0, 0.0, 0.0, 1.69541815557306E9, 0.0, 2023-09-22 16:29:15.573
32.0, 26483.822045781857, 13368.399544763512, -37078.37010364176, -63386.35097579372, -187500.02235174447, 7294.000064611443, -113772.23447230273, -187500.02235174447, -40551.38415710737, 6453.440362625166, -5154.535788838361, -69690.1017058017, -4682.5340011756425, -22778.282794747687, -4614.852918964973, 8765.728326526681, -0.034, 0.972, 0.256, 192.0, 0.0, 0.0, 0.0, 0.0, 0.0, 0.0, 0.0, 0.0, 0.0, 1.695418155573073E9, 0.0, 2023-09-22 16:29:15.573
34.0, 26478.837606768324, 13363.45980923889, -37067.32834188084, -63391.22365608498, -187500.02235174447, 7281.505439460927, -113758.17522504035, -187500.02235174447, -40548.36667160591, 6463.297481929956, -5202.122652783711, -69680.95984231947, -4678.4883354292315, -22797.84057114608, -4613.645924764386, 8716.286267791542, -0.034, 0.972, 0.256, 192.0, 0.0, 0.0, 0.0, 0.0, 0.0, 0.0, 0.0, 0.0, 0.0, 1.695418155573076E9, 0.0, 2023-09-22 16:29:15.573
36.0, 26496.316670932374, 13382.816419937184, -37067.19423141411, -63387.356804294206, -187500.02235174447, 7289.5744192092925, -113763.6514024319, -187500.02235174447, -40546.31031111602, 6468.863066299327, -5154.356974882719, -69680.46810394146, -4677.884838328939, -22773.0748382896, -4600.570154258032, 8768.142314927854, -0.034, 0.972, 0.256, 192.0, 0.0, 0.0, 0.0, 0.0, 0.0, 0.0, 0.0, 0.0, 0.0, 1.695418155573081E9, 0.0, 2023-09-22 16:29:15.573
38.0, 26500.96583377908, 13389.633701996054, -37065.29433313541, -63393.235313085956, -187500.02235174447, 7264.29459623034, -113791.4122690454, -187500.02235174447, -40533.54746503204, 6483.257589728545, -5199.306332982342, -69672.42147593755, -4673.101565015503, -22796.387707756487, -4607.588602016998, 8707.993770598623, -0.034, 0.982, 0.258, 192.0, 127.0, 120.0, 15.0, 88.0, 4.0, 8.0, 0.0, 0.0, 0.0, 1.695418155573092E9, 0.0, 2023-09-22 16:29:15.573
40.0, 26507.224322226564, 13392.628835753065, -37072.26807740547, -63393.54823750833, -187500.02235174447, 7285.238180784962, -113769.52991122365, -187500.02235174447, -40537.77194473409, 6474.026319268503, -5154.021698715889, -69680.46810394146, -4676.342567961522, -22770.07970453259, -4600.547802513576, 8756.787628744558, -0.034, 0.982, 0.258, 192.0, 0.0, 0.0, 0.0, 0.0, 0.0, 0.0, 0.0, 0.0, 0.0, 1.695418155573097E9, 0.0, 2023-09-22 16:29:15.573
42.0, 26497.076630243857, 13378.79310593523, -37061.0475016889, -63396.94570266554, -187500.02235174447, 7256.426782182072, -113804.77861222967, -187500.02235174447, -40521.79044744855, 6478.876647815305, -5189.35980669973, -69667.12411250164, -4667.468925412765, -22791.1797512984, -4602.62651474792, 8706.451500231207, -0.034, 0.982, 0.258, 192.0, 0.0, 0.0, 0.0, 0.0, 0.0, 0.0, 0.0, 0.0, 0.0, 1.695418155573101E9, 0.0, 2023-09-22 16:29:15.573
44.0, 26488.225339439552, 13376.379117534056, -37075.5537838404, -63396.18574335406, -187500.02235174447, 7298.448061758049, -113737.52221316365, -187500.02235174447, -40557.32972113249, 6452.747458547051, -5138.01784968589, -69697.85776112769, -4691.184126279846, -22773.119541778513, -4602.425349047822, 8769.081088194978, -0.034, 0.982, 0.258, 192.0, 0.0, 0.0, 0.0, 0.0, 0.0, 0.0, 0.0, 0.0, 0.0, 1.695418155573104E9, 0.0, 2023-09-22 16:29:15.573
46.0, 26487.130103961244, 13378.726050701864, -37065.026112201944, -63384.45107751502, -187500.02235174447, 7259.824247339278, -113812.3111501111, -187500.02235174447, -40542.71168025872, 6474.607464624341, -5178.0051205164345, -69672.33206895973, -4684.210382009791, -22796.946501367867, -4605.4651862937435, 8717.985000370145, -0.034, 0.982, 0.258, 192.0, 0.0, 0.0, 0.0, 0.0, 0.0, 0.0, 0.0, 0.0, 0.0, 1.695418155633388E9, 0.0, 2023-09-22 16:29:15.633
48.0, 26484.559653348882, 13378.413126279489, -37079.62180133126, -63386.2615688159, -187500.02235174447, 7300.504422247937, -113751.0450185591, -187500.02235174447, -40556.234485654175, 6474.8980373022605, -5159.900207507635, -69681.18335976402, -4684.188030265335, -22776.248786002256, -4595.563363500043, 8752.607852531417, -0.032, 0.974, 0.26, 192.0, 127.5, 0.0, 15.0, 56.0, 4.0, 16.0, 0.0, 0.0, 0.0, 1.695418155633401E9, 0.0, 2023-09-22 16:29:15.633
50.0, 26489.834665040336, 13384.738669960341, -37068.82590875935, -63378.37140302318, -187500.02235174447, 7246.837883810746, -113858.13222624449, -187500.02235174447, -40544.23159888168, 6484.062252528936, -5184.97886478649, -69674.03080153833, -4683.003387809204, -22787.312899507633, -4610.516680540643, 8715.302791035509, -0.032, 0.974, 0.26, 192.0, 0.0, 0.0, 0.0, 0.0, 0.0, 0.0, 0.0, 0.0, 0.0, 1.695418155633404E9, 0.0, 2023-09-22 16:29:15.633
52.0, 26483.196196937108, 13374.74744018882, -37082.61693508827, -63394.73287996446, -187500.02235174447, 7289.663826187114, -113788.66300447739, -187500.02235174447, -40565.13047994739, 6465.711470331129, -5169.69027157906, -69690.12405754616, -4691.206478024302, -22783.803675628147, -4602.4700525367325, 8737.185148857254, -0.032, 0.974, 0.26, 192.0, 0.0, 0.0, 0.0, 0.0, 0.0, 0.0, 0.0, 0.0, 0.0, 1.695418155633407E9, 0.0, 2023-09-22 16:29:15.633
54.0, 26489.85701678479, 13384.828076938162, -37076.0008187295, -63394.911693920105, -187500.02235174447, 7250.190645479041, -113879.54519743267, -187500.02235174447, -40543.40458433683, 6481.290636216479, -5179.1227077391995, -69672.10855151518, -4686.780832622151, -22793.213760043833, -4623.681858024819, 8712.397064256318, -0.032, 0.974, 0.26, 192.0, 0.0, 0.0, 0.0, 0.0, 0.0, 0.0, 0.0, 0.0, 0.0, 1.69541815563341E9, 0.0, 2023-09-22 16:29:15.633
56.0, 26494.349717420308, 13388.113783373092, -37072.581001827835, -63398.622083499686, -187500.02235174447, 7292.457794244027, -113791.70284172331, -187500.02235174447, -40561.80007002355, 6466.650243598252, -5168.7962018008475, -69690.30287150179, -4694.693350159329, -22790.620957687017, -4612.841261963995, 8731.910137165802, -0.032, 0.974, 0.26, 192.0, 0.0, 0.0, 0.0, 0.0, 0.0, 0.0, 0.0, 0.0, 0.0, 1.695418155633414E9, 0.0, 2023-09-22 16:29:15.633
58.0, 26499.468266900574, 13389.186667106947, -37059.57228655485, -63388.139115350146, -187500.02235174447, 7255.443305426038, -113895.90667437395, -187500.02235174447, -40543.13636340337, 6473.266359957023, -5166.493972121951, -69668.55462414678, -4682.824573853562, -22783.244882016766, -4621.826663235029, 8717.448558503218, -0.03, 0.976, 0.254, 192.0, 127.5, 8.0, 15.0, 64.0, 3.5, 120.0, 0.0, 0.0, 0.0, 1.695418155633417E9, 0.0, 2023-09-22 16:29:15.633
60.0, 26492.09219123032, 13380.514190258287, -37063.55089706789, -63396.78924045435, -187500.02235174447, 7296.235239056974, -113821.65417929343, -187500.02235174447, -40548.612540794915, 6466.382022664789, -5177.088698993766, -69675.10368527219, -4678.220114495768, -22785.770629140214, -4604.191136859791, 8714.833404401947, -0.03, 0.976, 0.254, 192.0, 0.0, 0.0, 0.0, 0.0, 0.0, 0.0, 0.0, 0.0, 0.0, 1.695418155693574E9, 0.0, 2023-09-22 16:29:15.693
62.0, 26479.843435268813, 13366.343184273623, -37082.77339729946, -63410.133231894164, -187500.02235174447, 7273.123535290187, -113910.85999141456, -187500.02235174447, -40562.26945665711, 6461.308176673434, -5155.251044660931, -69682.63622315362, -4696.369730993478, -22770.951422566348, -4626.386419103911, 8727.216270830188, -0.03, 0.976, 0.254, 192.0, 0.0, 0.0, 0.0, 0.0, 0.0, 0.0, 0.0, 0.0, 0.0, 1.695418155693587E9, 0.0, 2023-09-22 16:29:15.693
64.0, 26493.790923808923, 13377.809629179195, -37067.261286647474, -63397.34803406573, -187500.02235174447, 7297.933971635577, -113848.45392089534, -187500.02235174447, -40571.65718932834, 6445.863121254817, -5175.8370013042695, -69698.17068555007, -4695.587419937542, -22787.894044863468, -4618.652715522375, 8727.551546997018, -0.03, 0.976, 0.254, 192.0, 0.0, 0.0, 0.0, 0.0, 0.0, 0.0, 0.0, 0.0, 0.0, 1.695418155693591E9, 0.0, 2023-09-22 16:29:15.693
66.0, 26494.9532145206, 13381.609425736598, -37069.00472271499, -63391.3130630628, -187500.02235174447, 7255.733878103957, -113958.0445239597, -187500.02235174447, -40545.72916576018, 6466.180856964691, -5169.444402390051, -69677.98706030691, -4677.97424530676, -22781.993184327268, -4610.29316309609, 8723.081198105956, -0.03, 0.976, 0.254, 192.0, 0.0, 0.0, 0.0, 0.0, 0.0, 0.0, 0.0, 0.0, 0.0, 1.695418155693594E9, 0.0, 2023-09-22 16:29:15.693
68.0, 26485.18550219363, 13374.479219255356, -37062.746234267506, -63392.96709215249, -187500.02235174447, 7269.904884088623, -113911.61995072603, -187500.02235174447, -40552.85937224142, 6470.137115733281, -5207.285905752887, -69676.91417657306, -4676.946065061816, -22794.085478077588, -4598.044407134582, 8692.81693611347, -0.028, 0.978, 0.25, 192.0, 127.5, 16.0, 15.0, 72.0, 3.5, 104.0, 0.0, 0.0, 0.0, 1.695418155693597E9, 0.0, 2023-09-22 16:29:15.693
70.0, 26452.574307033337, 13340.191643260914, -37088.8530717913, -63408.14392663765, -187500.02235174447, 7253.677517614069, -113984.88896905053, -187500.02235174447, -40568.28207591559, 6451.8310370243835, -5168.572684356294, -69692.47099071396, -4692.704044902807, -22765.60935564153, -4607.990933417193, 8721.315410293986, -0.028, 0.978, 0.25, 192.0, 0.0, 0.0, 0.0, 0.0, 0.0, 0.0, 0.0, 0.0, 0.0, 1.6954181556936E9, 0.0, 2023-09-22 16:29:15.693
72.0, 26429.350844544275, 13314.420081903945, -37081.02996123194, -63414.04478717384, -187500.02235174447, 7270.687195144558, -113938.1961748834, -187500.02235174447, -40583.54831737856, 6429.278126868979, -5205.587173174283, -69706.61964495416, -4698.604905439009, -22786.1282570515, -4616.574003288031, 8696.080290803944, -0.028, 0.978, 0.25, 192.0, 0.0, 0.0, 0.0, 0.0, 0.0, 0.0, 0.0, 0.0, 0.0, 1.695418155693604E9, 0.0, 2023-09-22 16:29:15.693
74.0, 26417.593826960783, 13305.904067266472, -37091.26706019248, -63408.322740593285, -187500.02235174447, 7273.7270323904795, -113993.650852877, -187500.02235174447, -40591.259669215644, 6427.355876845822, -5161.7554022974255, -69708.07250834376, -4703.097606074525, -22769.45385568784, -4624.218299891746, 8740.850834947925, -0.028, 0.978, 0.25, 192.0, 0.0, 0.0, 0.0, 0.0, 0.0, 0.0, 0.0, 0.0, 0.0, 1.695418155693607E9, 0.0, 2023-09-22 16:29:15.693
76.0, 26396.51613193943, 13283.708785022352, -37095.58094687235, -63417.755176753424, -187500.02235174447, 7278.845581870745, -113958.78213152674, -187500.02235174447, -40606.570614167525, 6422.192623876646, -5205.69893189656, -69718.86840091567, -4713.558222479609, -22792.923187365912, -4631.3485063729895, 8706.38444499784, -0.028, 0.978, 0.25, 192.0, 0.0, 0.0, 0.0, 0.0, 0.0, 0.0, 0.0, 0.0, 0.0, 1.69541815575303E9, 0.0, 2023-09-22 16:29:15.753
78.0, 26376.779541585394, 13264.083953390593, -37107.22620573357, -63422.672560533596, -187500.02235174447, 7267.9155788320995, -114012.31455949719, -187500.02235174447, -40603.19550075477, 6423.7125424996075, -5176.149925726643, -69714.44275551352, -4706.673885187374, -22772.85132084505, -4631.035581950615, 8741.677849492771, -0.032, 0.978, 0.256, 192.0, 127.5, 0.0, 15.0, 72.0, 4.0, 0.0, 0.0, 0.0, 0.0, 1.695418155753057E9, 0.0, 2023-09-22 16:29:15.753
80.0, 26367.637678103172, 13251.343459051068, -37087.91429852418, -63420.705607021526, -187500.02235174447, 7266.708584631513, -114008.02302456177, -187500.02235174447, -40619.22170152923, 6396.689283453141, -5220.69695242607, -69739.07437790328, -4716.7545219367175, -22799.874579891515, -4640.3339076440225, 8705.222154286164, -0.032, 0.978, 0.256, 192.0, 0.0, 0.0, 0.0, 0.0, 0.0, 0.0, 0.0, 0.0, 0.0, 1.69541815575306E9, 0.0, 2023-09-22 16:29:15.753
82.0, 26358.428759387585, 13240.055828101138, -37100.833606819346, -63424.79597625685, -187500.02235174447, 7266.529770675871, -114036.14151908655, -187500.02235174447, -40623.04384983109, 6381.467745479077, -5189.918600311113, -69738.29206684734, -4710.987771867249, -22792.342042010074, -4623.212471391257, 8743.421285560285, -0.032, 0.978, 0.256, 192.0, 0.0, 0.0, 0.0, 0.0, 0.0, 0.0, 0.0, 0.0, 0.0, 1.695418155753063E9, 0.0, 2023-09-22 16:29:15.753
84.0, 26340.54736382334, 13220.788624380664, -37094.128083482756, -63440.59865958675, -187500.02235174447, 7244.043915753832, -114059.25322285334, -187500.02235174447, -40607.75525662366, 6385.781632158952, -5251.050621396377, -69735.4086918126, -4702.047074085125, -22826.67432149343, -4630.1191604279475, 8679.942331307213, -0.032, 0.978, 0.256, 192.0, 0.0, 0.0, 0.0, 0.0, 0.0, 0.0, 0.0, 0.0, 0.0, 1.695418155753067E9, 0.0, 2023-09-22 16:29:15.753
86.0, 26334.82531724278, 13213.591362666055, -37103.1581882427, -63443.19146194357, -187500.02235174447, 7259.5783781502705, -114046.82565293618, -187500.02235174447, -40630.8893121349, 6358.646614390209, -5205.944801085568, -69761.02379095838, -4716.307487047611, -22812.41390853094, -4638.612823320964, 8735.844044189937, -0.032, 0.978, 0.256, 192.0, 0.0, 0.0, 0.0, 0.0, 0.0, 0.0, 0.0, 0.0, 0.0, 1.69541815575307E9, 0.0, 2023-09-22 16:29:15.753
88.0, 26312.853552443215, 13190.591417621545, -37104.23107197655, -63453.54031962637, -187500.02235174447, 7235.662011583092, -114079.25803414083, -187500.02235174447, -40627.04481208859, 6361.5523411693985, -5256.683260999115, -69760.01796245789, -4715.502824247221, -22835.70442625337, -4640.937404744316, 8680.970511552157, -0.03, 0.984, 0.254, 192.0, 127.5, 8.0, 15.0, 96.0, 3.5, 120.0, 0.0, 0.0, 0.0, 1.695418155753073E9, 0.0, 2023-09-22 16:29:15.753
90.0, 26314.239360599444, 13187.395118164435, -37110.28839472394, -63443.3255724103, -187500.02235174447, 7259.086639772254, -114048.65849598152, -187500.02235174447, -40644.322710552544, 6335.534910623421, -5217.254783779953, -69780.53686386786, -4724.063542373603, -22816.928960910915, -4641.25032916669, 8735.464064534195, -0.03, 0.984, 0.254, 192.0, 0.0, 0.0, 0.0, 0.0, 0.0, 0.0, 0.0, 0.0, 0.0, 1.695418155812841E9, 0.0, 2023-09-22 16:29:15.812
92.0, 26300.62714822616, 13171.570083090077, -37107.62853713376, -63447.952383512544, -187500.02235174447, 7219.211127663985, -114105.2307611979, -187500.02235174447, -40633.772687169636, 6336.585442612821, -5262.360604090763, -69773.5631195978, -4721.738960950251, -22838.632504777015, -4645.407753635377, 8681.216380741165, -0.03, 0.984, 0.254, 192.0, 0.0, 0.0, 0.0, 0.0, 0.0, 0.0, 0.0, 0.0, 0.0, 1.695418155812855E9, 0.0, 2023-09-22 16:29:15.812
94.0, 26283.52806371785, 13157.108504427493, -37134.182409546665, -63464.671488365115, -187500.02235174447, 7263.489933429949, -114036.5214987423, -187500.02235174447, -40651.76584145616, 6317.96643948155, -5235.247938066475, -69795.78075358638, -4730.143216865446, -22825.579086015117, -4646.614747835964, 8721.024837616067, -0.03, 0.984, 0.254, 192.0, 0.0, 0.0, 0.0, 0.0, 0.0, 0.0, 0.0, 0.0, 0.0, 1.695418155812858E9, 0.0, 2023-09-22 16:29:15.812
96.0, 26289.943014376524, 13162.718792285776, -37121.84424660733, -63447.46064513453, -187500.02235174447, 7231.281069669852, -114102.2803309298, -187500.02235174447, -40652.25757983418, 6317.206480170069, -5255.722135987537, -69797.85946582073, -4744.493036805754, -22829.267123850244, -4669.6817481138405, 8696.773194882058, -0.03, 0.984, 0.254, 192.0, 0.0, 0.0, 0.0, 0.0, 0.0, 0.0, 0.0, 0.0, 0.0, 1.695418155812862E9, 0.0, 2023-09-22 16:29:15.812
98.0, 26292.379354522152, 13165.132780686949, -37124.325290241875, -63448.868805035214, -187500.02235174447, 7262.506456673916, -114039.87426041058, -187500.02235174447, -40636.90193139338, 6333.098570477792, -5254.045755153389, -69778.07817197779, -4718.6320684709635, -22823.679187736416, -4644.2678146681565, 8711.81591890048, -0.03, 0.98, 0.252, 192.0, 127.5, 8.0, 15.0, 80.0, 3.5, 112.0, 0.0, 0.0, 0.0, 1.695418155812865E9, 0.0, 2023-09-22 16:29:15.812
100.0, 26278.990659593423, 13155.074495682062, -37136.484639225564, -63462.36925868622, -187500.02235174447, 7238.657145340103, -114094.45722037044, -187500.02235174447, -40649.24009433271, 6332.338611166312, -5258.8960837001905, -69790.01400351692, -4740.313260592611, -22810.737527696794, -4666.083117256537, 8696.750843137605, -0.03, 0.98, 0.252, 192.0, 0.0, 0.0, 0.0, 0.0, 0.0, 0.0, 0.0, 0.0, 0.0, 1.695418155812868E9, 0.0, 2023-09-22 16:29:15.812
102.0, 26288.24428179792, 13161.735315529742, -37128.32625249938, -63452.40038065915, -187500.02235174447, 7276.655110914125, -114007.88891409505, -187500.02235174447, -40665.98155092973, 6310.433901600111, -5245.306223071364, -69807.71658512553, -4749.65628977493, -22806.155420083454, -4663.11033524398, 8736.358134312408, -0.03, 0.98, 0.252, 192.0, 0.0, 0.0, 0.0, 0.0, 0.0, 0.0, 0.0, 0.0, 0.0, 1.695418155812871E9, 0.0, 2023-09-22 16:29:15.812
104.0, 26266.71955188746, 13134.600297761, -37138.33983401535, -63473.45572393605, -187500.02235174447, 7214.964296217478, -114117.85949681516, -187500.02235174447, -40642.445164018296, 6316.15594818067, -5276.866886242257, -69789.16463722762, -4732.736019222262, -22829.602400017073, -4661.92569278785, 8695.208572770187, -0.03, 0.98, 0.252, 192.0, 0.0, 0.0, 0.0, 0.0, 0.0, 0.0, 0.0, 0.0, 0.0, 1.695418155812874E9, 0.0, 2023-09-22 16:29:15.812
106.0, 26243.741958587405, 13107.375873014436, -37158.47875576958, -63497.93088411461, -187500.02235174447, 7251.308232701806, -114017.8130886332, -187500.02235174447, -40686.85808025099, 6261.081249842793, -5288.355682892285, -69841.17714657512, -4760.899217235949, -22853.272897395243, -4676.051995283603, 8701.735282151138, -0.03, 0.98, 0.252, 192.0, 0.0, 0.0, 0.0, 0.0, 0.0, 0.0, 0.0, 0.0, 0.0, 1.695418155873265E9, 0.0, 2023-09-22 16:29:15.873
108.0, 26259.969325061957, 13122.97739064424, -37136.23877003655, -63475.66854663713, -187500.02235174447, 7193.774842473847, -114120.54170614979, -187500.02235174447, -40668.10496665299, 6276.839229683785, -5296.245848685008, -69825.62033243422, -4754.998356699748, -22863.957031244878, -4680.902323830405, 8684.680901131738, -0.03, 0.98, 0.256, 192.0, 127.5, 8.0, 15.0, 80.0, 4.0, 0.0, 0.0, 0.0, 0.0, 1.695418155873289E9, 0.0, 2023-09-22 16:29:15.873
110.0, 26253.062636025268, 13117.232992319226, -37134.54003745795, -63487.17969503161, -187500.02235174447, 7218.42881660805, -114026.99965560433, -187500.02235174447, -40677.4032923464, 6269.463154013533, -5315.088369260832, -69841.5347744864, -4752.539664809664, -22866.32631615714, -4654.080230484036, 8670.062860257967, -0.03, 0.98, 0.256, 192.0, 0.0, 0.0, 0.0, 0.0, 0.0, 0.0, 0.0, 0.0, 0.0, 1.695418155873296E9, 0.0, 2023-09-22 16:29:15.873
112.0, 26248.055845267278, 13105.923009624841, -37142.497258484036, -63485.927997342114, -187500.02235174447, 7171.668967207547, -114117.25599971486, -187500.02235174447, -40661.242981105206, 6278.9626454070385, -5301.699674332103, -69826.08971906778, -4743.733077494273, -22859.441978864907, -4662.5738933770535, 8663.558502621472, -0.03, 0.98, 0.256, 192.0, 0.0, 0.0, 0.0, 0.0, 0.0, 0.0, 0.0, 0.0, 0.0, 1.6954181558733E9, 0.0, 2023-09-22 16:29:15.873
114.0, 26221.41256587655, 13076.374003454925, -37161.0715581264, -63511.096061598786, -187500.02235174447, 7219.211127663985, -114000.22226574687, -187500.02235174447, -40693.31773439857, 6243.71394440102, -5316.317715205874, -69846.69802745558, -4762.977929470293, -22871.91425227097, -4661.612768365475, 8655.288357173009, -0.03, 0.98, 0.256, 192.0, 0.0, 0.0, 0.0, 0.0, 0.0, 0.0, 0.0, 0.0, 0.0, 1.695418155873303E9, 0.0, 2023-09-22 16:29:15.873
116.0, 26232.074347981736, 13089.248608261181, -37156.08711911287, -63490.979491589016, -187500.02235174447, 7197.954618686988, -114054.00056290634, -187500.02235174447, -40696.1564059444, 6235.712019886019, -5276.486906586517, -69851.45894902456, -4774.04204297567, -22861.163063187967, -4680.678806385852, 8694.068633802966, -0.03, 0.98, 0.256, 192.0, 0.0, 0.0, 0.0, 0.0, 0.0, 0.0, 0.0, 0.0, 0.0, 1.695418155873307E9, 0.0, 2023-09-22 16:29:15.873
118.0, 26209.812010504247, 13064.505227149157, -37174.01321816602, -63519.50031751399, -187500.02235174447, 7229.33646790224, -113960.39145712751, -187500.02235174447, -40696.31286815558, 6237.030772808883, -5318.172909995665, -69861.45017879608, -4768.878790006494, -22882.643089609515, -4671.224018481257, 8663.625557854839, -0.028, 0.976, 0.256, 192.0, 127.5, 16.0, 15.0, 64.0, 4.0, 0.0, 0.0, 0.0, 0.0, 1.69541815587331E9, 0.0, 2023-09-22 16:29:15.873
120.0, 26236.298827683786, 13087.885151849408, -37171.28630534247, -63498.780250403914, -187500.02235174447, 7218.071188696765, -114011.53224844126, -187500.02235174447, -40707.019353749674, 6221.295144712347, -5276.196333908598, -69879.13040866023, -4785.866115792527, -22855.28455439622, -4694.559239692598, 8715.168680568777, -0.028, 0.976, 0.256, 192.0, 0.0, 0.0, 0.0, 0.0, 0.0, 0.0, 0.0, 0.0, 0.0, 1.695418155933468E9, 0.0, 2023-09-22 16:29:15.933
122.0, 26226.66522582355, 13071.657785374855, -37152.89081965576, -63501.61892194974, -187500.02235174447, 7218.562927074782, -113967.4993118643, -187500.02235174447, -40678.029141191146, 6238.885967598673, -5337.194244527131, -69848.9332019011, -4754.305452621634, -22891.404973435998, -4667.73714634623, 8661.278624687031, -0.028, 0.976, 0.256, 192.0, 0.0, 0.0, 0.0, 0.0, 0.0, 0.0, 0.0, 0.0, 0.0, 1.695418155933501E9, 0.0, 2023-09-22 16:29:15.933
124.0, 26227.827516535228, 13070.987233041196, -37160.71393021511, -63499.24963703748, -187500.02235174447, 7214.606668306193, -113998.67999537945, -187500.02235174447, -40688.84738550751, 6224.022057535894, -5290.657912571181, -69857.3374578163, -4760.98862421377, -22864.538176600716, -4671.358128947989, 8709.938372366236, -0.028, 0.976, 0.256, 192.0, 0.0, 0.0, 0.0, 0.0, 0.0, 0.0, 0.0, 0.0, 0.0, 1.695418155933505E9, 0.0, 2023-09-22 16:29:15.933
126.0, 26209.029699448314, 13049.462503130735, -37168.73820647457, -63526.205840850576, -187500.02235174447, 7226.967182989977, -113936.89977370498, -187500.02235174447, -40697.385751889444, 6214.902545798129, -5331.114570035287, -69867.79807422138, -4770.4657638628205, -22882.598386120604, -4675.470849927766, 8671.068688758456, -0.028, 0.976, 0.256, 192.0, 0.0, 0.0, 0.0, 0.0, 0.0, 0.0, 0.0, 0.0, 0.0, 1.695418155933508E9, 0.0, 2023-09-22 16:29:15.933
128.0, 26224.76532754485, 13066.449828916768, -37164.871354683804, -63507.3409685303, -187500.02235174447, 7232.912747015089, -113950.10965467808, -187500.02235174447, -40700.82792053556, 6204.576039859777, -5280.040833954911, -69873.3413068463, -4777.037176732681, -22860.872490510046, -4685.573838421565, 8734.190015100243, -0.028, 0.972, 0.262, 192.0, 127.5, 16.0, 15.0, 48.0, 4.0, 24.0, 0.0, 0.0, 0.0, 1.695418155933516E9, 0.0, 2023-09-22 16:29:15.933
130.0, 26233.90719102707, 13076.441058688291, -37141.49142998355, -63499.58491320431, -187500.02235174447, 7211.767996760368, -113952.56834656815, -187500.02235174447, -40684.26527789418, 6217.249478965936, -5335.517863692983, -69854.56584150385, -4760.452182346843, -22888.72276410136, -4679.047129040615, 8676.008424283078, -0.028, 0.972, 0.262, 192.0, 0.0, 0.0, 0.0, 0.0, 0.0, 0.0, 0.0, 0.0, 0.0, 1.695418155933519E9, 0.0, 2023-09-22 16:29:15.933
132.0, 26226.37465314563, 13062.940605037285, -37156.0200638795, -63512.43716626611, -187500.02235174447, 7233.270374926374, -113934.396378326, -187500.02235174447, -40680.28666738113, 6215.6848568540645, -5290.590857337816, -69856.62220199373, -4748.382240340977, -22852.468234594853, -4655.577797362542, 8717.090930591934, -0.028, 0.972, 0.262, 192.0, 0.0, 0.0, 0.0, 0.0, 0.0, 0.0, 0.0, 0.0, 0.0, 1.695418155933522E9, 0.0, 2023-09-22 16:29:15.933
134.0, 26227.067557223745, 13059.096104990973, -37149.78392717647, -63511.47604125453, -187500.02235174447, 7220.216956164474, -113927.22146835584, -187500.02235174447, -40690.0543797081, 6201.960885758506, -5319.066979773877, -69864.86999569774, -4763.044984703659, -22879.46914189686, -4672.475716170754, 8681.439898185718, -0.028, 0.972, 0.262, 192.0, 0.0, 0.0, 0.0, 0.0, 0.0, 0.0, 0.0, 0.0, 0.0, 1.695418155933525E9, 0.0, 2023-09-22 16:29:15.933
136.0, 26245.798319077294, 13075.278767976615, -37142.139630572754, -63502.71415742805, -187500.02235174447, 7233.963279004488, -113913.31868330463, -187500.02235174447, -40681.024274948155, 6203.8831357816625, -5280.599627566294, -69853.44825428107, -4753.143161909958, -22868.09210396911, -4665.390213178422, 8726.992753385633, -0.028, 0.972, 0.262, 192.0, 0.0, 0.0, 0.0, 0.0, 0.0, 0.0, 0.0, 0.0, 0.0, 1.695418155993715E9, 0.0, 2023-09-22 16:29:15.993
138.0, 26229.503897369374, 13056.43624740079, -37156.37769179078, -63522.85307918228, -187500.02235174447, 7211.186851404531, -113938.24087837231, -187500.02235174447, -40678.18560340233, 6195.769452544386, -5312.8978983042125, -69861.83015845182, -4764.408441115433, -22880.38556341953, -4682.824573853562, 8681.1493255078, -0.03, 0.976, 0.264, 192.0, 127.5, 8.0, 15.0, 64.0, 4.0, 32.0, 0.0, 0.0, 0.0, 1.695418155993726E9, 0.0, 2023-09-22 16:29:15.993
140.0, 26244.81484232126, 13073.043593531083, -37147.884028897766, -63506.9386371301, -187500.02235174447, 7226.7660172898795, -113909.34007279159, -187500.02235174447, -40674.20699288929, 6193.199001932026, -5290.099118959799, -69864.15473987517, -4754.059583432625, -22869.47791212534, -4672.408660937388, 8720.398988771318, -0.03, 0.976, 0.264, 192.0, 0.0, 0.0, 0.0, 0.0, 0.0, 0.0, 0.0, 0.0, 0.0, 1.695418155993729E9, 0.0, 2023-09-22 16:29:15.993
142.0, 26225.70410081197, 13047.272032174114, -37154.030758622976, -63522.562506504364, -187500.02235174447, 7202.089691411221, -113949.66261978897, -187500.02235174447, -40673.02235043316, 6195.7247490554755, -5323.514976920483, -69868.22275736603, -4759.267539890711, -22878.083333740633, -4687.853716356006, 8675.583741138427, -0.03, 0.976, 0.264, 192.0, 0.0, 0.0, 0.0, 0.0, 0.0, 0.0, 0.0, 0.0, 0.0, 1.695418155993732E9, 0.0, 2023-09-22 16:29:15.993
144.0, 26228.162792702056, 13048.501378119157, -37158.3222935584, -63517.309846557364, -187500.02235174447, 7247.217863466485, -113868.88341532748, -187500.02235174447, -40686.99219071772, 6169.327338853757, -5288.154517192187, -69881.23147263903, -4762.262673647723, -22869.343801658608, -4673.503896415698, 8726.612773729894, -0.03, 0.976, 0.264, 192.0, 0.0, 0.0, 0.0, 0.0, 0.0, 0.0, 0.0, 0.0, 0.0, 1.695418155993735E9, 0.0, 2023-09-22 16:29:15.993
146.0, 26255.543679659808, 13074.16118075385, -37140.08327008287, -63499.629616693215, -187500.02235174447, 7197.731101242435, -113947.56155581017, -187500.02235174447, -40669.848402720505, 6183.118365182682, -5306.594706367816, -69865.76406547596, -4759.178132912891, -22876.0493249952, -4679.360053462989, 8699.43305247224, -0.03, 0.976, 0.264, 192.0, 0.0, 0.0, 0.0, 0.0, 0.0, 0.0, 0.0, 0.0, 0.0, 1.695418155993739E9, 0.0, 2023-09-22 16:29:15.993
148.0, 26260.52811867334, 13079.927930823318, -37146.58762771936, -63506.64806445218, -187500.02235174447, 7235.52790111636, -113867.60936589353, -187500.02235174447, -40651.76584145616, 6202.586734603255, -5297.117566718765, -69860.01966715093, -4745.968251939804, -22863.509996355773, -4653.387326405922, 8716.86741314738, -0.028, 0.974, 0.262, 192.0, 127.5, 16.0, 15.0, 56.0, 4.0, 24.0, 0.0, 0.0, 0.0, 1.695418155993742E9, 0.0, 2023-09-22 16:29:15.993
150.0, 26253.420263936554, 13073.423573186825, -37156.80237493543, -63515.11937560074, -187500.02235174447, 7212.6173630496705, -113929.1884218679, -187500.02235174447, -40654.22453334624, 6208.711112584008, -5292.1778311941425, -69860.13142587322, -4757.501752078742, -22856.29038289671, -4668.944140546816, 8708.418453743274, -0.028, 0.974, 0.262, 192.0, 0.0, 0.0, 0.0, 0.0, 0.0, 0.0, 0.0, 0.0, 0.0, 1.695418156053077E9, 0.0, 2023-09-22 16:29:16.053
152.0, 26266.2501652539, 13082.610140157956, -37150.99092137706, -63512.90655289967, -187500.02235174447, 7259.064288027798, -113828.24794390774, -187500.02235174447, -40650.67060597785, 6189.667426308087, -5280.487868844017, -69862.83598695231, -4751.600891542541, -22865.789874290214, -4664.026756766648, 8738.280384335565, -0.028, 0.974, 0.262, 192.0, 0.0, 0.0, 0.0, 0.0, 0.0, 0.0, 0.0, 0.0, 0.0, 1.695418156053093E9, 0.0, 2023-09-22 16:29:16.053
154.0, 26281.605813694696, 13105.677140435833, -37146.833496908366, -63502.647102194685, -187500.02235174447, 7226.788369034335, -113905.76379367875, -187500.02235174447, -40631.26929179064, 6216.690685354553, -5273.625883296238, -69843.56878323184, -4751.690298520362, -22864.940508000913, -4666.887780056927, 8740.090875636444, -0.028, 0.974, 0.262, 192.0, 0.0, 0.0, 0.0, 0.0, 0.0, 0.0, 0.0, 0.0, 0.0, 1.695418156053097E9, 0.0, 2023-09-22 16:29:16.053
156.0, 26301.074183115266, 13126.598373245999, -37138.45159273763, -63494.62282593523, -187500.02235174447, 7264.182837508063, -113821.00597870423, -187500.02235174447, -40621.72509690822, 6241.7469908889525, -5283.035967711922, -69832.77289065992, -4740.246205359245, -22866.70629581288, -4646.927672258338, 8749.433904818763, -0.028, 0.974, 0.262, 192.0, 0.0, 0.0, 0.0, 0.0, 0.0, 0.0, 0.0, 0.0, 0.0, 1.6954181560531E9, 0.0, 2023-09-22 16:29:16.053
158.0, 26332.791308497348, 13166.071553954072, -37124.325290241875, -63475.7803053594, -187500.02235174447, 7229.425874880061, -113915.15152634998, -187500.02235174447, -40600.1333117644, 6260.008366108938, -5255.163342376154, -69811.96341657203, -4737.519292535698, -22834.43037681942, -4647.3747071474445, 8764.051945692534, -0.022, 0.98, 0.264, 192.0, 127.5, 40.0, 15.0, 80.0, 4.0, 32.0, 0.0, 0.0, 0.0, 1.695418156053103E9, 0.0, 2023-09-22 16:29:16.053
160.0, 26339.943866723046, 13176.554522103612, -37121.82189486288, -63481.07766879531, -187500.02235174447, 7274.285826001862, -113821.5647723156, -187500.02235174447, -40589.158605236844, 6279.029700640404, -5264.215798880554, -69797.99357628747, -4728.600946498031, -22846.321504869644, -4620.887889967906, 8759.313375868009, -0.022, 0.98, 0.264, 192.0, 0.0, 0.0, 0.0, 0.0, 0.0, 0.0, 0.0, 0.0, 0.0, 1.695418156053106E9, 0.0, 2023-09-22 16:29:16.053
162.0, 26375.818416573813, 13218.575801679588, -37113.14941801422, -63465.83377907679, -187500.02235174447, 7250.391811179139, -113913.47514551583, -187500.02235174447, -40571.053692228044, 6307.975209710027, -5219.355847758752, -69775.59712834324, -4726.74575170824, -22821.71223422435, -4630.052105194582, 8792.103384983944, -0.022, 0.98, 0.264, 192.0, 0.0, 0.0, 0.0, 0.0, 0.0, 0.0, 0.0, 0.0, 0.0, 1.69541815605311E9, 0.0, 2023-09-22 16:29:16.053
164.0, 26389.587091158282, 13242.626278713498, -37098.01728701798, -63459.776456329404, -187500.02235174447, 7284.142945306653, -113843.91651677091, -187500.02235174447, -40566.382177636886, 6322.325029650335, -5232.141045587188, -69762.09667469223, -4721.493091761243, -22823.545077269686, -4612.975372430727, 8784.682605824783, -0.022, 0.98, 0.264, 192.0, 0.0, 0.0, 0.0, 0.0, 0.0, 0.0, 0.0, 0.0, 0.0, 1.695418156053113E9, 0.0, 2023-09-22 16:29:16.053
166.0, 26411.9835391025, 13272.957595939351, -37097.86082480679, -63445.85131953375, -187500.02235174447, 7263.333471218762, -113921.70058747538, -187500.02235174447, -40559.7213577892, 6359.808905101884, -5191.326760211798, -69745.82460472877, -4715.167548080391, -22797.974681612814, -4614.629401520419, 8817.293800985075, -0.022, 0.98, 0.264, 192.0, 0.0, 0.0, 0.0, 0.0, 0.0, 0.0, 0.0, 0.0, 0.0, 1.695418156112821E9, 0.0, 2023-09-22 16:29:16.112
168.0, 26422.757079929957, 13282.412383843945, -37084.472129878064, -63440.95628749803, -187500.02235174447, 7286.892209874655, -113854.10891224253, -187500.02235174447, -40544.142191903855, 6372.638806419231, -5221.41220824864, -69729.93251442105, -4705.64570494243, -22807.36241428404, -4597.083282123003, 8788.772975060103, -0.028, 0.968, 0.26, 192.0, 127.5, 16.0, 15.0, 32.0, 4.0, 16.0, 0.0, 0.0, 0.0, 1.695418156112833E9, 0.0, 2023-09-22 16:29:16.112
170.0, 26454.51890880095, 13318.242230205802, -37082.54987985491, -63420.99617969945, -187500.02235174447, 7282.8241923837895, -113905.09324134508, -187500.02235174447, -40539.22480812369, 6370.8283151183505, -5163.051803475833, -69719.82952592726, -4709.7137224332955, -22778.30514649214, -4608.817947962039, 8842.506568730661, -0.028, 0.968, 0.26, 192.0, 0.0, 0.0, 0.0, 0.0, 0.0, 0.0, 0.0, 0.0, 0.0, 1.695418156112837E9, 0.0, 2023-09-22 16:29:16.112
172.0, 26465.359504861775, 13328.613439633065, -37068.96001922608, -63423.7677960119, -187500.02235174447, 7282.623026683692, -113872.14677001796, -187500.02235174447, -40522.52805501557, 6396.778690430962, -5209.342266242775, -69702.50692397439, -4691.228829768757, -22802.333271781597, -4592.456471020755, 8794.249152451654, -0.028, 0.968, 0.26, 192.0, 0.0, 0.0, 0.0, 0.0, 0.0, 0.0, 0.0, 0.0, 0.0, 1.69541815611284E9, 0.0, 2023-09-22 16:29:16.112
174.0, 26491.421638896663, 13355.144960301515, -37064.48967033502, -63408.7697754824, -187500.02235174447, 7264.696927630535, -113922.21467759785, -187500.02235174447, -40505.98776411865, 6409.720350470585, -5164.728184309982, -69691.71103140248, -4683.562181420587, -22781.2779285047, -4585.14745058387, 8829.721370902225, -0.028, 0.968, 0.26, 192.0, 0.0, 0.0, 0.0, 0.0, 0.0, 0.0, 0.0, 0.0, 0.0, 1.695418156112843E9, 0.0, 2023-09-22 16:29:16.112
176.0, 26470.254536897486, 13335.207204247381, -37075.933763496134, -63432.84260426076, -187500.02235174447, 7275.9175033471, -113885.1331335465, -187500.02235174447, -40519.756438703116, 6406.2781818244675, -5203.441405706573, -69701.54579896282, -4686.579666922053, -22793.638443188484, -4594.199907088269, 8785.040233736067, -0.028, 0.968, 0.26, 192.0, 0.0, 0.0, 0.0, 0.0, 0.0, 0.0, 0.0, 0.0, 0.0, 1.695418156112847E9, 0.0, 2023-09-22 16:29:16.112
178.0, 26505.9055693037, 13376.177951833959, -37067.551859325395, -63406.869877203695, -187500.02235174447, 7283.405337739628, -113910.61412222554, -187500.02235174447, -40516.314270056995, 6417.051722651926, -5151.898282992635, -69698.01422333888, -4690.6923879018295, -22763.016553284713, -4605.599296760475, 8844.920557131834, -0.03, 0.97, 0.256, 192.0, 127.5, 8.0, 15.0, 40.0, 4.0, 0.0, 0.0, 0.0, 0.0, 1.69541815611285E9, 0.0, 2023-09-22 16:29:16.112
180.0, 26497.031926754946, 13365.449114495412, -37055.48191731953, -63405.193496369546, -187500.02235174447, 7255.86798857069, -113933.90463994797, -187500.02235174447, -40498.58933670394, 6442.040972952959, -5205.654228407649, -69675.10368527219, -4669.748803347207, -22791.805600143147, -4589.52839249711, 8778.602931332938, -0.03, 0.97, 0.256, 192.0, 0.0, 0.0, 0.0, 0.0, 0.0, 0.0, 0.0, 0.0, 0.0, 1.695418156173079E9, 0.0, 2023-09-22 16:29:16.173
182.0, 26505.816162325882, 13371.88641689854, -37068.870612248254, -63407.495726048444, -187500.02235174447, 7275.246951013441, -113925.61214275505, -187500.02235174447, -40508.692325197735, 6409.809757448406, -5150.8924544921465, -69673.22613873794, -4680.097661030014, -22774.773570868205, -4583.314607538535, 8829.22963252421, -0.03, 0.97, 0.256, 192.0, 0.0, 0.0, 0.0, 0.0, 0.0, 0.0, 0.0, 0.0, 0.0, 1.695418156173094E9, 0.0, 2023-09-22 16:29:16.173
184.0, 26498.015403510977, 13367.97486161886, -37059.95226621059, -63418.62689478719, -187500.02235174447, 7261.478276428971, -113948.90266047748, -187500.02235174447, -40506.09952284092, 6413.810719705906, -5183.660111863627, -69676.1989207505, -4685.193858765824, -22791.045640831668, -4597.977351901216, 8790.516411127617, -0.03, 0.97, 0.256, 192.0, 0.0, 0.0, 0.0, 0.0, 0.0, 0.0, 0.0, 0.0, 0.0, 1.695418156173098E9, 0.0, 2023-09-22 16:29:16.173
186.0, 26508.34190944933, 13382.928178659462, -37066.635437802724, -63413.24012437346, -187500.02235174447, 7295.899962890144, -113907.887209402, -187500.02235174447, -40514.839054922944, 6424.114873899803, -5133.502797305918, -69695.77904889334, -4692.011140824693, -22769.967945810313, -4589.9083721528505, 8852.60955722446, -0.03, 0.97, 0.256, 192.0, 0.0, 0.0, 0.0, 0.0, 0.0, 0.0, 0.0, 0.0, 0.0, 1.695418156173101E9, 0.0, 2023-09-22 16:29:16.173
188.0, 26507.738412349037, 13382.324681559168, -37060.086376677325, -63411.049653416834, -187500.02235174447, 7263.780506107868, -113959.45268386039, -187500.02235174447, -40499.43870299324, 6437.391810106255, -5171.7913355578585, -69680.06577254126, -4683.383367464944, -22776.964041824824, -4596.3680263004335, 8811.057664282043, -0.03, 0.978, 0.262, 192.0, 127.5, 8.0, 15.0, 72.0, 4.0, 24.0, 0.0, 0.0, 0.0, 1.695418156173104E9, 0.0, 2023-09-22 16:29:16.173
190.0, 26494.684993587136, 13368.667765696975, -37085.36619965627, -63427.902868736135, -187500.02235174447, 7314.54131776587, -113884.68609865739, -187500.02235174447, -40518.66120322481, 6416.403522062722, -5142.287032876853, -69694.43794422603, -4692.905210602905, -22777.478131947297, -4592.679988465308, 8860.678536972826, -0.03, 0.978, 0.262, 192.0, 0.0, 0.0, 0.0, 0.0, 0.0, 0.0, 0.0, 0.0, 0.0, 1.695418156173107E9, 0.0, 2023-09-22 16:29:16.173
192.0, 26512.834610084847, 13388.717280473385, -37061.56159181137, -63402.69010099055, -187500.02235174447, 7283.517096461904, -113951.98720121232, -187500.02235174447, -40513.47559851118, 6415.196527862136, -5159.609634829716, -69688.51473194537, -4703.052902585614, -22779.042754059166, -4611.746026485685, 8843.110065830955, -0.03, 0.978, 0.262, 192.0, 0.0, 0.0, 0.0, 0.0, 0.0, 0.0, 0.0, 0.0, 0.0, 1.695418156173111E9, 0.0, 2023-09-22 16:29:16.173
194.0, 26518.891932832234, 13395.109879387604, -37057.02418768695, -63399.69496723354, -187500.02235174447, 7319.168128868119, -113892.129229561, -187500.02235174447, -40498.58933670394, 6436.184815905669, -5152.322966137286, -69672.6449933821, -4680.410585452389, -22770.83966384407, -4577.704319680252, 8867.696984731792, -0.03, 0.978, 0.262, 192.0, 0.0, 0.0, 0.0, 0.0, 0.0, 0.0, 0.0, 0.0, 0.0, 1.695418156173114E9, 0.0, 2023-09-22 16:29:16.173
196.0, 26526.759746880503, 13404.3635015921, -37052.933818451624, -63395.13521136466, -187500.02235174447, 7286.042843585354, -113975.27771893475, -187500.02235174447, -40493.940173857234, 6440.0293159519815, -5159.140248196155, -69679.5963859077, -4687.205515766802, -22760.31199220562, -4599.944305413283, 8850.530844990117, -0.03, 0.978, 0.262, 192.0, 0.0, 0.0, 0.0, 0.0, 0.0, 0.0, 0.0, 0.0, 0.0, 1.695418156233491E9, 0.0, 2023-09-22 16:29:16.233
198.0, 26519.11545027679, 13391.533600274755, -37060.645170288706, -63407.60748477072, -187500.02235174447, 7332.713286008035, -113895.90667437395, -187500.02235174447, -40500.44453149373, 6449.998193979049, -5151.1159719367, -69680.26693824136, -4686.669073899874, -22754.411131669418, -4579.671273192319, 8873.463734801262, -0.03, 0.972, 0.26, 192.0, 127.5, 8.0, 15.0, 48.0, 4.0, 16.0, 0.0, 0.0, 0.0, 1.695418156233503E9, 0.0, 2023-09-22 16:29:16.233
200.0, 26543.635313944258, 13417.349865120634, -37035.1418298652, -63375.77860066636, -187500.02235174447, 7279.5384859488595, -114014.66149266499, -187500.02235174447, -40485.714731897686, 6429.032257679971, -5151.361841125708, -69653.51190012836, -4682.0646145420815, -22762.74833235125, -4594.557534999554, 8862.623138740437, -0.03, 0.972, 0.26, 192.0, 0.0, 0.0, 0.0, 0.0, 0.0, 0.0, 0.0, 0.0, 0.0, 1.695418156233509E9, 0.0, 2023-09-22 16:29:16.233
202.0, 26531.364206238297, 13407.023359182282, -37048.888152705214, -63394.95639740901, -187500.02235174447, 7317.849375945256, -113943.98527669732, -187500.02235174447, -40488.12872029885, 6435.089580427359, -5160.168428441099, -69661.89380429909, -4671.134611503436, -22760.31199220562, -4570.909389365839, 8858.979804394223, -0.03, 0.972, 0.26, 192.0, 0.0, 0.0, 0.0, 0.0, 0.0, 0.0, 0.0, 0.0, 0.0, 1.695418156233513E9, 0.0, 2023-09-22 16:29:16.233
204.0, 26554.051226860433, 13434.650115329041, -37032.8396001863, -63372.5599494648, -187500.02235174447, 7273.928198090577, -114073.55833930473, -187500.02235174447, -40478.11513878288, 6462.783391807484, -5146.9585474680125, -69657.46815889694, -4672.87804757095, -22733.35578839252, -4587.874363407417, 8860.119743361443, -0.03, 0.972, 0.26, 192.0, 0.0, 0.0, 0.0, 0.0, 0.0, 0.0, 0.0, 0.0, 0.0, 1.695418156233519E9, 0.0, 2023-09-22 16:29:16.233
206.0, 26548.776215168982, 13425.195327424446, -37029.48683851801, -63380.89715014663, -187500.02235174447, 7285.439346485061, -114030.35241727263, -187500.02235174447, -40471.990760802124, 6461.621101095808, -5176.395794915652, -69648.61686809265, -4661.366899176467, -22752.555936879628, -4560.337014238478, 8835.733990160703, -0.03, 0.972, 0.26, 192.0, 0.0, 0.0, 0.0, 0.0, 0.0, 0.0, 0.0, 0.0, 0.0, 1.695418156233522E9, 0.0, 2023-09-22 16:29:16.233
208.0, 26543.411796499706, 13423.18367042347, -37043.52373403594, -63387.89324616114, -187500.02235174447, 7265.613349153203, -114118.59710438218, -187500.02235174447, -40490.87798486686, 6443.56089157592, -5144.656317789116, -69661.89380429909, -4683.159850020391, -22740.575401851584, -4585.639188961886, 8852.810722924558, -0.03, 0.976, 0.26, 192.0, 127.5, 8.0, 15.0, 64.0, 4.0, 16.0, 0.0, 0.0, 0.0, 1.695418156233525E9, 0.0, 2023-09-22 16:29:16.233
210.0, 26544.797604655934, 13426.067045458203, -37035.678271732126, -63391.64833922963, -187500.02235174447, 7286.154602307631, -114067.45631306844, -187500.02235174447, -40482.831356862946, 6467.477258143099, -5174.78646931487, -69653.95893501746, -4671.760460348184, -22752.39947466844, -4570.775278899107, 8835.778693649614, -0.03, 0.976, 0.26, 192.0, 0.0, 0.0, 0.0, 0.0, 0.0, 0.0, 0.0, 0.0, 0.0, 1.695418156293603E9, 0.0, 2023-09-22 16:29:16.293
212.0, 26519.741299121535, 13400.004911423315, -37075.3526181403, -63418.51513606491, -187500.02235174447, 7283.561799950815, -114119.33471194921, -187500.02235174447, -40511.083961854456, 6428.182891390668, -5135.335640351253, -69677.85294984019, -4698.806071139106, -22727.92431448988, -4601.732444969707, 8870.222731855241, -0.03, 0.976, 0.26, 192.0, 0.0, 0.0, 0.0, 0.0, 0.0, 0.0, 0.0, 0.0, 0.0, 1.695418156293616E9, 0.0, 2023-09-22 16:29:16.293
214.0, 26523.898723590224, 13397.948550933428, -37064.690836035115, -63415.050615674336, -187500.02235174447, 7324.689009748579, -114034.2192690634, -187500.02235174447, -40525.21026435021, 6399.7067689546075, -5152.680594048571, -69697.16485704957, -4713.111187590503, -22738.228468683777, -4606.828642705517, 8877.352938336486, -0.03, 0.976, 0.26, 192.0, 0.0, 0.0, 0.0, 0.0, 0.0, 0.0, 0.0, 0.0, 0.0, 1.695418156293619E9, 0.0, 2023-09-22 16:29:16.293
216.0, 26534.269933017487, 13410.107899917115, -37060.511059821976, -63404.96997892499, -187500.02235174447, 7311.099149119753, -114099.15108670606, -187500.02235174447, -40507.32886878597, 6431.334487358867, -5116.53782326434, -69678.63526089612, -4694.805108881606, -22730.539468591152, -4599.810194946551, 8916.803767300102, -0.03, 0.976, 0.26, 192.0, 0.0, 0.0, 0.0, 0.0, 0.0, 0.0, 0.0, 0.0, 0.0, 1.695418156293622E9, 0.0, 2023-09-22 16:29:16.293
218.0, 26527.787927125446, 13404.3635015921, -37050.67629226164, -63408.07687140428, -187500.02235174447, 7321.11273063573, -114052.72651347239, -187500.02235174447, -40518.50474101362, 6412.246097594035, -5159.430820874074, -69689.58761567922, -4696.92852460486, -22765.02821028569, -4593.462299521244, 8888.305293119585, -0.03, 0.978, 0.256, 192.0, 127.5, 8.0, 15.0, 72.0, 4.0, 0.0, 0.0, 0.0, 0.0, 1.695418156293626E9, 0.0, 2023-09-22 16:29:16.293
220.0, 26530.939523093646, 13409.951437705928, -37057.203001642585, -63404.277074846876, -187500.02235174447, 7302.20315482654, -114122.10632826167, -187500.02235174447, -40510.659278709805, 6423.287859354957, -5127.959564681001, -69685.51959818836, -4688.859544856495, -22744.509308875717, -4594.155203599358, 8928.896061050424, -0.03, 0.978, 0.256, 192.0, 0.0, 0.0, 0.0, 0.0, 0.0, 0.0, 0.0, 0.0, 0.0, 1.695418156293629E9, 0.0, 2023-09-22 16:29:16.293
222.0, 26519.853057843815, 13394.864010198595, -37049.55870503887, -63411.22846737248, -187500.02235174447, 7300.660884459125, -114105.40957515355, -187500.02235174447, -40505.764246674094, 6423.466673310599, -5179.726204839493, -69679.7528481189, -4687.6972541448185, -22762.100131762047, -4592.344712298478, 8879.699871504292, -0.03, 0.978, 0.256, 192.0, 0.0, 0.0, 0.0, 0.0, 0.0, 0.0, 0.0, 0.0, 0.0, 1.695418156293632E9, 0.0, 2023-09-22 16:29:16.293
224.0, 26538.9637993531, 13412.074853429182, -37047.636455015716, -63393.078850874765, -187500.02235174447, 7303.343093793762, -114138.6466191586, -187500.02235174447, -40511.17336883228, 6409.586240003853, -5128.540710036839, -69686.92775808905, -4693.888687358938, -22732.573477336584, -4592.411767531845, 8937.76970359918, -0.03, 0.978, 0.256, 192.0, 0.0, 0.0, 0.0, 0.0, 0.0, 0.0, 0.0, 0.0, 0.0, 1.695418156293635E9, 0.0, 2023-09-22 16:29:16.293
226.0, 26519.316615976884, 13394.148754376025, -37054.25257137448, -63419.56566805431, -187500.02235174447, 7296.078776845787, -114130.42117719904, -187500.02235174447, -40502.769112917085, 6429.434589080166, -5183.905981052635, -69674.45548468299, -4684.456251198799, -22763.396532940453, -4591.182421586803, 8882.225618627741, -0.03, 0.978, 0.256, 192.0, 0.0, 0.0, 0.0, 0.0, 0.0, 0.0, 0.0, 0.0, 0.0, 1.695418156354018E9, 0.0, 2023-09-22 16:29:16.354
228.0, 26512.00759554, 13389.723108973874, -37075.71024605158, -63424.28188613438, -187500.02235174447, 7319.034018401387, -114118.17242123753, -187500.02235174447, -40526.64077599535, 6417.141129629747, -5135.246233373432, -69700.18234255104, -4701.711797918296, -22731.724111047282, -4600.48074728021, 8947.358601970507, -0.038, 0.98, 0.256, 192.0, 127.0, 104.0, 15.0, 80.0, 4.0, 0.0, 0.0, 0.0, 0.0, 1.695418156354029E9, 0.0, 2023-09-22 16:29:16.354
230.0, 26520.076575288367, 13398.730861989363, -37051.682120762125, -63406.9145806926, -187500.02235174447, 7295.497631489949, -114138.35604648067, -187500.02235174447, -40524.919691672294, 6404.758263201507, -5176.798126315847, -69688.35826973418, -4708.417321254888, -22759.03794277167, -4612.528337541621, 8914.233316687742, -0.038, 0.98, 0.256, 192.0, 0.0, 0.0, 0.0, 0.0, 0.0, 0.0, 0.0, 0.0, 0.0, 1.695418156354033E9, 0.0, 2023-09-22 16:29:16.354
232.0, 26538.472060975084, 13418.266286643302, -37047.770565482446, -63395.73870846495, -187500.02235174447, 7295.318817534307, -114149.93425010852, -187500.02235174447, -40499.08107508196, 6430.4627693251105, -5154.111105693711, -69667.23587122392, -4684.523306432165, -22743.324666419587, -4587.404976773855, 8945.302241480618, -0.038, 0.98, 0.256, 192.0, 0.0, 0.0, 0.0, 0.0, 0.0, 0.0, 0.0, 0.0, 0.0, 1.695418156354036E9, 0.0, 2023-09-22 16:29:16.354
234.0, 26522.691729389637, 13402.195382379936, -37054.207867885576, -63410.982598183466, -187500.02235174447, 7269.39079396615, -114188.37925057164, -187500.02235174447, -40498.92461287077, 6431.781522247973, -5197.272324236908, -69671.12507475914, -4684.389195965433, -22763.843567829557, -4592.657636720853, 8885.667787273858, -0.038, 0.98, 0.256, 192.0, 0.0, 0.0, 0.0, 0.0, 0.0, 0.0, 0.0, 0.0, 0.0, 1.695418156354039E9, 0.0, 2023-09-22 16:29:16.354
236.0, 26516.701461875615, 13397.635626511053, -37072.603353572296, -63421.465566333005, -187500.02235174447, 7306.561744995326, -114132.3434272222, -187500.02235174447, -40516.381325290364, 6420.2480221090345, -5155.49691384994, -69695.95786284898, -4701.778853151662, -22749.69491358935, -4593.507003010154, 8941.927128067868, -0.038, 0.98, 0.256, 192.0, 0.0, 0.0, 0.0, 0.0, 0.0, 0.0, 0.0, 0.0, 0.0, 1.695418156354043E9, 0.0, 2023-09-22 16:29:16.354
238.0, 26502.172827979666, 13385.163353104992, -37073.072740205855, -63433.89313625016, -187500.02235174447, 7284.210000540019, -114169.447323018, -187500.02235174447, -40516.00134563462, 6414.816548206395, -5188.063405521322, -69693.70033665899, -4709.780777666661, -22774.818274357116, -4610.941363685294, 8905.873764261456, -0.044, 0.978, 0.256, 192.0, 127.0, 80.0, 15.0, 72.0, 4.0, 0.0, 0.0, 0.0, 0.0, 1.695418156354046E9, 0.0, 2023-09-22 16:29:16.354
240.0, 26498.842418055825, 13374.367460533078, -37084.29331592242, -63438.251726418945, -187500.02235174447, 7340.7599140119455, -114060.86254845413, -187500.02235174447, -40542.175238391785, 6390.497850239021, -5145.662146289605, -69719.91893290507, -4723.348286551033, -22753.226489213288, -4616.574003288031, 8970.894988881944, -0.044, 0.978, 0.256, 192.0, 0.0, 0.0, 0.0, 0.0, 0.0, 0.0, 0.0, 0.0, 0.0, 1.695418156414156E9, 0.0, 2023-09-22 16:29:16.414
242.0, 26525.530400935462, 13403.402376580523, -37057.29240862041, -63400.700795734025, -187500.02235174447, 7298.8503931582445, -114134.0421598008, -187500.02235174447, -40523.176255604776, 6399.88558291025, -5163.431783131574, -69698.79653439482, -4718.207385326313, -22759.350867194044, -4624.82179699204, 8953.460628206805, -0.044, 0.978, 0.256, 192.0, 0.0, 0.0, 0.0, 0.0, 0.0, 0.0, 0.0, 0.0, 0.0, 1.695418156414168E9, 0.0, 2023-09-22 16:29:16.414
244.0, 26534.828726628868, 13416.142870920048, -37044.060175902865, -63389.4131647841, -187500.02235174447, 7319.838681201778, -114077.35813586213, -187500.02235174447, -40503.5067204841, 6427.288821612457, -5163.677652320583, -69674.5448916608, -4688.188992522835, -22768.403323698443, -4580.565342970532, 8960.501427710227, -0.044, 0.978, 0.256, 192.0, 0.0, 0.0, 0.0, 0.0, 0.0, 0.0, 0.0, 0.0, 0.0, 1.695418156414171E9, 0.0, 2023-09-22 16:29:16.414
246.0, 26534.024063828478, 13415.472318586388, -37035.63356824322, -63383.60171122572, -187500.02235174447, 7276.945683592044, -114168.55325323979, -187500.02235174447, -40498.81285414849, 6428.5852227908645, -5167.186876200066, -69666.945298546, -4696.056806571103, -22762.100131762047, -4591.00360763116, 8938.23909023274, -0.044, 0.978, 0.256, 192.0, 0.0, 0.0, 0.0, 0.0, 0.0, 0.0, 0.0, 0.0, 0.0, 1.695418156414175E9, 0.0, 2023-09-22 16:29:16.414
248.0, 26521.95412182261, 13404.385853336556, -37048.552876538386, -63402.19836261254, -187500.02235174447, 7324.040809159375, -114072.91013871552, -187500.02235174447, -40509.69815369823, 6428.719333257596, -5163.990576742956, -69673.60611839368, -4692.59228618053, -22753.65117235794, -4571.602293443953, 8954.555863685115, -0.036000000000000004, 0.978, 0.252, 192.0, 127.0, 112.0, 15.0, 72.0, 3.5, 112.0, 0.0, 0.0, 0.0, 1.695418156414178E9, 0.0, 2023-09-22 16:29:16.414
250.0, 26520.881238088758, 13401.681292257465, -37055.37015859725, -63406.0652144033, -187500.02235174447, 7293.463622744516, -114147.87788961863, -187500.02235174447, -40515.10727585641, 6425.388923333755, -5148.567873068795, -69683.9996795654, -4706.02568459817, -22734.763948293203, -4598.782014701607, 8961.350793999529, -0.036000000000000004, 0.978, 0.252, 192.0, 0.0, 0.0, 0.0, 0.0, 0.0, 0.0, 0.0, 0.0, 0.0, 1.695418156414181E9, 0.0, 2023-09-22 16:29:16.414
252.0, 26523.094060789834, 13403.067100413693, -37053.38085334073, -63410.714377250006, -187500.02235174447, 7323.571422525814, -114058.38150481958, -187500.02235174447, -40521.54457825954, 6407.731045214063, -5156.368631883697, -69688.02299356736, -4702.158832807402, -22742.765872808206, -4589.4389855192885, 8970.090326081554, -0.036000000000000004, 0.978, 0.252, 192.0, 0.0, 0.0, 0.0, 0.0, 0.0, 0.0, 0.0, 0.0, 0.0, 1.695418156414184E9, 0.0, 2023-09-22 16:29:16.414
254.0, 26528.10085154782, 13408.386815594056, -37053.67142601865, -63408.25568535992, -187500.02235174447, 7269.72607013298, -114159.83607290222, -187500.02235174447, -40514.19085433374, 6413.006056905515, -5144.410448600108, -69677.40591495109, -4707.210327054301, -22749.918431033904, -4594.758700699652, 8970.269140037197, -0.036000000000000004, 0.978, 0.252, 192.0, 0.0, 0.0, 0.0, 0.0, 0.0, 0.0, 0.0, 0.0, 0.0, 1.695418156414187E9, 0.0, 2023-09-22 16:29:16.414
0.0, 26510.890008317234, 13393.947588675928, -37070.211716915575, -63431.970886227005, -187500.02235174447, 7310.741521208468, -114069.46797006941, -187500.02235174447, -40528.5183225296, 6408.893335925739, -5159.87785576318, -69702.81984839677, -4714.139367835447, -22756.69100960386, -4589.215468074735, 8965.687032423859, -0.036000000000000004, 0.978, 0.252, 192.0, 0.0, 0.0, 0.0, 0.0, 0.0, 0.0, 0.0, 0.0, 0.0, 1.695418156473014E9, 0.0, 2023-09-22 16:29:16.473
2.0, 26541.958933110112, 13418.17687966548, -37042.04851890189, -63393.34707180823, -187500.02235174447, 7261.120648517686, -114196.4035268311, -187500.02235174447, -40511.06161011, 6450.691098057163, -5142.957585210513, -69691.95690059148, -4700.817728140084, -22737.110881461012, -4604.302895582067, 8979.411003519417, -0.03, 0.976, 0.252, 192.0, 127.5, 8.0, 15.0, 64.0, 3.5, 112.0, 0.0, 0.0, 0.0, 1.695418156473025E9, 0.0, 2023-09-22 16:29:16.473
4.0, 26517.930807820656, 13390.79599270773, -37055.593676041804, -63418.87276397619, -187500.02235174447, 7286.936913363566, -114118.64180787108, -187500.02235174447, -40522.058668382015, 6389.626132205264, -5179.793260072859, -69688.67119415656, -4698.806071139106, -22774.952384823846, -4585.818002917529, 8946.86686359249, -0.03, 0.976, 0.252, 192.0, 0.0, 0.0, 0.0, 0.0, 0.0, 0.0, 0.0, 0.0, 0.0, 1.695418156473029E9, 0.0, 2023-09-22 16:29:16.473
6.0, 26523.116412534288, 13401.36836783509, -37060.28754237742, -63413.06131041781, -187500.02235174447, 7264.071078785787, -114190.97205292847, -187500.02235174447, -40517.789485191046, 6407.306362069412, -5147.182064912566, -69684.26790049886, -4698.806071139106, -22760.669620116907, -4595.675122222319, 8975.566503473105, -0.03, 0.976, 0.252, 192.0, 0.0, 0.0, 0.0, 0.0, 0.0, 0.0, 0.0, 0.0, 0.0, 1.695418156473032E9, 0.0, 2023-09-22 16:29:16.473
8.0, 26522.57997066736, 13401.502478301822, -37054.18551614112, -63412.97190343999, -187500.02235174447, 7277.795049881345, -114130.84586034369, -187500.02235174447, -40530.708793486214, 6407.239306836046, -5183.436594419074, -69695.68964191552, -4707.4785479877655, -22780.473265704306, -4601.397168802878, 8951.225453761275, -0.03, 0.976, 0.252, 192.0, 0.0, 0.0, 0.0, 0.0, 0.0, 0.0, 0.0, 0.0, 0.0, 1.695418156473035E9, 0.0, 2023-09-22 16:29:16.473
10.0, 26535.007540584513, 13419.070949443692, -37057.828850487334, -63398.35386256622, -187500.02235174447, 7260.6959653730355, -114182.54544526881, -187500.02235174447, -40516.1131043569, 6422.46084481011, -5148.053782946323, -69682.18918826451, -4701.153004306913, -22757.16039623742, -4598.759662957152, 8983.054337865631, -0.03, 0.976, 0.252, 192.0, 0.0, 0.0, 0.0, 0.0, 0.0, 0.0, 0.0, 0.0, 0.0, 1.695418156473038E9, 0.0, 2023-09-22 16:29:16.473
12.0, 26507.1572669932, 13390.326606074168, -37057.73944350951, -63425.4218251016, -187500.02235174447, 7289.440308742561, -114107.24241819888, -187500.02235174447, -40524.67382248328, 6413.6766092391745, -5180.486164150973, -69690.57109243526, -4702.807033396606, -22765.45289343034, -4590.310703553046, 8946.755104870213, -0.036000000000000004, 0.976, 0.254, 192.0, 127.0, 112.0, 15.0, 64.0, 3.5, 120.0, 0.0, 0.0, 0.0, 1.695418156473042E9, 0.0, 2023-09-22 16:29:16.473
14.0, 26525.977435824567, 13404.5646672922, -37056.375987097745, -63405.28290334737, -187500.02235174447, 7293.418919255605, -114127.51545041984, -187500.02235174447, -40543.717508759204, 6395.236420063547, -5113.319172062776, -69708.2513222994, -4722.677734217374, -22729.734805790762, -4607.253325850168, 9021.052303439654, -0.036000000000000004, 0.976, 0.254, 192.0, 0.0, 0.0, 0.0, 0.0, 0.0, 0.0, 0.0, 0.0, 0.0, 1.695418156533257E9, 0.0, 2023-09-22 16:29:16.533
16.0, 26547.88214539077, 13428.61514432611, -37018.57918722382, -63379.98072862396, -187500.02235174447, 7269.72607013298, -114134.37743596762, -187500.02235174447, -40505.67483969627, 6424.0031151775265, -5169.332643667775, -69662.56435663276, -4690.245353012723, -22771.73373362228, -4585.5050784951545, 8962.893064366945, -0.036000000000000004, 0.976, 0.254, 192.0, 0.0, 0.0, 0.0, 0.0, 0.0, 0.0, 0.0, 0.0, 0.0, 1.695418156533279E9, 0.0, 2023-09-22 16:29:16.533
18.0, 26530.023101570976, 13413.661827285508, -37054.36433009677, -63403.80768821332, -187500.02235174447, 7292.547201221848, -114124.22974398492, -187500.02235174447, -40523.109200371415, 6422.371437832289, -5116.761340708893, -69679.01524055186, -4703.768158408184, -22739.435462884365, -4583.135793582892, 9013.184489391386, -0.036000000000000004, 0.976, 0.254, 192.0, 0.0, 0.0, 0.0, 0.0, 0.0, 0.0, 0.0, 0.0, 0.0, 1.695418156533282E9, 0.0, 2023-09-22 16:29:16.533
20.0, 26531.654778916214, 13409.213830138902, -37041.35561482378, -63400.65609224512, -187500.02235174447, 7274.3752329796835, -114126.4872701749, -187500.02235174447, -40521.857502681916, 6420.672705253685, -5152.345317881742, -69678.65761264057, -4705.891574131439, -22755.573422381094, -4599.072587379526, 8977.175829073885, -0.036000000000000004, 0.976, 0.254, 192.0, 0.0, 0.0, 0.0, 0.0, 0.0, 0.0, 0.0, 0.0, 0.0, 1.695418156533286E9, 0.0, 2023-09-22 16:29:16.533
22.0, 26540.371959253785, 13416.567554064699, -37046.18359162612, -63395.26932183139, -187500.02235174447, 7283.114765061709, -114124.34150270719, -187500.02235174447, -40523.4668282827, 6418.504586041521, -5113.945020907524, -69673.15908350458, -4698.113167060991, -22735.501555860228, -4591.428290775811, 9023.242774396274, -0.036000000000000004, 0.972, 0.262, 192.0, 127.0, 112.0, 15.0, 48.0, 4.0, 24.0, 0.0, 0.0, 0.0, 1.695418156533289E9, 0.0, 2023-09-22 16:29:16.533
24.0, 26535.879258618268, 13410.242010383847, -37040.48389679002, -63404.634702758165, -187500.02235174447, 7254.079849014265, -114160.12664558014, -187500.02235174447, -40522.326889315475, 6406.479347524566, -5157.910902251113, -69675.86364458366, -4703.611696196997, -22747.88442228847, -4604.4370060488, 8971.587892960059, -0.036000000000000004, 0.972, 0.262, 192.0, 0.0, 0.0, 0.0, 0.0, 0.0, 0.0, 0.0, 0.0, 0.0, 1.695418156533292E9, 0.0, 2023-09-22 16:29:16.533
26.0, 26517.19320025363, 13391.310082830201, -37073.09509195031, -63430.18274667058, -187500.02235174447, 7294.648265200647, -114113.14327873508, -187500.02235174447, -40530.84290395295, 6400.556135243909, -5120.047047143823, -69692.13571454713, -4707.635010198952, -22735.12157620449, -4601.665389736341, 9019.532384816694, -0.036000000000000004, 0.972, 0.262, 192.0, 0.0, 0.0, 0.0, 0.0, 0.0, 0.0, 0.0, 0.0, 0.0, 1.695418156533296E9, 0.0, 2023-09-22 16:29:16.533
28.0, 26530.000749826522, 13405.07875741467, -37046.47416430404, -63411.56374353931, -187500.02235174447, 7271.156581778119, -114152.61645944316, -187500.02235174447, -40539.738898246156, 6393.984722374049, -5140.878872976169, -69699.08710707273, -4720.062580116103, -22756.825120070593, -4612.997724175182, 9001.025140407699, -0.036000000000000004, 0.972, 0.262, 192.0, 0.0, 0.0, 0.0, 0.0, 0.0, 0.0, 0.0, 0.0, 0.0, 1.695418156533299E9, 0.0, 2023-09-22 16:29:16.533
30.0, 26543.277686032976, 13424.435368112967, -37044.99894916999, -63397.437441043556, -187500.02235174447, 7303.119576349209, -114103.84495304167, -187500.02235174447, -40523.84680793843, 6420.98562967606, -5115.956677908502, -69686.81599936677, -4703.768158408184, -22748.55497462213, -4579.872438892417, 9038.397257136972, -0.036000000000000004, 0.972, 0.262, 192.0, 0.0, 0.0, 0.0, 0.0, 0.0, 0.0, 0.0, 0.0, 0.0, 1.695418156593633E9, 0.0, 2023-09-22 16:29:16.593
32.0, 26554.766482683004, 13438.22639444189, -37026.98344313901, -63382.86410365869, -187500.02235174447, 7259.511322916905, -114173.69415446451, -187500.02235174447, -40511.01690662109, 6440.99044096356, -5143.270509632887, -69665.17951073403, -4692.50287920271, -22749.73961707826, -4578.151354569359, 8996.01834964971, -0.034, 0.976, 0.26, 192.0, 127.0, 120.0, 15.0, 64.0, 4.0, 16.0, 0.0, 0.0, 0.0, 1.695418156593645E9, 0.0, 2023-09-22 16:29:16.593
34.0, 26543.009465099512, 13424.033036712772, -37049.11167014977, -63405.461717303006, -187500.02235174447, 7309.959210152532, -114079.99564170786, -187500.02235174447, -40515.688421212246, 6432.832054237373, -5115.82256744177, -69676.6012521507, -4695.989751337737, -22722.49284058724, -4565.835543374485, 9030.887070999988, -0.034, 0.976, 0.26, 192.0, 0.0, 0.0, 0.0, 0.0, 0.0, 0.0, 0.0, 0.0, 0.0, 1.695418156593649E9, 0.0, 2023-09-22 16:29:16.593
36.0, 26534.560505695405, 13407.179821393469, -37054.833716730325, -63416.41407208611, -187500.02235174447, 7277.39271848115, -114141.88762210461, -187500.02235174447, -40522.751572460125, 6413.207222605613, -5123.466864045485, -69681.83156035322, -4714.228774813268, -22727.723148789784, -4600.391340302389, 9016.917230715422, -0.034, 0.976, 0.26, 192.0, 0.0, 0.0, 0.0, 0.0, 0.0, 0.0, 0.0, 0.0, 0.0, 1.695418156593652E9, 0.0, 2023-09-22 16:29:16.593
38.0, 26520.322444477373, 13394.953417176417, -37070.770510526956, -63428.93104898108, -187500.02235174447, 7312.417902042616, -114045.37278954659, -187500.02235174447, -40548.56783730601, 6387.50271648201, -5120.091750632733, -69710.5088484894, -4726.857510430516, -22741.424768140885, -4601.397168802878, 9044.052248484166, -0.034, 0.976, 0.26, 192.0, 0.0, 0.0, 0.0, 0.0, 0.0, 0.0, 0.0, 0.0, 0.0, 1.695418156593655E9, 0.0, 2023-09-22 16:29:16.593
40.0, 26526.82680211387, 13406.866896971094, -37060.60046679979, -63416.83875523076, -187500.02235174447, 7256.717354859991, -114131.80698535526, -187500.02235174447, -40530.39586906384, 6401.025521877471, -5146.511512578906, -69691.91219710257, -4717.358019037011, -22760.200233483345, -4608.840299706495, 9014.749111503257, -0.034, 0.976, 0.26, 192.0, 0.0, 0.0, 0.0, 0.0, 0.0, 0.0, 0.0, 0.0, 0.0, 1.695418156593659E9, 0.0, 2023-09-22 16:29:16.593
42.0, 26530.38072948226, 13414.60060055263, -37059.304065621385, -63415.69881626354, -187500.02235174447, 7296.34699777925, -114023.26691428029, -187500.02235174447, -40542.59992153644, 6395.661103208197, -5153.082925448767, -69700.8975983736, -4716.955687636815, -22763.485939918275, -4594.803404188562, 9025.768521519723, -0.03, 0.976, 0.264, 192.0, 127.5, 8.0, 15.0, 64.0, 4.0, 32.0, 0.0, 0.0, 0.0, 1.695418156593662E9, 0.0, 2023-09-22 16:29:16.593
44.0, 26532.19122078314, 13413.79593775224, -37058.36529235426, -63414.335359851764, -187500.02235174447, 7264.384003208162, -114092.04323196928, -187500.02235174447, -40536.83317146697, 6407.015789391493, -5143.583434055261, -69689.52056044586, -4721.068408616592, -22747.996181010745, -4602.023017647626, 9024.829748252601, -0.03, 0.976, 0.264, 192.0, 0.0, 0.0, 0.0, 0.0, 0.0, 0.0, 0.0, 0.0, 0.0, 1.695418156653818E9, 0.0, 2023-09-22 16:29:16.653
46.0, 26528.190258525643, 13406.285751615258, -37057.78414699843, -63423.07489193379, -187500.02235174447, 7298.3810065246835, -113990.07457376416, -187500.02235174447, -40543.851619225934, 6398.7679956874845, -5160.9283877525795, -69692.29217675832, -4711.568917223086, -22758.23327997128, -4584.342787783478, 9026.617887809025, -0.03, 0.976, 0.264, 192.0, 0.0, 0.0, 0.0, 0.0, 0.0, 0.0, 0.0, 0.0, 0.0, 1.695418156653832E9, 0.0, 2023-09-22 16:29:16.653
48.0, 26522.647025900726, 13398.417937566988, -37061.472184833554, -63420.92912446608, -187500.02235174447, 7288.188611053063, -114039.18135633247, -187500.02235174447, -40540.9682441912, 6394.297646796424, -5131.155864138111, -69694.46029597048, -4720.844891172039, -22744.799881553638, -4602.201831603269, 9049.21550145334, -0.03, 0.976, 0.264, 192.0, 0.0, 0.0, 0.0, 0.0, 0.0, 0.0, 0.0, 0.0, 0.0, 1.695418156653835E9, 0.0, 2023-09-22 16:29:16.653
50.0, 26521.48473518905, 13399.379062578568, -37054.36433009677, -63420.50444132143, -187500.02235174447, 7325.8513004602555, -113930.14954687949, -187500.02235174447, -40550.33362511798, 6379.009053588993, -5151.764172525904, -69702.01518559638, -4721.3366295500555, -22768.537434165173, -4592.925857654316, 9051.093047987586, -0.03, 0.976, 0.264, 192.0, 0.0, 0.0, 0.0, 0.0, 0.0, 0.0, 0.0, 0.0, 0.0, 1.695418156653839E9, 0.0, 2023-09-22 16:29:16.653
52.0, 26529.9113428487, 13409.124423161082, -37055.19134464161, -63410.781432483374, -187500.02235174447, 7296.995198368454, -114004.24557974882, -187500.02235174447, -40540.92354070229, 6397.337484042345, -5129.30066934832, -69695.33201400423, -4720.375504538477, -22751.997143268247, -4599.787843202096, 9070.337899963606, -0.028, 0.976, 0.264, 192.0, 127.5, 16.0, 15.0, 64.0, 4.0, 32.0, 0.0, 0.0, 0.0, 1.695418156653842E9, 0.0, 2023-09-22 16:29:16.653
54.0, 26519.406022954707, 13395.26634159879, -37052.62089402925, -63423.81249950082, -187500.02235174447, 7318.139948623175, -113934.88811670401, -187500.02235174447, -40540.61061627992, 6397.985684631549, -5171.1207832242, -69695.62258668216, -4715.502824247221, -22764.78234109668, -4585.348616283967, 9037.92787050341, -0.028, 0.976, 0.264, 192.0, 0.0, 0.0, 0.0, 0.0, 0.0, 0.0, 0.0, 0.0, 0.0, 1.695418156653845E9, 0.0, 2023-09-22 16:29:16.653
56.0, 26545.915191878703, 13421.172013422492, -37039.321606078345, -63394.57641775328, -187500.02235174447, 7295.542334978859, -114015.66732116549, -187500.02235174447, -40536.319081344496, 6402.411330033699, -5130.150035637622, -69691.37575523565, -4712.21711781229, -22739.524869862184, -4586.935590140294, 9071.924873819933, -0.028, 0.976, 0.264, 192.0, 0.0, 0.0, 0.0, 0.0, 0.0, 0.0, 0.0, 0.0, 0.0, 1.695418156653849E9, 0.0, 2023-09-22 16:29:16.653
58.0, 26541.66836043219, 13415.360559864112, -37031.36438505225, -63395.82811544277, -187500.02235174447, 7305.868840917211, -113985.24659696182, -187500.02235174447, -40525.09850562793, 6402.232516078057, -5169.533809367873, -69678.45644694049, -4702.114129318492, -22737.915544261403, -4571.982273099694, 9027.891937242977, -0.028, 0.976, 0.264, 192.0, 0.0, 0.0, 0.0, 0.0, 0.0, 0.0, 0.0, 0.0, 0.0, 1.695418156653852E9, 0.0, 2023-09-22 16:29:16.653
60.0, 26538.270895274985, 13409.169126649991, -37046.295350348395, -63404.45588880252, -187500.02235174447, 7287.853334886234, -114053.91115592852, -187500.02235174447, -40522.908034671316, 6413.922478428183, -5130.105332148711, -69682.9044440871, -4700.728321162263, -22701.370442076975, -4577.14552606887, 9060.883112059011, -0.028, 0.976, 0.264, 192.0, 0.0, 0.0, 0.0, 0.0, 0.0, 0.0, 0.0, 0.0, 0.0, 1.695418156713267E9, 0.0, 2023-09-22 16:29:16.713
62.0, 26535.96866559609, 13407.872725471583, -37031.7890681969, -63402.35482482372, -187500.02235174447, 7287.272189530396, -114043.36113254561, -187500.02235174447, -40530.64173825285, 6404.691207968141, -5178.340396683264, -69688.96176683447, -4707.45619624331, -22725.376215621975, -4586.801479673562, 9012.268067868717, -0.03, 0.972, 0.254, 192.0, 127.5, 8.0, 15.0, 48.0, 3.5, 120.0, 0.0, 0.0, 0.0, 1.695418156713279E9, 0.0, 2023-09-22 16:29:16.713
64.0, 26528.838459114846, 13407.291580115747, -37049.75987073897, -63408.83683071576, -187500.02235174447, 7301.01851237041, -114077.53694981778, -187500.02235174447, -40537.32490984499, 6390.810774661395, -5128.384247825653, -69683.7985138653, -4709.914888133394, -22700.96811067678, -4580.677101692808, 9055.004603267265, -0.03, 0.972, 0.254, 192.0, 0.0, 0.0, 0.0, 0.0, 0.0, 0.0, 0.0, 0.0, 0.0, 1.695418156713283E9, 0.0, 2023-09-22 16:29:16.713
66.0, 26521.641197400237, 13404.117632403093, -37040.48389679002, -63411.049653416834, -187500.02235174447, 7284.768794151401, -114084.66715629902, -187500.02235174447, -40541.52703780258, 6402.299571311423, -5173.870047792202, -69684.73728713242, -4710.965420122793, -22719.005968452213, -4591.182421586803, 9008.267105611218, -0.03, 0.972, 0.254, 192.0, 0.0, 0.0, 0.0, 0.0, 0.0, 0.0, 0.0, 0.0, 0.0, 1.695418156713286E9, 0.0, 2023-09-22 16:29:16.713
68.0, 26535.521630706982, 13416.65696104252, -37042.67436774664, -63396.87864743217, -187500.02235174447, 7285.8193261408005, -114108.9858542664, -187500.02235174447, -40536.16261913331, 6409.69799872613, -5129.188910626043, -69690.72755464644, -4707.724417176773, -22682.01383137868, -4586.935590140294, 9056.949205034876, -0.03, 0.972, 0.254, 192.0, 0.0, 0.0, 0.0, 0.0, 0.0, 0.0, 0.0, 0.0, 0.0, 1.695418156713289E9, 0.0, 2023-09-22 16:29:16.713
70.0, 26520.68007238866, 13395.311045087701, -37045.80361197038, -63412.43546157306, -187500.02235174447, 7273.637625412658, -114118.44064217099, -187500.02235174447, -40542.06347966951, 6398.544478242931, -5172.171315213599, -69690.07935405723, -4712.418283512388, -22705.01377642319, -4589.103709352459, 9005.96487593232, -0.03, 0.972, 0.254, 192.0, 0.0, 0.0, 0.0, 0.0, 0.0, 0.0, 0.0, 0.0, 0.0, 1.695418156713293E9, 0.0, 2023-09-22 16:29:16.713
72.0, 26527.206781769608, 13403.536487047255, -37048.888152705214, -63409.57443828278, -187500.02235174447, 7301.823175170801, -114103.86730478614, -187500.02235174447, -40545.77386924909, 6397.6504084647195, -5127.333715836253, -69694.39324073712, -4716.441597514343, -22692.83207569505, -4581.057081348548, 9059.832580069611, -0.032, 0.974, 0.252, 192.0, 127.5, 0.0, 15.0, 56.0, 3.5, 112.0, 0.0, 0.0, 0.0, 1.695418156713296E9, 0.0, 2023-09-22 16:29:16.713
74.0, 26540.0143313425, 13418.51215583231, -37027.60929198376, -63393.39177529714, -187500.02235174447, 7272.743555634446, -114153.15290131008, -187500.02235174447, -40539.604787779426, 6408.1557283587135, -5160.414297630107, -69688.80530462328, -4720.062580116103, -22698.06238389759, -4583.068738349526, 9020.87348948401, -0.032, 0.974, 0.252, 192.0, 0.0, 0.0, 0.0, 0.0, 0.0, 0.0, 0.0, 0.0, 0.0, 1.695418156773583E9, 0.0, 2023-09-22 16:29:16.773
76.0, 26539.187316797656, 13415.584077308666, -37033.912483920154, -63397.12451662118, -187500.02235174447, 7298.448061758049, -114130.55528766576, -187500.02235174447, -40529.50179928563, 6413.721312728085, -5129.725352492971, -69674.67900212754, -4705.019856097681, -22670.100351584002, -4556.134886280881, 9058.133847491008, -0.032, 0.974, 0.252, 192.0, 0.0, 0.0, 0.0, 0.0, 0.0, 0.0, 0.0, 0.0, 0.0, 1.695418156773596E9, 0.0, 2023-09-22 16:29:16.773
78.0, 26546.25046804553, 13419.920315732994, -37020.70260294707, -63385.43455427105, -187500.02235174447, 7267.781468365368, -114193.698965752, -187500.02235174447, -40536.1179156444, 6395.862268908295, -5148.165541668599, -69680.69162138601, -4722.700085961829, -22675.844749909014, -4577.14552606887, 9029.59066982158, -0.032, 0.974, 0.252, 192.0, 0.0, 0.0, 0.0, 0.0, 0.0, 0.0, 0.0, 0.0, 0.0, 1.6954181567736E9, 0.0, 2023-09-22 16:29:16.773
80.0, 26544.73054942257, 13421.864917500607, -37032.30315831937, -63390.39664154013, -187500.02235174447, 7300.191497825564, -114158.07028509025, -187500.02235174447, -40517.61067123541, 6423.220804121591, -5134.821550228781, -69664.33014444473, -4697.554373449609, -22675.554177231097, -4551.306909478535, 9049.193149708886, -0.032, 0.974, 0.252, 192.0, 0.0, 0.0, 0.0, 0.0, 0.0, 0.0, 0.0, 0.0, 0.0, 1.695418156773603E9, 0.0, 2023-09-22 16:29:16.773
82.0, 26528.68199690366, 13405.257571370314, -37038.42753630013, -63406.579304525774, -187500.02235174447, 7277.39271848115, -114222.97975098847, -187500.02235174447, -40528.58537776296, 6415.062417395404, -5138.6213467861835, -69678.56820566276, -4722.4542167728205, -22673.207244063287, -4583.314607538535, 9032.004658222755, -0.034, 0.982, 0.252, 192.0, 127.0, 120.0, 15.0, 88.0, 3.5, 112.0, 0.0, 0.0, 0.0, 1.695418156773606E9, 0.0, 2023-09-22 16:29:16.773
84.0, 26548.30682853542, 13430.090359460159, -37026.06702161634, -63384.58518798175, -187500.02235174447, 7305.846489172756, -114179.05857313378, -187500.02235174447, -40516.940118901744, 6407.93221091416, -5122.684552989549, -69670.52157765884, -4708.193803810335, -22668.043991094113, -4560.627586916397, 9069.644995885492, -0.034, 0.982, 0.252, 192.0, 0.0, 0.0, 0.0, 0.0, 0.0, 0.0, 0.0, 0.0, 0.0, 1.695418156773609E9, 0.0, 2023-09-22 16:29:16.773
86.0, 26535.320465006887, 13416.74636802034, -37047.25647535997, -63399.78437421136, -187500.02235174447, 7273.592921923748, -114263.5705189193, -187500.02235174447, -40512.760342688605, 6422.930231443672, -5129.546538537328, -69667.95112704649, -4715.256955058212, -22666.68053468234, -4573.055156833549, 9043.806379295156, -0.034, 0.982, 0.252, 192.0, 0.0, 0.0, 0.0, 0.0, 0.0, 0.0, 0.0, 0.0, 0.0, 1.695418156773613E9, 0.0, 2023-09-22 16:29:16.773
88.0, 26536.639217929747, 13420.300295388735, -37048.17289688264, -63403.3159498353, -187500.02235174447, 7314.273096832407, -114192.13434364014, -187500.02235174447, -40519.42116253629, 6422.438493065655, -5123.019829156378, -69677.11534227316, -4718.095626604036, -22663.216014291767, -4564.2038660292465, 9063.341803949095, -0.034, 0.982, 0.252, 192.0, 0.0, 0.0, 0.0, 0.0, 0.0, 0.0, 0.0, 0.0, 0.0, 1.695418156773616E9, 0.0, 2023-09-22 16:29:16.773
90.0, 26532.77236613898, 13416.500498831332, -37044.12723113623, -63404.25472310242, -187500.02235174447, 7275.6045789247255, -114301.79200193788, -187500.02235174447, -40496.57767970296, 6441.7951037639505, -5126.305535591309, -69658.00460076387, -4713.379408523966, -22658.2986305116, -4574.306854523045, 9048.924928775421, -0.034, 0.982, 0.252, 192.0, 0.0, 0.0, 0.0, 0.0, 0.0, 0.0, 0.0, 0.0, 0.0, 1.695418156833478E9, 0.0, 2023-09-22 16:29:16.833
92.0, 26507.33608094884, 13385.699794971919, -37070.23406866003, -63432.68614204957, -187500.02235174447, 7337.07187617682, -114192.64843376262, -187500.02235174447, -40536.944930189245, 6410.770882459985, -5119.15297736561, -69695.17555179304, -4737.496940791242, -22650.54257518561, -4575.312683023534, 9079.65857740147, -0.034, 0.98, 0.256, 192.0, 127.0, 120.0, 15.0, 80.0, 4.0, 0.0, 0.0, 0.0, 0.0, 1.69541815683349E9, 0.0, 2023-09-22 16:29:16.833
94.0, 26544.05999708891, 13422.915449490005, -37042.85318170228, -63399.29263583334, -187500.02235174447, 7286.7580994079235, -114314.57719976631, -187500.02235174447, -40509.02760136457, 6431.714467014607, -5109.094692360723, -69678.63526089612, -4726.544586008142, -22658.499796211698, -4593.439947776788, 9095.952999109388, -0.034, 0.98, 0.256, 192.0, 0.0, 0.0, 0.0, 0.0, 0.0, 0.0, 0.0, 0.0, 0.0, 1.695418156833493E9, 0.0, 2023-09-22 16:29:16.833
96.0, 26537.421528985684, 13411.694873773442, -37042.69671949109, -63408.59096152675, -187500.02235174447, 7305.242992072463, -114260.32951597328, -187500.02235174447, -40483.72542664116, 6440.386943863266, -5147.07030619029, -69663.10079849968, -4697.979056594259, -22682.39381103442, -4562.706299150741, 9065.934606305911, -0.034, 0.98, 0.256, 192.0, 0.0, 0.0, 0.0, 0.0, 0.0, 0.0, 0.0, 0.0, 0.0, 1.695418156833497E9, 0.0, 2023-09-22 16:29:16.833
98.0, 26532.63825567225, 13410.264362128302, -37060.17578365514, -63416.48112731947, -187500.02235174447, 7293.441271000061, -114338.65002854468, -187500.02235174447, -40497.382342503355, 6426.46180706761, -5109.675837716561, -69671.50505441488, -4719.503786504721, -22665.898223626402, -4590.3777587864115, 9092.8461066301, -0.034, 0.98, 0.256, 192.0, 0.0, 0.0, 0.0, 0.0, 0.0, 0.0, 0.0, 0.0, 0.0, 1.6954181568335E9, 0.0, 2023-09-22 16:29:16.833
100.0, 26556.778139683982, 13438.539318864265, -37026.40229778318, -63391.469525273984, -187500.02235174447, 7299.364483280717, -114302.28374031589, -187500.02235174447, -40488.3075342545, 6444.3208508874, -5141.974108454479, -69664.37484793364, -4715.279306802668, -22688.004098892703, -4582.331130782501, 9074.115344776554, -0.034, 0.98, 0.256, 192.0, 0.0, 0.0, 0.0, 0.0, 0.0, 0.0, 0.0, 0.0, 0.0, 1.695418156833503E9, 0.0, 2023-09-22 16:29:16.833
102.0, 26554.319447793896, 13437.309972919224, -37031.274978074434, -63391.67069097408, -187500.02235174447, 7264.384003208162, -114395.4011077167, -187500.02235174447, -40478.33865622743, 6459.1624092057245, -5123.578622767762, -69651.1426152161, -4701.801204896117, -22666.54642421561, -4570.350595754457, 9078.384527967517, -0.03, 0.978, 0.254, 192.0, 127.5, 8.0, 15.0, 72.0, 3.5, 120.0, 0.0, 0.0, 0.0, 1.695418156833506E9, 0.0, 2023-09-22 16:29:16.833
104.0, 26521.507086933507, 13403.804707980718, -37051.838582973316, -63428.01462745841, -187500.02235174447, 7300.705587948035, -114310.5315340199, -187500.02235174447, -40499.52810997106, 6430.976859447582, -5152.59118707075, -69672.86851082665, -4721.046056872136, -22682.214997078776, -4577.704319680252, 9051.60713811006, -0.03, 0.978, 0.254, 192.0, 0.0, 0.0, 0.0, 0.0, 0.0, 0.0, 0.0, 0.0, 0.0, 1.695418156894066E9, 0.0, 2023-09-22 16:29:16.894
106.0, 26555.50409025003, 13440.081589231682, -37033.53250426442, -63392.07302237428, -187500.02235174447, 7279.493782459949, -114390.39431695871, -187500.02235174447, -40488.37458948787, 6443.18091192018, -5111.82160518427, -69662.09496999919, -4718.967344637793, -22666.97110736026, -4585.818002917529, 9098.389339255016, -0.03, 0.978, 0.254, 192.0, 0.0, 0.0, 0.0, 0.0, 0.0, 0.0, 0.0, 0.0, 0.0, 1.695418156894079E9, 0.0, 2023-09-22 16:29:16.894
108.0, 26541.377787754274, 13425.955286735927, -37037.55581826637, -63410.37910108318, -187500.02235174447, 7285.215829040508, -114350.18352868361, -187500.02235174447, -40490.74387440013, 6447.315984644411, -5163.029451731379, -69662.29613569929, -4713.893498646438, -22688.361726803985, -4574.508020223144, 9051.07069624313, -0.03, 0.978, 0.254, 192.0, 0.0, 0.0, 0.0, 0.0, 0.0, 0.0, 0.0, 0.0, 0.0, 1.695418156894083E9, 0.0, 2023-09-22 16:29:16.894
110.0, 26548.530345979972, 13434.001914739838, -37047.345882337795, -63403.561819024304, -187500.02235174447, 7276.453945214027, -114395.24464550552, -187500.02235174447, -40494.02958083506, 6440.8563304968275, -5122.4833872894515, -69666.36415319015, -4720.777835938673, -22674.369534774964, -4583.292255794079, 9096.154164809486, -0.03, 0.978, 0.254, 192.0, 0.0, 0.0, 0.0, 0.0, 0.0, 0.0, 0.0, 0.0, 0.0, 1.695418156894087E9, 0.0, 2023-09-22 16:29:16.894
112.0, 26551.816052414903, 13435.767702551808, -37030.47031527404, -63396.87864743217, -187500.02235174447, 7270.48602944446, -114398.70916589609, -187500.02235174447, -40488.978086588155, 6446.153693932735, -5175.188800715066, -69653.37778966162, -4713.938202135349, -22694.530808273652, -4581.258247048646, 9045.952146762866, -0.032, 0.976, 0.26, 192.0, 127.5, 0.0, 15.0, 64.0, 4.0, 16.0, 0.0, 0.0, 0.0, 1.695418156894091E9, 0.0, 2023-09-22 16:29:16.894
114.0, 26539.656703431214, 13422.088434945159, -37056.174821397646, -63407.07104290379, -187500.02235174447, 7283.137116806164, -114419.09395683932, -187500.02235174447, -40493.78371164605, 6436.251871139035, -5127.847805958725, -69662.40789442157, -4719.235565571256, -22666.14409281541, -4576.47497373521, 9091.639112429513, -0.032, 0.976, 0.26, 192.0, 0.0, 0.0, 0.0, 0.0, 0.0, 0.0, 0.0, 0.0, 0.0, 1.695418156894094E9, 0.0, 2023-09-22 16:29:16.894
116.0, 26527.96674108109, 13411.270190628791, -37047.74821373799, -63418.15750815362, -187500.02235174447, 7278.085622559264, -114426.96177088759, -187500.02235174447, -40495.86242388039, 6433.167330404202, -5171.83603904677, -69661.40206592108, -4727.170434852891, -22696.36365131899, -4590.24364831968, 9044.566338606637, -0.032, 0.976, 0.26, 192.0, 0.0, 0.0, 0.0, 0.0, 0.0, 0.0, 0.0, 0.0, 0.0, 1.695418156894097E9, 0.0, 2023-09-22 16:29:16.894
118.0, 26541.154270309722, 13426.357618136122, -37051.70447250658, -63404.902923691625, -187500.02235174447, 7292.636608199669, -114429.19694533313, -187500.02235174447, -40506.14422632983, 6423.824301221884, -5125.5902797687395, -69678.18822600701, -4733.630089000474, -22673.96720337477, -4587.963770385239, 9108.671141704457, -0.032, 0.976, 0.26, 192.0, 0.0, 0.0, 0.0, 0.0, 0.0, 0.0, 0.0, 0.0, 0.0, 1.6954181568941E9, 0.0, 2023-09-22 16:29:16.894
120.0, 26528.52553469247, 13418.288638387758, -37047.72586199354, -63414.82709822978, -187500.02235174447, 7277.124497547687, -114464.53505331697, -187500.02235174447, -40491.74970290062, 6452.099257957847, -5176.529905382384, -69661.22325196544, -4720.174338838379, -22694.150828617912, -4579.76068017014, 9048.343783419585, -0.032, 0.976, 0.26, 192.0, 0.0, 0.0, 0.0, 0.0, 0.0, 0.0, 0.0, 0.0, 0.0, 1.695418156954018E9, 0.0, 2023-09-22 16:29:16.954
122.0, 26547.63627620176, 13442.272060188301, -37041.0426904014, -63391.67069097408, -187500.02235174447, 7292.636608199669, -114469.22891965258, -187500.02235174447, -40503.14909257282, 6444.544368331954, -5134.083942661756, -69674.65665038308, -4726.611641241508, -22672.827264407548, -4574.038633589582, 9102.502060234792, -0.032, 0.972, 0.26, 192.0, 127.5, 0.0, 15.0, 48.0, 4.0, 16.0, 0.0, 0.0, 0.0, 1.69541815695403E9, 0.0, 2023-09-22 16:29:16.954
124.0, 26523.183467767652, 13413.840641241151, -37048.396414327195, -63416.861106975215, -187500.02235174447, 7261.031241539865, -114525.66707440223, -187500.02235174447, -40489.603935432904, 6454.08856321437, -5183.391890930163, -69658.85396705318, -4713.848795157528, -22677.185854576335, -4573.435136489289, 9040.118341460031, -0.032, 0.972, 0.26, 192.0, 0.0, 0.0, 0.0, 0.0, 0.0, 0.0, 0.0, 0.0, 0.0, 1.695418156954034E9, 0.0, 2023-09-22 16:29:16.954
126.0, 26534.73931965105, 13422.155490178526, -37048.59758002729, -63407.18280162607, -187500.02235174447, 7293.73184367798, -114478.3707831348, -187500.02235174447, -40509.83226416496, 6418.482234297066, -5141.527073565373, -69687.03951681132, -4733.630089000474, -22665.0488573371, -4581.995854615671, 9098.322284021651, -0.032, 0.972, 0.26, 192.0, 0.0, 0.0, 0.0, 0.0, 0.0, 0.0, 0.0, 0.0, 0.0, 1.695418156954037E9, 0.0, 2023-09-22 16:29:16.954
128.0, 26527.743223636535, 13415.405263353023, -37043.88136194723, -63411.92137145059, -187500.02235174447, 7265.143962519642, -114548.19763281319, -187500.02235174447, -40492.263793023085, 6437.101237428336, -5175.702890837538, -69671.43799918151, -4724.711742962807, -22683.421991279363, -4584.968636628227, 9052.03182125471, -0.032, 0.972, 0.26, 192.0, 0.0, 0.0, 0.0, 0.0, 0.0, 0.0, 0.0, 0.0, 0.0, 1.69541815695404E9, 0.0, 2023-09-22 16:29:16.954
130.0, 26536.48275571856, 13428.458682114922, -37049.514001549964, -63407.65218825963, -187500.02235174447, 7305.801785683845, -114484.36105064882, -187500.02235174447, -40512.42506652178, 6431.289783869956, -5142.667012532594, -69690.45933371298, -4735.3064698346225, -22667.01581084917, -4574.709185923241, 9100.400996255994, -0.032, 0.972, 0.26, 192.0, 0.0, 0.0, 0.0, 0.0, 0.0, 0.0, 0.0, 0.0, 0.0, 1.695418156954044E9, 0.0, 2023-09-22 16:29:16.954
132.0, 26538.561467952906, 13428.3692751371, -37044.64132125871, -63408.72507199348, -187500.02235174447, 7259.891302572644, -114581.88171170733, -187500.02235174447, -40484.32892374145, 6466.046746497959, -5166.941007011057, -69663.97251653344, -4712.842966657039, -22680.516264500173, -4583.269904049624, 9057.664460857446, -0.034, 0.976, 0.256, 192.0, 127.0, 120.0, 15.0, 64.0, 4.0, 0.0, 0.0, 0.0, 0.0, 1.695418156954047E9, 0.0, 2023-09-22 16:29:16.954
134.0, 26538.20384004162, 13429.196289681948, -37047.10001314879, -63412.54722029534, -187500.02235174447, 7301.554954237337, -114503.00240552454, -187500.02235174447, -40502.120912327875, 6428.406408835222, -5154.446381860541, -69675.86364458366, -4720.487263260754, -22671.776732418148, -4578.486630736188, 9083.570132681149, -0.034, 0.976, 0.256, 192.0, 0.0, 0.0, 0.0, 0.0, 0.0, 0.0, 0.0, 0.0, 0.0, 1.695418157013442E9, 0.0, 2023-09-22 16:29:17.013
136.0, 26532.660607416703, 13425.128272191081, -37056.62185628675, -63416.63758953066, -187500.02235174447, 7270.284863744362, -114582.12758089634, -187500.02235174447, -40503.86434839539, 6427.668801268197, -5152.92646323758, -69678.56820566276, -4734.07712388958, -22669.80977890608, -4600.5925060024865, 9074.137696521007, -0.034, 0.976, 0.256, 192.0, 0.0, 0.0, 0.0, 0.0, 0.0, 0.0, 0.0, 0.0, 0.0, 1.695418157013459E9, 0.0, 2023-09-22 16:29:17.013
138.0, 26528.436127714653, 13420.926144233483, -37056.46539407556, -63422.56080181132, -187500.02235174447, 7314.54131776587, -114488.45141988415, -187500.02235174447, -40515.80017993453, 6423.198452377135, -5150.065439947301, -69692.44863896951, -4733.205405855823, -22670.81560740657, -4582.28642729359, 9097.316455521162, -0.034, 0.976, 0.256, 192.0, 0.0, 0.0, 0.0, 0.0, 0.0, 0.0, 0.0, 0.0, 0.0, 1.695418157013463E9, 0.0, 2023-09-22 16:29:17.013
140.0, 26543.612962199804, 13439.70160957594, -37045.42363231464, -63401.70662423452, -187500.02235174447, 7271.134230033664, -114597.79615375951, -187500.02235174447, -40503.35025827292, 6432.742647259552, -5148.813742257803, -69674.41078119406, -4727.975097653281, -22670.81560740657, -4592.277657065112, 9092.063795574164, -0.034, 0.976, 0.256, 192.0, 0.0, 0.0, 0.0, 0.0, 0.0, 0.0, 0.0, 0.0, 0.0, 1.695418157013466E9, 0.0, 2023-09-22 16:29:17.013
142.0, 26541.9142296212, 13439.254574686835, -37042.98729216901, -63408.85918246021, -187500.02235174447, 7297.375178024195, -114531.09854830487, -187500.02235174447, -40506.34539202993, 6437.771789761996, -5172.931274525079, -69673.53906316031, -4719.682600460363, -22682.684383712338, -4568.160124797836, 9083.212504769863, -0.038, 0.974, 0.252, 192.0, 127.0, 104.0, 15.0, 56.0, 3.5, 112.0, 0.0, 0.0, 0.0, 1.69541815701347E9, 0.0, 2023-09-22 16:29:17.013
144.0, 26534.985188840055, 13424.725940790886, -37054.43138533013, -63415.20707788552, -187500.02235174447, 7271.268340500395, -114618.3597586584, -187500.02235174447, -40513.11797059989, 6433.949641460138, -5154.491085349451, -69684.2455487544, -4730.523196521187, -22659.97501134575, -4580.3418255259785, 9091.236781029318, -0.038, 0.974, 0.252, 192.0, 0.0, 0.0, 0.0, 0.0, 0.0, 0.0, 0.0, 0.0, 0.0, 1.695418157013473E9, 0.0, 2023-09-22 16:29:17.013
146.0, 26533.0629388169, 13418.780376765773, -37043.45667880258, -63414.916505207606, -187500.02235174447, 7299.744462936457, -114551.81861541494, -187500.02235174447, -40519.197645091735, 6416.470577296088, -5182.274303707398, -69687.12892378913, -4730.232623843268, -22680.11393309998, -4571.33407251049, 9081.156144279974, -0.038, 0.974, 0.252, 192.0, 0.0, 0.0, 0.0, 0.0, 0.0, 0.0, 0.0, 0.0, 0.0, 1.695418157013476E9, 0.0, 2023-09-22 16:29:17.013
148.0, 26529.33019749286, 13419.875612244085, -37058.14177490971, -63415.00591218542, -187500.02235174447, 7285.282884273874, -114627.0098837626, -187500.02235174447, -40524.24913933863, 6423.60078377733, -5152.1218004371885, -69692.26982501386, -4734.591214012053, -22668.848653894504, -4576.385566757389, 9107.352388781594, -0.038, 0.974, 0.252, 192.0, 0.0, 0.0, 0.0, 0.0, 0.0, 0.0, 0.0, 0.0, 0.0, 1.695418157013479E9, 0.0, 2023-09-22 16:29:17.013
150.0, 26537.39917724123, 13425.32943789118, -37037.779335710926, -63408.322740593285, -187500.02235174447, 7301.800823426345, -114564.20148184318, -187500.02235174447, -40527.87012194039, 6412.335504571856, -5178.563914127817, -69694.88497911513, -4735.284118090167, -22689.34520356002, -4573.323377767012, 9089.962731595366, -0.038, 0.974, 0.252, 192.0, 0.0, 0.0, 0.0, 0.0, 0.0, 0.0, 0.0, 0.0, 0.0, 1.695418157073068E9, 0.0, 2023-09-22 16:29:17.073
152.0, 26538.293247019443, 13425.50825184682, -37046.27299860394, -63408.43449931556, -187500.02235174447, 7282.131288305675, -114634.40831117729, -187500.02235174447, -40510.07813335397, 6435.782484505473, -5142.510550321406, -69677.33885971771, -4725.181129596368, -22669.34039227252, -4563.71212765123, 9113.901449907, -0.028, 0.978, 0.244, 192.0, 127.5, 16.0, 15.0, 72.0, 3.5, 80.0, 0.0, 0.0, 0.0, 1.69541815707309E9, 0.0, 2023-09-22 16:29:17.073
154.0, 26530.246619015532, 13417.998065709839, -37048.530524793925, -63418.604543042726, -187500.02235174447, 7307.232297328985, -114571.30933657997, -187500.02235174447, -40524.919691672294, 6424.27133611099, -5173.9594547700235, -69690.97342383546, -4735.328821579078, -22684.2043023353, -4568.517752709121, 9093.114327563564, -0.028, 0.978, 0.244, 192.0, 0.0, 0.0, 0.0, 0.0, 0.0, 0.0, 0.0, 0.0, 0.0, 1.695418157073094E9, 0.0, 2023-09-22 16:29:17.073
156.0, 26528.078499803367, 13412.097205173637, -37062.63447554523, -63419.1186331652, -187500.02235174447, 7303.7230734495015, -114616.19163944622, -187500.02235174447, -40528.16069461831, 6412.201394105125, -5122.595146011728, -69691.8004383803, -4745.767086239706, -22663.148959058402, -4575.513848723633, 9146.490293322837, -0.028, 0.978, 0.244, 192.0, 0.0, 0.0, 0.0, 0.0, 0.0, 0.0, 0.0, 0.0, 0.0, 1.695418157073097E9, 0.0, 2023-09-22 16:29:17.073
158.0, 26536.77332839648, 13416.74636802034, -37048.70933874957, -63419.92329596559, -187500.02235174447, 7295.3858727676725, -114604.59108407392, -187500.02235174447, -40519.97995614767, 6407.194603347136, -5170.830210546281, -69686.57013017776, -4737.563996024608, -22699.291729842633, -4581.90644763785, 9102.65852244598, -0.028, 0.978, 0.244, 192.0, 0.0, 0.0, 0.0, 0.0, 0.0, 0.0, 0.0, 0.0, 0.0, 1.6954181570731E9, 0.0, 2023-09-22 16:29:17.073
160.0, 26550.25143030303, 13433.487824617367, -37047.68115850462, -63407.272208603885, -187500.02235174447, 7295.542334978859, -114653.34023873095, -187500.02235174447, -40510.4134095208, 6420.918574442694, -5129.948869937524, -69679.5963859077, -4733.898309933938, -22678.661069710382, -4569.210656787236, 9141.170578142473, -0.028, 0.978, 0.244, 192.0, 0.0, 0.0, 0.0, 0.0, 0.0, 0.0, 0.0, 0.0, 0.0, 1.695418157073103E9, 0.0, 2023-09-22 16:29:17.073
162.0, 26544.372921511283, 13427.296391403246, -37044.30604509188, -63414.02243542939, -187500.02235174447, 7289.306198275829, -114653.89903234232, -187500.02235174447, -40507.12770308587, 6424.628964022275, -5169.198533201044, -69674.88016782764, -4734.054772145125, -22695.91661642988, -4563.868589862417, 9096.332978765127, -0.038, 0.974, 0.244, 192.0, 127.0, 104.0, 15.0, 56.0, 3.5, 80.0, 0.0, 0.0, 0.0, 1.695418157073106E9, 0.0, 2023-09-22 16:29:17.073
164.0, 26548.82091865789, 13434.56070835122, -37054.18551614112, -63411.340226094755, -187500.02235174447, 7299.230372813985, -114673.70267792973, -187500.02235174447, -40511.709810699205, 6427.020600678993, -5123.511567534396, -69681.58569116422, -4737.519292535698, -22668.669839938862, -4566.707261408242, 9149.86540673559, -0.038, 0.974, 0.244, 192.0, 0.0, 0.0, 0.0, 0.0, 0.0, 0.0, 0.0, 0.0, 0.0, 1.695418157133291E9, 0.0, 2023-09-22 16:29:17.133
166.0, 26548.39623551324, 13434.51600486231, -37041.690890990605, -63412.524868550885, -187500.02235174447, 7269.72607013298, -114709.48782080268, -187500.02235174447, -40506.25598505211, 6433.949641460138, -5169.422050645596, -69674.23196723843, -4738.70393499183, -22681.052706367103, -4569.411822487334, 9099.864554389067, -0.038, 0.974, 0.244, 192.0, 0.0, 0.0, 0.0, 0.0, 0.0, 0.0, 0.0, 0.0, 0.0, 1.695418157133321E9, 0.0, 2023-09-22 16:29:17.133
168.0, 26555.794662927947, 13440.908603776528, -37047.88232420472, -63408.21098187101, -187500.02235174447, 7291.653131443636, -114701.48589628768, -187500.02235174447, -40512.402714777316, 6430.619231536297, -5124.0033059124125, -69681.40687720857, -4735.731152979273, -22665.49589222621, -4564.449735218255, 9147.339659612138, -0.038, 0.974, 0.244, 192.0, 0.0, 0.0, 0.0, 0.0, 0.0, 0.0, 0.0, 0.0, 0.0, 1.695418157133326E9, 0.0, 2023-09-22 16:29:17.133
170.0, 26538.896744119735, 13422.602525067632, -37049.20107712759, -63418.38102559817, -187500.02235174447, 7275.738689391457, -114743.75304505265, -187500.02235174447, -40504.13256932885, 6428.853443724328, -5164.8622947767135, -69672.35442070419, -4736.848740202038, -22689.054630882103, -4573.166915555825, 9101.809156156678, -0.038, 0.974, 0.244, 192.0, 0.0, 0.0, 0.0, 0.0, 0.0, 0.0, 0.0, 0.0, 0.0, 1.695418157133332E9, 0.0, 2023-09-22 16:29:17.133
172.0, 26548.172718068687, 13435.298315918246, -37046.00477767048, -63408.50155454893, -187500.02235174447, 7298.15748908013, -114731.54899258006, -187500.02235174447, -40515.66606946779, 6415.93413542916, -5129.613593770694, -69679.08229578522, -4735.060600645614, -22678.169331332367, -4569.165953298325, 9155.319232382684, -0.036000000000000004, 0.98, 0.25, 192.0, 127.0, 112.0, 15.0, 80.0, 3.5, 104.0, 0.0, 0.0, 0.0, 1.695418157133351E9, 0.0, 2023-09-22 16:29:17.133
174.0, 26550.72081693659, 13440.573327609698, -37036.32647232133, -63408.52390629338, -187500.02235174447, 7260.025413039376, -114808.39429001742, -187500.02235174447, -40504.40079026232, 6432.8097024929175, -5166.0692889773, -69673.06967652675, -4735.082952390069, -22696.25189259671, -4574.753889412152, 9107.285333548229, -0.036000000000000004, 0.98, 0.25, 192.0, 0.0, 0.0, 0.0, 0.0, 0.0, 0.0, 0.0, 0.0, 0.0, 1.695418157133356E9, 0.0, 2023-09-22 16:29:17.133
176.0, 26542.74124416605, 13430.313876904713, -37044.417803814154, -63415.318836607796, -187500.02235174447, 7299.3197797918065, -114763.91431855135, -187500.02235174447, -40504.378438517866, 6434.240214138057, -5137.190835141044, -69677.0929905287, -4728.019801142193, -22676.984688876237, -4557.699508392752, 9136.923746695966, -0.036000000000000004, 0.98, 0.25, 192.0, 0.0, 0.0, 0.0, 0.0, 0.0, 0.0, 0.0, 0.0, 0.0, 1.695418157133361E9, 0.0, 2023-09-22 16:29:17.133
178.0, 26552.508956493017, 13440.32745842069, -37036.57234151034, -63404.411185313606, -187500.02235174447, 7251.285880957352, -114861.12205518747, -187500.02235174447, -40510.81574092099, 6426.215937878602, -5142.868178232691, -69676.4000864506, -4735.909966934916, -22687.087677370033, -4576.676139435308, 9115.622534230059, -0.036000000000000004, 0.98, 0.25, 192.0, 0.0, 0.0, 0.0, 0.0, 0.0, 0.0, 0.0, 0.0, 0.0, 1.695418157133366E9, 0.0, 2023-09-22 16:29:17.133
180.0, 26535.186354540154, 13422.311952389713, -37052.37502484024, -63420.52679306589, -187500.02235174447, 7284.165297051108, -114806.78496441663, -187500.02235174447, -40513.25208106662, 6427.311173356912, -5138.241367130443, -69681.78685686432, -4730.74671396574, -22688.87581692646, -4552.826828101495, 9129.413560558982, -0.036000000000000004, 0.98, 0.25, 192.0, 0.0, 0.0, 0.0, 0.0, 0.0, 0.0, 0.0, 0.0, 0.0, 1.695418157193728E9, 0.0, 2023-09-22 16:29:17.193
182.0, 26532.750014394525, 13421.328475633678, -37055.07958591933, -63416.68229301957, -187500.02235174447, 7249.7212588454795, -114904.03740454167, -187500.02235174447, -40523.22095909369, 6416.805853462917, -5141.504721820917, -69688.26886275636, -4755.981833455781, -22689.076982626557, -4579.783031914596, 9117.723598208857, -0.034, 0.98, 0.254, 192.0, 127.0, 120.0, 15.0, 80.0, 3.5, 120.0, 0.0, 0.0, 0.0, 1.69541815719374E9, 0.0, 2023-09-22 16:29:17.193
184.0, 26530.40308122672, 13421.842565756151, -37056.577152797836, -63421.77849075538, -187500.02235174447, 7298.068082102309, -114838.90442119891, -187500.02235174447, -40531.53580803106, 6407.798100447429, -5138.219015385987, -69688.91706334557, -4748.024612429692, -22687.758229703693, -4559.644110160364, 9137.013153673786, -0.034, 0.98, 0.254, 192.0, 0.0, 0.0, 0.0, 0.0, 0.0, 0.0, 0.0, 0.0, 0.0, 1.695418157193744E9, 0.0, 2023-09-22 16:29:17.193
186.0, 26547.25629654602, 13437.80171129724, -37043.74725148049, -63402.0642521458, -187500.02235174447, 7255.018622281387, -114963.04600990367, -187500.02235174447, -40521.94690965974, 6422.1255686432805, -5138.353125852719, -69681.74215337541, -4750.706821764329, -22684.427819779852, -4588.120232596425, 9129.7041332369, -0.034, 0.98, 0.254, 192.0, 0.0, 0.0, 0.0, 0.0, 0.0, 0.0, 0.0, 0.0, 0.0, 1.695418157193747E9, 0.0, 2023-09-22 16:29:17.193
188.0, 26536.34864525183, 13424.413016368511, -37042.741422980005, -63413.91067670711, -187500.02235174447, 7287.026320341387, -114906.67491038739, -187500.02235174447, -40517.07422936848, 6432.764999004006, -5154.044050460345, -69672.86851082665, -4739.419190814399, -22687.86998842597, -4563.019223573116, 9122.350409311106, -0.034, 0.98, 0.254, 192.0, 0.0, 0.0, 0.0, 0.0, 0.0, 0.0, 0.0, 0.0, 0.0, 1.69541815719375E9, 0.0, 2023-09-22 16:29:17.193
190.0, 26537.48858421905, 13428.302219903735, -37051.07862366184, -63409.95441793853, -187500.02235174447, 7254.660994370102, -115016.62314136304, -187500.02235174447, -40530.373517319385, 6422.684362254663, -5132.340506594242, -69687.1512755336, -4754.528970066187, -22678.191683076824, -4582.197020315769, 9131.872252449066, -0.034, 0.98, 0.254, 192.0, 0.0, 0.0, 0.0, 0.0, 0.0, 0.0, 0.0, 0.0, 0.0, 1.695418157193753E9, 0.0, 2023-09-22 16:29:17.193
192.0, 26528.503182948018, 13418.042769198748, -37049.06696666086, -63416.1682028971, -187500.02235174447, 7293.0389395998645, -114941.05189335966, -187500.02235174447, -40533.18983712076, 6420.359780831312, -5155.072230705289, -69688.15710403408, -4754.037231688169, -22695.335471074042, -4570.060023076538, 9125.256136090295, -0.032, 0.978, 0.256, 192.0, 127.5, 0.0, 15.0, 72.0, 4.0, 0.0, 0.0, 0.0, 0.0, 1.695418157193756E9, 0.0, 2023-09-22 16:29:17.193
194.0, 26530.291322504443, 13424.010684968316, -37058.63351328773, -63413.64245577365, -187500.02235174447, 7267.848523598734, -115035.91269682797, -187500.02235174447, -40535.268549355096, 6411.419083049189, -5130.150035637622, -69688.0006418229, -4758.462877090321, -22682.706735456795, -4580.095956336971, 9148.926633468465, -0.032, 0.978, 0.256, 192.0, 0.0, 0.0, 0.0, 0.0, 0.0, 0.0, 0.0, 0.0, 0.0, 1.695418157253813E9, 0.0, 2023-09-22 16:29:17.253
196.0, 26533.577028939373, 13423.697760545941, -37042.13792587971, -63407.16044988161, -187500.02235174447, 7297.039901857365, -114977.99932694428, -187500.02235174447, -40540.00711917962, 6412.670780738686, -5159.54257959635, -69696.6507669271, -4751.645595031452, -22689.34520356002, -4569.098898064959, 9136.297897851216, -0.032, 0.978, 0.256, 192.0, 0.0, 0.0, 0.0, 0.0, 0.0, 0.0, 0.0, 0.0, 0.0, 1.695418157253826E9, 0.0, 2023-09-22 16:29:17.253
198.0, 26546.362226767807, 13435.56653685171, -37037.08643163281, -63392.7659264524, -187500.02235174447, 7255.845636826234, -115100.17396213699, -187500.02235174447, -40514.90611015631, 6429.792216991451, -5142.39879159913, -69663.70429559998, -4735.842911701549, -22682.997308134713, -4553.18445601278, 9140.120046153075, -0.032, 0.978, 0.256, 192.0, 0.0, 0.0, 0.0, 0.0, 0.0, 0.0, 0.0, 0.0, 0.0, 1.69541815725383E9, 0.0, 2023-09-22 16:29:17.253
200.0, 26524.993959068535, 13413.170088907491, -37051.03392017292, -63421.37615935519, -187500.02235174447, 7284.63468368467, -115046.03803706623, -187500.02235174447, -40538.129572645375, 6411.821414449384, -5177.982768771979, -69686.57013017776, -4749.611586286019, -22703.49385780023, -4555.039650802571, 9108.067644604165, -0.032, 0.978, 0.256, 192.0, 0.0, 0.0, 0.0, 0.0, 0.0, 0.0, 0.0, 0.0, 0.0, 1.695418157253833E9, 0.0, 2023-09-22 16:29:17.253
202.0, 26533.040587072443, 13425.262382657813, -37051.36919633975, -63411.764909239406, -187500.02235174447, 7277.705642903525, -115124.15738393753, -187500.02235174447, -40534.79916272154, 6416.112949384803, -5133.569852539284, -69682.99385106491, -4757.814676501117, -22680.806837178094, -4571.758755655141, 9155.498046338325, -0.036000000000000004, 0.978, 0.25, 192.0, 127.0, 112.0, 15.0, 72.0, 3.5, 104.0, 0.0, 0.0, 0.0, 1.695418157253836E9, 0.0, 2023-09-22 16:29:17.253
204.0, 26534.53815395095, 13424.725940790886, -37045.69185324811, -63408.00981617091, -187500.02235174447, 7281.371328994194, -115104.15257265003, -187500.02235174447, -40545.483296571176, 6413.341333072345, -5174.0712134923, -69694.46029597048, -4761.234493402779, -22697.63770075294, -4577.793726658074, 9122.171595355463, -0.036000000000000004, 0.978, 0.25, 192.0, 0.0, 0.0, 0.0, 0.0, 0.0, 0.0, 0.0, 0.0, 0.0, 1.695418157253839E9, 0.0, 2023-09-22 16:29:17.253
206.0, 26537.95797085261, 13429.173937937492, -37052.82205972935, -63410.557915038815, -187500.02235174447, 7265.926273575577, -115176.2369485184, -187500.02235174447, -40526.68547948426, 6427.199414634635, -5141.460018332007, -69678.52350217385, -4745.945900195348, -22680.53861624463, -4560.851104360951, 9145.86444447809, -0.036000000000000004, 0.978, 0.25, 192.0, 0.0, 0.0, 0.0, 0.0, 0.0, 0.0, 0.0, 0.0, 0.0, 1.695418157253843E9, 0.0, 2023-09-22 16:29:17.253
208.0, 26542.58478195486, 13428.525737348287, -37042.69671949109, -63410.60261852773, -187500.02235174447, 7253.185779236052, -115180.88611136511, -187500.02235174447, -40532.943967931744, 6417.610516263308, -5186.185858987076, -69683.46323769847, -4752.472609576298, -22695.3578228185, -4571.602293443953, 9100.199830555895, -0.036000000000000004, 0.978, 0.25, 192.0, 0.0, 0.0, 0.0, 0.0, 0.0, 0.0, 0.0, 0.0, 0.0, 1.695418157253846E9, 0.0, 2023-09-22 16:29:17.253
210.0, 26557.895726906747, 13443.926089277995, -37044.820135214344, -63399.71731897799, -187500.02235174447, 7244.8485785542225, -115231.11048115618, -187500.02235174447, -40522.37159280439, 6417.655219752219, -5142.667012532594, -69676.10951377267, -4742.503731549231, -22685.81362793608, -4560.158200282836, 9138.935403696943, -0.036000000000000004, 0.978, 0.25, 192.0, 0.0, 0.0, 0.0, 0.0, 0.0, 0.0, 0.0, 0.0, 0.0, 1.695418157313296E9, 0.0, 2023-09-22 16:29:17.313
212.0, 26536.14747955173, 13423.876574501584, -37045.93772243711, -63419.07392967629, -187500.02235174447, 7243.328659931262, -115243.94038247352, -187500.02235174447, -40532.58634002046, 6416.761149974007, -5187.661074121127, -69686.57013017776, -4752.025574687192, -22705.036128167645, -4568.651863175853, 9083.03369081422, -0.042, 0.978, 0.25, 192.0, 127.0, 88.0, 15.0, 72.0, 3.5, 104.0, 0.0, 0.0, 0.0, 1.695418157313307E9, 0.0, 2023-09-22 16:29:17.313
214.0, 26550.16202332521, 13437.667600830508, -37041.556780523875, -63404.29942659133, -187500.02235174447, 7257.052631026821, -115268.1026182297, -187500.02235174447, -40538.97893893468, 6413.386036561255, -5136.20735838501, -69686.79364762231, -4754.014879943715, -22687.1547326034, -4571.624645188409, 9137.214319373885, -0.042, 0.978, 0.25, 192.0, 0.0, 0.0, 0.0, 0.0, 0.0, 0.0, 0.0, 0.0, 0.0, 1.695418157313311E9, 0.0, 2023-09-22 16:29:17.313
216.0, 26539.58964819785, 13427.072873958692, -37033.75602170897, -63412.30135110633, -187500.02235174447, 7231.057552225298, -115319.73514792147, -187500.02235174447, -40527.17721786228, 6415.956487173616, -5177.8933617941575, -69678.92583357405, -4746.080010662081, -22711.138154403943, -4568.875380620406, 9080.731461135323, -0.042, 0.978, 0.25, 192.0, 0.0, 0.0, 0.0, 0.0, 0.0, 0.0, 0.0, 0.0, 0.0, 1.695418157313314E9, 0.0, 2023-09-22 16:29:17.313
218.0, 26544.52938372247, 13430.55974609372, -37042.00381541298, -63412.43546157306, -187500.02235174447, 7256.985575793455, -115317.41056649812, -187500.02235174447, -40537.1684476338, 6414.682437739663, -5135.357992095708, -69693.18624653653, -4748.5163508077085, -22685.59011049153, -4562.840409617474, 9128.273621591761, -0.042, 0.978, 0.25, 192.0, 0.0, 0.0, 0.0, 0.0, 0.0, 0.0, 0.0, 0.0, 0.0, 1.695418157313317E9, 0.0, 2023-09-22 16:29:17.313
220.0, 26527.519706191983, 13412.678350529475, -37050.653940517186, -63432.32851413829, -187500.02235174447, 7235.840825538734, -115371.81471250234, -187500.02235174447, -40529.09946788543, 6416.738798229551, -5178.78743157237, -69690.57109243526, -4749.164551396912, -22702.510381044198, -4572.697528922264, 9076.976368066833, -0.042, 0.978, 0.25, 192.0, 0.0, 0.0, 0.0, 0.0, 0.0, 0.0, 0.0, 0.0, 0.0, 1.69541815731332E9, 0.0, 2023-09-22 16:29:17.313
222.0, 26522.468211945084, 13407.716263260398, -37063.975580212544, -63435.83773801777, -187500.02235174447, 7280.968997593999, -115328.18410732558, -187500.02235174447, -40553.440517597264, 6384.999321103016, -5140.431838087063, -69719.29308406032, -4766.688319049874, -22692.474447783763, -4572.04932833306, 9136.767284484778, -0.034, 0.978, 0.254, 192.0, 127.0, 120.0, 15.0, 72.0, 3.5, 120.0, 0.0, 0.0, 0.0, 1.695418157313323E9, 0.0, 2023-09-22 16:29:17.313
224.0, 26523.943427079135, 13405.816364981696, -37054.00670218548, -63426.874688491196, -187500.02235174447, 7251.285880957352, -115404.22474196253, -187500.02235174447, -40549.037223939566, 6389.894353138728, -5170.517286123906, -69709.16774382206, -4769.147010939957, -22711.272264870677, -4590.310703553046, 9106.592429470114, -0.034, 0.978, 0.254, 192.0, 0.0, 0.0, 0.0, 0.0, 0.0, 0.0, 0.0, 0.0, 0.0, 1.695418157373122E9, 0.0, 2023-09-22 16:29:17.373
226.0, 26545.49050873405, 13432.169071694503, -37034.58303625382, -63404.18766786905, -187500.02235174447, 7280.745480149446, -115372.23939564699, -187500.02235174447, -40534.62034876589, 6400.399673032722, -5157.396812128641, -69687.82182786726, -4742.101400149036, -22710.86993347048, -4553.676194390797, 9137.19196762943, -0.034, 0.978, 0.254, 192.0, 0.0, 0.0, 0.0, 0.0, 0.0, 0.0, 0.0, 0.0, 0.0, 1.695418157373134E9, 0.0, 2023-09-22 16:29:17.373
228.0, 26548.619752957795, 13434.761874051319, -37039.746289222996, -63403.159487624114, -187500.02235174447, 7249.922424545578, -115466.27318457045, -187500.02235174447, -40536.60965402242, 6412.424911549677, -5164.9740534989905, -69685.56430167727, -4758.440525345865, -22699.917578687382, -4571.177610299303, 9117.053045875198, -0.034, 0.978, 0.254, 192.0, 0.0, 0.0, 0.0, 0.0, 0.0, 0.0, 0.0, 0.0, 0.0, 1.695418157373138E9, 0.0, 2023-09-22 16:29:17.373
230.0, 26553.246564060042, 13437.153510708036, -37042.96494042456, -63398.80089745533, -187500.02235174447, 7292.793070410857, -115400.58140761631, -187500.02235174447, -40535.894398199845, 6419.3092488419115, -5147.740858523948, -69683.61969990966, -4749.388068841466, -22686.707697714293, -4552.268034490113, 9145.52916831126, -0.034, 0.978, 0.254, 192.0, 0.0, 0.0, 0.0, 0.0, 0.0, 0.0, 0.0, 0.0, 0.0, 1.695418157373142E9, 0.0, 2023-09-22 16:29:17.373
232.0, 26555.325276294385, 13440.863900287617, -37038.51694327795, -63396.61042649871, -187500.02235174447, 7252.738744346946, -115508.45092635763, -187500.02235174447, -40519.77879044757, 6427.065304167903, -5143.404620099619, -69669.0463625248, -4746.102362406536, -22678.01286912118, -4563.801534629051, 9136.990801929333, -0.034, 0.978, 0.254, 192.0, 127.0, 120.0, 15.0, 72.0, 3.5, 120.0, 0.0, 0.0, 0.0, 1.695418157373145E9, 0.0, 2023-09-22 16:29:17.373
234.0, 26531.855944616313, 13413.37125460759, -37054.78901324142, -63426.159432668625, -187500.02235174447, 7288.456831986527, -115438.48996621251, -187500.02235174447, -40538.30838660102, 6402.545440500431, -5149.4842945914625, -69690.63814766862, -4754.014879943715, -22682.192645334322, -4556.1572380253365, 9148.457246834903, -0.034, 0.978, 0.254, 192.0, 0.0, 0.0, 0.0, 0.0, 0.0, 0.0, 0.0, 0.0, 0.0, 1.695418157373149E9, 0.0, 2023-09-22 16:29:17.373
236.0, 26522.870543345278, 13405.503440559321, -37061.02514994444, -63431.322685637795, -187500.02235174447, 7261.3441659622395, -115539.02811277249, -187500.02235174447, -40547.69611927225, 6398.812699176396, -5146.109181178711, -69698.90829311709, -4770.622226074008, -22687.087677370033, -4583.515773238632, 9150.424200346972, -0.034, 0.978, 0.254, 192.0, 0.0, 0.0, 0.0, 0.0, 0.0, 0.0, 0.0, 0.0, 0.0, 1.695418157373152E9, 0.0, 2023-09-22 16:29:17.373
238.0, 26526.893857347233, 13406.88924871555, -37050.922161450646, -63426.53941232436, -187500.02235174447, 7287.16043080812, -115472.17404510666, -187500.02235174447, -40562.35886363493, 6377.600893688309, -5158.603806329227, -69715.26977005837, -4773.416194130921, -22703.78443047815, -4578.307816780546, 9162.38238363056, -0.034, 0.978, 0.254, 192.0, 0.0, 0.0, 0.0, 0.0, 0.0, 0.0, 0.0, 0.0, 0.0, 1.695418157373156E9, 0.0, 2023-09-22 16:29:17.373
240.0, 26526.983264325056, 13408.811498738707, -37048.79874572739, -63422.7172640225, -187500.02235174447, 7259.556026405815, -115566.6772206637, -187500.02235174447, -40550.78066000708, 6393.269466551479, -5145.908015478613, -69697.09780181621, -4766.464801605321, -22693.88260768445, -4577.838430146984, 9166.495104610338, -0.034, 0.978, 0.254, 192.0, 0.0, 0.0, 0.0, 0.0, 0.0, 0.0, 0.0, 0.0, 0.0, 1.695418157434313E9, 0.0, 2023-09-22 16:29:17.434
242.0, 26527.49735444753, 13408.27505687178, -37039.70158573408, -63423.20900240052, -187500.02235174447, 7291.831945399278, -115497.6103302968, -187500.02235174447, -40550.80301175154, 6382.250056535013, -5170.226713445987, -69695.44377272652, -4763.648481803952, -22704.410279322896, -4553.3409182239675, 9159.52136034028, -0.034, 0.98, 0.252, 192.0, 127.0, 120.0, 15.0, 80.0, 3.5, 112.0, 0.0, 0.0, 0.0, 1.695418157434336E9, 0.0, 2023-09-22 16:29:17.434
244.0, 26534.404043484217, 13418.825080254685, -37043.32256833584, -63416.34701685274, -187500.02235174447, 7268.8543520992225, -115587.30788079595, -187500.02235174447, -40548.92546521729, 6392.710672940097, -5137.906090963614, -69698.12598206114, -4767.403574872444, -22681.008002878192, -4566.886075363884, 9183.951817029932, -0.034, 0.98, 0.252, 192.0, 0.0, 0.0, 0.0, 0.0, 0.0, 0.0, 0.0, 0.0, 0.0, 1.695418157434339E9, 0.0, 2023-09-22 16:29:17.434
246.0, 26524.144592779234, 13408.431519082967, -37045.244818358995, -63426.02532220189, -187500.02235174447, 7290.557895965326, -115526.93581902217, -187500.02235174447, -40548.21020939472, 6390.4084432612, -5169.712623323515, -69699.73530766193, -4762.41913585891, -22704.11970664498, -4558.437115959778, 9156.347412627627, -0.034, 0.98, 0.252, 192.0, 0.0, 0.0, 0.0, 0.0, 0.0, 0.0, 0.0, 0.0, 0.0, 1.695418157434343E9, 0.0, 2023-09-22 16:29:17.434
248.0, 26547.144537823744, 13430.783263538273, -37041.10974563476, -63398.68913873305, -187500.02235174447, 7266.552122420326, -115622.80245099097, -187500.02235174447, -40549.55131406204, 6392.174231073169, -5134.441570573041, -69692.33688024723, -4768.141182439468, -22688.831113437547, -4567.71308990873, 9188.243351965351, -0.034, 0.98, 0.252, 192.0, 0.0, 0.0, 0.0, 0.0, 0.0, 0.0, 0.0, 0.0, 0.0, 1.695418157434346E9, 0.0, 2023-09-22 16:29:17.434
250.0, 26540.237848787052, 13424.390664624056, -37031.073812374336, -63406.53460103687, -187500.02235174447, 7260.874779328678, -115609.4361078067, -187500.02235174447, -40532.20636036472, 6413.073112138881, -5194.545411413362, -69673.15908350458, -4742.03434491567, -22714.535619561153, -4542.746191352152, 9125.122025623563, -0.034, 0.98, 0.252, 192.0, 0.0, 0.0, 0.0, 0.0, 0.0, 0.0, 0.0, 0.0, 0.0, 1.695418157434349E9, 0.0, 2023-09-22 16:29:17.434
