%OpenBCI Raw EXG Data
%Number of channels = 16
%Sample Rate = 125 Hz
%Board = OpenBCI_GUI$BoardCytonSerialDaisy
Sample Index, EXG Channel 0, EXG Channel 1, EXG Channel 2, EXG Channel 3, EXG Channel 4, EXG Channel 5, EXG Channel 6, EXG Channel 7, EXG Channel 8, EXG Channel 9, EXG Channel 10, EXG Channel 11, EXG Channel 12, EXG Channel 13, EXG Channel 14, EXG Channel 15, Accel Channel 0, Accel Channel 1, Accel Channel 2, Other, Other, Other, Other, Other, Other, Other, Analog Channel 0, Analog Channel 1, Analog Channel 2, Timestamp, Other, Timestamp (Formatted)
192.0, 25963.696952306862, 12371.467038567906, -36216.03980255601, -62882.38619355991, -187500.02235174447, 8211.472119268432, -175630.4637349205, -187500.02235174447, -38538.40840320688, 6539.047543888992, -6430.060437924914, -69914.17794396615, 3185.168288370167, -20313.86885808335, -6257.259101540935, 6256.8344183962845, -0.058, 0.994, 0.22, 192.0, 127.0, 24.0, 15.5, 8.0, 3.0, 112.0, 0.0, 0.0, 0.0, 1.695418060923532E9, 0.0, 2023-09-22 16:27:40.923
194.0, 25981.511292637744, 12391.695367299959, -36214.676346144246, -62863.00723111716, -187500.02235174447, 8248.35249761969, -175495.43684666598, -187500.02235174447, -38557.51914471616, 6527.603450727875, -6382.831201890851, -69931.54524940792, 3178.7980412004044, -20295.54042763, -6258.33198527479, 6314.278401646424, -0.058, 0.994, 0.22, 192.0, 0.0, 0.0, 0.0, 0.0, 0.0, 0.0, 0.0, 0.0, 0.0, 1.695418060923542E9, 0.0, 2023-09-22 16:27:40.923
196.0, 25969.396647142967, 12380.050108438743, -36216.17391302275, -62877.80408594658, -187500.02235174447, 8209.348703545178, -175501.00243103533, -187500.02235174447, -38526.74079260121, 6552.257424862079, -6423.287859354957, -69905.37135665075, 3195.561849541885, -20316.97575056264, -6258.5331509748885, 6267.38444177919, -0.058, 0.994, 0.22, 192.0, 0.0, 0.0, 0.0, 0.0, 0.0, 0.0, 0.0, 0.0, 0.0, 1.695418060923546E9, 0.0, 2023-09-22 16:27:40.923
198.0, 25986.316917695633, 12397.618579580616, -36205.98151755113, -62863.27545205063, -187500.02235174447, 8245.893805729605, -175346.9765599938, -187500.02235174447, -38552.288836513624, 6529.235128073112, -6389.6708356941745, -69927.36547319478, 3185.5929715148177, -20307.63272138032, -6251.581758449288, 6308.019913198938, -0.058, 0.994, 0.22, 192.0, 0.0, 0.0, 0.0, 0.0, 0.0, 0.0, 0.0, 0.0, 0.0, 1.695418060923549E9, 0.0, 2023-09-22 16:27:40.923
200.0, 25998.968005057337, 12412.817765810225, -36190.178834221224, -62845.416408230834, -187500.02235174447, 8194.931828371506, -175364.5450311357, -187500.02235174447, -38522.67277511034, 6552.279776606533, -6405.473519024077, -69895.31307164587, 3197.484099565041, -20313.958265061174, -6246.9102438581285, 6274.581703493799, -0.058, 0.994, 0.22, 192.0, 0.0, 0.0, 0.0, 0.0, 0.0, 0.0, 0.0, 0.0, 0.0, 1.695418060923553E9, 0.0, 2023-09-22 16:27:40.923
202.0, 26002.432525447908, 12416.461100156439, -36193.73276158962, -62842.30951575155, -187500.02235174447, 8224.682000241519, -175203.52306407967, -187500.02235174447, -38525.06441176706, 6558.001823187092, -6395.5940479748315, -69892.6979175446, 3205.597782802318, -20305.30813995697, -6225.586679647766, 6280.639026241187, -0.06, 0.994, 0.22, 192.0, 127.0, 16.0, 15.5, 8.0, 3.0, 112.0, 0.0, 0.0, 0.0, 1.695418060923556E9, 0.0, 2023-09-22 16:27:40.923
204.0, 25986.026345017715, 12398.512649358827, -36211.25652924258, -62862.269623550135, -187500.02235174447, 8192.584895203698, -175217.69407006432, -187500.02235174447, -38523.25392046618, 6556.213683630667, -6391.682492695152, -69890.12746693224, 3195.7630152419824, -20299.407279420768, -6243.6245374231985, 6265.171619078114, -0.06, 0.994, 0.22, 192.0, 0.0, 0.0, 0.0, 0.0, 0.0, 0.0, 0.0, 0.0, 0.0, 1.695418060923563E9, 0.0, 2023-09-22 16:27:40.923
206.0, 25988.105057252058, 12399.0267394813, -36209.35663096388, -62863.454266006265, -187500.02235174447, 8234.762636990861, -175039.59537024444, -187500.02235174447, -38545.0468713101, 6533.258442075067, -6381.825373390362, -69920.65994985819, 3179.1109656227786, -20303.944683545196, -6246.351450246746, 6284.036491398393, -0.06, 0.994, 0.22, 192.0, 0.0, 0.0, 0.0, 0.0, 0.0, 0.0, 0.0, 0.0, 0.0, 1.695418060923566E9, 0.0, 2023-09-22 16:27:40.923
208.0, 25987.009821773747, 12399.339663903675, -36213.6481658993, -62865.912957896355, -187500.02235174447, 8196.518802227833, -175042.85872493492, -187500.02235174447, -38530.831161836526, 6543.875520691338, -6368.5931406728205, -69908.7017665746, 3188.2751808494545, -20304.704642856675, -6254.375726506201, 6278.917941918128, -0.06, 0.994, 0.22, 192.0, 0.0, 0.0, 0.0, 0.0, 0.0, 0.0, 0.0, 0.0, 0.0, 1.69541806092357E9, 0.0, 2023-09-22 16:27:40.923
0.0, 13087.326358238026, 6313.920773735139, -18237.481205163145, -31466.338809292178, -93750.01117587223, 3909.7671401223115, -62965.15470327791, -93750.01117587223, -19264.34269718441, 3268.652053910739, -3205.4189688466754, -34953.61327572027, 1597.0768448206002, -10166.310985840677, -3122.9857352955028, 3123.7680463514384, -0.052000000000000005, 0.984, 0.23600000000000002, 192.0, 127.0, 48.0, 15.0, 96.0, 3.5, 48.0, 0.0, 0.0, 0.0, 1.695418061071319E9, 0.0, 2023-09-22 16:27:41.071
2.0, 26194.858693463648, 12647.444027357582, -36441.59125585452, -62914.46094685328, -187500.02235174447, 7823.3787802909355, -125903.46496146501, -187500.02235174447, -39081.80166265985, 6497.80857536895, -6131.239966301914, -69808.94593107056, 1938.1421134641307, -20779.902729976504, -6254.711002673031, 7762.850256305964, -0.052000000000000005, 0.984, 0.23600000000000002, 192.0, 0.0, 0.0, 0.0, 0.0, 0.0, 0.0, 0.0, 0.0, 0.0, 1.695418061071331E9, 0.0, 2023-09-22 16:27:41.071
4.0, 26214.461173350952, 12669.214626457051, -36428.04609871461, -62891.23748436422, -187500.02235174447, 7800.825870135531, -125939.38421480468, -187500.02235174447, -39050.173944255585, 6536.074761876436, -6097.667646130043, -69779.218110945, 1976.005968571421, -20752.186566851924, -6212.622667863688, 7790.119384541439, -0.052000000000000005, 0.984, 0.23600000000000002, 192.0, 0.0, 0.0, 0.0, 0.0, 0.0, 0.0, 0.0, 0.0, 0.0, 1.695418061071335E9, 0.0, 2023-09-22 16:27:41.071
6.0, 26184.80040845876, 12637.631611541703, -36446.93332277934, -62919.31127540008, -187500.02235174447, 7784.330282727514, -125961.60184879326, -187500.02235174447, -39068.39061598666, 6507.688046418196, -6152.250606089903, -69797.79241058737, 1957.0293375288652, -20787.68113704695, -6224.647906380643, 7712.983514426174, -0.052000000000000005, 0.984, 0.23600000000000002, 192.0, 0.0, 0.0, 0.0, 0.0, 0.0, 0.0, 0.0, 0.0, 0.0, 1.695418061071338E9, 0.0, 2023-09-22 16:27:41.071
8.0, 26185.538016025785, 12635.821120240822, -36460.72434910826, -62921.25587716769, -187500.02235174447, 7813.0522743525835, -125915.53490347088, -187500.02235174447, -39083.00865686043, 6492.66767414423, -6091.409157682558, -69810.75642237144, 1953.6095206272032, -20742.62002022505, -6227.37481920419, 7775.926026812319, -0.046, 0.978, 0.248, 192.0, 127.0, 72.0, 15.0, 72.0, 3.5, 96.0, 0.0, 0.0, 0.0, 1.695418061071342E9, 0.0, 2023-09-22 16:27:41.071
10.0, 26187.259100348845, 12637.36339060824, -36444.675796589356, -62916.941990487816, -187500.02235174447, 7777.870628579931, -125963.65820928315, -187500.02235174447, -39073.8220898893, 6495.662807901241, -6140.717105950965, -69803.78267810139, 1952.9836717824546, -20789.424573114466, -6235.488502441466, 7717.476215061691, -0.046, 0.978, 0.248, 192.0, 0.0, 0.0, 0.0, 0.0, 0.0, 0.0, 0.0, 0.0, 0.0, 1.695418061071345E9, 0.0, 2023-09-22 16:27:41.071
12.0, 26192.601167273664, 12643.666582544636, -36444.58638961153, -62910.236467151226, -187500.02235174447, 7812.247611552193, -125892.95964157101, -187500.02235174447, -39083.61215396073, 6489.247857242568, -6093.979608294918, -69815.27147475141, 1955.9788055394658, -20751.270145329258, -6222.569194146299, 7769.82400057602, -0.046, 0.978, 0.248, 192.0, 0.0, 0.0, 0.0, 0.0, 0.0, 0.0, 0.0, 0.0, 0.0, 1.695418061071349E9, 0.0, 2023-09-22 16:27:41.071
14.0, 26189.85190270566, 12643.532472077904, -36438.61847384196, -62906.77194676065, -187500.02235174447, 7766.024204018618, -125953.28699985589, -187500.02235174447, -39077.46542423552, 6494.746386378573, -6143.332260052235, -69806.73310836949, 1956.3364334507507, -20785.043631201224, -6233.208624507025, 7715.308095849526, -0.046, 0.978, 0.248, 192.0, 0.0, 0.0, 0.0, 0.0, 0.0, 0.0, 0.0, 0.0, 0.0, 1.695418061071353E9, 0.0, 2023-09-22 16:27:41.071
16.0, 26191.23771086189, 12644.40419011166, -36442.842953544015, -62906.660188038375, -187500.02235174447, 7810.638285951411, -125864.17059471257, -187500.02235174447, -39072.145709055156, 6502.100110304369, -6113.425625971035, -69804.0732507793, 1971.4462127025383, -20744.832842926127, -6206.386531160657, 7748.165160198827, -0.046, 0.978, 0.248, 192.0, 0.0, 0.0, 0.0, 0.0, 0.0, 0.0, 0.0, 0.0, 0.0, 1.695418061131635E9, 0.0, 2023-09-22 16:27:41.131
18.0, 26189.740143983385, 12645.812350012346, -36441.74771806571, -62910.19176366231, -187500.02235174447, 7760.033936504596, -125939.20540084904, -187500.02235174447, -39074.96202885652, 6497.875630602316, -6137.207882071481, -69800.69813736655, 1955.8670468171892, -20769.39741008251, -6231.733409372975, 7709.027255657585, -0.046, 0.976, 0.25, 192.0, 127.0, 72.0, 15.0, 64.0, 3.5, 104.0, 0.0, 0.0, 0.0, 1.695418061131653E9, 0.0, 2023-09-22 16:27:41.131
20.0, 26183.66046949154, 12635.418788840627, -36463.183040998345, -62927.87199352646, -187500.02235174447, 7816.650905209888, -125813.7450592214, -187500.02235174447, -39100.3312588133, 6480.441269927177, -6105.334294478213, -69826.46969872352, 1942.7912763108345, -20734.975723621337, -6231.912223328617, 7746.421724131314, -0.046, 0.976, 0.25, 192.0, 0.0, 0.0, 0.0, 0.0, 0.0, 0.0, 0.0, 0.0, 0.0, 1.695418061131657E9, 0.0, 2023-09-22 16:27:41.131
22.0, 26158.157129068033, 12609.49076527247, -36492.195605301335, -62956.77279910717, -187500.02235174447, 7785.179649016816, -125873.20069947252, -187500.02235174447, -39098.341953556774, 6475.255665213545, -6118.4771202179345, -69826.96143710153, 1927.9050145036001, -20755.91930817596, -6261.394174265168, 7725.05345643204, -0.046, 0.976, 0.25, 192.0, 0.0, 0.0, 0.0, 0.0, 0.0, 0.0, 0.0, 0.0, 0.0, 1.69541806113166E9, 0.0, 2023-09-22 16:27:41.131
24.0, 26188.08611489369, 12639.822082498322, -36467.228706744754, -62921.99348473472, -187500.02235174447, 7829.704323971788, -125765.9346778315, -187500.02235174447, -39113.60819501975, 6460.414106895221, -6104.172003766537, -69842.07121635333, 1919.52311033286, -20743.558793492175, -6259.986014364483, 7762.716145839232, -0.046, 0.976, 0.25, 192.0, 0.0, 0.0, 0.0, 0.0, 0.0, 0.0, 0.0, 0.0, 0.0, 1.695418061131664E9, 0.0, 2023-09-22 16:27:41.131
26.0, 26187.773190471315, 12641.587870310292, -36460.61259038599, -62922.59698183501, -187500.02235174447, 7755.809456802543, -125883.16957749959, -187500.02235174447, -39069.910534609626, 6508.0009708405705, -6129.3400680232135, -69794.93138729708, 1954.4141834275943, -20768.16806413747, -6234.750894874442, 7722.550061053045, -0.046, 0.976, 0.25, 192.0, 0.0, 0.0, 0.0, 0.0, 0.0, 0.0, 0.0, 0.0, 0.0, 1.695418061131681E9, 0.0, 2023-09-22 16:27:41.131
28.0, 26182.2299578464, 12632.982448694998, -36471.96727656928, -62933.21406045128, -187500.02235174447, 7813.186384819315, -125759.96676206193, -187500.02235174447, -39101.31473556933, 6475.032147768992, -6130.189434312515, -69828.32489351332, 1935.616366340681, -20766.357572836587, -6237.455455953534, 7729.255584389638, -0.044, 0.978, 0.254, 192.0, 127.0, 80.0, 15.0, 72.0, 3.5, 120.0, 0.0, 0.0, 0.0, 1.695418061131684E9, 0.0, 2023-09-22 16:27:41.131
30.0, 26187.817893960226, 12637.11752141923, -36474.06834054808, -62924.36276964698, -187500.02235174447, 7761.82207606102, -125856.5039463644, -187500.02235174447, -39085.22147956151, 6496.8474503573725, -6119.997038840895, -69812.79043111688, 1938.7679623088793, -20778.382811353542, -6249.9053776151395, 7730.730799523688, -0.044, 0.978, 0.254, 192.0, 0.0, 0.0, 0.0, 0.0, 0.0, 0.0, 0.0, 0.0, 0.0, 1.695418061191423E9, 0.0, 2023-09-22 16:27:41.191
32.0, 26191.438876561988, 12643.420713355627, -36463.339503209536, -62924.07219696906, -187500.02235174447, 7803.753948659176, -125762.04547429628, -187500.02235174447, -39087.59076447377, 6482.743499606073, -6141.812341429275, -69816.83609686329, 1941.8525030437117, -20790.519808592773, -6242.730467644986, 7713.251735359638, -0.044, 0.978, 0.254, 192.0, 0.0, 0.0, 0.0, 0.0, 0.0, 0.0, 0.0, 0.0, 0.0, 1.695418061191436E9, 0.0, 2023-09-22 16:27:41.191
34.0, 26198.502027809864, 12656.608242584258, -36457.55040139561, -62910.012949706674, -187500.02235174447, 7754.446000390769, -125855.6098765862, -187500.02235174447, -39072.30217126634, 6504.692912661185, -6114.587916682711, -69793.83615181877, 1951.9107880486, -20774.06892467367, -6241.635232166676, 7729.948488467752, -0.044, 0.978, 0.254, 192.0, 0.0, 0.0, 0.0, 0.0, 0.0, 0.0, 0.0, 0.0, 0.0, 1.69541806119144E9, 0.0, 2023-09-22 16:27:41.191
36.0, 26172.70811470844, 12626.209870125042, -36475.67766614886, -62938.84670005402, -187500.02235174447, 7803.195155047793, -125743.44882290946, -187500.02235174447, -39098.92309891261, 6481.04476702747, -6141.4994170069, -69822.5357916994, 1935.973994251966, -20779.96978520987, -6239.243595509958, 7706.725025978688, -0.044, 0.978, 0.254, 192.0, 0.0, 0.0, 0.0, 0.0, 0.0, 0.0, 0.0, 0.0, 0.0, 1.695418061191443E9, 0.0, 2023-09-22 16:27:41.191
38.0, 26187.57202477122, 12642.705457533057, -36464.90412532141, -62916.383196876435, -187500.02235174447, 7762.403221416858, -125821.18819012502, -187500.02235174447, -39086.115549339724, 6487.683235130696, -6105.423701456035, -69809.46002119304, 1938.7232588199688, -20763.183625123933, -6245.077400812794, 7744.745343297165, -0.052000000000000005, 0.982, 0.254, 192.0, 127.0, 48.0, 15.0, 88.0, 3.5, 120.0, 0.0, 0.0, 0.0, 1.695418061191447E9, 0.0, 2023-09-22 16:27:41.191
40.0, 26177.42433278851, 12628.780320737402, -36462.51248866469, -62933.41522615138, -187500.02235174447, 7799.73063465722, -125738.48673564038, -187500.02235174447, -39093.69279071007, 6486.587999652386, -6153.368193312668, -69819.60771317575, 1938.4773896309603, -20781.668517788472, -6242.417543222612, 7701.986456154163, -0.052000000000000005, 0.982, 0.254, 192.0, 0.0, 0.0, 0.0, 0.0, 0.0, 0.0, 0.0, 0.0, 0.0, 1.69541806119145E9, 0.0, 2023-09-22 16:27:41.191
42.0, 26194.47871380791, 12645.678239545614, -36461.68547411984, -62915.17620267585, -187500.02235174447, 7775.881323323408, -125788.28642228681, -187500.02235174447, -39089.825938919304, 6488.599656653364, -6102.026236298828, -69816.18789627409, 1932.6435843281251, -20754.041761641714, -6248.85484562574, 7753.909558523841, -0.052000000000000005, 0.982, 0.254, 192.0, 0.0, 0.0, 0.0, 0.0, 0.0, 0.0, 0.0, 0.0, 0.0, 1.695418061191454E9, 0.0, 2023-09-22 16:27:41.191
44.0, 26179.36893455612, 12629.562631793337, -36464.74766311022, -62935.06925524107, -187500.02235174447, 7797.227239278226, -125725.52272385631, -187500.02235174447, -39085.623810961704, 6488.197325253168, -6155.357498569191, -69808.49889618145, 1941.8972065326222, -20791.749154537818, -6237.5225111868995, 7694.498621761635, -0.052000000000000005, 0.982, 0.254, 192.0, 0.0, 0.0, 0.0, 0.0, 0.0, 0.0, 0.0, 0.0, 0.0, 1.695418061191457E9, 0.0, 2023-09-22 16:27:41.191
46.0, 26193.09290565168, 12642.817216255335, -36469.03919804564, -62922.351112646, -187500.02235174447, 7783.212695504749, -125736.18450596149, -187500.02235174447, -39095.36917154422, 6480.798897838462, -6094.404291439569, -69817.4842974525, 1930.5425203493262, -20749.236136583822, -6246.932595602584, 7761.307985938548, -0.052000000000000005, 0.982, 0.254, 192.0, 0.0, 0.0, 0.0, 0.0, 0.0, 0.0, 0.0, 0.0, 0.0, 1.695418061251785E9, 0.0, 2023-09-22 16:27:41.251
48.0, 26190.164827128036, 12639.26328888694, -36454.06352926058, -62925.86033652548, -187500.02235174447, 7785.313759483548, -125701.24872937784, -187500.02235174447, -39084.55092722785, 6490.901886332261, -6152.384716556635, -69805.79433510237, 1942.0760204882647, -20782.517884077773, -6245.636194424176, 7699.371302052892, -0.044, 0.982, 0.258, 192.0, 127.0, 80.0, 15.0, 88.0, 4.0, 8.0, 0.0, 0.0, 0.0, 1.695418061251819E9, 0.0, 2023-09-22 16:27:41.251
50.0, 26199.61961503263, 12650.036829714398, -36455.136412994434, -62913.18689741933, -187500.02235174447, 7783.279750738115, -125691.70453449542, -187500.02235174447, -39086.85315690674, 6486.967979308126, -6092.862021072152, -69812.52221018341, 1942.3442414217284, -20741.524784746744, -6236.13670303067, 7760.615081860434, -0.044, 0.982, 0.258, 192.0, 0.0, 0.0, 0.0, 0.0, 0.0, 0.0, 0.0, 0.0, 0.0, 1.695418061251823E9, 0.0, 2023-09-22 16:27:41.251
52.0, 26197.60795803165, 12644.851225000766, -36439.57959885354, -62913.32100788606, -187500.02235174447, 7759.609253359945, -125691.61512751761, -187500.02235174447, -39070.62579043219, 6494.791089867484, -6161.817152716774, -69798.84294257677, 1955.5764741392702, -20791.190360926434, -6230.816987850308, 7680.506429732613, -0.044, 0.982, 0.258, 192.0, 0.0, 0.0, 0.0, 0.0, 0.0, 0.0, 0.0, 0.0, 0.0, 1.695418061251827E9, 0.0, 2023-09-22 16:27:41.251
54.0, 26193.13760914059, 12642.772512766423, -36453.057700760095, -62913.857449752984, -187500.02235174447, 7780.418727447835, -125642.12836529355, -187500.02235174447, -39087.16608132912, 6483.123479261813, -6103.523803177333, -69812.74572762796, 1947.1051629907088, -20740.63071496853, -6222.859766824218, 7740.498511850657, -0.044, 0.982, 0.258, 192.0, 0.0, 0.0, 0.0, 0.0, 0.0, 0.0, 0.0, 0.0, 0.0, 1.69541806125183E9, 0.0, 2023-09-22 16:27:41.251
56.0, 26196.199798130965, 12648.203986669063, -36438.01497674167, -62907.50955432768, -187500.02235174447, 7750.735610811188, -125660.23327830236, -187500.02235174447, -39076.54900271285, 6495.171069523224, -6157.726783481453, -69798.48531466548, 1949.4073926696055, -20777.98047995335, -6233.767418118408, 7678.584179709456, -0.044, 0.982, 0.258, 192.0, 0.0, 0.0, 0.0, 0.0, 0.0, 0.0, 0.0, 0.0, 0.0, 1.695418061251834E9, 0.0, 2023-09-22 16:27:41.251
58.0, 26197.585606287197, 12647.64519305768, -36447.112136734984, -62903.866219981464, -187500.02235174447, 7778.362366957947, -125593.87094901454, -187500.02235174447, -39080.99699985945, 6491.2148107546345, -6105.200184011482, -69801.14517225567, 1953.00602352691, -20736.00390386628, -6215.9754295319835, 7733.1000844359505, -0.044, 0.978, 0.252, 192.0, 127.0, 80.0, 15.0, 72.0, 3.5, 112.0, 0.0, 0.0, 0.0, 1.695418061251837E9, 0.0, 2023-09-22 16:27:41.251
60.0, 26186.09680963717, 12640.380876109706, -36446.84391580152, -62913.81274626408, -187500.02235174447, 7745.997040986663, -125627.21975174187, -187500.02235174447, -39081.13111032618, 6490.499554932065, -6146.081524620238, -69800.69813736655, 1947.7086600910022, -20772.549006050707, -6229.811159349819, 7679.455897743213, -0.044, 0.978, 0.252, 192.0, 0.0, 0.0, 0.0, 0.0, 0.0, 0.0, 0.0, 0.0, 0.0, 1.695418061312089E9, 0.0, 2023-09-22 16:27:41.312
62.0, 26192.08707715119, 12647.444027357582, -36452.11892749297, -62909.677673539845, -187500.02235174447, 7786.386643217403, -125535.21997156383, -187500.02235174447, -39090.943526142066, 6486.565647907931, -6099.656951386565, -69812.4775066945, 1946.5016658904156, -20730.840650897106, -6223.195042991048, 7733.524767580601, -0.044, 0.978, 0.252, 192.0, 0.0, 0.0, 0.0, 0.0, 0.0, 0.0, 0.0, 0.0, 0.0, 1.695418061312103E9, 0.0, 2023-09-22 16:27:41.312
64.0, 26178.340754311175, 12632.960096950543, -36455.62815137245, -62926.46383362578, -187500.02235174447, 7747.874587520909, -125584.34910587658, -187500.02235174447, -39083.09806383825, 6494.813441611939, -6142.21467282947, -69802.75449785644, 1945.4958373899267, -20766.02229666976, -6239.780037376886, 7681.892237888842, -0.044, 0.978, 0.252, 192.0, 0.0, 0.0, 0.0, 0.0, 0.0, 0.0, 0.0, 0.0, 0.0, 1.695418061312107E9, 0.0, 2023-09-22 16:27:41.312
66.0, 26179.815969445226, 12631.998971938965, -36461.52901190866, -62926.732054559245, -187500.02235174447, 7803.195155047793, -125463.113243951, -187500.02235174447, -39110.90363394066, 6469.958301777638, -6094.314884461747, -69833.44344299358, 1929.7378575489352, -20734.77455792124, -6236.181406519581, 7741.1467124398605, -0.044, 0.978, 0.252, 192.0, 0.0, 0.0, 0.0, 0.0, 0.0, 0.0, 0.0, 0.0, 0.0, 1.69541806131211E9, 0.0, 2023-09-22 16:27:41.312
68.0, 26201.22894063341, 12653.389591382695, -36437.657348830384, -62903.32977811454, -187500.02235174447, 7739.492683350169, -125561.885602699, -187500.02235174447, -39078.24773529145, 6491.460679943643, -6128.825977900741, -69800.09464026627, 1945.8534653012116, -20774.851235729606, -6237.701325142542, 7693.537496750057, -0.048, 0.98, 0.254, 192.0, 127.0, 64.0, 15.0, 80.0, 3.5, 120.0, 0.0, 0.0, 0.0, 1.695418061312113E9, 0.0, 2023-09-22 16:27:41.312
70.0, 26194.411658574543, 12649.16511168064, -36442.10534597699, -62911.44346135181, -187500.02235174447, 7783.927951327319, -125460.58749682755, -187500.02235174447, -39083.43334000508, 6491.348921221366, -6124.333277265225, -69802.70979436753, 1957.5657793957926, -20753.86294768607, -6206.721807327486, 7706.970895167697, -0.048, 0.98, 0.254, 192.0, 0.0, 0.0, 0.0, 0.0, 0.0, 0.0, 0.0, 0.0, 0.0, 1.695418061312116E9, 0.0, 2023-09-22 16:27:41.312
72.0, 26185.09098113668, 12639.710323776046, -36448.74381408022, -62916.517307343165, -187500.02235174447, 7737.190453671272, -125536.49402099778, -187500.02235174447, -39086.89786039566, 6492.354749721855, -6129.943565123506, -69808.34243397028, 1941.1148954766866, -20764.524729791254, -6231.889871584162, 7688.620112969889, -0.048, 0.98, 0.254, 192.0, 0.0, 0.0, 0.0, 0.0, 0.0, 0.0, 0.0, 0.0, 0.0, 1.695418061312119E9, 0.0, 2023-09-22 16:27:41.312
74.0, 26177.26787057732, 12628.64621027067, -36454.21999147177, -62923.98278999124, -187500.02235174447, 7803.083396325517, -125396.10271407399, -187500.02235174447, -39109.182549617595, 6466.225560453601, -6115.97372483894, -69832.19174530408, 1936.3986773966167, -20739.937810890417, -6222.032752279371, 7711.485947547669, -0.048, 0.98, 0.254, 192.0, 0.0, 0.0, 0.0, 0.0, 0.0, 0.0, 0.0, 0.0, 0.0, 1.695418061312123E9, 0.0, 2023-09-22 16:27:41.312
76.0, 26200.26781562183, 12653.188425682596, -36430.16951443786, -62892.48918205371, -187500.02235174447, 7735.581128070489, -125504.03928804866, -187500.02235174447, -39080.7734824149, 6492.019473555026, -6116.465463216957, -69798.84294257677, 1949.0274130138653, -20750.800758695696, -6223.977354046983, 7709.071959146495, -0.048, 0.98, 0.254, 192.0, 0.0, 0.0, 0.0, 0.0, 0.0, 0.0, 0.0, 0.0, 0.0, 1.695418061371643E9, 0.0, 2023-09-22 16:27:41.371
78.0, 26194.2328446189, 12646.080570945809, -36436.31624416307, -62904.425013592845, -187500.02235174447, 7786.833678106508, -125385.88796685792, -187500.02235174447, -39098.207843090044, 6479.882476315794, -6132.424608758046, -69817.86427710822, 1947.485142646449, -20743.67055221445, -6211.661542852109, 7700.622999742389, -0.054, 0.982, 0.254, 192.0, 127.0, 40.0, 15.0, 88.0, 3.5, 120.0, 0.0, 0.0, 0.0, 1.695418061371655E9, 0.0, 2023-09-22 16:27:41.371
80.0, 26202.57004530073, 12658.083457718309, -36436.36094765198, -62900.53581005762, -187500.02235174447, 7730.574337312501, -125470.5116713657, -187500.02235174447, -39075.94550561256, 6497.875630602316, -6118.6559341735765, -69788.73995408296, 1958.6386631296473, -20746.71038946037, -6212.4662056525, 7708.446110301747, -0.054, 0.982, 0.254, 192.0, 0.0, 0.0, 0.0, 0.0, 0.0, 0.0, 0.0, 0.0, 0.0, 1.695418061371659E9, 0.0, 2023-09-22 16:27:41.371
82.0, 26171.635230974585, 12623.281791601396, -36454.9575990388, -62936.47741514176, -187500.02235174447, 7794.410919476858, -125334.45660286625, -187500.02235174447, -39111.75300022996, 6469.600673866353, -6136.224405315448, -69825.97796034551, 1938.8573692867005, -20753.617078497064, -6221.56336564581, 7696.376168295881, -0.054, 0.982, 0.254, 192.0, 0.0, 0.0, 0.0, 0.0, 0.0, 0.0, 0.0, 0.0, 0.0, 1.695418061371663E9, 0.0, 2023-09-22 16:27:41.371
84.0, 26191.37182132862, 12645.231204656508, -36449.906104791895, -62915.22090616476, -187500.02235174447, 7752.993137001174, -125411.1007346035, -187500.02235174447, -39105.09218038228, 6469.645377355263, -6099.992227553395, -69820.99352133197, 1933.6270610841586, -20748.14090110551, -6240.852921110741, 7737.548081582557, -0.054, 0.982, 0.254, 192.0, 0.0, 0.0, 0.0, 0.0, 0.0, 0.0, 0.0, 0.0, 0.0, 1.695418061371666E9, 0.0, 2023-09-22 16:27:41.371
86.0, 26178.251347333357, 12629.607335282248, -36453.21416297128, -62934.21988895177, -187500.02235174447, 7791.527544442123, -125314.29532936757, -187500.02235174447, -39103.32639257031, 6470.941778533671, -6146.193283342515, -69821.1276317987, 1940.9137297765888, -20769.240947871323, -6227.240708737459, 7700.622999742389, -0.054, 0.982, 0.254, 192.0, 0.0, 0.0, 0.0, 0.0, 0.0, 0.0, 0.0, 0.0, 0.0, 1.69541806137167E9, 0.0, 2023-09-22 16:27:41.371
88.0, 26186.923824182013, 12639.486806331493, -36458.95856129629, -62920.38415913394, -187500.02235174447, 7763.051422006062, -125357.05421651057, -187500.02235174447, -39110.63541300719, 6462.448115640655, -6096.795928096286, -69826.5814574458, 1928.0391249703318, -20731.041816597204, -6242.149322289148, 7750.95912825574, -0.05, 0.984, 0.254, 192.0, 127.0, 56.0, 15.0, 96.0, 3.5, 120.0, 0.0, 0.0, 0.0, 1.695418061371674E9, 0.0, 2023-09-22 16:27:41.371
90.0, 26168.41657977302, 12619.102015388253, -36465.93230556635, -62944.613450123485, -187500.02235174447, 7794.5003264546785, -125257.65600891782, -187500.02235174447, -39112.535311285894, 6463.476295885599, -6151.512998522878, -69822.91577135512, 1933.492950617427, -20758.10977913258, -6233.387438462668, 7703.126395121383, -0.05, 0.984, 0.254, 192.0, 0.0, 0.0, 0.0, 0.0, 0.0, 0.0, 0.0, 0.0, 0.0, 1.69541806143188E9, 0.0, 2023-09-22 16:27:41.431
92.0, 26197.250330120365, 12647.689896546592, -36453.34827343801, -62909.11887992846, -187500.02235174447, 7763.632567361899, -125295.65397449184, -187500.02235174447, -39118.74909624447, 6456.256682426534, -6095.119547262138, -69832.50466972646, 1919.2325376549409, -20734.1934125654, -6247.536092702877, 7769.309910453548, -0.05, 0.984, 0.254, 192.0, 0.0, 0.0, 0.0, 0.0, 0.0, 0.0, 0.0, 0.0, 0.0, 1.695418061431911E9, 0.0, 2023-09-22 16:27:41.431
94.0, 26172.484597263887, 12623.527660790403, -36453.72825309375, -62934.197537207314, -187500.02235174447, 7771.723898854721, -125239.57344765347, -187500.02235174447, -39098.09608436777, 6475.456830913643, -6171.115478410182, -69808.722413626, 1944.6464711006251, -20770.649107772006, -6218.434121422068, 7685.513220490601, -0.05, 0.984, 0.254, 192.0, 0.0, 0.0, 0.0, 0.0, 0.0, 0.0, 0.0, 0.0, 0.0, 1.695418061431915E9, 0.0, 2023-09-22 16:27:41.431
96.0, 26179.637155489585, 12630.948439949565, -36460.21025898579, -62921.769967290165, -187500.02235174447, 7775.300177967571, -125222.02732825605, -187500.02235174447, -39132.09308768429, 6445.483141599077, -6094.069015272738, -69842.85352740926, 1916.036238197832, -20719.262447269255, -6236.606089664232, 7772.975596544218, -0.05, 0.984, 0.254, 192.0, 0.0, 0.0, 0.0, 0.0, 0.0, 0.0, 0.0, 0.0, 0.0, 1.695418061431918E9, 0.0, 2023-09-22 16:27:41.431
98.0, 26179.50304502285, 12628.69091375958, -36440.6524825874, -62918.39485387741, -187500.02235174447, 7762.827904561509, -125204.61531932537, -187500.02235174447, -39107.68498273909, 6464.906807530739, -6161.370117827669, -69820.70294865406, 1937.9856512529436, -20771.140846150025, -6221.049275523338, 7705.741549222655, -0.044, 0.978, 0.258, 192.0, 127.0, 80.0, 15.0, 72.0, 4.0, 8.0, 0.0, 0.0, 0.0, 1.695418061431921E9, 0.0, 2023-09-22 16:27:41.431
100.0, 26181.492350279375, 12627.819195725822, -36451.224857714755, -62912.337531130026, -187500.02235174447, 7772.685023866299, -125174.08283639942, -187500.02235174447, -39116.89390145468, 6458.983595250082, -6100.4616141869565, -69831.09650982577, 1935.973994251966, -20725.252714783277, -6217.160071988114, 7767.4994191526675, -0.044, 0.978, 0.258, 192.0, 0.0, 0.0, 0.0, 0.0, 0.0, 0.0, 0.0, 0.0, 0.0, 1.695418061431924E9, 0.0, 2023-09-22 16:27:41.431
102.0, 26161.018152358312, 12607.657922227136, -36462.624247386964, -62937.05856049759, -187500.02235174447, 7767.4994191526675, -125153.87685941183, -187500.02235174447, -39112.51295954144, 6461.41993539571, -6152.518827023367, -69823.1839922886, 1934.3423169067285, -20758.042723899212, -6224.84907208074, 7704.601610255434, -0.044, 0.978, 0.258, 192.0, 0.0, 0.0, 0.0, 0.0, 0.0, 0.0, 0.0, 0.0, 0.0, 1.695418061431928E9, 0.0, 2023-09-22 16:27:41.431
104.0, 26179.70421072295, 12631.26136437194, -36463.965352054285, -62920.89824925641, -187500.02235174447, 7796.266114266648, -125084.58645160038, -187500.02235174447, -39137.636320309204, 6448.075943955892, -6080.747375577375, -69847.41328327815, 1913.0411044408208, -20710.120583787037, -6241.23290076648, 7791.125213041928, -0.044, 0.978, 0.258, 192.0, 0.0, 0.0, 0.0, 0.0, 0.0, 0.0, 0.0, 0.0, 0.0, 1.695418061431932E9, 0.0, 2023-09-22 16:27:41.431
106.0, 26178.296050822264, 12631.797806238868, -36450.7554710812, -62923.13342370194, -187500.02235174447, 7753.708392823743, -125120.63981540679, -187500.02235174447, -39100.21950009102, 6471.56762737842, -6155.111629380182, -69815.2267712625, 1940.4666948874826, -20769.553872293698, -6230.23584249447, 7708.6696277463, -0.044, 0.978, 0.258, 192.0, 0.0, 0.0, 0.0, 0.0, 0.0, 0.0, 0.0, 0.0, 0.0, 1.695418061492199E9, 0.0, 2023-09-22 16:27:41.492
108.0, 26184.129856125102, 12637.273983630417, -36457.237476973234, -62919.534792844635, -187500.02235174447, 7794.768547388143, -125029.48940151805, -187500.02235174447, -39122.70535501306, 6449.528807345487, -6102.830899099219, -69834.35986451624, 1928.7543807929017, -20726.683226428417, -6220.356371445224, 7767.566474386034, -0.042, 0.98, 0.264, 192.0, 127.0, 88.0, 15.0, 80.0, 4.0, 32.0, 0.0, 0.0, 0.0, 1.695418061492208E9, 0.0, 2023-09-22 16:27:41.492
110.0, 26199.86548422164, 12654.350716394272, -36432.2482266722, -62902.92744671434, -187500.02235174447, 7751.495570122668, -125081.56896609892, -187500.02235174447, -39099.86187217973, 6477.200266981157, -6144.293385063814, -69806.7778118584, 1940.5337501208485, -20765.39644782501, -6223.105636013226, 7714.123453393395, -0.042, 0.98, 0.264, 192.0, 0.0, 0.0, 0.0, 0.0, 0.0, 0.0, 0.0, 0.0, 0.0, 1.695418061492212E9, 0.0, 2023-09-22 16:27:41.492
112.0, 26206.66041453605, 12661.50327461997, -36434.371642395454, -62899.23940887921, -187500.02235174447, 7798.635399178911, -124975.57699389184, -187500.02235174447, -39100.28655532438, 6484.621046140319, -6095.432471684512, -69800.78754434438, 1952.7825060823568, -20727.66670318445, -6192.751967042919, 7763.476105150713, -0.042, 0.98, 0.264, 192.0, 0.0, 0.0, 0.0, 0.0, 0.0, 0.0, 0.0, 0.0, 0.0, 1.695418061492215E9, 0.0, 2023-09-22 16:27:41.492
114.0, 26212.00248146087, 12670.041641001897, -36425.34153763551, -62891.3939465754, -187500.02235174447, 7749.148636954861, -125044.04038715844, -187500.02235174447, -39086.048494106355, 6501.295447503978, -6120.444073730001, -69784.13549472517, 1953.00602352691, -20752.2983255742, -6204.8219090487855, 7724.494662820657, -0.042, 0.98, 0.264, 192.0, 0.0, 0.0, 0.0, 0.0, 0.0, 0.0, 0.0, 0.0, 0.0, 1.695418061492218E9, 0.0, 2023-09-22 16:27:41.492
116.0, 26173.870405420115, 12629.607335282248, -36470.44735794632, -62935.82921455255, -187500.02235174447, 7809.2301260507265, -124895.55774874185, -187500.02235174447, -39114.904596198154, 6479.591903637875, -6085.44124191299, -69818.87010560872, 1938.8350175422452, -20715.037967567205, -6200.463318880001, 7765.219541218226, -0.042, 0.98, 0.264, 192.0, 0.0, 0.0, 0.0, 0.0, 0.0, 0.0, 0.0, 0.0, 0.0, 1.695418061492231E9, 0.0, 2023-09-22 16:27:41.492
118.0, 26185.22509160341, 12639.151530164663, -36466.69226487783, -62925.14508070292, -187500.02235174447, 7742.309003151537, -124976.89574681471, -187500.02235174447, -39119.464352067036, 6456.480199871087, -6104.462576444456, -69827.00614059046, 1917.489101587427, -20753.214747096867, -6246.887892113673, 7747.852235776453, -0.046, 0.974, 0.262, 192.0, 127.0, 72.0, 15.0, 56.0, 4.0, 24.0, 0.0, 0.0, 0.0, 1.695418061492234E9, 0.0, 2023-09-22 16:27:41.492
120.0, 26179.95007991196, 12629.383817837694, -36468.435700945345, -62930.62125809446, -187500.02235174447, 7791.818117120042, -124844.72988185048, -187500.02235174447, -39126.57220680382, 6445.3713828767995, -6102.875602588129, -69836.79620466188, 1924.1499214351086, -20748.20795633888, -6228.782979104874, 7755.027145746607, -0.046, 0.974, 0.262, 192.0, 0.0, 0.0, 0.0, 0.0, 0.0, 0.0, 0.0, 0.0, 0.0, 1.695418061551116E9, 0.0, 2023-09-22 16:27:41.551
122.0, 26185.538016025785, 12633.898870217667, -36456.74573859522, -62915.399720120404, -187500.02235174447, 7731.535462324079, -124921.5304757989, -187500.02235174447, -39101.20297684705, 6472.305234945445, -6112.777425381831, -69811.44932644955, 1938.09740997522, -20770.269128116266, -6237.388400720168, 7731.2225379017045, -0.046, 0.974, 0.262, 192.0, 0.0, 0.0, 0.0, 0.0, 0.0, 0.0, 0.0, 0.0, 0.0, 1.695418061551134E9, 0.0, 2023-09-22 16:27:41.551
124.0, 26177.826664188706, 12623.773529979413, -36461.39490144192, -62922.7534440462, -187500.02235174447, 7793.539201443101, -124765.6494099676, -187500.02235174447, -39123.15238990216, 6451.160484690725, -6108.128262535127, -69830.44830923657, 1931.0789622162538, -20749.370247050556, -6222.412731935112, 7744.991212486174, -0.046, 0.974, 0.262, 192.0, 0.0, 0.0, 0.0, 0.0, 0.0, 0.0, 0.0, 0.0, 0.0, 1.695418061551138E9, 0.0, 2023-09-22 16:27:41.551
126.0, 26167.03077161679, 12614.721073475013, -36476.90701209391, -62931.22475519476, -187500.02235174447, 7754.20013120176, -124815.20322742501, -187500.02235174447, -39127.22040739303, 6455.183798692679, -6095.521878662334, -69832.43761449309, 1917.2208806539634, -20755.181700608933, -6237.142531531159, 7750.8920730223745, -0.046, 0.974, 0.262, 192.0, 0.0, 0.0, 0.0, 0.0, 0.0, 0.0, 0.0, 0.0, 0.0, 1.695418061551141E9, 0.0, 2023-09-22 16:27:41.551
128.0, 26162.292201792265, 12608.97667515, -36479.45511096181, -62945.59692687952, -187500.02235174447, 7811.644114451899, -124654.96357142492, -187500.02235174447, -39139.33505288781, 6438.442342095655, -6112.039817814805, -69848.732036201, 1914.5386713193263, -20759.67440124445, -6227.531281415378, 7754.825980046508, -0.048, 0.97, 0.264, 192.0, 127.0, 64.0, 15.0, 40.0, 4.0, 32.0, 0.0, 0.0, 0.0, 1.695418061551144E9, 0.0, 2023-09-22 16:27:41.551
130.0, 26178.56427175573, 12627.9309544481, -36479.29864875062, -62931.31416217258, -187500.02235174447, 7763.029070261607, -124712.31814769724, -187500.02235174447, -39129.61204404975, 6448.612385822819, -6087.296436702781, -69839.70193144107, 1913.4210840965611, -20753.5500232637, -6244.406848479134, 7785.604332161467, -0.048, 0.97, 0.264, 192.0, 0.0, 0.0, 0.0, 0.0, 0.0, 0.0, 0.0, 0.0, 0.0, 1.695418061551147E9, 0.0, 2023-09-22 16:27:41.551
132.0, 26165.46614950492, 12615.54808801986, -36483.50077670822, -62945.105188501504, -187500.02235174447, 7803.441024236802, -124579.5040821438, -187500.02235174447, -39133.233026651505, 6453.194493436157, -6131.061152346272, -69841.44536750858, 1921.423008611561, -20769.3527065936, -6230.459359939023, 7749.327450910503, -0.048, 0.97, 0.264, 192.0, 0.0, 0.0, 0.0, 0.0, 0.0, 0.0, 0.0, 0.0, 0.0, 1.695418061551151E9, 0.0, 2023-09-22 16:27:41.551
134.0, 26200.84896097767, 12654.730696050012, -36470.00032305722, -62914.25978115318, -187500.02235174447, 7739.336221138981, -124660.19387962746, -187500.02235174447, -39122.99592769098, 6464.124496474802, -6099.165213008549, -69824.2792277669, 1923.5464243348151, -20750.57724125114, -6233.834473351774, 7780.195210003282, -0.048, 0.97, 0.264, 192.0, 0.0, 0.0, 0.0, 0.0, 0.0, 0.0, 0.0, 0.0, 0.0, 1.695418061551154E9, 0.0, 2023-09-22 16:27:41.551
136.0, 26175.03269613179, 12626.768663736424, -36475.297686493126, -62941.193633221825, -187500.02235174447, 7771.008643032151, -124562.71792205787, -187500.02235174447, -39114.36815433123, 6466.829057553895, -6154.061097390783, -69819.29478875337, 1938.2538721864073, -20776.54996830821, -6217.0930167547485, 7715.710427249722, -0.048, 0.97, 0.264, 192.0, 0.0, 0.0, 0.0, 0.0, 0.0, 0.0, 0.0, 0.0, 0.0, 1.69541806161137E9, 0.0, 2023-09-22 16:27:41.611
138.0, 26183.99574565837, 12634.390608595682, -36479.72333189527, -62935.382179663444, -187500.02235174447, 7760.212750460238, -124575.3019541862, -187500.02235174447, -39137.65867205366, 6445.393734621255, -6086.335311691202, -69838.27141979593, 1915.3433341197176, -20750.733703462327, -6232.582775662277, 7783.458564693758, -0.044, 0.972, 0.256, 192.0, 127.0, 80.0, 15.0, 48.0, 4.0, 0.0, 0.0, 0.0, 0.0, 1.69541806161138E9, 0.0, 2023-09-22 16:27:41.611
140.0, 26192.42235331802, 12645.633536056703, -36453.23651471573, -62925.07802546955, -187500.02235174447, 7775.054308778562, -124507.64322371999, -187500.02235174447, -39125.52167481442, 6457.6424905827635, -6138.079600105239, -69825.59798068977, 1931.8612732721895, -20788.39639286952, -6217.048313265838, 7731.021372201607, -0.044, 0.972, 0.256, 192.0, 0.0, 0.0, 0.0, 0.0, 0.0, 0.0, 0.0, 0.0, 0.0, 1.695418061611384E9, 0.0, 2023-09-22 16:27:41.611
142.0, 26195.395135330575, 12651.288527403894, -36464.61355264349, -62924.09454871352, -187500.02235174447, 7761.6879655942885, -124519.66846223695, -187500.02235174447, -39112.1329798857, 6474.495705902065, -6088.525782647823, -69810.46584969353, 1940.9584332654995, -20752.4994912743, -6210.029865506872, 7774.048480278073, -0.044, 0.972, 0.256, 192.0, 0.0, 0.0, 0.0, 0.0, 0.0, 0.0, 0.0, 0.0, 0.0, 1.695418061611387E9, 0.0, 2023-09-22 16:27:41.611
144.0, 26199.61961503263, 12656.049448972875, -36454.91289554988, -62917.05374921009, -187500.02235174447, 7773.892018066886, -124464.54906041015, -187500.02235174447, -39127.287462626395, 6461.285824928978, -6136.112646593171, -69823.40750973315, 1919.2772411438516, -20783.814285256183, -6230.325249472291, 7726.19339539926, -0.044, 0.972, 0.256, 192.0, 0.0, 0.0, 0.0, 0.0, 0.0, 0.0, 0.0, 0.0, 0.0, 1.69541806161139E9, 0.0, 2023-09-22 16:27:41.611
146.0, 26216.249312907377, 12672.656795103168, -36452.85653506, -62902.43570833632, -187500.02235174447, 7774.271997722626, -124440.14095546496, -187500.02235174447, -39113.96582293103, 6480.217752482624, -6078.266331942837, -69805.95079731355, 1935.7057733185022, -20741.43537776892, -6212.645019608142, 7785.894904839386, -0.044, 0.972, 0.256, 192.0, 0.0, 0.0, 0.0, 0.0, 0.0, 0.0, 0.0, 0.0, 0.0, 1.695418061611394E9, 0.0, 2023-09-22 16:27:41.611
148.0, 26213.05301345027, 12665.370126410739, -36441.390090154426, -62911.64462705191, -187500.02235174447, 7754.446000390769, -124424.89706574644, -187500.02235174447, -39095.81620643332, 6489.829002598406, -6139.957146639485, -69795.11020125273, 1946.7475350794239, -20776.080581674647, -6204.7101503265085, 7713.743473737654, -0.044, 0.97, 0.254, 192.0, 127.0, 80.0, 15.0, 40.0, 3.5, 120.0, 0.0, 0.0, 0.0, 1.695418061611397E9, 0.0, 2023-09-22 16:27:41.611
150.0, 26223.89360951109, 12676.054260260375, -36447.62622685745, -62898.613560034464, -187500.02235174447, 7766.046555763073, -124379.56772799107, -187500.02235174447, -39111.21655836303, 6477.513191403532, -6077.528724375811, -69811.40462296065, 1936.778657052357, -20731.57825846413, -6207.504118383422, 7776.998910546174, -0.044, 0.97, 0.254, 192.0, 0.0, 0.0, 0.0, 0.0, 0.0, 0.0, 0.0, 0.0, 0.0, 1.695418061671698E9, 0.0, 2023-09-22 16:27:41.671
152.0, 26221.144344943088, 12673.662623603657, -36439.51254362018, -62905.87787698244, -187500.02235174447, 7739.068000205518, -124379.12069310197, -187500.02235174447, -39100.62183149121, 6490.700720632162, -6137.9678413829615, -69798.53001815439, 1945.0935059897313, -20771.811398483682, -6205.335999171258, 7707.082653889973, -0.044, 0.97, 0.254, 192.0, 0.0, 0.0, 0.0, 0.0, 0.0, 0.0, 0.0, 0.0, 0.0, 1.695418061671714E9, 0.0, 2023-09-22 16:27:41.671
154.0, 26233.437804393507, 12688.593588899803, -36441.34538666551, -62899.23940887921, -187500.02235174447, 7766.404183674358, -124303.54944509859, -187500.02235174447, -39098.94545065707, 6495.439290456688, -6082.267294200336, -69789.49991339445, 1949.228578713963, -20731.220630552845, -6191.857897264707, 7765.040727262584, -0.044, 0.97, 0.254, 192.0, 0.0, 0.0, 0.0, 0.0, 0.0, 0.0, 0.0, 0.0, 0.0, 1.695418061671718E9, 0.0, 2023-09-22 16:27:41.671
156.0, 26210.549618071273, 12666.666527589146, -36446.888619290425, -62916.249086409705, -187500.02235174447, 7740.654974061844, -124321.96728252976, -187500.02235174447, -39099.5265960129, 6492.734729377596, -6126.16612031056, -69790.10341049473, 1941.137247221142, -20776.371154352564, -6208.487595139456, 7711.351837080937, -0.044, 0.97, 0.254, 192.0, 0.0, 0.0, 0.0, 0.0, 0.0, 0.0, 0.0, 0.0, 0.0, 1.695418061671722E9, 0.0, 2023-09-22 16:27:41.671
158.0, 26200.91601621104, 12655.7365245505, -36469.41917770138, -62925.97209524776, -187500.02235174447, 7797.1378323004055, -124196.14931299083, -187500.02235174447, -39134.17179991863, 6461.6881563291745, -6068.67743357151, -69825.06153882283, 1920.484235344438, -20735.646275954998, -6208.867574795196, 7784.73261412771, -0.042, 0.974, 0.26, 192.0, 127.0, 88.0, 15.0, 56.0, 4.0, 16.0, 0.0, 0.0, 0.0, 1.695418061671725E9, 0.0, 2023-09-22 16:27:41.671
160.0, 26193.09290565168, 12648.606318069258, -36468.41334920089, -62932.096473228514, -187500.02235174447, 7767.901750552864, -124226.8159063835, -187500.02235174447, -39123.442962580084, 6474.294540201967, -6102.696788632487, -69815.71850964052, 1914.9186509750666, -20765.932889691936, -6227.553633159832, 7753.261357934637, -0.042, 0.974, 0.26, 192.0, 0.0, 0.0, 0.0, 0.0, 0.0, 0.0, 0.0, 0.0, 0.0, 1.695418061671729E9, 0.0, 2023-09-22 16:27:41.671
162.0, 26200.178408644013, 12657.07762921782, -36472.146090524926, -62925.59211559202, -187500.02235174447, 7826.351562303492, -124112.35262302788, -187500.02235174447, -39138.93272148761, 6461.174066206702, -6064.7658782918315, -69833.26462903793, 1907.7213892604577, -20737.702636444883, -6228.559461660321, 7816.3379807875135, -0.042, 0.974, 0.26, 192.0, 0.0, 0.0, 0.0, 0.0, 0.0, 0.0, 0.0, 0.0, 0.0, 1.695418061671735E9, 0.0, 2023-09-22 16:27:41.671
164.0, 26217.791583274793, 12672.7909055699, -36454.26469496068, -62910.61644680696, -187500.02235174447, 7762.8055528170535, -124201.84900782694, -187500.02235174447, -39100.64418323567, 6494.746386378573, -6109.02233231334, -69793.45617216303, 1929.7378575489352, -20774.62771828505, -6228.604165149232, 7767.521770897123, -0.042, 0.974, 0.26, 192.0, 0.0, 0.0, 0.0, 0.0, 0.0, 0.0, 0.0, 0.0, 0.0, 1.695418061671739E9, 0.0, 2023-09-22 16:27:41.671
166.0, 26210.639025049095, 12662.084419975808, -36466.73696836674, -62919.75831028919, -187500.02235174447, 7821.2106610787705, -124079.69672437868, -187500.02235174447, -39116.670384010125, 6485.537467662986, -6093.130242005616, -69814.7797363734, 1925.200453424508, -20750.219613339857, -6213.516737641899, 7796.266114266648, -0.042, 0.974, 0.26, 192.0, 0.0, 0.0, 0.0, 0.0, 0.0, 0.0, 0.0, 0.0, 0.0, 1.695418061731828E9, 0.0, 2023-09-22 16:27:41.731
168.0, 26230.688539825507, 12683.31857720835, -36438.81963954206, -62891.95274018678, -187500.02235174447, 7755.027145746607, -124200.50790315961, -187500.02235174447, -39084.103892338746, 6508.962095852148, -6110.296381747292, -69787.35414592673, 1940.9584332654995, -20767.318697848164, -6209.716941084497, 7773.556741900056, -0.04, 0.982, 0.256, 192.0, 127.0, 96.0, 15.0, 88.0, 4.0, 0.0, 0.0, 0.0, 0.0, 1.695418061731862E9, 0.0, 2023-09-22 16:27:41.731
170.0, 26211.443687849485, 12664.543111865893, -36456.768090339676, -62911.68933054082, -187500.02235174447, 7804.625666692933, -124090.80554137297, -187500.02235174447, -39088.19426157406, 6510.079683074914, -6110.452843958479, -69796.13838149767, 1948.5356746358484, -20752.275973829746, -6188.080452451761, 7774.0708320225285, -0.04, 0.982, 0.256, 192.0, 0.0, 0.0, 0.0, 0.0, 0.0, 0.0, 0.0, 0.0, 0.0, 1.695418061731866E9, 0.0, 2023-09-22 16:27:41.731
172.0, 26213.52240008383, 12667.225321200529, -36466.8040236001, -62910.25881889568, -187500.02235174447, 7749.573320099512, -124194.42822866778, -187500.02235174447, -39084.997962116955, 6505.475223717121, -6102.8085473547635, -69791.8244948178, 1933.6717645730694, -20756.500453531797, -6216.578926632277, 7778.429422191313, -0.04, 0.982, 0.256, 192.0, 0.0, 0.0, 0.0, 0.0, 0.0, 0.0, 0.0, 0.0, 0.0, 1.695418061731869E9, 0.0, 2023-09-22 16:27:41.731
174.0, 26222.99953973288, 12677.708289350068, -36455.11406124998, -62905.67671128234, -187500.02235174447, 7790.991102575195, -124098.2933757655, -187500.02235174447, -39073.799738144844, 6515.600563955375, -6124.333277265225, -69781.40858190162, 1947.5969013687256, -20756.746322720806, -6192.4390426205455, 7764.0348987620955, -0.04, 0.982, 0.256, 192.0, 0.0, 0.0, 0.0, 0.0, 0.0, 0.0, 0.0, 0.0, 0.0, 1.695418061731872E9, 0.0, 2023-09-22 16:27:41.731
176.0, 26223.558333344263, 12680.368146940249, -36466.08876777754, -62905.85552523799, -187500.02235174447, 7744.208901430238, -124178.9608215047, -187500.02235174447, -39072.57039219981, 6513.700665676673, -6091.275047215825, -69779.8663115342, 1936.0857529742425, -20753.505319774787, -6213.203813219526, 7777.557704157556, -0.04, 0.982, 0.256, 192.0, 0.0, 0.0, 0.0, 0.0, 0.0, 0.0, 0.0, 0.0, 0.0, 1.695418061731876E9, 0.0, 2023-09-22 16:27:41.731
178.0, 26214.66233905105, 12668.7899433124, -36467.29576197812, -62921.74761554571, -187500.02235174447, 7789.024149063129, -124074.37700919832, -187500.02235174447, -39071.94454335506, 6518.975677368126, -6111.771596881342, -69781.63209934617, 1940.6231570986697, -20763.40714256849, -6206.073606738282, 7755.1165527244275, -0.042, 0.982, 0.26, 192.0, 127.0, 88.0, 15.0, 88.0, 4.0, 16.0, 0.0, 0.0, 0.0, 1.695418061731879E9, 0.0, 2023-09-22 16:27:41.731
180.0, 26215.46700185144, 12673.260292203462, -36472.30255273611, -62915.891458498416, -187500.02235174447, 7747.338145653981, -124145.79083273302, -187500.02235174447, -39078.20303180254, 6515.444101744188, -6072.544285362278, -69790.10341049473, 1926.6309650696476, -20747.33623830512, -6223.70913311352, 7790.812288619553, -0.042, 0.982, 0.26, 192.0, 0.0, 0.0, 0.0, 0.0, 0.0, 0.0, 0.0, 0.0, 0.0, 1.695418061792223E9, 0.0, 2023-09-22 16:27:41.792
182.0, 26205.743993013384, 12664.721925821535, -36466.66991313337, -62923.42399637985, -187500.02235174447, 7782.698605382277, -124049.47716587511, -187500.02235174447, -39078.40419750264, 6521.09909309138, -6116.443111472501, -69789.61167211672, 1934.319965162273, -20763.809473968682, -6207.571173616788, 7754.20013120176, -0.042, 0.982, 0.26, 192.0, 0.0, 0.0, 0.0, 0.0, 0.0, 0.0, 0.0, 0.0, 0.0, 1.695418061792243E9, 0.0, 2023-09-22 16:27:41.792
184.0, 26224.51945835584, 12682.715080108057, -36463.65242763191, -62902.70392926979, -187500.02235174447, 7744.678288063799, -124111.90558813878, -187500.02235174447, -39076.50429922394, 6519.668581446241, -6074.175962707515, -69782.19089295756, 1927.2121104254857, -20742.418854524953, -6220.445778423045, 7798.322474756536, -0.042, 0.982, 0.26, 192.0, 0.0, 0.0, 0.0, 0.0, 0.0, 0.0, 0.0, 0.0, 0.0, 1.695418061792247E9, 0.0, 2023-09-22 16:27:41.792
186.0, 26217.52336234133, 12672.32151893634, -36457.14806999541, -62913.857449752984, -187500.02235174447, 7766.292424952081, -124046.88436351829, -187500.02235174447, -39071.27399102139, 6524.451854759676, -6129.3400680232135, -69777.49702662195, 1936.0410494853318, -20771.00673568329, -6205.715978826997, 7743.9630322412295, -0.042, 0.982, 0.26, 192.0, 0.0, 0.0, 0.0, 0.0, 0.0, 0.0, 0.0, 0.0, 0.0, 1.69541806179225E9, 0.0, 2023-09-22 16:27:41.792
188.0, 26218.730356541917, 12671.69567009159, -36463.965352054285, -62908.2471618947, -187500.02235174447, 7749.618023588422, -124088.48095994962, -187500.02235174447, -39075.67728467909, 6520.808520413461, -6073.259541184848, -69782.1685412131, 1932.6212325836698, -20736.92032538895, -6216.198946976537, 7795.2602857661595, -0.044, 0.978, 0.26, 192.0, 127.0, 80.0, 15.0, 72.0, 4.0, 16.0, 0.0, 0.0, 0.0, 1.695418061792254E9, 0.0, 2023-09-22 16:27:41.792
190.0, 26183.883986936093, 12635.374085351717, -36480.28212550666, -62943.76408383418, -187500.02235174447, 7783.950303071774, -124019.3693660938, -187500.02235174447, -39091.68113370909, 6492.846488099872, -6122.768655153353, -69799.06646002132, 1926.519206347371, -20767.67632575945, -6216.958906288017, 7747.472256120713, -0.044, 0.978, 0.26, 192.0, 0.0, 0.0, 0.0, 0.0, 0.0, 0.0, 0.0, 0.0, 0.0, 1.695418061792258E9, 0.0, 2023-09-22 16:27:41.792
192.0, 26210.28139713781, 12666.64417584469, -36473.196622514326, -62912.35988287448, -187500.02235174447, 7785.157297272361, -124025.24787488555, -187500.02235174447, -39105.472160038014, 6482.028243783503, -6055.355793876147, -69814.5785706733, 1906.0450084263098, -20729.49954622979, -6237.209586764525, 7834.688762985321, -0.044, 0.978, 0.26, 192.0, 0.0, 0.0, 0.0, 0.0, 0.0, 0.0, 0.0, 0.0, 0.0, 1.695418061792267E9, 0.0, 2023-09-22 16:27:41.792
194.0, 26210.95194947147, 12664.07372523233, -36457.5056979067, -62912.69515904131, -187500.02235174447, 7772.282692466104, -124019.48112481608, -187500.02235174447, -39076.92898236859, 6510.839642386394, -6127.618983700155, -69782.70498308004, 1933.9846889954435, -20777.332279364146, -6214.321400442291, 7763.319642939526, -0.044, 0.978, 0.26, 192.0, 0.0, 0.0, 0.0, 0.0, 0.0, 0.0, 0.0, 0.0, 0.0, 1.695418061792271E9, 0.0, 2023-09-22 16:27:41.792
196.0, 26215.936388485003, 12665.88421653321, -36461.573715397564, -62911.21994390726, -187500.02235174447, 7772.036823277095, -124019.1234969048, -187500.02235174447, -39078.851232391746, 6506.793976639984, -6079.294512187781, -69787.3764976712, 1934.007040739899, -20740.742473690807, -6211.013342262905, 7815.265097053659, -0.044, 0.978, 0.26, 192.0, 0.0, 0.0, 0.0, 0.0, 0.0, 0.0, 0.0, 0.0, 0.0, 1.695418061851646E9, 0.0, 2023-09-22 16:27:41.851
198.0, 26200.357222599654, 12649.254518658463, -36467.47457593377, -62927.78258654864, -187500.02235174447, 7774.674329122821, -124002.44909554115, -187500.02235174447, -39093.08929360977, 6496.020435812526, -6123.685076676021, -69798.12768675419, 1919.8583864996895, -20772.59370953962, -6229.788807605363, 7761.397392916369, -0.04, 0.974, 0.254, 192.0, 127.0, 96.0, 15.0, 56.0, 3.5, 120.0, 0.0, 0.0, 0.0, 1.695418061851656E9, 0.0, 2023-09-22 16:27:41.851
200.0, 26208.09092618119, 12656.205911184063, -36474.73889288174, -62920.160641689385, -187500.02235174447, 7804.111576570461, -123940.02067327747, -187500.02235174447, -39103.2816890814, 6483.458755428643, -6055.735773531887, -69807.0236810474, 1916.103293431198, -20727.040854339702, -6225.474920925489, 7838.890890942918, -0.04, 0.974, 0.254, 192.0, 0.0, 0.0, 0.0, 0.0, 0.0, 0.0, 0.0, 0.0, 0.0, 1.69541806185166E9, 0.0, 2023-09-22 16:27:41.851
202.0, 26206.749821513873, 12655.490655361493, -36462.490136920234, -62920.227696922746, -187500.02235174447, 7769.667538364833, -123972.96714460458, -187500.02235174447, -39084.14859582765, 6496.959209079649, -6115.526689949834, -69791.19864597305, 1927.5473865923152, -20774.135979907034, -6227.240708737459, 7775.993082045685, -0.04, 0.974, 0.254, 192.0, 0.0, 0.0, 0.0, 0.0, 0.0, 0.0, 0.0, 0.0, 0.0, 1.695418061851664E9, 0.0, 2023-09-22 16:27:41.851
204.0, 26200.84896097767, 12654.84245477229, -36476.99641907173, -62920.920601000864, -187500.02235174447, 7804.826832393031, -123899.11698092426, -187500.02235174447, -39089.91534589712, 6495.1487177787685, -6072.901913273563, -69801.25693097794, 1929.2014156820078, -20736.406235266477, -6213.561441130811, 7826.060989625573, -0.04, 0.974, 0.254, 192.0, 0.0, 0.0, 0.0, 0.0, 0.0, 0.0, 0.0, 0.0, 0.0, 1.695418061851668E9, 0.0, 2023-09-22 16:27:41.851
206.0, 26196.84799872017, 12651.042658214887, -36469.106253279, -62919.44538586681, -187500.02235174447, 7766.49359065218, -123951.37535946077, -187500.02235174447, -39091.21174707553, 6497.272133502023, -6114.140881793604, -69797.65830012063, 1919.9477934775107, -20769.799741482704, -6225.18434824757, 7782.16216351535, -0.04, 0.974, 0.254, 192.0, 0.0, 0.0, 0.0, 0.0, 0.0, 0.0, 0.0, 0.0, 0.0, 1.695418061851671E9, 0.0, 2023-09-22 16:27:41.851
208.0, 26202.391231345086, 12653.41194312715, -36475.36474172649, -62918.59601957751, -187500.02235174447, 7810.481823740223, -123853.94410538008, -187500.02235174447, -39105.762732715935, 6474.316891946422, -6077.439317397991, -69814.24329450646, 1915.8127207532789, -20736.987380622315, -6222.703304613031, 7833.057085640084, -0.042, 0.974, 0.258, 192.0, 127.0, 88.0, 15.0, 56.0, 4.0, 8.0, 0.0, 0.0, 0.0, 1.695418061851675E9, 0.0, 2023-09-22 16:27:41.851
210.0, 26206.638062791597, 12655.02126872793, -36458.95856129629, -62912.248124152204, -187500.02235174447, 7757.9328725257965, -123933.2033912186, -187500.02235174447, -39083.96978187201, 6504.961133594648, -6115.794910883297, -69791.26570120642, 1928.7320290484465, -20762.244851856813, -6223.619726135698, 7783.659730393855, -0.042, 0.974, 0.258, 192.0, 0.0, 0.0, 0.0, 0.0, 0.0, 0.0, 0.0, 0.0, 0.0, 1.695418061911504E9, 0.0, 2023-09-22 16:27:41.911
212.0, 26205.766344757838, 12653.478998360515, -36458.93620955184, -62912.89632474141, -187500.02235174447, 7803.664541681354, -123830.94416033557, -187500.02235174447, -39088.93186914109, 6492.533563677498, -6086.938808791496, -69805.03437579088, 1933.3811918951503, -20734.57339222114, -6203.994894503939, 7820.137777344916, -0.042, 0.974, 0.258, 192.0, 0.0, 0.0, 0.0, 0.0, 0.0, 0.0, 0.0, 0.0, 0.0, 1.695418061911517E9, 0.0, 2023-09-22 16:27:41.911
214.0, 26214.014138461847, 12667.98528051201, -36438.19379069731, -62896.378385588934, -187500.02235174447, 7738.9115379943305, -123931.59406561781, -187500.02235174447, -39069.84347937626, 6504.558802194453, -6116.286649261314, -69783.80021855835, 1940.1090669761977, -20764.278860602244, -6211.214507963003, 7781.804535604065, -0.042, 0.974, 0.258, 192.0, 0.0, 0.0, 0.0, 0.0, 0.0, 0.0, 0.0, 0.0, 0.0, 1.69541806191152E9, 0.0, 2023-09-22 16:27:41.911
216.0, 26186.007402659347, 12640.425579598616, -36471.18496551335, -62927.559069104085, -187500.02235174447, 7814.616896464455, -123775.24361315294, -187500.02235174447, -39113.943471186576, 6478.988406537582, -6092.124413505127, -69818.11014629724, 1916.9750114649548, -20729.3430840186, -6213.069702752794, 7815.2203935647485, -0.042, 0.974, 0.258, 192.0, 0.0, 0.0, 0.0, 0.0, 0.0, 0.0, 0.0, 0.0, 0.0, 1.695418061911523E9, 0.0, 2023-09-22 16:27:41.911
218.0, 26223.647740322085, 12680.770478340446, -36439.66900583136, -62890.097545396995, -187500.02235174447, 7743.605404329945, -123881.4367510601, -187500.02235174447, -39078.918287625114, 6509.43148248571, -6097.287666474303, -69780.24629118995, 1929.3131744042844, -20740.094273101604, -6223.284449968869, 7803.843355636997, -0.04, 0.974, 0.258, 192.0, 127.0, 96.0, 15.0, 56.0, 4.0, 8.0, 0.0, 0.0, 0.0, 1.695418061911527E9, 0.0, 2023-09-22 16:27:41.911
220.0, 26205.56517905774, 12659.133989707709, -36458.89150606293, -62917.67959805484, -187500.02235174447, 7800.490593968701, -123753.42831056456, -187500.02235174447, -39097.13495935619, 6494.254648000557, -6101.601553154177, -69800.96635830002, 1926.4297993695498, -20730.639485197007, -6210.543955629344, 7796.132003799917, -0.04, 0.974, 0.258, 192.0, 0.0, 0.0, 0.0, 0.0, 0.0, 0.0, 0.0, 0.0, 0.0, 1.69541806191153E9, 0.0, 2023-09-22 16:27:41.911
222.0, 26206.101620924666, 12662.754972309467, -36459.137375251936, -62914.17037417536, -187500.02235174447, 7746.332317153492, -123839.88485811769, -187500.02235174447, -39086.741398184466, 6498.054444557959, -6094.381939695113, -69788.69525059406, 1923.747590034913, -20743.737607447816, -6227.307763970824, 7798.21071603426, -0.04, 0.974, 0.258, 192.0, 0.0, 0.0, 0.0, 0.0, 0.0, 0.0, 0.0, 0.0, 0.0, 1.695418061911533E9, 0.0, 2023-09-22 16:27:41.911
224.0, 26197.920882454026, 12652.495521604482, -36463.183040998345, -62925.79328129212, -187500.02235174447, 7804.8938876263965, -123702.06400180627, -187500.02235174447, -39114.94929968707, 6473.914560546227, -6105.06607354475, -69818.5348294419, 1908.1237206606534, -20744.87754641504, -6226.5478046593435, 7802.234030036215, -0.04, 0.974, 0.258, 192.0, 0.0, 0.0, 0.0, 0.0, 0.0, 0.0, 0.0, 0.0, 0.0, 1.695418061911537E9, 0.0, 2023-09-22 16:27:41.911
226.0, 26224.72062405594, 12678.803524828378, -36448.0509100021, -62895.14903964389, -187500.02235174447, 7738.889186249875, -123790.50985461591, -187500.02235174447, -39090.63060171969, 6493.852316600361, -6087.922285547529, -69792.45034366255, 1922.741761534424, -20751.4489592849, -6220.892813312151, 7814.080454597528, -0.04, 0.974, 0.258, 192.0, 0.0, 0.0, 0.0, 0.0, 0.0, 0.0, 0.0, 0.0, 0.0, 1.695418061971651E9, 0.0, 2023-09-22 16:27:41.971
228.0, 26183.883986936093, 12637.36339060824, -36482.360837741, -62943.920546045374, -187500.02235174447, 7802.234030036215, -123641.3790156101, -187500.02235174447, -39112.7811804749, 6477.356729192345, -6113.738550393409, -69815.56204742934, 1915.3656858641727, -20750.06315112867, -6215.014304520405, 7787.7500996291765, -0.044, 0.978, 0.254, 192.0, 127.0, 80.0, 15.0, 72.0, 3.5, 120.0, 0.0, 0.0, 0.0, 1.695418061971664E9, 0.0, 2023-09-22 16:27:41.971
230.0, 26210.884894238105, 12667.404135156172, -36462.26661947568, -62909.7000252843, -187500.02235174447, 7758.357555670447, -123704.85796986318, -187500.02235174447, -39109.98721241799, 6478.228447226102, -6073.5724656072225, -69806.08490778028, 1906.939078204522, -20729.67836018543, -6236.069647797304, 7840.74608573271, -0.044, 0.978, 0.254, 192.0, 0.0, 0.0, 0.0, 0.0, 0.0, 0.0, 0.0, 0.0, 0.0, 1.695418061971668E9, 0.0, 2023-09-22 16:27:41.971
232.0, 26199.79842898827, 12652.339059393295, -36460.34436945252, -62924.340417902524, -187500.02235174447, 7794.947361343785, -123605.43741052598, -187500.02235174447, -39110.14367462917, 6477.870819314817, -6113.291515504303, -69812.36574797223, 1909.911860217078, -20752.991229652314, -6223.440912180056, 7803.508079470168, -0.044, 0.978, 0.254, 192.0, 0.0, 0.0, 0.0, 0.0, 0.0, 0.0, 0.0, 0.0, 0.0, 1.695418061971672E9, 0.0, 2023-09-22 16:27:41.971
234.0, 26221.300807154275, 12673.595568370292, -36445.21223845628, -62897.4959728117, -187500.02235174447, 7757.2846719365925, -123670.97272526893, -187500.02235174447, -39092.64225872067, 6494.6793311452075, -6070.5326283613, -69797.32302395381, 1925.356915635695, -20734.662799198963, -6216.46716791, 7842.64598401141, -0.044, 0.978, 0.254, 192.0, 0.0, 0.0, 0.0, 0.0, 0.0, 0.0, 0.0, 0.0, 0.0, 1.695418061971676E9, 0.0, 2023-09-22 16:27:41.971
236.0, 26194.590472530184, 12645.298259889872, -36458.95856129629, -62927.53671735963, -187500.02235174447, 7783.905599582863, -123598.35190753364, -187500.02235174447, -39096.75497970045, 6488.242028742079, -6119.25943127387, -69801.7263176115, 1927.3685726366728, -20762.021334412257, -6205.067778237793, 7789.471183952235, -0.044, 0.978, 0.254, 192.0, 0.0, 0.0, 0.0, 0.0, 0.0, 0.0, 0.0, 0.0, 0.0, 1.695418061971679E9, 0.0, 2023-09-22 16:27:41.971
238.0, 26219.19974317548, 12672.187408469606, -36449.12379373596, -62904.0450339371, -187500.02235174447, 7756.614119602933, -123638.87562023112, -187500.02235174447, -39093.98336338799, 6487.370310708322, -6059.401459622558, -69800.6757856221, 1923.2782034013514, -20729.611304952065, -6215.953077787528, 7848.45743756979, -0.042, 0.982, 0.256, 192.0, 127.0, 88.0, 15.0, 88.0, 4.0, 0.0, 0.0, 0.0, 0.0, 1.695418061971683E9, 0.0, 2023-09-22 16:27:41.971
240.0, 26194.14343764108, 12648.047524457876, -36458.33271245155, -62932.72232207326, -187500.02235174447, 7775.702509367766, -123592.60750920862, -187500.02235174447, -39101.40414254715, 6475.009796024537, -6115.347875994191, -69810.1305735267, 1921.8253400117565, -20762.401314068, -6220.535185400866, 7782.720957126732, -0.042, 0.982, 0.256, 192.0, 0.0, 0.0, 0.0, 0.0, 0.0, 0.0, 0.0, 0.0, 0.0, 1.695418062031938E9, 0.0, 2023-09-22 16:27:42.031
242.0, 26207.0850976807, 12665.213664199551, -36461.48430841974, -62918.819537022064, -187500.02235174447, 7783.279750738115, -123587.44425623945, -187500.02235174447, -39100.91240416913, 6481.581208894398, -6049.343174617669, -69806.35312871374, 1915.6115550531813, -20719.485964713807, -6217.495348154945, 7854.626519039455, -0.042, 0.982, 0.256, 192.0, 0.0, 0.0, 0.0, 0.0, 0.0, 0.0, 0.0, 0.0, 0.0, 1.695418062031953E9, 0.0, 2023-09-22 16:27:42.031
244.0, 26204.447591834974, 12662.352640909272, -36453.750604838206, -62920.428862622844, -187500.02235174447, 7775.121364011928, -123575.48607295586, -187500.02235174447, -39104.086351881786, 6486.543296163475, -6103.076768288228, -69804.65439613514, 1910.1577294060862, -20758.981497166336, -6219.574060389288, 7798.009550334162, -0.042, 0.982, 0.256, 192.0, 0.0, 0.0, 0.0, 0.0, 0.0, 0.0, 0.0, 0.0, 0.0, 1.695418062031956E9, 0.0, 2023-09-22 16:27:42.031
246.0, 26214.639987306597, 12672.880312547722, -36456.79044208413, -62911.73403402973, -187500.02235174447, 7773.757907600154, -123558.69991286992, -187500.02235174447, -39086.16025282863, 6498.501479447064, -6056.652195054555, -69787.4212011601, 1927.1450551921196, -20723.688092671408, -6196.8423362782405, 7846.892815457919, -0.042, 0.982, 0.256, 192.0, 0.0, 0.0, 0.0, 0.0, 0.0, 0.0, 0.0, 0.0, 0.0, 1.69541806203196E9, 0.0, 2023-09-22 16:27:42.031
248.0, 26190.36599282813, 12644.180672667108, -36471.229669002256, -62940.36661867698, -187500.02235174447, 7766.180666229805, -123539.83504054965, -187500.02235174447, -39111.06009615184, 6473.266359957023, -6104.172003766537, -69813.99742531746, 1901.9993426798992, -20756.83572969863, -6230.638173894665, 7793.15922178736, -0.038, 0.984, 0.258, 192.0, 127.0, 104.0, 15.0, 96.0, 4.0, 8.0, 0.0, 0.0, 0.0, 1.695418062031963E9, 0.0, 2023-09-22 16:27:42.031
250.0, 26217.791583274793, 12672.388574169705, -36454.62232287196, -62911.912847985375, -187500.02235174447, 7782.855067593464, -123482.32400206615, -187500.02235174447, -39093.49162500997, 6488.66671188673, -6056.026346209806, -69802.26275947843, 1922.3170783897733, -20727.711406673363, -6213.047351008338, 7855.207664395293, -0.038, 0.984, 0.258, 192.0, 0.0, 0.0, 0.0, 0.0, 0.0, 0.0, 0.0, 0.0, 0.0, 1.695418062031966E9, 0.0, 2023-09-22 16:27:42.031
252.0, 26195.79746673077, 12649.947422736577, -36462.73600610924, -62933.05759824009, -187500.02235174447, 7754.021317246118, -123498.79723772971, -187500.02235174447, -39094.63156397719, 6493.114709033336, -6103.702617132976, -69804.40852694614, 1917.1761771650526, -20769.844444971615, -6224.84907208074, 7795.997893333184, -0.038, 0.984, 0.258, 192.0, 0.0, 0.0, 0.0, 0.0, 0.0, 0.0, 0.0, 0.0, 0.0, 1.69541806203197E9, 0.0, 2023-09-22 16:27:42.031
254.0, 26190.94713818397, 12643.666582544636, -36479.85744236201, -62935.20336570781, -187500.02235174447, 7814.63924820891, -123378.41074209342, -187500.02235174447, -39129.187360905096, 6460.302348172945, -6050.058430440239, -69834.3822162607, 1895.5396885323155, -20732.897011386995, -6227.620688393198, 7867.255254656703, -0.038, 0.984, 0.258, 192.0, 0.0, 0.0, 0.0, 0.0, 0.0, 0.0, 0.0, 0.0, 0.0, 1.695418062031973E9, 0.0, 2023-09-22 16:27:42.031
0.0, 26212.1365919276, 12666.890045033699, -36444.318168678066, -62907.151926416394, -187500.02235174447, 7758.603424859456, -123446.42710047092, -187500.02235174447, -39094.296287810364, 6495.975732323615, -6103.769672366342, -69794.50670415243, 1917.9584882209883, -20773.152503151003, -6226.078418025782, 7810.682989440321, -0.038, 0.984, 0.258, 192.0, 0.0, 0.0, 0.0, 0.0, 0.0, 0.0, 0.0, 0.0, 0.0, 1.695418062092239E9, 0.0, 2023-09-22 16:27:42.092
2.0, 26205.498123824374, 12659.335155407805, -36452.11892749297, -62909.252990395195, -187500.02235174447, 7805.899716126885, -123331.91911362638, -187500.02235174447, -39109.85310195126, 6479.278979215501, -6069.482096371901, -69809.95175957105, 1918.584337065737, -20734.14870907649, -6196.41765313359, 7852.860731227485, -0.04, 0.982, 0.254, 192.0, 127.0, 96.0, 15.0, 88.0, 3.5, 120.0, 0.0, 0.0, 0.0, 1.695418062092262E9, 0.0, 2023-09-22 16:27:42.092
4.0, 26203.12883891211, 12656.407076884161, -36442.01593899917, -62904.87204848195, -187500.02235174447, 7750.780314300098, -123405.79162905118, -187500.02235174447, -39093.20105233205, 6490.633665398796, -6101.601553154177, -69795.24431171946, 1924.7981220243123, -20760.188491366924, -6198.541068856844, 7813.588716219511, -0.04, 0.982, 0.254, 192.0, 0.0, 0.0, 0.0, 0.0, 0.0, 0.0, 0.0, 0.0, 0.0, 1.695418062092265E9, 0.0, 2023-09-22 16:27:42.092
6.0, 26197.116219653635, 12651.31087914835, -36455.38228218345, -62913.07513869705, -187500.02235174447, 7805.720902171243, -123278.52079612266, -187500.02235174447, -39113.20586361955, 6477.133211747791, -6080.34504417718, -69816.45611720755, 1919.2772411438516, -20728.20314505138, -6192.684911809553, 7847.31749860257, -0.04, 0.982, 0.254, 192.0, 0.0, 0.0, 0.0, 0.0, 0.0, 0.0, 0.0, 0.0, 0.0, 1.695418062092269E9, 0.0, 2023-09-22 16:27:42.092
8.0, 26209.387327359596, 12668.141742723197, -36440.22779944275, -62900.73697575772, -187500.02235174447, 7739.29151765007, -123377.62843103749, -187500.02235174447, -39084.081540594285, 6500.0213980700255, -6097.77940485232, -69784.49312263646, 1932.0847907167424, -20759.54029077772, -6205.335999171258, 7819.69074245581, -0.04, 0.982, 0.254, 192.0, 0.0, 0.0, 0.0, 0.0, 0.0, 0.0, 0.0, 0.0, 0.0, 1.695418062092272E9, 0.0, 2023-09-22 16:27:42.092
10.0, 26203.12883891211, 12661.682088575613, -36446.66510184587, -62909.40945260638, -187500.02235174447, 7792.511021198156, -123248.97178995273, -187500.02235174447, -39117.922081699624, 6477.937874548183, -6083.921323290029, -69813.19276251706, 1915.8127207532789, -20732.62879045353, -6201.044464235838, 7841.081361899539, -0.04, 0.982, 0.254, 192.0, 0.0, 0.0, 0.0, 0.0, 0.0, 0.0, 0.0, 0.0, 0.0, 1.695418062092275E9, 0.0, 2023-09-22 16:27:42.092
12.0, 26211.443687849485, 12669.393440412694, -36439.51254362018, -62902.36865310296, -187500.02235174447, 7728.965011711719, -123346.98418938926, -187500.02235174447, -39092.37403778721, 6499.350845736367, -6088.72694834792, -69786.92946278208, 1926.9885929809325, -20747.939735405416, -6199.681007824065, 7820.808329678575, -0.042, 0.978, 0.252, 192.0, 127.0, 88.0, 15.0, 72.0, 3.5, 112.0, 0.0, 0.0, 0.0, 1.695418062092279E9, 0.0, 2023-09-22 16:27:42.092
14.0, 26200.71485051094, 12654.663640816647, -36446.84391580152, -62918.21603992177, -187500.02235174447, 7789.538239185601, -123220.02628088312, -187500.02235174447, -39104.53338677089, 6482.497630417065, -6098.382901952613, -69805.5708176578, 1921.6018225672035, -20747.313886560667, -6195.791804288841, 7816.74031218771, -0.042, 0.978, 0.252, 192.0, 0.0, 0.0, 0.0, 0.0, 0.0, 0.0, 0.0, 0.0, 0.0, 1.695418062151704E9, 0.0, 2023-09-22 16:27:42.151
16.0, 26205.587530802197, 12662.151475209175, -36448.27442744666, -62911.64462705191, -187500.02235174447, 7746.421724131314, -123300.6043196445, -187500.02235174447, -39098.006677389945, 6493.3829299668, -6075.450012141468, -69794.41729717462, 1918.5396335768264, -20748.40912203898, -6207.280600938869, 7834.018210651662, -0.042, 0.978, 0.252, 192.0, 0.0, 0.0, 0.0, 0.0, 0.0, 0.0, 0.0, 0.0, 0.0, 1.695418062151718E9, 0.0, 2023-09-22 16:27:42.151
18.0, 26197.965585942937, 12651.065009959342, -36454.91289554988, -62919.1995166778, -187500.02235174447, 7799.3730067459355, -123175.79217860606, -187500.02235174447, -39121.72187825703, 6464.638586597274, -6087.743471591887, -69817.30548349685, 1905.7991392373015, -20752.63360174103, -6212.8685370526955, 7832.230071095237, -0.042, 0.978, 0.252, 192.0, 0.0, 0.0, 0.0, 0.0, 0.0, 0.0, 0.0, 0.0, 0.0, 1.695418062151722E9, 0.0, 2023-09-22 16:27:42.151
20.0, 26225.011196733856, 12677.909455050167, -36437.97027325276, -62888.17529537384, -187500.02235174447, 7734.57529957, -123268.46251111776, -187500.02235174447, -39091.47996800899, 6498.456775958154, -6074.86886678563, -69785.74482032596, 1925.7368952914353, -20748.72204646135, -6205.693627082543, 7846.535187546634, -0.042, 0.978, 0.252, 192.0, 0.0, 0.0, 0.0, 0.0, 0.0, 0.0, 0.0, 0.0, 0.0, 1.695418062151725E9, 0.0, 2023-09-22 16:27:42.151
22.0, 26188.063763149235, 12639.97854470951, -36459.04796827411, -62929.816595294076, -187500.02235174447, 7786.967788573241, -123147.53957361456, -187500.02235174447, -39105.963898416034, 6481.737671105585, -6108.932925335518, -69806.93427406959, 1922.6747063010582, -20761.39548556751, -6198.205792690014, 7813.0522743525835, -0.04, 0.976, 0.256, 192.0, 127.0, 96.0, 15.0, 64.0, 4.0, 0.0, 0.0, 0.0, 0.0, 1.695418062151728E9, 0.0, 2023-09-22 16:27:42.151
24.0, 26205.36401335764, 12661.279757175418, -36454.44350891632, -62909.83413575103, -187500.02235174447, 7756.971747514218, -123198.63566143939, -187500.02235174447, -39118.279709610906, 6467.410202909733, -6057.76978227732, -69818.5348294419, 1906.3355811042288, -20743.11175860307, -6228.693572127053, 7874.877199515963, -0.04, 0.976, 0.256, 192.0, 0.0, 0.0, 0.0, 0.0, 0.0, 0.0, 0.0, 0.0, 0.0, 1.695418062151731E9, 0.0, 2023-09-22 16:27:42.151
26.0, 26192.735277740394, 12647.958117480055, -36454.33175019405, -62926.508537114685, -187500.02235174447, 7783.279750738115, -123124.38316635885, -187500.02235174447, -39103.102875125755, 6483.794031595473, -6124.601498198688, -69799.13351525468, 1922.4735406009604, -20779.746267765317, -6205.89479278264, 7814.2816202976255, -0.04, 0.976, 0.256, 192.0, 0.0, 0.0, 0.0, 0.0, 0.0, 0.0, 0.0, 0.0, 0.0, 1.695418062151735E9, 0.0, 2023-09-22 16:27:42.151
28.0, 26196.37861208661, 12650.394457625684, -36471.94492482483, -62922.77579579065, -187500.02235174447, 7771.053346521062, -123139.24707642164, -187500.02235174447, -39128.069773682335, 6462.8057435519395, -6061.726041045909, -69818.93716084209, 1897.4619385554718, -20746.330409804632, -6225.877252325685, 7878.2076094398035, -0.04, 0.976, 0.256, 192.0, 0.0, 0.0, 0.0, 0.0, 0.0, 0.0, 0.0, 0.0, 0.0, 1.695418062151738E9, 0.0, 2023-09-22 16:27:42.151
30.0, 26172.015210630325, 12623.058274156843, -36479.70098015082, -62953.576499650066, -187500.02235174447, 7793.136870042905, -123053.99752306909, -187500.02235174447, -39136.384622619706, 6455.653185326241, -6111.101044547683, -69828.28019002441, 1894.6009152651925, -20783.031974200247, -6230.5934704057545, 7830.397228049902, -0.04, 0.976, 0.256, 192.0, 0.0, 0.0, 0.0, 0.0, 0.0, 0.0, 0.0, 0.0, 0.0, 1.695418062211331E9, 0.0, 2023-09-22 16:27:42.211
32.0, 26208.1356296701, 12663.716097321047, -36458.73504385174, -62911.10818518498, -187500.02235174447, 7776.998910546174, -123066.13452030833, -187500.02235174447, -39129.76850626094, 6455.787295792973, -6056.875712499108, -69821.97699808801, 1893.7291972314356, -20750.510186017775, -6236.13670303067, 7895.150231736927, -0.048, 0.976, 0.25, 192.0, 127.0, 64.0, 15.0, 64.0, 3.5, 104.0, 0.0, 0.0, 0.0, 1.695418062211345E9, 0.0, 2023-09-22 16:27:42.211
34.0, 26200.737202255394, 12660.229225186018, -36446.24041870122, -62918.50661259969, -187500.02235174447, 7763.900788295364, -123044.63214214232, -187500.02235174447, -39104.17575885961, 6486.073909529914, -6131.619945957655, -69791.95860528453, 1920.9312702335442, -20787.055288202202, -6214.65667660912, 7806.458509738268, -0.048, 0.976, 0.25, 192.0, 0.0, 0.0, 0.0, 0.0, 0.0, 0.0, 0.0, 0.0, 0.0, 1.695418062211349E9, 0.0, 2023-09-22 16:27:42.211
36.0, 26205.676937780016, 12666.018326999943, -36461.506660164196, -62914.72916778674, -187500.02235174447, 7762.894959794875, -123023.95677852117, -187500.02235174447, -39113.74230548648, 6479.23427572659, -6074.421831896524, -69803.69327112357, 1911.1859096510304, -20743.357627792077, -6214.880194053673, 7861.60026330951, -0.048, 0.976, 0.25, 192.0, 0.0, 0.0, 0.0, 0.0, 0.0, 0.0, 0.0, 0.0, 0.0, 1.695418062211352E9, 0.0, 2023-09-22 16:27:42.211
38.0, 26168.99772512886, 12628.579155037303, -36481.69028540734, -62953.17416824987, -187500.02235174447, 7762.649090605866, -122991.81496999443, -187500.02235174447, -39133.94828247408, 6464.258606941535, -6126.076713332738, -69825.55327720086, 1894.1762321205417, -20780.238006143332, -6230.638173894665, 7802.144623058394, -0.048, 0.976, 0.25, 192.0, 0.0, 0.0, 0.0, 0.0, 0.0, 0.0, 0.0, 0.0, 0.0, 1.695418062211356E9, 0.0, 2023-09-22 16:27:42.211
40.0, 26185.023925903315, 12644.292431389384, -36475.81177661559, -62930.88947902793, -187500.02235174447, 7784.173820516327, -122941.85882113682, -187500.02235174447, -39141.36906163324, 6440.409295607722, -6065.727003303409, -69838.71845468503, 1889.7505867183909, -20742.217688824858, -6227.933612815573, 7877.648815828421, -0.048, 0.976, 0.25, 192.0, 0.0, 0.0, 0.0, 0.0, 0.0, 0.0, 0.0, 0.0, 0.0, 1.695418062211359E9, 0.0, 2023-09-22 16:27:42.211
42.0, 26176.731428710395, 12635.754065007457, -36470.112081779494, -62933.79520580712, -187500.02235174447, 7760.637433604888, -122951.58182997488, -187500.02235174447, -39128.628567293716, 6452.65805156923, -6124.087408076216, -69822.91577135512, 1897.0819588997317, -20781.780276510748, -6227.061894781816, 7817.254402310182, -0.05, 0.974, 0.256, 192.0, 127.0, 56.0, 15.0, 56.0, 4.0, 0.0, 0.0, 0.0, 0.0, 1.695418062211363E9, 0.0, 2023-09-22 16:27:42.211
44.0, 26189.784847472292, 12644.828873256312, -36466.17817475536, -62923.4016446354, -187500.02235174447, 7787.97361707373, -122870.37794236875, -187500.02235174447, -39136.943416231086, 6448.858255011828, -6074.622997596622, -69834.47162323853, 1898.3783600781394, -20738.127319589534, -6219.082322011272, 7880.152211207415, -0.05, 0.974, 0.256, 192.0, 0.0, 0.0, 0.0, 0.0, 0.0, 0.0, 0.0, 0.0, 0.0, 1.695418062271705E9, 0.0, 2023-09-22 16:27:42.271
46.0, 26177.156111855045, 12631.440178327583, -36470.22384050177, -62938.533775631644, -187500.02235174447, 7759.922177782319, -122890.36040191179, -187500.02235174447, -39126.34868935927, 6452.8815690137835, -6116.5995736836885, -69824.72626265601, 1899.808871723279, -20774.962994451882, -6228.7159238715085, 7826.463321025768, -0.05, 0.974, 0.256, 192.0, 0.0, 0.0, 0.0, 0.0, 0.0, 0.0, 0.0, 0.0, 0.0, 1.695418062271718E9, 0.0, 2023-09-22 16:27:42.271
48.0, 26204.42524009052, 12657.301146662372, -36456.74573859522, -62916.33849338752, -187500.02235174447, 7802.278733525126, -122783.34024945978, -187500.02235174447, -39138.39627962068, 6444.745534032051, -6069.727965560909, -69831.38708250369, 1894.5115082873713, -20742.798834180696, -6223.530319157877, 7887.863563044497, -0.05, 0.974, 0.256, 192.0, 0.0, 0.0, 0.0, 0.0, 0.0, 0.0, 0.0, 0.0, 0.0, 1.695418062271722E9, 0.0, 2023-09-22 16:27:42.271
50.0, 26218.52919084182, 12673.014423014454, -36437.27736917465, -62902.43570833632, -187500.02235174447, 7735.938755981774, -122869.23800340152, -187500.02235174447, -39097.49258726747, 6484.017549040026, -6113.202108526481, -69793.14324774066, 1921.9818022229438, -20781.10972417709, -6217.271830710391, 7826.396265792402, -0.05, 0.974, 0.256, 192.0, 0.0, 0.0, 0.0, 0.0, 0.0, 0.0, 0.0, 0.0, 0.0, 1.695418062271725E9, 0.0, 2023-09-22 16:27:42.271
52.0, 26210.929597727016, 12664.74427756599, -36452.85653506, -62911.35405437399, -187500.02235174447, 7780.150506514372, -122759.75915905944, -187500.02235174447, -39119.956090445055, 6459.721202817107, -6082.401404667068, -69814.3774049732, 1914.1139881746756, -20747.805624938683, -6202.564382858799, 7855.341774862025, -0.046, 0.978, 0.252, 192.0, 127.0, 72.0, 15.0, 72.0, 3.5, 112.0, 0.0, 0.0, 0.0, 1.695418062271729E9, 0.0, 2023-09-22 16:27:42.271
54.0, 26182.118199124125, 12638.950364464567, -36479.99155282874, -62939.53960413213, -187500.02235174447, 7738.6209653164115, -122815.21383705304, -187500.02235174447, -39111.283613596395, 6467.589016865375, -6103.25558224387, -69802.28511122288, 1908.8389764832232, -20774.895939218517, -6218.411769677612, 7819.69074245581, -0.046, 0.978, 0.252, 192.0, 0.0, 0.0, 0.0, 0.0, 0.0, 0.0, 0.0, 0.0, 0.0, 1.695418062271732E9, 0.0, 2023-09-22 16:27:42.271
56.0, 26192.020021917826, 12648.02517271342, -36476.72819813826, -62924.854508025, -187500.02235174447, 7799.887096868408, -122671.69328590552, -187500.02235174447, -39156.27767518493, 6435.447208338644, -6068.744488804876, -69840.55129773037, 1877.9041621570782, -20753.237098841324, -6243.356316489735, 7873.960777993296, -0.046, 0.978, 0.252, 192.0, 0.0, 0.0, 0.0, 0.0, 0.0, 0.0, 0.0, 0.0, 0.0, 1.695418062271735E9, 0.0, 2023-09-22 16:27:42.271
58.0, 26208.314443625743, 12665.928920022121, -36452.0518722596, -62901.94396995831, -187500.02235174447, 7718.929078451286, -122784.65900238264, -187500.02235174447, -39108.556700772846, 6482.654092628252, -6094.851326328675, -69791.04218376186, 1911.7223515179578, -20785.915349234983, -6221.272792967891, 7834.867576940964, -0.046, 0.978, 0.252, 192.0, 0.0, 0.0, 0.0, 0.0, 0.0, 0.0, 0.0, 0.0, 0.0, 1.695418062271739E9, 0.0, 2023-09-22 16:27:42.271
60.0, 26193.204664373956, 12646.572309323825, -36466.58050615555, -62927.02262723716, -187500.02235174447, 7780.128154769916, -122642.90423904709, -187500.02235174447, -39137.8374860093, 6456.234330682079, -6092.124413505127, -69823.51926845542, 1898.713636244969, -20767.07282865916, -6214.768435331397, 7845.305841601592, -0.046, 0.978, 0.252, 192.0, 0.0, 0.0, 0.0, 0.0, 0.0, 0.0, 0.0, 0.0, 0.0, 1.69541806233183E9, 0.0, 2023-09-22 16:27:42.331
62.0, 26220.56319958725, 12675.98720502701, -36438.32790116405, -62890.991615175204, -187500.02235174447, 7719.443168573758, -122736.51334482591, -187500.02235174447, -39109.87545369571, 6477.624950125808, -6082.267294200336, -69799.53584665488, 1911.4094270955834, -20770.11266590508, -6220.915165056606, 7842.444818311313, -0.048, 0.974, 0.258, 192.0, 127.0, 64.0, 15.0, 56.0, 4.0, 8.0, 0.0, 0.0, 0.0, 1.695418062331841E9, 0.0, 2023-09-22 16:27:42.331
64.0, 26199.887835966092, 12654.55188209437, -36452.78947982663, -62914.37153987546, -187500.02235174447, 7792.868649109441, -122577.97242140443, -187500.02235174447, -39121.140732901185, 6480.7094908606405, -6086.245904713382, -69804.8779135797, 1915.3209823752622, -20749.325543561645, -6194.026016476872, 7840.902547943896, -0.048, 0.974, 0.258, 192.0, 0.0, 0.0, 0.0, 0.0, 0.0, 0.0, 0.0, 0.0, 0.0, 1.695418062331845E9, 0.0, 2023-09-22 16:27:42.331
66.0, 26218.260969908355, 12673.774382325933, -36446.97802626825, -62893.025623920636, -187500.02235174447, 7745.550006097556, -122650.19090773952, -187500.02235174447, -39119.240834622484, 6479.390737937777, -6045.833950738186, -69800.69813736655, 1904.4803863144382, -20738.86492715656, -6216.735388843464, 7883.639083342444, -0.048, 0.974, 0.258, 192.0, 0.0, 0.0, 0.0, 0.0, 0.0, 0.0, 0.0, 0.0, 0.0, 1.695418062331848E9, 0.0, 2023-09-22 16:27:42.331
68.0, 26195.484542308397, 12649.79096052539, -36458.31036070709, -62923.8039760356, -187500.02235174447, 7784.06206179405, -122538.49924069634, -187500.02235174447, -39123.42061083563, 6478.161391992735, -6084.882448301608, -69805.5708176578, 1915.097464930709, -20762.043686156714, -6198.8986967681285, 7851.050239926606, -0.048, 0.974, 0.258, 192.0, 0.0, 0.0, 0.0, 0.0, 0.0, 0.0, 0.0, 0.0, 0.0, 1.695418062331851E9, 0.0, 2023-09-22 16:27:42.331
70.0, 26208.448554092476, 12665.437181644105, -36462.53484040914, -62915.13149918694, -187500.02235174447, 7734.463540847724, -122597.59725303618, -187500.02235174447, -39133.76946851843, 6462.425763896199, -6046.504503071846, -69817.81957361932, 1891.806947208279, -20751.29249707371, -6221.317496456802, 7886.3659961659905, -0.048, 0.974, 0.258, 192.0, 0.0, 0.0, 0.0, 0.0, 0.0, 0.0, 0.0, 0.0, 0.0, 1.695418062331854E9, 0.0, 2023-09-22 16:27:42.331
72.0, 26200.111353410644, 12651.176768681618, -36454.42115717187, -62924.4521766248, -187500.02235174447, 7763.543160384079, -122500.72479256688, -187500.02235174447, -39128.11447717124, 6471.724089589607, -6096.415948440546, -69810.33173922679, 1902.200508379997, -20789.24575915882, -6207.928801528073, 7833.146492617905, -0.044, 0.978, 0.26, 192.0, 127.0, 80.0, 15.0, 72.0, 4.0, 16.0, 0.0, 0.0, 0.0, 1.695418062331857E9, 0.0, 2023-09-22 16:27:42.331
74.0, 26204.827571490714, 12651.64615531518, -36460.74670085272, -62917.83606026603, -187500.02235174447, 7736.00581121514, -122543.39427273205, -187500.02235174447, -39127.30981437085, 6454.736763803574, -6038.726096001398, -69808.23067524799, 1899.585354278726, -20759.897918689003, -6210.476900395978, 7884.980188009762, -0.044, 0.978, 0.26, 192.0, 0.0, 0.0, 0.0, 0.0, 0.0, 0.0, 0.0, 0.0, 0.0, 1.695418062392225E9, 0.0, 2023-09-22 16:27:42.392
76.0, 26184.80040845876, 12627.819195725822, -36465.48527067724, -62938.84670005402, -187500.02235174447, 7763.319642939526, -122459.15054788001, -187500.02235174447, -39134.10474468527, 6450.400525379244, -6090.179811737516, -69821.731128899, 1896.3219995882512, -20783.92604397846, -6209.068740495293, 7833.973507162751, -0.044, 0.978, 0.26, 192.0, 0.0, 0.0, 0.0, 0.0, 0.0, 0.0, 0.0, 0.0, 0.0, 1.695418062392239E9, 0.0, 2023-09-22 16:27:42.392
78.0, 26210.549618071273, 12650.193291925585, -36447.00037801271, -62905.56495256007, -187500.02235174447, 7731.714276279721, -122500.05424023322, -187500.02235174447, -39121.87834046821, 6454.110914958825, -6038.726096001398, -69812.90218983915, 1907.2743543713516, -20752.2983255742, -6208.174670717081, 7887.7741560666755, -0.044, 0.978, 0.26, 192.0, 0.0, 0.0, 0.0, 0.0, 0.0, 0.0, 0.0, 0.0, 0.0, 1.695418062392243E9, 0.0, 2023-09-22 16:27:42.392
80.0, 26180.017135145325, 12618.990256665977, -36461.707825864294, -62938.17614772036, -187500.02235174447, 7742.3760583849025, -122444.21958258386, -187500.02235174447, -39126.05811668136, 6445.617252065808, -6101.10981477616, -69819.4288992201, 1906.5143950598713, -20783.031974200247, -6207.548821872333, 7817.790844177109, -0.044, 0.978, 0.26, 192.0, 0.0, 0.0, 0.0, 0.0, 0.0, 0.0, 0.0, 0.0, 0.0, 1.695418062392246E9, 0.0, 2023-09-22 16:27:42.392
82.0, 26183.16873111352, 12623.348846834762, -36480.41623597339, -62936.36565641948, -187500.02235174447, 7752.054363734051, -122420.72789916134, -187500.02235174447, -39150.62268383773, 6427.1770628901795, -6032.981697676385, -69839.2325448075, 1882.0615866257654, -20744.274049314743, -6225.474920925489, 7898.592400383044, -0.042, 0.98, 0.266, 192.0, 127.0, 88.0, 15.0, 80.0, 4.0, 40.0, 0.0, 0.0, 0.0, 1.695418062392249E9, 0.0, 2023-09-22 16:27:42.392
84.0, 26178.005478144347, 12616.755082220447, -36469.84386084603, -62939.249031454216, -187500.02235174447, 7751.115590466928, -122388.83195982361, -187500.02235174447, -39140.586750577306, 6439.649336296241, -6094.7619193508535, -69830.13538481419, 1889.8176419517567, -20794.431363872452, -6221.56336564581, 7840.07553339905, -0.042, 0.98, 0.266, 192.0, 0.0, 0.0, 0.0, 0.0, 0.0, 0.0, 0.0, 0.0, 0.0, 1.695418062392252E9, 0.0, 2023-09-22 16:27:42.392
86.0, 26181.291184579277, 12622.253611356451, -36475.4094452154, -62930.353037161, -187500.02235174447, 7766.672404607822, -122350.31990412711, -187500.02235174447, -39143.24660816749, 6433.994344949048, -6040.246014624359, -69837.04207385088, 1889.3035518292847, -20755.58403200913, -6211.7509498299305, 7903.688598118854, -0.042, 0.98, 0.266, 192.0, 0.0, 0.0, 0.0, 0.0, 0.0, 0.0, 0.0, 0.0, 0.0, 1.695418062392256E9, 0.0, 2023-09-22 16:27:42.392
88.0, 26175.546786254265, 12618.856146199245, -36469.776805612666, -62934.130481973945, -187500.02235174447, 7747.919291009819, -122356.91366874143, -187500.02235174447, -39143.33601514531, 6438.576452562386, -6101.802718854275, -69834.56103021634, 1888.7224064734469, -20803.394413399034, -6224.9608308030165, 7840.74608573271, -0.042, 0.98, 0.266, 192.0, 0.0, 0.0, 0.0, 0.0, 0.0, 0.0, 0.0, 0.0, 0.0, 1.695418062392259E9, 0.0, 2023-09-22 16:27:42.392
90.0, 26204.62640579062, 12647.488730846493, -36460.74670085272, -62910.080004940035, -187500.02235174447, 7759.519846382123, -122317.68635722237, -187500.02235174447, -39136.40697436416, 6451.071077712903, -6053.6794130419985, -69825.01683533392, 1897.908973444578, -20762.647183257006, -6211.080397496271, 7896.916019548896, -0.042, 0.98, 0.266, 192.0, 0.0, 0.0, 0.0, 0.0, 0.0, 0.0, 0.0, 0.0, 0.0, 1.69541806245251E9, 0.0, 2023-09-22 16:27:42.452
92.0, 26167.902489650547, 12612.7764717074, -36483.47842496377, -62944.188766978834, -187500.02235174447, 7744.030087474595, -122334.80779347513, -187500.02235174447, -39138.30687264286, 6452.23336842458, -6101.355683965169, -69827.11789931273, 1890.1305663741311, -20791.905616749005, -6222.368028446202, 7837.88506244243, -0.046, 0.974, 0.262, 192.0, 127.0, 72.0, 15.0, 56.0, 4.0, 24.0, 0.0, 0.0, 0.0, 1.695418062452524E9, 0.0, 2023-09-22 16:27:42.452
94.0, 26178.832492689195, 12620.06314039983, -36477.242288260735, -62930.06246448308, -187500.02235174447, 7783.011529804651, -122249.13355697795, -187500.02235174447, -39161.77620432094, 6420.583298275865, -6045.655136782544, -69848.62027747874, 1879.0888046132095, -20756.43339829843, -6225.7207901144975, 7913.389255212457, -0.046, 0.974, 0.262, 192.0, 0.0, 0.0, 0.0, 0.0, 0.0, 0.0, 0.0, 0.0, 0.0, 1.695418062452527E9, 0.0, 2023-09-22 16:27:42.452
96.0, 26191.37182132862, 12632.69187601708, -36458.66798861838, -62917.41137712138, -187500.02235174447, 7729.076770433995, -122327.43171780488, -187500.02235174447, -39138.28452089841, 6445.952528232638, -6099.187564753004, -69822.62519867721, 1889.9964559073992, -20791.92796849346, -6234.9967640634495, 7858.046335941117, -0.046, 0.974, 0.262, 192.0, 0.0, 0.0, 0.0, 0.0, 0.0, 0.0, 0.0, 0.0, 0.0, 1.695418062452531E9, 0.0, 2023-09-22 16:27:42.452
98.0, 26190.500103294864, 12632.244841127973, -36470.46970969078, -62928.36373190448, -187500.02235174447, 7779.569361158534, -122223.89843748791, -187500.02235174447, -39142.97838723402, 6441.236310152568, -6068.766840549331, -69828.4813557245, 1896.2549443548853, -20755.695790731406, -6216.891851054651, 7896.916019548896, -0.046, 0.974, 0.262, 192.0, 0.0, 0.0, 0.0, 0.0, 0.0, 0.0, 0.0, 0.0, 0.0, 1.695418062452534E9, 0.0, 2023-09-22 16:27:42.452
100.0, 26212.38246111661, 12657.904643762666, -36448.587351869035, -62906.59313280501, -187500.02235174447, 7703.148746865839, -122333.22081961881, -187500.02235174447, -39124.44879108057, 6463.655109841241, -6097.801756596775, -69805.21318974653, 1900.6358862681254, -20791.77150628227, -6221.317496456802, 7850.178521892849, -0.046, 0.974, 0.262, 192.0, 0.0, 0.0, 0.0, 0.0, 0.0, 0.0, 0.0, 0.0, 0.0, 1.695418062452537E9, 0.0, 2023-09-22 16:27:42.452
102.0, 26192.623519018118, 12636.469320830027, -36469.687398634844, -62931.94001101733, -187500.02235174447, 7755.429477146802, -122222.87025724296, -187500.02235174447, -39132.62952955122, 6462.246949940557, -6081.484983144401, -69815.07030905131, 1904.4356828255277, -20771.4537705724, -6202.676141581076, 7865.802391267109, -0.04, 0.978, 0.256, 192.0, 127.0, 96.0, 15.0, 72.0, 4.0, 0.0, 0.0, 0.0, 0.0, 1.69541806245254E9, 0.0, 2023-09-22 16:27:42.452
104.0, 26191.349469584165, 12636.35756210775, -36471.36377946899, -62928.38608364893, -187500.02235174447, 7708.311999835015, -122298.68737443537, -187500.02235174447, -39140.83261976631, 6450.8922637572605, -6087.7211198474315, -69826.15677430115, 1884.4085197935726, -20787.323509135666, -6234.393266963157, 7856.146437662415, -0.04, 0.978, 0.256, 192.0, 0.0, 0.0, 0.0, 0.0, 0.0, 0.0, 0.0, 0.0, 0.0, 1.695418062511274E9, 0.0, 2023-09-22 16:27:42.511
106.0, 26189.449571305464, 12633.384780095193, -36467.92161082287, -62931.6047348505, -187500.02235174447, 7757.865817292431, -122186.16869284735, -187500.02235174447, -39136.3399191308, 6446.0195834660035, -6093.577276894722, -69825.7320911565, 1900.2782583568405, -20783.009622455793, -6209.94045852905, 7864.863617999986, -0.04, 0.978, 0.256, 192.0, 0.0, 0.0, 0.0, 0.0, 0.0, 0.0, 0.0, 0.0, 0.0, 1.695418062511288E9, 0.0, 2023-09-22 16:27:42.511
108.0, 26181.022963645813, 12627.752140492457, -36477.35404698301, -62932.11882497297, -187500.02235174447, 7714.592840026956, -122266.61262114199, -187500.02235174447, -39155.830640295826, 6428.540519301953, -6084.234247712404, -69842.987637876, 1872.651502210081, -20790.139828937034, -6238.550691431844, 7871.680900058855, -0.04, 0.978, 0.256, 192.0, 0.0, 0.0, 0.0, 0.0, 0.0, 0.0, 0.0, 0.0, 0.0, 1.695418062511292E9, 0.0, 2023-09-22 16:27:42.511
110.0, 26177.80431244425, 12622.007742167443, -36476.70584639381, -62938.80199656511, -187500.02235174447, 7770.91923605433, -122150.27179125212, -187500.02235174447, -39152.65669258317, 6432.742647259552, -6098.807585097264, -69840.50659424145, 1885.8837349276228, -20784.440134100932, -6219.194080733548, 7871.703251803309, -0.04, 0.978, 0.256, 192.0, 0.0, 0.0, 0.0, 0.0, 0.0, 0.0, 0.0, 0.0, 0.0, 1.695418062511295E9, 0.0, 2023-09-22 16:27:42.511
112.0, 26198.47967606541, 12640.984373209998, -36463.85359333201, -62913.41041486388, -187500.02235174447, 7722.035970930573, -122256.77785358166, -187500.02235174447, -39140.27382615493, 6445.460789854621, -6075.271198185826, -69828.43665223558, 1885.682569227525, -20777.48874157533, -6226.5478046593435, 7891.41749041289, -0.042, 0.986, 0.254, 192.0, 127.0, 88.0, 15.0, 104.0, 3.5, 120.0, 0.0, 0.0, 0.0, 1.695418062511298E9, 0.0, 2023-09-22 16:27:42.511
114.0, 26185.42625730351, 12623.862936957234, -36472.81664285858, -62934.80103430761, -187500.02235174447, 7773.802611089064, -122142.22516324821, -187500.02235174447, -39133.94828247408, 6447.539502088965, -6097.689997874499, -69830.91769587013, 1897.5289937888379, -20783.568416067174, -6203.547859614833, 7870.183333180348, -0.042, 0.986, 0.254, 192.0, 0.0, 0.0, 0.0, 0.0, 0.0, 0.0, 0.0, 0.0, 0.0, 1.695418062511301E9, 0.0, 2023-09-22 16:27:42.511
116.0, 26203.79939124577, 12644.851225000766, -36470.7602823687, -62916.07027245406, -187500.02235174447, 7726.10398842144, -122239.16467895088, -187500.02235174447, -39124.18057014711, 6451.56281609092, -6065.235264925393, -69822.60284693276, 1890.555249518782, -20771.140846150025, -6222.546842401844, 7898.368882938491, -0.042, 0.986, 0.254, 192.0, 0.0, 0.0, 0.0, 0.0, 0.0, 0.0, 0.0, 0.0, 0.0, 1.695418062511305E9, 0.0, 2023-09-22 16:27:42.511
118.0, 26194.32225159672, 12631.373123094216, -36468.48040443425, -62932.83408079554, -187500.02235174447, 7767.924102297319, -122156.10559655496, -187500.02235174447, -39119.821979978326, 6464.951511019649, -6104.999018311384, -69819.29478875337, 1899.2724298563517, -20788.575206825164, -6207.8170428057965, 7861.354394120503, -0.042, 0.986, 0.254, 192.0, 0.0, 0.0, 0.0, 0.0, 0.0, 0.0, 0.0, 0.0, 0.0, 1.695418062511308E9, 0.0, 2023-09-22 16:27:42.511
120.0, 26207.599187803175, 12644.761818022946, -36466.64756138892, -62923.93808650233, -187500.02235174447, 7720.963087196718, -122258.34247569353, -187500.02235174447, -39109.09314263977, 6465.711470331129, -6060.29552940077, -69808.5212479259, 1897.0149036663656, -20767.2516426148, -6216.1542434876255, 7904.2697434746915, -0.042, 0.986, 0.254, 192.0, 0.0, 0.0, 0.0, 0.0, 0.0, 0.0, 0.0, 0.0, 0.0, 1.695418062571547E9, 0.0, 2023-09-22 16:27:42.571
122.0, 26184.28631833629, 12620.823099711311, -36480.37153248448, -62949.75435134821, -187500.02235174447, 7758.893997537375, -122189.27558532663, -187500.02235174447, -39122.258320123954, 6450.400525379244, -6103.792024110798, -69828.63781793568, 1884.0285401378324, -20790.810381270694, -6219.864633067207, 7866.4058883674015, -0.038, 0.984, 0.252, 192.0, 127.0, 104.0, 15.0, 96.0, 3.5, 112.0, 0.0, 0.0, 0.0, 1.695418062571576E9, 0.0, 2023-09-22 16:27:42.571
124.0, 26219.445612364485, 12661.190350197596, -36455.44933741681, -62908.604789805984, -187500.02235174447, 7718.414988328814, -122276.00035381322, -187500.02235174447, -39093.08929360977, 6483.436403684188, -6062.754221290854, -69801.65926237813, 1898.9148019450668, -20771.140846150025, -6215.5060428984225, 7910.572935411088, -0.038, 0.984, 0.252, 192.0, 0.0, 0.0, 0.0, 0.0, 0.0, 0.0, 0.0, 0.0, 0.0, 1.695418062571586E9, 0.0, 2023-09-22 16:27:42.571
126.0, 26175.591489743172, 12617.49268978747, -36479.633924917456, -62952.50361591621, -187500.02235174447, 7747.449904376257, -122213.41546933836, -187500.02235174447, -39100.82299719131, 6486.85622058585, -6119.326486507236, -69805.23554149098, 1895.1597088765752, -20795.772468539773, -6212.823833563785, 7846.401077079902, -0.038, 0.984, 0.252, 192.0, 0.0, 0.0, 0.0, 0.0, 0.0, 0.0, 0.0, 0.0, 0.0, 1.695418062571591E9, 0.0, 2023-09-22 16:27:42.571
128.0, 26193.964623685435, 12636.290506874384, -36476.482328949256, -62927.08968247053, -187500.02235174447, 7746.175854942305, -122235.99073123823, -187500.02235174447, -39118.83850322229, 6466.560836620431, -6047.018593194318, -69820.70294865406, 1871.4668597539498, -20756.321639576156, -6229.587641905266, 7932.745865910753, -0.038, 0.984, 0.252, 192.0, 0.0, 0.0, 0.0, 0.0, 0.0, 0.0, 0.0, 0.0, 0.0, 1.695418062571595E9, 0.0, 2023-09-22 16:27:42.571
130.0, 26189.13664688309, 12633.965925451032, -36467.89925907842, -62931.29181042813, -187500.02235174447, 7759.3410324264805, -122222.04324269811, -187500.02235174447, -39109.02608740641, 6478.787240837484, -6108.709407890965, -69808.36478571473, 1882.6650837260586, -20797.337090651643, -6224.3126302138135, 7874.296054160125, -0.038, 0.984, 0.252, 192.0, 0.0, 0.0, 0.0, 0.0, 0.0, 0.0, 0.0, 0.0, 0.0, 1.695418062571599E9, 0.0, 2023-09-22 16:27:42.571
132.0, 26213.276530894822, 12658.351678651772, -36457.46099441779, -62904.62617929294, -187500.02235174447, 7753.686041079288, -122251.39108316792, -187500.02235174447, -39099.16896810162, 6499.529659692009, -6053.76882001982, -69797.14420999817, 1890.0635111407653, -20751.2477935848, -6218.568231888799, 7934.176377555893, -0.044, 0.986, 0.248, 192.0, 127.0, 80.0, 15.0, 104.0, 3.5, 96.0, 0.0, 0.0, 0.0, 1.695418062571604E9, 0.0, 2023-09-22 16:27:42.571
134.0, 26204.648757535073, 12651.154416937163, -36439.71370932028, -62910.7505572737, -187500.02235174447, 7742.621927573911, -122279.17430152587, -187500.02235174447, -39083.99213361646, 6497.0262643130145, -6118.92415510704, -69783.55434936934, 1899.7418164899132, -20794.65488131701, -6206.8782695386735, 7855.140609161927, -0.044, 0.986, 0.248, 192.0, 0.0, 0.0, 0.0, 0.0, 0.0, 0.0, 0.0, 0.0, 0.0, 1.695418062631956E9, 0.0, 2023-09-22 16:27:42.631
136.0, 26223.33481589971, 12671.069821246841, -36439.490191875724, -62892.80210647608, -187500.02235174447, 7755.1165527244275, -122274.23456600125, -187500.02235174447, -39095.145654099666, 6490.790127609984, -6053.433543852991, -69792.80797157383, 1895.8526129546897, -20752.141863363013, -6196.171783944582, 7923.894575106451, -0.044, 0.986, 0.248, 192.0, 0.0, 0.0, 0.0, 0.0, 0.0, 0.0, 0.0, 0.0, 0.0, 1.695418062631971E9, 0.0, 2023-09-22 16:27:42.631
138.0, 26205.542827313286, 12653.143722193685, -36443.71467157778, -62913.32100788606, -187500.02235174447, 7729.501453578646, -122321.5755607576, -187500.02235174447, -39069.84347937626, 6519.355657023866, -6113.805605626775, -69765.00240147143, 1911.0517991842985, -20799.885189519548, -6187.074623951272, 7846.311670102081, -0.044, 0.986, 0.248, 192.0, 0.0, 0.0, 0.0, 0.0, 0.0, 0.0, 0.0, 0.0, 0.0, 1.695418062631974E9, 0.0, 2023-09-22 16:27:42.631
140.0, 26202.50299006736, 12648.114579691242, -36463.205392742806, -62922.08289171254, -187500.02235174447, 7772.573265144023, -122258.78951058263, -187500.02235174447, -39110.74717172947, 6482.251761228056, -6044.470494326412, -69804.85556183524, 1882.5756767482374, -20741.278915557734, -6207.8170428057965, 7924.542775695655, -0.044, 0.986, 0.248, 192.0, 0.0, 0.0, 0.0, 0.0, 0.0, 0.0, 0.0, 0.0, 0.0, 1.695418062631977E9, 0.0, 2023-09-22 16:27:42.631
142.0, 26200.603091788664, 12646.125274434718, -36453.99647402722, -62921.45704286779, -187500.02235174447, 7732.742456524666, -122331.29856959564, -187500.02235174447, -39097.53729075638, 6485.3810054518, -6089.866887315141, -69791.44451516206, 1887.9624471619663, -20788.776372525263, -6220.758702845419, 7870.831533769552, -0.042, 0.974, 0.252, 192.0, 127.0, 88.0, 15.0, 56.0, 3.5, 112.0, 0.0, 0.0, 0.0, 1.695418062631981E9, 0.0, 2023-09-22 16:27:42.631
144.0, 26203.55352205676, 12649.656850058658, -36464.18886949884, -62921.5017463567, -187500.02235174447, 7781.4692594372345, -122255.34734193652, -187500.02235174447, -39113.854064208754, 6482.452926928155, -6045.409267593535, -69804.36382345723, 1883.5144500153604, -20743.469386514353, -6214.410807420112, 7923.201671028337, -0.042, 0.974, 0.252, 192.0, 0.0, 0.0, 0.0, 0.0, 0.0, 0.0, 0.0, 0.0, 0.0, 1.695418062631984E9, 0.0, 2023-09-22 16:27:42.631
146.0, 26209.744955270882, 12654.50717860546, -36448.76616582467, -62910.728205529245, -187500.02235174447, 7730.52963382359, -122354.8349565071, -187500.02235174447, -39096.330296555796, 6500.289619003489, -6084.189544223493, -69781.83326504627, 1889.7282349739355, -20781.44500034392, -6223.262098224413, 7873.737260548743, -0.042, 0.974, 0.252, 192.0, 0.0, 0.0, 0.0, 0.0, 0.0, 0.0, 0.0, 0.0, 0.0, 1.695418062631987E9, 0.0, 2023-09-22 16:27:42.631
148.0, 26189.94130968348, 12630.210832382541, -36470.961448068796, -62932.27528718416, -187500.02235174447, 7787.772451373631, -122255.74967333672, -187500.02235174447, -39111.97651767451, 6484.419880440221, -6060.854323012152, -69798.73118385448, 1888.0518541397876, -20757.64039249902, -6204.08430148176, 7907.242525487248, -0.042, 0.974, 0.252, 192.0, 0.0, 0.0, 0.0, 0.0, 0.0, 0.0, 0.0, 0.0, 0.0, 1.69541806263199E9, 0.0, 2023-09-22 16:27:42.631
150.0, 26200.737202255394, 12642.347829621773, -36459.36089269649, -62915.10914744248, -187500.02235174447, 7735.782293770587, -122356.42193036342, -187500.02235174447, -39113.69760199757, 6482.8776100728055, -6074.801811552265, -69803.29093972337, 1876.1607260895642, -20784.954224223402, -6231.889871584162, 7888.757632822709, -0.042, 0.974, 0.252, 192.0, 0.0, 0.0, 0.0, 0.0, 0.0, 0.0, 0.0, 0.0, 0.0, 1.695418062692257E9, 0.0, 2023-09-22 16:27:42.692
152.0, 26187.437914304486, 12629.294410859873, -36468.301590478615, -62926.508537114685, -187500.02235174447, 7793.516849698645, -122260.10826350549, -187500.02235174447, -39115.99983167647, 6478.295502459468, -6065.235264925393, -69810.06351829333, 1885.4814035274273, -20767.47516005935, -6207.481766638967, 7907.957781309818, -0.04, 0.972, 0.252, 192.0, 127.0, 96.0, 15.0, 48.0, 3.5, 112.0, 0.0, 0.0, 0.0, 1.695418062692268E9, 0.0, 2023-09-22 16:27:42.692
154.0, 26182.408771802042, 12624.511137546437, -36471.49788993572, -62926.7544063037, -187500.02235174447, 7750.132113710894, -122358.83591876458, -187500.02235174447, -39123.26414862444, 6466.0914499868695, -6069.280930671804, -69818.26660850842, 1868.0246911078325, -20773.77835199575, -6233.074514040293, 7909.030665043672, -0.04, 0.972, 0.252, 192.0, 0.0, 0.0, 0.0, 0.0, 0.0, 0.0, 0.0, 0.0, 0.0, 1.695418062692272E9, 0.0, 2023-09-22 16:27:42.692
156.0, 26171.88110016359, 12612.172974607109, -36476.97406732727, -62941.26068845519, -187500.02235174447, 7810.012437106662, -122256.88961230393, -187500.02235174447, -39124.426439336115, 6465.331490675389, -6072.790154551287, -69822.22286727701, 1879.2899703133073, -20764.927061191447, -6210.454548651523, 7925.414493729412, -0.04, 0.972, 0.252, 192.0, 0.0, 0.0, 0.0, 0.0, 0.0, 0.0, 0.0, 0.0, 0.0, 1.695418062692275E9, 0.0, 2023-09-22 16:27:42.692
158.0, 26199.46315282144, 12643.353658122262, -36454.89054380543, -62910.1470601734, -187500.02235174447, 7749.573320099512, -122388.7425528458, -187500.02235174447, -39114.4799130535, 6472.528752389998, -6061.6589858125435, -69812.09752703876, 1875.557228989271, -20778.11459042008, -6227.218356993003, 7938.982002613784, -0.04, 0.972, 0.252, 192.0, 0.0, 0.0, 0.0, 0.0, 0.0, 0.0, 0.0, 0.0, 0.0, 1.695418062692278E9, 0.0, 2023-09-22 16:27:42.692
160.0, 26200.08900166619, 12641.386704610195, -36448.47559314675, -62914.59505732001, -187500.02235174447, 7791.2146200197485, -122314.24418857625, -187500.02235174447, -39109.16019787314, 6474.920389046716, -6086.380015180113, -69806.9789775585, 1894.42210130955, -20781.512055577285, -6201.111519469205, 7918.217232014804, -0.04, 0.972, 0.252, 192.0, 0.0, 0.0, 0.0, 0.0, 0.0, 0.0, 0.0, 0.0, 0.0, 1.695418062692282E9, 0.0, 2023-09-22 16:27:42.692
162.0, 26220.00440597587, 12661.995012997988, -36431.1976946828, -62893.2938448541, -187500.02235174447, 7725.299325621048, -122446.9017919185, -187500.02235174447, -39085.422645261606, 6495.171069523224, -6073.170134207026, -69784.35901216972, 1903.1392816471198, -20785.40125911251, -6202.60908634771, 7921.257069260725, -0.042, 0.968, 0.258, 192.0, 127.0, 88.0, 15.0, 32.0, 4.0, 8.0, 0.0, 0.0, 0.0, 1.695418062692285E9, 0.0, 2023-09-22 16:27:42.692
164.0, 26182.475827035407, 12622.722997990013, -36468.2568869897, -62939.852528554504, -187500.02235174447, 7778.87645708042, -122350.96810471632, -187500.02235174447, -39098.85604367925, 6480.553028649453, -6098.628771141622, -69800.2734542219, 1903.7204270029579, -20790.609215570596, -6194.093071710238, 7889.048205500628, -0.042, 0.968, 0.258, 192.0, 0.0, 0.0, 0.0, 0.0, 0.0, 0.0, 0.0, 0.0, 0.0, 1.695418062752309E9, 0.0, 2023-09-22 16:27:42.752
166.0, 26203.687632523495, 12645.342963378784, -36464.43473868784, -62914.97503697575, -187500.02235174447, 7744.231253174693, -122444.66661747298, -187500.02235174447, -39120.96191894554, 6460.9281970176935, -6045.8115989937305, -69820.54648644286, 1871.913894643056, -20774.717125262872, -6231.554595417332, 7942.424171259901, -0.042, 0.968, 0.258, 192.0, 0.0, 0.0, 0.0, 0.0, 0.0, 0.0, 0.0, 0.0, 0.0, 1.695418062752324E9, 0.0, 2023-09-22 16:27:42.752
168.0, 26192.377649829108, 12630.009666682443, -36458.578581640555, -62932.945839517815, -187500.02235174447, 7776.685986123799, -122381.56764287564, -187500.02235174447, -39097.13495935619, 6481.0000635385595, -6099.835765342208, -69800.04993677734, 1900.9488106904998, -20805.69664307793, -6197.646999078632, 7883.147344964426, -0.042, 0.968, 0.258, 192.0, 0.0, 0.0, 0.0, 0.0, 0.0, 0.0, 0.0, 0.0, 0.0, 1.695418062752328E9, 0.0, 2023-09-22 16:27:42.752
170.0, 26206.213379646946, 12646.818178512834, -36462.71365436479, -62915.86910675396, -187500.02235174447, 7746.377020642402, -122463.84441421562, -187500.02235174447, -39115.99983167647, 6457.3742696493, -6041.34125010267, -69815.67380615161, 1879.5134877578603, -20765.597613525108, -6224.379685447179, 7940.5242729812, -0.042, 0.968, 0.258, 192.0, 0.0, 0.0, 0.0, 0.0, 0.0, 0.0, 0.0, 0.0, 0.0, 1.695418062752331E9, 0.0, 2023-09-22 16:27:42.752
172.0, 26176.507911265842, 12616.710378731535, -36477.13052953846, -62947.65328736941, -187500.02235174447, 7780.239913492193, -122401.01366055175, -187500.02235174447, -39121.274843367915, 6458.916540016716, -6095.566582151245, -69821.84288762127, 1883.4473947819943, -20796.35361389561, -6216.735388843464, 7889.964627023295, -0.042, 0.972, 0.252, 192.0, 127.0, 88.0, 15.0, 48.0, 3.5, 112.0, 0.0, 0.0, 0.0, 1.695418062752334E9, 0.0, 2023-09-22 16:27:42.752
174.0, 26222.48544961041, 12664.856036288267, -36447.00037801271, -62894.83611522152, -187500.02235174447, 7745.460599119735, -122477.52368182228, -187500.02235174447, -39119.59846253377, 6453.641528325264, -6040.558939046734, -69819.6300649202, 1881.2569238253743, -20773.286613617733, -6228.13477851567, 7953.264767320725, -0.042, 0.972, 0.252, 192.0, 0.0, 0.0, 0.0, 0.0, 0.0, 0.0, 0.0, 0.0, 0.0, 1.695418062752338E9, 0.0, 2023-09-22 16:27:42.752
176.0, 26183.86163519164, 12628.534451548392, -36464.2559247322, -62934.39870290741, -187500.02235174447, 7761.017413260629, -122453.56261176617, -187500.02235174447, -39108.556700772846, 6468.304272687945, -6116.912498106062, -69808.63300664819, 1900.0100374233768, -20809.563494868697, -6207.213545705503, 7870.876237258463, -0.042, 0.972, 0.252, 192.0, 0.0, 0.0, 0.0, 0.0, 0.0, 0.0, 0.0, 0.0, 0.0, 1.695418062752341E9, 0.0, 2023-09-22 16:27:42.752
178.0, 26208.80618200376, 12653.322536149328, -36456.6563316174, -62910.3482258735, -187500.02235174447, 7753.373116656914, -122490.53239709526, -187500.02235174447, -39120.96191894554, 6462.112839473825, -6051.064258940728, -69815.51734394042, 1885.5037552718825, -20768.883319960038, -6221.697476112542, 7944.3017177941465, -0.042, 0.972, 0.252, 192.0, 0.0, 0.0, 0.0, 0.0, 0.0, 0.0, 0.0, 0.0, 0.0, 1.695418062752344E9, 0.0, 2023-09-22 16:27:42.752
180.0, 26196.244501619876, 12636.514024318938, -36453.01299727118, -62926.307371414594, -187500.02235174447, 7753.529578868101, -122495.06980121968, -187500.02235174447, -39118.07854391081, 6464.593883108364, -6104.663742144554, -69814.15388752865, 1886.1966593499972, -20807.015396000792, -6221.764531345908, 7881.582722852555, -0.042, 0.972, 0.252, 192.0, 0.0, 0.0, 0.0, 0.0, 0.0, 0.0, 0.0, 0.0, 0.0, 1.695418062811915E9, 0.0, 2023-09-22 16:27:42.811
182.0, 26187.169693371023, 12625.8298904693, -36473.88952659244, -62938.064388998086, -187500.02235174447, 7776.909503568352, -122483.80452201421, -187500.02235174447, -39123.375907346715, 6456.100220215348, -6036.513273300323, -69821.48525971, 1884.3191128157514, -20762.066037901168, -6212.197984719037, 7953.600043487555, -0.05, 0.972, 0.252, 192.0, 127.0, 56.0, 15.0, 48.0, 3.5, 112.0, 0.0, 0.0, 0.0, 1.695418062811927E9, 0.0, 2023-09-22 16:27:42.811
184.0, 26202.726507511918, 12640.40322785416, -36451.35896818149, -62920.18299343384, -187500.02235174447, 7756.904692280852, -122529.49148768086, -187500.02235174447, -39131.355480117265, 6448.388868378266, -6085.888276802097, -69829.21896329153, 1867.1753248185307, -20802.813268043195, -6232.158092517626, 7909.008313299217, -0.05, 0.972, 0.252, 192.0, 0.0, 0.0, 0.0, 0.0, 0.0, 0.0, 0.0, 0.0, 0.0, 1.695418062811936E9, 0.0, 2023-09-22 16:27:42.811
186.0, 26198.05499292076, 12636.916355719133, -36468.0557212896, -62930.420092394364, -187500.02235174447, 7786.073718795028, -122502.28941467874, -187500.02235174447, -39111.97651767451, 6474.205133224146, -6042.660003025532, -69809.7282421265, 1893.7291972314356, -20758.780331466238, -6196.127080455671, 7955.768162699719, -0.05, 0.972, 0.252, 192.0, 0.0, 0.0, 0.0, 0.0, 0.0, 0.0, 0.0, 0.0, 0.0, 1.695418062811941E9, 0.0, 2023-09-22 16:27:42.811
188.0, 26179.257175833845, 12618.029131654399, -36480.84091911804, -62948.36854319198, -187500.02235174447, 7769.958111042752, -122540.95793258643, -187500.02235174447, -39135.758773774956, 6441.9068624862275, -6076.7464133198755, -69828.88368712469, 1862.526161971827, -20795.168971439478, -6233.052162295838, 7921.771159383197, -0.05, 0.972, 0.252, 192.0, 0.0, 0.0, 0.0, 0.0, 0.0, 0.0, 0.0, 0.0, 0.0, 1.695418062811944E9, 0.0, 2023-09-22 16:27:42.811
190.0, 26220.026757720323, 12658.441085629593, -36451.582485626044, -62904.290903126115, -187500.02235174447, 7791.8628206089525, -122505.75393506933, -187500.02235174447, -39128.09212542679, 6450.869912012806, -6031.886462198075, -69818.3336637418, 1874.5066969998716, -20763.34008733512, -6222.680952868575, 7985.026596191717, -0.05, 0.972, 0.252, 192.0, 0.0, 0.0, 0.0, 0.0, 0.0, 0.0, 0.0, 0.0, 0.0, 1.695418062811948E9, 0.0, 2023-09-22 16:27:42.811
192.0, 26212.9859582169, 12652.853149515766, -36441.68066283234, -62911.37640611845, -187500.02235174447, 7730.9319652237855, -122614.18224742202, -187500.02235174447, -39082.24869754895, 6494.053482300459, -6097.891163574596, -69779.0169452449, 1911.655296284592, -20808.200038456922, -6197.423481634079, 7902.258086473715, -0.052000000000000005, 0.974, 0.258, 192.0, 127.0, 48.0, 15.0, 56.0, 4.0, 8.0, 0.0, 0.0, 0.0, 1.695418062811951E9, 0.0, 2023-09-22 16:27:42.811
194.0, 26209.09675468168, 12646.639364557192, -36452.275389704155, -62915.26560965367, -187500.02235174447, 7773.199113988771, -122548.2222495344, -187500.02235174447, -39109.78604671789, 6467.276092443, -6059.177942178005, -69806.64370139167, 1895.0926536432094, -20772.236081628333, -6196.998798489428, 7945.285194550181, -0.052000000000000005, 0.974, 0.258, 192.0, 0.0, 0.0, 0.0, 0.0, 0.0, 0.0, 0.0, 0.0, 0.0, 1.695418062871568E9, 0.0, 2023-09-22 16:27:42.871
196.0, 26191.081248650702, 12628.422692826116, -36462.66895087587, -62930.218926694266, -187500.02235174447, 7735.089389692473, -122630.76724180786, -187500.02235174447, -39114.859892709246, 6467.276092443, -6083.273122700825, -69810.53290492689, 1880.9216476585445, -20793.78316328325, -6218.165900488603, 7912.539888923156, -0.052000000000000005, 0.974, 0.258, 192.0, 0.0, 0.0, 0.0, 0.0, 0.0, 0.0, 0.0, 0.0, 0.0, 1.695418062871591E9, 0.0, 2023-09-22 16:27:42.871
198.0, 26198.211455131943, 12633.384780095193, -36457.46099441779, -62924.31806615807, -187500.02235174447, 7790.387605474903, -122528.73152836938, -187500.02235174447, -39129.96967196103, 6449.886435256772, -6052.584177563689, -69825.70973941205, 1874.3055312997737, -20767.430456570444, -6208.286429439358, 7959.992642401772, -0.052000000000000005, 0.974, 0.258, 192.0, 0.0, 0.0, 0.0, 0.0, 0.0, 0.0, 0.0, 0.0, 0.0, 1.695418062871595E9, 0.0, 2023-09-22 16:27:42.871
200.0, 26193.361126585143, 12629.339114348784, -36458.712692107285, -62926.48618537023, -187500.02235174447, 7743.404238629847, -122629.4931923739, -187500.02235174447, -39114.09993339777, 6460.861141784328, -6069.124468460616, -69810.04116654888, 1877.814755179257, -20788.552855080707, -6217.7412173439525, 7938.445560746856, -0.052000000000000005, 0.974, 0.258, 192.0, 0.0, 0.0, 0.0, 0.0, 0.0, 0.0, 0.0, 0.0, 0.0, 1.695418062871598E9, 0.0, 2023-09-22 16:27:42.871
202.0, 26197.339737098187, 12633.608297539748, -36453.9070670494, -62925.77092954767, -187500.02235174447, 7808.872498139442, -122518.60618813112, -187500.02235174447, -39132.808343506855, 6449.417048623211, -6049.4549333399455, -69826.64851267917, 1871.8244876652348, -20770.380886838542, -6207.593525361243, 7970.34150008458, -0.058, 0.978, 0.26, 192.0, 127.0, 24.0, 15.0, 72.0, 4.0, 16.0, 0.0, 0.0, 0.0, 1.695418062871602E9, 0.0, 2023-09-22 16:27:42.871
204.0, 26234.465984638453, 12675.897798049189, -36419.977118966235, -62887.32592908454, -187500.02235174447, 7729.3449913674585, -122663.22197475696, -187500.02235174447, -39098.81134019033, 6481.581208894398, -6061.502523601356, -69788.18116047158, 1890.6670082410585, -20791.324471393167, -6206.8782695386735, 7948.3473835405575, -0.058, 0.978, 0.26, 192.0, 0.0, 0.0, 0.0, 0.0, 0.0, 0.0, 0.0, 0.0, 0.0, 1.695418062871606E9, 0.0, 2023-09-22 16:27:42.871
206.0, 26210.259045393355, 12650.953251237066, -36444.83225880054, -62916.89728699891, -187500.02235174447, 7777.915332068841, -122570.35047654517, -187500.02235174447, -39107.66263099464, 6479.1225170043135, -6077.886352287096, -69795.46782916402, 1896.8584414551785, -20786.58590156864, -6182.805440760308, 7926.532080952178, -0.058, 0.978, 0.26, 192.0, 0.0, 0.0, 0.0, 0.0, 0.0, 0.0, 0.0, 0.0, 0.0, 1.695418062871609E9, 0.0, 2023-09-22 16:27:42.871
208.0, 26227.358129901666, 12668.186446212107, -36433.38816563942, -62894.21026637677, -187500.02235174447, 7723.287668620071, -122699.27533856337, -187500.02235174447, -39105.829787949304, 6476.3061972029445, -6054.461724097935, -69792.472695407, 1882.687435470514, -20777.242872386323, -6211.683894596565, 7940.814845659119, -0.058, 0.978, 0.26, 192.0, 0.0, 0.0, 0.0, 0.0, 0.0, 0.0, 0.0, 0.0, 0.0, 1.695418062871614E9, 0.0, 2023-09-22 16:27:42.871
210.0, 26199.440801076988, 12637.78807375289, -36455.292875205625, -62928.676656326854, -187500.02235174447, 7779.971692558729, -122584.186206363, -187500.02235174447, -39113.384677575195, 6466.963168020627, -6080.702672088465, -69800.45226817754, 1889.4376622960167, -20779.858026487593, -6192.595504831732, 7917.457272703323, -0.058, 0.978, 0.26, 192.0, 0.0, 0.0, 0.0, 0.0, 0.0, 0.0, 0.0, 0.0, 0.0, 1.695418062931861E9, 0.0, 2023-09-22 16:27:42.931
212.0, 26204.80521974626, 12644.493597089482, -36461.707825864294, -62922.50757485719, -187500.02235174447, 7743.895977007864, -122659.44452994401, -187500.02235174447, -39124.717012014036, 6453.261548669523, -6036.133293644583, -69808.5212479259, 1864.5378189728046, -20769.039782171225, -6226.100769770238, 7961.914892424928, -0.056, 0.978, 0.26, 192.0, 127.0, 32.0, 15.0, 72.0, 4.0, 16.0, 0.0, 0.0, 0.0, 1.695418062931873E9, 0.0, 2023-09-22 16:27:42.931
214.0, 26210.37080411563, 12648.494559346982, -36441.90418027689, -62915.399720120404, -187500.02235174447, 7776.1271925124165, -122577.50303477085, -187500.02235174447, -39123.95705270256, 6456.547255104453, -6074.846515041175, -69814.39975671766, 1871.6680254540474, -20788.284634147243, -6212.42150216359, 7930.734208909776, -0.056, 0.978, 0.26, 192.0, 0.0, 0.0, 0.0, 0.0, 0.0, 0.0, 0.0, 0.0, 0.0, 1.695418062931877E9, 0.0, 2023-09-22 16:27:42.931
216.0, 26234.555391616275, 12675.584873626814, -36432.091764461016, -62886.9906529177, -187500.02235174447, 7724.33820060947, -122680.29870752082, -187500.02235174447, -39103.68402048159, 6474.0710227574145, -6047.130351916594, -69793.47852390748, 1886.9789704059328, -20771.96786069487, -6203.391397403646, 7951.566034742122, -0.056, 0.978, 0.26, 192.0, 0.0, 0.0, 0.0, 0.0, 0.0, 0.0, 0.0, 0.0, 0.0, 1.69541806293188E9, 0.0, 2023-09-22 16:27:42.931
218.0, 26220.160868187057, 12657.859940273756, -36428.515485348165, -62903.91092347037, -187500.02235174447, 7743.292479907571, -122636.55634362178, -187500.02235174447, -39096.7773314449, 6473.534580890487, -6106.608343912166, -69788.4270296606, 1903.1169299026647, -20796.577131340164, -6184.526525083366, 7885.159001965404, -0.056, 0.978, 0.26, 192.0, 0.0, 0.0, 0.0, 0.0, 0.0, 0.0, 0.0, 0.0, 0.0, 1.695418062931884E9, 0.0, 2023-09-22 16:27:42.931
220.0, 26217.031623963314, 12656.407076884161, -36441.97123551026, -62903.82151649255, -187500.02235174447, 7719.554927296034, -122700.05764961931, -187500.02235174447, -39105.40510480465, 6466.180856964691, -6050.460761840434, -69801.43574493358, 1890.9128774300668, -20759.428532055445, -6196.238839177948, 7934.71281942282, -0.056, 0.978, 0.26, 192.0, 0.0, 0.0, 0.0, 0.0, 0.0, 0.0, 0.0, 0.0, 0.0, 1.695418062931888E9, 0.0, 2023-09-22 16:27:42.931
222.0, 26198.90435921006, 12635.329381862806, -36447.22389545726, -62928.69900807131, -187500.02235174447, 7743.180721185294, -122659.73510262194, -187500.02235174447, -39115.30692759835, 6448.768848034007, -6102.026236298828, -69812.6786723946, 1884.1850023490194, -20799.080526719157, -6208.532298628366, 7882.968531008784, -0.05, 0.982, 0.26, 192.0, 127.0, 56.0, 15.0, 88.0, 4.0, 16.0, 0.0, 0.0, 0.0, 1.695418062931892E9, 0.0, 2023-09-22 16:27:42.931
224.0, 26215.690519295993, 12654.21660592754, -36447.44741290181, -62912.76221427468, -187500.02235174447, 7730.999020457151, -122706.94198691154, -187500.02235174447, -39120.023145678424, 6442.957394475627, -6038.48022681239, -69816.97020733001, 1879.3570255466732, -20762.803645468193, -6219.372894689191, 7950.090819608072, -0.05, 0.982, 0.26, 192.0, 0.0, 0.0, 0.0, 0.0, 0.0, 0.0, 0.0, 0.0, 0.0, 1.695418062992261E9, 0.0, 2023-09-22 16:27:42.992
226.0, 26195.305728352756, 12636.558727807847, -36452.633017615444, -62932.878784284454, -187500.02235174447, 7734.999982714651, -122703.23159733196, -187500.02235174447, -39118.212654377545, 6453.462714369621, -6098.002922296872, -69808.25302699245, 1885.0343686383212, -20798.007642985303, -6207.101786983227, 7883.393214153435, -0.05, 0.982, 0.26, 192.0, 0.0, 0.0, 0.0, 0.0, 0.0, 0.0, 0.0, 0.0, 0.0, 1.695418062992274E9, 0.0, 2023-09-22 16:27:42.992
228.0, 26204.246426134876, 12647.22050991303, -36455.561096139085, -62915.24325790921, -187500.02235174447, 7736.855177504442, -122718.25196960593, -187500.02235174447, -39131.86957023973, 6438.375286862289, -6036.245052366859, -69822.84871612176, 1872.427984765528, -20752.72300871885, -6214.008476019916, 7952.214235331326, -0.05, 0.982, 0.26, 192.0, 0.0, 0.0, 0.0, 0.0, 0.0, 0.0, 0.0, 0.0, 0.0, 1.695418062992278E9, 0.0, 2023-09-22 16:27:42.992
230.0, 26207.196856402978, 12650.662678559147, -36435.645691829406, -62910.79526076261, -187500.02235174447, 7709.317828335504, -122761.01085674894, -187500.02235174447, -39122.07950616831, 6449.886435256772, -6106.16130902306, -69810.19762876006, 1880.3852057916172, -20795.347785395123, -6213.092054497249, 7878.0287954841615, -0.05, 0.982, 0.26, 192.0, 0.0, 0.0, 0.0, 0.0, 0.0, 0.0, 0.0, 0.0, 0.0, 1.695418062992281E9, 0.0, 2023-09-22 16:27:42.992
232.0, 26207.152152914066, 12651.690858804091, -36445.502811134196, -62914.10331894199, -187500.02235174447, 7735.514072837123, -122751.31019965533, -187500.02235174447, -39124.40408759166, 6457.262510927023, -6048.694974028465, -69809.01298630393, 1884.3191128157514, -20747.470348771854, -6199.859821779707, 7934.198729300348, -0.05, 0.978, 0.26, 192.0, 127.0, 56.0, 15.0, 72.0, 4.0, 16.0, 0.0, 0.0, 0.0, 1.695418062992284E9, 0.0, 2023-09-22 16:27:42.992
234.0, 26199.507856310353, 12643.376009866717, -36446.3521774235, -62923.647513824406, -187500.02235174447, 7720.8960319633525, -122796.25955775495, -187500.02235174447, -39127.37686960422, 6446.243100910557, -6092.4149861830465, -69810.86818109371, 1874.327883044229, -20775.007697940793, -6220.646944123143, 7886.410699654902, -0.05, 0.978, 0.26, 192.0, 0.0, 0.0, 0.0, 0.0, 0.0, 0.0, 0.0, 0.0, 0.0, 1.695418062992287E9, 0.0, 2023-09-22 16:27:42.992
236.0, 26210.66137679355, 12652.473169860026, -36452.36479668198, -62916.20438292079, -187500.02235174447, 7748.701602065755, -122767.35875217423, -187500.02235174447, -39132.42836385112, 6441.951565975138, -6042.749410003354, -69818.44542246406, 1876.8983336565893, -20740.697770201896, -6214.120234742193, 7949.688488207876, -0.05, 0.978, 0.26, 192.0, 0.0, 0.0, 0.0, 0.0, 0.0, 0.0, 0.0, 0.0, 0.0, 1.695418062992291E9, 0.0, 2023-09-22 16:27:42.992
238.0, 26196.1327428976, 12639.486806331493, -36454.46586066078, -62928.207269693296, -187500.02235174447, 7713.81052897102, -122845.67926474563, -187500.02235174447, -39129.54498881638, 6439.247004896046, -6093.599628639177, -69815.89732359616, 1870.9527696314776, -20786.362384124088, -6223.172691246592, 7890.836345057052, -0.05, 0.978, 0.26, 192.0, 0.0, 0.0, 0.0, 0.0, 0.0, 0.0, 0.0, 0.0, 0.0, 1.695418062992294E9, 0.0, 2023-09-22 16:27:42.992
240.0, 26190.388344572588, 12635.30703011835, -36469.44152944583, -62933.571688362565, -187500.02235174447, 7761.285634194092, -122782.24501398148, -187500.02235174447, -39147.44873612508, 6431.043914680948, -6050.170189162515, -69834.65043719417, 1864.940150373, -20749.81728193966, -6212.957944030517, 7951.3425172975685, -0.05, 0.978, 0.26, 192.0, 0.0, 0.0, 0.0, 0.0, 0.0, 0.0, 0.0, 0.0, 0.0, 1.69541806305252E9, 0.0, 2023-09-22 16:27:43.052
242.0, 26196.93740569799, 12644.203024411563, -36453.28121820465, -62920.87589751195, -187500.02235174447, 7709.720159735699, -122891.72385832356, -187500.02235174447, -39127.13100041521, 6449.215882923113, -6097.086500774205, -69811.3822712162, 1873.7020341994805, -20787.614081813586, -6223.798540091341, 7905.722606864287, -0.048, 0.984, 0.258, 192.0, 127.0, 64.0, 15.0, 96.0, 4.0, 8.0, 0.0, 0.0, 0.0, 1.695418063052532E9, 0.0, 2023-09-22 16:27:43.052
244.0, 26194.255196363356, 12640.380876109706, -36468.21218350079, -62927.603772593, -187500.02235174447, 7761.240930705182, -122812.46457248504, -187500.02235174447, -39156.165916462654, 6425.143054144747, -6067.850419026664, -69838.13730932919, 1862.2355892939079, -20753.192395352413, -6215.193118476048, 7949.397915529957, -0.048, 0.984, 0.258, 192.0, 0.0, 0.0, 0.0, 0.0, 0.0, 0.0, 0.0, 0.0, 0.0, 1.695418063052535E9, 0.0, 2023-09-22 16:27:43.052
246.0, 26197.317385353734, 12643.755989522457, -36452.38714842643, -62922.395816134915, -187500.02235174447, 7699.550116008534, -122936.9190856122, -187500.02235174447, -39124.82877073631, 6449.70762130113, -6103.009713054862, -69809.41531770413, 1878.1947348349972, -20788.977538225357, -6218.0317900218715, 7903.666246374399, -0.048, 0.984, 0.258, 192.0, 0.0, 0.0, 0.0, 0.0, 0.0, 0.0, 0.0, 0.0, 0.0, 1.695418063052538E9, 0.0, 2023-09-22 16:27:43.052
248.0, 26194.031678918804, 12640.760855765446, -36459.04796827411, -62928.2519731822, -187500.02235174447, 7757.597596358967, -122844.15934612267, -187500.02235174447, -39145.526486101924, 6432.116798414802, -6079.987416265895, -69829.64364643618, 1873.7020341994805, -20759.316773333165, -6205.961848016006, 7932.477644977289, -0.048, 0.984, 0.258, 192.0, 0.0, 0.0, 0.0, 0.0, 0.0, 0.0, 0.0, 0.0, 0.0, 1.695418063052541E9, 0.0, 2023-09-22 16:27:43.052
250.0, 26207.04039419179, 12657.256443173463, -36449.43671815834, -62911.95755147428, -187500.02235174447, 7701.517069520602, -122973.48653954107, -187500.02235174447, -39129.58969230529, 6451.56281609092, -6083.63075061211, -69809.19180025958, 1873.6796824550252, -20777.421686341964, -6226.905432570628, 7916.227926758281, -0.048, 0.984, 0.258, 192.0, 0.0, 0.0, 0.0, 0.0, 0.0, 0.0, 0.0, 0.0, 0.0, 1.695418063052545E9, 0.0, 2023-09-22 16:27:43.052
252.0, 26186.208568359445, 12633.720056262024, -36463.607724142996, -62935.76215931919, -187500.02235174447, 7760.615081860434, -122874.69182904862, -187500.02235174447, -39140.430288366115, 6441.817455508406, -6085.329483190713, -69820.81470737632, 1879.6028947356815, -20764.81530246917, -6207.079435238771, 7922.575822183589, -0.046, 0.984, 0.26, 192.0, 127.0, 72.0, 15.0, 96.0, 4.0, 16.0, 0.0, 0.0, 0.0, 1.695418063052548E9, 0.0, 2023-09-22 16:27:43.052
