%OpenBCI Raw EXG Data
%Number of channels = 16
%Sample Rate = 125 Hz
%Board = OpenBCI_GUI$BoardCytonSerialDaisy
Sample Index, EXG Channel 0, EXG Channel 1, EXG Channel 2, EXG Channel 3, EXG Channel 4, EXG Channel 5, EXG Channel 6, EXG Channel 7, EXG Channel 8, EXG Channel 9, EXG Channel 10, EXG Channel 11, EXG Channel 12, EXG Channel 13, EXG Channel 14, EXG Channel 15, Accel Channel 0, Accel Channel 1, Accel Channel 2, Other, Other, Other, Other, Other, Other, Other, Analog Channel 0, Analog Channel 1, Analog Channel 2, Timestamp, Other, Timestamp (Formatted)
0.0, 25786.000583887173, 10993.660806853868, -29253.717273916875, -61325.54248875887, -187500.02235174447, 6191.7908420313415, -107301.4268042358, -187500.02235174447, 0.0, 0.0, 0.0, 0.0, 0.0, 0.0, 0.0, 0.0, 0.0, 0.0, 0.0, 192.0, 0.0, 0.0, 0.0, 0.0, 0.0, 0.0, 0.0, 0.0, 0.0, 1.69541796028419E9, 0.0, 2023-09-22 16:26:00.284
86.0, 25797.39997355938, 11003.786147092122, -29232.036081795228, -61304.93418037107, -187500.02235174447, 6152.78704795683, -107366.40332536738, -187500.02235174447, -20021.284523163384, 16380.386517093959, 2870.545133417265, -69983.7142209666, 18465.312536396093, -14348.948222273377, -6207.861746294707, -36.3886399732399, -0.04, 0.47900000000000004, 0.152, 192.0, 126.5, 64.0, 14.5, 120.0, 4.5, 64.0, 0.0, 0.0, 0.0, 1.6954179602842E9, 0.0, 2023-09-22 16:26:00.284
88.0, 25790.090953122493, 11000.545144146103, -29247.45878546939, -61318.76991018891, -187500.02235174447, 6181.710205281997, -107297.1799727893, -187500.02235174447, -20033.73444482499, 16367.891891943444, 2839.923243513494, -69991.73849722606, 18462.295050894627, -14364.8403125811, -6198.4293101345675, 14.752151340502662, -0.04, 0.47900000000000004, 0.152, 192.0, 0.0, 0.0, 0.0, 0.0, 0.0, 0.0, 0.0, 0.0, 0.0, 1.695417960284204E9, 0.0, 2023-09-22 16:26:00.284
90.0, 25771.00256335766, 10983.110783470964, -29261.205108309405, -61328.0235323934, -187500.02235174447, 6153.45760029049, -107362.64823229889, -187500.02235174447, -20038.38360767169, 16368.33892683255, 2879.955217832949, -69989.65978499172, 18448.88400422144, -14350.244623451785, -6217.070665010294, -28.096142780320978, -0.04, 0.47900000000000004, 0.152, 192.0, 0.0, 0.0, 0.0, 0.0, 0.0, 0.0, 0.0, 0.0, 0.0, 1.695417960284207E9, 0.0, 2023-09-22 16:26:00.284
92.0, 25778.5351012391, 10993.347882431493, -29255.438358239935, -61323.24025907997, -187500.02235174447, 6194.60716183271, -107270.6261003764, -187500.02235174447, -20067.239709763493, 16340.935688130343, 2839.1185807131033, -70016.90656148274, 18429.683855734333, -14355.854911310067, -6226.503101170433, 29.59370965882655, -0.04, 0.47900000000000004, 0.152, 192.0, 0.0, 0.0, 0.0, 0.0, 0.0, 0.0, 0.0, 0.0, 0.0, 1.695417960284211E9, 0.0, 2023-09-22 16:26:00.284
94.0, 25789.19688334428, 10998.242914467206, -29250.588029693132, -61316.95941888803, -187500.02235174447, 6152.272957834359, -107354.42279033933, -187500.02235174447, -20048.173671743116, 16354.391438292438, 2871.126278773103, -70002.73555549807, 18444.190137885827, -14344.32141117113, -6225.631383136676, -9.633601860237343, -0.04, 0.47900000000000004, 0.152, 192.0, 0.0, 0.0, 0.0, 0.0, 0.0, 0.0, 0.0, 0.0, 0.0, 1.695417960284214E9, 0.0, 2023-09-22 16:26:00.284
96.0, 25790.02389788913, 11001.372158690949, -29256.153614062503, -61323.68729396907, -187500.02235174447, 6185.375891372668, -107263.49589389515, -187500.02235174447, -20039.367084427726, 16368.137761132451, 2810.575403043676, -69992.1184768818, 18458.27173689267, -14368.8412748386, -6201.55855435831, 12.606383872793183, -0.063, 0.7195, 0.22299999999999998, 192.0, 126.5, 40.0, 15.0, 0.0, 4.5, 24.0, 0.0, 0.0, 0.0, 1.695417960284217E9, 0.0, 2023-09-22 16:26:00.284
98.0, 25792.66140373485, 11008.189440749818, -29259.46167224189, -61325.028398636394, -187500.02235174447, 6149.277824077347, -107341.68229599981, -187500.02235174447, -20039.43413966109, 16369.300051844128, 2858.7210606004073, -69984.65299423374, 18452.46028333429, -14342.913251270444, -6226.570156403799, -5.967915769566986, -0.063, 0.7195, 0.22299999999999998, 192.0, 0.0, 0.0, 0.0, 0.0, 0.0, 0.0, 0.0, 0.0, 0.0, 1.695417960284221E9, 0.0, 2023-09-22 16:26:00.284
100.0, 25765.72755166621, 10984.138963715908, -29281.902823675016, -61353.95155596156, -187500.02235174447, 6207.101786983227, -107206.81186995648, -187500.02235174447, -20081.20955004806, 16330.81034789209, 2807.8261384756734, -70024.26028540854, 18417.07747186154, -14345.684867582902, -6249.23482528148, 27.62675614675953, -0.063, 0.7195, 0.22299999999999998, 192.0, 0.0, 0.0, 0.0, 0.0, 0.0, 0.0, 0.0, 0.0, 0.0, 1.695417960284226E9, 0.0, 2023-09-22 16:26:00.284
102.0, 25777.10458959396, 10995.538353388114, -29277.49953001732, -61344.69793375707, -187500.02235174447, 6170.17670514306, -107294.65422566584, -187500.02235174447, -20060.757703871455, 16347.261231811195, 2845.153551716036, -70000.00864267453, 18433.5507075251, -14333.324352899117, -6252.028793338393, 13.70161935110323, -0.063, 0.7195, 0.22299999999999998, 192.0, 0.0, 0.0, 0.0, 0.0, 0.0, 0.0, 0.0, 0.0, 0.0, 1.695417960284231E9, 0.0, 2023-09-22 16:26:00.284
0.0, 12921.476414379647, 5917.289068375715, -17460.73573359677, -31139.377491399944, -93750.01117587223, 5345.777314397969, -59547.34945861691, -93750.01117587223, -10044.18105413688, 8154.542226140765, 1400.0462174470686, -35014.72294506108, 9203.017855050308, -7168.472667750439, -3130.04888654338, -0.5364418669273695, -0.068, 0.974, 0.258, 192.0, 126.5, 112.0, 15.0, 56.0, 4.0, 8.0, 0.0, 0.0, 0.0, 1.695417960436033E9, 0.0, 2023-09-22 16:26:00.436
2.0, 25831.195811175803, 11822.53054649002, -34939.46462148007, -62291.6519393506, -187500.02235174447, 10744.304745710462, -119039.78068110714, -187500.02235174447, -34443.25589457225, 7184.454165035983, -7889.875220045474, -70046.030884508, 8570.93287359868, -17274.568054028518, -4391.4472331341785, 2451.718145813721, -0.068, 0.974, 0.258, 192.0, 0.0, 0.0, 0.0, 0.0, 0.0, 0.0, 0.0, 0.0, 0.0, 1.695417960436046E9, 0.0, 2023-09-22 16:26:00.436
4.0, 25834.21329667727, 11829.52664250453, -34932.98261558803, -62282.04068923482, -187500.02235174447, 10703.468108590616, -119154.0204470182, -187500.02235174447, -34444.86522017303, 7193.506621540382, -7909.053016788128, -70046.32145718593, 8558.795876359449, -17272.511693538632, -4418.001105547083, 2457.462544138735, -0.068, 0.974, 0.258, 192.0, 0.0, 0.0, 0.0, 0.0, 0.0, 0.0, 0.0, 0.0, 0.0, 1.695417960436049E9, 0.0, 2023-09-22 16:26:00.436
6.0, 25844.651561337898, 11833.549956506486, -34927.46173470756, -62276.296290909806, -187500.02235174447, 10738.783864830002, -119088.865111931, -187500.02235174447, -34446.07221437361, 7182.397804546095, -7902.302789962625, -70044.06393099594, 8572.452792221642, -17275.32801334, -4402.4219396617345, 2474.9639600472406, -0.068, 0.974, 0.258, 192.0, 0.0, 0.0, 0.0, 0.0, 0.0, 0.0, 0.0, 0.0, 0.0, 1.695417960436052E9, 0.0, 2023-09-22 16:26:00.436
8.0, 25839.55536360209, 11826.598563980886, -34938.592903446304, -62283.359442157685, -187500.02235174447, 10699.802422499946, -119202.63549120851, -187500.02235174447, -34439.43374627039, 7184.141240613609, -7903.465080674301, -70032.55278260146, 8566.663690407717, -17273.495170294664, -4410.625029876832, 2475.790974592087, -0.064, 0.984, 0.23800000000000002, 192.0, 127.0, 0.0, 15.0, 96.0, 3.5, 56.0, 0.0, 0.0, 0.0, 1.695417960436056E9, 0.0, 2023-09-22 16:26:00.436
10.0, 25854.642791109418, 11839.830796698428, -34929.942778342105, -62272.720011796955, -187500.02235174447, 10732.212451960142, -119140.54234511165, -187500.02235174447, -34449.53673476419, 7185.549400514294, -7904.917944063895, -70042.78988156198, 8565.769620629504, -17280.60302503145, -4404.657114107265, 2488.0620822980504, -0.064, 0.984, 0.23800000000000002, 192.0, 0.0, 0.0, 0.0, 0.0, 0.0, 0.0, 0.0, 0.0, 0.0, 1.695417960436059E9, 0.0, 2023-09-22 16:26:00.436
12.0, 25853.3016864421, 11839.696686231695, -34931.14977254269, -62271.35655538518, -187500.02235174447, 10690.034710172977, -119274.78692231023, -187500.02235174447, -34429.15194382095, 7201.66500826657, -7906.571973153588, -70022.2262766631, 8575.26911202301, -17280.84889422046, -4410.580326387922, 2490.1854980213047, -0.064, 0.984, 0.23800000000000002, 192.0, 0.0, 0.0, 0.0, 0.0, 0.0, 0.0, 0.0, 0.0, 0.0, 1.695417960436062E9, 0.0, 2023-09-22 16:26:00.436
14.0, 25842.662256081374, 11829.169014593246, -34935.15073480019, -62287.80743930429, -187500.02235174447, 10732.726542082613, -119205.54121798769, -187500.02235174447, -34451.10135687606, 7175.155839342576, -7924.14044429546, -70043.63924785129, 8567.714222397117, -17301.971292730726, -4410.602678132377, 2487.972675320229, -0.064, 0.984, 0.23800000000000002, 192.0, 0.0, 0.0, 0.0, 0.0, 0.0, 0.0, 0.0, 0.0, 0.0, 1.695417960436065E9, 0.0, 2023-09-22 16:26:00.436
16.0, 25843.3998636484, 11833.035866384014, -34938.52584821294, -62283.67236658006, -187500.02235174447, 10702.26111439003, -119313.99188208484, -187500.02235174447, -34454.74469122227, 7176.429888776528, -7904.761481852709, -70044.7344833296, 8557.521826925496, -17283.08406866599, -4428.282907996525, 2518.527509990634, -0.064, 0.984, 0.23800000000000002, 192.0, 0.0, 0.0, 0.0, 0.0, 0.0, 0.0, 0.0, 0.0, 0.0, 1.695417960496405E9, 0.0, 2023-09-22 16:26:00.496
18.0, 25827.57482857404, 11817.52375573203, -34950.39462451871, -62310.6062186487, -187500.02235174447, 10737.085132251399, -119242.01926493875, -187500.02235174447, -34458.70094999087, 7178.977987644433, -7941.820674159608, -70050.72475084361, 8565.16612352921, -17305.212295676745, -4420.549204414989, 2502.0319225826174, -0.064, 0.982, 0.23, 192.0, 127.0, 0.0, 15.0, 88.0, 3.5, 24.0, 0.0, 0.0, 0.0, 1.695417960496416E9, 0.0, 2023-09-22 16:26:00.496
20.0, 25850.418311407368, 11836.902718174782, -34943.04090059291, -62281.16897120106, -187500.02235174447, 10706.709111536637, -119351.38635055858, -187500.02235174447, -34460.86906920303, 7186.197601103498, -7909.120072021494, -70053.36225668935, 8555.778390857982, -17272.064658649524, -4443.482094226133, 2548.814123727575, -0.064, 0.982, 0.23, 192.0, 0.0, 0.0, 0.0, 0.0, 0.0, 0.0, 0.0, 0.0, 0.0, 1.69541796049642E9, 0.0, 2023-09-22 16:26:00.496
22.0, 25819.997587203692, 11802.503383458064, -34965.61616249278, -62315.38949196214, -187500.02235174447, 10740.750818342069, -119293.27181497477, -187500.02235174447, -34469.161566395946, 7174.999377131388, -7959.165627856926, -70061.40888469326, 8552.000946045035, -17311.582542846507, -4430.696896397698, 2519.6674489578545, -0.064, 0.982, 0.23, 192.0, 0.0, 0.0, 0.0, 0.0, 0.0, 0.0, 0.0, 0.0, 0.0, 1.695417960496423E9, 0.0, 2023-09-22 16:26:00.496
24.0, 25880.83903561104, 11867.524608078553, -34918.20811250307, -62248.60247952968, -187500.02235174447, 10708.45254760415, -119406.48340064091, -187500.02235174447, -34450.52021152022, 7186.063490636765, -7919.1783570263815, -70038.29718092647, 8561.545140927452, -17286.034498934092, -4436.798922633997, 2578.8325165310525, -0.064, 0.982, 0.23, 192.0, 0.0, 0.0, 0.0, 0.0, 0.0, 0.0, 0.0, 0.0, 0.0, 1.695417960496426E9, 0.0, 2023-09-22 16:26:00.496
26.0, 25855.626267865453, 11844.77053222305, -34923.55017942788, -62276.96684324346, -187500.02235174447, 10704.317474879917, -119408.38329891961, -187500.02235174447, -34418.24429252676, 7226.140168445131, -7980.310378111646, -70007.94351195617, 8598.09024311188, -17332.794348334595, -4396.901058781274, 2506.2116987957597, -0.064, 0.982, 0.23, 192.0, 0.0, 0.0, 0.0, 0.0, 0.0, 0.0, 0.0, 0.0, 0.0, 1.69541796049643E9, 0.0, 2023-09-22 16:26:00.496
28.0, 25847.244363694714, 11832.499424517087, -34954.261476309475, -62286.287520681326, -187500.02235174447, 10712.386454628284, -119461.98278212344, -187500.02235174447, -34460.82436571412, 7179.179153344531, -7913.322199979091, -70044.46626239613, 8562.21569326111, -17285.542760556076, -4426.4947684401, 2573.5575048396, -0.062, 0.99, 0.22, 192.0, 127.0, 8.0, 15.0, 120.0, 3.0, 112.0, 0.0, 0.0, 0.0, 1.695417960496433E9, 0.0, 2023-09-22 16:26:00.496
30.0, 25822.791555260606, 11805.00677883706, -34967.11372937128, -62316.30591348481, -187500.02235174447, 10720.544841354471, -119441.66504641356, -187500.02235174447, -34469.25097337377, 7194.825374463246, -7971.324976840613, -70059.01724803654, 8549.229329732578, -17313.303627169567, -4438.788227890519, 2543.4050015693906, -0.062, 0.99, 0.22, 192.0, 0.0, 0.0, 0.0, 0.0, 0.0, 0.0, 0.0, 0.0, 0.0, 1.695417960555789E9, 0.0, 2023-09-22 16:26:00.555
32.0, 25842.706959570285, 11823.692837201696, -34967.51606077147, -62292.501305639904, -187500.02235174447, 10736.392228173283, -119465.17908158054, -187500.02235174447, -34480.5386043237, 7153.899330365579, -7912.070502289594, -70061.43123643771, 8536.287669692954, -17270.678850493296, -4450.433486751734, 2627.4475607213453, -0.062, 0.99, 0.22, 192.0, 0.0, 0.0, 0.0, 0.0, 0.0, 0.0, 0.0, 0.0, 0.0, 1.695417960555803E9, 0.0, 2023-09-22 16:26:00.555
34.0, 25841.365854902968, 11824.72101744664, -34945.23137154953, -62292.9036370401, -187500.02235174447, 10718.443777375673, -119498.19260814102, -187500.02235174447, -34460.82436571412, 7189.148031371597, -7990.525125327722, -70038.20777394864, 8554.303175723931, -17306.866324766437, -4442.386858747824, 2577.647874074921, -0.062, 0.99, 0.22, 192.0, 0.0, 0.0, 0.0, 0.0, 0.0, 0.0, 0.0, 0.0, 0.0, 1.695417960555807E9, 0.0, 2023-09-22 16:26:00.555
36.0, 25851.222974207758, 11836.813311196962, -34943.24206629301, -62281.05721247879, -187500.02235174447, 10738.672106107726, -119502.57355005427, -187500.02235174447, -34467.59694428408, 7185.839973192213, -7938.356153769035, -70045.09211124088, 8556.44894319164, -17276.69146975177, -4426.584175417921, 2640.545682972155, -0.062, 0.99, 0.22, 192.0, 0.0, 0.0, 0.0, 0.0, 0.0, 0.0, 0.0, 0.0, 0.0, 1.695417960555811E9, 0.0, 2023-09-22 16:26:00.555
38.0, 25832.06752920956, 11814.193345808191, -34946.17014481666, -62303.16308774509, -187500.02235174447, 10716.0297889745, -119547.79112908735, -187500.02235174447, -34465.20530762736, 7181.70490046798, -8002.975046989328, -70048.40016942027, 8557.901806581236, -17313.057757980558, -4439.59289069091, 2593.070577749083, -0.064, 0.986, 0.214, 192.0, 127.0, 0.0, 15.0, 104.0, 3.0, 88.0, 0.0, 0.0, 0.0, 1.695417960555814E9, 0.0, 2023-09-22 16:26:00.555
40.0, 25842.237572936723, 11827.760854692562, -34951.37810127474, -62293.641244607126, -187500.02235174447, 10753.31249872595, -119523.42772763107, -187500.02235174447, -34480.560956068155, 7184.454165035983, -7942.804150915641, -70063.19702424968, 8543.954318041126, -17286.079202423003, -4440.330498257935, 2662.830372194096, -0.064, 0.986, 0.214, 192.0, 0.0, 0.0, 0.0, 0.0, 0.0, 0.0, 0.0, 0.0, 0.0, 1.695417960555817E9, 0.0, 2023-09-22 16:26:00.555
42.0, 25823.30564538308, 11806.414938737744, -34948.248857051, -62303.94539880102, -187500.02235174447, 10723.74114081158, -119594.41686802113, -187500.02235174447, -34472.670790275435, 7178.955635899978, -8001.164555688448, -70041.40407340576, 8555.331355968876, -17315.42704289282, -4440.084629068927, 2618.7303803837754, -0.064, 0.986, 0.214, 192.0, 0.0, 0.0, 0.0, 0.0, 0.0, 0.0, 0.0, 0.0, 0.0, 1.695417960555821E9, 0.0, 2023-09-22 16:26:00.555
44.0, 25832.715729798765, 11818.194308065691, -34957.748348444504, -62293.99887251841, -187500.02235174447, 10762.432010463717, -119548.81930933229, -187500.02235174447, -34494.28492716372, 7156.693298422492, -7952.124828353504, -70067.35444871837, 8539.819245316892, -17288.828466991006, -4440.9339953582285, 2683.684549770898, -0.064, 0.986, 0.214, 192.0, 0.0, 0.0, 0.0, 0.0, 0.0, 0.0, 0.0, 0.0, 0.0, 1.695417960555824E9, 0.0, 2023-09-22 16:26:00.555
46.0, 25833.654503065885, 11818.708398188162, -34949.031168106936, -62295.22821846345, -187500.02235174447, 10716.588582585882, -119652.73256930502, -187500.02235174447, -34474.39187459849, 7182.3307493127295, -8008.227706936325, -70051.37295143283, 8551.777428600482, -17323.540726130097, -4439.59289069091, 2642.512636484222, -0.064, 0.986, 0.214, 192.0, 0.0, 0.0, 0.0, 0.0, 0.0, 0.0, 0.0, 0.0, 0.0, 1.695417960615556E9, 0.0, 2023-09-22 16:26:00.615
48.0, 25854.463977153777, 11839.96490716516, -34934.614292933264, -62278.68792756653, -187500.02235174447, 10745.064705021943, -119615.76278397594, -187500.02235174447, -34468.66982801793, 7179.80500218928, -7979.505715311256, -70050.6353438658, 8567.803629374937, -17315.404691148364, -4417.844643335896, 2674.810907222141, -0.066, 0.988, 0.218, 192.0, 126.5, 120.0, 15.0, 112.0, 3.0, 104.0, 0.0, 0.0, 0.0, 1.695417960615574E9, 0.0, 2023-09-22 16:26:00.615
50.0, 25835.464994366765, 11823.089340101402, -34946.661883194676, -62288.34388117122, -187500.02235174447, 10702.417576601218, -119721.55359048292, -187500.02235174447, -34465.20530762736, 7201.597953033203, -8011.44635813789, -70041.62759085032, 8562.305100238931, -17316.36581615994, -4434.697858655198, 2644.0102033627277, -0.066, 0.988, 0.218, 192.0, 0.0, 0.0, 0.0, 0.0, 0.0, 0.0, 0.0, 0.0, 0.0, 1.695417960615582E9, 0.0, 2023-09-22 16:26:00.615
52.0, 25841.119985713958, 11827.537337248008, -34932.28971150991, -62276.65391882109, -187500.02235174447, 10743.544786398983, -119656.33120016233, -187500.02235174447, -34477.29760137768, 7166.595121216193, -7981.115040912037, -70051.12708224381, 8558.862931592814, -17307.827449778015, -4429.288736497014, 2682.7681282482304, -0.066, 0.988, 0.218, 192.0, 0.0, 0.0, 0.0, 0.0, 0.0, 0.0, 0.0, 0.0, 0.0, 1.695417960615585E9, 0.0, 2023-09-22 16:26:00.615
54.0, 25842.572849103555, 11832.789997195006, -34923.5948829168, -62268.42847686154, -187500.02235174447, 10687.196038627153, -119790.41931514972, -187500.02235174447, -34464.5347552937, 7184.6776824805365, -7998.102366698071, -70026.45075636516, 8568.675347408695, -17318.556287116564, -4427.344134729402, 2666.227837351303, -0.066, 0.988, 0.218, 192.0, 0.0, 0.0, 0.0, 0.0, 0.0, 0.0, 0.0, 0.0, 0.0, 1.695417960615589E9, 0.0, 2023-09-22 16:26:00.615
56.0, 25841.96935200326, 11829.213718082157, -34926.947644585096, -62278.75498279989, -187500.02235174447, 10733.352390927363, -119714.44573574612, -187500.02235174447, -34474.883612976504, 7189.125679627143, -7981.8079449901525, -70041.80640480595, 8571.670481165705, -17312.90129576937, -4405.193555974192, 2681.2482096252693, -0.066, 0.988, 0.218, 192.0, 0.0, 0.0, 0.0, 0.0, 0.0, 0.0, 0.0, 0.0, 0.0, 1.695417960615594E9, 0.0, 2023-09-22 16:26:00.615
58.0, 25847.199660205803, 11839.137892620312, -34925.4947811955, -62267.199130916495, -187500.02235174447, 10686.749003738047, -119847.14804257728, -187500.02235174447, -34460.57849652511, 7199.943923943511, -7979.9303984559065, -70025.60139007586, 8570.910521854224, -17303.67002530933, -4420.862128837362, 2686.612628294543, -0.058, 0.992, 0.214, 192.0, 127.0, 24.0, 15.5, 0.0, 3.0, 88.0, 0.0, 0.0, 0.0, 1.695417960615598E9, 0.0, 2023-09-22 16:26:00.615
60.0, 25818.20944764727, 11807.845450382883, -34951.69102569712, -62301.62081737767, -187500.02235174447, 10740.951984042167, -119746.83341346186, -187500.02235174447, -34486.88649974901, 7159.196693801487, -7983.640788035487, -70050.27771595451, 8556.180722258177, -17315.851726037472, -4416.212965990659, 2690.9488667188725, -0.058, 0.992, 0.214, 192.0, 0.0, 0.0, 0.0, 0.0, 0.0, 0.0, 0.0, 0.0, 0.0, 1.695417960675779E9, 0.0, 2023-09-22 16:26:00.675
62.0, 25848.004323006193, 11843.272965344546, -34927.77465912994, -62261.23121514693, -187500.02235174447, 10699.623608544303, -119864.85062418588, -187500.02235174447, -34485.00895321476, 7170.081993351221, -7971.883770451996, -70043.16986121773, 8550.436323933163, -17302.731252042206, -4445.002012849094, 2719.8943757884954, -0.058, 0.992, 0.214, 192.0, 0.0, 0.0, 0.0, 0.0, 0.0, 0.0, 0.0, 0.0, 0.0, 1.695417960675792E9, 0.0, 2023-09-22 16:26:00.675
64.0, 25838.48247986823, 11831.381837294322, -34925.114801539756, -62281.459543878984, -187500.02235174447, 10727.272716435518, -119795.8284373079, -187500.02235174447, -34469.519194307235, 7190.08680463872, -8009.144128458993, -70031.6810645677, 8577.83956263537, -17332.168499489846, -4401.773739072531, 2682.991645692783, -0.058, 0.992, 0.214, 192.0, 0.0, 0.0, 0.0, 0.0, 0.0, 0.0, 0.0, 0.0, 0.0, 1.695417960675796E9, 0.0, 2023-09-22 16:26:00.675
66.0, 25849.03250325114, 11844.189386867212, -34925.897112595696, -62268.383773372625, -187500.02235174447, 10696.337902109373, -119902.33449963744, -187500.02235174447, -34471.888479219495, 7181.369624301151, -7975.169476886926, -70032.7315965571, 8565.88137935178, -17308.877981767415, -4422.11382652686, 2712.004209995772, -0.058, 0.992, 0.214, 192.0, 0.0, 0.0, 0.0, 0.0, 0.0, 0.0, 0.0, 0.0, 0.0, 1.695417960675799E9, 0.0, 2023-09-22 16:26:00.675
68.0, 25843.176346203847, 11835.785130952017, -34918.29751948089, -62275.80455253179, -187500.02235174447, 10719.606068087349, -119844.15290882027, -187500.02235174447, -34471.329685608114, 7190.04210114981, -8018.710675085864, -70035.92789601421, 8574.285635266977, -17345.13251127392, -4404.143023984793, 2671.3910903204787, -0.052000000000000005, 0.986, 0.22, 192.0, 127.0, 48.0, 15.0, 104.0, 3.0, 112.0, 0.0, 0.0, 0.0, 1.695417960675802E9, 0.0, 2023-09-22 16:26:00.675
70.0, 25831.642846064908, 11828.81138668196, -34939.97871160254, -62283.24768343541, -187500.02235174447, 10713.034655217489, -119917.53368586705, -187500.02235174447, -34480.851528746076, 7180.766127200857, -7979.416308333434, -70034.40797739124, 8562.55096942794, -17304.161763687345, -4418.850471836385, 2711.065436728649, -0.052000000000000005, 0.986, 0.22, 192.0, 0.0, 0.0, 0.0, 0.0, 0.0, 0.0, 0.0, 0.0, 0.0, 1.695417960675805E9, 0.0, 2023-09-22 16:26:00.675
72.0, 25838.191907190314, 11829.951325649183, -34925.96416782906, -62283.337090413224, -187500.02235174447, 10738.493292152083, -119875.60181326889, -187500.02235174447, -34489.41224687246, 7171.713670696458, -8028.746608346297, -70043.10280598437, 8552.559739656417, -17319.67387433933, -4424.997201561595, 2688.7583957622523, -0.052000000000000005, 0.986, 0.22, 192.0, 0.0, 0.0, 0.0, 0.0, 0.0, 0.0, 0.0, 0.0, 0.0, 1.695417960675809E9, 0.0, 2023-09-22 16:26:00.675
74.0, 25830.63701756442, 11822.15056683428, -34950.48403149653, -62294.736480085434, -187500.02235174447, 10752.84311209239, -119920.57352311297, -187500.02235174447, -34496.073066720135, 7173.568865486249, -7972.286101852192, -70048.28841069799, 8548.514073910008, -17271.70703073824, -4432.373277231846, 2752.25970175978, -0.052000000000000005, 0.986, 0.22, 192.0, 0.0, 0.0, 0.0, 0.0, 0.0, 0.0, 0.0, 0.0, 0.0, 1.695417960675812E9, 0.0, 2023-09-22 16:26:00.675
76.0, 25824.15501167238, 11814.52862197502, -34946.840697150314, -62303.677177867554, -187500.02235174447, 10745.154111999764, -119908.68239506274, -187500.02235174447, -34502.219796445344, 7167.064507849755, -8040.816550352163, -70054.25632646756, 8541.227405217578, -17312.118984713434, -4444.085591326427, 2714.574660608132, -0.052000000000000005, 0.986, 0.22, 192.0, 0.0, 0.0, 0.0, 0.0, 0.0, 0.0, 0.0, 0.0, 0.0, 1.695417960736094E9, 0.0, 2023-09-22 16:26:00.736
78.0, 25808.978177187226, 11802.212810780145, -34970.17591836166, -62314.741291372935, -187500.02235174447, 10744.975298044123, -119949.34021822695, -187500.02235174447, -34512.434543661424, 7151.775914642324, -7995.598971319077, -70071.55657667597, 8536.131207481767, -17295.511638583142, -4442.811541892474, 2762.9885390983272, -0.054, 0.99, 0.218, 192.0, 127.0, 40.0, 15.0, 120.0, 3.0, 104.0, 0.0, 0.0, 0.0, 1.695417960736117E9, 0.0, 2023-09-22 16:26:00.736
80.0, 25786.96170889875, 11777.447077923665, -34972.4557962961, -62334.8131578938, -187500.02235174447, 10744.192986988186, -119941.47240417868, -187500.02235174447, -34520.45881992088, 7143.058734304755, -8062.587149451631, -70078.06093431247, 8532.957259769113, -17342.33854321701, -4452.020460608061, 2714.7087710748638, -0.054, 0.99, 0.218, 192.0, 0.0, 0.0, 0.0, 0.0, 0.0, 0.0, 0.0, 0.0, 0.0, 1.69541796073612E9, 0.0, 2023-09-22 16:26:00.736
82.0, 25828.848878007997, 11820.876517400327, -34945.186668060625, -62281.99598574591, -187500.02235174447, 10741.667239864737, -119972.16134931581, -187500.02235174447, -34516.97194778585, 7146.322088995229, -8009.725273814831, -70069.94725107518, 8536.086503992856, -17309.01209223415, -4441.269271525058, 2776.712510193886, -0.054, 0.99, 0.218, 192.0, 0.0, 0.0, 0.0, 0.0, 0.0, 0.0, 0.0, 0.0, 0.0, 1.695417960736123E9, 0.0, 2023-09-22 16:26:00.736
84.0, 25798.137581126404, 11791.57338041942, -34959.89411591222, -62317.17763151856, -187500.02235174447, 10725.395169901272, -119987.98638439017, -187500.02235174447, -34508.79120931521, 7152.267653020341, -8080.31208280469, -70065.29808822848, 8545.720105853094, -17349.71461888726, -4438.922338357251, 2708.718503560842, -0.054, 0.99, 0.218, 192.0, 0.0, 0.0, 0.0, 0.0, 0.0, 0.0, 0.0, 0.0, 0.0, 1.695417960736126E9, 0.0, 2023-09-22 16:26:00.736
86.0, 25818.991758703203, 11810.818232395439, -34951.959246630584, -62294.691776596526, -187500.02235174447, 10742.606013131859, -119974.59768946144, -187500.02235174447, -34521.73286935483, 7138.454274946961, -8018.509509385766, -70076.04927731148, 8535.438303403653, -17317.79632780508, -4440.68812616922, 2767.6600536894866, -0.054, 0.99, 0.218, 192.0, 0.0, 0.0, 0.0, 0.0, 0.0, 0.0, 0.0, 0.0, 0.0, 1.695417960736129E9, 0.0, 2023-09-22 16:26:00.736
88.0, 25811.369813843947, 11801.542258446487, -34943.1973628041, -62300.95026504401, -187500.02235174447, 10711.31357089443, -120018.78708824958, -187500.02235174447, -34497.43652313191, 7160.873074635634, -8075.394699024523, -70054.59160263439, 8553.386754201265, -17349.222880509245, -4437.380067989835, 2701.2083174238587, -0.052000000000000005, 0.982, 0.218, 192.0, 127.0, 48.0, 15.0, 88.0, 3.0, 104.0, 0.0, 0.0, 0.0, 1.695417960736133E9, 0.0, 2023-09-22 16:26:00.736
90.0, 25816.644825535397, 11808.694816672185, -34951.1992873191, -62298.022186520364, -187500.02235174447, 10749.736219613102, -119958.59384043144, -187500.02235174447, -34519.005956531284, 7149.004298329866, -8009.412349392456, -70073.45647495467, 8539.59572787234, -17310.956694001758, -4435.480169711133, 2755.0983733056037, -0.052000000000000005, 0.982, 0.218, 192.0, 0.0, 0.0, 0.0, 0.0, 0.0, 0.0, 0.0, 0.0, 0.0, 1.695417960795778E9, 0.0, 2023-09-22 16:26:00.795
92.0, 25807.30179635308, 11800.29056075699, -34946.3489587723, -62305.82294533527, -187500.02235174447, 10710.866536005324, -120016.79778299306, -187500.02235174447, -34495.53662485321, 7164.717574681947, -8061.827190140151, -70057.25146022456, 8543.239062218556, -17336.86236582546, -4442.766838403563, 2702.6164773245428, -0.052000000000000005, 0.982, 0.218, 192.0, 0.0, 0.0, 0.0, 0.0, 0.0, 0.0, 0.0, 0.0, 0.0, 1.695417960795807E9, 0.0, 2023-09-22 16:26:00.795
94.0, 25797.01999390364, 11789.829944351906, -34975.47328179757, -62324.7101694, -187500.02235174447, 10767.304690754974, -119916.93018876675, -187500.02235174447, -34531.32176772616, 7137.090818535187, -8005.9925324907945, -70088.32038501745, 8524.329486409366, -17311.71665331324, -4447.348946016901, 2753.578454682643, -0.052000000000000005, 0.982, 0.218, 192.0, 0.0, 0.0, 0.0, 0.0, 0.0, 0.0, 0.0, 0.0, 0.0, 1.695417960795811E9, 0.0, 2023-09-22 16:26:00.795
96.0, 25816.600122046486, 11810.550011461975, -34947.01951110596, -62293.484782395935, -187500.02235174447, 10719.539012853982, -120000.05632639604, -187500.02235174447, -34507.65127034799, 7153.586405943204, -8047.812646366674, -70063.8899283278, 8530.900899279226, -17327.85461280997, -4459.150667089304, 2721.1460734779926, -0.052000000000000005, 0.982, 0.218, 192.0, 0.0, 0.0, 0.0, 0.0, 0.0, 0.0, 0.0, 0.0, 0.0, 1.695417960795814E9, 0.0, 2023-09-22 16:26:00.795
98.0, 25808.754659742674, 11801.966941591138, -34961.36933104626, -62302.648997622615, -187500.02235174447, 10768.578740188927, -119904.27910140505, -187500.02235174447, -34515.2955669517, 7148.736077396403, -8014.307381428169, -70072.00361156507, 8535.59476561484, -17310.37554864592, -4437.1789022897365, 2744.8836260895287, -0.056, 0.984, 0.218, 192.0, 127.0, 32.0, 15.0, 96.0, 3.0, 104.0, 0.0, 0.0, 0.0, 1.695417960795818E9, 0.0, 2023-09-22 16:26:00.795
100.0, 25803.3902410734, 11797.72011014463, -34955.15554608769, -62302.87251506717, -187500.02235174447, 10712.274695906008, -119998.82698045099, -187500.02235174447, -34500.25284293328, 7169.791420673302, -8045.242195754314, -70055.17274799022, 8545.36247794181, -17323.1383947299, -4446.2760622830465, 2712.96533500735, -0.056, 0.984, 0.218, 192.0, 0.0, 0.0, 0.0, 0.0, 0.0, 0.0, 0.0, 0.0, 0.0, 1.695417960795821E9, 0.0, 2023-09-22 16:26:00.795
102.0, 25784.61477573094, 11775.480124411599, -34987.02913368096, -62327.4147304791, -187500.02235174447, 10780.603978705882, -119873.45604580117, -187500.02235174447, -34552.354759258604, 7122.36101893914, -8022.532823387722, -70108.77223119405, 8513.667704304184, -17314.51062137015, -4456.1331815878375, 2747.6552424019865, -0.056, 0.984, 0.218, 192.0, 0.0, 0.0, 0.0, 0.0, 0.0, 0.0, 0.0, 0.0, 0.0, 1.695417960795824E9, 0.0, 2023-09-22 16:26:00.795
104.0, 25819.97523545924, 11814.707435930663, -34953.05448210889, -62285.862837536675, -187500.02235174447, 10721.796539043968, -119996.05536413853, -187500.02235174447, -34509.75233432679, 7160.336632768707, -8048.907881844984, -70063.77816960552, 8536.69000109315, -17325.19475521979, -4451.215797807669, 2739.228634742336, -0.056, 0.984, 0.218, 192.0, 0.0, 0.0, 0.0, 0.0, 0.0, 0.0, 0.0, 0.0, 0.0, 1.695417960795827E9, 0.0, 2023-09-22 16:26:00.795
106.0, 25796.05886889206, 11792.087470541892, -34972.67931374065, -62310.94149481553, -187500.02235174447, 10770.478638467626, -119899.78640076953, -187500.02235174447, -34527.52197116875, 7145.919757595034, -8050.852483612595, -70076.94334708969, 8536.824111559881, -17333.464900668252, -4429.78047487503, 2732.8583875725735, -0.056, 0.984, 0.218, 192.0, 0.0, 0.0, 0.0, 0.0, 0.0, 0.0, 0.0, 0.0, 0.0, 1.695417960855992E9, 0.0, 2023-09-22 16:26:00.855
108.0, 25815.77310750164, 11813.902773130272, -34957.547182744405, -62288.5003433824, -187500.02235174447, 10722.936478011188, -120016.41780333732, -187500.02235174447, -34506.17605521394, 7170.216103817953, -8044.415181209467, -70058.32434395842, 8539.17104472769, -17321.640827851395, -4449.248844295603, 2734.78063759573, -0.054, 0.984, 0.214, 192.0, 127.0, 40.0, 15.0, 96.0, 3.0, 88.0, 0.0, 0.0, 0.0, 1.695417960856005E9, 0.0, 2023-09-22 16:26:00.856
110.0, 25817.136563913413, 11808.024264338526, -34948.53942972892, -62297.59750337571, -187500.02235174447, 10745.355277699862, -119939.5054506666, -187500.02235174447, -34504.27615693524, 7170.685490451514, -8061.424858739956, -70058.2349369806, 8552.425629189685, -17351.458054954775, -4422.493806182601, 2702.6388290689983, -0.054, 0.984, 0.214, 192.0, 0.0, 0.0, 0.0, 0.0, 0.0, 0.0, 0.0, 0.0, 0.0, 1.695417960856008E9, 0.0, 2023-09-22 16:26:00.856
112.0, 25833.274523410146, 11829.52664250453, -34948.29356053991, -62280.56547410077, -187500.02235174447, 10703.222239401608, -120041.9881989942, -187500.02235174447, -34502.33155516763, 7168.740888683902, -8035.116855516059, -70057.05029452447, 8541.02623951748, -17339.544575160096, -4447.0360215945275, 2712.3394861626016, -0.054, 0.984, 0.214, 192.0, 0.0, 0.0, 0.0, 0.0, 0.0, 0.0, 0.0, 0.0, 0.0, 1.695417960856012E9, 0.0, 2023-09-22 16:26:00.856
114.0, 25804.910159696363, 11795.95432233266, -34969.63947649473, -62317.08822454074, -187500.02235174447, 10739.901452052767, -119947.79794785952, -187500.02235174447, -34500.49871212229, 7163.890560137101, -8058.563835449677, -70058.8831375698, 8553.967899557103, -17370.23352029723, -4429.4451987082, 2678.074261912616, -0.054, 0.984, 0.214, 192.0, 0.0, 0.0, 0.0, 0.0, 0.0, 0.0, 0.0, 0.0, 0.0, 1.695417960856015E9, 0.0, 2023-09-22 16:26:00.856
116.0, 25809.24639812069, 11802.95041834717, -34974.13217713025, -62307.81225059179, -187500.02235174447, 10715.985085485589, -120011.8803992129, -187500.02235174447, -34510.288776193716, 7158.74965891238, -8018.151881474481, -70064.11344577235, 8534.365419669797, -17346.272450241144, -4461.139972345826, 2715.289916430702, -0.054, 0.984, 0.214, 192.0, 0.0, 0.0, 0.0, 0.0, 0.0, 0.0, 0.0, 0.0, 0.0, 1.695417960856018E9, 0.0, 2023-09-22 16:26:00.856
118.0, 25788.794551944084, 11781.962130303638, -34980.256555111, -62329.24757352443, -187500.02235174447, 10748.551577156972, -119900.0993251919, -187500.02235174447, -34527.65608163549, 7148.199635529475, -8058.183855793936, -70080.36316399135, 8524.888280020748, -17375.44147675532, -4466.236170081636, 2684.846840482574, -0.058, 0.984, 0.216, 192.0, 127.0, 24.0, 15.0, 96.0, 3.0, 96.0, 0.0, 0.0, 0.0, 1.695417960856021E9, 0.0, 2023-09-22 16:26:00.856
120.0, 25806.407726574867, 11801.117575301836, -34971.740540473525, -62300.50323015491, -187500.02235174447, 10726.356294912852, -119946.92622982577, -187500.02235174447, -34519.90002630949, 7162.169475814042, -8006.05958772416, -70071.60128016488, 8525.40237014322, -17338.918726315347, -4469.320710816469, 2734.6912306179083, -0.058, 0.984, 0.216, 192.0, 0.0, 0.0, 0.0, 0.0, 0.0, 0.0, 0.0, 0.0, 0.0, 1.695417960916296E9, 0.0, 2023-09-22 16:26:00.916
122.0, 25788.168703099338, 11782.47622042611, -34965.929086915145, -62318.38462571915, -187500.02235174447, 10735.967545028632, -119877.18878712521, -187500.02235174447, -34517.754258841785, 7164.382298515117, -8061.514265717777, -70067.35444871837, 8534.410123158708, -17373.385116265432, -4453.093344341915, 2683.841011982085, -0.058, 0.984, 0.216, 192.0, 0.0, 0.0, 0.0, 0.0, 0.0, 0.0, 0.0, 0.0, 0.0, 1.695417960916314E9, 0.0, 2023-09-22 16:26:00.916
124.0, 25804.664290507353, 11801.072871812925, -34969.81829045037, -62300.63734062164, -187500.02235174447, 10739.923803797223, -119892.23151114363, -187500.02235174447, -34519.363584442566, 7157.363850756151, -8001.209259177359, -70075.69164940019, 8522.608402086307, -17328.90514479937, -4463.755126447097, 2747.2752627462464, -0.058, 0.984, 0.216, 192.0, 0.0, 0.0, 0.0, 0.0, 0.0, 0.0, 0.0, 0.0, 0.0, 1.695417960916318E9, 0.0, 2023-09-22 16:26:00.916
126.0, 25804.507828296166, 11799.999988079071, -34957.23425832203, -62308.41574769208, -187500.02235174447, 10730.469015892628, -119873.88072894583, -187500.02235174447, -34498.86703477705, 7185.951731914489, -8066.297539031213, -70050.4788816546, 8542.188530229156, -17373.228654054245, -4443.1021145703935, 2686.76909050573, -0.058, 0.984, 0.216, 192.0, 0.0, 0.0, 0.0, 0.0, 0.0, 0.0, 0.0, 0.0, 0.0, 1.695417960916322E9, 0.0, 2023-09-22 16:26:00.916
128.0, 25817.33772961351, 11812.561668462953, -34966.68904622663, -62292.68011959555, -187500.02235174447, 10736.83926306239, -119891.42684834324, -187500.02235174447, -34504.41026740197, 7178.329787055229, -7996.157764930459, -70061.54299516, 8521.468463119087, -17339.745740860195, -4451.59577746341, 2743.833094100129, -0.058, 0.988, 0.214, 192.0, 127.0, 24.0, 15.0, 112.0, 3.0, 88.0, 0.0, 0.0, 0.0, 1.695417960916325E9, 0.0, 2023-09-22 16:26:00.916
130.0, 25818.365909858458, 11816.316761531445, -34945.72310992755, -62291.383718417135, -187500.02235174447, 10712.095881950365, -119914.09151722092, -187500.02235174447, -34465.71939774983, 7211.544479315816, -8048.572605678154, -70024.70732029765, 8551.240986733555, -17380.850598913505, -4432.261518509569, 2678.610703779543, -0.058, 0.988, 0.214, 192.0, 0.0, 0.0, 0.0, 0.0, 0.0, 0.0, 0.0, 0.0, 0.0, 1.695417960916329E9, 0.0, 2023-09-22 16:26:00.916
132.0, 25831.48638385372, 11831.158319849768, -34959.357674045285, -62280.051383978294, -187500.02235174447, 10726.803329801956, -119918.85243878991, -187500.02235174447, -34482.505557835764, 7206.269467624363, -7970.565017529133, -70043.54984087347, 8536.39942841523, -17337.77878734813, -4437.40241973429, 2739.3403934646126, -0.058, 0.988, 0.214, 192.0, 0.0, 0.0, 0.0, 0.0, 0.0, 0.0, 0.0, 0.0, 0.0, 1.695417960916332E9, 0.0, 2023-09-22 16:26:00.916
134.0, 25820.802250004086, 11821.368255778343, -34958.41890077817, -62288.41093640458, -187500.02235174447, 10698.506021321538, -119957.54330844204, -187500.02235174447, -34469.49684256278, 7213.869060739167, -8032.97108804835, -70026.69662555416, 8543.015544774002, -17380.180046579844, -4443.370335503857, 2676.0849566560933, -0.058, 0.988, 0.214, 192.0, 0.0, 0.0, 0.0, 0.0, 0.0, 0.0, 0.0, 0.0, 0.0, 1.695417960916336E9, 0.0, 2023-09-22 16:26:00.916
136.0, 25815.01314819016, 11820.116558088846, -34970.51119452849, -62291.94251202852, -187500.02235174447, 10728.993800758577, -119934.94569479773, -187500.02235174447, -34484.65132530348, 7212.438549094028, -7968.888636694985, -70028.46241336613, 8541.83090231787, -17346.13833977441, -4437.760047645575, 2722.8224543121405, -0.058, 0.988, 0.214, 192.0, 0.0, 0.0, 0.0, 0.0, 0.0, 0.0, 0.0, 0.0, 0.0, 1.695417960976628E9, 0.0, 2023-09-22 16:26:00.976
138.0, 25821.182229659826, 11827.760854692562, -34943.10795582628, -62283.94058751352, -187500.02235174447, 10692.69456776316, -120010.29342535656, -187500.02235174447, -34475.75533101027, 7225.424912622561, -8012.139262216004, -70021.51102084054, 8539.863948805803, -17365.427895239343, -4450.791114663019, 2677.8507444680627, -0.056, 0.988, 0.214, 192.0, 127.0, 32.0, 15.0, 112.0, 3.0, 88.0, 0.0, 0.0, 0.0, 1.695417960976641E9, 0.0, 2023-09-22 16:26:00.976
140.0, 25818.857648236473, 11822.999933123581, -34954.686159454126, -62285.90754102559, -187500.02235174447, 10725.931611768201, -119981.43732326476, -187500.02235174447, -34493.010877729765, 7214.405502606095, -7953.980023143295, -70039.72769257161, 8538.612251116307, -17334.604839635474, -4445.314937271469, 2723.515358390255, -0.056, 0.988, 0.214, 192.0, 0.0, 0.0, 0.0, 0.0, 0.0, 0.0, 0.0, 0.0, 0.0, 1.695417960976645E9, 0.0, 2023-09-22 16:26:00.976
142.0, 25813.44852607829, 11822.15056683428, -34949.031168106936, -62289.1038404827, -187500.02235174447, 10675.617834999304, -120086.53522569362, -187500.02235174447, -34471.21792688584, 7230.923441758567, -8012.20631744937, -70022.8744772523, 8545.965975042101, -17359.169406791854, -4452.31103328598, 2668.1277356300043, -0.056, 0.988, 0.214, 192.0, 0.0, 0.0, 0.0, 0.0, 0.0, 0.0, 0.0, 0.0, 0.0, 1.695417960976649E9, 0.0, 2023-09-22 16:26:00.976
144.0, 25810.20752313227, 11818.57428772143, -34957.413072277675, -62291.62958760615, -187500.02235174447, 10719.69547506517, -120020.50817257265, -187500.02235174447, -34500.02932548873, 7206.627095535648, -7969.492133795278, -70051.99880027758, 8533.605460358318, -17336.1918134918, -4447.527759972544, 2711.3336576621127, -0.056, 0.988, 0.214, 192.0, 0.0, 0.0, 0.0, 0.0, 0.0, 0.0, 0.0, 0.0, 0.0, 1.695417960976652E9, 0.0, 2023-09-22 16:26:00.976
146.0, 25813.470877822743, 11820.831813911416, -34940.068118580355, -62285.84048579222, -187500.02235174447, 10667.280634317474, -120122.96856915577, -187500.02235174447, -34480.5386043237, 7224.016752721876, -8004.517317356744, -70023.63443656379, 8544.64722211924, -17356.308383501575, -4459.776515934052, 2679.8176979801297, -0.056, 0.988, 0.214, 192.0, 0.0, 0.0, 0.0, 0.0, 0.0, 0.0, 0.0, 0.0, 0.0, 1.695417960976655E9, 0.0, 2023-09-22 16:26:00.976
148.0, 25812.912084211363, 11819.513060988553, -34956.74251994402, -62297.105764997694, -187500.02235174447, 10713.83931801788, -120033.02514946762, -187500.02235174447, -34497.615337087555, 7213.980819461444, -7976.488229809789, -70041.53818387249, 8537.82994006037, -17346.160691518868, -4449.718230929164, 2701.521241846233, -0.054, 0.99, 0.21, 192.0, 127.0, 40.0, 15.0, 120.0, 3.0, 72.0, 0.0, 0.0, 0.0, 1.695417960976658E9, 0.0, 2023-09-22 16:26:00.976
150.0, 25824.35617737248, 11832.3429623059, -34947.77947041744, -62286.17576195905, -187500.02235174447, 10673.695584976147, -120136.69254025133, -187500.02235174447, -34487.691162549396, 7224.687305055536, -7993.184982917904, -70036.68785532568, 8526.341143410342, -17348.149996775388, -4476.339158575435, 2685.7856137496965, -0.054, 0.99, 0.21, 192.0, 0.0, 0.0, 0.0, 0.0, 0.0, 0.0, 0.0, 0.0, 0.0, 1.695417961035913E9, 0.0, 2023-09-22 16:26:01.035
152.0, 25821.562209315565, 11829.43723552671, -34942.39270000371, -62286.354575914695, -187500.02235174447, 10707.200849914652, -120055.93568753431, -187500.02235174447, -34493.45791261887, 7215.724255528958, -7984.803078747163, -70030.58582908938, 8534.253660947521, -17351.301592743588, -4450.92522512975, 2687.7302155173084, -0.054, 0.99, 0.21, 192.0, 0.0, 0.0, 0.0, 0.0, 0.0, 0.0, 0.0, 0.0, 0.0, 1.695417961035927E9, 0.0, 2023-09-22 16:26:01.035
154.0, 25829.094747197003, 11832.320610561444, -34947.15362157269, -62287.896846282114, -187500.02235174447, 10658.786971424457, -120161.32416264107, -187500.02235174447, -34485.99242997079, 7216.19364216252, -7982.05381417916, -70026.78603253199, 8533.247832447032, -17349.692267142807, -4471.377071306357, 2675.9284944449064, -0.054, 0.99, 0.21, 192.0, 0.0, 0.0, 0.0, 0.0, 0.0, 0.0, 0.0, 0.0, 0.0, 1.695417961035931E9, 0.0, 2023-09-22 16:26:01.035
156.0, 25802.96555792875, 11809.320665516934, -34952.383929775235, -62298.67038710957, -187500.02235174447, 10695.73440500908, -120074.4876354322, -187500.02235174447, -34485.07600844813, 7231.169310947575, -7997.789442275696, -70044.91329728524, 8535.68417259266, -17358.72237190275, -4458.457763011189, 2658.5611890031328, -0.054, 0.99, 0.21, 192.0, 0.0, 0.0, 0.0, 0.0, 0.0, 0.0, 0.0, 0.0, 0.0, 1.695417961035934E9, 0.0, 2023-09-22 16:26:01.035
158.0, 25790.895615922884, 11799.038863067492, -34967.35959856029, -62304.727709856954, -187500.02235174447, 10673.270901831496, -120151.9140782254, -187500.02235174447, -34504.49967437979, 7180.587313245215, -7979.52806705571, -70033.46920412412, 8517.691018306139, -17344.059627540068, -4483.938751690239, 2672.642788009976, -0.052000000000000005, 0.986, 0.21, 192.0, 127.0, 48.0, 15.0, 104.0, 3.0, 72.0, 0.0, 0.0, 0.0, 1.695417961035937E9, 0.0, 2023-09-22 16:26:01.035
160.0, 25805.20073237428, 11814.014531852548, -34946.81834540586, -62296.61402661968, -187500.02235174447, 10706.798518514457, -120052.04648399907, -187500.02235174447, -34513.82035181765, 7183.7389092134135, -7999.264657409747, -70050.21066072115, 8518.629791573261, -17358.34239224701, -4484.5422487905325, 2661.645729737965, -0.052000000000000005, 0.986, 0.21, 192.0, 0.0, 0.0, 0.0, 0.0, 0.0, 0.0, 0.0, 0.0, 0.0, 1.69541796103594E9, 0.0, 2023-09-22 16:26:01.035
162.0, 25816.086031924016, 11828.364351792856, -34940.60456044728, -62282.21950319046, -187500.02235174447, 10669.091125618354, -120149.74595901322, -187500.02235174447, -34479.73394152331, 7217.981781718944, -7974.186000130892, -70029.08826221088, 8534.253660947521, -17337.62232513694, -4484.095213901426, 2674.9450176888727, -0.052000000000000005, 0.986, 0.21, 192.0, 0.0, 0.0, 0.0, 0.0, 0.0, 0.0, 0.0, 0.0, 0.0, 1.695417961035944E9, 0.0, 2023-09-22 16:26:01.035
164.0, 25806.854761463972, 11814.439214997199, -34940.17987730263, -62293.32832018475, -187500.02235174447, 10691.666387518215, -120089.86563561746, -187500.02235174447, -34489.45695036137, 7208.057607180787, -8006.238401679802, -70047.39434091978, 8536.242966204043, -17365.785523150626, -4476.786193464541, 2638.064639337616, -0.052000000000000005, 0.986, 0.21, 192.0, 0.0, 0.0, 0.0, 0.0, 0.0, 0.0, 0.0, 0.0, 0.0, 1.695417961035947E9, 0.0, 2023-09-22 16:26:01.035
166.0, 25813.67204352284, 11824.29633430199, -34934.837810377816, -62280.29725316731, -187500.02235174447, 10666.788895939457, -120190.80611357762, -187500.02235174447, -34473.72132226483, 7224.66495331108, -7969.760354728742, -70027.94832324366, 8544.557815141417, -17341.66799088335, -4473.299321329513, 2659.8575901815407, -0.052000000000000005, 0.986, 0.21, 192.0, 0.0, 0.0, 0.0, 0.0, 0.0, 0.0, 0.0, 0.0, 0.0, 1.69541796109565E9, 0.0, 2023-09-22 16:26:01.095
168.0, 25793.95780491326, 11804.023302081026, -34942.996197104, -62301.19613423302, -187500.02235174447, 10692.716919507613, -120136.08904315103, -187500.02235174447, -34498.15177895448, 7200.7038832549915, -8008.697093569886, -70052.60229737786, 8528.68807657815, -17362.119837059956, -4477.009710909094, 2622.731342641275, -0.048, 0.99, 0.21, 192.0, 127.0, 64.0, 15.0, 120.0, 3.0, 72.0, 0.0, 0.0, 0.0, 1.695417961095672E9, 0.0, 2023-09-22 16:26:01.095
170.0, 25806.899464952883, 11823.066988356948, -34949.947589629606, -62282.53242761284, -187500.02235174447, 10688.090108405366, -120205.8711893405, -187500.02235174447, -34492.519139351745, 7229.358819646695, -7956.103438866549, -70041.00174200557, 8534.030143502969, -17320.09855748398, -4475.914475430784, 2665.780802462197, -0.048, 0.99, 0.21, 192.0, 0.0, 0.0, 0.0, 0.0, 0.0, 0.0, 0.0, 0.0, 0.0, 1.695417961095676E9, 0.0, 2023-09-22 16:26:01.095
172.0, 25802.943206184293, 11813.455738241166, -34945.99133086101, -62290.266131194374, -187500.02235174447, 10688.8724194613, -120187.22983446477, -187500.02235174447, -34497.749447554284, 7203.274333867352, -8010.082901726116, -70047.8860792978, 8529.515091122996, -17354.654354411883, -4477.79202196503, 2613.4106652034125, -0.048, 0.99, 0.21, 192.0, 0.0, 0.0, 0.0, 0.0, 0.0, 0.0, 0.0, 0.0, 0.0, 1.695417961095679E9, 0.0, 2023-09-22 16:26:01.095
174.0, 25815.05785167907, 11826.95619189217, -34942.50445872598, -62278.03972697732, -187500.02235174447, 10681.608102513326, -120234.88375364349, -187500.02235174447, -34489.61341257255, 7215.456034595494, -7955.499941766256, -70035.90554426976, 8541.093294750845, -17326.826432565027, -4468.717213716175, 2653.4426395228675, -0.048, 0.99, 0.21, 192.0, 0.0, 0.0, 0.0, 0.0, 0.0, 0.0, 0.0, 0.0, 0.0, 1.695417961095682E9, 0.0, 2023-09-22 16:26:01.095
176.0, 25788.10164786597, 11797.943627589182, -34948.51707798446, -62307.78989884733, -187500.02235174447, 10677.227160600087, -120218.00818657974, -187500.02235174447, -34494.93312775292, 7199.049854165299, -8015.2685064397465, -70041.71699782813, 8534.678344092172, -17368.981822607737, -4475.512144030588, 2592.4670806487898, -0.048, 0.99, 0.21, 192.0, 0.0, 0.0, 0.0, 0.0, 0.0, 0.0, 0.0, 0.0, 0.0, 1.695417961095686E9, 0.0, 2023-09-22 16:26:01.095
178.0, 25793.24254909069, 11808.091319571891, -34963.02336013596, -62301.08437551074, -187500.02235174447, 10697.679006776692, -120214.29779700015, -187500.02235174447, -34523.54336065571, 7179.827353933734, -7950.828427175096, -70068.02500105202, 8518.763902039993, -17335.029522780125, -4488.990245937139, 2661.064584382127, -0.05, 0.988, 0.212, 192.0, 127.0, 56.0, 15.0, 112.0, 3.0, 80.0, 0.0, 0.0, 0.0, 1.695417961095689E9, 0.0, 2023-09-22 16:26:01.095
180.0, 25800.81979046104, 11811.57819170692, -34944.896095382705, -62293.46243065148, -187500.02235174447, 10678.769430967503, -120225.27250352771, -187500.02235174447, -34509.05943024867, 7223.435607366038, -8026.0643990116605, -70055.79859683497, 8529.559794611907, -17365.807874895083, -4487.336216847446, 2600.8936883084402, -0.05, 0.988, 0.212, 192.0, 0.0, 0.0, 0.0, 0.0, 0.0, 0.0, 0.0, 0.0, 0.0, 1.695417961155941E9, 0.0, 2023-09-22 16:26:01.155
182.0, 25818.72353776974, 11835.807482696473, -34933.83198187733, -62270.484837351425, -187500.02235174447, 10687.128983393786, -120224.11021281603, -187500.02235174447, -34499.649345832986, 7196.434700064028, -7979.326901355613, -70043.95217227367, 8542.07677150688, -17333.978990790725, -4467.554923004499, 2641.4621044948226, -0.05, 0.988, 0.212, 192.0, 0.0, 0.0, 0.0, 0.0, 0.0, 0.0, 0.0, 0.0, 0.0, 1.695417961155955E9, 0.0, 2023-09-22 16:26:01.155
184.0, 25801.758563728163, 11819.110729588358, -34941.43157499213, -62295.63054986365, -187500.02235174447, 10649.48864573105, -120266.17619588092, -187500.02235174447, -34491.06627596215, 7229.604688835703, -8055.501646459299, -70041.47112863912, 8543.462579663108, -17359.169406791854, -4477.680263242753, 2568.595417570522, -0.05, 0.988, 0.212, 192.0, 0.0, 0.0, 0.0, 0.0, 0.0, 0.0, 0.0, 0.0, 0.0, 1.695417961155958E9, 0.0, 2023-09-22 16:26:01.155
186.0, 25813.739098756207, 11821.681180200718, -34951.69102569712, -62285.728727069945, -187500.02235174447, 10689.386509583774, -120207.1675905189, -187500.02235174447, -34523.45395367789, 7219.009961963888, -8004.629076079021, -70069.18729176371, 8527.54813761093, -17326.84878430948, -4487.515030803088, 2623.2454327637474, -0.05, 0.988, 0.212, 192.0, 0.0, 0.0, 0.0, 0.0, 0.0, 0.0, 0.0, 0.0, 0.0, 1.695417961155961E9, 0.0, 2023-09-22 16:26:01.155
188.0, 25796.416496803344, 11816.070892342435, -34939.46462148007, -62285.81813404777, -187500.02235174447, 10649.44394224214, -120259.7388934778, -187500.02235174447, -34492.094456207094, 7217.1994706630085, -8072.220751311869, -70034.45268088016, 8542.590861629351, -17367.081924329035, -4488.610266281398, 2569.4447838598235, -0.054, 0.99, 0.214, 192.0, 127.0, 40.0, 15.0, 120.0, 3.0, 88.0, 0.0, 0.0, 0.0, 1.695417961155965E9, 0.0, 2023-09-22 16:26:01.155
190.0, 25778.11041809445, 11789.069985040425, -34972.34403757382, -62311.41088144909, -187500.02235174447, 10702.819908001413, -120153.90338348191, -187500.02235174447, -34539.68132015244, 7165.790458415802, -8020.476462897834, -70064.24755623908, 8515.277029904966, -17368.847712141003, -4499.763786764596, 2620.071485051094, -0.054, 0.99, 0.214, 192.0, 0.0, 0.0, 0.0, 0.0, 0.0, 0.0, 0.0, 0.0, 0.0, 1.695417961155968E9, 0.0, 2023-09-22 16:26:01.155
192.0, 25791.454409534268, 11809.879459128317, -34955.669636210165, -62299.22918072095, -187500.02235174447, 10656.909424890211, -120223.50671571575, -187500.02235174447, -34519.74356409831, 7194.221877362952, -8070.924350133461, -70052.35642818885, 8521.379056141264, -17408.67852076036, -4520.841481785951, 2583.7722520556754, -0.054, 0.99, 0.214, 192.0, 0.0, 0.0, 0.0, 0.0, 0.0, 0.0, 0.0, 0.0, 0.0, 1.695417961155971E9, 0.0, 2023-09-22 16:26:01.155
194.0, 25795.835351447506, 11818.931915632715, -34963.87272642526, -62299.989140032434, -187500.02235174447, 10697.522544565505, -120124.30967382308, -187500.02235174447, -34530.0030148033, 7218.898203241612, -8035.809759594174, -70067.33209697391, 8525.044742231936, -17406.39864282592, -4502.535403077055, 2610.70610412432, -0.054, 0.99, 0.214, 192.0, 0.0, 0.0, 0.0, 0.0, 0.0, 0.0, 0.0, 0.0, 0.0, 1.695417961155974E9, 0.0, 2023-09-22 16:26:01.155
196.0, 25783.608947230452, 11804.559743947953, -34964.65503748119, -62305.39826219062, -187500.02235174447, 10649.667459686692, -120199.79151484866, -187500.02235174447, -34503.78441855722, 7222.496834098916, -8069.225617554858, -70041.69464608368, 8531.929079524169, -17427.58809656955, -4510.202051425225, 2572.1493449389154, -0.054, 0.99, 0.214, 192.0, 0.0, 0.0, 0.0, 0.0, 0.0, 0.0, 0.0, 0.0, 0.0, 1.695417961216322E9, 0.0, 2023-09-22 16:26:01.216
198.0, 25780.81497917354, 11804.470336970131, -34973.841604452326, -62311.34382621573, -187500.02235174447, 10701.657617289737, -120089.30684200607, -187500.02235174447, -34535.12156428356, 7194.646560507604, -8041.487102685822, -70073.03179181002, 8510.717274036084, -17425.68819829085, -4510.514975847599, 2601.005447030717, -0.056, 0.988, 0.20800000000000002, 192.0, 127.0, 32.0, 15.0, 112.0, 3.0, 64.0, 0.0, 0.0, 0.0, 1.695417961216339E9, 0.0, 2023-09-22 16:26:01.216
200.0, 25784.033630375103, 11807.644284682785, -34970.33238057284, -62301.21848597747, -187500.02235174447, 10654.607195211316, -120181.19486346185, -187500.02235174447, -34521.84462807711, 7198.334598342729, -8062.207169795892, -70062.4370649382, 8512.795986270427, -17439.92625950888, -4520.170929452292, 2579.681882820354, -0.056, 0.988, 0.20800000000000002, 192.0, 0.0, 0.0, 0.0, 0.0, 0.0, 0.0, 0.0, 0.0, 0.0, 1.695417961216352E9, 0.0, 2023-09-22 16:26:01.216
202.0, 25785.598252486976, 11805.252648026068, -34971.71818872907, -62309.42157619257, -187500.02235174447, 10695.68970152017, -120079.47207444574, -187500.02235174447, -34525.95734905689, 7192.61255176217, -8055.702812159398, -70073.32236448793, 8517.40044562822, -17461.048658019146, -4497.618019296887, 2581.0229874876723, -0.056, 0.988, 0.20800000000000002, 192.0, 0.0, 0.0, 0.0, 0.0, 0.0, 0.0, 0.0, 0.0, 0.0, 1.695417961216355E9, 0.0, 2023-09-22 16:26:01.216
204.0, 25796.01416540315, 11820.518889489042, -34960.87759266825, -62296.36815743067, -187500.02235174447, 10645.577090451372, -120181.50778788421, -187500.02235174447, -34508.47828489284, 7227.995363234922, -8055.769867392763, -70054.54689914548, 8521.334352652353, -17471.21870174631, -4508.36920837989, 2567.455478603301, -0.056, 0.988, 0.20800000000000002, 192.0, 0.0, 0.0, 0.0, 0.0, 0.0, 0.0, 0.0, 0.0, 0.0, 1.695417961216358E9, 0.0, 2023-09-22 16:26:01.216
206.0, 25785.44179027579, 11802.279866013512, -34967.627819493755, -62303.52071565637, -187500.02235174447, 10685.542009537461, -120070.01728654114, -187500.02235174447, -34529.75714561428, 7215.701903784502, -8053.2441202693135, -70073.21060576566, 8517.221631672577, -17483.13218154099, -4494.913458217795, 2557.196027898315, -0.056, 0.988, 0.20800000000000002, 192.0, 0.0, 0.0, 0.0, 0.0, 0.0, 0.0, 0.0, 0.0, 0.0, 1.695417961216362E9, 0.0, 2023-09-22 16:26:01.216
208.0, 25792.10261012347, 11813.43338649671, -34963.67156072516, -62292.12132598416, -187500.02235174447, 10646.649974185226, -120154.37277011547, -187500.02235174447, -34510.10996223807, 7209.71163627048, -8031.451169425389, -70052.62464912231, 8522.988381742047, -17467.731829611283, -4505.239964156147, 2563.5662750680776, -0.056, 0.988, 0.21, 192.0, 127.0, 32.0, 15.0, 112.0, 3.0, 72.0, 0.0, 0.0, 0.0, 1.695417961216365E9, 0.0, 2023-09-22 16:26:01.216
210.0, 25778.95978438375, 11797.228371766612, -34966.06319738188, -62310.76268085989, -187500.02235174447, 10687.620721771804, -120037.54020184759, -187500.02235174447, -34533.132259027036, 7192.2549238508855, -8050.159579534481, -70079.15616979077, 8511.678399047662, -17488.429544976898, -4497.5733158079765, 2544.008498669684, -0.056, 0.988, 0.21, 192.0, 0.0, 0.0, 0.0, 0.0, 0.0, 0.0, 0.0, 0.0, 0.0, 1.695417961276507E9, 0.0, 2023-09-22 16:26:01.276
212.0, 25771.226080802215, 11797.071909555425, -34985.06218016889, -62314.71893962848, -187500.02235174447, 10662.25149181503, -120097.91226362137, -187500.02235174447, -34526.292625223716, 7193.216048862464, -8019.805910564174, -70069.03082955252, 8510.40434961371, -17468.64825113395, -4509.620906069387, 2573.5575048396, -0.056, 0.988, 0.21, 192.0, 0.0, 0.0, 0.0, 0.0, 0.0, 0.0, 0.0, 0.0, 0.0, 1.69541796127652E9, 0.0, 2023-09-22 16:26:01.276
214.0, 25759.513766707634, 11783.035014037492, -34991.07479942737, -62333.38264624866, -187500.02235174447, 10697.991931199067, -119990.84740768046, -187500.02235174447, -34554.14289881503, 7172.048946863288, -8058.496780216311, -70088.23097803963, 8492.120622649267, -17501.013577105234, -4521.713199819708, 2548.0318126716393, -0.056, 0.988, 0.21, 192.0, 0.0, 0.0, 0.0, 0.0, 0.0, 0.0, 0.0, 0.0, 0.0, 1.695417961276523E9, 0.0, 2023-09-22 16:26:01.276
216.0, 25781.95491814076, 11802.95041834717, -34981.08356965585, -62303.453660423, -187500.02235174447, 10675.68489023267, -120046.70441707426, -187500.02235174447, -34548.06322432318, 7179.156801600076, -8023.87392805504, -70084.76645764905, 8490.757166237494, -17477.387783215974, -4529.692772590252, 2592.3776736709683, -0.056, 0.988, 0.21, 192.0, 0.0, 0.0, 0.0, 0.0, 0.0, 0.0, 0.0, 0.0, 0.0, 1.695417961276526E9, 0.0, 2023-09-22 16:26:01.276
218.0, 25780.278537306614, 11802.838659624895, -34967.06902588237, -62306.33703545774, -187500.02235174447, 10673.0697361314, -120001.26332059663, -187500.02235174447, -34523.43160193344, 7204.257810623385, -8089.655111987008, -70058.41375093625, 8523.904803264715, -17522.47125178233, -4496.299266374024, 2525.2777368161364, -0.056, 0.98, 0.22, 192.0, 127.0, 32.0, 15.0, 80.0, 3.0, 112.0, 0.0, 0.0, 0.0, 1.69541796127653E9, 0.0, 2023-09-22 16:26:01.276
220.0, 25778.400990772367, 11806.303180015468, -34985.39745633572, -62308.52750641436, -187500.02235174447, 10671.058079130422, -120022.36336736243, -187500.02235174447, -34543.190544031924, 7195.652389008092, -8028.031352523727, -70076.07162905594, 8499.362587852787, -17480.27115825071, -4515.566470094499, 2571.7693652831754, -0.056, 0.98, 0.22, 192.0, 0.0, 0.0, 0.0, 0.0, 0.0, 0.0, 0.0, 0.0, 0.0, 1.695417961276533E9, 0.0, 2023-09-22 16:26:01.276
222.0, 25765.77225515512, 11791.32751123041, -34977.57434577636, -62326.207736278506, -187500.02235174447, 10677.674195489191, -119971.04376209305, -187500.02235174447, -34535.79211661722, 7197.5969907757035, -8094.371330067079, -70066.39332370678, 8505.531669322452, -17505.953312629856, -4512.526632848577, 2517.208757067771, -0.056, 0.98, 0.22, 192.0, 0.0, 0.0, 0.0, 0.0, 0.0, 0.0, 0.0, 0.0, 0.0, 1.695417961276536E9, 0.0, 2023-09-22 16:26:01.276
224.0, 25775.539967482087, 11801.184630535201, -34980.72594174456, -62312.97550356096, -187500.02235174447, 10685.184381626175, -119965.29936376803, -187500.02235174447, -34563.955314630904, 7175.13348759812, -8031.920556058951, -70090.37674550734, 8486.197410368612, -17463.999088287244, -4527.301135933535, 2581.5594293545996, -0.056, 0.98, 0.22, 192.0, 0.0, 0.0, 0.0, 0.0, 0.0, 0.0, 0.0, 0.0, 0.0, 1.695417961276539E9, 0.0, 2023-09-22 16:26:01.276
226.0, 25750.28249624759, 11773.42376392171, -34982.715247001084, -62337.69653292854, -187500.02235174447, 10669.87343667429, -119938.11964251038, -187500.02235174447, -34538.02729106275, 7191.763185472869, -8102.395606326534, -70065.23103299511, 8511.410178114198, -17511.205972576856, -4510.492624103144, 2510.614992453455, -0.056, 0.98, 0.22, 192.0, 0.0, 0.0, 0.0, 0.0, 0.0, 0.0, 0.0, 0.0, 0.0, 1.695417961335812E9, 0.0, 2023-09-22 16:26:01.335
228.0, 25746.99678981266, 11773.177894732702, -35011.817218281896, -62337.40596025062, -187500.02235174447, 10710.59831507186, -119880.42979007123, -187500.02235174447, -34590.75505623282, 7132.776931855314, -8030.266526969258, -70112.7508417071, 8464.985604880525, -17467.955347055835, -4546.657746631831, 2584.1745834558706, -0.062, 0.98, 0.222, 192.0, 127.0, 8.0, 15.0, 80.0, 3.0, 120.0, 0.0, 0.0, 0.0, 1.695417961335823E9, 0.0, 2023-09-22 16:26:01.335
230.0, 25757.412702728834, 11786.320720472422, -34990.24778488252, -62329.89577411363, -187500.02235174447, 10682.032785657977, -119897.23830190163, -187500.02235174447, -34556.71334942739, 7173.077127108232, -8108.6540947740195, -70079.15616979077, 8487.024424913458, -17509.104908598056, -4545.741325109163, 2523.5566524930778, -0.062, 0.98, 0.222, 192.0, 0.0, 0.0, 0.0, 0.0, 0.0, 0.0, 0.0, 0.0, 0.0, 1.695417961335826E9, 0.0, 2023-09-22 16:26:01.335
232.0, 25784.72653445322, 11812.449909740677, -34974.31099108589, -62303.49836391192, -187500.02235174447, 10693.476878819094, -119862.90602241828, -187500.02235174447, -34552.98060810335, 7188.410423804573, -8056.149847048503, -70076.22809126713, 8498.937904708137, -17480.673489650904, -4525.6918103327525, 2563.1862954123376, -0.062, 0.98, 0.222, 192.0, 0.0, 0.0, 0.0, 0.0, 0.0, 0.0, 0.0, 0.0, 0.0, 1.695417961335829E9, 0.0, 2023-09-22 16:26:01.335
234.0, 25789.599214744478, 11817.613162709853, -34954.50734549849, -62301.57611388876, -187500.02235174447, 10638.245718270031, -119907.52010435106, -187500.02235174447, -34519.922378053954, 7204.61543853467, -8118.019475700793, -70043.88511704029, 8523.435416631153, -17515.072824367624, -4511.409045625812, 2485.49163168569, -0.062, 0.98, 0.222, 192.0, 0.0, 0.0, 0.0, 0.0, 0.0, 0.0, 0.0, 0.0, 0.0, 1.695417961335833E9, 0.0, 2023-09-22 16:26:01.335
236.0, 25788.05694437706, 11815.936781875704, -34972.992238163024, -62308.013416291884, -187500.02235174447, 10669.627567485282, -119828.03730106799, -187500.02235174447, -34537.22262826236, 7191.718481983958, -8059.681422672442, -70059.75485560356, 8518.383922384253, -17484.540341441672, -4498.199164652725, 2521.9249751478405, -0.062, 0.98, 0.222, 192.0, 0.0, 0.0, 0.0, 0.0, 0.0, 0.0, 0.0, 0.0, 0.0, 1.695417961335836E9, 0.0, 2023-09-22 16:26:01.335
238.0, 25783.564243741544, 11811.689950429196, -34971.02528465096, -62308.23693373644, -187500.02235174447, 10623.068883784877, -119880.85447321588, -187500.02235174447, -34528.08076478014, 7207.565868802771, -8109.615219785598, -70052.19996597766, 8510.359646124798, -17508.32259754212, -4517.4663683732, 2470.337148944992, -0.062, 0.98, 0.222, 192.0, 127.0, 8.0, 15.0, 80.0, 3.0, 120.0, 0.0, 0.0, 0.0, 1.695417961335839E9, 0.0, 2023-09-22 16:26:01.335
240.0, 25776.72460993822, 11805.766738148539, -34983.74342724603, -62317.468204196484, -187500.02235174447, 10669.44875352964, -119780.71865805611, -187500.02235174447, -34552.13124181405, 7179.536781255816, -8069.873818144062, -70071.89185284279, 8506.537497822941, -17492.966949101323, -4499.763786764596, 2500.8249283820305, -0.062, 0.98, 0.222, 192.0, 0.0, 0.0, 0.0, 0.0, 0.0, 0.0, 0.0, 0.0, 0.0, 1.695417961395601E9, 0.0, 2023-09-22 16:26:01.395
242.0, 25771.024915102116, 11801.363444490844, -34982.379970834256, -62319.770433875376, -187500.02235174447, 10622.063055284389, -119844.86816464284, -187500.02235174447, -34547.77265164526, 7193.394862818106, -8108.765853496297, -70069.65667839727, 8498.177945396656, -17504.70161494036, -4523.858967287418, 2467.006739021151, -0.062, 0.98, 0.222, 192.0, 0.0, 0.0, 0.0, 0.0, 0.0, 0.0, 0.0, 0.0, 0.0, 1.695417961395638E9, 0.0, 2023-09-22 16:26:01.395
244.0, 25769.4826447347, 11798.122441544825, -34991.43242733865, -62323.681989155055, -187500.02235174447, 10664.710183705114, -119732.19302084364, -187500.02235174447, -34557.69682618342, 7185.5046970253825, -8083.17310609497, -70076.20573952267, 8502.82710824336, -17498.577236959605, -4510.291458403046, 2485.7598526191537, -0.062, 0.98, 0.222, 192.0, 0.0, 0.0, 0.0, 0.0, 0.0, 0.0, 0.0, 0.0, 0.0, 1.695417961395645E9, 0.0, 2023-09-22 16:26:01.395
246.0, 25771.449598246767, 11802.369272991333, -34984.10105515731, -62316.976465818465, -187500.02235174447, 10615.37988369225, -119810.31236771493, -187500.02235174447, -34547.79500338972, 7189.7291767274355, -8111.425711086477, -70062.81704459395, 8499.854326230803, -17508.590818475583, -4526.56352836651, 2460.569436618023, -0.062, 0.98, 0.222, 192.0, 0.0, 0.0, 0.0, 0.0, 0.0, 0.0, 0.0, 0.0, 0.0, 1.695417961395651E9, 0.0, 2023-09-22 16:26:01.395
248.0, 25760.720760908218, 11789.360557718344, -34996.32745937436, -62332.73444565946, -187500.02235174447, 10672.376832053284, -119671.06099975837, -187500.02235174447, -34569.09621585563, 7161.722440924936, -8092.225562599369, -70089.08034432893, 8488.052605158402, -17500.99122536078, -4517.89105151785, 2477.132079259405, -0.064, 0.982, 0.222, 192.0, 127.0, 0.0, 15.0, 88.0, 3.0, 120.0, 0.0, 0.0, 0.0, 1.695417961395657E9, 0.0, 2023-09-22 16:26:01.395
250.0, 25782.96074664125, 11812.427557996221, -34972.232278851545, -62302.82781157825, -187500.02235174447, 10616.139843003732, -119764.80421600393, -187500.02235174447, -34543.9505033434, 7185.929380170033, -8097.925257435472, -70065.49925392857, 8497.68620701864, -17501.773536416717, -4524.797740554541, 2468.325491944014, -0.064, 0.982, 0.222, 192.0, 0.0, 0.0, 0.0, 0.0, 0.0, 0.0, 0.0, 0.0, 0.0, 1.695417961395663E9, 0.0, 2023-09-22 16:26:01.395
252.0, 25778.356287283455, 11805.72203465963, -34976.2555928535, -62313.131965772154, -187500.02235174447, 10647.544043963439, -119661.3379909203, -187500.02235174447, -34544.71046265489, 7188.097499382198, -8102.909696449005, -70069.54491967498, 8508.30328563491, -17517.66562672444, -4498.065054185993, 2452.9251400143075, -0.064, 0.982, 0.222, 192.0, 0.0, 0.0, 0.0, 0.0, 0.0, 0.0, 0.0, 0.0, 0.0, 1.69541796139567E9, 0.0, 2023-09-22 16:26:01.395
254.0, 25762.330086509002, 11789.494668185076, -34994.78518900695, -62324.441948466534, -187500.02235174447, 10611.848308068313, -119727.18623008564, -187500.02235174447, -34544.28577951024, 7182.308397568274, -8093.36550156659, -70067.51091092956, 8499.899029719714, -17516.950370901868, -4518.673362573786, 2446.7784102890982, -0.064, 0.982, 0.222, 192.0, 0.0, 0.0, 0.0, 0.0, 0.0, 0.0, 0.0, 0.0, 0.0, 1.695417961395676E9, 0.0, 2023-09-22 16:26:01.395
0.0, 25738.927810064295, 11769.71337434213, -35005.82695076787, -62344.82673940978, -187500.02235174447, 10667.817076184401, -119592.51696974243, -187500.02235174447, -34583.60249800712, 7154.122847810131, -8103.602600527121, -70101.1949898237, 8477.39082305322, -17526.762786717747, -4531.078580746482, 2442.1515991868496, -0.064, 0.982, 0.222, 192.0, 0.0, 0.0, 0.0, 0.0, 0.0, 0.0, 0.0, 0.0, 0.0, 1.695417961456511E9, 0.0, 2023-09-22 16:26:01.456
2.0, 25766.107531321948, 11802.078700313414, -34987.72203775907, -62314.98716056194, -187500.02235174447, 10634.91530834619, -119679.48760741802, -187500.02235174447, -34566.056378609705, 7185.907028425579, -8080.915579904984, -70086.30872801646, 8484.319863834366, -17500.70065268286, -4535.347763937445, 2466.5150006431345, -0.062, 0.986, 0.222, 192.0, 127.0, 8.0, 15.0, 104.0, 3.0, 120.0, 0.0, 0.0, 0.0, 1.695417961456524E9, 0.0, 2023-09-22 16:26:01.456
4.0, 25771.784874413595, 11801.564610190942, -34976.68027599815, -62314.40601520611, -187500.02235174447, 10654.406029511218, -119601.97175764701, -187500.02235174447, -34566.056378609705, 7172.60774047467, -8121.081664691171, -70082.39717273679, 8494.087576161335, -17530.696693741884, -4515.208842183214, 2418.52580529759, -0.062, 0.986, 0.222, 192.0, 0.0, 0.0, 0.0, 0.0, 0.0, 0.0, 0.0, 0.0, 0.0, 1.695417961456528E9, 0.0, 2023-09-22 16:26:01.456
6.0, 25763.872356876418, 11792.310987986444, -34986.06800866938, -62315.165974517586, -187500.02235174447, 10627.516880931484, -119670.88218580272, -187500.02235174447, -34548.97964584585, 7178.776821944335, -8085.274170073769, -70065.90158532877, 8503.29649487692, -17515.31869355663, -4501.887202487851, 2429.880491480886, -0.062, 0.986, 0.222, 192.0, 0.0, 0.0, 0.0, 0.0, 0.0, 0.0, 0.0, 0.0, 0.0, 1.695417961456531E9, 0.0, 2023-09-22 16:26:01.456
8.0, 25754.797548627565, 11784.174953004713, -34978.379008576754, -62327.52648920137, -187500.02235174447, 10647.34287826334, -119584.15741731614, -187500.02235174447, -34564.871736153575, 7172.071298607743, -8125.060275204215, -70079.87142561334, 8495.048701172913, -17546.90170847198, -4500.479042587166, 2388.1944880717383, -0.062, 0.986, 0.222, 192.0, 0.0, 0.0, 0.0, 0.0, 0.0, 0.0, 0.0, 0.0, 0.0, 1.695417961456535E9, 0.0, 2023-09-22 16:26:01.456
10.0, 25775.495263993176, 11806.414938737744, -34969.080682883345, -62301.68787261104, -187500.02235174447, 10629.10385478781, -119636.4381475971, -187500.02235174447, -34560.84842215162, 7173.345348041696, -8075.685271702442, -70080.05023956898, 8492.321788349365, -17517.41975753543, -4510.89495550334, 2427.8241309909977, -0.062, 0.986, 0.222, 192.0, 0.0, 0.0, 0.0, 0.0, 0.0, 0.0, 0.0, 0.0, 0.0, 1.695417961456539E9, 0.0, 2023-09-22 16:26:01.456
12.0, 25731.216458227213, 11763.052554494448, -35003.345907133335, -62354.52739650338, -187500.02235174447, 10654.674250444681, -119564.68904789556, -187500.02235174447, -34572.292515312736, 7174.619397475648, -8126.446083360444, -70090.06382108496, 8490.757166237494, -17548.08635092811, -4506.469310101189, 2363.6075691709007, -0.06, 0.988, 0.218, 192.0, 127.0, 16.0, 15.0, 112.0, 3.0, 104.0, 0.0, 0.0, 0.0, 1.695417961456542E9, 0.0, 2023-09-22 16:26:01.456
14.0, 25764.05117083206, 11797.787165377995, -34983.698723757116, -62311.79086110483, -187500.02235174447, 10640.011506081999, -119599.44601052356, -187500.02235174447, -34577.522823515275, 7160.783667657813, -8072.936007134439, -70091.02494609654, 8479.380128309742, -17505.819202163126, -4522.987249253661, 2417.0505901635397, -0.06, 0.988, 0.218, 192.0, 0.0, 0.0, 0.0, 0.0, 0.0, 0.0, 0.0, 0.0, 0.0, 1.695417961516313E9, 0.0, 2023-09-22 16:26:01.516
16.0, 25754.976362583206, 11785.270188483024, -34982.17880513416, -62322.497346698925, -187500.02235174447, 10638.178663036664, -119557.20121350304, -187500.02235174447, -34575.645276981035, 7162.840028147702, -8135.051504975737, -70081.92778610323, 8484.811602212381, -17546.029990438223, -4509.218574669191, 2343.1557229942946, -0.06, 0.988, 0.218, 192.0, 0.0, 0.0, 0.0, 0.0, 0.0, 0.0, 0.0, 0.0, 0.0, 1.695417961516327E9, 0.0, 2023-09-22 16:26:01.516
18.0, 25770.577880213008, 11804.693854414685, -34983.67637201266, -62309.086300025745, -187500.02235174447, 10640.480892715561, -119552.03796053387, -187500.02235174447, -34568.06803561068, 7176.496944009894, -8069.5608937216875, -70076.27279475603, 8491.941808693626, -17510.155440587456, -4505.977571723172, 2384.528801981068, -0.06, 0.988, 0.218, 192.0, 0.0, 0.0, 0.0, 0.0, 0.0, 0.0, 0.0, 0.0, 0.0, 1.69541796151633E9, 0.0, 2023-09-22 16:26:01.516
20.0, 25751.33302823699, 11783.19147624868, -34993.33232561735, -62332.063893325794, -187500.02235174447, 10618.598534893816, -119529.68621607855, -187500.02235174447, -34567.41983502148, 7177.100441110188, -8133.173958441492, -70080.56432969145, 8490.511297048486, -17552.601403308083, -4516.75111255063, 2314.433731369225, -0.06, 0.988, 0.218, 192.0, 0.0, 0.0, 0.0, 0.0, 0.0, 0.0, 0.0, 0.0, 0.0, 1.695417961516333E9, 0.0, 2023-09-22 16:26:01.516
22.0, 25749.410778213834, 11782.655034381753, -35007.90566300222, -62334.164957304594, -187500.02235174447, 10646.940546863145, -119474.65622122958, -187500.02235174447, -34584.876547441076, 7157.6767751785255, -8066.006966353294, -70097.01521361056, 8478.798982953904, -17514.37992028951, -4516.818167783996, 2365.7086331496994, -0.058, 0.988, 0.214, 192.0, 127.0, 24.0, 15.0, 112.0, 3.0, 88.0, 0.0, 0.0, 0.0, 1.69541796151634E9, 0.0, 2023-09-22 16:26:01.516
24.0, 25760.38548474139, 11793.249761253568, -34979.228374866056, -62315.165974517586, -187500.02235174447, 10620.945468061624, -119476.91374741957, -187500.02235174447, -34574.55004150272, 7170.081993351221, -8122.825100758684, -70079.37968723533, 8486.376224324255, -17542.297249114188, -4524.060132987515, 2307.951725477186, -0.058, 0.988, 0.214, 192.0, 0.0, 0.0, 0.0, 0.0, 0.0, 0.0, 0.0, 0.0, 0.0, 1.695417961516343E9, 0.0, 2023-09-22 16:26:01.516
26.0, 25776.970479127227, 11813.701607430174, -34979.31778184388, -62299.430346421046, -187500.02235174447, 10649.153369564221, -119418.91097055805, -187500.02235174447, -34565.855212909606, 7185.236476091919, -8059.949643605905, -70066.39332370678, 8501.39659659822, -17507.22736206381, -4493.639408783843, 2349.4142114417805, -0.058, 0.988, 0.214, 192.0, 0.0, 0.0, 0.0, 0.0, 0.0, 0.0, 0.0, 0.0, 0.0, 1.695417961516346E9, 0.0, 2023-09-22 16:26:01.516
28.0, 25764.565260954532, 11800.558781690454, -34986.850319725316, -62315.009512306395, -187500.02235174447, 10618.732645360547, -119446.694188916, -187500.02235174447, -34555.55105871571, 7193.506621540382, -8107.514155806799, -70056.22327997962, 8499.809622741894, -17532.17190887593, -4509.352685135923, 2287.4775275561246, -0.058, 0.988, 0.214, 192.0, 0.0, 0.0, 0.0, 0.0, 0.0, 0.0, 0.0, 0.0, 0.0, 1.69541796151635E9, 0.0, 2023-09-22 16:26:01.516
30.0, 25774.288269792592, 11813.232220796612, -34996.95330821911, -62312.7072826275, -187500.02235174447, 10663.167913337698, -119352.34747557015, -187500.02235174447, -34577.723989215374, 7177.838048677212, -8049.35491673409, -70076.16103603377, 8483.112869633778, -17499.784231160193, -4514.18066193827, 2335.243205457116, -0.058, 0.988, 0.214, 192.0, 0.0, 0.0, 0.0, 0.0, 0.0, 0.0, 0.0, 0.0, 0.0, 1.695417961576403E9, 0.0, 2023-09-22 16:26:01.576
32.0, 25748.270839246612, 11774.250778466556, -35006.85513101282, -62340.98223936347, -187500.02235174447, 10629.886165843745, -119399.1296767151, -187500.02235174447, -34571.577259490165, 7182.733080712925, -8088.492821275333, -70074.57406217743, 8479.424831798653, -17519.99020814779, -4529.871586545895, 2292.0596351694626, -0.05, 0.984, 0.218, 192.0, 127.0, 56.0, 15.0, 96.0, 3.0, 104.0, 0.0, 0.0, 0.0, 1.695417961576416E9, 0.0, 2023-09-22 16:26:01.576
34.0, 25757.658571917844, 11779.279920969, -35000.060200698405, -62334.92491661607, -187500.02235174447, 10668.82290468489, -119313.03075707327, -187500.02235174447, -34590.263317854806, 7144.17632152752, -8057.781524393741, -70103.09488810241, 8476.854381186293, -17513.552905744662, -4515.521766605588, 2320.111074460873, -0.05, 0.984, 0.218, 192.0, 0.0, 0.0, 0.0, 0.0, 0.0, 0.0, 0.0, 0.0, 0.0, 1.695417961576419E9, 0.0, 2023-09-22 16:26:01.576
36.0, 25754.90930734984, 11771.322699942912, -34993.622898295274, -62335.707227672014, -187500.02235174447, 10619.134976760743, -119408.51740938633, -187500.02235174447, -34570.37026528958, 7152.468818720439, -8095.824193456673, -70089.61678619585, 8484.476326045553, -17535.502318799772, -4528.75399932313, 2273.5523907604684, -0.05, 0.984, 0.218, 192.0, 0.0, 0.0, 0.0, 0.0, 0.0, 0.0, 0.0, 0.0, 0.0, 1.695417961576423E9, 0.0, 2023-09-22 16:26:01.576
38.0, 25766.263993533135, 11780.106935513848, -34985.15158714671, -62327.30297175681, -187500.02235174447, 10647.655802685715, -119342.11037660962, -187500.02235174447, -34564.06707335318, 7147.752600640369, -8078.3674810370785, -70093.93067287572, 8497.887372718737, -17543.548946803683, -4511.341990392446, 2275.2958268279826, -0.05, 0.984, 0.218, 192.0, 0.0, 0.0, 0.0, 0.0, 0.0, 0.0, 0.0, 0.0, 0.0, 1.695417961576426E9, 0.0, 2023-09-22 16:26:01.576
40.0, 25750.95304858125, 11768.439324908177, -34998.093247186334, -62339.417617251594, -187500.02235174447, 10604.963970776078, -119433.86428759866, -187500.02235174447, -34559.46261399539, 7151.708859408958, -8098.908734191506, -70087.44866698369, 8494.288741861432, -17552.981382963822, -4525.580051610476, 2238.9965938325636, -0.05, 0.984, 0.218, 192.0, 0.0, 0.0, 0.0, 0.0, 0.0, 0.0, 0.0, 0.0, 0.0, 1.695417961576429E9, 0.0, 2023-09-22 16:26:01.576
42.0, 25752.897650348863, 11767.321737685412, -35000.887215243245, -62341.161053319105, -187500.02235174447, 10653.48960798855, -119327.64879794704, -187500.02235174447, -34582.39550380653, 7125.356152696151, -8087.710510219397, -70111.81206843998, 8484.655140001196, -17556.602365565584, -4524.2836504320685, 2245.903282869254, -0.054, 0.976, 0.216, 192.0, 127.0, 40.0, 15.0, 64.0, 3.0, 96.0, 0.0, 0.0, 0.0, 1.695417961576432E9, 0.0, 2023-09-22 16:26:01.576
44.0, 25748.29319099107, 11766.651185351753, -35006.09517170134, -62341.921012630584, -187500.02235174447, 10612.787081335437, -119421.1908484925, -187500.02235174447, -34568.448015266426, 7155.016917588344, -8086.3470538076235, -70094.86944614285, 8487.449108058108, -17544.487720070807, -4538.097028505448, 2233.699230396656, -0.054, 0.976, 0.216, 192.0, 0.0, 0.0, 0.0, 0.0, 0.0, 0.0, 0.0, 0.0, 0.0, 1.695417961636839E9, 0.0, 2023-09-22 16:26:01.636
46.0, 25735.306827462537, 11749.574452587898, -35020.37793640827, -62362.73048671848, -187500.02235174447, 10665.559549994416, -119297.406887699, -187500.02235174447, -34592.699658000434, 7114.269687446319, -8089.9903881538385, -70119.32225457695, 8474.44039278512, -17554.970688220346, -4533.581976125476, 2230.569986172913, -0.054, 0.976, 0.216, 192.0, 0.0, 0.0, 0.0, 0.0, 0.0, 0.0, 0.0, 0.0, 0.0, 1.695417961636853E9, 0.0, 2023-09-22 16:26:01.636
48.0, 25756.630391672898, 11773.624929621808, -35004.68701180065, -62331.48274796996, -187500.02235174447, 10626.622811153271, -119386.05390620875, -187500.02235174447, -34582.0155241508, 7125.244393973875, -8075.282940302246, -70106.91703640427, 8474.552151507396, -17539.27976361272, -4544.266109975113, 2250.7759631605104, -0.054, 0.976, 0.216, 192.0, 0.0, 0.0, 0.0, 0.0, 0.0, 0.0, 0.0, 0.0, 0.0, 1.695417961636857E9, 0.0, 2023-09-22 16:26:01.636
50.0, 25742.034702543584, 11757.934005014182, -35007.950366491124, -62347.53130048887, -187500.02235174447, 10659.613985969305, -119281.648907858, -187500.02235174447, -34578.23807933785, 7136.3755627126175, -8105.435443572455, -70101.41850726826, 8490.980683682046, -17568.58290059363, -4517.913403262306, 2214.0073435315303, -0.054, 0.976, 0.216, 192.0, 0.0, 0.0, 0.0, 0.0, 0.0, 0.0, 0.0, 0.0, 0.0, 1.69541796163686E9, 0.0, 2023-09-22 16:26:01.636
52.0, 25755.71397015023, 11773.066136010426, -35008.106828702315, -62333.695570671036, -187500.02235174447, 10631.00375306651, -119355.74494072735, -187500.02235174447, -34582.59666950663, 7133.089856277687, -8070.767887922274, -70106.71587070417, 8475.625035241252, -17542.878394470026, -4538.275842461091, 2237.476675209603, -0.058, 0.98, 0.216, 192.0, 127.0, 24.0, 15.0, 80.0, 3.0, 96.0, 0.0, 0.0, 0.0, 1.69541796163687E9, 0.0, 2023-09-22 16:26:01.636
54.0, 25737.05026353005, 11750.177949688192, -35008.866788013795, -62357.09784711574, -187500.02235174447, 10655.970651623089, -119280.30780319069, -187500.02235174447, -34587.15642537551, 7129.625335887115, -8113.012684942804, -70110.98505389513, 8478.553113764896, -17570.594557594606, -4524.104836476426, 2190.2027356866283, -0.058, 0.98, 0.216, 192.0, 0.0, 0.0, 0.0, 0.0, 0.0, 0.0, 0.0, 0.0, 0.0, 1.695417961636874E9, 0.0, 2023-09-22 16:26:01.636
56.0, 25750.215441014225, 11768.595787119364, -35007.816256024395, -62339.75289341842, -187500.02235174447, 10635.742322891036, -119361.95872568592, -187500.02235174447, -34590.15155913252, 7124.596193384671, -8069.113858832581, -70112.48262077363, 8467.801924681893, -17544.420664837442, -4542.388563440867, 2225.697305881656, -0.058, 0.98, 0.216, 192.0, 0.0, 0.0, 0.0, 0.0, 0.0, 0.0, 0.0, 0.0, 0.0, 1.695417961636877E9, 0.0, 2023-09-22 16:26:01.636
58.0, 25732.6246181279, 11748.456865365133, -35015.862884028305, -62365.92678617559, -187500.02235174447, 10658.16112257971, -119310.48265820536, -187500.02235174447, -34592.051457411224, 7147.1714552845315, -8120.1652431685025, -70114.13664986333, 8477.34611956431, -17573.120304718053, -4534.051362759038, 2173.729500023067, -0.058, 0.98, 0.216, 192.0, 0.0, 0.0, 0.0, 0.0, 0.0, 0.0, 0.0, 0.0, 0.0, 1.695417961636881E9, 0.0, 2023-09-22 16:26:01.636
60.0, 25752.450615459755, 11768.193455719169, -35019.23799744106, -62342.703323686525, -187500.02235174447, 10649.48864573105, -119386.41153412004, -187500.02235174447, -34594.97953593487, 7112.593306612171, -8065.515227975277, -70114.74014696362, 8466.371413036753, -17534.60824902156, -4552.066868790015, 2223.43977969167, -0.058, 0.98, 0.216, 192.0, 0.0, 0.0, 0.0, 0.0, 0.0, 0.0, 0.0, 0.0, 0.0, 1.695417961695484E9, 0.0, 2023-09-22 16:26:01.695
62.0, 25755.95983933924, 11769.176932475202, -35003.345907133335, -62347.12896908868, -187500.02235174447, 10646.15823580721, -119381.2259294064, -187500.02235174447, -34576.628753737066, 7137.180225513009, -8127.183690927469, -70096.43406825472, 8481.905875433193, -17581.658671099984, -4528.575185367487, 2151.5565695234027, -0.058, 0.99, 0.216, 192.0, 127.0, 24.0, 15.0, 120.0, 3.0, 96.0, 0.0, 0.0, 0.0, 1.695417961695496E9, 0.0, 2023-09-22 16:26:01.695
64.0, 25740.76065310963, 11752.70369681164, -35038.95223605064, -62364.228053596984, -187500.02235174447, 10669.761677952014, -119399.91198777105, -187500.02235174447, -34595.69479175744, 7118.002428770355, -8056.30630925969, -70114.87425743035, 8465.209122325077, -17542.788987492204, -4532.576147624987, 2201.333904425371, -0.058, 0.99, 0.216, 192.0, 0.0, 0.0, 0.0, 0.0, 0.0, 0.0, 0.0, 0.0, 0.0, 1.6954179616955E9, 0.0, 2023-09-22 16:26:01.695
66.0, 25741.967647310215, 11754.156560201236, -35017.78513405146, -62358.77422794989, -187500.02235174447, 10664.330204049375, -119406.84102855218, -187500.02235174447, -34590.30802134371, 7127.658382375048, -8121.998086213838, -70107.87816141584, 8465.47734325854, -17577.165970464466, -4543.1261710078925, 2144.5828252533465, -0.058, 0.99, 0.216, 192.0, 0.0, 0.0, 0.0, 0.0, 0.0, 0.0, 0.0, 0.0, 0.0, 1.695417961695503E9, 0.0, 2023-09-22 16:26:01.695
68.0, 25769.706162179253, 11783.213827993135, -35011.54899734843, -62326.31949500078, -187500.02235174447, 10672.35448030883, -119442.24619176939, -187500.02235174447, -34598.66757377, 7121.869280561124, -8060.30727151719, -70111.83442018443, 8460.872883900749, -17546.320563116144, -4547.775333854596, 2201.736235825567, -0.058, 0.99, 0.216, 192.0, 0.0, 0.0, 0.0, 0.0, 0.0, 0.0, 0.0, 0.0, 0.0, 1.695417961695507E9, 0.0, 2023-09-22 16:26:01.695
70.0, 25742.95112406625, 11756.972880002604, -35015.706421817114, -62357.50017851594, -187500.02235174447, 10652.841407399346, -119490.63771851514, -187500.02235174447, -34576.472291525875, 7149.093705307688, -8130.268231662301, -70091.4943327301, 8485.660968501685, -17592.61102588308, -4527.792874311552, 2120.1747203081513, -0.058, 0.99, 0.216, 192.0, 0.0, 0.0, 0.0, 0.0, 0.0, 0.0, 0.0, 0.0, 0.0, 1.69541796169551E9, 0.0, 2023-09-22 16:26:01.695
72.0, 25749.70135089175, 11765.08656323988, -35026.8152388114, -62351.308745301816, -187500.02235174447, 10684.8714572038, -119474.27624157385, -187500.02235174447, -34606.691850029456, 7118.829443315201, -8060.776658150752, -70128.553525037, 8456.402535009687, -17552.489644585807, -4543.930833808284, 2186.1347181957626, -0.056, 0.994, 0.216, 192.0, 127.0, 32.0, 15.5, 8.0, 3.0, 96.0, 0.0, 0.0, 0.0, 1.695417961695513E9, 0.0, 2023-09-22 16:26:01.695
74.0, 25761.57012719752, 11778.028223279503, -34998.49557858653, -62336.78011140587, -187500.02235174447, 10641.307907260407, -119562.49857693895, -187500.02235174447, -34569.56560248919, 7149.339574496696, -8127.653077561031, -70093.08130658642, 8483.559904522885, -17591.895770060513, -4539.572243639498, 2117.000772595498, -0.056, 0.994, 0.216, 192.0, 0.0, 0.0, 0.0, 0.0, 0.0, 0.0, 0.0, 0.0, 0.0, 1.695417961755745E9, 0.0, 2023-09-22 16:26:01.755
76.0, 25765.2805167771, 11781.604502392353, -35003.144741433236, -62335.03667533835, -187500.02235174447, 10659.479875502573, -119572.69097241056, -187500.02235174447, -34572.493681012835, 7134.498016178372, -8075.729975191352, -70094.55652172047, 8489.460765059086, -17569.745191305305, -4519.612135840909, 2144.1134386197855, -0.056, 0.994, 0.216, 192.0, 0.0, 0.0, 0.0, 0.0, 0.0, 0.0, 0.0, 0.0, 0.0, 1.695417961755759E9, 0.0, 2023-09-22 16:26:01.755
78.0, 25748.29319099107, 11766.070039995915, -35006.47515135707, -62345.7655126769, -187500.02235174447, 10620.520784916973, -119673.6985056041, -187500.02235174447, -34574.4606345249, 7138.476626691417, -8121.081664691171, -70095.2941292875, 8477.279064330944, -17594.06388927268, -4537.918214549806, 2085.641275124702, -0.056, 0.994, 0.216, 192.0, 0.0, 0.0, 0.0, 0.0, 0.0, 0.0, 0.0, 0.0, 0.0, 1.695417961755764E9, 0.0, 2023-09-22 16:26:01.755
80.0, 25770.309659279545, 11786.14190651678, -35001.78128502146, -62326.3641984897, -187500.02235174447, 10649.935680620156, -119649.89389775919, -187500.02235174447, -34578.640410738044, 7149.026650074322, -8075.707623446897, -70105.62063522586, 8479.15661086519, -17571.376868650543, -4529.357496423423, 2115.9055371171876, -0.056, 0.994, 0.216, 192.0, 0.0, 0.0, 0.0, 0.0, 0.0, 0.0, 0.0, 0.0, 0.0, 1.695417961755767E9, 0.0, 2023-09-22 16:26:01.755
82.0, 25779.47387450622, 11794.970845576627, -34984.056351668405, -62318.04934955232, -187500.02235174447, 10583.394537376707, -119790.77694306099, -187500.02235174447, -34528.70661362488, 7176.921627154545, -8120.768740268796, -70057.67614336922, 8509.152651924212, -17598.33307246364, -4523.993077754149, 2044.9834519604985, -0.054, 0.99, 0.212, 192.0, 127.0, 40.0, 15.0, 120.0, 3.0, 80.0, 0.0, 0.0, 0.0, 1.69541796175577E9, 0.0, 2023-09-22 16:26:01.755
84.0, 25762.777121398107, 11777.33531920139, -35018.88036952977, -62343.17271032008, -187500.02235174447, 10633.954183334612, -119733.80234644441, -187500.02235174447, -34562.07776809666, 7155.598062944182, -8075.484106002344, -70093.17071356425, 8482.844648700315, -17575.57899660814, -4523.143711464848, 2061.4566876240597, -0.054, 0.99, 0.212, 192.0, 0.0, 0.0, 0.0, 0.0, 0.0, 0.0, 0.0, 0.0, 0.0, 1.695417961755773E9, 0.0, 2023-09-22 16:26:01.755
86.0, 25759.536118452088, 11777.67059536822, -35020.266177686, -62339.88700388515, -187500.02235174447, 10583.998034477001, -119861.85549042888, -187500.02235174447, -34547.34796850061, 7175.781688187324, -8104.027283671771, -70072.54005343199, 8479.67070098766, -17582.262168200275, -4544.80255184204, 2027.7279052410015, -0.054, 0.99, 0.212, 192.0, 0.0, 0.0, 0.0, 0.0, 0.0, 0.0, 0.0, 0.0, 0.0, 1.695417961755777E9, 0.0, 2023-09-22 16:26:01.755
88.0, 25759.022028329615, 11778.966996546627, -35028.17869522318, -62339.43996899605, -187500.02235174447, 10626.645162897727, -119795.31434718543, -187500.02235174447, -34568.47036701088, 7162.057717091766, -8083.955417150905, -70094.1988938092, 8468.114849104268, -17572.09212447311, -4538.7228773501965, 2037.4509140790599, -0.054, 0.99, 0.212, 192.0, 0.0, 0.0, 0.0, 0.0, 0.0, 0.0, 0.0, 0.0, 0.0, 1.69541796175578E9, 0.0, 2023-09-22 16:26:01.755
90.0, 25789.44275253329, 11807.934857360704, -35000.484883843055, -62307.387567447135, -187500.02235174447, 10546.156531114166, -119960.35962824342, -187500.02235174447, -34521.956386799386, 7206.582392046737, -8106.173051139481, -70041.11350072784, 8497.172116896167, -17573.433229140428, -4533.425513914289, 1995.161413569619, -0.054, 0.99, 0.212, 192.0, 0.0, 0.0, 0.0, 0.0, 0.0, 0.0, 0.0, 0.0, 0.0, 1.695417961816239E9, 0.0, 2023-09-22 16:26:01.816
92.0, 25744.292228733568, 11759.006888748037, -35050.08340478938, -62366.91026293162, -187500.02235174447, 10603.153479475199, -119868.78453121001, -187500.02235174447, -34552.7570906588, 7180.095574867199, -8091.912638176995, -70076.45160871168, 8478.44135504262, -17573.14265646251, -4523.27782193158, 1982.197401785541, -0.052000000000000005, 0.98, 0.212, 192.0, 127.0, 48.0, 15.0, 80.0, 3.0, 80.0, 0.0, 0.0, 0.0, 1.69541796181625E9, 0.0, 2023-09-22 16:26:01.816
94.0, 25759.893746363374, 11779.145810502268, -35036.69470986065, -62347.106617344216, -187500.02235174447, 10565.937824957113, -119986.93585240077, -187500.02235174447, -34557.115680827585, 7172.071298607743, -8082.50255376131, -70082.50893145907, 8456.58134896533, -17556.937641732413, -4563.846238117962, 1996.0778350922867, -0.052000000000000005, 0.98, 0.212, 192.0, 0.0, 0.0, 0.0, 0.0, 0.0, 0.0, 0.0, 0.0, 0.0, 1.695417961816254E9, 0.0, 2023-09-22 16:26:01.816
96.0, 25727.28255120308, 11747.56279558692, -35057.660646159726, -62381.081268916285, -187500.02235174447, 10614.9552005476, -119896.2995286345, -187500.02235174447, -34573.74537870233, 7165.186961315509, -8106.240106372847, -70093.95302462019, 8459.084744344324, -17576.875397786545, -4544.444923930755, 1979.3810819841722, -0.052000000000000005, 0.98, 0.212, 192.0, 0.0, 0.0, 0.0, 0.0, 0.0, 0.0, 0.0, 0.0, 0.0, 1.695417961816258E9, 0.0, 2023-09-22 16:26:01.816
98.0, 25747.19795551276, 11772.417935421221, -35026.3682039223, -62348.73829468946, -187500.02235174447, 10582.165191431664, -120007.56651253301, -187500.02235174447, -34580.71912297238, 7156.492132722394, -8086.436460785444, -70097.30578628847, 8444.578462192829, -17558.211691166365, -4575.133869067892, 2009.2430125764624, -0.052000000000000005, 0.98, 0.212, 192.0, 0.0, 0.0, 0.0, 0.0, 0.0, 0.0, 0.0, 0.0, 0.0, 1.695417961816262E9, 0.0, 2023-09-22 16:26:01.816
100.0, 25733.876315817397, 11760.035068992982, -35030.79384932445, -62365.81502745331, -187500.02235174447, 10613.703502858103, -119946.63565714785, -187500.02235174447, -34575.287649069745, 7167.936225883512, -8118.287696634257, -70095.18237056522, 8463.890369402216, -17585.749040335304, -4543.193226241258, 1974.1731255260856, -0.052000000000000005, 0.98, 0.212, 192.0, 0.0, 0.0, 0.0, 0.0, 0.0, 0.0, 0.0, 0.0, 0.0, 1.695417961816265E9, 0.0, 2023-09-22 16:26:01.816
102.0, 25734.90449606234, 11761.733801571585, -35047.4235471992, -62363.35633556323, -187500.02235174447, 10590.815316535869, -120048.49255663069, -187500.02235174447, -34588.96691667639, 7157.296795522785, -8081.407318283001, -70104.57010323646, 8448.95940410607, -17555.8424062541, -4566.573150941509, 2003.6327247181805, -0.052000000000000005, 0.984, 0.216, 192.0, 127.0, 48.0, 15.0, 96.0, 3.0, 96.0, 0.0, 0.0, 0.0, 1.695417961816269E9, 0.0, 2023-09-22 16:26:01.816
104.0, 25759.71493240773, 11782.118592514826, -35010.43141012567, -62340.401094007626, -187500.02235174447, 10584.914455999668, -120032.1310796894, -187500.02235174447, -34564.447053008924, 7175.17819108703, -8140.617089345109, -70082.01719308105, 8475.24505558551, -17595.29323521772, -4547.194188498758, 1942.9477385220218, -0.052000000000000005, 0.984, 0.216, 192.0, 0.0, 0.0, 0.0, 0.0, 0.0, 0.0, 0.0, 0.0, 0.0, 1.695417961876373E9, 0.0, 2023-09-22 16:26:01.876
106.0, 25769.393237756878, 11792.04276705298, -35008.88913975825, -62323.4584717105, -187500.02235174447, 10559.56757778735, -120140.0005984307, -187500.02235174447, -34550.63367493554, 7193.819545962757, -8090.660940487497, -70060.47011142613, 8487.650273758207, -17563.821979024648, -4537.806455827529, 1955.0623840167982, -0.052000000000000005, 0.984, 0.216, 192.0, 0.0, 0.0, 0.0, 0.0, 0.0, 0.0, 0.0, 0.0, 0.0, 1.695417961876388E9, 0.0, 2023-09-22 16:26:01.876
108.0, 25724.890914546362, 11743.271260651502, -35036.135916249266, -62372.85582695673, -187500.02235174447, 10587.1496304452, -120101.93557762333, -187500.02235174447, -34571.77842519026, 7165.298720037785, -8131.452874118433, -70085.1911407937, 8471.199389839101, -17587.738345591824, -4546.747153609652, 1897.3725315776505, -0.052000000000000005, 0.984, 0.216, 192.0, 0.0, 0.0, 0.0, 0.0, 0.0, 0.0, 0.0, 0.0, 0.0, 1.695417961876391E9, 0.0, 2023-09-22 16:26:01.876
110.0, 25748.51670843562, 11771.792086576474, -35034.05720401493, -62346.056085354816, -187500.02235174447, 10580.33234838633, -120170.62248833448, -187500.02235174447, -34589.905689943516, 7161.677737436025, -8071.013757111283, -70103.54192299151, 8450.72519191804, -17554.36719112005, -4571.624645188409, 1956.9622822954993, -0.052000000000000005, 0.984, 0.216, 192.0, 0.0, 0.0, 0.0, 0.0, 0.0, 0.0, 0.0, 0.0, 0.0, 1.695417961876395E9, 0.0, 2023-09-22 16:26:01.876
112.0, 25724.645045357353, 11745.774656030495, -35042.10383201884, -62371.06768740031, -187500.02235174447, 10584.512124599472, -120165.74980804323, -187500.02235174447, -34583.28957358475, 7160.3813362576175, -8144.1710167135025, -70098.46807700016, 8458.704764688584, -17595.53910440673, -4557.699508392752, 1889.839993696212, -0.052000000000000005, 0.982, 0.218, 192.0, 127.0, 48.0, 15.0, 88.0, 3.0, 104.0, 0.0, 0.0, 0.0, 1.695417961876398E9, 0.0, 2023-09-22 16:26:01.876
114.0, 25754.842252116472, 11777.961168046138, -35027.530494633975, -62341.54103297485, -187500.02235174447, 10576.75606927348, -120217.24822726825, -187500.02235174447, -34576.69580897043, 7168.56207472826, -8094.751309722818, -70089.7956001515, 8466.505523503485, -17557.67524929944, -4550.077563533493, 1938.6338518421476, -0.052000000000000005, 0.982, 0.218, 192.0, 0.0, 0.0, 0.0, 0.0, 0.0, 0.0, 0.0, 0.0, 0.0, 1.695417961876401E9, 0.0, 2023-09-22 16:26:01.876
116.0, 25739.754824609143, 11759.610385848331, -35029.85507605733, -62359.44478028355, -187500.02235174447, 10556.237167863508, -120230.10048033006, -187500.02235174447, -34576.74051245934, 7176.765164943357, -8160.666604121519, -70087.82864663943, 8465.253825813988, -17593.48274391684, -4552.290386234568, 1863.911970128056, -0.052000000000000005, 0.982, 0.218, 192.0, 0.0, 0.0, 0.0, 0.0, 0.0, 0.0, 0.0, 0.0, 0.0, 1.695417961876405E9, 0.0, 2023-09-22 16:26:01.876
118.0, 25728.444841914756, 11751.451999122144, -35056.833631614885, -62375.09100140227, -187500.02235174447, 10587.708424056582, -120210.22977950929, -187500.02235174447, -34592.40908532251, 7141.6505744040705, -8093.723129477875, -70105.64298697031, 8452.558034963375, -17557.89876674399, -4559.822924116007, 1919.321944632762, -0.052000000000000005, 0.982, 0.218, 192.0, 0.0, 0.0, 0.0, 0.0, 0.0, 0.0, 0.0, 0.0, 0.0, 1.695417961876408E9, 0.0, 2023-09-22 16:26:01.876
120.0, 25733.965722795216, 11757.934005014182, -35036.471192416095, -62365.94913792004, -187500.02235174447, 10559.142894642699, -120253.36864630804, -187500.02235174447, -34589.23513760986, 7149.674850663526, -8154.341060440667, -70100.7479549346, 8449.719363417551, -17588.72182234786, -4578.2854650360905, 1865.2083713064637, -0.052000000000000005, 0.982, 0.218, 192.0, 0.0, 0.0, 0.0, 0.0, 0.0, 0.0, 0.0, 0.0, 0.0, 1.69541796193678E9, 0.0, 2023-09-22 16:26:01.936
122.0, 25717.85011504294, 11740.298478638946, -35061.81807062842, -62382.46707707251, -187500.02235174447, 10606.886220799235, -120196.03642178017, -187500.02235174447, -34600.03103018177, 7134.453312689461, -8094.728957978364, -70119.76928946606, 8445.584290693318, -17555.23890915381, -4565.500267207654, 1911.4094270955834, -0.056, 0.984, 0.222, 192.0, 127.0, 32.0, 15.0, 96.0, 3.0, 120.0, 0.0, 0.0, 0.0, 1.695417961936792E9, 0.0, 2023-09-22 16:26:01.936
124.0, 25737.162022252327, 11760.593862604364, -35030.63738711326, -62357.947213405045, -187500.02235174447, 10568.284758124919, -120251.96048640735, -187500.02235174447, -34587.670515497986, 7147.46202796245, -8158.878464565095, -70104.12306834736, 8448.95940410607, -17586.91133104698, -4581.52646798211, 1858.815772392246, -0.056, 0.984, 0.222, 192.0, 0.0, 0.0, 0.0, 0.0, 0.0, 0.0, 0.0, 0.0, 0.0, 1.695417961936795E9, 0.0, 2023-09-22 16:26:01.936
126.0, 25749.656647402844, 11774.608406377842, -35025.094154488346, -62348.60418422273, -187500.02235174447, 10595.95621776059, -120194.98588979077, -187500.02235174447, -34578.97568690487, 7157.788533900802, -8113.191498898447, -70096.83639965492, 8464.046831613401, -17566.928871503937, -4555.173761269303, 1886.3754733056396, -0.056, 0.984, 0.222, 192.0, 0.0, 0.0, 0.0, 0.0, 0.0, 0.0, 0.0, 0.0, 0.0, 1.695417961936799E9, 0.0, 2023-09-22 16:26:01.936
128.0, 25745.834499100984, 11770.76390633153, -35019.908549774715, -62350.05704761232, -187500.02235174447, 10546.42475204763, -120255.9838004093, -187500.02235174447, -34571.241983323336, 7173.501810252883, -8159.593720387665, -70084.29707101549, 8466.214950825566, -17595.09206951762, -4563.66742416232, 1820.7283998404027, -0.056, 0.984, 0.222, 192.0, 0.0, 0.0, 0.0, 0.0, 0.0, 0.0, 0.0, 0.0, 0.0, 1.695417961936802E9, 0.0, 2023-09-22 16:26:01.936
130.0, 25733.71985360621, 11760.772676560007, -35038.97458779509, -62367.55846352082, -187500.02235174447, 10593.989264248523, -120154.10454918201, -187500.02235174447, -34584.3624573186, 7159.979004857422, -8117.214812900403, -70099.2503880561, 8465.097363602801, -17579.46820014336, -4556.604272914443, 1843.1471995290758, -0.056, 0.984, 0.222, 192.0, 0.0, 0.0, 0.0, 0.0, 0.0, 0.0, 0.0, 0.0, 0.0, 1.695417961936805E9, 0.0, 2023-09-22 16:26:01.936
132.0, 25732.28934196107, 11763.499589383555, -35032.291416202956, -62360.808236695324, -187500.02235174447, 10555.052525407378, -120214.5213144447, -187500.02235174447, -34587.670515497986, 7153.541702454294, -8146.115618481114, -70095.4505914987, 8453.116828574757, -17592.63337762754, -4586.555610484554, 1812.1006264806542, -0.054, 0.984, 0.226, 192.0, 127.0, 40.0, 15.0, 96.0, 3.5, 8.0, 0.0, 0.0, 0.0, 1.695417961936808E9, 0.0, 2023-09-22 16:26:01.936
134.0, 25716.6207690979, 11746.221690919601, -35057.75005313755, -62383.942292206564, -187500.02235174447, 10610.730720845548, -120082.37780122494, -187500.02235174447, -34623.54506534876, 7119.097664248666, -8115.672542532986, -70130.11814714887, 8434.296659743388, -17578.44001989842, -4586.197982573269, 1840.8896733390898, -0.054, 0.984, 0.226, 192.0, 0.0, 0.0, 0.0, 0.0, 0.0, 0.0, 0.0, 0.0, 0.0, 1.695417961996244E9, 0.0, 2023-09-22 16:26:01.996
136.0, 25736.446766429755, 11768.394621419266, -35029.29628244595, -62356.36023954872, -187500.02235174447, 10553.599662017783, -120169.43784587835, -187500.02235174447, -34594.62190802359, 7152.759391398357, -8148.574310371198, -70099.58566422292, 8451.52985471843, -17587.53717989173, -4588.4331570188, 1810.8042253022463, -0.054, 0.984, 0.226, 192.0, 0.0, 0.0, 0.0, 0.0, 0.0, 0.0, 0.0, 0.0, 0.0, 1.695417961996257E9, 0.0, 2023-09-22 16:26:01.996
138.0, 25740.4253769428, 11772.194417976669, -35024.60241611033, -62352.560442991315, -187500.02235174447, 10588.937770001623, -120060.22722246972, -187500.02235174447, -34602.40031509403, 7146.389144228595, -8138.851301533139, -70104.97243463666, 8459.129447833235, -17590.666424115472, -4563.801534629051, 1805.1492339550537, -0.054, 0.984, 0.226, 192.0, 0.0, 0.0, 0.0, 0.0, 0.0, 0.0, 0.0, 0.0, 0.0, 1.695417961996261E9, 0.0, 2023-09-22 16:26:01.996
140.0, 25746.840327601472, 11783.593807648875, -35014.052392727426, -62339.976410862975, -187500.02235174447, 10534.243051319487, -120155.35624687151, -187500.02235174447, -34581.6131927506, 7162.03536534731, -8146.629708603587, -70080.83255062492, 8465.05266011389, -17593.147467750012, -4575.960883612738, 1774.4155853290065, -0.054, 0.984, 0.226, 192.0, 0.0, 0.0, 0.0, 0.0, 0.0, 0.0, 0.0, 0.0, 0.0, 1.695417961996264E9, 0.0, 2023-09-22 16:26:01.996
142.0, 25735.351530951444, 11768.841656308372, -35021.74139282005, -62356.5167017599, -187500.02235174447, 10580.33234838633, -120041.89879201636, -187500.02235174447, -34598.913442959005, 7151.150065797576, -8139.566557355709, -70097.1940275662, 8464.091535102312, -17595.47204917336, -4560.202903771747, 1761.4068700560179, -0.054, 0.99, 0.226, 192.0, 127.0, 40.0, 15.0, 120.0, 3.5, 8.0, 0.0, 0.0, 0.0, 1.695417961996268E9, 0.0, 2023-09-22 16:26:01.996
144.0, 25741.09592927646, 11773.177894732702, -35023.77540156549, -62349.72177144549, -187500.02235174447, 10539.18278684411, -120130.34464482602, -187500.02235174447, -34583.87071894058, 7162.124772325132, -8120.992257713349, -70088.76741990655, 8459.844703655805, -17581.636319355526, -4573.792764400574, 1761.9880154118557, -0.054, 0.99, 0.226, 192.0, 0.0, 0.0, 0.0, 0.0, 0.0, 0.0, 0.0, 0.0, 0.0, 1.695417961996271E9, 0.0, 2023-09-22 16:26:01.996
146.0, 25721.202876711235, 11750.781446788484, -35036.270026715996, -62374.219283368504, -187500.02235174447, 10585.070918210855, -120010.13696314539, -187500.02235174447, -34606.75890526282, 7135.772065612325, -8137.84547303265, -70109.50983876108, 8450.859302384772, -17597.99779629681, -4567.802496886551, 1737.0434685997332, -0.054, 0.99, 0.226, 192.0, 0.0, 0.0, 0.0, 0.0, 0.0, 0.0, 0.0, 0.0, 0.0, 1.695417961996274E9, 0.0, 2023-09-22 16:26:01.996
148.0, 25743.15228976635, 11775.703641856151, -35021.853151542324, -62346.23489931046, -187500.02235174447, 10543.921356668634, -120100.32625202254, -187500.02235174447, -34593.526672545275, 7146.635013417604, -8118.84649024564, -70096.05408859898, 8456.380183265232, -17581.77042982226, -4579.2242383032135, 1750.2757013172748, -0.054, 0.99, 0.226, 192.0, 0.0, 0.0, 0.0, 0.0, 0.0, 0.0, 0.0, 0.0, 0.0, 1.695417961996278E9, 0.0, 2023-09-22 16:26:01.996
150.0, 25718.543019121054, 11744.500606596543, -35038.48284941707, -62377.728507247986, -187500.02235174447, 10584.512124599472, -119994.53544551558, -187500.02235174447, -34600.41100983751, 7144.802170372269, -8147.054391748237, -70107.18525733773, 8459.487075744519, -17609.508944691293, -4561.007566572138, 1706.6450961405155, -0.054, 0.99, 0.226, 192.0, 0.0, 0.0, 0.0, 0.0, 0.0, 0.0, 0.0, 0.0, 0.0, 1.695417962055875E9, 0.0, 2023-09-22 16:26:02.055
152.0, 25754.81990037202, 11780.95630180315, -35023.23895969855, -62338.00945735091, -187500.02235174447, 10555.588967274305, -120064.27288821613, -187500.02235174447, -34610.75986752032, 7127.6807341195035, -8100.071024903182, -70115.20953359718, 8437.805883622872, -17575.847217541603, -4589.059005863548, 1750.5215705062833, -0.048, 0.982, 0.226, 192.0, 127.0, 64.0, 15.0, 88.0, 3.5, 8.0, 0.0, 0.0, 0.0, 1.695417962055886E9, 0.0, 2023-09-22 16:26:02.055
154.0, 25733.205763483737, 11758.805723047939, -35025.518837633, -62363.08811462976, -187500.02235174447, 10561.467476066051, -120001.1739136188, -187500.02235174447, -34569.69971295592, 7177.949807399489, -8158.4314296759885, -70071.98125982062, 8479.044852142913, -17620.59540994113, -4542.120342507404, 1673.1621829464655, -0.048, 0.982, 0.226, 192.0, 0.0, 0.0, 0.0, 0.0, 0.0, 0.0, 0.0, 0.0, 0.0, 1.69541796205589E9, 0.0, 2023-09-22 16:26:02.055
156.0, 25723.28158894558, 11745.551138585943, -35051.49156469006, -62372.00646066743, -187500.02235174447, 10566.206045890576, -120022.51982957362, -187500.02235174447, -34609.35170761964, 7129.915908565034, -8089.163373608992, -70112.10264111789, 8436.554185933373, -17570.81807503916, -4576.162049312836, 1727.9686603508785, -0.048, 0.982, 0.226, 192.0, 0.0, 0.0, 0.0, 0.0, 0.0, 0.0, 0.0, 0.0, 0.0, 1.695417962055893E9, 0.0, 2023-09-22 16:26:02.055
158.0, 25707.99299573815, 11730.307248867422, -35052.51974493501, -62386.177466652094, -187500.02235174447, 10587.931941501134, -119947.93205832626, -187500.02235174447, -34623.29919615974, 7120.617582871626, -8146.3391359256675, -70123.77025172356, 8429.982773063513, -17603.116345777078, -4577.681967935797, 1690.0601017546776, -0.048, 0.982, 0.226, 192.0, 0.0, 0.0, 0.0, 0.0, 0.0, 0.0, 0.0, 0.0, 0.0, 1.695417962055896E9, 0.0, 2023-09-22 16:26:02.055
160.0, 25730.545905893556, 11756.011754991026, -35047.13297452128, -62359.623594239194, -187500.02235174447, 10585.495601355506, -119972.29545978254, -187500.02235174447, -34619.253530413334, 7133.626298144615, -8097.947609179928, -70112.795545196, 8436.688296400107, -17575.33312741913, -4577.123174324414, 1742.8996256470234, -0.048, 0.982, 0.226, 192.0, 0.0, 0.0, 0.0, 0.0, 0.0, 0.0, 0.0, 0.0, 0.0, 1.6954179620559E9, 0.0, 2023-09-22 16:26:02.055
162.0, 25735.08331001798, 11763.56664461692, -35027.48579114507, -62357.81310293831, -187500.02235174447, 10567.457743580073, -119956.71629389719, -187500.02235174447, -34597.34882084713, 7148.154932040565, -8160.979528543893, -70095.2494257986, 8451.328689018332, -17617.48851746184, -4569.612988187431, 1678.5936568491052, -0.056, 0.986, 0.222, 192.0, 127.0, 32.0, 15.0, 104.0, 3.0, 120.0, 0.0, 0.0, 0.0, 1.695417962055903E9, 0.0, 2023-09-22 16:26:02.055
164.0, 25733.585743139476, 11762.359650416332, -35039.89100931776, -62354.77326569239, -187500.02235174447, 10585.47324961105, -119938.79019484404, -187500.02235174447, -34615.833713511674, 7136.040286545788, -8095.1536411230145, -70107.63229222683, 8445.070200570846, -17576.316604175165, -4565.835543374485, 1733.556596464705, -0.056, 0.986, 0.222, 192.0, 0.0, 0.0, 0.0, 0.0, 0.0, 0.0, 0.0, 0.0, 0.0, 1.695417962116204E9, 0.0, 2023-09-22 16:26:02.116
166.0, 25733.339873950466, 11758.358688158833, -35020.266177686, -62356.38259129317, -187500.02235174447, 10556.639499263705, -119942.0088460456, -187500.02235174447, -34595.44892256843, 7156.9391676115, -8164.824028590207, -70088.43214373972, 8460.492904245008, -17613.599313926617, -4566.059060819038, 1664.690871797904, -0.056, 0.986, 0.222, 192.0, 0.0, 0.0, 0.0, 0.0, 0.0, 0.0, 0.0, 0.0, 0.0, 1.695417962116218E9, 0.0, 2023-09-22 16:26:02.116
168.0, 25733.943371050762, 11757.598728847353, -35031.77732608048, -62358.95304190553, -187500.02235174447, 10586.300264155898, -119892.54443556601, -187500.02235174447, -34615.766658278306, 7138.789551113791, -8099.467527802888, -70110.47096377265, 8446.724229660538, -17566.370077892552, -4569.545932954065, 1720.2796602582528, -0.056, 0.986, 0.222, 192.0, 0.0, 0.0, 0.0, 0.0, 0.0, 0.0, 0.0, 0.0, 0.0, 1.695417962116221E9, 0.0, 2023-09-22 16:26:02.116
170.0, 25748.33789447998, 11771.814438320927, -35007.77155253548, -62346.972506877486, -187500.02235174447, 10546.827083447824, -119929.33540693944, -187500.02235174447, -34596.3653440911, 7142.455237204461, -8155.659813363531, -70097.1940275662, 8454.681450686629, -17600.903523076002, -4580.051252848059, 1658.0300519502225, -0.056, 0.986, 0.222, 192.0, 0.0, 0.0, 0.0, 0.0, 0.0, 0.0, 0.0, 0.0, 0.0, 1.695417962116225E9, 0.0, 2023-09-22 16:26:02.116
172.0, 25755.781025383596, 11779.99517679157, -35013.7171165606, -62345.921974888086, -187500.02235174447, 10564.641423778705, -119882.12852264983, -187500.02235174447, -34583.37898056257, 7157.095629822687, -8103.915524949494, -70079.80437037998, 8478.977796909547, -17579.24468269881, -4541.181569240281, 1680.4264998944402, -0.054, 0.99, 0.224, 192.0, 127.0, 40.0, 15.0, 120.0, 3.5, 0.0, 0.0, 0.0, 0.0, 1.695417962116228E9, 0.0, 2023-09-22 16:26:02.116
174.0, 25724.198010468248, 11747.249871164546, -35044.29430297545, -62384.21051314003, -187500.02235174447, 10534.310106552854, -119897.797095513, -187500.02235174447, -34597.102951658126, 7150.568920441738, -8149.043697004759, -70093.48363798662, 8453.34034601931, -17601.976406809856, -4578.2854650360905, 1628.9951359027787, -0.054, 0.99, 0.224, 192.0, 0.0, 0.0, 0.0, 0.0, 0.0, 0.0, 0.0, 0.0, 0.0, 1.695417962116231E9, 0.0, 2023-09-22 16:26:02.116
176.0, 25736.13384200738, 11760.504455626542, -35035.912398804714, -62362.46226578501, -187500.02235174447, 10585.182676933131, -119789.81581804942, -187500.02235174447, -34628.12717296209, 7117.108358992143, -8096.807670212707, -70122.4962022896, 8434.85545335477, -17575.28842393022, -4585.840354661984, 1686.5732296196497, -0.054, 0.99, 0.224, 192.0, 0.0, 0.0, 0.0, 0.0, 0.0, 0.0, 0.0, 0.0, 0.0, 1.695417962116234E9, 0.0, 2023-09-22 16:26:02.116
178.0, 25738.167850752816, 11764.147789972758, -35024.98239576607, -62363.043411140854, -187500.02235174447, 10542.177920601122, -119841.9400861192, -187500.02235174447, -34596.63356502457, 7146.880882606612, -8144.618051602609, -70088.63330943981, 8453.317994274854, -17595.874380573558, -4582.62170346042, 1637.7346679848038, -0.054, 0.99, 0.224, 192.0, 0.0, 0.0, 0.0, 0.0, 0.0, 0.0, 0.0, 0.0, 0.0, 1.695417962116238E9, 0.0, 2023-09-22 16:26:02.116
180.0, 25727.70723434773, 11756.078810224391, -35040.33804420687, -62373.50402754594, -187500.02235174447, 10598.414909650674, -119721.06185210489, -187500.02235174447, -34625.355556649636, 7126.831367830202, -8102.753234237819, -70112.95200740719, 8439.594023179296, -17571.33216516163, -4572.965749855727, 1674.4138806359626, -0.054, 0.99, 0.224, 192.0, 0.0, 0.0, 0.0, 0.0, 0.0, 0.0, 0.0, 0.0, 0.0, 1.695417962178073E9, 0.0, 2023-09-22 16:26:02.178
182.0, 25752.13769103738, 11783.035014037492, -35010.29729965893, -62342.703323686525, -187500.02235174447, 10535.517100753439, -119815.96735906212, -187500.02235174447, -34599.87456797058, 7152.737039653903, -8136.437313131966, -70083.291242515, 8449.786418650916, -17584.296176945707, -4580.81121215954, 1639.4557523078624, -0.052000000000000005, 0.988, 0.224, 192.0, 127.0, 48.0, 15.0, 112.0, 3.5, 0.0, 0.0, 0.0, 0.0, 1.695417962178086E9, 0.0, 2023-09-22 16:26:02.178
184.0, 25724.66739710181, 11754.603595090342, -35035.93475054917, -62374.375745579695, -187500.02235174447, 10586.121450200255, -119695.11147679228, -187500.02235174447, -34620.63933856956, 7136.308507479252, -8116.588964055653, -70105.57593173694, 8448.937052361614, -17583.469162400863, -4563.779182884596, 1642.1379616424992, -0.052000000000000005, 0.988, 0.224, 192.0, 0.0, 0.0, 0.0, 0.0, 0.0, 0.0, 0.0, 0.0, 0.0, 1.69541796217809E9, 0.0, 2023-09-22 16:26:02.178
186.0, 25739.84423158696, 11772.127362743302, -35028.268102201, -62356.65081222664, -187500.02235174447, 10537.41699903214, -119785.14430345826, -187500.02235174447, -34620.97461473639, 7139.4824551919055, -8129.530624095277, -70103.76544043607, 8437.045924311391, -17590.86758981557, -4596.278619322613, 1635.2312726058094, -0.052000000000000005, 0.988, 0.224, 192.0, 0.0, 0.0, 0.0, 0.0, 0.0, 0.0, 0.0, 0.0, 0.0, 1.695417962178093E9, 0.0, 2023-09-22 16:26:02.178
188.0, 25745.43216770079, 11775.882455811794, -35019.08153522987, -62354.10271335873, -187500.02235174447, 10573.068031438355, -119687.26601448847, -187500.02235174447, -34609.195245408446, 7145.606833172659, -8131.564632840709, -70093.37187926435, 8454.323822775343, -17607.2067150124, -4564.069755562515, 1621.1273218545107, -0.052000000000000005, 0.988, 0.224, 192.0, 0.0, 0.0, 0.0, 0.0, 0.0, 0.0, 0.0, 0.0, 0.0, 1.695417962178096E9, 0.0, 2023-09-22 16:26:02.178
190.0, 25759.781987641098, 11794.881438598804, -35007.6597938132, -62333.44970148203, -187500.02235174447, 10522.776606413914, -119795.8731407968, -187500.02235174447, -34595.09129465715, 7166.595121216193, -8124.434426359467, -70077.34567848989, 8456.491941987508, -17597.170781751967, -4574.306854523045, 1610.1302635824995, -0.052000000000000005, 0.988, 0.224, 192.0, 0.0, 0.0, 0.0, 0.0, 0.0, 0.0, 0.0, 0.0, 0.0, 1.695417962178099E9, 0.0, 2023-09-22 16:26:02.178
192.0, 25735.552696651543, 11762.605519605342, -35022.568407364895, -62365.367992564206, -187500.02235174447, 10562.942691200102, -119687.33306972183, -187500.02235174447, -34612.30213788774, 7143.662231405048, -8130.13412119557, -70093.75185892009, 8456.022555353948, -17606.62556965656, -4556.268996747613, 1587.4655947048182, -0.052000000000000005, 0.988, 0.222, 192.0, 127.0, 48.0, 15.0, 112.0, 3.0, 120.0, 0.0, 0.0, 0.0, 1.695417962178103E9, 0.0, 2023-09-22 16:26:02.178
194.0, 25731.127051249394, 11763.298423683456, -35038.281683716974, -62365.79267570886, -187500.02235174447, 10536.65703972066, -119769.78865501746, -187500.02235174447, -34624.52854210479, 7130.050019031766, -8103.781414482763, -70103.87719915833, 8437.135331289212, -17579.870531543558, -4580.833563903995, 1609.3256007821085, -0.052000000000000005, 0.988, 0.222, 192.0, 0.0, 0.0, 0.0, 0.0, 0.0, 0.0, 0.0, 0.0, 0.0, 1.695417962236843E9, 0.0, 2023-09-22 16:26:02.236
196.0, 25733.764557095117, 11763.723106828107, -35030.50327664653, -62368.363126321216, -187500.02235174447, 10564.596720289794, -119679.15233125119, -187500.02235174447, -34628.46244912892, 7130.072370776221, -8141.1758829564915, -70107.52053350456, 8447.886520372214, -17604.032767299745, -4570.61881668792, 1576.602646899539, -0.052000000000000005, 0.988, 0.222, 192.0, 0.0, 0.0, 0.0, 0.0, 0.0, 0.0, 0.0, 0.0, 0.0, 1.695417962236874E9, 0.0, 2023-09-22 16:26:02.236
198.0, 25723.549809879045, 11759.029240492493, -35049.45755594463, -62373.034640912374, -187500.02235174447, 10541.596775245283, -119737.89271567974, -187500.02235174447, -34628.909484018026, 7127.211347485942, -8107.827080229174, -70115.5001062751, 8434.162549276656, -17574.506112874285, -4588.455508763255, 1606.732798425293, -0.052000000000000005, 0.988, 0.222, 192.0, 0.0, 0.0, 0.0, 0.0, 0.0, 0.0, 0.0, 0.0, 0.0, 1.69541796223688E9, 0.0, 2023-09-22 16:26:02.236
200.0, 25716.777231309086, 11745.685249052674, -35048.719948377606, -62385.19398989606, -187500.02235174447, 10562.920339455646, -119650.5420983484, -187500.02235174447, -34639.97359752341, 7115.521385135817, -8156.2633104638235, -70123.7478999791, 8429.066351540847, -17613.286389504243, -4594.7810524441065, 1566.1420304944552, -0.052000000000000005, 0.988, 0.222, 192.0, 0.0, 0.0, 0.0, 0.0, 0.0, 0.0, 0.0, 0.0, 0.0, 1.695417962236885E9, 0.0, 2023-09-22 16:26:02.236
202.0, 25731.328216949492, 11762.963147516626, -35050.038701300466, -62366.50793153143, -187500.02235174447, 10545.463627036052, -119712.14350606722, -187500.02235174447, -34633.312777675725, 7119.343533437674, -8110.375179097078, -70118.74110922113, 8431.681505642116, -17574.059077985177, -4594.803404188562, 1602.798891401159, -0.056, 0.984, 0.216, 192.0, 127.0, 32.0, 15.0, 96.0, 3.0, 96.0, 0.0, 0.0, 0.0, 1.695417962236891E9, 0.0, 2023-09-22 16:26:02.236
204.0, 25713.849152785442, 11742.89128099576, -35058.018274071015, -62388.81497249782, -187500.02235174447, 10564.909644712168, -119640.50616508797, -187500.02235174447, -34644.846277814664, 7120.684638104992, -8161.448915177455, -70123.30086509, 8425.937107317104, -17607.67610164596, -4597.440910034288, 1554.1391437219554, -0.056, 0.984, 0.216, 192.0, 0.0, 0.0, 0.0, 0.0, 0.0, 0.0, 0.0, 0.0, 0.0, 1.695417962236896E9, 0.0, 2023-09-22 16:26:02.236
206.0, 25715.637292341864, 11743.31596414041, -35072.85983238934, -62388.412641097624, -187500.02235174447, 10571.95044421559, -119650.85502277077, -187500.02235174447, -34657.00562679835, 7097.237658171375, -8104.027283671771, -70137.62833328586, 8413.777758333415, -17574.595519852104, -4610.270811351635, 1608.342124026075, -0.056, 0.984, 0.216, 192.0, 0.0, 0.0, 0.0, 0.0, 0.0, 0.0, 0.0, 0.0, 0.0, 1.695417962236901E9, 0.0, 2023-09-22 16:26:02.236
208.0, 25725.89674304685, 11755.98940324657, -35038.929884306184, -62378.73433574848, -187500.02235174447, 10555.030173662923, -119621.7306997455, -187500.02235174447, -34633.91627477602, 7125.847891074168, -8179.777345630807, -70119.21049585468, 8433.201424265078, -17621.62359018607, -4593.596409987976, 1541.6221668269834, -0.056, 0.984, 0.216, 192.0, 0.0, 0.0, 0.0, 0.0, 0.0, 0.0, 0.0, 0.0, 0.0, 1.695417962236906E9, 0.0, 2023-09-22 16:26:02.236
210.0, 25730.076519259994, 11762.270243438512, -35043.4225849417, -62370.665356000114, -187500.02235174447, 10562.875635966735, -119618.84732471078, -187500.02235174447, -34640.10770799014, 7123.769178839824, -8118.488862334355, -70128.21824887017, 8430.563918419351, -17584.318528690164, -4584.208677316747, 1585.1633650259216, -0.056, 0.984, 0.216, 192.0, 0.0, 0.0, 0.0, 0.0, 0.0, 0.0, 0.0, 0.0, 0.0, 1.695417962295998E9, 0.0, 2023-09-22 16:26:02.295
212.0, 25708.976472494185, 11737.392751859756, -35057.3253699929, -62398.31446389133, -187500.02235174447, 10555.343098085297, -119587.93486212908, -187500.02235174447, -34636.19615271046, 7132.9333940665, -8179.375014230611, -70127.5029930476, 8436.420075466642, -17620.081319818655, -4587.069700607026, 1519.315125860587, -0.054, 0.982, 0.214, 192.0, 127.0, 40.0, 15.0, 88.0, 3.0, 88.0, 0.0, 0.0, 0.0, 1.695417962296009E9, 0.0, 2023-09-22 16:26:02.296
214.0, 25733.29517046156, 11754.871816023806, -35046.5741809099, -62362.685783229565, -187500.02235174447, 10566.541322057405, -119568.6229549197, -187500.02235174447, -34650.94830405096, 7105.820728042213, -8112.498594820332, -70137.6059815414, 8420.57268864783, -17577.836522798127, -4593.238782076691, 1580.983588812779, -0.054, 0.982, 0.214, 192.0, 0.0, 0.0, 0.0, 0.0, 0.0, 0.0, 0.0, 0.0, 0.0, 1.695417962296012E9, 0.0, 2023-09-22 16:26:02.296
216.0, 25722.543981378556, 11745.417028119211, -35041.656797129726, -62378.13083864818, -187500.02235174447, 10540.188615344598, -119576.53547245688, -187500.02235174447, -34624.19326593796, 7112.88387929009, -8173.742374627874, -70106.06767011496, 8442.723267403038, -17625.9598286104, -4581.347654026467, 1506.574631521062, -0.054, 0.982, 0.214, 192.0, 0.0, 0.0, 0.0, 0.0, 0.0, 0.0, 0.0, 0.0, 0.0, 1.695417962296015E9, 0.0, 2023-09-22 16:26:02.296
218.0, 25717.89481853185, 11743.383019373778, -35054.08436704688, -62384.098754417755, -187500.02235174447, 10579.438278608117, -119509.23436990195, -187500.02235174447, -34652.535277907285, 7095.605980826138, -8104.31785634969, -70135.46021407368, 8423.23254623801, -17591.784011338237, -4586.019168617627, 1566.8349345725699, -0.054, 0.982, 0.214, 192.0, 0.0, 0.0, 0.0, 0.0, 0.0, 0.0, 0.0, 0.0, 0.0, 1.695417962296018E9, 0.0, 2023-09-22 16:26:02.296
220.0, 25720.487620888667, 11751.65316482224, -35036.627654627286, -62375.11335314672, -187500.02235174447, 10542.155568856666, -119544.75129184143, -187500.02235174447, -34633.53629512028, 7125.892594563079, -8169.361432714633, -70114.56133300798, 8434.028438809924, -17629.20083155642, -4591.070662864526, 1510.642649011928, -0.054, 0.982, 0.214, 192.0, 0.0, 0.0, 0.0, 0.0, 0.0, 0.0, 0.0, 0.0, 0.0, 1.695417962296022E9, 0.0, 2023-09-22 16:26:02.296
222.0, 25708.99882423864, 11741.974859473094, -35062.26510551752, -62385.573969551806, -187500.02235174447, 10595.978569505045, -119449.21993603944, -187500.02235174447, -34662.258286745346, 7104.367864652618, -8108.4752808183775, -70139.41647284228, 8418.784549091406, -17595.784973595735, -4581.951151126761, 1557.6483676014386, -0.058, 0.986, 0.21, 192.0, 127.0, 24.0, 15.0, 104.0, 3.0, 72.0, 0.0, 0.0, 0.0, 1.695417962296027E9, 0.0, 2023-09-22 16:26:02.296
224.0, 25726.14261223586, 11761.443228893666, -35031.732622591575, -62364.18335010808, -187500.02235174447, 10561.623938277238, -119498.21495988549, -187500.02235174447, -34630.027071240795, 7127.5689753972265, -8155.704516852441, -70105.62063522586, 8432.083837042313, -17619.72369190737, -4579.648921447864, 1519.024553182668, -0.058, 0.986, 0.21, 192.0, 0.0, 0.0, 0.0, 0.0, 0.0, 0.0, 0.0, 0.0, 0.0, 1.695417962356113E9, 0.0, 2023-09-22 16:26:02.356
226.0, 25734.837440828975, 11771.166237731724, -35039.779250595486, -62360.5176640174, -187500.02235174447, 10612.116529001776, -119401.00722324935, -187500.02235174447, -34645.09214700367, 7129.513577164838, -8106.55303079522, -70108.3475480494, 8431.167415519645, -17590.934645048936, -4566.036709074582, 1562.4986961482402, -0.058, 0.986, 0.21, 192.0, 0.0, 0.0, 0.0, 0.0, 0.0, 0.0, 0.0, 0.0, 0.0, 1.695417962356143E9, 0.0, 2023-09-22 16:26:02.356
228.0, 25717.693652831753, 11753.687173567674, -35056.14072753677, -62383.69642301756, -187500.02235174447, 10574.833819250325, -119458.58531696622, -187500.02235174447, -34638.11840273361, 7137.940184824489, -8139.007763744326, -70102.40198402428, 8428.418150951642, -17597.237836985332, -4589.617799474931, 1530.379239365964, -0.058, 0.986, 0.21, 192.0, 0.0, 0.0, 0.0, 0.0, 0.0, 0.0, 0.0, 0.0, 0.0, 1.695417962356147E9, 0.0, 2023-09-22 16:26:02.356
230.0, 25736.737339107676, 11768.059345252437, -35046.59653265435, -62369.43601005507, -187500.02235174447, 10605.031026009445, -119369.93829845647, -187500.02235174447, -34655.44100468648, 7114.73907407988, -8120.478167590877, -70126.050129658, 8418.941011302592, -17590.800534582202, -4594.6022384884645, 1557.1566292234218, -0.058, 0.986, 0.21, 192.0, 0.0, 0.0, 0.0, 0.0, 0.0, 0.0, 0.0, 0.0, 0.0, 1.69541796235615E9, 0.0, 2023-09-22 16:26:02.356
232.0, 25721.00171101114, 11752.591938089365, -35052.87737284629, -62381.573007294304, -187500.02235174447, 10547.65409799267, -119463.36859027966, -187500.02235174447, -34621.73457404788, 7138.633088902604, -8165.583987901687, -70100.18916132321, 8438.38702897871, -17618.650808173516, -4597.731482712207, 1500.1820326068441, -0.058, 0.984, 0.212, 192.0, 127.0, 24.0, 15.0, 96.0, 3.0, 80.0, 0.0, 0.0, 0.0, 1.695417962356153E9, 0.0, 2023-09-22 16:26:02.356
234.0, 25706.428373626277, 11737.526862326487, -35067.450710231155, -62391.854809743745, -187500.02235174447, 10599.95718001809, -119341.68569346497, -187500.02235174447, -34664.60521991315, 7100.322198906208, -8147.434371403978, -70135.9072489628, 8416.48231941251, -17614.314569749185, -4599.921953668828, 1516.6776200148608, -0.058, 0.984, 0.212, 192.0, 0.0, 0.0, 0.0, 0.0, 0.0, 0.0, 0.0, 0.0, 0.0, 1.695417962356156E9, 0.0, 2023-09-22 16:26:02.356
236.0, 25711.770440551096, 11745.595842074854, -35053.21264901312, -62377.90732120363, -187500.02235174447, 10564.753182500981, -119429.57275266324, -187500.02235174447, -34654.72574886391, 7110.447539144461, -8151.725906339397, -70119.14344062131, 8419.05277002487, -17609.196020268922, -4603.945267670782, 1510.6873525008384, -0.058, 0.984, 0.212, 192.0, 0.0, 0.0, 0.0, 0.0, 0.0, 0.0, 0.0, 0.0, 0.0, 1.695417962356159E9, 0.0, 2023-09-22 16:26:02.356
238.0, 25726.05320525804, 11760.61621434882, -35034.68305285967, -62362.95400416303, -187500.02235174447, 10596.783232305435, -119336.20951607342, -187500.02235174447, -34665.56634492473, 7102.937353007478, -8158.878464565095, -70125.22311511316, 8427.702895129072, -17615.029825571757, -4578.844258647473, 1501.5901925075284, -0.058, 0.984, 0.212, 192.0, 0.0, 0.0, 0.0, 0.0, 0.0, 0.0, 0.0, 0.0, 0.0, 1.695417962356162E9, 0.0, 2023-09-22 16:26:02.356
240.0, 25719.168867965804, 11750.937908999671, -35043.08730877487, -62371.00063216694, -187500.02235174447, 10560.372240587742, -119434.91481958806, -187500.02235174447, -34639.34774867866, 7125.311449207241, -8147.523778381798, -70099.71977468966, 8441.158645291167, -17610.045386558224, -4577.3466917689675, 1491.442500524819, -0.058, 0.984, 0.212, 192.0, 0.0, 0.0, 0.0, 0.0, 0.0, 0.0, 0.0, 0.0, 0.0, 1.695417962417251E9, 0.0, 2023-09-22 16:26:02.417
242.0, 25720.197048210746, 11752.524882855998, -35047.8258785994, -62371.20179786704, -187500.02235174447, 10590.43533688013, -119345.77606270029, -187500.02235174447, -34660.40309195556, 7109.173489710509, -8159.839589576673, -70122.63031275634, 8431.86031959776, -17619.880154118557, -4585.102747094959, 1478.702006185294, -0.056, 0.982, 0.216, 192.0, 127.0, 32.0, 15.0, 88.0, 3.0, 96.0, 0.0, 0.0, 0.0, 1.695417962417266E9, 0.0, 2023-09-22 16:26:02.417
244.0, 25740.49243217617, 11773.468467410621, -35035.644177871254, -62350.77230343489, -187500.02235174447, 10546.312993325353, -119445.33073250423, -187500.02235174447, -34636.97846376639, 7128.775969597813, -8141.019420745304, -70098.46807700016, 8443.349116247788, -17600.657653886992, -4583.962808127739, 1487.508593500685, -0.056, 0.982, 0.216, 192.0, 0.0, 0.0, 0.0, 0.0, 0.0, 0.0, 0.0, 0.0, 0.0, 1.695417962417269E9, 0.0, 2023-09-22 16:26:02.417
246.0, 25731.842307071962, 11759.677441081696, -35042.52851516349, -62370.35243157774, -187500.02235174447, 10570.922263970646, -119353.28624883728, -187500.02235174447, -34639.325396934204, 7130.631164387604, -8174.077650794703, -70107.63229222683, 8443.773799392438, -17629.647866445528, -4567.266055019624, 1446.0908110250011, -0.056, 0.982, 0.216, 192.0, 0.0, 0.0, 0.0, 0.0, 0.0, 0.0, 0.0, 0.0, 0.0, 1.695417962417273E9, 0.0, 2023-09-22 16:26:02.417
