%OpenBCI Raw EXG Data
%Number of channels = 16
%Sample Rate = 125 Hz
%Board = OpenBCI_GUI$BoardCytonSerialDaisy
Sample Index, EXG Channel 0, EXG Channel 1, EXG Channel 2, EXG Channel 3, EXG Channel 4, EXG Channel 5, EXG Channel 6, EXG Channel 7, EXG Channel 8, EXG Channel 9, EXG Channel 10, EXG Channel 11, EXG Channel 12, EXG Channel 13, EXG Channel 14, EXG Channel 15, Accel Channel 0, Accel Channel 1, Accel Channel 2, Other, Other, Other, Other, Other, Other, Other, Analog Channel 0, Analog Channel 1, Analog Channel 2, Timestamp, Other, Timestamp (Formatted)
224.0, 26571.50793928003, 13228.052941328639, -37029.06215537336, -63289.702032768975, -187500.02235174447, 7520.467939432614, -117011.94101714385, -187500.02235174447, -40180.85928927175, 6453.015679480515, -5178.78743157237, -69720.94711315002, -3012.7022281530176, -22502.68578561375, -5001.694560252972, 8908.153642195897, 0.0, 0.0, 0.0, 192.0, 0.0, 0.0, 0.0, 0.0, 0.0, 0.0, 0.0, 0.0, 0.0, 1.695418139374435E9, 0.0, 2023-09-22 16:28:59.374
226.0, 26579.912195195222, 13235.831348399086, -37038.56164676686, -63285.11992515563, -187500.02235174447, 7535.510663451036, -117007.11304034152, -187500.02235174447, -40187.94479226408, 6445.326679387889, -5128.138378636644, -69725.41746204108, -3015.78676888785, -22451.5002908111, -4995.480775294397, 8972.325500527084, -0.016, 0.489, 0.128, 192.0, 127.5, 0.0, 15.0, 72.0, 4.0, 0.0, 0.0, 0.0, 0.0, 1.695418139374445E9, 0.0, 2023-09-22 16:28:59.374
228.0, 26572.558471269425, 13230.422226240902, -37029.15156235118, -63290.41728859154, -187500.02235174447, 7508.48740440457, -117064.82524452511, -187500.02235174447, -40174.1314141907, 6460.078830728392, -5185.381196186686, -69706.41847925408, -3004.8120623602945, -22487.911282528792, -4999.839365463182, 8903.795052027113, -0.016, 0.489, 0.128, 192.0, 0.0, 0.0, 0.0, 0.0, 0.0, 0.0, 0.0, 0.0, 0.0, 1.695418139374449E9, 0.0, 2023-09-22 16:28:59.374
230.0, 26574.257203848032, 13230.265764029715, -37035.90178917668, -63293.90416072657, -187500.02235174447, 7539.265756519528, -117033.80102322115, -187500.02235174447, -40186.46957713003, 6444.387906120766, -5132.854596716714, -69727.04913938632, -3016.2338037769564, -22446.560555286476, -4992.664455493028, 8965.8658463795, -0.016, 0.489, 0.128, 192.0, 0.0, 0.0, 0.0, 0.0, 0.0, 0.0, 0.0, 0.0, 0.0, 1.695418139374452E9, 0.0, 2023-09-22 16:28:59.374
232.0, 26557.761616440013, 13212.272609743191, -37037.57817001083, -63310.109175456666, -187500.02235174447, 7503.838241557866, -117111.07100380314, -187500.02235174447, -40176.12071944722, 6455.854351026339, -5179.033300761378, -69719.94128464953, -3013.0598560643025, -22472.645041065818, -5004.667342265528, 8910.411168385885, -0.016, 0.489, 0.128, 192.0, 0.0, 0.0, 0.0, 0.0, 0.0, 0.0, 0.0, 0.0, 0.0, 1.695418139374455E9, 0.0, 2023-09-22 16:28:59.374
234.0, 26568.110474122823, 13224.5213657047, -37034.2924635759, -63295.31232062726, -187500.02235174447, 7532.850805860854, -117054.76695952022, -187500.02235174447, -40196.214937712546, 6436.989478706059, -5135.648564773627, -69744.63996227265, -3023.2298997914672, -22447.924011698247, -5000.867545708125, 8968.190427802852, -0.016, 0.489, 0.128, 192.0, 0.0, 0.0, 0.0, 0.0, 0.0, 0.0, 0.0, 0.0, 0.0, 1.695418139374458E9, 0.0, 2023-09-22 16:28:59.374
236.0, 26549.82674715838, 13209.746862619742, -37040.75211772348, -63313.79721329179, -187500.02235174447, 7492.14827920774, -117136.17201282646, -187500.02235174447, -40181.35102764977, 6445.349031132345, -5188.823364832802, -69728.03261614236, -3011.182309530057, -22489.677070340764, -5008.310676611743, 8908.377159640451, -0.022, 0.7355, 0.19, 192.0, 127.5, 16.0, 15.0, 88.0, 3.5, 112.0, 0.0, 0.0, 0.0, 1.695418139374462E9, 0.0, 2023-09-22 16:28:59.374
238.0, 26553.425378015683, 13213.61371441051, -37046.720033493046, -63314.646579581095, -187500.02235174447, 7541.188006542684, -117050.69894202935, -187500.02235174447, -40201.82522557083, 6427.6464495237415, -5157.039184217356, -69746.65161927362, -3023.1181410691906, -22457.959944958682, -5003.885031209592, 8956.545168941639, -0.022, 0.7355, 0.19, 192.0, 0.0, 0.0, 0.0, 0.0, 0.0, 0.0, 0.0, 0.0, 0.0, 1.695418139374465E9, 0.0, 2023-09-22 16:28:59.374
240.0, 26543.1659273107, 13204.270685228192, -37050.497478305995, -63322.2461726959, -187500.02235174447, 7506.229878214584, -117130.82994590163, -187500.02235174447, -40201.311135448355, 6428.1158361573025, -5171.232541946476, -69744.59525878374, -3034.271661552389, -22479.618785335875, -5028.784874532804, 8935.467473920284, -0.022, 0.7355, 0.19, 192.0, 0.0, 0.0, 0.0, 0.0, 0.0, 0.0, 0.0, 0.0, 0.0, 1.695418139374468E9, 0.0, 2023-09-22 16:28:59.374
0.0, 13278.120848908526, 6642.2455480391445, -18518.464984710812, -31664.30820993283, -93750.01117587223, 3738.97746073931, -56436.768941494105, -93750.01117587223, -20103.78481194792, 3211.0292567049573, -2589.293132936136, -34878.51141435044, -1515.6270880254613, -11237.943022005918, -2506.2564022846705, 4471.086498628438, -0.027, 0.85675, 0.223, 192.0, 127.5, 0.0, 15.0, 72.0, 4.0, 0.0, 0.0, 0.0, 0.0, 1.695418139449181E9, 0.0, 2023-09-22 16:28:59.449
2.0, 26540.237848787052, 13270.878883705007, -37050.16220213917, -63344.06147528428, -187500.02235174447, 7429.608098221791, -112986.90593086553, -187500.02235174447, -40262.890191422724, 6437.794141506451, -5172.126611724689, -69696.74017390492, -3580.414185573362, -22666.38996200442, -4887.432442597442, 8250.744134276407, -0.027, 0.85675, 0.223, 192.0, 0.0, 0.0, 0.0, 0.0, 0.0, 0.0, 0.0, 0.0, 0.0, 1.695418139510041E9, 0.0, 2023-09-22 16:28:59.510
4.0, 26531.67713066067, 13265.134485379993, -37053.60437078528, -63353.29274574432, -187500.02235174447, 7479.117212190296, -112899.398851323, -187500.02235174447, -40294.20498540461, 6403.9312486566605, -5174.875876292691, -69726.87032543067, -3601.6483428059037, -22667.552252716097, -4900.01647472578, 8250.006526709381, -0.027, 0.85675, 0.223, 192.0, 0.0, 0.0, 0.0, 0.0, 0.0, 0.0, 0.0, 0.0, 0.0, 1.695418139510056E9, 0.0, 2023-09-22 16:28:59.510
6.0, 26547.25629654602, 13288.492058335789, -37040.90857993467, -63322.8496697962, -187500.02235174447, 7436.201862836107, -113014.62209399011, -187500.02235174447, -40281.1068631538, 6414.749492973029, -5151.16067542561, -69709.16774382206, -3595.054578191588, -22659.39386598991, -4903.413939882987, 8274.951073521504, -0.027, 0.85675, 0.223, 192.0, 0.0, 0.0, 0.0, 0.0, 0.0, 0.0, 0.0, 0.0, 0.0, 1.695418139510063E9, 0.0, 2023-09-22 16:28:59.510
8.0, 26526.022139313478, 13270.297738349169, -37049.80457422788, -63344.73202761794, -187500.02235174447, 7468.321319618383, -112958.29569796273, -187500.02235174447, -40269.84158394833, 6428.719333257596, -5198.054635292845, -69693.36506049217, -3578.536639039116, -22676.180026075846, -4880.793974494216, 8226.850119453684, -0.036000000000000004, 0.976, 0.258, 192.0, 127.0, 112.0, 15.0, 64.0, 4.0, 8.0, 0.0, 0.0, 0.0, 1.695418139510069E9, 0.0, 2023-09-22 16:28:59.510
10.0, 26546.988075612557, 13294.48232584981, -37057.828850487334, -63324.81662330826, -187500.02235174447, 7453.524464788969, -113017.99720740286, -187500.02235174447, -40303.92799424267, 6397.471594509077, -5132.452265316519, -69727.89850567562, -3622.211947704786, -22637.466804679254, -4918.300201690221, 8301.706111634507, -0.036000000000000004, 0.976, 0.258, 192.0, 0.0, 0.0, 0.0, 0.0, 0.0, 0.0, 0.0, 0.0, 0.0, 1.695418139510075E9, 0.0, 2023-09-22 16:28:59.510
12.0, 26537.95797085261, 13283.351157111068, -37045.98242592602, -63339.07703627075, -187500.02235174447, 7459.04534566943, -112994.12554432459, -187500.02235174447, -40264.231296090045, 6449.215882923113, -5198.1440422706655, -69686.99481332241, -3580.9729791847444, -22666.501720726697, -4886.560724563686, 8233.801511979284, -0.036000000000000004, 0.976, 0.258, 192.0, 0.0, 0.0, 0.0, 0.0, 0.0, 0.0, 0.0, 0.0, 0.0, 1.695418139510081E9, 0.0, 2023-09-22 16:28:59.510
14.0, 26534.024063828478, 13278.567883797632, -37068.37887387024, -63346.251946240896, -187500.02235174447, 7457.301909601916, -113027.92138194102, -187500.02235174447, -40293.62384004877, 6415.464748795599, -5143.851654988725, -69715.06860435827, -3609.985543487733, -22640.707807625273, -4909.985352752848, 8294.26298073089, -0.036000000000000004, 0.976, 0.258, 192.0, 0.0, 0.0, 0.0, 0.0, 0.0, 0.0, 0.0, 0.0, 0.0, 1.695418139510087E9, 0.0, 2023-09-22 16:28:59.510
16.0, 26531.744185894036, 13274.276348862213, -37058.2982371209, -63347.45894044149, -187500.02235174447, 7470.511790575003, -113002.32863453969, -187500.02235174447, -40291.03103769196, 6407.954562658616, -5187.951646799046, -69715.69445320302, -3610.47728186575, -22673.386058018932, -4911.818195798182, 8251.168817421058, -0.036000000000000004, 0.976, 0.258, 192.0, 0.0, 0.0, 0.0, 0.0, 0.0, 0.0, 0.0, 0.0, 0.0, 1.695418139569523E9, 0.0, 2023-09-22 16:28:59.569
18.0, 26548.10566283532, 13291.91187523745, -37054.23021963003, -63327.20825996498, -187500.02235174447, 7467.159028906707, -113038.42670183501, -187500.02235174447, -40287.52181381248, 6412.357856316311, -5139.381306097664, -69714.3086450468, -3608.398569631406, -22649.134415284923, -4911.035884742247, 8310.982085583459, -0.034, 0.978, 0.256, 192.0, 127.0, 120.0, 15.0, 72.0, 4.0, 0.0, 0.0, 0.0, 0.0, 1.695418139569539E9, 0.0, 2023-09-22 16:28:59.569
20.0, 26530.82776437137, 13269.895406948974, -37052.71030100707, -63340.86517582717, -187500.02235174447, 7464.566226549891, -113051.21189966344, -187500.02235174447, -40273.75313922801, 6426.037123922959, -5194.947742813557, -69698.32714776124, -3595.8815927364344, -22680.270395311167, -4899.5470880922185, 8242.25047138339, -0.034, 0.978, 0.256, 192.0, 0.0, 0.0, 0.0, 0.0, 0.0, 0.0, 0.0, 0.0, 0.0, 1.695418139569546E9, 0.0, 2023-09-22 16:28:59.569
22.0, 26538.695578419636, 13275.460991318345, -37058.0970714208, -63326.67181809805, -187500.02235174447, 7477.19496216714, -113057.1351119441, -187500.02235174447, -40302.743351786536, 6403.238344578546, -5135.536806051351, -69726.22212484147, -3615.372313901462, -22635.410444189365, -4906.364370151087, 8313.306667006811, -0.034, 0.978, 0.256, 192.0, 0.0, 0.0, 0.0, 0.0, 0.0, 0.0, 0.0, 0.0, 0.0, 1.695418139569552E9, 0.0, 2023-09-22 16:28:59.569
24.0, 26547.25629654602, 13286.614511801543, -37028.90569316217, -63318.20050694949, -187500.02235174447, 7445.231967596051, -113120.41290049707, -187500.02235174447, -40268.411072303184, 6436.564795561409, -5207.0623883083335, -69689.60996742368, -3583.677540263837, -22678.951642388303, -4886.918352474971, 8232.594517778698, -0.034, 0.978, 0.256, 192.0, 0.0, 0.0, 0.0, 0.0, 0.0, 0.0, 0.0, 0.0, 0.0, 1.695418139569558E9, 0.0, 2023-09-22 16:28:59.569
26.0, 26558.275706562486, 13300.830221275119, -37032.57137925284, -63309.550381845285, -187500.02235174447, 7469.304796374417, -113104.45375495599, -187500.02235174447, -40284.414921333184, 6429.255775124523, -5153.015870215401, -69707.44665949901, -3590.6512845338925, -22638.00324654618, -4873.619064524062, 8291.983102796448, -0.034, 0.978, 0.256, 192.0, 0.0, 0.0, 0.0, 0.0, 0.0, 0.0, 0.0, 0.0, 0.0, 1.695418139569564E9, 0.0, 2023-09-22 16:28:59.569
28.0, 26551.436072759163, 13295.979892728317, -37025.17295183813, -63314.82539353674, -187500.02235174447, 7439.442865782126, -113160.37781958317, -187500.02235174447, -40262.95724665609, 6445.349031132345, -5198.971056815512, -69679.7528481189, -3577.3519965829846, -22660.422046234853, -4871.160372633979, 8226.380732820122, -0.036000000000000004, 0.976, 0.254, 192.0, 127.0, 112.0, 15.0, 64.0, 3.5, 120.0, 0.0, 0.0, 0.0, 1.69541813956957E9, 0.0, 2023-09-22 16:28:59.569
30.0, 26541.48954647655, 13283.462915833345, -37045.98242592602, -63329.622248366155, -187500.02235174447, 7492.14827920774, -113077.72106858745, -187500.02235174447, -40297.222470906076, 6416.939963929649, -5138.241367130443, -69712.2522845569, -3603.1012061954984, -22615.51739162414, -4874.937817446926, 8303.337788979745, -0.036000000000000004, 0.976, 0.254, 192.0, 0.0, 0.0, 0.0, 0.0, 0.0, 0.0, 0.0, 0.0, 0.0, 1.695418139569577E9, 0.0, 2023-09-22 16:28:59.569
32.0, 26553.0677501044, 13292.716538037843, -37025.262358815955, -63317.77582380484, -187500.02235174447, 7431.150368589208, -113182.75191578292, -187500.02235174447, -40276.748272985016, 6434.575490304886, -5183.458946163529, -69694.03561282583, -3595.993351458711, -22658.43274097833, -4892.707454288895, 8249.447733097999, -0.036000000000000004, 0.976, 0.254, 192.0, 0.0, 0.0, 0.0, 0.0, 0.0, 0.0, 0.0, 0.0, 0.0, 1.695418139628399E9, 0.0, 2023-09-22 16:28:59.628
34.0, 26539.075558075376, 13278.500828564267, -37044.23898985851, -63329.197565221504, -187500.02235174447, 7460.341746847838, -113130.02415061285, -187500.02235174447, -40286.87361322327, 6416.112949384803, -5174.518248381406, -69706.70905193199, -3590.114842666965, -22644.373493715942, -4878.9387797044255, 8265.764506550373, -0.036000000000000004, 0.976, 0.254, 192.0, 0.0, 0.0, 0.0, 0.0, 0.0, 0.0, 0.0, 0.0, 0.0, 1.695418139628408E9, 0.0, 2023-09-22 16:28:59.628
36.0, 26538.58381969736, 13281.406555343458, -37039.992158412, -63321.53091687333, -187500.02235174447, 7407.882202611233, -113238.36305598773, -187500.02235174447, -40285.1078254113, 6425.500682056032, -5201.116824283222, -69702.43986874103, -3599.726092782747, -22672.44728475181, -4904.330361405655, 8221.955087417971, -0.036000000000000004, 0.976, 0.254, 192.0, 0.0, 0.0, 0.0, 0.0, 0.0, 0.0, 0.0, 0.0, 0.0, 1.695418139628414E9, 0.0, 2023-09-22 16:28:59.628
38.0, 26526.335063735853, 13268.599005770566, -37057.73944350951, -63339.27820197085, -187500.02235174447, 7458.173627635673, -113160.13195039415, -187500.02235174447, -40298.29535463993, 6403.305399811912, -5186.11880375371, -69716.2085433255, -3601.625991061448, -22651.77192113065, -4888.706492031395, 8247.681945286029, -0.034, 0.982, 0.26, 192.0, 127.0, 120.0, 15.0, 88.0, 4.0, 16.0, 0.0, 0.0, 0.0, 1.69541813962842E9, 0.0, 2023-09-22 16:28:59.628
40.0, 26541.355436009817, 13287.419174601935, -37050.743347495, -63323.36375991866, -187500.02235174447, 7408.239830522518, -113270.81778893684, -187500.02235174447, -40300.32936338537, 6404.825318434873, -5189.918600311113, -69718.33195904875, -3619.1944622033197, -22660.354991001488, -4920.982411024858, 8235.813168980261, -0.034, 0.982, 0.26, 192.0, 0.0, 0.0, 0.0, 0.0, 0.0, 0.0, 0.0, 0.0, 0.0, 1.695418139628426E9, 0.0, 2023-09-22 16:28:59.628
42.0, 26516.880275831256, 13260.395915555468, -37061.18161215563, -63354.566795178274, -187500.02235174447, 7460.542912547936, -113174.74999126792, -187500.02235174447, -40295.43433134965, 6409.183908603658, -5197.294675981364, -69710.44179325603, -3601.2013079167973, -22656.264621766168, -4884.236143140333, 8240.507035315875, -0.034, 0.982, 0.26, 192.0, 0.0, 0.0, 0.0, 0.0, 0.0, 0.0, 0.0, 0.0, 0.0, 1.695418139628432E9, 0.0, 2023-09-22 16:28:59.628
44.0, 26524.837496857348, 13270.275386604713, -37060.555763310884, -63340.90987931608, -187500.02235174447, 7431.9773831340535, -113254.56807071783, -187500.02235174447, -40312.98045074707, 6387.413309504189, -5173.802992558836, -69733.28527608934, -3629.655078608403, -22658.611554933974, -4921.451797658419, 8262.92583500455, -0.034, 0.982, 0.26, 192.0, 0.0, 0.0, 0.0, 0.0, 0.0, 0.0, 0.0, 0.0, 0.0, 1.695418139628439E9, 0.0, 2023-09-22 16:28:59.628
46.0, 26518.400194454218, 13263.279290590202, -37059.304065621385, -63345.33552471823, -187500.02235174447, 7481.57590408038, -113158.16499688209, -187500.02235174447, -40313.762761803, 6399.773824187973, -5188.398681688152, -69730.42425279907, -3611.8183865330684, -22657.583374689028, -4895.2555531568, 8266.92679726205, -0.034, 0.982, 0.26, 192.0, 0.0, 0.0, 0.0, 0.0, 0.0, 0.0, 0.0, 0.0, 0.0, 1.695418139688824E9, 0.0, 2023-09-22 16:28:59.688
48.0, 26528.793755625935, 13271.236511616293, -37052.442080073604, -63330.046931510806, -187500.02235174447, 7422.544946973914, -113266.92858540162, -187500.02235174447, -40299.56940407389, 6412.290801082945, -5182.095489751755, -69717.37083403717, -3610.0973022100097, -22655.035275821123, -4896.73076829085, 8268.357308907189, -0.028, 0.98, 0.262, 192.0, 127.5, 16.0, 15.0, 80.0, 4.0, 24.0, 0.0, 0.0, 0.0, 1.695418139688834E9, 0.0, 2023-09-22 16:28:59.688
50.0, 26514.645101385726, 13256.663174231431, -37065.40609185769, -63348.21889975297, -187500.02235174447, 7484.8616105153105, -113154.49931079142, -187500.02235174447, -40315.34973565933, 6400.176155588169, -5201.094472538766, -69732.74883422242, -3613.248898178208, -22655.43760722132, -4883.386776851032, 8260.377736136645, -0.028, 0.98, 0.262, 192.0, 0.0, 0.0, 0.0, 0.0, 0.0, 0.0, 0.0, 0.0, 0.0, 1.69541813968884E9, 0.0, 2023-09-22 16:28:59.688
52.0, 26541.266029032, 13284.893427478484, -37048.57522828284, -63318.915762772056, -187500.02235174447, 7437.9676506480755, -113259.68662019809, -187500.02235174447, -40299.83762500735, 6411.329676071367, -5174.40648965913, -69716.6108747257, -3609.2255841762526, -22651.190775774812, -4895.166146178978, 8286.59633238272, -0.028, 0.98, 0.262, 192.0, 0.0, 0.0, 0.0, 0.0, 0.0, 0.0, 0.0, 0.0, 0.0, 1.695418139688846E9, 0.0, 2023-09-22 16:28:59.688
54.0, 26525.463345702094, 13266.408534813945, -37053.0455771739, -63343.1003502727, -187500.02235174447, 7467.494305073536, -113187.11050595171, -187500.02235174447, -40299.16707267369, 6405.182946346158, -5219.9816966035005, -69712.54285723482, -3597.75913927068, -22666.792293404615, -4869.998081922303, 8244.172721406547, -0.028, 0.98, 0.262, 192.0, 0.0, 0.0, 0.0, 0.0, 0.0, 0.0, 0.0, 0.0, 0.0, 1.695418139688852E9, 0.0, 2023-09-22 16:28:59.688
56.0, 26532.660607416703, 13273.806962228653, -37051.257437617474, -63333.06441701227, -187500.02235174447, 7448.741191475534, -113249.87420438221, -187500.02235174447, -40307.05723846641, 6396.398710775222, -5171.679576835582, -69727.38441555314, -3615.0817412235433, -22637.77972910163, -4890.896962988015, 8292.228971985456, -0.028, 0.98, 0.262, 192.0, 0.0, 0.0, 0.0, 0.0, 0.0, 0.0, 0.0, 0.0, 0.0, 1.695418139688857E9, 0.0, 2023-09-22 16:28:59.688
58.0, 26529.39725272623, 13268.040212159183, -37040.23802760101, -63339.5017194154, -187500.02235174447, 7472.344633620338, -113182.8189710163, -187500.02235174447, -40294.38379936026, 6407.0381411359485, -5217.165376802132, -69716.11913634767, -3602.0730259505544, -22672.2014155628, -4876.524791303253, 8247.369020863654, -0.028, 0.972, 0.26, 192.0, 127.5, 16.0, 15.0, 48.0, 4.0, 16.0, 0.0, 0.0, 0.0, 1.695418139688864E9, 0.0, 2023-09-22 16:28:59.688
60.0, 26524.882200346256, 13262.72049697882, -37067.30599013639, -63348.08478928624, -187500.02235174447, 7464.901502716721, -113215.60898013222, -187500.02235174447, -40302.3633721308, 6396.733986942052, -5164.147038954144, -69725.23864808543, -3614.344133656518, -22648.463862951263, -4891.612218810585, 8301.348483723223, -0.028, 0.972, 0.26, 192.0, 0.0, 0.0, 0.0, 0.0, 0.0, 0.0, 0.0, 0.0, 0.0, 1.69541813968887E9, 0.0, 2023-09-22 16:28:59.688
62.0, 26538.695578419636, 13278.187904141892, -37048.21760037156, -63334.025542023846, -187500.02235174447, 7480.6371308132575, -113175.28643313485, -187500.02235174447, -40305.962002988104, 6395.147013085725, -5205.922449341113, -69728.52435452037, -3623.1954244608196, -22673.408409763386, -4902.609277082596, 8268.044384484814, -0.028, 0.972, 0.26, 192.0, 0.0, 0.0, 0.0, 0.0, 0.0, 0.0, 0.0, 0.0, 0.0, 1.695418139750441E9, 0.0, 2023-09-22 16:28:59.750
64.0, 26551.056093103423, 13292.314206637646, -37044.14958288069, -63318.424024394044, -187500.02235174447, 7462.152238148718, -113212.39032893066, -187500.02235174447, -40286.58304054535, 6419.935097686661, -5167.92448376709, -69707.24549379891, -3604.4199591183615, -22656.890470610913, -4876.34597734761, 8304.54478318033, -0.028, 0.972, 0.26, 192.0, 0.0, 0.0, 0.0, 0.0, 0.0, 0.0, 0.0, 0.0, 0.0, 1.695418139750454E9, 0.0, 2023-09-22 16:28:59.750
66.0, 26525.01631081299, 13262.586386512088, -37050.16220213917, -63342.16157700558, -187500.02235174447, 7473.484572587558, -113171.44193308854, -187500.02235174447, -40295.903717983216, 6407.418120791688, -5220.384028003697, -69716.76733693687, -3611.214889432775, -22676.78352317614, -4877.754137248295, 8247.100799930191, -0.028, 0.972, 0.26, 192.0, 0.0, 0.0, 0.0, 0.0, 0.0, 0.0, 0.0, 0.0, 0.0, 1.695418139750458E9, 0.0, 2023-09-22 16:28:59.750
68.0, 26542.54007846595, 13278.634939030999, -37049.20107712759, -63326.20243146449, -187500.02235174447, 7477.329072633872, -113168.82677898728, -187500.02235174447, -40307.25840416651, 6401.606667233309, -5165.644605832649, -69726.62445624167, -3620.379104659451, -22643.322961726542, -4887.857125742094, 8315.74300715244, -0.026000000000000002, 0.98, 0.264, 192.0, 127.5, 24.0, 15.0, 80.0, 4.0, 32.0, 0.0, 0.0, 0.0, 1.695418139750461E9, 0.0, 2023-09-22 16:28:59.750
70.0, 26535.432223729164, 13272.667023261432, -37047.85997246027, -63337.55711764778, -187500.02235174447, 7455.960804934598, -113183.08719194976, -187500.02235174447, -40286.78420624545, 6412.022580149482, -5225.234356550498, -69711.8499531567, -3609.9184882543673, -22682.17029358987, -4888.125346675557, 8242.384581850121, -0.026000000000000002, 0.98, 0.264, 192.0, 0.0, 0.0, 0.0, 0.0, 0.0, 0.0, 0.0, 0.0, 0.0, 1.695418139750465E9, 0.0, 2023-09-22 16:28:59.750
72.0, 26539.522592964484, 13278.72434600882, -37055.66073127517, -63333.53380364583, -187500.02235174447, 7472.545799320436, -113162.97062193998, -187500.02235174447, -40298.11654068429, 6411.93317317166, -5170.629044846183, -69722.84701142872, -3615.4617208792833, -22648.083883295523, -4882.760928006283, 8302.063739545792, -0.026000000000000002, 0.98, 0.264, 192.0, 0.0, 0.0, 0.0, 0.0, 0.0, 0.0, 0.0, 0.0, 0.0, 1.695418139750468E9, 0.0, 2023-09-22 16:28:59.750
74.0, 26534.694616162138, 13272.868188961529, -37048.77639398294, -63336.97597229195, -187500.02235174447, 7444.09202862883, -113203.13670672616, -187500.02235174447, -40296.238994150044, 6419.331600586367, -5213.723208156015, -69719.58365673825, -3618.635668591937, -22677.722296443262, -4892.841564755627, 8247.63724179712, -0.026000000000000002, 0.98, 0.264, 192.0, 0.0, 0.0, 0.0, 0.0, 0.0, 0.0, 0.0, 0.0, 0.0, 1.695418139750472E9, 0.0, 2023-09-22 16:28:59.750
76.0, 26532.124165549776, 13269.448372059867, -37058.409995843176, -63342.58626015023, -187500.02235174447, 7474.311587132405, -113157.94147943753, -187500.02235174447, -40299.189424418146, 6408.580411503364, -5165.510495365917, -69726.17742135256, -3615.215851690275, -22646.13928152791, -4873.7755267352495, 8306.914068092594, -0.026000000000000002, 0.98, 0.264, 192.0, 0.0, 0.0, 0.0, 0.0, 0.0, 0.0, 0.0, 0.0, 0.0, 1.695418139810069E9, 0.0, 2023-09-22 16:28:59.810
78.0, 26541.53424996546, 13280.132505909503, -37034.65009148718, -63328.571716376755, -187500.02235174447, 7430.7480371890115, -113224.81789884782, -187500.02235174447, -40283.11852015478, 6411.352027815822, -5202.189708017077, -69712.63226421265, -3617.406322646895, -22674.637755708427, -4890.829907754649, 8254.58863432272, -0.022, 0.982, 0.26, 192.0, 127.5, 40.0, 15.0, 88.0, 4.0, 16.0, 0.0, 0.0, 0.0, 1.695418139810099E9, 0.0, 2023-09-22 16:28:59.810
80.0, 26544.261162789007, 13283.306453622157, -37042.62966425773, -63325.93421053103, -187500.02235174447, 7465.147371905729, -113162.70240100652, -187500.02235174447, -40281.129214898254, 6413.520147027987, -5165.085812221267, -69715.89561890312, -3611.013723732677, -22643.747644871193, -4870.445116811409, 8296.475803431966, -0.022, 0.982, 0.26, 192.0, 0.0, 0.0, 0.0, 0.0, 0.0, 0.0, 0.0, 0.0, 0.0, 1.695418139810103E9, 0.0, 2023-09-22 16:28:59.810
82.0, 26535.54398245144, 13276.980909941305, -37046.317702092856, -63335.07607401325, -187500.02235174447, 7428.5128627434815, -113239.70416065505, -187500.02235174447, -40265.19242110162, 6440.6775165411855, -5189.963303800024, -69696.51665646037, -3608.018589975666, -22666.457017237786, -4886.136041419035, 8252.465218599466, -0.022, 0.982, 0.26, 192.0, 0.0, 0.0, 0.0, 0.0, 0.0, 0.0, 0.0, 0.0, 0.0, 1.695418139810106E9, 0.0, 2023-09-22 16:28:59.810
84.0, 26542.3165610214, 13284.088764678094, -37049.91633295016, -63330.046931510806, -187500.02235174447, 7479.184267423662, -113155.08045614726, -187500.02235174447, -40280.34690384232, 6436.385981605767, -5156.435687117063, -69710.28533104484, -3619.9097180258896, -22642.272429737142, -4881.576285550152, 8300.275599989367, -0.022, 0.982, 0.26, 192.0, 0.0, 0.0, 0.0, 0.0, 0.0, 0.0, 0.0, 0.0, 0.0, 1.695418139810109E9, 0.0, 2023-09-22 16:28:59.810
86.0, 26555.59349722785, 13297.410404373457, -37038.85221944478, -63319.87688778364, -187500.02235174447, 7419.035723094431, -113262.77116093293, -187500.02235174447, -40249.054461604894, 6452.65805156923, -5182.83309731878, -69684.4020109656, -3602.765930028669, -22668.15574981639, -4883.453832084398, 8255.929738990038, -0.022, 0.982, 0.26, 192.0, 0.0, 0.0, 0.0, 0.0, 0.0, 0.0, 0.0, 0.0, 0.0, 1.695418139810113E9, 0.0, 2023-09-22 16:28:59.810
88.0, 26542.49537497704, 13278.925511708918, -37054.18551614112, -63339.9487543045, -187500.02235174447, 7466.913159717698, -113171.93367146656, -187500.02235174447, -40251.62491221725, 6448.366516633811, -5171.768983813404, -69694.12501980364, -3606.9457062418114, -22653.984743831727, -4869.282826099733, 8267.552646106798, -0.03, 0.98, 0.26, 192.0, 127.5, 8.0, 15.0, 80.0, 4.0, 16.0, 0.0, 0.0, 0.0, 1.695418139810116E9, 0.0, 2023-09-22 16:28:59.810
90.0, 26535.432223729164, 13279.43960183139, -37062.38860635622, -63339.14409150411, -187500.02235174447, 7429.295173799417, -113258.97136437552, -187500.02235174447, -40256.27407506396, 6436.251871139035, -5159.8108005298145, -69700.87524662915, -3621.42963664885, -22662.232537535732, -4891.768681021772, 8260.467143114465, -0.03, 0.98, 0.26, 192.0, 0.0, 0.0, 0.0, 0.0, 0.0, 0.0, 0.0, 0.0, 0.0, 1.69541813981012E9, 0.0, 2023-09-22 16:28:59.810
92.0, 26540.43901448715, 13285.228703645314, -37058.186478398624, -63333.802024579294, -187500.02235174447, 7476.211485411106, -113164.02115392938, -187500.02235174447, -40272.479089794055, 6431.714467014607, -5157.30740515082, -69711.8052496678, -3628.246918707719, -22652.71069439777, -4889.06411994268, 8279.242608456923, -0.03, 0.98, 0.26, 192.0, 0.0, 0.0, 0.0, 0.0, 0.0, 0.0, 0.0, 0.0, 0.0, 1.695418139869602E9, 0.0, 2023-09-22 16:28:59.869
94.0, 26561.62846823078, 13309.234477190314, -37040.75211772348, -63313.171364447044, -187500.02235174447, 7413.090159069319, -113300.00916719547, -187500.02235174447, -40242.483048735034, 6472.886380301283, -5164.504666865429, -69673.62847013814, -3609.8067295320907, -22654.096502554003, -4885.554896063197, 8261.987061737425, -0.03, 0.98, 0.26, 192.0, 0.0, 0.0, 0.0, 0.0, 0.0, 0.0, 0.0, 0.0, 0.0, 1.695418139869614E9, 0.0, 2023-09-22 16:28:59.869
96.0, 26544.998770356033, 13292.58242757111, -37051.32449285084, -63336.618344380666, -187500.02235174447, 7466.399069595226, -113213.41850917561, -187500.02235174447, -40258.50924950949, 6456.614310337819, -5174.719414081504, -69689.00647032338, -3614.5229476121604, -22649.268525751653, -4876.256570369789, 8253.2475296554, -0.03, 0.98, 0.26, 192.0, 0.0, 0.0, 0.0, 0.0, 0.0, 0.0, 0.0, 0.0, 0.0, 1.695418139869617E9, 0.0, 2023-09-22 16:28:59.869
98.0, 26541.333084265363, 13291.554247326167, -37064.04263544591, -63338.33942870372, -187500.02235174447, 7439.621679737768, -113304.61362655326, -187500.02235174447, -40266.98056065805, 6444.767885776507, -5142.667012532594, -69695.53317970433, -3631.6220321204705, -22634.91870581135, -4895.9037537460035, 8280.449602657509, -0.022, 0.98, 0.258, 192.0, 127.5, 40.0, 15.0, 80.0, 4.0, 8.0, 0.0, 0.0, 0.0, 1.695418139869621E9, 0.0, 2023-09-22 16:28:59.869
100.0, 26537.33212200786, 13287.709747279854, -37055.258399874976, -63342.20628049449, -187500.02235174447, 7467.583712051358, -113245.04622757986, -187500.02235174447, -40262.77843270045, 6461.2187696956125, -5181.156716484633, -69686.61483366667, -3619.730904070247, -22655.839938621517, -4880.793974494216, 8251.504093587888, -0.022, 0.98, 0.258, 192.0, 0.0, 0.0, 0.0, 0.0, 0.0, 0.0, 0.0, 0.0, 0.0, 1.695418139869624E9, 0.0, 2023-09-22 16:28:59.869
102.0, 26541.131918565265, 13288.11207868005, -37063.17091741216, -63334.785501335326, -187500.02235174447, 7437.386505292238, -113318.82933602683, -187500.02235174447, -40276.23418286254, 6443.605595064831, -5141.884701476658, -69701.9034268741, -3640.406267691406, -22637.802080846082, -4906.319666662177, 8290.507887662397, -0.022, 0.98, 0.258, 192.0, 0.0, 0.0, 0.0, 0.0, 0.0, 0.0, 0.0, 0.0, 0.0, 1.695418139869627E9, 0.0, 2023-09-22 16:28:59.869
104.0, 26538.293247019443, 13282.233569888303, -37046.56357128186, -63337.937097303526, -187500.02235174447, 7460.498209059026, -113259.97719287602, -187500.02235174447, -40263.56074375639, 6449.75232479004, -5190.522097411406, -69692.15806629158, -3618.8144825475792, -22663.05955208058, -4887.700663530906, 8247.838407497216, -0.022, 0.98, 0.258, 192.0, 0.0, 0.0, 0.0, 0.0, 0.0, 0.0, 0.0, 0.0, 0.0, 1.69541813986963E9, 0.0, 2023-09-22 16:28:59.869
106.0, 26539.58964819785, 13282.412383843945, -37057.31476036486, -63337.020675780856, -187500.02235174447, 7444.337897817839, -113311.47561210104, -187500.02235174447, -40275.697740995616, 6441.526882830487, -5142.979936954968, -69707.62547345465, -3634.416000177384, -22645.267563494155, -4897.691893302428, 8295.604085398209, -0.022, 0.98, 0.258, 192.0, 0.0, 0.0, 0.0, 0.0, 0.0, 0.0, 0.0, 0.0, 0.0, 1.695418139930549E9, 0.0, 2023-09-22 16:28:59.930
108.0, 26540.953104609624, 13278.634939030999, -37043.367271824754, -63340.5522514048, -187500.02235174447, 7465.035613183452, -113251.8858613832, -187500.02235174447, -40268.32166532537, 6448.1877026781685, -5182.698986852049, -69701.00935709589, -3627.2634419516853, -22673.9001481414, -4889.5111548317855, 8255.907387245583, -0.02, 0.976, 0.26, 192.0, 127.5, 48.0, 15.0, 64.0, 4.0, 16.0, 0.0, 0.0, 0.0, 1.695418139930561E9, 0.0, 2023-09-22 16:28:59.930
110.0, 26546.853965145823, 13281.741831510286, -37054.0961091633, -63338.495890914906, -187500.02235174447, 7453.546816533425, -113292.29781535838, -187500.02235174447, -40263.314874567375, 6444.052629953937, -5134.910957206602, -69698.37185125017, -3625.363543672984, -22653.090674053514, -4890.829907754649, 8307.919896593083, -0.02, 0.976, 0.26, 192.0, 0.0, 0.0, 0.0, 0.0, 0.0, 0.0, 0.0, 0.0, 0.0, 1.695418139930565E9, 0.0, 2023-09-22 16:28:59.930
112.0, 26515.82974384186, 13248.795360183163, -37080.64998157621, -63374.32573727676, -187500.02235174447, 7481.598255824835, -113228.84121284977, -187500.02235174447, -40280.68218000915, 6425.053647166926, -5175.88170479318, -69718.93545614905, -3642.283814225652, -22677.096447598513, -4910.119463219579, 8269.318433918766, -0.02, 0.976, 0.26, 192.0, 0.0, 0.0, 0.0, 0.0, 0.0, 0.0, 0.0, 0.0, 0.0, 1.695418139930568E9, 0.0, 2023-09-22 16:28:59.930
114.0, 26552.866584404303, 13290.05668044766, -37055.97365569755, -63334.0478937683, -187500.02235174447, 7466.354366106316, -113265.20750107855, -187500.02235174447, -40272.36733107178, 6436.296574627945, -5132.1616926386, -69712.98989212394, -3638.8863490684453, -22654.096502554003, -4913.002838254313, 8331.143359082145, -0.02, 0.976, 0.26, 192.0, 0.0, 0.0, 0.0, 0.0, 0.0, 0.0, 0.0, 0.0, 0.0, 1.695418139930571E9, 0.0, 2023-09-22 16:28:59.930
116.0, 26524.457517201605, 13265.358002824547, -37069.027074459445, -63359.73004814745, -187500.02235174447, 7472.389337109249, -113239.50299495495, -187500.02235174447, -40267.53935426943, 6439.984612463071, -5190.365635200219, -69709.4583165, -3632.493750154227, -22682.14794184541, -4898.16127993599, 8263.484628615932, -0.02, 0.976, 0.26, 192.0, 0.0, 0.0, 0.0, 0.0, 0.0, 0.0, 0.0, 0.0, 0.0, 1.695418139930574E9, 0.0, 2023-09-22 16:28:59.930
118.0, 26543.054168588424, 13286.502753079267, -37056.35363535328, -63335.947792047, -187500.02235174447, 7477.105555189319, -113233.66918965212, -187500.02235174447, -40269.79688045941, 6441.1469031747465, -5140.364782853697, -69710.53120023385, -3634.2595379661966, -22651.05666530808, -4890.025244954258, 8329.243460803445, -0.024, 0.974, 0.26, 192.0, 127.5, 32.0, 15.0, 56.0, 4.0, 16.0, 0.0, 0.0, 0.0, 1.695418139930577E9, 0.0, 2023-09-22 16:28:59.930
120.0, 26532.8617731168, 13280.043098931683, -37054.61019928577, -63346.29664972981, -187500.02235174447, 7461.749906748522, -113247.41551249212, -187500.02235174447, -40263.605447245296, 6455.787295792973, -5197.451138192551, -69698.59536869472, -3633.0078402766994, -22684.718392457773, -4890.896962988015, 8265.20571293899, -0.024, 0.974, 0.26, 192.0, 0.0, 0.0, 0.0, 0.0, 0.0, 0.0, 0.0, 0.0, 0.0, 1.695418139930581E9, 0.0, 2023-09-22 16:28:59.930
122.0, 26528.704348648116, 13277.874979719518, -37075.26321116248, -63350.364667220674, -187500.02235174447, 7497.825622299389, -113195.76063105592, -187500.02235174447, -40281.62095327627, 6439.917557229705, -5142.711716021504, -69712.18522932354, -3641.1215235139757, -22651.72721764174, -4886.739538519328, 8330.092827092747, -0.024, 0.974, 0.26, 192.0, 0.0, 0.0, 0.0, 0.0, 0.0, 0.0, 0.0, 0.0, 0.0, 1.69541813999021E9, 0.0, 2023-09-22 16:28:59.990
124.0, 26532.593552183338, 13284.379337356013, -37062.38860635622, -63343.14505376161, -187500.02235174447, 7465.683813772656, -113248.46604448152, -187500.02235174447, -40274.33428458384, 6456.480199871087, -5195.707702125037, -69698.79653439482, -3641.43444793635, -22685.903034913903, -4895.791995023727, 8273.274692687357, -0.024, 0.974, 0.26, 192.0, 0.0, 0.0, 0.0, 0.0, 0.0, 0.0, 0.0, 0.0, 0.0, 1.695418139990222E9, 0.0, 2023-09-22 16:28:59.990
126.0, 26545.15523256722, 13295.376395628024, -37061.56159181137, -63331.566850133764, -187500.02235174447, 7493.914067019709, -113198.95693051303, -187500.02235174447, -40284.59373528883, 6446.265452655012, -5158.223826673488, -69710.68766244504, -3645.636575893948, -22657.583374689028, -4884.906695473993, 8321.107425821714, -0.024, 0.974, 0.26, 192.0, 0.0, 0.0, 0.0, 0.0, 0.0, 0.0, 0.0, 0.0, 0.0, 1.695418139990226E9, 0.0, 2023-09-22 16:28:59.990
128.0, 26539.477889475573, 13288.782631013708, -37053.38085334073, -63335.92544030255, -187500.02235174447, 7454.776162478467, -113272.04713488188, -187500.02235174447, -40259.15745009869, 6466.85140929835, -5205.944801085568, -69681.96567081996, -3629.610375119493, -22681.209168578287, -4891.902791488504, 8256.712050045973, -0.024, 0.98, 0.252, 192.0, 127.5, 32.0, 15.0, 80.0, 3.5, 112.0, 0.0, 0.0, 0.0, 1.695418139990229E9, 0.0, 2023-09-22 16:28:59.990
130.0, 26547.859793646312, 13289.810811258652, -37055.727786508534, -63334.718446101964, -187500.02235174447, 7497.691511832656, -113200.00746250243, -187500.02235174447, -40281.17391838717, 6445.281975898979, -5159.229655173976, -69702.66338618558, -3644.7648578601907, -22654.320019998555, -4889.980541465347, 8311.3620652392, -0.024, 0.98, 0.252, 192.0, 0.0, 0.0, 0.0, 0.0, 0.0, 0.0, 0.0, 0.0, 0.0, 1.695418139990232E9, 0.0, 2023-09-22 16:28:59.990
132.0, 26542.1153953213, 13286.793325757186, -37057.85120223179, -63339.41231243758, -187500.02235174447, 7463.806267238411, -113279.42321055212, -187500.02235174447, -40270.512136281985, 6448.99236547856, -5183.50364965244, -69693.76739189237, -3641.8814828254563, -22681.276223811656, -4903.279829416255, 8271.218332197468, -0.024, 0.98, 0.252, 192.0, 0.0, 0.0, 0.0, 0.0, 0.0, 0.0, 0.0, 0.0, 0.0, 1.695418139990235E9, 0.0, 2023-09-22 16:28:59.990
134.0, 26570.278593334984, 13314.867116793052, -37037.75698396647, -63309.14805044509, -187500.02235174447, 7498.026787999486, -113216.95008479955, -187500.02235174447, -40272.322627582864, 6448.545330589453, -5160.816629030303, -69689.85583661268, -3631.174997231364, -22658.0974648115, -4886.49366933032, 8305.081225047257, -0.024, 0.98, 0.252, 192.0, 0.0, 0.0, 0.0, 0.0, 0.0, 0.0, 0.0, 0.0, 0.0, 1.695418139990239E9, 0.0, 2023-09-22 16:28:59.990
136.0, 26540.30490402042, 13284.848723989573, -37059.594638299306, -63337.31124845878, -187500.02235174447, 7464.8120957389, -113291.02376592443, -187500.02235174447, -40266.57822925785, 6456.5249033599985, -5173.981806514479, -69686.01133656637, -3630.1915204753304, -22666.412313748875, -4892.103957188601, 8267.329128662244, -0.024, 0.98, 0.252, 192.0, 0.0, 0.0, 0.0, 0.0, 0.0, 0.0, 0.0, 0.0, 0.0, 1.695418140049109E9, 0.0, 2023-09-22 16:29:00.049
138.0, 26544.238811044554, 13287.57563681312, -37059.12525166574, -63329.24226871041, -187500.02235174447, 7519.6185731433125, -113179.44385760355, -187500.02235174447, -40297.580098817365, 6437.436513595166, -5151.250082403431, -69716.74498519242, -3645.144837515931, -22645.424025705343, -4893.06508220018, 8305.036521558348, -0.024, 0.978, 0.252, 192.0, 127.5, 32.0, 15.0, 72.0, 3.5, 112.0, 0.0, 0.0, 0.0, 1.695418140049127E9, 0.0, 2023-09-22 16:29:00.049
140.0, 26537.73445340806, 13280.91481696544, -37058.83467898783, -63330.046931510806, -187500.02235174447, 7473.305758631916, -113273.29883257138, -187500.02235174447, -40280.21279337559, 6446.645432310753, -5158.8720272626915, -69698.57301695025, -3636.382953689451, -22650.67668565234, -4893.7356345338385, 8287.132774249647, -0.024, 0.978, 0.252, 192.0, 0.0, 0.0, 0.0, 0.0, 0.0, 0.0, 0.0, 0.0, 0.0, 1.695418140049131E9, 0.0, 2023-09-22 16:29:00.049
142.0, 26540.77429065398, 13281.25009313227, -37062.56742031186, -63334.58433563523, -187500.02235174447, 7514.187099240673, -113179.57796807027, -187500.02235174447, -40300.68699129665, 6429.211071635613, -5167.388041900163, -69719.1589735936, -3649.6151864069925, -22662.500758469196, -4887.410090852987, 8295.581733653753, -0.024, 0.978, 0.252, 192.0, 0.0, 0.0, 0.0, 0.0, 0.0, 0.0, 0.0, 0.0, 0.0, 1.695418140049134E9, 0.0, 2023-09-22 16:29:00.049
144.0, 26546.25046804553, 13290.503715336767, -37061.38277785573, -63333.08676875672, -187500.02235174447, 7457.279557857461, -113292.02959442492, -187500.02235174447, -40281.978581187555, 6446.354859632834, -5173.467716392007, -69698.97534835045, -3641.3226892140738, -22668.33456377203, -4899.256515414299, 8283.3553294367, -0.024, 0.978, 0.252, 192.0, 0.0, 0.0, 0.0, 0.0, 0.0, 0.0, 0.0, 0.0, 0.0, 1.695418140049137E9, 0.0, 2023-09-22 16:29:00.049
146.0, 26538.606171441817, 13279.238436131292, -37068.71415003707, -63346.52016717436, -187500.02235174447, 7503.190040968662, -113200.58860785826, -187500.02235174447, -40290.42754059166, 6433.837882737861, -5192.131423012188, -69713.54868573531, -3644.3848782044506, -22669.698020183805, -4890.338169376632, 8266.569169350763, -0.024, 0.978, 0.252, 192.0, 0.0, 0.0, 0.0, 0.0, 0.0, 0.0, 0.0, 0.0, 0.0, 1.695418140049141E9, 0.0, 2023-09-22 16:29:00.049
148.0, 26553.40302627123, 13299.667930563442, -37066.031940702436, -63331.857422811685, -187500.02235174447, 7456.765467734989, -113305.30653063138, -187500.02235174447, -40275.407168317695, 6451.115781201814, -5168.729146567482, -69692.42628722504, -3638.662831623892, -22666.322906771053, -4892.7298060333505, 8272.87236128716, -0.02, 0.98, 0.25, 192.0, 127.5, 48.0, 15.0, 80.0, 3.5, 104.0, 0.0, 0.0, 0.0, 1.695418140049144E9, 0.0, 2023-09-22 16:29:00.049
150.0, 26542.607133699315, 13285.765145512241, -37070.61404831577, -63349.738818375925, -187500.02235174447, 7497.53504962147, -113216.30188421035, -187500.02235174447, -40287.74533125703, 6448.701792800641, -5192.846678834758, -69707.67017694356, -3645.4130584493946, -22667.708714927285, -4890.941666476925, 8242.719858016952, -0.02, 0.98, 0.25, 192.0, 0.0, 0.0, 0.0, 0.0, 0.0, 0.0, 0.0, 0.0, 0.0, 1.695418140049147E9, 0.0, 2023-09-22 16:29:00.049
152.0, 26564.467139776607, 13307.02165448924, -37062.00862670048, -63326.180079720034, -187500.02235174447, 7458.419496824682, -113304.03248119743, -187500.02235174447, -40285.24193587803, 6444.052629953937, -5150.847751003236, -69705.5467612203, -3649.2352067512525, -22650.85549960798, -4903.659809071995, 8280.315492190777, -0.02, 0.98, 0.25, 192.0, 0.0, 0.0, 0.0, 0.0, 0.0, 0.0, 0.0, 0.0, 0.0, 1.695418140109328E9, 0.0, 2023-09-22 16:29:00.109
154.0, 26547.859793646312, 13285.809849001153, -37063.975580212544, -63349.44824569801, -187500.02235174447, 7478.379604623271, -113241.49230021147, -187500.02235174447, -40271.853240949305, 6448.679441056185, -5197.138213770177, -69698.7518309059, -3631.9796600317554, -22681.16446508938, -4885.10786117409, 8222.916212429549, -0.02, 0.98, 0.25, 192.0, 0.0, 0.0, 0.0, 0.0, 0.0, 0.0, 0.0, 0.0, 0.0, 1.695418140109339E9, 0.0, 2023-09-22 16:29:00.109
156.0, 26546.898668634734, 13282.188866399392, -37074.90558325119, -63352.24221375492, -187500.02235174447, 7473.1269446762735, -113272.02478313743, -187500.02235174447, -40280.14573814222, 6438.263528140013, -5136.810855485303, -69715.4038805251, -3649.525779429171, -22652.57658393104, -4901.648152071018, 8276.739213077928, -0.02, 0.98, 0.25, 192.0, 0.0, 0.0, 0.0, 0.0, 0.0, 0.0, 0.0, 0.0, 0.0, 1.695418140109343E9, 0.0, 2023-09-22 16:29:00.109
158.0, 26548.64210470225, 13287.82150600213, -37058.186478398624, -63339.36760894867, -187500.02235174447, 7486.359177393816, -113222.31450346882, -187500.02235174447, -40285.93483995615, 6434.597842049342, -5177.558085627328, -69713.97336887996, -3655.761916132202, -22683.1537703459, -4904.35271315011, 8234.15913989057, -0.026000000000000002, 0.976, 0.248, 192.0, 127.5, 24.0, 15.0, 64.0, 3.5, 96.0, 0.0, 0.0, 0.0, 1.695418140109347E9, 0.0, 2023-09-22 16:29:00.109
160.0, 26554.92294489419, 13297.67862530692, -37058.544106309906, -63333.42204492355, -187500.02235174447, 7474.088069687852, -113250.6341636937, -187500.02235174447, -40274.69191249513, 6452.099257957847, -5140.051858431323, -69701.23287454044, -3642.641442136937, -22656.68930491082, -4886.6277797970515, 8276.4039369111, -0.026000000000000002, 0.976, 0.248, 192.0, 0.0, 0.0, 0.0, 0.0, 0.0, 0.0, 0.0, 0.0, 0.0, 1.69541814010935E9, 0.0, 2023-09-22 16:29:00.109
162.0, 26545.60226745633, 13281.853590232562, -37056.24187663101, -63346.184891007535, -187500.02235174447, 7483.744023292545, -113209.68576785157, -187500.02235174447, -40283.14087189923, 6430.172196647191, -5182.676635107593, -69718.60017998221, -3652.9008928419225, -22679.30927029959, -4891.656922299495, 8226.403084564578, -0.026000000000000002, 0.976, 0.248, 192.0, 0.0, 0.0, 0.0, 0.0, 0.0, 0.0, 0.0, 0.0, 0.0, 1.695418140109353E9, 0.0, 2023-09-22 16:29:00.109
164.0, 26560.309715307918, 13299.243247418792, -37052.442080073604, -63331.63390536713, -187500.02235174447, 7469.438906841148, -113231.0763872953, -187500.02235174447, -40279.76575848649, 6440.118722929803, -5139.82834098677, -69705.72557517595, -3641.9708898032773, -22664.758284659183, -4884.370253607065, 8274.213465954479, -0.026000000000000002, 0.976, 0.248, 192.0, 0.0, 0.0, 0.0, 0.0, 0.0, 0.0, 0.0, 0.0, 0.0, 1.695418140109356E9, 0.0, 2023-09-22 16:29:00.109
166.0, 26533.599380683827, 13272.801133728164, -37063.26032438998, -63355.25969925639, -187500.02235174447, 7468.8130579964, -113223.11916626921, -187500.02235174447, -40281.86682246528, 6433.971993204594, -5188.935123555079, -69710.88882814514, -3643.9378433153447, -22693.72614547326, -4884.34790186261, 8212.85792742466, -0.026000000000000002, 0.976, 0.248, 192.0, 0.0, 0.0, 0.0, 0.0, 0.0, 0.0, 0.0, 0.0, 0.0, 1.695418140170405E9, 0.0, 2023-09-22 16:29:00.170
168.0, 26540.528421464973, 13281.138334409992, -37073.4527198616, -63345.87196658516, -187500.02235174447, 7489.466069873103, -113193.32429091028, -187500.02235174447, -40300.88815699675, 6420.158615131213, -5139.783637497859, -69729.21725859848, -3661.7745353906794, -22664.44536023681, -4890.159355420989, 8281.746003835917, -0.026000000000000002, 0.976, 0.258, 192.0, 127.5, 24.0, 15.0, 64.0, 4.0, 8.0, 0.0, 0.0, 0.0, 1.695418140170419E9, 0.0, 2023-09-22 16:29:00.170
170.0, 26537.73445340806, 13277.807924486153, -37071.57517332735, -63354.38798122263, -187500.02235174447, 7465.795572494933, -113221.08515752378, -187500.02235174447, -40289.64522953573, 6429.345182102345, -5196.422957947607, -69718.64488347112, -3655.3595847320066, -22690.060459382592, -4902.050483471213, 8222.111549629159, -0.026000000000000002, 0.976, 0.258, 192.0, 0.0, 0.0, 0.0, 0.0, 0.0, 0.0, 0.0, 0.0, 0.0, 1.695418140170423E9, 0.0, 2023-09-22 16:29:00.170
172.0, 26546.02695060098, 13287.91091297995, -37074.21267917308, -63348.844748597716, -187500.02235174447, 7481.978235480576, -113184.1153721947, -187500.02235174447, -40299.30118314042, 6428.920498957694, -5162.269492419898, -69730.04427314333, -3659.62876792297, -22659.10329331199, -4897.200154924411, 8273.699375832008, -0.026000000000000002, 0.976, 0.258, 192.0, 0.0, 0.0, 0.0, 0.0, 0.0, 0.0, 0.0, 0.0, 0.0, 1.695418140170426E9, 0.0, 2023-09-22 16:29:00.170
174.0, 26539.43318598666, 13282.255921632759, -37072.82687101685, -63357.45017021301, -187500.02235174447, 7442.214482094584, -113243.61571593472, -187500.02235174447, -40290.56165105839, 6432.630888537275, -5216.785397146392, -69718.24255207092, -3658.1982562778303, -22688.361726803985, -4908.68895157444, 8206.130052343613, -0.026000000000000002, 0.976, 0.258, 192.0, 0.0, 0.0, 0.0, 0.0, 0.0, 0.0, 0.0, 0.0, 0.0, 1.695418140170429E9, 0.0, 2023-09-22 16:29:00.170
176.0, 26546.272819789985, 13283.440564088889, -37066.926010480645, -63350.47642594295, -187500.02235174447, 7478.62547381228, -113186.39525012914, -187500.02235174447, -40298.004781962016, 6429.635754780264, -5176.820478060303, -69724.63515098514, -3653.146762030931, -22652.82245312005, -4895.479070601353, 8253.649861055597, -0.026000000000000002, 0.976, 0.258, 192.0, 0.0, 0.0, 0.0, 0.0, 0.0, 0.0, 0.0, 0.0, 0.0, 1.695418140170432E9, 0.0, 2023-09-22 16:29:00.170
178.0, 26537.309770263408, 13271.05769766065, -37062.67917903414, -63355.23734751193, -187500.02235174447, 7442.102723372308, -113258.99371611998, -187500.02235174447, -40287.432406834654, 6435.424856594188, -5199.88747833818, -69719.4048427826, -3652.140933530442, -22671.48615974023, -4900.195288681422, 8214.62371523663, -0.026000000000000002, 0.974, 0.262, 192.0, 127.5, 24.0, 15.0, 56.0, 4.0, 24.0, 0.0, 0.0, 0.0, 1.695418140170435E9, 0.0, 2023-09-22 16:29:00.170
180.0, 26532.25827601651, 13264.173360368415, -37078.750083297506, -63362.322850504264, -187500.02235174447, 7498.7196920776005, -113148.79961595531, -187500.02235174447, -40305.38085763226, 6389.4920217385325, -5165.935178510568, -69731.47478478847, -3662.378032490973, -22660.712618912774, -4894.517945589775, 8268.290253673822, -0.026000000000000002, 0.974, 0.262, 192.0, 0.0, 0.0, 0.0, 0.0, 0.0, 0.0, 0.0, 0.0, 0.0, 1.695418140170439E9, 0.0, 2023-09-22 16:29:00.170
182.0, 26552.061921603912, 13282.166514654937, -37060.80163249989, -63337.221841480954, -187500.02235174447, 7452.4068775662045, -113226.29311398187, -187500.02235174447, -40302.341020386346, 6405.227649835068, -5178.474507149996, -69729.48547953194, -3666.2895877706515, -22683.310232557087, -4915.819158055682, 8251.235872654423, -0.026000000000000002, 0.974, 0.262, 192.0, 0.0, 0.0, 0.0, 0.0, 0.0, 0.0, 0.0, 0.0, 0.0, 1.695418140230052E9, 0.0, 2023-09-22 16:29:00.230
184.0, 26548.150366324233, 13282.792363499686, -37058.678216776636, -63337.020675780856, -187500.02235174447, 7489.24255242855, -113139.54599375081, -187500.02235174447, -40288.21471789059, 6430.7533420030295, -5181.782565329381, -69706.64199669863, -3642.239110736741, -22669.34039227252, -4879.475221571353, 8262.814076282273, -0.026000000000000002, 0.974, 0.262, 192.0, 0.0, 0.0, 0.0, 0.0, 0.0, 0.0, 0.0, 0.0, 0.0, 1.695418140230068E9, 0.0, 2023-09-22 16:29:00.230
186.0, 26545.423453500684, 13278.746697753275, -37057.359463853776, -63339.79229209332, -187500.02235174447, 7452.295118843927, -113212.59149463076, -187500.02235174447, -40298.29535463993, 6409.273315581479, -5175.099393737244, -69712.6099124682, -3661.7074801573135, -22678.996345877214, -4896.596657824119, 8260.556550092286, -0.026000000000000002, 0.974, 0.262, 192.0, 0.0, 0.0, 0.0, 0.0, 0.0, 0.0, 0.0, 0.0, 0.0, 1.695418140230073E9, 0.0, 2023-09-22 16:29:00.230
188.0, 26550.005561114023, 13283.82054374463, -37048.97755968304, -63338.6523531261, -187500.02235174447, 7495.545744364947, -113103.82790611124, -187500.02235174447, -40295.68020053866, 6411.396731304733, -5174.339434425764, -69714.37570028016, -3655.5160469431935, -22670.748552173205, -4876.815363981172, 8277.476820644953, -0.022, 0.974, 0.264, 192.0, 127.5, 40.0, 15.0, 56.0, 4.0, 32.0, 0.0, 0.0, 0.0, 1.695418140230078E9, 0.0, 2023-09-22 16:29:00.230
190.0, 26555.906421650223, 13293.901180493973, -37047.30117884889, -63331.41038792257, -187500.02235174447, 7446.014278651986, -113193.99484324394, -187500.02235174447, -40284.34786609982, 6418.392827319244, -5170.8525622907355, -69705.88203738714, -3653.593796920037, -22681.09740985601, -4887.7453670198165, 8272.44767814251, -0.022, 0.974, 0.264, 192.0, 0.0, 0.0, 0.0, 0.0, 0.0, 0.0, 0.0, 0.0, 0.0, 1.695418140230082E9, 0.0, 2023-09-22 16:29:00.230
192.0, 26544.037645344455, 13282.546494310678, -37056.73361500903, -63350.230556753944, -187500.02235174447, 7491.276561173983, -113085.96886229144, -187500.02235174447, -40292.036866192444, 6427.132359401269, -5187.348149698752, -69711.93936013454, -3653.146762030931, -22674.749514430707, -4880.458698327387, 8263.998718738403, -0.022, 0.974, 0.264, 192.0, 0.0, 0.0, 0.0, 0.0, 0.0, 0.0, 0.0, 0.0, 0.0, 1.695418140230086E9, 0.0, 2023-09-22 16:29:00.230
194.0, 26536.460403974106, 13272.689375005886, -37081.14171995422, -63362.23344352644, -187500.02235174447, 7469.349499863327, -113138.33899955024, -187500.02235174447, -40308.39834313373, 6414.056588894915, -5160.7495737969375, -69730.3571975657, -3673.0845180850647, -22670.279165539643, -4906.409073639998, 8285.903428304604, -0.022, 0.974, 0.264, 192.0, 0.0, 0.0, 0.0, 0.0, 0.0, 0.0, 0.0, 0.0, 0.0, 1.695418140230091E9, 0.0, 2023-09-22 16:29:00.230
196.0, 26545.82578490088, 13279.305491364657, -37064.86964999076, -63358.99244058043, -187500.02235174447, 7497.691511832656, -113054.00586772036, -187500.02235174447, -40302.58688957535, 6413.184870861158, -5192.220829990009, -69723.8081364403, -3661.0592795681096, -22683.421991279363, -4902.251649171311, 8266.233893183935, -0.022, 0.974, 0.264, 192.0, 0.0, 0.0, 0.0, 0.0, 0.0, 0.0, 0.0, 0.0, 0.0, 1.695418140288782E9, 0.0, 2023-09-22 16:29:00.288
198.0, 26540.796642398436, 13273.315223850635, -37082.88515602174, -63366.63673718414, -187500.02235174447, 7466.019089939487, -113114.69085391652, -187500.02235174447, -40309.09124721184, 6414.391865061744, -5168.080945978278, -69735.25222960142, -3671.497544228738, -22676.96233713178, -4913.606335354607, 8284.91995154857, -0.028, 0.976, 0.266, 192.0, 127.5, 16.0, 15.0, 64.0, 4.0, 40.0, 0.0, 0.0, 0.0, 1.695418140288799E9, 0.0, 2023-09-22 16:29:00.288
200.0, 26553.738302438058, 13287.508581579756, -37062.0980336783, -63354.34327773372, -187500.02235174447, 7480.033633712964, -113052.59770781967, -187500.02235174447, -40299.032962206955, 6410.346199315334, -5211.488033710484, -69729.68664523204, -3664.0320615806654, -22692.96618616178, -4898.094224702624, 8248.978346464437, -0.028, 0.976, 0.266, 192.0, 0.0, 0.0, 0.0, 0.0, 0.0, 0.0, 0.0, 0.0, 0.0, 1.695418140288802E9, 0.0, 2023-09-22 16:29:00.288
202.0, 26549.379712269274, 13286.368642612535, -37064.86964999076, -63351.25873699889, -187500.02235174447, 7455.357307834305, -113111.09222305921, -187500.02235174447, -40295.30022088292, 6420.851519209328, -5175.009986759423, -69720.6565404721, -3662.400384235428, -22666.434665493332, -4894.92027698997, 8280.650768357607, -0.028, 0.976, 0.266, 192.0, 0.0, 0.0, 0.0, 0.0, 0.0, 0.0, 0.0, 0.0, 0.0, 1.695418140288805E9, 0.0, 2023-09-22 16:29:00.288
204.0, 26532.526496949973, 13270.185979626893, -37075.21850767356, -63369.34129826323, -187500.02235174447, 7485.062776215408, -113030.76005348684, -187500.02235174447, -40307.34781114433, 6420.672705253685, -5215.153719801155, -69730.46895628798, -3669.374128505484, -22676.671764453862, -4900.083529959146, 8245.983212707426, -0.028, 0.976, 0.266, 192.0, 0.0, 0.0, 0.0, 0.0, 0.0, 0.0, 0.0, 0.0, 0.0, 1.695418140288809E9, 0.0, 2023-09-22 16:29:00.288
206.0, 26539.656703431214, 13273.784610484197, -37080.51587110947, -63362.59107143773, -187500.02235174447, 7484.973369237587, -113031.58706803169, -187500.02235174447, -40318.94836651663, 6399.796175932429, -5159.922559252091, -69737.7109214915, -3681.377015277984, -22658.656258422885, -4914.254535943811, 8310.847975116727, -0.028, 0.976, 0.266, 192.0, 0.0, 0.0, 0.0, 0.0, 0.0, 0.0, 0.0, 0.0, 0.0, 1.695418140288812E9, 0.0, 2023-09-22 16:29:00.288
208.0, 26545.691674434147, 13281.25009313227, -37060.846335988805, -63354.03035331135, -187500.02235174447, 7495.0763577313855, -112974.74658188185, -187500.02235174447, -40316.02028799299, 6399.595010232331, -5203.374350473207, -69728.88198243166, -3681.8016984226347, -22691.759191961195, -4904.73269280585, 8268.178494951546, -0.034, 0.974, 0.262, 192.0, 127.0, 120.0, 15.0, 56.0, 4.0, 24.0, 0.0, 0.0, 0.0, 1.695418140288815E9, 0.0, 2023-09-22 16:29:00.288
210.0, 26562.00844788652, 13296.650445061976, -37052.62089402925, -63334.80785307978, -187500.02235174447, 7483.744023292545, -112993.164419313, -187500.02235174447, -40299.54705232943, 6416.068245895893, -5155.251044660931, -69711.02293861186, -3659.919340600889, -22663.998325347704, -4879.832849482638, 8314.156033296113, -0.034, 0.974, 0.262, 192.0, 0.0, 0.0, 0.0, 0.0, 0.0, 0.0, 0.0, 0.0, 0.0, 1.695418140288818E9, 0.0, 2023-09-22 16:29:00.288
212.0, 26550.78787216996, 13283.015880944238, -37051.32449285084, -63346.743684618916, -187500.02235174447, 7478.848991256833, -112975.6182999156, -187500.02235174447, -40301.73752328605, 6420.650353509231, -5198.188745759577, -69712.54285723482, -3660.925169101378, -22682.01383137868, -4878.87172447106, 8255.370945378656, -0.034, 0.974, 0.262, 192.0, 0.0, 0.0, 0.0, 0.0, 0.0, 0.0, 0.0, 0.0, 0.0, 1.695418140349041E9, 0.0, 2023-09-22 16:29:00.349
214.0, 26577.87818644979, 13312.810756303163, -37035.03007114292, -63317.664065082565, -187500.02235174447, 7467.427249840171, -112988.29173902175, -187500.02235174447, -40294.51790982699, 6428.026429179482, -5159.49787610744, -69702.9986623524, -3653.750259131224, -22656.219918277257, -4873.462602312876, 8303.293085490834, -0.034, 0.974, 0.262, 192.0, 0.0, 0.0, 0.0, 0.0, 0.0, 0.0, 0.0, 0.0, 0.0, 1.695418140349053E9, 0.0, 2023-09-22 16:29:00.349
216.0, 26551.033741358966, 13286.480401334811, -37050.81040272837, -63344.217937495465, -187500.02235174447, 7461.861665470799, -112981.56386394071, -187500.02235174447, -40298.205947662114, 6429.345182102345, -5205.944801085568, -69705.0550228423, -3655.4266399653725, -22678.415200521376, -4870.53452378923, 8238.405971337077, -0.034, 0.974, 0.262, 192.0, 0.0, 0.0, 0.0, 0.0, 0.0, 0.0, 0.0, 0.0, 0.0, 1.695418140349056E9, 0.0, 2023-09-22 16:29:00.349
218.0, 26559.952087396636, 13294.39291887199, -37058.9464377101, -63340.731065360436, -187500.02235174447, 7484.928665748676, -112942.89534603302, -187500.02235174447, -40307.75014254453, 6427.110007656814, -5154.736954538459, -69716.90144740361, -3659.494657456238, -22645.267563494155, -4870.758041233783, 8303.516602935386, -0.024, 0.986, 0.258, 192.0, 127.5, 32.0, 15.0, 104.0, 4.0, 8.0, 0.0, 0.0, 0.0, 1.69541814034906E9, 0.0, 2023-09-22 16:29:00.349
220.0, 26545.982247112068, 13280.780706498708, -37061.65099878919, -63350.18585326504, -187500.02235174447, 7462.487514315548, -112972.64551790305, -187500.02235174447, -40307.25840416651, 6406.144071357736, -5190.767966600414, -69722.04234862833, -3669.1059075720204, -22675.062438853078, -4887.410090852987, 8254.20865466698, -0.024, 0.986, 0.258, 192.0, 0.0, 0.0, 0.0, 0.0, 0.0, 0.0, 0.0, 0.0, 0.0, 1.695418140349063E9, 0.0, 2023-09-22 16:29:00.349
222.0, 26544.39527325574, 13279.953691953862, -37066.56838256936, -63351.19168176552, -187500.02235174447, 7498.272657188494, -112909.5018398168, -187500.02235174447, -40324.89393054175, 6398.7679956874845, -5144.365745111197, -69737.04036915784, -3673.4197942518945, -22651.43664496382, -4882.291541372721, 8312.725521650973, -0.024, 0.986, 0.258, 192.0, 0.0, 0.0, 0.0, 0.0, 0.0, 0.0, 0.0, 0.0, 0.0, 1.695418140349066E9, 0.0, 2023-09-22 16:29:00.349
224.0, 26554.20768907162, 13288.670872291432, -37044.842486958805, -63340.95458280499, -187500.02235174447, 7457.659537513201, -112975.97592782688, -187500.02235174447, -40302.29631689743, 6420.94092618715, -5187.214039232021, -69714.5098107469, -3663.786192391657, -22687.31119481459, -4885.77841350775, 8258.254320413389, -0.024, 0.986, 0.258, 192.0, 0.0, 0.0, 0.0, 0.0, 0.0, 0.0, 0.0, 0.0, 0.0, 1.695418140349069E9, 0.0, 2023-09-22 16:29:00.349
226.0, 26536.818031885392, 13270.878883705007, -37068.62474305925, -63361.45113247051, -187500.02235174447, 7524.982991812586, -112859.4339322369, -187500.02235174447, -40319.4177531502, 6405.384112046256, -5145.460980589507, -69732.77118596688, -3666.334291259562, -22646.832185606025, -4870.400413322498, 8315.050103074325, -0.024, 0.986, 0.258, 192.0, 0.0, 0.0, 0.0, 0.0, 0.0, 0.0, 0.0, 0.0, 0.0, 1.695418140410685E9, 0.0, 2023-09-22 16:29:00.410
228.0, 26559.907383907725, 13297.119831695538, -37044.14958288069, -63333.48910015692, -187500.02235174447, 7488.549648350436, -112927.96438073688, -187500.02235174447, -40312.77928504697, 6414.07894063937, -5159.207303429521, -69720.36596779418, -3673.911532629911, -22667.596956205005, -4892.171012421967, 8300.365006967188, -0.026000000000000002, 0.988, 0.26, 192.0, 127.5, 24.0, 15.0, 112.0, 4.0, 16.0, 0.0, 0.0, 0.0, 1.695418140410698E9, 0.0, 2023-09-22 16:29:00.410
230.0, 26571.999677658045, 13311.424948146934, -37040.774469467935, -63322.51439362936, -187500.02235174447, 7532.87315760531, -112829.37083594452, -187500.02235174447, -40308.66656406719, 6423.936059944161, -5138.375477597175, -69712.4087467681, -3661.7521836462242, -22641.400711703387, -4862.197323107401, 8335.971335884493, -0.026000000000000002, 0.988, 0.26, 192.0, 0.0, 0.0, 0.0, 0.0, 0.0, 0.0, 0.0, 0.0, 0.0, 1.695418140410701E9, 0.0, 2023-09-22 16:29:00.410
232.0, 26567.954011911635, 13306.194639944391, -37039.455716545075, -63325.44247215301, -187500.02235174447, 7479.43013661267, -112915.96149396438, -187500.02235174447, -40289.08643592435, 6434.08375192687, -5153.485256848962, -69690.32522324625, -3657.639462666448, -22662.38899974692, -4873.037919168225, 8304.745948880429, -0.026000000000000002, 0.988, 0.26, 192.0, 0.0, 0.0, 0.0, 0.0, 0.0, 0.0, 0.0, 0.0, 0.0, 1.695418140410704E9, 0.0, 2023-09-22 16:29:00.410
234.0, 26566.098817121845, 13298.818564274141, -37050.5421817949, -63338.495890914906, -187500.02235174447, 7511.7507590950445, -112824.11817599753, -187500.02235174447, -40302.765703531, 6421.969106432093, -5153.172332426588, -69709.99475836691, -3658.8017533781235, -22648.1956420178, -4867.405279565487, 8322.940268867049, -0.026000000000000002, 0.988, 0.26, 192.0, 0.0, 0.0, 0.0, 0.0, 0.0, 0.0, 0.0, 0.0, 0.0, 1.695418140410707E9, 0.0, 2023-09-22 16:29:00.410
236.0, 26554.25239256053, 13286.34629086808, -37057.53827780941, -63350.096446287214, -187500.02235174447, 7458.710069502601, -112914.28511313023, -187500.02235174447, -40298.22829940657, 6413.944830172638, -5175.635835604172, -69709.81594441128, -3663.205047035819, -22672.71550568527, -4885.130212918546, 8295.69349237603, -0.026000000000000002, 0.988, 0.26, 192.0, 0.0, 0.0, 0.0, 0.0, 0.0, 0.0, 0.0, 0.0, 0.0, 1.69541814041071E9, 0.0, 2023-09-22 16:29:00.410
238.0, 26538.58381969736, 13272.48820930579, -37068.311818636874, -63361.138208048134, -187500.02235174447, 7504.084110746874, -112798.25720766274, -187500.02235174447, -40322.41288690721, 6393.872963651773, -5185.627065375694, -69730.82658419927, -3673.866829141001, -22679.331622044043, -4883.275018128756, 8298.912143577594, -0.03, 0.982, 0.266, 192.0, 127.5, 8.0, 15.0, 88.0, 4.0, 40.0, 0.0, 0.0, 0.0, 1.695418140410714E9, 0.0, 2023-09-22 16:29:00.410
240.0, 26545.60226745633, 13283.954654211362, -37066.83660350282, -63347.81656835277, -187500.02235174447, 7463.806267238411, -112872.1967783209, -187500.02235174447, -40318.83660779436, 6407.529879513965, -5172.216018702509, -69729.08314813174, -3680.952332133333, -22684.58428199104, -4896.149622935012, 8312.211431528502, -0.03, 0.982, 0.266, 192.0, 0.0, 0.0, 0.0, 0.0, 0.0, 0.0, 0.0, 0.0, 0.0, 1.695418140410717E9, 0.0, 2023-09-22 16:29:00.410
242.0, 26546.38457851226, 13285.452221089867, -37060.75692901098, -63349.64941139811, -187500.02235174447, 7499.323189177894, -112771.9715561833, -187500.02235174447, -40314.1650932032, 6405.920553913183, -5196.937048070079, -69721.66236897258, -3667.340119760051, -22691.602729750008, -4877.06123317018, 8296.229934242956, -0.03, 0.982, 0.266, 192.0, 0.0, 0.0, 0.0, 0.0, 0.0, 0.0, 0.0, 0.0, 0.0, 1.695418140470597E9, 0.0, 2023-09-22 16:29:00.470
244.0, 26556.800491428436, 13296.069299706138, -37054.7443097525, -63336.28306821383, -187500.02235174447, 7453.8150374668885, -112855.36591474604, -187500.02235174447, -40304.911470998704, 6422.505548299021, -5175.613483859716, -69708.8548193997, -3663.786192391657, -22681.67855521185, -4878.0000064373025, 8303.941286080037, -0.03, 0.982, 0.266, 192.0, 0.0, 0.0, 0.0, 0.0, 0.0, 0.0, 0.0, 0.0, 0.0, 1.695418140470619E9, 0.0, 2023-09-22 16:29:00.470
246.0, 26532.079462060865, 13268.822523215118, -37067.484804092026, -63364.40156273861, -187500.02235174447, 7493.019997241498, -112745.95412563732, -187500.02235174447, -40315.84147403735, 6406.054664379914, -5209.006990075945, -69724.63515098514, -3670.759936661713, -22682.684383712338, -4868.232294110334, 8274.816963054773, -0.03, 0.982, 0.266, 192.0, 0.0, 0.0, 0.0, 0.0, 0.0, 0.0, 0.0, 0.0, 0.0, 1.695418140470624E9, 0.0, 2023-09-22 16:29:00.470
248.0, 26550.519651236493, 13287.307415879657, -37064.8472982463, -63344.53086191784, -187500.02235174447, 7457.368964835283, -112803.73338505428, -187500.02235174447, -40317.94253801615, 6406.166423102191, -5168.952664012035, -69728.09967137572, -3680.8405734110565, -22673.49781674121, -4887.499497830809, 8321.040370588347, -0.03, 0.978, 0.264, 192.0, 127.5, 8.0, 15.0, 72.0, 4.0, 32.0, 0.0, 0.0, 0.0, 1.695418140470628E9, 0.0, 2023-09-22 16:29:00.470
250.0, 26534.3146365064, 13271.683546505397, -37068.133004681236, -63359.5065307029, -187500.02235174447, 7490.784822795967, -112714.19229676633, -187500.02235174447, -40319.35069791683, 6400.690245710641, -5210.303391254352, -69726.95973240849, -3678.180715820875, -22693.68144198435, -4878.447041326409, 8278.63911135663, -0.03, 0.978, 0.264, 192.0, 0.0, 0.0, 0.0, 0.0, 0.0, 0.0, 0.0, 0.0, 0.0, 1.695418140470631E9, 0.0, 2023-09-22 16:29:00.470
252.0, 26542.785947654957, 13281.00422394326, -37071.91044949418, -63353.315097488776, -187500.02235174447, 7465.19207539464, -112751.5644134956, -187500.02235174447, -40322.323479929386, 6408.267487080991, -5170.897265779647, -69731.94417142203, -3686.7414339472575, -22663.19366254731, -4877.798840737205, 8323.02967584487, -0.03, 0.978, 0.264, 192.0, 0.0, 0.0, 0.0, 0.0, 0.0, 0.0, 0.0, 0.0, 0.0, 1.695418140470634E9, 0.0, 2023-09-22 16:29:00.470
254.0, 26541.757767410014, 13272.845837217073, -37063.66265579017, -63357.47252195746, -187500.02235174447, 7484.1016512038295, -112683.50335162919, -187500.02235174447, -40328.961948032615, 6388.039158348937, -5217.187728546587, -69735.22987785695, -3688.1048903590313, -22685.67951746935, -4884.102032673602, 8280.226085212957, -0.03, 0.978, 0.264, 192.0, 0.0, 0.0, 0.0, 0.0, 0.0, 0.0, 0.0, 0.0, 0.0, 1.695418140470637E9, 0.0, 2023-09-22 16:29:00.470
0.0, 26551.659590203715, 13284.044061189183, -37068.93766748162, -63352.21986201047, -187500.02235174447, 7469.125982418774, -112701.54120940462, -187500.02235174447, -40310.63351757926, 6393.0683008513815, -5174.160620470121, -69723.42815678456, -3676.7725559201904, -22677.029392365148, -4879.564628549174, 8323.543765967343, -0.03, 0.978, 0.264, 192.0, 0.0, 0.0, 0.0, 0.0, 0.0, 0.0, 0.0, 0.0, 0.0, 1.69541814047064E9, 0.0, 2023-09-22 16:29:00.470
2.0, 26556.0181803725, 13290.593122314587, -37051.16803063965, -63350.96816432097, -187500.02235174447, 7462.085182915353, -112672.57334859054, -187500.02235174447, -40306.76666578849, 6408.848632436828, -5218.931164614101, -69720.455374772, -3672.592779707048, -22703.31504384459, -4883.185611150934, 8265.898617017105, -0.032, 0.976, 0.262, 192.0, 127.5, 0.0, 15.0, 64.0, 4.0, 24.0, 0.0, 0.0, 0.0, 1.695418140529438E9, 0.0, 2023-09-22 16:29:00.529
4.0, 26555.995828628045, 13292.24715140428, -37067.82008025886, -63353.47155969997, -187500.02235174447, 7471.0705841863855, -112642.66671450934, -187500.02235174447, -40320.62474735078, 6395.817565419384, -5163.364727898208, -69732.34650282223, -3682.628712967481, -22670.3015172841, -4881.039843683225, 8324.460187490009, -0.032, 0.976, 0.262, 192.0, 0.0, 0.0, 0.0, 0.0, 0.0, 0.0, 0.0, 0.0, 0.0, 1.69541814052945E9, 0.0, 2023-09-22 16:29:00.529
6.0, 26546.853965145823, 13285.519276323233, -37062.47801333404, -63362.94869934901, -187500.02235174447, 7462.956900949109, -112626.10407186796, -187500.02235174447, -40313.248671680536, 6404.065359123392, -5213.544394200372, -69720.92476140556, -3680.058262355121, -22703.762078733693, -4886.851297241605, 8261.025936725848, -0.032, 0.976, 0.262, 192.0, 0.0, 0.0, 0.0, 0.0, 0.0, 0.0, 0.0, 0.0, 0.0, 1.695418140529454E9, 0.0, 2023-09-22 16:29:00.529
8.0, 26543.92588662218, 13277.651462274966, -37080.31470540937, -63371.24119654193, -187500.02235174447, 7493.064700730408, -112564.88264380487, -187500.02235174447, -40335.55571264693, 6392.487155495543, -5148.903149235624, -69744.48350006145, -3695.369207307006, -22662.34429625801, -4889.220582153867, 8337.021867873891, -0.032, 0.976, 0.262, 192.0, 0.0, 0.0, 0.0, 0.0, 0.0, 0.0, 0.0, 0.0, 0.0, 1.695418140529458E9, 0.0, 2023-09-22 16:29:00.529
10.0, 26553.335971037865, 13287.86620949104, -37057.0465394314, -63361.272318514864, -187500.02235174447, 7469.282444629961, -112573.75628635363, -187500.02235174447, -40320.69180258415, 6400.511431754999, -5194.612466646728, -69729.46312778749, -3690.4518235268383, -22704.253817111712, -4893.400358367009, 8285.366986437677, -0.032, 0.976, 0.262, 192.0, 0.0, 0.0, 0.0, 0.0, 0.0, 0.0, 0.0, 0.0, 0.0, 1.695418140529461E9, 0.0, 2023-09-22 16:29:00.529
12.0, 26553.62654371578, 13286.502753079267, -37069.83173725984, -63361.74170514843, -187500.02235174447, 7496.216296698606, -112496.3521953049, -187500.02235174447, -40331.93473004517, 6397.9409811426385, -5146.511512578906, -69739.78963372584, -3691.5917624940594, -22675.241252808722, -4880.7045675163945, 8344.375591799688, -0.024, 0.974, 0.264, 192.0, 127.5, 32.0, 15.0, 56.0, 4.0, 32.0, 0.0, 0.0, 0.0, 1.695418140529465E9, 0.0, 2023-09-22 16:29:00.529
14.0, 26546.518688978995, 13279.57371229812, -37062.656827289684, -63364.40156273861, -187500.02235174447, 7460.654671270213, -112530.10332943242, -187500.02235174447, -40307.90660475571, 6413.3636848168, -5195.864164336224, -69724.4563370295, -3678.493640243249, -22694.799029207115, -4882.783279750738, 8286.506925404898, -0.024, 0.974, 0.264, 192.0, 0.0, 0.0, 0.0, 0.0, 0.0, 0.0, 0.0, 0.0, 0.0, 1.695418140529468E9, 0.0, 2023-09-22 16:29:00.529
16.0, 26565.607078743826, 13300.562000341655, -37057.627684787236, -63343.39092295062, -187500.02235174447, 7497.199773454639, -112441.92569755623, -187500.02235174447, -40328.98429977707, 6399.952638143616, -5153.418201615596, -69743.6117820277, -3689.3789397929836, -22661.38317124643, -4879.8775529715485, 8348.667126735107, -0.024, 0.974, 0.264, 192.0, 0.0, 0.0, 0.0, 0.0, 0.0, 0.0, 0.0, 0.0, 0.0, 1.695418140589718E9, 0.0, 2023-09-22 16:29:00.589
18.0, 26578.816959716914, 13314.800061559685, -37042.249684601986, -63329.10815824368, -187500.02235174447, 7433.385543034738, -112525.94590496372, -187500.02235174447, -40290.584002802854, 6427.51233905701, -5204.7154551405265, -69700.98700535143, -3664.121468558487, -22696.274244341166, -4875.697776758406, 8282.193038725023, -0.024, 0.974, 0.264, 192.0, 0.0, 0.0, 0.0, 0.0, 0.0, 0.0, 0.0, 0.0, 0.0, 1.695418140589741E9, 0.0, 2023-09-22 16:29:00.589
20.0, 26566.54585201095, 13302.551305598177, -37051.95034169559, -63343.54738516181, -187500.02235174447, 7472.925778976176, -112437.50005215408, -187500.02235174447, -40292.23803189254, 6428.317001857401, -5181.670806607104, -69704.92091237556, -3659.3605469895065, -22669.541557972618, -4853.971881147848, 8304.567134924786, -0.024, 0.974, 0.264, 192.0, 0.0, 0.0, 0.0, 0.0, 0.0, 0.0, 0.0, 0.0, 0.0, 1.695418140589744E9, 0.0, 2023-09-22 16:29:00.589
22.0, 26546.54104072345, 13283.507619322256, -37072.67040880566, -63360.86998711467, -187500.02235174447, 7448.0035839085085, -112484.5951777214, -187500.02235174447, -40317.36139266031, 6410.390902804244, -5178.206286216532, -69725.08218587426, -3693.5140125172156, -22679.175159832856, -4891.165183921478, 8291.983102796448, -0.028, 0.974, 0.262, 192.0, 127.5, 16.0, 15.0, 56.0, 4.0, 24.0, 0.0, 0.0, 0.0, 1.695418140589748E9, 0.0, 2023-09-22 16:29:00.589
24.0, 26549.893802391747, 13287.240360646292, -37071.262248904975, -63358.29953650231, -187500.02235174447, 7501.62541885679, -112366.93559490867, -187500.02235174447, -40323.17284621869, 6400.042045121437, -5153.909939993613, -69740.32607559278, -3696.330332318584, -22659.125645056447, -4881.375119850054, 8330.673972448585, -0.028, 0.974, 0.262, 192.0, 0.0, 0.0, 0.0, 0.0, 0.0, 0.0, 0.0, 0.0, 0.0, 1.695418140589751E9, 0.0, 2023-09-22 16:29:00.589
26.0, 26568.691619478657, 13310.150898712982, -37054.14081265221, -63332.885603056624, -187500.02235174447, 7443.846159439821, -112465.26091876757, -187500.02235174447, -40295.23316564956, 6433.502606571032, -5163.856466276225, -69710.33003453375, -3689.624808981992, -22670.927366128846, -4884.079680929146, 8311.607934428208, -0.028, 0.974, 0.262, 192.0, 0.0, 0.0, 0.0, 0.0, 0.0, 0.0, 0.0, 0.0, 0.0, 1.695418140589754E9, 0.0, 2023-09-22 16:29:00.589
28.0, 26563.774235698493, 13304.58531434361, -37058.76762375446, -63342.69801887251, -187500.02235174447, 7475.585636566358, -112376.54684502445, -187500.02235174447, -40288.59469754633, 6430.373362347289, -5173.981806514479, -69704.51858097537, -3675.543209975149, -22670.346220773008, -4855.827075937638, 8308.679855904562, -0.028, 0.974, 0.262, 192.0, 0.0, 0.0, 0.0, 0.0, 0.0, 0.0, 0.0, 0.0, 0.0, 1.695418140589757E9, 0.0, 2023-09-22 16:29:00.589
30.0, 26555.034703616468, 13297.768032284741, -37068.51298433697, -63354.18681552253, -187500.02235174447, 7435.173682591162, -112450.59817440489, -187500.02235174447, -40288.88527022425, 6433.167330404202, -5163.051803475833, -69709.32420603326, -3693.022274139199, -22667.44049399382, -4876.144811647512, 8304.589486669242, -0.028, 0.974, 0.262, 192.0, 0.0, 0.0, 0.0, 0.0, 0.0, 0.0, 0.0, 0.0, 0.0, 1.69541814058976E9, 0.0, 2023-09-22 16:29:00.589
32.0, 26577.00646841603, 13320.633866862521, -37043.25551310248, -63335.143129246615, -187500.02235174447, 7475.0044912105195, -112355.93853663666, -187500.02235174447, -40282.71618875458, 6441.660993297219, -5170.159658212621, -69705.65851994259, -3686.562619991615, -22665.182967803834, -4861.929102173937, 8308.970428582481, -0.026000000000000002, 0.978, 0.262, 192.0, 127.5, 24.0, 15.0, 72.0, 4.0, 24.0, 0.0, 0.0, 0.0, 1.695418140651451E9, 0.0, 2023-09-22 16:29:00.651
34.0, 26580.11336089532, 13323.271372708246, -37042.56260902436, -63331.0974635002, -187500.02235174447, 7427.663496454179, -112452.67688663924, -187500.02235174447, -40259.73859545453, 6473.668691357218, -5153.619367315694, -69681.94331907551, -3674.850305897034, -22663.551290458596, -4861.191494606912, 8305.97529482547, -0.026000000000000002, 0.978, 0.262, 192.0, 0.0, 0.0, 0.0, 0.0, 0.0, 0.0, 0.0, 0.0, 0.0, 1.695418140651471E9, 0.0, 2023-09-22 16:29:00.651
36.0, 26557.940430395658, 13297.768032284741, -37059.25936213248, -63357.383114979646, -187500.02235174447, 7484.928665748676, -112342.8180626414, -187500.02235174447, -40273.06023514989, 6452.8815690137835, -5170.740803568459, -69698.72947916144, -3683.7686519347017, -22655.86229036597, -4856.475276526842, 8292.296027218823, -0.026000000000000002, 0.978, 0.262, 192.0, 0.0, 0.0, 0.0, 0.0, 0.0, 0.0, 0.0, 0.0, 0.0, 1.695418140651475E9, 0.0, 2023-09-22 16:29:00.651
38.0, 26574.614831759314, 13315.560020871166, -37058.43234758763, -63340.21697523797, -187500.02235174447, 7445.4778367850595, -112430.10162473937, -187500.02235174447, -40272.94847642761, 6450.936967246172, -5142.264681132398, -69702.88690363013, -3696.4197392964056, -22649.380284473933, -4881.509230316786, 8330.852786404228, -0.026000000000000002, 0.978, 0.262, 192.0, 0.0, 0.0, 0.0, 0.0, 0.0, 0.0, 0.0, 0.0, 0.0, 1.695418140651478E9, 0.0, 2023-09-22 16:29:00.651
40.0, 26561.0696746194, 13300.87492476403, -37059.05819643238, -63361.33937374823, -187500.02235174447, 7472.0093574535085, -112360.36418203881, -187500.02235174447, -40268.411072303184, 6451.227539924091, -5190.83502183378, -69699.69060417303, -3680.4829454997716, -22682.371459289963, -4869.640454011018, 8288.719748105974, -0.026000000000000002, 0.978, 0.262, 192.0, 0.0, 0.0, 0.0, 0.0, 0.0, 0.0, 0.0, 0.0, 0.0, 1.695418140651483E9, 0.0, 2023-09-22 16:29:00.651
42.0, 26577.967593427613, 13323.338427941613, -37060.24283888851, -63340.70871361598, -187500.02235174447, 7446.215444352084, -112426.81591830445, -187500.02235174447, -40280.54806954242, 6443.56089157592, -5140.409486342608, -69709.59242696672, -3702.7229312328022, -22664.177139303345, -4884.213791395878, 8341.514568509408, -0.024, 0.986, 0.26, 192.0, 127.5, 32.0, 15.0, 104.0, 4.0, 16.0, 0.0, 0.0, 0.0, 1.695418140651489E9, 0.0, 2023-09-22 16:29:00.651
44.0, 26580.627451017794, 13325.663009364964, -37042.115574135256, -63335.79132983582, -187500.02235174447, 7446.99775540802, -112395.14349641127, -187500.02235174447, -40252.78720292893, 6472.752269834551, -5198.032283548389, -69677.8976533291, -3673.7550704187242, -22686.73004945875, -4866.15358187599, 8278.661463101085, -0.024, 0.986, 0.26, 192.0, 0.0, 0.0, 0.0, 0.0, 0.0, 0.0, 0.0, 0.0, 0.0, 1.695418140651494E9, 0.0, 2023-09-22 16:29:00.651
46.0, 26581.007430673533, 13328.50168091079, -37053.76083299647, -63338.02650428135, -187500.02235174447, 7426.791778420423, -112444.09381676839, -187500.02235174447, -40255.268246563464, 6474.47335415761, -5150.199550414032, -69678.7023161295, -3675.9008378864337, -22646.496909439196, -4870.668634255962, 8319.967486854493, -0.024, 0.986, 0.26, 192.0, 0.0, 0.0, 0.0, 0.0, 0.0, 0.0, 0.0, 0.0, 0.0, 1.695418140710302E9, 0.0, 2023-09-22 16:29:00.710
48.0, 26557.403988528727, 13302.573657342633, -37066.993065714014, -63365.206225539, -187500.02235174447, 7458.307738102405, -112379.58668227038, -187500.02235174447, -40278.40230207471, 6437.257699639524, -5177.982768771979, -69707.46901124346, -3698.5208032752043, -22673.207244063287, -4890.986369965836, 8288.228009727956, -0.024, 0.986, 0.26, 192.0, 0.0, 0.0, 0.0, 0.0, 0.0, 0.0, 0.0, 0.0, 0.0, 1.695418140710316E9, 0.0, 2023-09-22 16:29:00.710
50.0, 26590.685736022682, 13340.281050238735, -37046.27299860394, -63331.075111755745, -187500.02235174447, 7440.582804749347, -112431.66624685124, -187500.02235174447, -40266.175897857654, 6454.356784147833, -5126.640811758139, -69691.24164476892, -3690.6082857380256, -22660.220880534755, -4889.6229135540625, 8350.388211058165, -0.024, 0.986, 0.26, 192.0, 0.0, 0.0, 0.0, 0.0, 0.0, 0.0, 0.0, 0.0, 0.0, 1.695418140710319E9, 0.0, 2023-09-22 16:29:00.710
52.0, 26563.86364267631, 13311.223782446836, -37050.45277481709, -63358.79127488033, -187500.02235174447, 7446.528368774459, -112434.41551141924, -187500.02235174447, -40255.89409540821, 6467.589016865375, -5174.0712134923, -69682.9044440871, -3679.9688553772994, -22686.774752947662, -4875.943645947415, 8281.298968946812, -0.026000000000000002, 0.98, 0.258, 192.0, 127.5, 24.0, 15.0, 80.0, 4.0, 8.0, 0.0, 0.0, 0.0, 1.695418140710323E9, 0.0, 2023-09-22 16:29:00.710
54.0, 26580.135712639778, 13325.595954131599, -37041.33326307932, -63339.5017194154, -187500.02235174447, 7459.268863113984, -112436.27070620903, -187500.02235174447, -40274.647209006216, 6440.386943863266, -5106.859517915192, -69701.702261174, -3695.726835218291, -22652.017790319656, -4883.789108251227, 8357.630176261686, -0.026000000000000002, 0.98, 0.258, 192.0, 0.0, 0.0, 0.0, 0.0, 0.0, 0.0, 0.0, 0.0, 0.0, 1.695418140710326E9, 0.0, 2023-09-22 16:29:00.710
56.0, 26582.996735930057, 13330.714503611864, -37026.312890805355, -63336.595992636205, -187500.02235174447, 7446.99775540802, -112470.64768918129, -187500.02235174447, -40256.49759250851, 6456.256682426534, -5160.9283877525795, -69683.46323769847, -3681.2876083001624, -22684.271357568665, -4872.5461807902075, 8294.553553408809, -0.026000000000000002, 0.98, 0.258, 192.0, 0.0, 0.0, 0.0, 0.0, 0.0, 0.0, 0.0, 0.0, 0.0, 1.695418140710329E9, 0.0, 2023-09-22 16:29:00.710
58.0, 26586.170683642707, 13333.687285624419, -37041.60148401278, -63337.75828334788, -187500.02235174447, 7464.09683991633, -112460.83527336542, -187500.02235174447, -40253.68127270714, 6477.535543147987, -5118.214204098488, -69677.36121146216, -3671.9669308622997, -22643.47942393773, -4858.822209694649, 8346.431952289577, -0.026000000000000002, 0.98, 0.258, 192.0, 0.0, 0.0, 0.0, 0.0, 0.0, 0.0, 0.0, 0.0, 0.0, 1.695418140710332E9, 0.0, 2023-09-22 16:29:00.710
60.0, 26574.950107926146, 13319.806852317673, -37048.28465560492, -63349.93998407602, -187500.02235174447, 7441.700391972112, -112512.93718969074, -187500.02235174447, -40260.83383093284, 6472.394641923266, -5161.911864508613, -69687.84417961171, -3688.171945592397, -22670.972069617757, -4886.426614096954, 8294.084166775247, -0.026000000000000002, 0.98, 0.258, 192.0, 0.0, 0.0, 0.0, 0.0, 0.0, 0.0, 0.0, 0.0, 0.0, 1.695418140710336E9, 0.0, 2023-09-22 16:29:00.710
62.0, 26576.60413701584, 13322.310247696669, -37054.38668184122, -63344.01677179537, -187500.02235174447, 7472.724613276078, -112473.93339561623, -187500.02235174447, -40273.21669736108, 6448.1877026781685, -5119.4882535324405, -69697.76835414987, -3693.178736350386, -22648.06153155107, -4879.229352382345, 8348.84594069075, -0.024, 0.984, 0.254, 192.0, 127.5, 32.0, 15.0, 96.0, 3.5, 120.0, 0.0, 0.0, 0.0, 1.69541814077061E9, 0.0, 2023-09-22 16:29:00.770
64.0, 26570.993849157556, 13319.225706961835, -37047.94937943809, -63345.11200727368, -187500.02235174447, 7428.579917976847, -112557.70773383472, -187500.02235174447, -40259.045691376414, 6461.062307484425, -5156.234521416965, -69688.17945577853, -3691.1000241160423, -22670.368572517466, -4883.856163484593, 8295.73819586494, -0.024, 0.984, 0.254, 192.0, 0.0, 0.0, 0.0, 0.0, 0.0, 0.0, 0.0, 0.0, 0.0, 1.695418140770622E9, 0.0, 2023-09-22 16:29:00.770
66.0, 26558.834500173867, 13302.998340487284, -37068.445929103604, -63353.89624284462, -187500.02235174447, 7474.870380743788, -112483.41053526528, -187500.02235174447, -40284.75019750002, 6437.078885683881, -5119.1082738767, -69712.22993281245, -3701.9406201768666, -22647.05570305058, -4879.654035526995, 8345.873158678194, -0.024, 0.984, 0.254, 192.0, 0.0, 0.0, 0.0, 0.0, 0.0, 0.0, 0.0, 0.0, 0.0, 1.695418140770625E9, 0.0, 2023-09-22 16:29:00.770
68.0, 26552.59836347084, 13304.406500387968, -37064.80259475739, -63354.097408544716, -187500.02235174447, 7432.714990701079, -112568.86125431792, -187500.02235174447, -40275.51892703997, 6439.626984551786, -5152.345317881742, -69698.68477567253, -3706.9921144237655, -22684.96426164678, -4900.4858613593415, 8309.752739638418, -0.024, 0.984, 0.254, 192.0, 0.0, 0.0, 0.0, 0.0, 0.0, 0.0, 0.0, 0.0, 0.0, 1.695418140770628E9, 0.0, 2023-09-22 16:29:00.770
70.0, 26550.854927403325, 13305.76995679974, -37066.300161635896, -63352.5551381773, -187500.02235174447, 7482.291159902949, -112486.11509634437, -187500.02235174447, -40294.18263366016, 6438.017658951004, -5133.592204283739, -69713.23576131294, -3712.5800505375923, -22662.836034636028, -4878.670558770962, 8348.823588946294, -0.024, 0.984, 0.254, 192.0, 0.0, 0.0, 0.0, 0.0, 0.0, 0.0, 0.0, 0.0, 0.0, 1.695418140770631E9, 0.0, 2023-09-22 16:29:00.770
72.0, 26539.746110409036, 13296.069299706138, -37073.02803671695, -63360.19943478101, -187500.02235174447, 7440.672211727168, -112576.30438522153, -187500.02235174447, -40288.57234580188, 6437.928251973182, -5148.143189924144, -69708.47483974395, -3712.177719137397, -22678.77282843266, -4895.389663623531, 8329.712847437006, -0.032, 0.98, 0.25, 192.0, 127.5, 0.0, 15.0, 80.0, 3.5, 104.0, 0.0, 0.0, 0.0, 1.695418140770635E9, 0.0, 2023-09-22 16:29:00.770
74.0, 26544.663494189204, 13301.277256164225, -37065.33903662432, -63359.819455125275, -187500.02235174447, 7486.33682564936, -112480.92949163074, -187500.02235174447, -40300.32936338537, 6426.84178672335, -5141.325907865275, -69719.11427010468, -3710.5460417921595, -22672.2014155628, -4888.594733309118, 8358.74776348445, -0.032, 0.98, 0.25, 192.0, 0.0, 0.0, 0.0, 0.0, 0.0, 0.0, 0.0, 0.0, 0.0, 1.695418140770638E9, 0.0, 2023-09-22 16:29:00.770
76.0, 26561.65081997524, 13317.325808683136, -37043.27786484693, -63341.6027833942, -187500.02235174447, 7417.381694004738, -112607.97680711471, -187500.02235174447, -40274.46839505058, 6458.268339427512, -5161.30836740832, -69690.70520290198, -3697.5373265191706, -22688.138209359433, -4887.432442597442, 8331.232766059968, -0.032, 0.98, 0.25, 192.0, 0.0, 0.0, 0.0, 0.0, 0.0, 0.0, 0.0, 0.0, 0.0, 1.695418140830723E9, 0.0, 2023-09-22 16:29:00.830
78.0, 26564.26597407651, 13315.224744704336, -37038.04755664439, -63346.028428796344, -187500.02235174447, 7456.072563656875, -112525.3647596079, -187500.02235174447, -40285.39839808922, 6438.844673495851, -5175.859353048725, -69706.03849959833, -3693.044625883654, -22680.382154033443, -4866.779430720739, 8324.035504345358, -0.032, 0.98, 0.25, 192.0, 0.0, 0.0, 0.0, 0.0, 0.0, 0.0, 0.0, 0.0, 0.0, 1.695418140830745E9, 0.0, 2023-09-22 16:29:00.830
80.0, 26562.63429673127, 13316.16351797146, -37040.88622819021, -63344.709675873484, -187500.02235174447, 7406.652856666191, -112630.73088297021, -187500.02235174447, -40269.66276999268, 6447.651260811242, -5168.125649467189, -69697.72365066095, -3688.7754426926904, -22679.53278774414, -4879.497573315808, 8316.97235309748, -0.032, 0.98, 0.25, 192.0, 0.0, 0.0, 0.0, 0.0, 0.0, 0.0, 0.0, 0.0, 0.0, 1.695418140830749E9, 0.0, 2023-09-22 16:29:00.830
82.0, 26553.805357671423, 13301.210200930858, -37045.602446270284, -63354.075056800255, -187500.02235174447, 7453.479761300059, -112546.42010288479, -187500.02235174447, -40278.31289509689, 6440.699868285641, -5183.593056630261, -69703.66921468607, -3687.9707798922996, -22679.622194721964, -4865.214808608867, 8303.136623279646, -0.028, 0.982, 0.25, 192.0, 127.5, 16.0, 15.0, 88.0, 3.5, 104.0, 0.0, 0.0, 0.0, 1.695418140830752E9, 0.0, 2023-09-22 16:29:00.830
84.0, 26539.88022087577, 13288.179133913414, -37066.210754658074, -63359.01479232488, -187500.02235174447, 7432.044438367419, -112614.63762696239, -187500.02235174447, -40306.69961055513, 6413.855423194817, -5138.196663641532, -69727.78674695334, -3720.0008296967544, -22670.72620042875, -4893.199192666912, 8345.202606344534, -0.028, 0.982, 0.25, 192.0, 0.0, 0.0, 0.0, 0.0, 0.0, 0.0, 0.0, 0.0, 0.0, 1.695418140830755E9, 0.0, 2023-09-22 16:29:00.830
86.0, 26549.133843080264, 13301.187849186403, -37050.16220213917, -63349.180024764544, -187500.02235174447, 7463.04630792693, -112547.44828312974, -187500.02235174447, -40300.77639827447, 6425.74655124504, -5175.233504203976, -69721.86353467268, -3713.1611958934304, -22682.52792150115, -4879.519925060264, 8327.768245669395, -0.028, 0.982, 0.25, 192.0, 0.0, 0.0, 0.0, 0.0, 0.0, 0.0, 0.0, 0.0, 0.0, 1.695418140830758E9, 0.0, 2023-09-22 16:29:00.830
88.0, 26571.530291024483, 13323.763111086264, -37041.84735320179, -63325.73304483093, -187500.02235174447, 7415.034760836931, -112654.11080767045, -187500.02235174447, -40282.202098632115, 6440.319888629901, -5152.032393459367, -69705.34559552021, -3701.046550398654, -22666.47936898224, -4878.335282604133, 8353.539807026364, -0.028, 0.982, 0.25, 192.0, 0.0, 0.0, 0.0, 0.0, 0.0, 0.0, 0.0, 0.0, 0.0, 1.695418140830762E9, 0.0, 2023-09-22 16:29:00.830
90.0, 26568.557509011927, 13318.890430795007, -37037.645225244196, -63335.38899843562, -187500.02235174447, 7432.335011045338, -112612.31304553903, -187500.02235174447, -40281.911525954194, 6443.7844090204735, -5197.987580059478, -69702.26105478538, -3694.408082295428, -22697.458886797296, -4865.706546986884, 8308.232821015456, -0.028, 0.982, 0.25, 192.0, 0.0, 0.0, 0.0, 0.0, 0.0, 0.0, 0.0, 0.0, 0.0, 1.695418140830765E9, 0.0, 2023-09-22 16:29:00.830
92.0, 26558.856851918325, 13305.926419010928, -37062.81328950087, -63353.35980097769, -187500.02235174447, 7411.413778235171, -112673.24390092421, -187500.02235174447, -40285.15252890021, 6439.314060129412, -5153.865236504703, -69707.1560868211, -3703.169966121908, -22666.859348637983, -4869.886323200027, 8350.298804080345, -0.026000000000000002, 0.982, 0.254, 192.0, 127.5, 24.0, 15.0, 88.0, 3.5, 120.0, 0.0, 0.0, 0.0, 1.695418140889875E9, 0.0, 2023-09-22 16:29:00.889
94.0, 26555.034703616468, 13305.702901566376, -37051.056271917376, -63355.5055684454, -187500.02235174447, 7432.290307556428, -112641.45972030876, -187500.02235174447, -40297.66950579519, 6421.812644220906, -5188.152812499144, -69712.34169153472, -3706.9697626793104, -22692.094468128023, -4885.979579207848, 8311.02678907237, -0.026000000000000002, 0.982, 0.254, 192.0, 0.0, 0.0, 0.0, 0.0, 0.0, 0.0, 0.0, 0.0, 0.0, 1.695418140889888E9, 0.0, 2023-09-22 16:29:00.889
96.0, 26567.417570044705, 13322.4443581634, -37055.750138252995, -63339.92640256005, -187500.02235174447, 7422.65670569619, -112700.13304950393, -187500.02235174447, -40295.94842147212, 6429.5239960579875, -5133.681611261561, -69712.207581068, -3707.3497423350505, -22661.83020613554, -4889.891134487526, 8368.18019964459, -0.026000000000000002, 0.982, 0.254, 192.0, 0.0, 0.0, 0.0, 0.0, 0.0, 0.0, 0.0, 0.0, 0.0, 1.695418140889891E9, 0.0, 2023-09-22 16:29:00.889
98.0, 26557.225174573086, 13309.77091905724, -37048.754042238485, -63354.63385041164, -187500.02235174447, 7431.619755222769, -112689.4489156543, -187500.02235174447, -40287.65592427921, 6442.46565609761, -5190.700911367048, -69700.38350825114, -3696.687960229869, -22693.88260768445, -4881.82215473916, 8305.55061168082, -0.026000000000000002, 0.982, 0.254, 192.0, 0.0, 0.0, 0.0, 0.0, 0.0, 0.0, 0.0, 0.0, 0.0, 1.695418140889894E9, 0.0, 2023-09-22 16:29:00.889
100.0, 26566.54585201095, 13318.4433959059, -37052.62089402925, -63346.52016717436, -187500.02235174447, 7429.473987755059, -112726.12812830546, -187500.02235174447, -40286.739502756536, 6437.771789761996, -5139.1130851642, -69703.08806933023, -3701.694750987858, -22661.070246824056, -4877.083584914635, 8362.41344957512, -0.026000000000000002, 0.982, 0.254, 192.0, 0.0, 0.0, 0.0, 0.0, 0.0, 0.0, 0.0, 0.0, 0.0, 1.695418140889897E9, 0.0, 2023-09-22 16:29:00.889
102.0, 26551.25725880352, 13305.121756210538, -37056.308931864376, -63362.36755399318, -187500.02235174447, 7428.892842399221, -112748.0104861272, -187500.02235174447, -40290.60635454731, 6427.579394290376, -5187.079928765289, -69708.36308102169, -3708.8920127024667, -22696.67657574136, -4889.82407925416, 8307.897544848627, -0.026000000000000002, 0.98, 0.256, 192.0, 127.5, 24.0, 15.0, 80.0, 4.0, 0.0, 0.0, 0.0, 0.0, 1.695418140889901E9, 0.0, 2023-09-22 16:29:00.889
104.0, 26561.047322874943, 13318.711616839364, -37056.42069058665, -63348.75534161989, -187500.02235174447, 7449.612909509291, -112749.48570126125, -187500.02235174447, -40287.92414521267, 6436.430685094677, -5137.6825735190605, -69705.85968564269, -3702.0076754102324, -22672.87196789646, -4878.961131448881, 8370.907112468138, -0.026000000000000002, 0.98, 0.256, 192.0, 0.0, 0.0, 0.0, 0.0, 0.0, 0.0, 0.0, 0.0, 0.0, 1.695418140889904E9, 0.0, 2023-09-22 16:29:00.889
106.0, 26551.54783148144, 13307.960427756361, -37054.78901324142, -63358.0536673133, -187500.02235174447, 7434.078447112853, -112794.45741110534, -187500.02235174447, -40282.626781776766, 6457.687194071674, -5180.26264670642, -69705.07737458675, -3710.1660621364194, -22693.033241395147, -4880.68221577194, 8321.532108966365, -0.026000000000000002, 0.98, 0.256, 192.0, 0.0, 0.0, 0.0, 0.0, 0.0, 0.0, 0.0, 0.0, 0.0, 1.695418140950124E9, 0.0, 2023-09-22 16:29:00.950
108.0, 26572.469064291607, 13330.915669311962, -37038.42753630013, -63328.92934428804, -187500.02235174447, 7445.030801895953, -112794.81503901661, -187500.02235174447, -40277.75410148551, 6441.258661897024, -5141.325907865275, -69695.93551110453, -3697.626733496992, -22671.419104506866, -4861.794991707206, 8372.069403179814, -0.026000000000000002, 0.98, 0.256, 192.0, 0.0, 0.0, 0.0, 0.0, 0.0, 0.0, 0.0, 0.0, 0.0, 1.695418140950139E9, 0.0, 2023-09-22 16:29:00.950
110.0, 26550.899630892236, 13309.323884168136, -37048.463469560564, -63345.08965552923, -187500.02235174447, 7414.23009803654, -112873.2473103103, -187500.02235174447, -40277.083549151845, 6446.46661835511, -5183.146021741155, -69690.57109243526, -3696.2632770852183, -22697.72710773076, -4867.829962710138, 8311.3620652392, -0.026000000000000002, 0.98, 0.256, 192.0, 0.0, 0.0, 0.0, 0.0, 0.0, 0.0, 0.0, 0.0, 0.0, 1.695418140950143E9, 0.0, 2023-09-22 16:29:00.950
112.0, 26554.38650302726, 13312.475480136334, -37064.132042423735, -63345.33552471823, -187500.02235174447, 7463.426287582671, -112818.21731546133, -187500.02235174447, -40307.12429369978, 6425.388923333755, -5134.888605462147, -69726.08801437473, -3718.503262818249, -22655.504662454685, -4877.731785503839, 8384.876952752704, -0.032, 0.978, 0.252, 192.0, 127.5, 0.0, 15.0, 72.0, 3.5, 112.0, 0.0, 0.0, 0.0, 1.695418140950146E9, 0.0, 2023-09-22 16:29:00.950
114.0, 26550.094968091842, 13311.603762102577, -37060.30989412188, -63355.416161467576, -187500.02235174447, 7428.602269721302, -112915.96149396438, -187500.02235174447, -40281.37508408727, 6469.287749443978, -5180.575571128795, -69700.07058382877, -3709.9648964363214, -22672.089656840522, -4879.341111104621, 8333.870271905693, -0.032, 0.978, 0.252, 192.0, 0.0, 0.0, 0.0, 0.0, 0.0, 0.0, 0.0, 0.0, 0.0, 1.695418140950149E9, 0.0, 2023-09-22 16:29:00.950
116.0, 26555.615848972306, 13307.669855078442, -37053.492612063004, -63346.27429798536, -187500.02235174447, 7466.935511462154, -112863.7925224057, -187500.02235174447, -40291.85805223681, 6449.148827689747, -5147.472637590485, -69718.89075266013, -3709.853137714045, -22652.91186009787, -4866.645320254007, 8382.66413005163, -0.032, 0.978, 0.252, 192.0, 0.0, 0.0, 0.0, 0.0, 0.0, 0.0, 0.0, 0.0, 0.0, 1.695418140950152E9, 0.0, 2023-09-22 16:29:00.950
118.0, 26544.261162789007, 13297.186886928903, -37059.013492943464, -63358.63481266914, -187500.02235174447, 7421.025028350953, -112975.0148028153, -187500.02235174447, -40280.12338639777, 6433.3684961043, -5177.848658305247, -69697.92481636105, -3703.0582073996316, -22679.73395344424, -4876.949474447903, 8342.878024921183, -0.032, 0.978, 0.252, 192.0, 0.0, 0.0, 0.0, 0.0, 0.0, 0.0, 0.0, 0.0, 0.0, 1.695418140950156E9, 0.0, 2023-09-22 16:29:00.950
120.0, 26529.866639359792, 13281.205389643359, -37078.86184201978, -63375.17510356607, -187500.02235174447, 7483.229933170072, -112878.87994991303, -187500.02235174447, -40319.28364268347, 6400.846707921828, -5154.8263615162805, -69739.4096540701, -3729.0756379456093, -22658.857424122984, -4883.654997784495, 8387.402699876155, -0.032, 0.978, 0.252, 192.0, 0.0, 0.0, 0.0, 0.0, 0.0, 0.0, 0.0, 0.0, 0.0, 1.695418140950159E9, 0.0, 2023-09-22 16:29:00.950
122.0, 26551.078444847877, 13302.752471298274, -37057.42651908714, -63347.32482997476, -187500.02235174447, 7418.096949827308, -113017.17019285802, -187500.02235174447, -40289.62287779128, 6433.2790891264785, -5175.16644897061, -69713.21340956849, -3717.0056959397434, -22679.778656933147, -4887.164221663978, 8368.671938022606, -0.032, 0.982, 0.25, 192.0, 127.5, 0.0, 15.0, 88.0, 3.5, 104.0, 0.0, 0.0, 0.0, 1.695418141010393E9, 0.0, 2023-09-22 16:29:01.010
124.0, 26545.44580524514, 13297.29864565118, -37063.640304045715, -63359.90886210309, -187500.02235174447, 7461.0346509259525, -112945.75636932331, -187500.02235174447, -40297.423636606174, 6433.592013548853, -5186.431728176085, -69717.706110204, -3710.680152258891, -22662.34429625801, -4866.86883769856, 8369.901283967649, -0.032, 0.982, 0.25, 192.0, 0.0, 0.0, 0.0, 0.0, 0.0, 0.0, 0.0, 0.0, 0.0, 1.695418141010405E9, 0.0, 2023-09-22 16:29:01.010
126.0, 26543.09887207733, 13291.800116515175, -37065.76371976897, -63364.87094937217, -187500.02235174447, 7423.37196151876, -113058.49856835588, -187500.02235174447, -40296.529566827965, 6437.078885683881, -5177.803954816336, -69722.73525270645, -3719.9337744633885, -22654.20826127628, -4898.273038658266, 8371.421202590609, -0.032, 0.982, 0.25, 192.0, 0.0, 0.0, 0.0, 0.0, 0.0, 0.0, 0.0, 0.0, 0.0, 1.695418141010408E9, 0.0, 2023-09-22 16:29:01.010
128.0, 26535.63338942926, 13281.942997210384, -37070.12230993775, -63369.810684896795, -187500.02235174447, 7491.00834024052, -112960.4638171749, -187500.02235174447, -40319.797732805935, 6400.578486988365, -5169.466754134507, -69742.74006399394, -3734.9094432484444, -22652.598935675494, -4887.387739108532, 8397.66215058114, -0.032, 0.982, 0.25, 192.0, 0.0, 0.0, 0.0, 0.0, 0.0, 0.0, 0.0, 0.0, 0.0, 1.695418141010411E9, 0.0, 2023-09-22 16:29:01.010
130.0, 26564.981229899076, 13316.409387160467, -37044.95424568108, -63335.947792047, -187500.02235174447, 7431.887976156232, -113095.06602228475, -187500.02235174447, -40287.27594462346, 6435.044876938448, -5160.950739497035, -69706.7984589098, -3715.530480805693, -22666.3005550266, -4889.06411994268, 8403.004217505959, -0.032, 0.982, 0.25, 192.0, 0.0, 0.0, 0.0, 0.0, 0.0, 0.0, 0.0, 0.0, 0.0, 1.695418141010414E9, 0.0, 2023-09-22 16:29:01.010
132.0, 26551.12314833679, 13305.30057016618, -37049.55870503887, -63350.61053640969, -187500.02235174447, 7472.791668509444, -113021.23821034888, -187500.02235174447, -40292.23803189254, 6429.233423380068, -5191.952609056546, -69704.78680190883, -3709.6743237584024, -22670.659145195383, -4866.712375487373, 8373.566970058318, -0.032, 0.982, 0.252, 192.0, 127.5, 0.0, 15.0, 88.0, 3.5, 112.0, 0.0, 0.0, 0.0, 1.695418141010418E9, 0.0, 2023-09-22 16:29:01.010
134.0, 26572.69258173616, 13329.574564644643, -37031.699661219085, -63320.50273662838, -187500.02235174447, 7420.42153125066, -113148.5090432774, -187500.02235174447, -40281.62095327627, 6442.488007842066, -5168.63973958966, -69693.87915061464, -3704.6228295115034, -22660.936136357326, -4865.81830570916, 8393.392967390177, -0.032, 0.982, 0.252, 192.0, 0.0, 0.0, 0.0, 0.0, 0.0, 0.0, 0.0, 0.0, 0.0, 1.695418141010421E9, 0.0, 2023-09-22 16:29:01.010
136.0, 26541.847174387836, 13294.504677594266, -37052.28561786242, -63348.10714103069, -187500.02235174447, 7460.811133481399, -113090.50626641588, -187500.02235174447, -40296.12723542777, 6440.364592118811, -5204.26842025142, -69717.84022067073, -3710.4566348143385, -22662.38899974692, -4853.39073579201, 8356.333775083278, -0.032, 0.982, 0.252, 192.0, 0.0, 0.0, 0.0, 0.0, 0.0, 0.0, 0.0, 0.0, 0.0, 1.695418141070629E9, 0.0, 2023-09-22 16:29:01.070
138.0, 26545.266991289496, 13297.142183439993, -37060.62281854425, -63343.74855086191, -187500.02235174447, 7434.480778513048, -113178.23686340296, -187500.02235174447, -40294.31674412689, 6424.22663262208, -5162.470658119995, -69714.86743865817, -3713.49647206026, -22647.301572239587, -4862.063212640669, 8400.634932593695, -0.032, 0.982, 0.252, 192.0, 0.0, 0.0, 0.0, 0.0, 0.0, 0.0, 0.0, 0.0, 0.0, 1.695418141070642E9, 0.0, 2023-09-22 16:29:01.070
140.0, 26553.268915804496, 13307.356930656068, -37045.35657708128, -63342.78742585033, -187500.02235174447, 7453.345650833327, -113146.1621101096, -187500.02235174447, -40303.74918028703, 6420.404484320222, -5201.385045216685, -69716.72263344796, -3720.4478645858608, -22674.414238263875, -4871.182724378434, 8368.671938022606, -0.032, 0.982, 0.252, 192.0, 0.0, 0.0, 0.0, 0.0, 0.0, 0.0, 0.0, 0.0, 0.0, 1.695418141070645E9, 0.0, 2023-09-22 16:29:01.070
142.0, 26558.834500173867, 13315.291799937702, -37054.14081265221, -63344.32969621774, -187500.02235174447, 7428.401104021204, -113226.06959653732, -187500.02235174447, -40298.54122382894, 6431.647411781241, -5161.733050552971, -69707.06667984328, -3717.564489551126, -22653.425950220342, -4868.813439466172, 8406.42403440762, -0.03, 0.982, 0.258, 192.0, 127.5, 8.0, 15.0, 88.0, 4.0, 8.0, 0.0, 0.0, 0.0, 1.695418141070648E9, 0.0, 2023-09-22 16:29:01.070
144.0, 26548.82091865789, 13302.30543640917, -37053.023225429446, -63361.71935340397, -187500.02235174447, 7432.871452912266, -113215.16194524312, -187500.02235174447, -40297.62480230627, 6428.22759487958, -5213.007952333445, -69714.33099679125, -3717.273916873207, -22691.513322772185, -4880.391643094021, 8351.75166746994, -0.03, 0.982, 0.258, 192.0, 0.0, 0.0, 0.0, 0.0, 0.0, 0.0, 0.0, 0.0, 0.0, 1.695418141070652E9, 0.0, 2023-09-22 16:29:01.070
146.0, 26579.55456728394, 13332.055608279183, -37035.745326965494, -63331.16451873357, -187500.02235174447, 7410.877336368244, -113289.95088219058, -187500.02235174447, -40286.515985311984, 6437.056533939426, -5159.6990418075375, -69706.5972932097, -3706.2545068567406, -22667.127569571447, -4870.847448211604, 8405.954647774059, -0.03, 0.982, 0.258, 192.0, 0.0, 0.0, 0.0, 0.0, 0.0, 0.0, 0.0, 0.0, 0.0, 1.695418141070655E9, 0.0, 2023-09-22 16:29:01.070
148.0, 26539.902572620224, 13292.493020593289, -37058.81232724337, -63369.29659477432, -187500.02235174447, 7425.6965429421125, -113277.00922215095, -187500.02235174447, -40291.411017347695, 6423.51137679951, -5205.117786540722, -69710.53120023385, -3710.1884138808746, -22683.489046512732, -4875.563666291674, 8344.50970226642, -0.03, 0.982, 0.258, 192.0, 0.0, 0.0, 0.0, 0.0, 0.0, 0.0, 0.0, 0.0, 0.0, 1.695418141070658E9, 0.0, 2023-09-22 16:29:01.070
150.0, 26569.0715991344, 13321.192660473904, -37048.21760037156, -63337.31124845878, -187500.02235174447, 7424.7577696749895, -113304.45716434208, -187500.02235174447, -40305.26909890999, 6417.141129629747, -5143.382268355163, -69719.13662184915, -3723.979440209799, -22656.935174099825, -4879.654035526995, 8419.14217700269, -0.03, 0.982, 0.258, 192.0, 0.0, 0.0, 0.0, 0.0, 0.0, 0.0, 0.0, 0.0, 0.0, 1.695418141070661E9, 0.0, 2023-09-22 16:29:01.070
152.0, 26558.78979668496, 13312.609590603066, -37047.502344548986, -63345.827263096246, -187500.02235174447, 7404.171813031651, -113342.38807468273, -187500.02235174447, -40291.72394177007, 6433.301440870934, -5204.335475484786, -69702.5963309522, -3711.954201692844, -22691.11099137199, -4870.646282511507, 8343.526225510386, -0.03, 0.986, 0.264, 192.0, 127.5, 8.0, 15.0, 104.0, 4.0, 32.0, 0.0, 0.0, 0.0, 1.695418141130015E9, 0.0, 2023-09-22 16:29:01.130
154.0, 26571.083256135378, 13323.87486980854, -37041.981463668526, -63328.974047776945, -187500.02235174447, 7422.679057440646, -113334.87788854574, -187500.02235174447, -40301.290488396946, 6434.061400182414, -5152.054745203823, -69713.88396190215, -3717.6091930400366, -22650.162595529866, -4865.304215586689, 8412.973095533025, -0.03, 0.986, 0.264, 192.0, 0.0, 0.0, 0.0, 0.0, 0.0, 0.0, 0.0, 0.0, 0.0, 1.695418141130027E9, 0.0, 2023-09-22 16:29:01.130
156.0, 26570.144482868254, 13323.025503519239, -37027.363422794755, -63321.03917849532, -187500.02235174447, 7374.309882439361, -113427.68233152418, -187500.02235174447, -40279.899868953216, 6442.957394475627, -5211.398626732663, -69689.4982087014, -3699.0348933976766, -22688.317023315078, -4861.280901584733, 8339.41350453061, -0.03, 0.986, 0.264, 192.0, 0.0, 0.0, 0.0, 0.0, 0.0, 0.0, 0.0, 0.0, 0.0, 1.695418141130031E9, 0.0, 2023-09-22 16:29:01.130
158.0, 26560.846157174845, 13314.934172026416, -37045.51303929246, -63333.600858879196, -187500.02235174447, 7406.027007821443, -113383.60469145831, -187500.02235174447, -40296.97660171707, 6424.718371000096, -5173.579475114283, -69710.62060721166, -3706.746245234757, -22657.29280201111, -4853.480142769831, 8385.636912064185, -0.03, 0.986, 0.264, 192.0, 0.0, 0.0, 0.0, 0.0, 0.0, 0.0, 0.0, 0.0, 0.0, 1.695418141130035E9, 0.0, 2023-09-22 16:29:01.130
160.0, 26558.74509319605, 13308.563924856655, -37040.10391713428, -63339.36760894867, -187500.02235174447, 7369.236036448006, -113462.46164589663, -187500.02235174447, -40297.714209284095, 6427.467635568099, -5203.351998728753, -69709.1006885887, -3711.596573781559, -22681.455037767297, -4873.328491846143, 8345.716696467007, -0.03, 0.986, 0.264, 192.0, 0.0, 0.0, 0.0, 0.0, 0.0, 0.0, 0.0, 0.0, 0.0, 1.695418141130038E9, 0.0, 2023-09-22 16:29:01.130
162.0, 26547.479813990572, 13298.103308451571, -37061.29337087791, -63354.700905645004, -187500.02235174447, 7427.462330754081, -113380.18487455665, -187500.02235174447, -40313.762761803, 6410.435606293155, -5160.101373207734, -69721.64001722813, -3720.0008296967544, -22662.590165447018, -4858.933968416925, 8401.886630283194, -0.028, 0.984, 0.258, 192.0, 127.5, 16.0, 15.0, 96.0, 4.0, 8.0, 0.0, 0.0, 0.0, 1.695418141130042E9, 0.0, 2023-09-22 16:29:01.130
164.0, 26557.426340273185, 13309.212125445858, -37045.20011487009, -63339.38996069312, -187500.02235174447, 7385.619865133747, -113473.12342800183, -187500.02235174447, -40306.78901753295, 6419.711580242108, -5177.781603071881, -69716.47676425896, -3725.633469299492, -22685.768924447173, -4876.882419214538, 8379.937217228082, -0.028, 0.984, 0.258, 192.0, 0.0, 0.0, 0.0, 0.0, 0.0, 0.0, 0.0, 0.0, 0.0, 1.695418141130045E9, 0.0, 2023-09-22 16:29:01.130
166.0, 26547.546869223937, 13298.930322996417, -37048.01643467146, -63351.68342014354, -187500.02235174447, 7431.776217433956, -113385.8622176483, -187500.02235174447, -40302.69864829763, 6418.526937785976, -5169.980844256979, -69720.23185732745, -3711.7753877372015, -22664.892395125913, -4853.480142769831, 8403.406548906154, -0.028, 0.984, 0.258, 192.0, 0.0, 0.0, 0.0, 0.0, 0.0, 0.0, 0.0, 0.0, 0.0, 1.695418141189774E9, 0.0, 2023-09-22 16:29:01.189
168.0, 26538.226191786074, 13294.929360738917, -37056.42069058665, -63356.01965856787, -187500.02235174447, 7396.125185027741, -113461.65698309625, -187500.02235174447, -40315.327383914875, 6400.578486988365, -5176.909885038124, -69730.29014233233, -3730.819074013123, -22678.05757261009, -4878.9387797044255, 8392.342435400777, -0.028, 0.984, 0.258, 192.0, 0.0, 0.0, 0.0, 0.0, 0.0, 0.0, 0.0, 0.0, 0.0, 1.695418141189817E9, 0.0, 2023-09-22 16:29:01.189
170.0, 26549.29030529145, 13305.278218421725, -37044.64132125871, -63345.626097396154, -187500.02235174447, 7440.113418115786, -113372.54057795294, -187500.02235174447, -40321.3176514289, 6401.919591655683, -5172.238370446965, -69729.91016267659, -3721.8783762310004, -22669.273337039154, -4864.141924875013, 8417.421092679631, -0.028, 0.984, 0.258, 192.0, 0.0, 0.0, 0.0, 0.0, 0.0, 0.0, 0.0, 0.0, 0.0, 1.695418141189821E9, 0.0, 2023-09-22 16:29:01.189
172.0, 26546.764558168004, 13300.316131152646, -37050.67629226164, -63348.77769336435, -187500.02235174447, 7388.860868079766, -113473.16813149073, -187500.02235174447, -40313.04750598044, 6422.282030854468, -5184.196553730554, -69719.62836022716, -3725.074675688109, -22675.375363275452, -4872.769698234761, 8397.2821709254, -0.034, 0.982, 0.258, 192.0, 127.0, 120.0, 15.0, 88.0, 4.0, 8.0, 0.0, 0.0, 0.0, 1.695418141189825E9, 0.0, 2023-09-22 16:29:01.189
174.0, 26549.73734018056, 13297.611570073554, -37045.37892882573, -63349.895280587116, -187500.02235174447, 7433.094970356819, -113378.41908674469, -187500.02235174447, -40312.28754666896, 6412.916649927694, -5189.717434611015, -69721.79647943932, -3717.6762482734025, -22672.603746962996, -4849.792104934705, 8400.411415149143, -0.034, 0.982, 0.258, 192.0, 0.0, 0.0, 0.0, 0.0, 0.0, 0.0, 0.0, 0.0, 0.0, 1.69541814118983E9, 0.0, 2023-09-22 16:29:01.189
176.0, 26557.96278214011, 13305.725253310831, -37053.42555682964, -63342.6533153836, -187500.02235174447, 7387.095080267797, -113473.2351867241, -187500.02235174447, -40319.46245663911, 6408.446301036633, -5171.92544602459, -69728.30083707582, -3734.3282978926063, -22672.44728475181, -4875.094279658113, 8412.28019145491, -0.034, 0.982, 0.258, 192.0, 0.0, 0.0, 0.0, 0.0, 0.0, 0.0, 0.0, 0.0, 0.0, 1.695418141189835E9, 0.0, 2023-09-22 16:29:01.189
178.0, 26553.939468138156, 13300.494945108288, -37046.54121953741, -63341.93805956103, -187500.02235174447, 7411.413778235171, -113408.77275571499, -187500.02235174447, -40297.82596800637, 6425.277164611479, -5206.078911552299, -69707.93839787703, -3709.763730736224, -22685.098372113513, -4848.875683412038, 8382.887647496182, -0.034, 0.982, 0.258, 192.0, 0.0, 0.0, 0.0, 0.0, 0.0, 0.0, 0.0, 0.0, 0.0, 1.695418141189841E9, 0.0, 2023-09-22 16:29:01.189
180.0, 26557.381636784274, 13304.96529399935, -37046.451812559586, -63332.77384433435, -187500.02235174447, 7370.375975415227, -113504.81820163944, -187500.02235174447, -40310.38764839026, 6410.145033615236, -5169.600864601239, -69715.11330784719, -3723.5547570651484, -22669.63096495044, -4864.588959764119, 8405.127633229213, -0.034, 0.982, 0.258, 192.0, 0.0, 0.0, 0.0, 0.0, 0.0, 0.0, 0.0, 0.0, 0.0, 1.695418141189845E9, 0.0, 2023-09-22 16:29:01.189
182.0, 26542.562430210404, 13289.788459514197, -37051.07862366184, -63346.78838810783, -187500.02235174447, 7410.720874157057, -113423.05552042193, -187500.02235174447, -40310.87938676827, 6414.056588894915, -5196.534716669884, -69723.47286027347, -3721.0960651750643, -22670.033296350633, -4852.340203802611, 8378.059670693836, -0.032, 0.988, 0.258, 192.0, 127.5, 0.0, 15.0, 112.0, 4.0, 8.0, 0.0, 0.0, 0.0, 1.695418141250144E9, 0.0, 2023-09-22 16:29:01.250
184.0, 26539.03085458647, 13287.776802513219, -37064.93670522412, -63350.63288815414, -187500.02235174447, 7393.308865226372, -113479.1807507492, -187500.02235174447, -40320.6694508397, 6402.74660620053, -5151.227730658977, -69727.47382253097, -3732.3836961249945, -22648.352104228987, -4871.562704034174, 8424.014857293947, -0.032, 0.988, 0.258, 192.0, 0.0, 0.0, 0.0, 0.0, 0.0, 0.0, 0.0, 0.0, 0.0, 1.695418141250162E9, 0.0, 2023-09-22 16:29:01.250
186.0, 26550.050264602934, 13298.818564274141, -37045.31187359236, -63346.319001474265, -187500.02235174447, 7407.882202611233, -113430.14102341427, -187500.02235174447, -40310.05237222342, 6411.9108214272055, -5189.158640999633, -69723.42815678456, -3722.2136523978297, -22680.62802322245, -4862.644357996507, 8391.358958644743, -0.032, 0.988, 0.258, 192.0, 0.0, 0.0, 0.0, 0.0, 0.0, 0.0, 0.0, 0.0, 0.0, 1.695418141250168E9, 0.0, 2023-09-22 16:29:01.250
188.0, 26555.21351757211, 13304.808831788163, -37059.75110051049, -63339.72523685995, -187500.02235174447, 7375.31571093985, -113495.83280036841, -187500.02235174447, -40313.3157269139, 6413.0284086499705, -5150.735992280959, -69724.34457830722, -3728.047457700665, -22667.373438760453, -4865.281863842233, 8431.3909329642, -0.032, 0.988, 0.258, 192.0, 0.0, 0.0, 0.0, 0.0, 0.0, 0.0, 0.0, 0.0, 0.0, 1.695418141250184E9, 0.0, 2023-09-22 16:29:01.250
190.0, 26533.9123051062, 13283.619378044532, -37052.62089402925, -63353.56096667778, -187500.02235174447, 7391.185449503118, -113447.5306806005, -187500.02235174447, -40314.8132937924, 6409.206260348113, -5200.64743764966, -69718.9578078935, -3720.760789008235, -22694.3072908291, -4862.3314335741325, 8376.785621259884, -0.032, 0.988, 0.258, 192.0, 0.0, 0.0, 0.0, 0.0, 0.0, 0.0, 0.0, 0.0, 0.0, 1.695418141250188E9, 0.0, 2023-09-22 16:29:01.250
192.0, 26548.82091865789, 13302.685416064909, -37051.16803063965, -63335.05372226879, -187500.02235174447, 7400.327312985339, -113465.18855872018, -187500.02235174447, -40324.64806135274, 6409.005094648015, -5135.201529884521, -69726.80327019731, -3737.993983983277, -22646.116929783457, -4866.578265020641, 8454.413229753165, -0.032, 0.98, 0.258, 192.0, 127.5, 0.0, 15.0, 80.0, 4.0, 8.0, 0.0, 0.0, 0.0, 1.695418141250193E9, 0.0, 2023-09-22 16:29:01.250
194.0, 26565.96470665511, 13315.15768947097, -37022.244873314485, -63324.302533185786, -187500.02235174447, 7397.063958294864, -113455.21968069312, -187500.02235174447, -40306.78901753295, 6435.491911827554, -5185.828231075791, -69705.3008920313, -3722.750094264757, -22670.905014384392, -4858.3975265499985, 8410.156775731657, -0.032, 0.98, 0.258, 192.0, 0.0, 0.0, 0.0, 0.0, 0.0, 0.0, 0.0, 0.0, 0.0, 1.695418141250197E9, 0.0, 2023-09-22 16:29:01.250
196.0, 26566.79172119996, 13317.795195316696, -37041.2438561015, -63329.37637917714, -187500.02235174447, 7407.7480921445, -113460.51704412902, -187500.02235174447, -40302.89981399773, 6434.709600771618, -5132.787541483348, -69701.00935709589, -3715.3963703389613, -22634.181098244324, -4847.445171766898, 8466.505523503485, -0.032, 0.98, 0.258, 192.0, 0.0, 0.0, 0.0, 0.0, 0.0, 0.0, 0.0, 0.0, 0.0, 1.695418141310481E9, 0.0, 2023-09-22 16:29:01.310
198.0, 26550.363189025305, 13303.758299798763, -37042.65201600218, -63346.72133287446, -187500.02235174447, 7401.5119554414705, -113476.14091350329, -187500.02235174447, -40306.14081694375, 6439.828150251884, -5177.066347249312, -69702.84220014123, -3723.4206465984166, -22671.352049273497, -4864.030166152736, 8414.068331011335, -0.032, 0.98, 0.258, 192.0, 0.0, 0.0, 0.0, 0.0, 0.0, 0.0, 0.0, 0.0, 0.0, 1.695418141310504E9, 0.0, 2023-09-22 16:29:01.310
200.0, 26531.408909727208, 13284.602854800565, -37079.04065597542, -63370.01185059689, -187500.02235174447, 7408.552754944892, -113463.44512265267, -187500.02235174447, -40328.38080267677, 6411.732007471563, -5131.044105415834, -69728.79257545383, -3738.9104055059443, -22644.641714649406, -4876.100108158602, 8475.87090443026, -0.032, 0.98, 0.258, 192.0, 0.0, 0.0, 0.0, 0.0, 0.0, 0.0, 0.0, 0.0, 0.0, 1.695418141310508E9, 0.0, 2023-09-22 16:29:01.310
202.0, 26532.43708997215, 13284.848723989573, -37064.824946501845, -63360.69117315903, -187500.02235174447, 7377.170905729641, -113512.30603603198, -187500.02235174447, -40338.528494659484, 6392.531858984454, -5188.488088665973, -69737.68856974704, -3751.785010312201, -22683.62315697946, -4901.335227648643, 8417.33168570181, -0.034, 0.974, 0.26, 192.0, 127.0, 120.0, 15.0, 56.0, 4.0, 16.0, 0.0, 0.0, 0.0, 1.695418141310519E9, 0.0, 2023-09-22 16:29:01.310
204.0, 26526.62563641377, 13275.706860507353, -37079.97942924254, -63369.676574430065, -187500.02235174447, 7403.076577553342, -113478.19727399318, -187500.02235174447, -40332.89585505675, 6400.109100354803, -5159.184951685065, -69734.73813947894, -3741.0561729736537, -22652.464825208765, -4881.173954149956, 8460.828180411838, -0.034, 0.974, 0.26, 192.0, 0.0, 0.0, 0.0, 0.0, 0.0, 0.0, 0.0, 0.0, 0.0, 1.695418141310522E9, 0.0, 2023-09-22 16:29:01.310
206.0, 26525.64215965774, 13275.416287829434, -37071.57517332735, -63364.20039703851, -187500.02235174447, 7364.251597434473, -113544.06786490296, -187500.02235174447, -40338.7743638485, 6390.296684538924, -5201.0274173054, -69742.24832561593, -3750.041574244687, -22681.276223811656, -4900.932896248448, 8416.884650812704, -0.034, 0.974, 0.26, 192.0, 0.0, 0.0, 0.0, 0.0, 0.0, 0.0, 0.0, 0.0, 0.0, 1.695418141310526E9, 0.0, 2023-09-22 16:29:01.310
208.0, 26526.24565675803, 13273.784610484197, -37078.54891759741, -63363.41808598258, -187500.02235174447, 7398.4050629621825, -113490.60249216587, -187500.02235174447, -40343.17765750619, 6395.035254363448, -5177.8933617941575, -69751.70311352052, -3742.620795085525, -22662.05372358009, -4878.491744815319, 8455.776686164938, -0.034, 0.974, 0.26, 192.0, 0.0, 0.0, 0.0, 0.0, 0.0, 0.0, 0.0, 0.0, 0.0, 1.695418141310529E9, 0.0, 2023-09-22 16:29:01.310
210.0, 26532.973531839078, 13282.34532861058, -37059.39347259921, -63354.52209168937, -187500.02235174447, 7348.4489141045715, -113581.9093682658, -187500.02235174447, -40315.394439148244, 6402.8136614338955, -5215.310182012342, -69726.82562194177, -3723.733571020791, -22695.558988518595, -4877.932951203937, 8404.56883961783, -0.034, 0.974, 0.26, 192.0, 0.0, 0.0, 0.0, 0.0, 0.0, 0.0, 0.0, 0.0, 0.0, 1.695418141310532E9, 0.0, 2023-09-22 16:29:01.310
212.0, 26515.29330197493, 13266.564997025132, -37080.51587110947, -63373.27520528737, -187500.02235174447, 7407.926906100143, -113473.77162859103, -187500.02235174447, -40341.56833190541, 6384.820507147373, -5180.7096815955265, -69750.65258153112, -3735.8035130266567, -22668.043991094113, -4866.757078976283, 8452.602738452284, -0.034, 0.982, 0.254, 192.0, 127.0, 120.0, 15.0, 88.0, 3.5, 120.0, 0.0, 0.0, 0.0, 1.695418141370833E9, 0.0, 2023-09-22 16:29:01.370
214.0, 26536.59451444084, 13290.593122314587, -37058.47705107654, -63348.24125149742, -187500.02235174447, 7360.317690410339, -113563.804455257, -187500.02235174447, -40335.4216021802, 6392.285989795446, -5188.823364832802, -69742.06951166029, -3747.9852137547987, -22683.511398257186, -4886.6277797970515, 8438.05175281188, -0.034, 0.982, 0.254, 192.0, 0.0, 0.0, 0.0, 0.0, 0.0, 0.0, 0.0, 0.0, 0.0, 1.695418141370846E9, 0.0, 2023-09-22 16:29:01.370
216.0, 26544.909363378214, 13297.723328795832, -37053.023225429446, -63343.07799852825, -187500.02235174447, 7399.567353673859, -113478.10786701535, -187500.02235174447, -40331.59945387834, 6403.9312486566605, -5177.267512949409, -69730.49130803243, -3735.758809537746, -22664.11008406998, -4854.664785225962, 8458.43654375512, -0.034, 0.982, 0.254, 192.0, 0.0, 0.0, 0.0, 0.0, 0.0, 0.0, 0.0, 0.0, 0.0, 1.695418141370851E9, 0.0, 2023-09-22 16:29:01.370
218.0, 26530.1125085488, 13280.087802420594, -37067.19423141411, -63361.11585630368, -187500.02235174447, 7358.596606087281, -113575.33795539594, -187500.02235174447, -40324.24572995254, 6416.9623156741045, -5188.890420066169, -69722.62349398417, -3737.4798938608046, -22680.225691822256, -4870.959206933881, 8431.1897672641, -0.034, 0.982, 0.254, 192.0, 0.0, 0.0, 0.0, 0.0, 0.0, 0.0, 0.0, 0.0, 0.0, 1.695418141370854E9, 0.0, 2023-09-22 16:29:01.370
220.0, 26519.20485725461, 13268.554302281655, -37079.778263542445, -63375.77860066636, -187500.02235174447, 7419.035723094431, -113470.10594250035, -187500.02235174447, -40351.51485818802, 6383.9711408580715, -5176.842829804758, -69755.27939263337, -3753.1931702128854, -22667.97693586075, -4876.882419214538, 8462.325747290342, -0.034, 0.982, 0.254, 192.0, 0.0, 0.0, 0.0, 0.0, 0.0, 0.0, 0.0, 0.0, 0.0, 1.695418141370858E9, 0.0, 2023-09-22 16:29:01.370
222.0, 26524.457517201605, 13274.455162817856, -37083.89098452222, -63369.83303664125, -187500.02235174447, 7372.789963816401, -113573.39335362833, -187500.02235174447, -40350.95606457664, 6379.299626266912, -5170.45023089054, -69756.62049730068, -3758.535237137704, -22672.804912663094, -4898.004817724803, 8469.590064238319, -0.034, 0.986, 0.26, 192.0, 127.0, 120.0, 15.0, 104.0, 4.0, 16.0, 0.0, 0.0, 0.0, 1.695418141370862E9, 0.0, 2023-09-22 16:29:01.370
224.0, 26530.894819604735, 13283.977005955818, -37070.65875180468, -63367.575510451265, -187500.02235174447, 7403.344798486805, -113506.04754758449, -187500.02235174447, -40339.08728827087, 6393.157707829203, -5196.557068414339, -69739.14143313664, -3736.764638038235, -22687.557064003595, -4875.496611058308, 8457.587177465819, -0.034, 0.986, 0.26, 192.0, 0.0, 0.0, 0.0, 0.0, 0.0, 0.0, 0.0, 0.0, 0.0, 1.695418141370865E9, 0.0, 2023-09-22 16:29:01.370
226.0, 26541.422491243186, 13293.051814204671, -37076.60431582979, -63359.93121384755, -187500.02235174447, 7376.455649907071, -113590.87241779237, -187500.02235174447, -40338.5731981484, 6393.7165014405855, -5168.080945978278, -69739.27554360338, -3754.1319434800084, -22673.810741163583, -4892.103957188601, 8477.659043986683, -0.034, 0.986, 0.26, 192.0, 0.0, 0.0, 0.0, 0.0, 0.0, 0.0, 0.0, 0.0, 0.0, 1.695418141431855E9, 0.0, 2023-09-22 16:29:01.431
228.0, 26530.53719169345, 13280.177209398415, -37081.63345833224, -63374.81747565478, -187500.02235174447, 7415.347685259305, -113500.75018414858, -187500.02235174447, -40342.68591912817, 6401.517260255488, -5194.053673035344, -69738.85086045873, -3744.1630654529413, -22672.2014155628, -4873.954340690892, 8458.90593038868, -0.034, 0.986, 0.26, 192.0, 0.0, 0.0, 0.0, 0.0, 0.0, 0.0, 0.0, 0.0, 0.0, 1.69541814143187E9, 0.0, 2023-09-22 16:29:01.431
230.0, 26545.736377923058, 13293.230628160314, -37075.106748951286, -63354.74560913392, -187500.02235174447, 7373.527571383425, -113600.72953709717, -187500.02235174447, -40333.432296923675, 6409.787405703951, -5165.868123277202, -69730.84893594372, -3744.185417197397, -22662.143130557914, -4886.314855374677, 8485.415099312675, -0.034, 0.986, 0.26, 192.0, 0.0, 0.0, 0.0, 0.0, 0.0, 0.0, 0.0, 0.0, 0.0, 1.695418141431873E9, 0.0, 2023-09-22 16:29:01.431
232.0, 26519.383671210253, 13265.91679643593, -37080.71703680957, -63374.72806867696, -187500.02235174447, 7422.7014091851015, -113511.5907802094, -187500.02235174447, -40357.214553024125, 6387.726233926563, -5193.7407486129705, -69755.86053798921, -3757.17178072593, -22671.508511484684, -4883.900866973504, 8461.834008912327, -0.024, 0.982, 0.262, 192.0, 127.5, 32.0, 15.0, 88.0, 4.0, 24.0, 0.0, 0.0, 0.0, 1.695418141431877E9, 0.0, 2023-09-22 16:29:01.431
234.0, 26542.67418893268, 13291.06250894815, -37064.71318777957, -63343.48032992844, -187500.02235174447, 7386.670397123146, -113604.84225807694, -187500.02235174447, -40340.54015166046, 6392.822431662373, -5156.480390605973, -69742.9635814385, -3747.2252544433186, -22657.806892133583, -4879.318759360166, 8504.279971632955, -0.024, 0.982, 0.262, 192.0, 0.0, 0.0, 0.0, 0.0, 0.0, 0.0, 0.0, 0.0, 0.0, 1.69541814143188E9, 0.0, 2023-09-22 16:29:01.431
236.0, 26536.952142352122, 13282.278273377213, -37054.2972748634, -63353.940946333525, -187500.02235174447, 7399.656760651679, -113568.40891461479, -187500.02235174447, -40330.66068061122, 6397.337484042345, -5207.688237153082, -69735.6545610016, -3734.6412223149805, -22675.241252808722, -4852.809590436172, 8448.042982583402, -0.024, 0.982, 0.262, 192.0, 0.0, 0.0, 0.0, 0.0, 0.0, 0.0, 0.0, 0.0, 0.0, 1.695418141431883E9, 0.0, 2023-09-22 16:29:01.431
238.0, 26543.322389521887, 13288.603817058065, -37065.98723721352, -63355.7067341455, -187500.02235174447, 7396.572219916848, -113607.77033660059, -187500.02235174447, -40328.626671865786, 6393.336521784845, -5155.988652227957, -69732.52531677787, -3740.005640984254, -22647.905069339882, -4862.443192296409, 8501.821279742871, -0.024, 0.982, 0.262, 192.0, 0.0, 0.0, 0.0, 0.0, 0.0, 0.0, 0.0, 0.0, 0.0, 1.695418141431886E9, 0.0, 2023-09-22 16:29:01.431
240.0, 26534.91813360669, 13279.4843053203, -37064.266152890465, -63369.07307732977, -187500.02235174447, 7411.972571846554, -113565.72670528016, -187500.02235174447, -40337.74618360355, 6390.341388027834, -5197.629952148193, -69746.09282566224, -3751.405030656461, -22668.15574981639, -4871.316834845166, 8458.324785032843, -0.024, 0.982, 0.262, 192.0, 0.0, 0.0, 0.0, 0.0, 0.0, 0.0, 0.0, 0.0, 0.0, 1.69541814143189E9, 0.0, 2023-09-22 16:29:01.431
242.0, 26534.694616162138, 13284.11111642255, -37075.91141175168, -63363.21692028248, -187500.02235174447, 7419.750978917001, -113575.2038449292, -187500.02235174447, -40334.50518065753, 6396.577524730865, -5142.77877125487, -69746.74102625145, -3749.8404085445895, -22643.993514060203, -4870.86979995606, 8523.703637564617, -0.028, 0.98, 0.264, 192.0, 127.5, 16.0, 15.0, 80.0, 4.0, 32.0, 0.0, 0.0, 0.0, 1.695418141490555E9, 0.0, 2023-09-22 16:29:01.490
244.0, 26543.277686032976, 13290.548418825678, -37052.91146670717, -63345.78255960734, -187500.02235174447, 7403.456557209081, -113580.2553391761, -187500.02235174447, -40318.546035116444, 6416.64939125173, -5193.137251512677, -69725.73038646346, -3741.5479113516703, -22677.610537720986, -4875.071927913657, 8468.070145615357, -0.028, 0.98, 0.264, 192.0, 0.0, 0.0, 0.0, 0.0, 0.0, 0.0, 0.0, 0.0, 0.0, 1.695418141490569E9, 0.0, 2023-09-22 16:29:01.490
246.0, 26533.48762196155, 13282.658253032954, -37071.396359371705, -63352.3539724772, -187500.02235174447, 7412.509013713481, -113565.86081574688, -187500.02235174447, -40328.87254105479, 6395.996379375027, -5144.812780000303, -69736.2580581019, -3746.509998620749, -22647.23451700622, -4859.313948072666, 8521.691980563639, -0.028, 0.98, 0.264, 192.0, 0.0, 0.0, 0.0, 0.0, 0.0, 0.0, 0.0, 0.0, 0.0, 1.695418141490573E9, 0.0, 2023-09-22 16:29:01.490
248.0, 26536.10277606282, 13285.72044202333, -37061.33807436682, -63352.73395213294, -187500.02235174447, 7388.614998890758, -113599.07550800747, -187500.02235174447, -40310.52175885699, 6411.530841771465, -5201.653266150149, -69722.77995619536, -3736.697582804869, -22673.028430107646, -4868.9028464439925, 8463.108058346279, -0.028, 0.98, 0.264, 192.0, 0.0, 0.0, 0.0, 0.0, 0.0, 0.0, 0.0, 0.0, 0.0, 1.695418141490576E9, 0.0, 2023-09-22 16:29:01.490
