%OpenBCI Raw EXG Data
%Number of channels = 16
%Sample Rate = 125 Hz
%Board = OpenBCI_GUI$BoardCytonSerialDaisy
Sample Index, EXG Channel 0, EXG Channel 1, EXG Channel 2, EXG Channel 3, EXG Channel 4, EXG Channel 5, EXG Channel 6, EXG Channel 7, EXG Channel 8, EXG Channel 9, EXG Channel 10, EXG Channel 11, EXG Channel 12, EXG Channel 13, EXG Channel 14, EXG Channel 15, Accel Channel 0, Accel Channel 1, Accel Channel 2, Other, Other, Other, Other, Other, Other, Other, Analog Channel 0, Analog Channel 1, Analog Channel 2, Timestamp, Other, Timestamp (Formatted)
224.0, 26371.92921303859, 12799.413537909215, -36691.796683287226, -63116.14073707351, -187500.02235174447, 7829.525510016145, -116771.056267149, -187500.02235174447, -39574.16588952135, 6371.431812218644, -5666.837771754, -69856.93512641611, 525.7800848221881, -21791.050945645686, -5880.118117346539, 8422.472586926531, 0.0, 0.0, 0.0, 192.0, 0.0, 0.0, 0.0, 0.0, 0.0, 0.0, 0.0, 0.0, 0.0, 1.695418092085961E9, 0.0, 2023-09-22 16:28:12.085
226.0, 26383.17214049961, 12811.550535148446, -36668.84144173163, -63106.90946661347, -187500.02235174447, 7796.132003799917, -116808.9648257452, -187500.02235174447, -39552.060014255054, 6398.186850331646, -5727.634516672435, -69834.49397498298, 540.48753267378, -21827.08195770764, -5877.838239412098, 8346.99074590096, -0.02, 0.491, 0.127, 192.0, 127.0, 96.0, 15.0, 88.0, 3.5, 120.0, 0.0, 0.0, 0.0, 1.69541809208597E9, 0.0, 2023-09-22 16:28:12.085
228.0, 26375.93017529609, 12804.129755989285, -36688.53332859675, -63110.68691142642, -187500.02235174447, 7814.9298208868295, -116787.8200754905, -187500.02235174447, -39566.11926151744, 6385.580466458853, -5673.342129390494, -69844.99929487698, 536.8889018164756, -21789.665137489457, -5869.97042536383, 8395.09169996878, -0.02, 0.491, 0.127, 192.0, 0.0, 0.0, 0.0, 0.0, 0.0, 0.0, 0.0, 0.0, 0.0, 1.695418092085974E9, 0.0, 2023-09-22 16:28:12.085
230.0, 26358.473462876496, 12787.567113347903, -36695.68588682245, -63128.81417617967, -187500.02235174447, 7794.366215987947, -116816.16208745982, -187500.02235174447, -39578.23390701222, 6371.431812218644, -5720.303144491094, -69855.70578047106, 517.2193666958054, -21835.150937456005, -5889.908181417964, 8338.340620796755, -0.02, 0.491, 0.127, 192.0, 0.0, 0.0, 0.0, 0.0, 0.0, 0.0, 0.0, 0.0, 0.0, 1.695418092085978E9, 0.0, 2023-09-22 16:28:12.085
232.0, 26379.215881731023, 12810.142375247762, -36685.78406402875, -63105.85893462407, -187500.02235174447, 7812.135852829916, -116780.73457249816, -187500.02235174447, -39576.535174433615, 6374.896332609217, -5668.581207821514, -69855.07993162631, 527.523520889702, -21793.93432068042, -5876.027748111218, 8393.012987734435, -0.02, 0.491, 0.127, 192.0, 0.0, 0.0, 0.0, 0.0, 0.0, 0.0, 0.0, 0.0, 0.0, 1.695418092085981E9, 0.0, 2023-09-22 16:28:12.085
234.0, 26358.78638729887, 12791.612779094314, -36692.981325743356, -63124.232068566336, -187500.02235174447, 7787.34776822898, -116833.95407604624, -187500.02235174447, -39574.367055221446, 6380.707786167596, -5711.742426364712, -69849.38023679021, 522.136750475973, -21828.288951908227, -5886.9130476609525, 8332.730332938472, -0.02, 0.491, 0.127, 192.0, 0.0, 0.0, 0.0, 0.0, 0.0, 0.0, 0.0, 0.0, 0.0, 1.695418092085984E9, 0.0, 2023-09-22 16:28:12.085
236.0, 26369.515224637416, 12799.838221053866, -36689.002715230316, -63113.1456033165, -187500.02235174447, 7841.260175855181, -116752.057284362, -187500.02235174447, -39587.59928793899, 6376.662120421186, -5655.550140804069, -69862.25484159647, 516.1241312174953, -21783.965442653353, -5879.045233612685, 8398.511516870441, -0.034, 0.7355, 0.1925, 192.0, 127.0, 64.0, 15.0, 80.0, 4.0, 8.0, 0.0, 0.0, 0.0, 1.695418092085988E9, 0.0, 2023-09-22 16:28:12.085
238.0, 26375.729009595994, 12807.303703701939, -36676.485738335345, -63102.550876444686, -187500.02235174447, 7802.122271313939, -116831.58479113398, -187500.02235174447, -39577.1386715339, 6395.951675886116, -5691.134117976919, -69846.7874344334, 518.9628027633194, -21812.64273078951, -5888.3212075616375, 8359.775943729395, -0.034, 0.7355, 0.1925, 192.0, 0.0, 0.0, 0.0, 0.0, 0.0, 0.0, 0.0, 0.0, 0.0, 1.695418092085991E9, 0.0, 2023-09-22 16:28:12.085
240.0, 26383.328602710797, 12815.752663106045, -36674.89876447902, -63098.281693253724, -187500.02235174447, 7850.044411426117, -116737.9980370996, -187500.02235174447, -39574.501165688176, 6394.78938517444, -5660.623986795425, -69841.84769890878, 529.7586953352327, -21780.143294351496, -5864.985986350297, 8401.529002371908, -0.034, 0.7355, 0.1925, 192.0, 0.0, 0.0, 0.0, 0.0, 0.0, 0.0, 0.0, 0.0, 0.0, 1.695418092085995E9, 0.0, 2023-09-22 16:28:12.085
0.0, 13185.22699895227, 6429.971030947093, -18354.067904242027, -31562.451310449997, -93750.01117587223, 3884.91200028801, -58798.45426064185, -93750.01117587223, -19782.232616213874, 3200.4121780886867, -2828.546205585743, -34918.56574041435, 264.2870264395507, -10894.083785305475, -2938.606195283675, 4197.791719173399, -0.039, 0.85575, 0.22225, 192.0, 127.0, 80.0, 15.0, 64.0, 3.5, 112.0, 0.0, 0.0, 0.0, 1.695418092253408E9, 0.0, 2023-09-22 16:28:12.253
2.0, 26352.3714366402, 12841.814797140933, -36729.1688000165, -63141.979353663846, -187500.02235174447, 7830.486635027723, -117487.34026996378, -187500.02235174447, -39642.115192665486, 6350.3988206862, -5508.028627399043, -69840.26072505245, 235.8109040034895, -21959.806616283255, -5777.948293441331, 8466.52787524794, -0.039, 0.85575, 0.22225, 192.0, 0.0, 0.0, 0.0, 0.0, 0.0, 0.0, 0.0, 0.0, 0.0, 1.695418092253428E9, 0.0, 2023-09-22 16:28:12.253
4.0, 26363.368494912207, 12853.862387402343, -36733.3709279741, -63132.07753087015, -187500.02235174447, 7785.8725530949305, -117570.48875933752, -187500.02235174447, -39661.5612103416, 6328.069427975349, -5494.662284214769, -69852.55418450286, 207.80416820098975, -21965.483959374902, -5816.43799739337, 8480.20714285459, -0.039, 0.85575, 0.22225, 192.0, 0.0, 0.0, 0.0, 0.0, 0.0, 0.0, 0.0, 0.0, 0.0, 1.695418092253432E9, 0.0, 2023-09-22 16:28:12.253
6.0, 26360.954506511036, 12848.743837922078, -36735.471991952894, -63143.32045833117, -187500.02235174447, 7835.091094385517, -117465.90494703114, -187500.02235174447, -39646.89846597892, 6341.458122904078, -5509.503842533093, -69841.22185006403, 228.32306961096165, -21966.288622175292, -5791.672264536889, 8474.239227085021, -0.039, 0.85575, 0.22225, 192.0, 0.0, 0.0, 0.0, 0.0, 0.0, 0.0, 0.0, 0.0, 0.0, 1.695418092253435E9, 0.0, 2023-09-22 16:28:12.253
8.0, 26380.60168988725, 12870.581492254913, -36714.8189800762, -63117.101862085095, -187500.02235174447, 7781.223390248227, -117575.49555009551, -187500.02235174447, -39642.49517232122, 6335.914890279161, -5493.835269669923, -69835.18687906109, 220.8575869628891, -21958.666677316032, -5807.676113566889, 8482.665834744672, -0.048, 0.974, 0.248, 192.0, 127.0, 64.0, 15.0, 56.0, 3.5, 96.0, 0.0, 0.0, 0.0, 1.695418092253439E9, 0.0, 2023-09-22 16:28:12.253
10.0, 26358.36170415422, 12843.871157630821, -36730.77812561728, -63145.622688010066, -187500.02235174447, 7836.208681608282, -117458.1265399607, -187500.02235174447, -39657.202620172815, 6333.67971583363, -5515.427054813749, -69848.97790539001, 229.19478764471862, -21963.852282029664, -5781.569276043091, 8464.560921735874, -0.048, 0.974, 0.248, 192.0, 0.0, 0.0, 0.0, 0.0, 0.0, 0.0, 0.0, 0.0, 0.0, 1.695418092253442E9, 0.0, 2023-09-22 16:28:12.253
12.0, 26366.229518202486, 12853.616518213335, -36729.01233780531, -63138.78305420674, -187500.02235174447, 7785.49257343919, -117560.40812258818, -187500.02235174447, -39648.03840494614, 6342.978041527038, -5491.778909180035, -69843.65819020965, 224.14329339781924, -21956.319744148226, -5799.562430329613, 8484.565733023373, -0.048, 0.974, 0.248, 192.0, 0.0, 0.0, 0.0, 0.0, 0.0, 0.0, 0.0, 0.0, 0.0, 1.695418092253446E9, 0.0, 2023-09-22 16:28:12.253
14.0, 26375.393733429162, 12861.506684006059, -36712.18147423047, -63129.90941165798, -187500.02235174447, 7826.888004170419, -117482.40053443916, -187500.02235174447, -39654.85568700501, 6348.565977640865, -5522.5125578060815, -69843.92641114311, 226.06554342097564, -21969.14964546557, -5791.00171220323, 8460.716421689562, -0.048, 0.974, 0.248, 192.0, 0.0, 0.0, 0.0, 0.0, 0.0, 0.0, 0.0, 0.0, 0.0, 1.695418092253449E9, 0.0, 2023-09-22 16:28:12.253
16.0, 26385.988460300978, 12875.543579523992, -36717.88116906657, -63120.90165864249, -187500.02235174447, 7784.39733796088, -117585.17385544466, -187500.02235174447, -39632.79451522762, 6359.719498124064, -5485.475717243638, -69824.16746904462, 235.72149702566827, -21951.938802234985, -5785.592590045046, 8489.237247614534, -0.048, 0.974, 0.248, 192.0, 0.0, 0.0, 0.0, 0.0, 0.0, 0.0, 0.0, 0.0, 0.0, 1.695418092313711E9, 0.0, 2023-09-22 16:28:12.313
18.0, 26386.41314344563, 12873.59897775638, -36710.70625909642, -63127.651885467996, -187500.02235174447, 7814.21456506426, -117532.66960771914, -187500.02235174447, -39636.61666352948, 6356.813771344873, -5522.75842699509, -69827.98961734648, 233.93335746924373, -21969.328459421213, -5780.742261498244, 8438.610546423262, -0.048, 0.98, 0.246, 192.0, 127.0, 64.0, 15.0, 80.0, 3.5, 88.0, 0.0, 0.0, 0.0, 1.695418092313723E9, 0.0, 2023-09-22 16:28:12.313
20.0, 26383.59682364426, 12867.742820709089, -36733.21446576291, -63131.20581283639, -187500.02235174447, 7801.138794557905, -117592.61698634828, -187500.02235174447, -39640.25999787569, 6346.219044473058, -5461.157019276264, -69832.88464938219, 223.85272071990022, -21932.11280490313, -5794.376825615982, 8488.142012136223, -0.048, 0.98, 0.246, 192.0, 0.0, 0.0, 0.0, 0.0, 0.0, 0.0, 0.0, 0.0, 0.0, 1.695418092313727E9, 0.0, 2023-09-22 16:28:12.313
22.0, 26367.525919380896, 12852.051896101464, -36734.443811707955, -63143.20869960889, -187500.02235174447, 7836.163978119372, -117542.83965144631, -187500.02235174447, -39644.01509094419, 6345.660250861675, -5504.497051775104, -69831.40943424814, 221.10345615189746, -21959.761912794344, -5795.941447727853, 8443.729095903527, -0.048, 0.98, 0.246, 192.0, 0.0, 0.0, 0.0, 0.0, 0.0, 0.0, 0.0, 0.0, 0.0, 1.69541809231373E9, 0.0, 2023-09-22 16:28:12.313
24.0, 26393.40923946014, 12879.030451659019, -36735.94137858646, -63115.6489986955, -187500.02235174447, 7825.569251247555, -117587.81136129038, -187500.02235174447, -39663.57286734258, 6332.450369888588, -5434.066704996432, -69847.6815042116, 200.9421826532105, -21920.489897786367, -5814.895727025953, 8525.894108521237, -0.048, 0.98, 0.246, 192.0, 0.0, 0.0, 0.0, 0.0, 0.0, 0.0, 0.0, 0.0, 0.0, 1.695418092313733E9, 0.0, 2023-09-22 16:28:12.313
26.0, 26397.499608695463, 12880.8409429599, -36716.89769231054, -63114.710225428375, -187500.02235174447, 7809.565402217556, -117609.85018132332, -187500.02235174447, -39618.24352958721, 6372.370585485767, -5523.071351417465, -69805.66022463563, 243.3657936293833, -21966.06510473074, -5780.719909753789, 8438.230566767523, -0.048, 0.98, 0.246, 192.0, 0.0, 0.0, 0.0, 0.0, 0.0, 0.0, 0.0, 0.0, 0.0, 1.695418092313736E9, 0.0, 2023-09-22 16:28:12.313
28.0, 26387.3295649683, 12870.156809110262, -36746.13377405808, -63121.706321442885, -187500.02235174447, 7819.444873266802, -117614.92402731467, -187500.02235174447, -39643.12102116597, 6357.283157978435, -5455.882007584812, -69834.22575404952, 224.90325270929966, -21925.13906063307, -5786.799584245633, 8501.575410553862, -0.048, 0.98, 0.248, 192.0, 127.0, 64.0, 15.0, 80.0, 3.5, 96.0, 0.0, 0.0, 0.0, 1.69541809231374E9, 0.0, 2023-09-22 16:28:12.313
30.0, 26369.381114170686, 12850.286108289494, -36749.687701426476, -63147.09790314412, -187500.02235174447, 7813.834585408519, -117606.74328884404, -187500.02235174447, -39640.10353566451, 6352.164608498169, -5512.722493734657, -69832.03528309289, 221.50578755209298, -21976.838645558197, -5797.260200650716, 8440.823369124339, -0.048, 0.98, 0.248, 192.0, 0.0, 0.0, 0.0, 0.0, 0.0, 0.0, 0.0, 0.0, 0.0, 1.695418092375455E9, 0.0, 2023-09-22 16:28:12.375
32.0, 26387.75424811295, 12869.821532943432, -36751.96757936091, -63132.323400059155, -187500.02235174447, 7841.148417132905, -117570.66757329316, -187500.02235174447, -39660.80125103012, 6335.467855390055, -5446.270757469029, -69847.61444897825, 205.52429026654843, -21931.621066525113, -5810.112453712518, 8523.97185849808, -0.048, 0.98, 0.248, 192.0, 0.0, 0.0, 0.0, 0.0, 0.0, 0.0, 0.0, 0.0, 0.0, 1.695418092375468E9, 0.0, 2023-09-22 16:28:12.375
34.0, 26380.020544531413, 12864.88179741881, -36741.171686789, -63141.66642924147, -187500.02235174447, 7812.06879759655, -117616.04161453743, -187500.02235174447, -39631.11813439347, 6357.819599845362, -5514.957668180188, -69824.12276555572, 221.08110440744215, -21976.458665902457, -5808.793700789654, 8453.407401252676, -0.048, 0.98, 0.248, 192.0, 0.0, 0.0, 0.0, 0.0, 0.0, 0.0, 0.0, 0.0, 0.0, 1.695418092375471E9, 0.0, 2023-09-22 16:28:12.375
36.0, 26385.764942856425, 12872.302576577971, -36746.871381625104, -63133.038655881726, -187500.02235174447, 7837.281565342137, -117577.52955884095, -187500.02235174447, -39646.04909968962, 6340.094666492304, -5466.633196667814, -69844.17228033213, 218.42124681726062, -21936.359636349636, -5805.016255976708, 8510.806681013904, -0.048, 0.98, 0.248, 192.0, 0.0, 0.0, 0.0, 0.0, 0.0, 0.0, 0.0, 0.0, 0.0, 1.695418092375475E9, 0.0, 2023-09-22 16:28:12.375
38.0, 26384.89322482267, 12871.028527144019, -36734.98025357488, -63132.904545415, -187500.02235174447, 7797.786032889609, -117638.23689678156, -187500.02235174447, -39631.475762304755, 6365.150972026703, -5523.741903751124, -69826.55910570135, 225.19382538721865, -21969.619032099134, -5805.53034609918, 8446.187787793611, -0.048, 0.982, 0.248, 192.0, 127.0, 64.0, 15.0, 88.0, 3.5, 96.0, 0.0, 0.0, 0.0, 1.695418092375482E9, 0.0, 2023-09-22 16:28:12.375
40.0, 26371.526881638394, 12859.36091653835, -36760.21537306492, -63150.13774039003, -187500.02235174447, 7856.861693484985, -117540.98445665652, -187500.02235174447, -39648.15016366842, 6358.132524267737, -5470.567103691948, -69841.0877395973, 218.82357821745615, -21921.42867105349, -5793.035720948663, 8510.337294380342, -0.048, 0.982, 0.248, 192.0, 0.0, 0.0, 0.0, 0.0, 0.0, 0.0, 0.0, 0.0, 0.0, 1.695418092375486E9, 0.0, 2023-09-22 16:28:12.375
42.0, 26368.88937579267, 12857.528073493013, -36758.963675375424, -63151.36708633508, -187500.02235174447, 7820.048370367095, -117606.51977139949, -187500.02235174447, -39643.52335256617, 6353.662175376675, -5499.937295906222, -69837.7796814179, 206.73128446713503, -21958.06318021574, -5822.897651540953, 8479.447183543109, -0.048, 0.982, 0.248, 192.0, 0.0, 0.0, 0.0, 0.0, 0.0, 0.0, 0.0, 0.0, 0.0, 1.695418092375489E9, 0.0, 2023-09-22 16:28:12.375
44.0, 26369.78344557088, 12857.21514907064, -36766.2279923234, -63150.83064446815, -187500.02235174447, 7879.995748996228, -117506.741584151, -187500.02235174447, -39665.40571038792, 6336.563090868365, -5461.64875765428, -69861.36077181826, 194.0354936165206, -21929.698816501954, -5818.136729971973, 8539.662783105705, -0.048, 0.982, 0.248, 192.0, 0.0, 0.0, 0.0, 0.0, 0.0, 0.0, 0.0, 0.0, 0.0, 1.695418092375492E9, 0.0, 2023-09-22 16:28:12.375
46.0, 26396.35966972824, 12886.942969196198, -36721.32333771269, -63116.54306847371, -187500.02235174447, 7809.900678384385, -117635.7111496581, -187500.02235174447, -39620.143427865914, 6381.199524545614, -5506.687522731724, -69815.51734394042, 218.17537762825225, -21971.608337355654, -5806.871450766498, 8493.05939591639, -0.048, 0.982, 0.248, 192.0, 0.0, 0.0, 0.0, 0.0, 0.0, 0.0, 0.0, 0.0, 0.0, 1.695418092434665E9, 0.0, 2023-09-22 16:28:12.434
48.0, 26393.565701671327, 12883.299634849982, -36727.671233138, -63123.85208891059, -187500.02235174447, 7852.2572341271925, -117557.97178244255, -187500.02235174447, -39614.30962256308, 6393.850611907317, -5494.438766770216, -69809.21415200403, 229.73122951164598, -21939.801804995754, -5775.958988184809, 8506.381035611754, -0.046, 0.98, 0.256, 192.0, 127.0, 72.0, 15.0, 80.0, 4.0, 0.0, 0.0, 0.0, 0.0, 1.695418092434677E9, 0.0, 2023-09-22 16:28:12.434
50.0, 26389.385925458188, 12879.656300503768, -36731.918064584504, -63129.86470816907, -187500.02235174447, 7812.985219119218, -117664.99193489456, -187500.02235174447, -39619.31641332107, 6393.2471148070235, -5490.258990557074, -69811.00229156045, 212.3192205809618, -21949.748331278366, -5800.009465218719, 8496.769785495972, -0.046, 0.98, 0.256, 192.0, 0.0, 0.0, 0.0, 0.0, 0.0, 0.0, 0.0, 0.0, 0.0, 1.695418092434681E9, 0.0, 2023-09-22 16:28:12.434
52.0, 26390.727030125505, 12877.26466384705, -36734.35440473013, -63140.101807129606, -187500.02235174447, 7869.356318635502, -117571.98632621604, -187500.02235174447, -39622.08802963353, 6385.222838547568, -5476.400908994783, -69821.97699808801, 213.99560141510983, -21929.25178161285, -5790.644084291946, 8520.820262529882, -0.046, 0.98, 0.256, 192.0, 0.0, 0.0, 0.0, 0.0, 0.0, 0.0, 0.0, 0.0, 0.0, 1.695418092434684E9, 0.0, 2023-09-22 16:28:12.434
54.0, 26391.39758245916, 12881.600902271379, -36734.712032641415, -63135.273830327256, -187500.02235174447, 7815.488614498212, -117696.46319108763, -187500.02235174447, -39603.06669510206, 6391.302513039412, -5470.32123450294, -69807.80599210334, 213.50386303709305, -21947.513156832836, -5804.278648409682, 8514.427663615665, -0.046, 0.98, 0.256, 192.0, 0.0, 0.0, 0.0, 0.0, 0.0, 0.0, 0.0, 0.0, 0.0, 1.695418092434687E9, 0.0, 2023-09-22 16:28:12.434
56.0, 26390.436457447584, 12883.12082089434, -36727.04538429325, -63134.44681578241, -187500.02235174447, 7860.84030399803, -117622.63537915176, -187500.02235174447, -39603.31256429107, 6396.644579964231, -5477.920827617744, -69806.33077696929, 219.56118578448127, -21947.133177177093, -5792.454575592826, 8511.991323470036, -0.046, 0.98, 0.256, 192.0, 0.0, 0.0, 0.0, 0.0, 0.0, 0.0, 0.0, 0.0, 0.0, 1.69541809243469E9, 0.0, 2023-09-22 16:28:12.434
58.0, 26388.13422776869, 12881.22092261564, -36735.203771019434, -63136.83845243913, -187500.02235174447, 7815.913297642863, -117746.3969882008, -187500.02235174447, -39599.75863692268, 6402.07605386687, -5459.2347692531075, -69802.21805598952, 210.4193223022607, -21938.5277555618, -5808.033741478174, 8526.63171608826, -0.044, 0.982, 0.258, 192.0, 127.0, 80.0, 15.0, 88.0, 4.0, 8.0, 0.0, 0.0, 0.0, 1.695418092434694E9, 0.0, 2023-09-22 16:28:12.434
60.0, 26393.90097783816, 12885.691271506701, -36726.263073237315, -63131.272868069755, -187500.02235174447, 7863.544865077122, -117679.52056879051, -187500.02235174447, -39610.1969015833, 6398.74564394303, -5483.575818964937, -69813.3268729838, 210.01699090206517, -21955.82800577021, -5802.4458053643475, 8513.01950371498, -0.044, 0.982, 0.258, 192.0, 0.0, 0.0, 0.0, 0.0, 0.0, 0.0, 0.0, 0.0, 0.0, 1.695418092434697E9, 0.0, 2023-09-22 16:28:12.434
62.0, 26395.08562029429, 12891.636835531812, -36726.48659068187, -63123.87444065505, -187500.02235174447, 7819.713094200265, -117797.44837253672, -187500.02235174447, -39599.22219505575, 6405.9876091465485, -5456.217283751641, -69802.32981471179, 215.49316829361538, -21950.15066267856, -5803.2728199091935, 8533.292535935943, -0.044, 0.982, 0.258, 192.0, 0.0, 0.0, 0.0, 0.0, 0.0, 0.0, 0.0, 0.0, 0.0, 1.695418092494591E9, 0.0, 2023-09-22 16:28:12.494
64.0, 26401.008832574946, 12891.614483787356, -36709.409857918006, -63118.35355977459, -187500.02235174447, 7845.8646352129745, -117757.17052902826, -187500.02235174447, -39598.30577353308, 6407.418120791688, -5501.814842440467, -69803.49210542347, 226.73609575463485, -21966.40038089757, -5792.208706403817, 8487.24794235801, -0.044, 0.982, 0.258, 192.0, 0.0, 0.0, 0.0, 0.0, 0.0, 0.0, 0.0, 0.0, 0.0, 1.695418092494605E9, 0.0, 2023-09-22 16:28:12.494
66.0, 26425.305178797866, 12915.732016054633, -36694.8141687887, -63089.85508559407, -187500.02235174447, 7790.119384541439, -117891.88449286038, -187500.02235174447, -39569.87435458593, 6422.393789576744, -5470.187124036208, -69781.05095399034, 244.55043608551458, -21946.574383565712, -5777.680072507867, 8505.77753851146, -0.044, 0.982, 0.258, 192.0, 0.0, 0.0, 0.0, 0.0, 0.0, 0.0, 0.0, 0.0, 0.0, 1.695418092494609E9, 0.0, 2023-09-22 16:28:12.494
68.0, 26378.858253819737, 12870.961471910654, -36730.55460817273, -63140.34767631861, -187500.02235174447, 7826.150396603393, -117837.88267825636, -187500.02235174447, -39595.332991520525, 6405.697036468629, -5513.4153978127715, -69803.04507053437, 231.45231383470463, -21967.830892542708, -5770.147534626429, 8450.680488429129, -0.04, 0.976, 0.256, 192.0, 127.0, 96.0, 15.0, 64.0, 4.0, 0.0, 0.0, 0.0, 0.0, 1.695418092494612E9, 0.0, 2023-09-22 16:28:12.494
70.0, 26401.344108741774, 12894.855486733377, -36720.69748886794, -63115.51488822877, -187500.02235174447, 7799.417710234847, -117909.40826051334, -187500.02235174447, -39605.57009048106, 6388.530896726954, -5453.780943606012, -69813.14805902816, 213.88384269283327, -21932.09045315867, -5793.6392180489565, 8517.691018306139, -0.04, 0.976, 0.256, 192.0, 0.0, 0.0, 0.0, 0.0, 0.0, 0.0, 0.0, 0.0, 0.0, 1.695418092494616E9, 0.0, 2023-09-22 16:28:12.494
72.0, 26386.055515534346, 12878.583416769912, -36725.07843078118, -63132.681027970444, -187500.02235174447, 7814.058102853072, -117883.16731252281, -187500.02235174447, -39602.664363701864, 6389.4920217385325, -5517.66222925928, -69812.18693401659, 218.46595030617124, -21973.888215290095, -5791.00171220323, 8452.379221007732, -0.04, 0.976, 0.256, 192.0, 0.0, 0.0, 0.0, 0.0, 0.0, 0.0, 0.0, 0.0, 0.0, 1.695418092494619E9, 0.0, 2023-09-22 16:28:12.494
74.0, 26393.386887715686, 12888.418184330249, -36726.821866848695, -63124.18736507742, -187500.02235174447, 7803.753948659176, -117929.25660958966, -187500.02235174447, -39594.66243918687, 6398.812699176396, -5466.32027224544, -69802.35216645624, 228.01014518858736, -21939.935915462484, -5788.654779035423, 8506.11281467829, -0.04, 0.976, 0.256, 192.0, 0.0, 0.0, 0.0, 0.0, 0.0, 0.0, 0.0, 0.0, 0.0, 1.695418092494623E9, 0.0, 2023-09-22 16:28:12.494
76.0, 26386.144922512165, 12879.298672592482, -36723.670270880495, -63132.904545415, -187500.02235174447, 7804.133928314916, -117934.084586392, -187500.02235174447, -39605.14540733641, 6395.1246613412695, -5522.065522916976, -69813.95272182855, 217.7283427391461, -21974.849340301676, -5806.089139710562, 8446.344250004799, -0.04, 0.976, 0.256, 192.0, 0.0, 0.0, 0.0, 0.0, 0.0, 0.0, 0.0, 0.0, 0.0, 1.695418092554292E9, 0.0, 2023-09-22 16:28:12.554
78.0, 26406.59676868877, 12897.381233856826, -36713.88020680907, -63112.98914110532, -187500.02235174447, 7790.946399086285, -117968.55097634209, -187500.02235174447, -39591.04145658511, 6393.001245618016, -5472.2658362705515, -69804.54263741287, 230.29002312302867, -21951.42471211251, -5792.007540703719, 8497.373282596265, -0.044, 0.974, 0.26, 192.0, 127.0, 80.0, 15.0, 56.0, 4.0, 16.0, 0.0, 0.0, 0.0, 1.695418092554305E9, 0.0, 2023-09-22 16:28:12.554
80.0, 26373.851463061746, 12864.837093929898, -36727.090087782155, -63144.32628683165, -187500.02235174447, 7787.236009506704, -117976.28467992363, -187500.02235174447, -39596.22706129874, 6389.424966505167, -5532.883767233345, -69810.71171888254, 225.81967423196724, -21989.914416064552, -5796.053206450129, 8426.361790461755, -0.044, 0.974, 0.26, 192.0, 0.0, 0.0, 0.0, 0.0, 0.0, 0.0, 0.0, 0.0, 0.0, 1.695418092554309E9, 0.0, 2023-09-22 16:28:12.554
82.0, 26372.1750822276, 12864.635928229802, -36731.6721953955, -63139.00657165129, -187500.02235174447, 7825.815120436564, -117939.47135680573, -187500.02235174447, -39617.86354993148, 6377.3550244993, -5463.123972788331, -69829.66599818063, 210.37461881335008, -21944.04863644226, -5797.662532050912, 8513.466538604085, -0.044, 0.974, 0.26, 192.0, 0.0, 0.0, 0.0, 0.0, 0.0, 0.0, 0.0, 0.0, 0.0, 1.695418092554312E9, 0.0, 2023-09-22 16:28:12.554
84.0, 26383.261547477432, 12878.225788858628, -36716.830637077175, -63128.836527924126, -187500.02235174447, 7789.82881186352, -118018.79769787761, -187500.02235174447, -39608.833445171535, 6378.9867018445375, -5518.869223459867, -69821.6864254101, 207.6700577342579, -21987.120448007638, -5809.844232779054, 8461.364622278765, -0.044, 0.974, 0.26, 192.0, 0.0, 0.0, 0.0, 0.0, 0.0, 0.0, 0.0, 0.0, 0.0, 1.695418092554316E9, 0.0, 2023-09-22 16:28:12.554
86.0, 26374.901995051147, 12870.805009699467, -36737.05896580922, -63138.53718501773, -187500.02235174447, 7833.5488240181, -117982.61022360448, -187500.02235174447, -39614.488436518724, 6384.261713535991, -5479.731318918624, -69827.49787896847, 211.58161301393665, -21953.25755515785, -5788.699482524334, 8514.964105482592, -0.044, 0.974, 0.26, 192.0, 0.0, 0.0, 0.0, 0.0, 0.0, 0.0, 0.0, 0.0, 0.0, 1.695418092554319E9, 0.0, 2023-09-22 16:28:12.554
88.0, 26386.65901263464, 12885.691271506701, -36717.43413417746, -63122.44392900991, -187500.02235174447, 7791.907524097864, -118082.74603876425, -187500.02235174447, -39604.22898581374, 6390.654312450209, -5520.657363016291, -69813.84096310628, 203.93731641022163, -21986.941634051997, -5805.619753077001, 8474.10511661829, -0.04, 0.982, 0.258, 192.0, 127.0, 96.0, 15.0, 88.0, 4.0, 8.0, 0.0, 0.0, 0.0, 1.695418092554322E9, 0.0, 2023-09-22 16:28:12.554
90.0, 26378.50062590845, 12875.230655101617, -36727.112439526616, -63132.83749018163, -187500.02235174447, 7838.801483965098, -118023.87154386897, -187500.02235174447, -39609.32518354955, 6388.173268815669, -5487.643836455803, -69819.31714049782, 211.7380752251238, -21956.900889504064, -5783.849153977532, 8517.3110386504, -0.04, 0.982, 0.258, 192.0, 0.0, 0.0, 0.0, 0.0, 0.0, 0.0, 0.0, 0.0, 0.0, 1.695418092554326E9, 0.0, 2023-09-22 16:28:12.554
92.0, 26375.55019564035, 12873.286053334004, -36720.76454410131, -63133.84331868212, -187500.02235174447, 7797.517811956145, -118120.60989387154, -187500.02235174447, -39607.492340504214, 6386.273370536968, -5516.298772847506, -69815.67380615161, 206.3513048113948, -21981.599567127178, -5799.383616373971, 8485.996244668513, -0.04, 0.982, 0.258, 192.0, 0.0, 0.0, 0.0, 0.0, 0.0, 0.0, 0.0, 0.0, 0.0, 1.695418092614552E9, 0.0, 2023-09-22 16:28:12.614
94.0, 26368.151768225645, 12864.121838107329, -36728.78882036076, -63143.14164437552, -187500.02235174447, 7861.466152842779, -118016.58487517654, -187500.02235174447, -39631.31930009357, 6363.07225979236, -5481.251237541585, -69839.05373085185, 196.1365575953195, -21948.67544754451, -5789.705311024823, 8539.998059272535, -0.04, 0.982, 0.258, 192.0, 0.0, 0.0, 0.0, 0.0, 0.0, 0.0, 0.0, 0.0, 0.0, 1.695418092614562E9, 0.0, 2023-09-22 16:28:12.614
96.0, 26387.9777655575, 12887.278245363028, -36709.3651544291, -63124.92497264445, -187500.02235174447, 7800.647056179889, -118145.50973719475, -187500.02235174447, -39600.11626483396, 6394.0070741185045, -5508.900345432799, -69802.01689028942, 212.74390372561263, -21980.45962815996, -5792.566334315102, 8510.11377693579, -0.04, 0.982, 0.258, 192.0, 0.0, 0.0, 0.0, 0.0, 0.0, 0.0, 0.0, 0.0, 0.0, 1.695418092614566E9, 0.0, 2023-09-22 16:28:12.614
98.0, 26388.76007661344, 12884.774849984033, -36714.6178143761, -63131.29521981421, -187500.02235174447, 7847.876292213952, -118066.13869263396, -187500.02235174447, -39618.958785409784, 6387.703882182108, -5493.544696992004, -69823.07223356632, 211.4475025472048, -21964.701648318965, -5784.7655755002, 8526.810530043904, -0.04, 0.974, 0.258, 192.0, 127.0, 96.0, 15.0, 56.0, 4.0, 8.0, 0.0, 0.0, 0.0, 1.69541809261457E9, 0.0, 2023-09-22 16:28:12.614
100.0, 26381.272242220908, 12877.532884780514, -36725.346651714644, -63140.39237980752, -187500.02235174447, 7786.8113263620535, -118197.32108084216, -187500.02235174447, -39604.139578835915, 6390.587257216842, -5508.118034376864, -69815.33852998479, 214.5543950264925, -21989.355622453168, -5795.069729694096, 8497.976779696559, -0.04, 0.974, 0.258, 192.0, 0.0, 0.0, 0.0, 0.0, 0.0, 0.0, 0.0, 0.0, 0.0, 1.695418092614573E9, 0.0, 2023-09-22 16:28:12.614
102.0, 26378.25475671944, 12875.45417254617, -36718.149390000035, -63146.315592088176, -187500.02235174447, 7840.321402588058, -118106.86357103153, -187500.02235174447, -39627.564207025076, 6371.051832562904, -5508.833290199434, -69834.87395463872, 201.5903832424144, -21976.369258924635, -5801.596439075046, 8502.469480332074, -0.04, 0.974, 0.258, 192.0, 0.0, 0.0, 0.0, 0.0, 0.0, 0.0, 0.0, 0.0, 0.0, 1.695418092614577E9, 0.0, 2023-09-22 16:28:12.614
104.0, 26379.75232359795, 12878.806934214466, -36716.92004405499, -63137.19608035041, -187500.02235174447, 7789.560590930056, -118236.12370921657, -187500.02235174447, -39620.41164879938, 6369.420155217666, -5495.9810371376325, -69826.49205046798, 198.95287739668817, -21978.3362124367, -5817.890860782964, 8504.928172222159, -0.04, 0.974, 0.258, 192.0, 0.0, 0.0, 0.0, 0.0, 0.0, 0.0, 0.0, 0.0, 0.0, 1.69541809261458E9, 0.0, 2023-09-22 16:28:12.614
106.0, 26390.16823651412, 12887.926445952231, -36700.08918048014, -63122.131004587536, -187500.02235174447, 7832.207719350782, -118183.35124055759, -187500.02235174447, -39608.67698296034, 6386.049853092415, -5525.060656673987, -69812.85748635024, 220.83523521843378, -21979.744372337387, -5788.565372057602, 8480.832991699337, -0.04, 0.974, 0.258, 192.0, 0.0, 0.0, 0.0, 0.0, 0.0, 0.0, 0.0, 0.0, 0.0, 1.695418092674862E9, 0.0, 2023-09-22 16:28:12.674
108.0, 26398.0807540513, 12897.113012923362, -36700.603270602616, -63107.95999860287, -187500.02235174447, 7774.607273889455, -118319.24984684585, -187500.02235174447, -39604.18428232483, 6390.9001816392165, -5497.27743831604, -69810.71171888254, 214.37558107085005, -21961.55005235077, -5802.110529197518, 8489.416061570175, -0.044, 0.98, 0.256, 192.0, 127.0, 80.0, 15.0, 80.0, 4.0, 0.0, 0.0, 0.0, 0.0, 1.695418092674874E9, 0.0, 2023-09-22 16:28:12.674
110.0, 26378.992364286467, 12876.705870235666, -36709.25339570682, -63130.26703956927, -187500.02235174447, 7821.948268645796, -118251.34524719063, -187500.02235174447, -39607.11236084847, 6396.175193330669, -5532.593194555426, -69809.68353863759, 221.14815964080807, -21970.669564088534, -5780.742261498244, 8450.792247151405, -0.044, 0.98, 0.256, 192.0, 0.0, 0.0, 0.0, 0.0, 0.0, 0.0, 0.0, 0.0, 0.0, 1.695418092674878E9, 0.0, 2023-09-22 16:28:12.674
112.0, 26389.005945802444, 12885.691271506701, -36714.68486960946, -63121.81808016516, -187500.02235174447, 7789.851163607975, -118353.96210598495, -187500.02235174447, -39619.6516894879, 6380.193696045125, -5480.8936096303005, -69822.5804951883, 197.03062737353176, -21944.00393295335, -5804.81509027661, 8503.251791388011, -0.044, 0.98, 0.256, 192.0, 0.0, 0.0, 0.0, 0.0, 0.0, 0.0, 0.0, 0.0, 0.0, 1.695418092674882E9, 0.0, 2023-09-22 16:28:12.674
114.0, 26374.96905028451, 12871.475562033125, -36714.52840739828, -63139.252440840304, -187500.02235174447, 7829.860786182975, -118301.16728558151, -187500.02235174447, -39614.22021558526, 6383.524105968965, -5533.263746889084, -69820.45707946505, 206.77598795604564, -21969.4849216324, -5790.509973825214, 8458.48124724403, -0.044, 0.98, 0.256, 192.0, 0.0, 0.0, 0.0, 0.0, 0.0, 0.0, 0.0, 0.0, 0.0, 1.695418092674885E9, 0.0, 2023-09-22 16:28:12.674
116.0, 26384.93792831158, 12886.45123081818, -36716.09302951015, -63126.735463945326, -187500.02235174447, 7798.367178245447, -118386.55094940079, -187500.02235174447, -39625.73136397974, 6380.6854344231415, -5486.079214343931, -69827.98961734648, 190.66038020376925, -21943.266325386325, -5799.763596029711, 8512.483061848052, -0.044, 0.98, 0.256, 192.0, 0.0, 0.0, 0.0, 0.0, 0.0, 0.0, 0.0, 0.0, 0.0, 1.695418092674889E9, 0.0, 2023-09-22 16:28:12.674
118.0, 26380.333468953788, 12879.589245270401, -36711.153293985524, -63137.03961813923, -187500.02235174447, 7818.796672677598, -118360.01942873234, -187500.02235174447, -39613.66142197388, 6383.613512946787, -5543.411438871794, -69815.07030905131, 210.17345311325232, -21978.82795081472, -5782.150421398928, 8447.48418897202, -0.046, 0.974, 0.256, 192.0, 127.0, 72.0, 15.0, 56.0, 4.0, 0.0, 0.0, 0.0, 0.0, 1.695418092674892E9, 0.0, 2023-09-22 16:28:12.674
120.0, 26394.75034412746, 12891.5921320429, -36717.590596388654, -63128.0989203571, -187500.02235174447, 7799.775338146132, -118434.92012440207, -187500.02235174447, -39613.90729116288, 6380.730137912052, -5481.251237541585, -69820.79235563187, 204.56316525497024, -21949.368351622627, -5785.950217956331, 8503.92234372167, -0.046, 0.974, 0.256, 192.0, 0.0, 0.0, 0.0, 0.0, 0.0, 0.0, 0.0, 0.0, 0.0, 1.695418092674896E9, 0.0, 2023-09-22 16:28:12.674
122.0, 26384.915576567124, 12882.047937160485, -36710.4156864185, -63141.46526354137, -187500.02235174447, 7809.140719072905, -118443.16791810608, -187500.02235174447, -39608.25229981569, 6380.9760071010605, -5544.707840050201, -69815.96437882954, 207.58065075643668, -21996.93286382352, -5788.274799379683, 8432.709685887061, -0.046, 0.974, 0.256, 192.0, 0.0, 0.0, 0.0, 0.0, 0.0, 0.0, 0.0, 0.0, 0.0, 1.695418092735772E9, 0.0, 2023-09-22 16:28:12.735
124.0, 26394.88445459419, 12891.659187276267, -36707.107628239115, -63124.008551121784, -187500.02235174447, 7807.5313934721225, -118488.83253202827, -187500.02235174447, -39617.19299759781, 6378.651425677708, -5475.640949683303, -69824.45804172255, 205.79251120001211, -21956.230337170404, -5784.497354566736, 8500.770747753471, -0.046, 0.974, 0.256, 192.0, 0.0, 0.0, 0.0, 0.0, 0.0, 0.0, 0.0, 0.0, 0.0, 1.695418092735782E9, 0.0, 2023-09-22 16:28:12.735
126.0, 26367.861195547724, 12863.473637518126, -36709.78983757375, -63150.0036299233, -187500.02235174447, 7806.682027182821, -118518.31448296482, -187500.02235174447, -39615.51661676367, 6374.918684353672, -5538.806979514001, -69824.99448358947, 206.6865809782244, -21997.581064412723, -5783.580933044068, 8431.368581219744, -0.046, 0.974, 0.256, 192.0, 0.0, 0.0, 0.0, 0.0, 0.0, 0.0, 0.0, 0.0, 0.0, 1.695418092735785E9, 0.0, 2023-09-22 16:28:12.735
128.0, 26397.56666392883, 12893.961416955164, -36699.50803512431, -63118.57707721914, -187500.02235174447, 7817.053236610083, -118549.89749788017, -187500.02235174447, -39619.49522727671, 6372.92937909715, -5480.200705552185, -69827.02849233491, 205.90426992228865, -21960.49952036137, -5781.971607443286, 8500.837802986838, -0.042, 0.978, 0.256, 192.0, 127.0, 88.0, 15.0, 72.0, 4.0, 0.0, 0.0, 0.0, 0.0, 1.695418092735789E9, 0.0, 2023-09-22 16:28:12.735
130.0, 26388.827131846803, 12886.048899417985, -36694.45654087741, -63124.433234266435, -187500.02235174447, 7794.947361343785, -118609.24137940901, -187500.02235174447, -39596.85291014348, 6394.297646796424, -5543.590252827436, -69804.43087869059, 219.15885438428575, -21998.989224313405, -5777.054223663119, 8424.327781716322, -0.042, 0.978, 0.256, 192.0, 0.0, 0.0, 0.0, 0.0, 0.0, 0.0, 0.0, 0.0, 0.0, 1.695418092735792E9, 0.0, 2023-09-22 16:28:12.735
132.0, 26401.74644014197, 12895.973073956142, -36694.657706577505, -63110.35163525959, -187500.02235174447, 7818.014361621662, -118603.3405188728, -187500.02235174447, -39611.94033765082, 6382.205353046103, -5482.100603830887, -69819.47360270901, 209.92758392424392, -21952.20702316845, -5780.205819631317, 8491.003035426502, -0.042, 0.978, 0.256, 192.0, 0.0, 0.0, 0.0, 0.0, 0.0, 0.0, 0.0, 0.0, 0.0, 1.695418092735796E9, 0.0, 2023-09-22 16:28:12.735
134.0, 26385.608480645238, 12878.270492347538, -36701.00560200281, -63128.68006571294, -187500.02235174447, 7788.77827987412, -118687.76305768051, -187500.02235174447, -39603.17845382434, 6386.899219381717, -5535.677735290258, -69808.99063455948, 210.84400544691152, -21993.937730066507, -5787.604247046023, 8426.607659650763, -0.042, 0.978, 0.256, 192.0, 0.0, 0.0, 0.0, 0.0, 0.0, 0.0, 0.0, 0.0, 0.0, 1.6954180927358E9, 0.0, 2023-09-22 16:28:12.735
136.0, 26404.451001221063, 12901.672768792245, -36693.09308446563, -63105.88128636853, -187500.02235174447, 7829.3690478049575, -118655.59889740932, -187500.02235174447, -39616.254224330696, 6379.523143711465, -5487.912057389267, -69820.94881784306, 206.86539493386687, -21943.15456666405, -5783.893857466443, 8486.53268653544, -0.042, 0.978, 0.256, 192.0, 0.0, 0.0, 0.0, 0.0, 0.0, 0.0, 0.0, 0.0, 0.0, 1.695418092794657E9, 0.0, 2023-09-22 16:28:12.794
138.0, 26388.76007661344, 12885.31129185096, -36699.910366524506, -63122.53333598773, -187500.02235174447, 7796.601390433478, -118760.96502077163, -187500.02235174447, -39589.63329668442, 6410.122681870781, -5528.9051567203, -69790.46103840602, 220.49995905160418, -21972.122427478127, -5778.417680074893, 8433.044962053891, -0.042, 0.978, 0.254, 192.0, 127.0, 88.0, 15.0, 72.0, 3.5, 120.0, 0.0, 0.0, 0.0, 1.695418092794669E9, 0.0, 2023-09-22 16:28:12.794
140.0, 26399.04187906288, 12892.150925654285, -36701.989078758845, -63117.39243476301, -187500.02235174447, 7847.2727951136585, -118709.75717422452, -187500.02235174447, -39621.37277381096, 6373.219951775069, -5482.346473019895, -69822.42403297711, 199.19874658569654, -21936.516098560824, -5783.111546410507, 8493.461727316586, -0.042, 0.978, 0.254, 192.0, 0.0, 0.0, 0.0, 0.0, 0.0, 0.0, 0.0, 0.0, 0.0, 1.695418092794673E9, 0.0, 2023-09-22 16:28:12.794
142.0, 26396.51613193943, 12889.31225410846, -36704.29130843774, -63121.03576910923, -187500.02235174447, 7793.807422376564, -118841.40894906629, -187500.02235174447, -39611.761523695175, 6381.758318156996, -5517.416360070272, -69812.29869273886, 201.09864486439764, -21971.362468166648, -5789.101813924529, 8448.691183172607, -0.042, 0.978, 0.254, 192.0, 0.0, 0.0, 0.0, 0.0, 0.0, 0.0, 0.0, 0.0, 0.0, 1.695418092794676E9, 0.0, 2023-09-22 16:28:12.794
144.0, 26397.0302220619, 12891.994463443098, -36701.67615433647, -63125.550821489196, -187500.02235174447, 7838.756780476187, -118780.94748031467, -187500.02235174447, -39606.12888409244, 6391.526030483965, -5507.358075065384, -69806.86721883623, 215.82844446044498, -21948.78720626679, -5765.073688635074, 8468.807753182382, -0.042, 0.978, 0.254, 192.0, 0.0, 0.0, 0.0, 0.0, 0.0, 0.0, 0.0, 0.0, 0.0, 1.69541809279468E9, 0.0, 2023-09-22 16:28:12.794
146.0, 26394.973861572013, 12890.318082608948, -36706.0123927608, -63126.13196684504, -187500.02235174447, 7788.979445574218, -118915.70614763572, -187500.02235174447, -39606.17358758135, 6388.150917071213, -5514.532985035537, -69805.07907927979, 204.49611002160432, -21973.44118040099, -5787.090156923551, 8451.351040762787, -0.042, 0.978, 0.254, 192.0, 0.0, 0.0, 0.0, 0.0, 0.0, 0.0, 0.0, 0.0, 0.0, 1.695418092794683E9, 0.0, 2023-09-22 16:28:12.794
148.0, 26392.60457665975, 12890.251027375583, -36707.59936661713, -63128.07656861265, -187500.02235174447, 7840.723733988254, -118853.34478060542, -187500.02235174447, -39622.55741626709, 6376.4609547210885, -5502.66420872977, -69825.64268417867, 205.27842107754006, -21950.57534582321, -5777.635369018957, 8473.836895684826, -0.038, 0.974, 0.254, 192.0, 127.0, 104.0, 15.0, 56.0, 3.5, 120.0, 0.0, 0.0, 0.0, 1.695418092794686E9, 0.0, 2023-09-22 16:28:12.794
150.0, 26385.250852733952, 12885.937140695709, -36713.58963413115, -63130.6023157361, -187500.02235174447, 7786.408994961857, -119002.52032310014, -187500.02235174447, -39607.157064337385, 6393.805908418407, -5506.329894820439, -69806.55429441384, 209.70406647969085, -21962.667639573534, -5784.407947588915, 8459.017689110959, -0.038, 0.974, 0.254, 192.0, 0.0, 0.0, 0.0, 0.0, 0.0, 0.0, 0.0, 0.0, 0.0, 1.69541809279469E9, 0.0, 2023-09-22 16:28:12.794
152.0, 26385.764942856425, 12881.98088192712, -36708.40402941752, -63130.62466748055, -187500.02235174447, 7850.2008736373045, -118932.53701121057, -187500.02235174447, -39623.786762212134, 6371.342405240823, -5502.016008140566, -69823.45221322206, 201.34451405340602, -21957.794959282277, -5779.132935897463, 8475.15564860769, -0.038, 0.974, 0.254, 192.0, 0.0, 0.0, 0.0, 0.0, 0.0, 0.0, 0.0, 0.0, 0.0, 1.695418092854349E9, 0.0, 2023-09-22 16:28:12.854
154.0, 26383.350954455254, 12882.562027282958, -36712.53910214175, -63128.18832733492, -187500.02235174447, 7811.822928407541, -119060.76896915067, -187500.02235174447, -39619.0034888987, 6379.769012900474, -5478.65843518477, -69819.27243700891, 198.34938029639488, -21953.90575574705, -5790.778194758677, 8496.076881417857, -0.038, 0.974, 0.254, 192.0, 0.0, 0.0, 0.0, 0.0, 0.0, 0.0, 0.0, 0.0, 0.0, 1.695418092854359E9, 0.0, 2023-09-22 16:28:12.854
156.0, 26388.31304172433, 12886.875913962831, -36699.84331129114, -63131.40697853649, -187500.02235174447, 7854.7829812506425, -118997.96056723126, -187500.02235174447, -39625.351384324, 6371.565922685376, -5504.8993831753, -69826.93908535708, 203.60204024339203, -21967.383857653604, -5781.658683020912, 8482.732889978039, -0.038, 0.974, 0.254, 192.0, 0.0, 0.0, 0.0, 0.0, 0.0, 0.0, 0.0, 0.0, 0.0, 1.695418092854363E9, 0.0, 2023-09-22 16:28:12.854
158.0, 26391.308175481343, 12889.759288997566, -36705.498302638334, -63128.99299013532, -187500.02235174447, 7813.856937152975, -119113.83201048756, -187500.02235174447, -39613.102628362496, 6382.272408279468, -5476.155039805775, -69815.20441951805, 208.31825832346183, -21961.997087239874, -5789.839421491554, 8505.978704211559, -0.042, 0.982, 0.254, 192.0, 127.0, 88.0, 15.0, 88.0, 3.5, 120.0, 0.0, 0.0, 0.0, 1.695418092854367E9, 0.0, 2023-09-22 16:28:12.854
160.0, 26379.50645440894, 12879.186913870206, -36704.26895669329, -63138.693647228916, -187500.02235174447, 7858.918053974874, -119048.0508265556, -187500.02235174447, -39623.80911395659, 6367.743774383518, -5509.4814907886375, -69824.86037312275, 205.94897341119926, -21979.87848280412, -5786.486659823258, 8482.308206833388, -0.042, 0.982, 0.254, 192.0, 0.0, 0.0, 0.0, 0.0, 0.0, 0.0, 0.0, 0.0, 0.0, 1.69541809285437E9, 0.0, 2023-09-22 16:28:12.854
162.0, 26413.928140870114, 12919.285943423027, -36686.54402334023, -63098.080527553626, -187500.02235174447, 7810.727692929232, -119168.37026695852, -187500.02235174447, -39614.779009196645, 6385.69222518113, -5476.758536906068, -69814.22094276201, 209.79347345751208, -21957.370276137626, -5793.795680260144, 8514.651181060217, -0.042, 0.982, 0.254, 192.0, 0.0, 0.0, 0.0, 0.0, 0.0, 0.0, 0.0, 0.0, 0.0, 1.695418092854378E9, 0.0, 2023-09-22 16:28:12.854
164.0, 26399.89124535218, 12901.225733903138, -36686.54402334023, -63115.0455015952, -187500.02235174447, 7824.675181469343, -119153.03697026217, -187500.02235174447, -39592.6954856748, 6402.79130968944, -5539.924566736766, -69792.78561982937, 236.23558714814035, -21980.861959560152, -5764.537246768146, 8441.918604602648, -0.042, 0.982, 0.254, 192.0, 0.0, 0.0, 0.0, 0.0, 0.0, 0.0, 0.0, 0.0, 0.0, 1.695418092854381E9, 0.0, 2023-09-22 16:28:12.854
166.0, 26397.968995329025, 12899.258780391072, -36700.960898513906, -63114.397301006, -187500.02235174447, 7799.998855590685, -119229.94932293288, -187500.02235174447, -39612.23091032874, 6379.321978011368, -5482.167659064253, -69811.69519563856, 214.33087758193943, -21946.976714965906, -5790.085290680563, 8494.713425006083, -0.042, 0.982, 0.254, 192.0, 0.0, 0.0, 0.0, 0.0, 0.0, 0.0, 0.0, 0.0, 0.0, 1.695418092915106E9, 0.0, 2023-09-22 16:28:12.915
168.0, 26377.27127996341, 12878.248140603084, -36705.18537821596, -63134.93855416043, -187500.02235174447, 7819.981315133729, -119200.13209582951, -187500.02235174447, -39616.81301794208, 6373.287007008435, -5537.197653913218, -69820.8370591208, 210.86635719136683, -21975.475189146422, -5789.14651741344, 8439.839892368305, -0.046, 0.986, 0.254, 192.0, 127.0, 72.0, 15.0, 104.0, 3.5, 120.0, 0.0, 0.0, 0.0, 1.695418092915117E9, 0.0, 2023-09-22 16:28:12.915
170.0, 26397.65607090665, 12897.6941582792, -36707.4652561504, -63115.425481250946, -187500.02235174447, 7806.749082416187, -119246.51196557427, -187500.02235174447, -39627.02776515815, 6367.855533105795, -5478.792545651501, -69829.28601852489, 200.9198309087552, -21942.372255608112, -5796.567296572602, 8502.670646032173, -0.046, 0.986, 0.254, 192.0, 0.0, 0.0, 0.0, 0.0, 0.0, 0.0, 0.0, 0.0, 0.0, 1.69541809291512E9, 0.0, 2023-09-22 16:28:12.915
172.0, 26380.75815209844, 12880.572722026434, -36708.80636081772, -63136.5031762723, -187500.02235174447, 7800.378835246424, -119258.91718374696, -187500.02235174447, -39615.538968508125, 6391.481326995055, -5553.089744220942, -69816.70198639655, 210.26286009107355, -21983.812389828254, -5785.614941789501, 8423.47841542702, -0.046, 0.986, 0.254, 192.0, 0.0, 0.0, 0.0, 0.0, 0.0, 0.0, 0.0, 0.0, 0.0, 1.695418092915123E9, 0.0, 2023-09-22 16:28:12.915
174.0, 26390.41410570313, 12890.608655286867, -36712.09206725265, -63128.07656861265, -187500.02235174447, 7801.854050380475, -119291.662489374, -187500.02235174447, -39623.04915464511, 6372.370585485767, -5493.522345247548, -69825.77679464541, 202.4844530206267, -21950.173014423017, -5791.158174414418, 8486.689148746627, -0.046, 0.986, 0.254, 192.0, 0.0, 0.0, 0.0, 0.0, 0.0, 0.0, 0.0, 0.0, 0.0, 1.695418092915127E9, 0.0, 2023-09-22 16:28:12.915
176.0, 26377.45009391905, 12874.761268468055, -36716.98709928836, -63144.16982462047, -187500.02235174447, 7796.735500900209, -119316.94231235294, -187500.02235174447, -39629.82173321507, 6373.555227941898, -5544.752543539113, -69831.81176564834, 194.21430757216308, -21984.035907272806, -5796.3437791280485, 8429.848662596782, -0.046, 0.986, 0.254, 192.0, 0.0, 0.0, 0.0, 0.0, 0.0, 0.0, 0.0, 0.0, 0.0, 1.69541809291513E9, 0.0, 2023-09-22 16:28:12.915
178.0, 26376.55602414084, 12871.386155055305, -36725.972500559394, -63145.22035660987, -187500.02235174447, 7826.552728003589, -119294.27764347526, -187500.02235174447, -39643.94803571082, 6356.523198666954, -5483.017025353554, -69845.64749546618, 189.49808949209327, -21940.09237767367, -5791.046415692141, 8502.201259398611, -0.038, 0.982, 0.26, 192.0, 127.0, 104.0, 15.0, 88.0, 4.0, 16.0, 0.0, 0.0, 0.0, 1.695418092915133E9, 0.0, 2023-09-22 16:28:12.915
180.0, 26372.30919269433, 12865.082963118908, -36721.45744817942, -63148.97544967836, -187500.02235174447, 7812.135852829916, -119340.03166437527, -187500.02235174447, -39650.38533811395, 6349.057716018881, -5529.955688709699, -69849.24612632349, 180.15506030977494, -21984.48294216191, -5805.48564261027, 8457.810694910371, -0.038, 0.982, 0.26, 192.0, 0.0, 0.0, 0.0, 0.0, 0.0, 0.0, 0.0, 0.0, 0.0, 1.695418092915136E9, 0.0, 2023-09-22 16:28:12.915
182.0, 26388.469503935517, 12882.003233671574, -36715.84716032114, -63135.94438266091, -187500.02235174447, 7841.908376444385, -119319.98214959886, -187500.02235174447, -39638.15893389689, 6357.841951589818, -5489.789603923512, -69837.84673665128, 198.84111867441163, -21955.224508669915, -5781.14459289844, 8509.867907746782, -0.038, 0.982, 0.26, 192.0, 0.0, 0.0, 0.0, 0.0, 0.0, 0.0, 0.0, 0.0, 0.0, 1.695418092974856E9, 0.0, 2023-09-22 16:28:12.974
184.0, 26393.677460393606, 12885.579512784423, -36695.015334488795, -63129.08239711314, -187500.02235174447, 7794.455622965768, -119410.01497626484, -187500.02235174447, -39625.70901223529, 6367.140277283225, -5535.454217845705, -69830.04597783637, 197.72353145164627, -21985.466418917946, -5790.554677314124, 8455.1955408091, -0.038, 0.982, 0.26, 192.0, 0.0, 0.0, 0.0, 0.0, 0.0, 0.0, 0.0, 0.0, 0.0, 1.695418092974866E9, 0.0, 2023-09-22 16:28:12.974
186.0, 26388.089524279778, 12879.119858636841, -36704.29130843774, -63133.46333902638, -187500.02235174447, 7839.717905487765, -119340.61280973112, -187500.02235174447, -39633.308605350096, 6354.556245154888, -5495.578705737437, -69835.90213488367, 204.18318559923003, -21949.323648133715, -5763.218493845284, 8498.915552963681, -0.038, 0.982, 0.26, 192.0, 0.0, 0.0, 0.0, 0.0, 0.0, 0.0, 0.0, 0.0, 0.0, 1.69541809297487E9, 0.0, 2023-09-22 16:28:12.974
188.0, 26403.55693144285, 12895.50368732258, -36678.787968014236, -63111.893905627, -187500.02235174447, 7780.463430936746, -119463.12272109065, -187500.02235174447, -39607.46998875976, 6382.808850146395, -5531.1403311658305, -69808.09656478126, 217.1024938943975, -21989.601491642177, -5767.845304947532, 8447.350078505287, -0.04, 0.978, 0.262, 192.0, 127.0, 96.0, 15.0, 72.0, 4.0, 24.0, 0.0, 0.0, 0.0, 1.695418092974874E9, 0.0, 2023-09-22 16:28:12.974
190.0, 26403.042841320377, 12892.106222165374, -36689.44975011942, -63116.386606262524, -187500.02235174447, 7831.492463528212, -119389.11609519913, -187500.02235174447, -39626.64778550241, 6367.252036005501, -5495.578705737437, -69826.42499523461, 209.1676246127635, -21948.094302188674, -5753.964871640786, 8480.453012043597, -0.04, 0.978, 0.262, 192.0, 0.0, 0.0, 0.0, 0.0, 0.0, 0.0, 0.0, 0.0, 0.0, 1.695418092974877E9, 0.0, 2023-09-22 16:28:12.974
192.0, 26405.36742274373, 12895.056652433474, -36686.02993321776, -63113.12325157205, -187500.02235174447, 7780.418727447835, -119508.38500361265, -187500.02235174447, -39616.097762119505, 6375.231608776046, -5511.1802233672415, -69809.23650374849, 202.30563906498423, -21969.328459421213, -5772.829743961066, 8452.62509019674, -0.04, 0.978, 0.262, 192.0, 0.0, 0.0, 0.0, 0.0, 0.0, 0.0, 0.0, 0.0, 0.0, 1.69541809297489E9, 0.0, 2023-09-22 16:28:12.974
194.0, 26401.209998275044, 12890.206323886672, -36699.82095954668, -63125.43906276692, -187500.02235174447, 7836.186329863826, -119418.39688043558, -187500.02235174447, -39627.22893085825, 6372.392937230223, -5495.355188292884, -69819.22773352, 200.9198309087552, -21955.135101692093, -5766.884179935954, 8472.96517765107, -0.04, 0.978, 0.262, 192.0, 0.0, 0.0, 0.0, 0.0, 0.0, 0.0, 0.0, 0.0, 0.0, 1.695418092974893E9, 0.0, 2023-09-22 16:28:12.974
196.0, 26415.068079837332, 12909.07119620695, -36681.82780526016, -63101.92502759994, -187500.02235174447, 7772.103878510461, -119554.20607974603, -187500.02235174447, -39608.632279471436, 6392.688321195641, -5501.300752317996, -69797.32302395381, 207.9829821566322, -21973.86586354564, -5778.417680074893, 8448.177093050133, -0.04, 0.978, 0.262, 192.0, 0.0, 0.0, 0.0, 0.0, 0.0, 0.0, 0.0, 0.0, 0.0, 1.695418093035113E9, 0.0, 2023-09-22 16:28:13.035
198.0, 26400.94177734158, 12895.727204767134, -36694.233023432855, -63121.32634178714, -187500.02235174447, 7827.580908248533, -119457.80300591029, -187500.02235174447, -39625.194922112816, 6379.657254178197, -5499.691426717213, -69809.79529735986, 205.4125315442719, -21956.900889504064, -5760.871560677477, 8445.561938948864, -0.046, 0.978, 0.264, 192.0, 127.0, 72.0, 15.0, 72.0, 4.0, 32.0, 0.0, 0.0, 0.0, 1.695418093035128E9, 0.0, 2023-09-22 16:28:13.035
200.0, 26398.885416851692, 12898.141193168307, -36708.225215461876, -63121.86278365407, -187500.02235174447, 7786.945436828785, -119553.22260298999, -187500.02235174447, -39630.492285548724, 6378.092632066326, -5478.70313867368, -69809.66118689314, 188.73813018061284, -21956.72207554842, -5788.073633679585, 8453.72032567505, -0.046, 0.978, 0.264, 192.0, 0.0, 0.0, 0.0, 0.0, 0.0, 0.0, 0.0, 0.0, 0.0, 1.695418093035131E9, 0.0, 2023-09-22 16:28:13.035
202.0, 26394.32566098281, 12894.319044866448, -36714.26018646481, -63136.25730708329, -187500.02235174447, 7833.9511554182955, -119456.52895647634, -187500.02235174447, -39632.861570460984, 6378.629073933253, -5495.176374337241, -69813.975073573, 194.10254884988655, -21966.24391868638, -5774.729642239767, 8437.135331289212, -0.046, 0.978, 0.264, 192.0, 0.0, 0.0, 0.0, 0.0, 0.0, 0.0, 0.0, 0.0, 0.0, 1.695418093035135E9, 0.0, 2023-09-22 16:28:13.035
204.0, 26396.56083542834, 12898.141193168307, -36716.76358184381, -63122.53333598773, -187500.02235174447, 7795.4390997218015, -119547.88053606517, -187500.02235174447, -39637.980119941254, 6377.243265777024, -5465.806182122968, -69815.69615789606, 177.2716852750403, -21964.321668663226, -5797.349607628537, 8459.554130977886, -0.046, 0.978, 0.264, 192.0, 0.0, 0.0, 0.0, 0.0, 0.0, 0.0, 0.0, 0.0, 0.0, 1.695418093035138E9, 0.0, 2023-09-22 16:28:13.035
206.0, 26390.503512680953, 12891.055690175974, -36708.38167767307, -63127.361312790075, -187500.02235174447, 7847.161036391382, -119451.81273839627, -187500.02235174447, -39651.122945680974, 6368.1237540392585, -5492.94119989171, -69823.29575101087, 178.03164458652074, -21965.618069841632, -5782.105717910018, 8441.896252858192, -0.046, 0.978, 0.264, 192.0, 0.0, 0.0, 0.0, 0.0, 0.0, 0.0, 0.0, 0.0, 0.0, 1.695418093035142E9, 0.0, 2023-09-22 16:28:13.035
208.0, 26412.877608880714, 12916.60373408839, -36692.131959454055, -63101.67915841093, -187500.02235174447, 7802.479899225224, -119555.25661173543, -187500.02235174447, -39630.782858226645, 6382.652387935208, -5459.123010530831, -69803.46975367902, 191.68856044871336, -21952.92227899102, -5778.2612178637055, 8473.747488707006, -0.04, 0.984, 0.258, 192.0, 127.0, 96.0, 15.0, 96.0, 4.0, 8.0, 0.0, 0.0, 0.0, 1.695418093035145E9, 0.0, 2023-09-22 16:28:13.035
210.0, 26396.046745305866, 12900.331664124926, -36687.0581134627, -63118.04063535221, -187500.02235174447, 7839.807312465587, -119481.58526201073, -187500.02235174447, -39624.054983145594, 6388.26267579349, -5505.32406631995, -69800.56402689982, 209.81582520196739, -21972.904738534064, -5754.456610018803, 8422.539642159896, -0.04, 0.984, 0.258, 192.0, 0.0, 0.0, 0.0, 0.0, 0.0, 0.0, 0.0, 0.0, 0.0, 1.695418093035148E9, 0.0, 2023-09-22 16:28:13.035
212.0, 26426.266303809443, 12929.098359238908, -36676.150462168516, -63086.54702741469, -187500.02235174447, 7798.478936967724, -119564.55493742884, -187500.02235174447, -39630.96167218228, 6388.888524638239, -5454.8314755954125, -69802.88860832318, 197.27649656254013, -21943.40043585306, -5770.058127648607, 8473.993357896014, -0.04, 0.984, 0.258, 192.0, 0.0, 0.0, 0.0, 0.0, 0.0, 0.0, 0.0, 0.0, 0.0, 1.695418093095394E9, 0.0, 2023-09-22 16:28:13.095
214.0, 26409.167219301133, 12904.332626382426, -36681.13490118205, -63120.029940608736, -187500.02235174447, 7823.110559357472, -119512.07304144777, -187500.02235174447, -39613.102628362496, 6391.950713628616, -5517.125787392353, -69794.84198031927, 216.20842411618523, -21982.158360738562, -5752.959043140298, 8399.942028515581, -0.04, 0.984, 0.258, 192.0, 0.0, 0.0, 0.0, 0.0, 0.0, 0.0, 0.0, 0.0, 0.0, 1.695418093095405E9, 0.0, 2023-09-22 16:28:13.095
216.0, 26409.055460578857, 12904.757309527078, -36701.74320956984, -63122.06394935417, -187500.02235174447, 7837.370972319958, -119516.92336999458, -187500.02235174447, -39637.37662284096, 6363.273425492457, -5439.609937621348, -69820.2335620205, 188.80518541397876, -21935.44321482697, -5770.840438704543, 8478.486058531531, -0.04, 0.984, 0.258, 192.0, 0.0, 0.0, 0.0, 0.0, 0.0, 0.0, 0.0, 0.0, 0.0, 1.695418093095408E9, 0.0, 2023-09-22 16:28:13.095
218.0, 26421.326568284818, 12917.363693399871, -36685.69465705093, -63117.861821396575, -187500.02235174447, 7854.626519039455, -119476.57847125274, -187500.02235174447, -39630.4028785709, 6374.516352953477, -5487.532077733526, -69810.46584969353, 193.409644771772, -21967.20504369796, -5771.9803776717645, 8437.314145244854, -0.04, 0.98, 0.254, 192.0, 127.0, 96.0, 15.0, 80.0, 3.5, 120.0, 0.0, 0.0, 0.0, 1.695418093095412E9, 0.0, 2023-09-22 16:28:13.095
220.0, 26449.713283743058, 12949.438446693237, -36682.47600584936, -63093.09608854009, -187500.02235174447, 7853.486580072235, -119491.7553057379, -187500.02235174447, -39614.37667779645, 6384.462879236088, -5427.338829915385, -69795.78075358638, 205.9936769001099, -21929.184726379484, -5764.537246768146, 8503.743529766027, -0.04, 0.98, 0.254, 192.0, 0.0, 0.0, 0.0, 0.0, 0.0, 0.0, 0.0, 0.0, 0.0, 1.695418093095415E9, 0.0, 2023-09-22 16:28:13.095
222.0, 26438.26919058194, 12939.626030877356, -36682.05132270471, -63110.46339398187, -187500.02235174447, 7848.748010247709, -119493.87872146115, -187500.02235174447, -39593.76836940865, 6409.876812681772, -5491.42128126875, -69774.45718937603, 219.49413055111535, -21967.54031986479, -5756.445915275325, 8432.016781808947, -0.04, 0.98, 0.254, 192.0, 0.0, 0.0, 0.0, 0.0, 0.0, 0.0, 0.0, 0.0, 0.0, 1.695418093095418E9, 0.0, 2023-09-22 16:28:13.095
224.0, 26440.169088860643, 12939.17899598825, -36696.199976944925, -63109.65873118147, -187500.02235174447, 7865.444763355824, -119476.37730555264, -187500.02235174447, -39623.54089302312, 6389.424966505167, -5411.580850074393, -69804.69909962405, 194.70604595017983, -21913.359691305126, -5771.265121849194, 8517.936887495147, -0.04, 0.98, 0.254, 192.0, 0.0, 0.0, 0.0, 0.0, 0.0, 0.0, 0.0, 0.0, 0.0, 1.695418093095422E9, 0.0, 2023-09-22 16:28:13.095
226.0, 26410.12834431271, 12901.963341470164, -36711.19799747443, -63146.13677813254, -187500.02235174447, 7833.928803673841, -119504.18287565505, -187500.02235174447, -39614.37667779645, 6393.582390973854, -5488.783775423023, -69802.48627692298, 200.56220299747028, -21974.044677501282, -5777.635369018957, 8437.381200478221, -0.04, 0.98, 0.254, 192.0, 0.0, 0.0, 0.0, 0.0, 0.0, 0.0, 0.0, 0.0, 0.0, 1.695418093154219E9, 0.0, 2023-09-22 16:28:13.154
228.0, 26418.487896738996, 12908.199478173194, -36720.20575048992, -63136.458472783386, -187500.02235174447, 7848.569196292066, -119470.34233454971, -187500.02235174447, -39644.43977408884, 6353.125733509748, -5438.447646909672, -69838.89726864068, 178.7692521535459, -21949.301296389258, -5790.62173254749, 8503.341198365832, -0.038, 0.978, 0.258, 192.0, 127.0, 104.0, 15.0, 72.0, 4.0, 8.0, 0.0, 0.0, 0.0, 1.69541809315423E9, 0.0, 2023-09-22 16:28:13.154
230.0, 26421.41597526264, 12914.726187554144, -36696.40114264502, -63124.72380694435, -187500.02235174447, 7809.4089400063685, -119540.32564643928, -187500.02235174447, -39621.41747729987, 6376.528009954454, -5505.5475837645035, -69810.48820143798, 197.58942098491443, -21995.323538222736, -5782.597456288035, 8428.351095718277, -0.038, 0.978, 0.258, 192.0, 0.0, 0.0, 0.0, 0.0, 0.0, 0.0, 0.0, 0.0, 0.0, 1.695418093154234E9, 0.0, 2023-09-22 16:28:13.154
232.0, 26404.830980876803, 12898.498821079591, -36714.88603530956, -63135.4526442829, -187500.02235174447, 7854.917091717374, -119464.1956048245, -187500.02235174447, -39640.908198464895, 6363.675756892652, -5456.552559918471, -69828.92839061361, 191.152118581786, -21956.498558103867, -5768.292339836638, 8483.716366734072, -0.038, 0.978, 0.258, 192.0, 0.0, 0.0, 0.0, 0.0, 0.0, 0.0, 0.0, 0.0, 0.0, 1.695418093154237E9, 0.0, 2023-09-22 16:28:13.154
234.0, 26412.94466411408, 12905.651379305289, -36697.92106126798, -63119.471146997355, -187500.02235174447, 7811.264134796159, -119544.30425695232, -187500.02235174447, -39640.30470136461, 6355.7408876110185, -5496.629237726836, -69827.76609990193, 182.5690487109481, -21995.189427756006, -5790.934656969865, 8440.778665635427, -0.038, 0.978, 0.258, 192.0, 0.0, 0.0, 0.0, 0.0, 0.0, 0.0, 0.0, 0.0, 0.0, 1.69541809315424E9, 0.0, 2023-09-22 16:28:13.154
236.0, 26425.439289264596, 12915.955533499186, -36691.707276309404, -63110.35163525959, -187500.02235174447, 7847.719830002765, -119490.88358770414, -187500.02235174447, -39625.86547444647, 6380.081937322848, -5475.46213572766, -69817.59605617476, 209.2346798461294, -21970.088418732696, -5756.915301908887, 8467.936035148625, -0.038, 0.978, 0.258, 192.0, 0.0, 0.0, 0.0, 0.0, 0.0, 0.0, 0.0, 0.0, 0.0, 1.695418093154243E9, 0.0, 2023-09-22 16:28:13.154
238.0, 26412.74349841398, 12905.830193260932, -36699.619793846585, -63124.65675171099, -187500.02235174447, 7801.004684091174, -119584.15741731614, -187500.02235174447, -39623.36207906748, 6381.244228034524, -5501.814842440467, -69807.8283438478, 198.7740634410457, -21995.859980089663, -5774.796697473133, 8424.752464860972, -0.04, 0.976, 0.256, 192.0, 127.0, 96.0, 15.0, 64.0, 4.0, 0.0, 0.0, 0.0, 0.0, 1.695418093154246E9, 0.0, 2023-09-22 16:28:13.154
240.0, 26402.729916898003, 12894.78843150001, -36712.18147423047, -63140.52649027426, -187500.02235174447, 7872.776135537164, -119458.07122684375, -187500.02235174447, -39654.29689339363, 6356.232625989035, -5462.833400110412, -69838.53964072939, 183.99956035608773, -21960.85714827265, -5771.779211971666, 8475.91560791917, -0.04, 0.976, 0.256, 192.0, 0.0, 0.0, 0.0, 0.0, 0.0, 0.0, 0.0, 0.0, 0.0, 1.695418093154249E9, 0.0, 2023-09-22 16:28:13.154
242.0, 26437.866859181748, 12933.389894174326, -36678.989133714334, -63102.32735900013, -187500.02235174447, 7799.015378834651, -119588.15837957364, -187500.02235174447, -39627.09482039152, 6373.398765730712, -5483.195839309196, -69809.7729456154, 194.281362805529, -21982.69480260549, -5775.377842828971, 8450.546377962397, -0.04, 0.976, 0.256, 192.0, 0.0, 0.0, 0.0, 0.0, 0.0, 0.0, 0.0, 0.0, 0.0, 1.695418093214591E9, 0.0, 2023-09-22 16:28:13.214
244.0, 26432.167164345643, 12924.94093477022, -36688.242755918836, -63116.386606262524, -187500.02235174447, 7846.110504401983, -119504.92048322207, -187500.02235174447, -39616.03070688614, 6384.954617614105, -5489.2308103121295, -69800.09464026627, 218.3541915838947, -21965.483959374902, -5736.105827820997, 8437.202386522578, -0.04, 0.976, 0.256, 192.0, 0.0, 0.0, 0.0, 0.0, 0.0, 0.0, 0.0, 0.0, 0.0, 1.695418093214605E9, 0.0, 2023-09-22 16:28:13.214
246.0, 26432.61419923475, 12929.344228427915, -36697.094046723134, -63114.240838794816, -187500.02235174447, 7787.593637417989, -119623.69765325758, -187500.02235174447, -39628.32416633656, 6373.711690153085, -5479.75367066308, -69810.46584969353, 197.1870895847189, -21970.647212344076, -5772.606226516513, 8435.10132254378, -0.04, 0.976, 0.256, 192.0, 0.0, 0.0, 0.0, 0.0, 0.0, 0.0, 0.0, 0.0, 0.0, 1.695418093214609E9, 0.0, 2023-09-22 16:28:13.214
248.0, 26423.360577030253, 12919.084777722928, -36702.95020377042, -63131.18346109193, -187500.02235174447, 7847.675126513855, -119520.99138748544, -187500.02235174447, -39633.39801232791, 6377.757355899496, -5488.068519600453, -69808.16362001463, 203.13265360983058, -21969.30610767676, -5755.462438519292, 8430.206290508067, -0.04, 0.976, 0.26, 192.0, 127.0, 96.0, 15.0, 64.0, 4.0, 16.0, 0.0, 0.0, 0.0, 1.695418093214612E9, 0.0, 2023-09-22 16:28:13.214
250.0, 26411.447097235574, 12906.523097339046, -36722.351517957635, -63139.96769666287, -187500.02235174447, 7815.555669731578, -119600.78711519089, -187500.02235174447, -39643.74687001072, 6366.4026697162, -5459.950025075677, -69821.59701843227, 178.27751377552914, -21959.851319772162, -5786.173735400884, 8457.028383854435, -0.04, 0.976, 0.26, 192.0, 0.0, 0.0, 0.0, 0.0, 0.0, 0.0, 0.0, 0.0, 0.0, 1.695418093214616E9, 0.0, 2023-09-22 16:28:13.214
252.0, 26413.950492614567, 12903.885591493321, -36714.863683565105, -63139.051275140206, -187500.02235174447, 7871.2785686586585, -119487.17319812455, -187500.02235174447, -39657.98493122875, 6353.461009676577, -5472.668167670747, -69834.89630638318, 173.51659220654872, -21960.745389550375, -5783.782098744166, 8456.201369309589, -0.04, 0.976, 0.26, 192.0, 0.0, 0.0, 0.0, 0.0, 0.0, 0.0, 0.0, 0.0, 0.0, 1.69541809321462E9, 0.0, 2023-09-22 16:28:13.214
254.0, 26442.42661505063, 12934.887461052831, -36690.50028210882, -63102.01443457776, -187500.02235174447, 7804.089224826005, -119608.90079842816, -187500.02235174447, -39622.602119756004, 6385.155783314202, -5456.373745962828, -69799.80406758834, 195.19778432819658, -21959.896023261073, -5778.305921352616, 8467.667814215161, -0.04, 0.976, 0.26, 192.0, 0.0, 0.0, 0.0, 0.0, 0.0, 0.0, 0.0, 0.0, 0.0, 1.695418093214623E9, 0.0, 2023-09-22 16:28:13.214
0.0, 26419.650187450672, 12910.993446230108, -36701.296174680734, -63127.361312790075, -187500.02235174447, 7846.065800913072, -119524.63472183165, -187500.02235174447, -39631.16283788238, 6392.21893456208, -5495.42224352625, -69806.8225153473, 198.17056634075243, -21967.853244287166, -5760.022194388175, 8421.757331103961, -0.04, 0.976, 0.26, 192.0, 0.0, 0.0, 0.0, 0.0, 0.0, 0.0, 0.0, 0.0, 0.0, 1.695418093274918E9, 0.0, 2023-09-22 16:28:13.274
2.0, 26440.169088860643, 12932.31701044047, -36696.892881023035, -63102.3944142335, -187500.02235174447, 7812.8734603969415, -119610.21955135102, -187500.02235174447, -39637.71189900779, 6371.655329663197, -5448.014193536544, -69812.00812006094, 185.8324034014229, -21947.088473688185, -5773.254427105717, 8469.321843304855, -0.048, 0.972, 0.25, 192.0, 127.0, 64.0, 15.0, 48.0, 3.5, 104.0, 0.0, 0.0, 0.0, 1.695418093274928E9, 0.0, 2023-09-22 16:28:13.274
4.0, 26432.234219579008, 12924.650362092301, -36692.89191876554, -63113.167955060955, -187500.02235174447, 7841.349582833002, -119558.98935305946, -187500.02235174447, -39625.86547444647, 6383.010015846493, -5502.820670940956, -69800.87695132219, 194.9295633947329, -21968.97083150993, -5753.629595473957, 8416.884650812704, -0.048, 0.972, 0.25, 192.0, 0.0, 0.0, 0.0, 0.0, 0.0, 0.0, 0.0, 0.0, 0.0, 1.695418093274932E9, 0.0, 2023-09-22 16:28:13.274
6.0, 26430.066100366843, 12921.007027746085, -36698.79277930174, -63103.86962936755, -187500.02235174447, 7823.915222157863, -119613.03587115239, -187500.02235174447, -39636.28138736265, 6376.572713443365, -5441.196911477675, -69808.8788758372, 183.82074640044527, -21933.565668292722, -5757.742316453733, 8477.547285264407, -0.048, 0.972, 0.25, 192.0, 0.0, 0.0, 0.0, 0.0, 0.0, 0.0, 0.0, 0.0, 0.0, 1.695418093274935E9, 0.0, 2023-09-22 16:28:13.274
8.0, 26408.89899836767, 12899.750518769088, -36702.12318922558, -63126.55664998969, -187500.02235174447, 7851.117295159972, -119553.84845183474, -187500.02235174447, -39640.39410834242, 6367.475553450055, -5495.08696735942, -69810.04116654888, 185.65358944578045, -21970.98248851091, -5760.089249621541, 8424.57365090533, -0.048, 0.972, 0.25, 192.0, 0.0, 0.0, 0.0, 0.0, 0.0, 0.0, 0.0, 0.0, 0.0, 1.695418093274939E9, 0.0, 2023-09-22 16:28:13.274
10.0, 26436.503402769973, 12930.79709181751, -36686.52167159577, -63090.033899549715, -187500.02235174447, 7836.990992664218, -119584.38093476069, -187500.02235174447, -39643.2551316327, 6371.700033152108, -5432.166806717731, -69808.94593107056, 179.1715835537414, -21927.19542112296, -5761.1844850998505, 8498.803794241405, -0.048, 0.972, 0.25, 192.0, 0.0, 0.0, 0.0, 0.0, 0.0, 0.0, 0.0, 0.0, 0.0, 1.695418093274942E9, 0.0, 2023-09-22 16:28:13.274
12.0, 26417.50441998296, 12913.228620675638, -36685.31467739519, -63108.67525442544, -187500.02235174447, 7837.147454875405, -119565.60546941824, -187500.02235174447, -39628.055945403095, 6394.9458473856275, -5500.160813350775, -69791.69038435107, 196.62829597333624, -21967.361505909146, -5744.957118625298, 8424.953630561069, -0.042, 0.976, 0.248, 192.0, 127.0, 88.0, 15.0, 64.0, 3.5, 96.0, 0.0, 0.0, 0.0, 1.695418093274946E9, 0.0, 2023-09-22 16:28:13.274
14.0, 26393.208073760044, 12884.618387772845, -36719.691660367454, -63137.59841175061, -187500.02235174447, 7850.826722482053, -119533.15073646912, -187500.02235174447, -39651.36881486998, 6376.326844254357, -5432.747952073569, -69817.43959396357, 179.52921146502632, -21931.375197336103, -5753.1378570959405, 8501.39659659822, -0.042, 0.976, 0.248, 192.0, 0.0, 0.0, 0.0, 0.0, 0.0, 0.0, 0.0, 0.0, 0.0, 1.695418093274949E9, 0.0, 2023-09-22 16:28:13.274
16.0, 26396.672594150616, 12889.02168143054, -36711.0638870077, -63136.86080418358, -187500.02235174447, 7844.948213690307, -119521.23725667445, -187500.02235174447, -39663.39405338694, 6350.242358475013, -5489.543734734504, -69838.8302134073, 158.69738563268015, -21984.393535184092, -5784.206781888817, 8455.173189064644, -0.042, 0.976, 0.248, 192.0, 0.0, 0.0, 0.0, 0.0, 0.0, 0.0, 0.0, 0.0, 0.0, 1.695418093335144E9, 0.0, 2023-09-22 16:28:13.335
18.0, 26423.673501452628, 12915.84377477691, -36703.24077644834, -63112.07271958265, -187500.02235174447, 7855.654699284399, -119495.42099182856, -187500.02235174447, -39647.30079737912, 6367.140277283225, -5436.704210842158, -69825.12859405621, 176.10939456336433, -21953.279906902302, -5761.631519988957, 8520.68615206315, -0.042, 0.976, 0.248, 192.0, 0.0, 0.0, 0.0, 0.0, 0.0, 0.0, 0.0, 0.0, 0.0, 1.695418093335153E9, 0.0, 2023-09-22 16:28:13.335
20.0, 26418.152620572168, 12916.402568388292, -36693.02602923227, -63115.60429520658, -187500.02235174447, 7829.1902338493155, -119530.35676841221, -187500.02235174447, -39617.908253420384, 6398.209202076102, -5498.70794996118, -69794.68551810808, 191.1968220706966, -21989.64619513109, -5754.993051885731, 8447.014802338457, -0.042, 0.976, 0.248, 192.0, 0.0, 0.0, 0.0, 0.0, 0.0, 0.0, 0.0, 0.0, 0.0, 1.695418093335157E9, 0.0, 2023-09-22 16:28:13.335
22.0, 26419.42667000612, 12918.481280622636, -36712.1144189971, -63117.81711790766, -187500.02235174447, 7864.304824388603, -119467.97304963745, -187500.02235174447, -39633.53212279465, 6389.939056627639, -5435.117236985831, -69809.7282421265, 178.7916038980012, -21936.538450305277, -5750.835627417044, 8511.454881603107, -0.038, 0.98, 0.246, 192.0, 127.0, 104.0, 15.0, 80.0, 3.5, 88.0, 0.0, 0.0, 0.0, 1.69541809333516E9, 0.0, 2023-09-22 16:28:13.335
24.0, 26420.745422928983, 12921.029379490541, -36702.05613399221, -63116.811289407175, -187500.02235174447, 7820.763626189665, -119537.39756791563, -187500.02235174447, -39619.13759936543, 6405.026484134971, -5481.497106730593, -69795.51253265292, 175.3717869963392, -21977.10686649166, -5775.109621895507, 8453.317994274854, -0.038, 0.98, 0.246, 192.0, 0.0, 0.0, 0.0, 0.0, 0.0, 0.0, 0.0, 0.0, 0.0, 1.695418093335163E9, 0.0, 2023-09-22 16:28:13.335
26.0, 26422.153582829666, 12922.45989113568, -36705.99004101635, -63114.68787368392, -187500.02235174447, 7857.196969651815, -119475.28207007433, -187500.02235174447, -39614.13080860744, 6404.735911457052, -5443.879120812312, -69795.80310533084, 186.19003131270784, -21941.00879919634, -5755.618900730479, 8495.562791295384, -0.038, 0.98, 0.246, 192.0, 0.0, 0.0, 0.0, 0.0, 0.0, 0.0, 0.0, 0.0, 0.0, 1.695418093335167E9, 0.0, 2023-09-22 16:28:13.335
28.0, 26421.058347351354, 12924.873879536854, -36702.74903807033, -63112.340940516115, -187500.02235174447, 7806.458509738268, -119561.24687924945, -187500.02235174447, -39605.324221292045, 6418.862213952806, -5477.071461328443, -69785.61070985922, 183.19489755569668, -21970.244880943883, -5772.472116049781, 8445.226662782034, -0.038, 0.98, 0.246, 192.0, 0.0, 0.0, 0.0, 0.0, 0.0, 0.0, 0.0, 0.0, 0.0, 1.69541809333517E9, 0.0, 2023-09-22 16:28:13.335
30.0, 26412.81055364735, 12915.910830010276, -36713.12024749759, -63123.315647043666, -187500.02235174447, 7854.626519039455, -119465.08967460271, -187500.02235174447, -39609.90632890539, 6416.381170318266, -5450.048202281976, -69791.19864597305, 186.94999062418827, -21941.34407536317, -5757.608205987001, 8479.96127366558, -0.038, 0.98, 0.246, 192.0, 0.0, 0.0, 0.0, 0.0, 0.0, 0.0, 0.0, 0.0, 0.0, 1.695418093395463E9, 0.0, 2023-09-22 16:28:13.395
32.0, 26416.789164160393, 12921.297600424004, -36698.926889768474, -63113.592638205606, -187500.02235174447, 7801.965809102751, -119561.93978332756, -187500.02235174447, -39604.47485500274, 6414.034237150459, -5468.13076354632, -69787.26473894891, 176.75759515256826, -21971.228357699914, -5773.120316638985, 8451.351040762787, -0.04, 0.972, 0.254, 192.0, 127.0, 96.0, 15.0, 48.0, 3.5, 120.0, 0.0, 0.0, 0.0, 1.695418093395474E9, 0.0, 2023-09-22 16:28:13.395
34.0, 26403.288710509387, 12910.211135174171, -36709.83454106266, -63127.897754657, -187500.02235174447, 7855.811161495586, -119458.38415126613, -187500.02235174447, -39608.85579691599, 6414.1459958727355, -5448.215359236641, -69794.21613147452, 185.00538885657656, -21942.729883519398, -5752.646118717924, 8478.307244575888, -0.04, 0.972, 0.254, 192.0, 0.0, 0.0, 0.0, 0.0, 0.0, 0.0, 0.0, 0.0, 0.0, 1.695418093395478E9, 0.0, 2023-09-22 16:28:13.395
36.0, 26407.110858811244, 12912.870992764354, -36703.55370087072, -63120.946362131406, -187500.02235174447, 7794.097995054483, -119578.68123992458, -187500.02235174447, -39606.44180851481, 6416.358818573812, -5458.966548319644, -69794.97609078599, 176.9364091082107, -21961.97473549542, -5773.679110250368, 8457.609529210273, -0.04, 0.972, 0.254, 192.0, 0.0, 0.0, 0.0, 0.0, 0.0, 0.0, 0.0, 0.0, 0.0, 1.695418093395481E9, 0.0, 2023-09-22 16:28:13.395
38.0, 26409.547198956872, 12913.742710798111, -36698.6139653461, -63122.84626041011, -187500.02235174447, 7850.6032050375, -119486.5473492798, -187500.02235174447, -39611.850930673, 6410.301495826423, -5464.8897606003, -69805.07907927979, 182.0326068440207, -21957.660848815543, -5757.116467608985, 8460.828180411838, -0.04, 0.972, 0.254, 192.0, 0.0, 0.0, 0.0, 0.0, 0.0, 0.0, 0.0, 0.0, 0.0, 1.695418093395484E9, 0.0, 2023-09-22 16:28:13.395
40.0, 26420.097222339777, 12922.996333002608, -36692.19901468742, -63109.85989688157, -187500.02235174447, 7799.350655001481, -119609.61605425073, -187500.02235174447, -39596.808206654576, 6431.490949570054, -5455.41262095125, -69788.94111978306, 183.39606325579445, -21965.416904141537, -5764.157267112407, 8461.498732745496, -0.04, 0.972, 0.254, 192.0, 0.0, 0.0, 0.0, 0.0, 0.0, 0.0, 0.0, 0.0, 0.0, 1.695418093395487E9, 0.0, 2023-09-22 16:28:13.395
42.0, 26397.946643584568, 12898.431765846226, -36703.330183426166, -63136.05614138319, -187500.02235174447, 7852.2572341271925, -119515.87283800518, -187500.02235174447, -39603.22315731325, 6406.45699578011, -5477.674958428736, -69799.66995712162, 193.90138314978876, -21972.033020500305, -5745.806484914599, 8448.646479683695, -0.042, 0.978, 0.256, 192.0, 127.0, 88.0, 15.0, 72.0, 4.0, 0.0, 0.0, 0.0, 0.0, 1.69541809339549E9, 0.0, 2023-09-22 16:28:13.395
44.0, 26388.80478010235, 12891.100393664885, -36718.81994233369, -63139.11833037357, -187500.02235174447, 7814.303972042081, -119597.25553956695, -187500.02235174447, -39617.68473597583, 6387.949751371116, -5442.515664400538, -69814.44446020656, 170.09677530488673, -21967.11563672014, -5777.635369018957, 8482.77759346695, -0.042, 0.978, 0.256, 192.0, 0.0, 0.0, 0.0, 0.0, 0.0, 0.0, 0.0, 0.0, 0.0, 1.695418093395493E9, 0.0, 2023-09-22 16:28:13.395
46.0, 26395.73382088349, 12898.320007123948, -36706.817055561194, -63134.44681578241, -187500.02235174447, 7857.532245818645, -119507.1109541787, -187500.02235174447, -39632.92862569435, 6378.941998355627, -5472.601112437381, -69823.92159985562, 165.02292931353205, -21980.68314560451, -5781.591627787546, 8468.96421539357, -0.042, 0.978, 0.256, 192.0, 0.0, 0.0, 0.0, 0.0, 0.0, 0.0, 0.0, 0.0, 0.0, 1.695418093454897E9, 0.0, 2023-09-22 16:28:13.454
48.0, 26400.673556408117, 12905.338454882914, -36713.63433762006, -63127.13779534552, -187500.02235174447, 7820.249536067193, -119597.12142910021, -187500.02235174447, -39609.63810797192, 6411.1508621157245, -5445.466094668638, -69799.53584665488, 178.67984517572467, -21967.406209398057, -5776.42837481837, 8490.377186581754, -0.042, 0.978, 0.256, 192.0, 0.0, 0.0, 0.0, 0.0, 0.0, 0.0, 0.0, 0.0, 0.0, 1.695418093454911E9, 0.0, 2023-09-22 16:28:13.454
50.0, 26407.22261753352, 12907.484222350624, -36703.10666598161, -63124.94732438891, -187500.02235174447, 7855.811161495586, -119533.15073646912, -187500.02235174447, -39625.15021862391, 6403.283048067457, -5481.564161963959, -69811.35991947174, 169.9403130936996, -21988.975642797428, -5780.898723709432, 8459.017689110959, -0.042, 0.978, 0.256, 192.0, 0.0, 0.0, 0.0, 0.0, 0.0, 0.0, 0.0, 0.0, 0.0, 1.695418093454914E9, 0.0, 2023-09-22 16:28:13.454
52.0, 26420.454850251062, 12922.079911479941, -36702.480817136864, -63115.87251614005, -187500.02235174447, 7812.448777252291, -119623.94352244659, -187500.02235174447, -39601.30090729009, 6419.465711053099, -5446.740144102591, -69790.23752096147, 183.44076674470506, -21970.311936177248, -5769.4546305483145, 8488.521991791964, -0.04, 0.986, 0.256, 192.0, 127.0, 96.0, 15.0, 104.0, 4.0, 0.0, 0.0, 0.0, 0.0, 1.695418093454917E9, 0.0, 2023-09-22 16:28:13.454
54.0, 26389.40827720264, 12892.329739609926, -36718.97640454488, -63148.5060630448, -187500.02235174447, 7843.093018900517, -119560.59867866024, -187500.02235174447, -39614.51078826318, 6404.98178064606, -5495.869278415355, -69805.90609382464, 174.20949628466326, -21990.517913164844, -5773.187371872351, 8435.548357432885, -0.04, 0.986, 0.256, 192.0, 0.0, 0.0, 0.0, 0.0, 0.0, 0.0, 0.0, 0.0, 0.0, 1.69541809345492E9, 0.0, 2023-09-22 16:28:13.454
56.0, 26420.544257228885, 12925.343266170416, -36706.347668927636, -63114.62081845055, -187500.02235174447, 7819.8025011780865, -119611.76182171844, -187500.02235174447, -39624.59142501252, 6391.324864783867, -5431.093922983876, -69814.95855032904, 160.7760978670237, -21953.279906902302, -5778.797659730632, 8505.509317577997, -0.04, 0.986, 0.256, 192.0, 0.0, 0.0, 0.0, 0.0, 0.0, 0.0, 0.0, 0.0, 0.0, 1.695418093454923E9, 0.0, 2023-09-22 16:28:13.454
58.0, 26407.04380357788, 12913.921524753754, -36705.99004101635, -63132.748083203805, -187500.02235174447, 7824.138739602416, -119588.85128365175, -187500.02235174447, -39603.49137824671, 6424.22663262208, -5500.920772662255, -69791.28805295087, 180.42328124323862, -21985.332308451216, -5758.681089720856, 8429.200462007579, -0.04, 0.986, 0.256, 192.0, 0.0, 0.0, 0.0, 0.0, 0.0, 0.0, 0.0, 0.0, 0.0, 1.695418093454927E9, 0.0, 2023-09-22 16:28:13.454
60.0, 26406.060326821844, 12914.301504409494, -36713.65668936452, -63130.89288841402, -187500.02235174447, 7828.206757093282, -119595.7803244329, -187500.02235174447, -39616.254224330696, 6405.674684724175, -5436.681859097703, -69806.3754804582, 170.2308857716186, -21945.63561029859, -5768.180581114362, 8491.740642993527, -0.04, 0.986, 0.256, 192.0, 0.0, 0.0, 0.0, 0.0, 0.0, 0.0, 0.0, 0.0, 0.0, 1.695418093514596E9, 0.0, 2023-09-22 16:28:13.514
62.0, 26402.864027364736, 12910.300542151994, -36700.42445664698, -63130.82583318065, -187500.02235174447, 7818.751969188687, -119593.0757633538, -187500.02235174447, -39613.70612546279, 6407.194603347136, -5495.198726081697, -69805.59316940227, 170.2085340271633, -21994.11654402215, -5777.054223663119, 8428.99929630748, -0.038, 0.988, 0.254, 192.0, 127.0, 104.0, 15.0, 112.0, 3.5, 120.0, 0.0, 0.0, 0.0, 1.695418093514619E9, 0.0, 2023-09-22 16:28:13.514
64.0, 26413.011719347447, 12917.743673055611, -36703.330183426166, -63115.693702184406, -187500.02235174447, 7832.095960628505, -119578.03303933538, -187500.02235174447, -39618.623509242956, 6401.7631294444955, -5437.575928875915, -69810.53290492689, 168.01806307054318, -21956.58796508169, -5767.554732269613, 8493.886410461237, -0.038, 0.988, 0.254, 192.0, 0.0, 0.0, 0.0, 0.0, 0.0, 0.0, 0.0, 0.0, 0.0, 1.695418093514623E9, 0.0, 2023-09-22 16:28:13.514
66.0, 26394.2809574939, 12900.197553658194, -36699.15040721303, -63127.94245814592, -187500.02235174447, 7818.6849139553215, -119589.03009760739, -187500.02235174447, -39602.41849451286, 6413.6766092391745, -5503.42416804125, -69796.76423034242, 177.02581608603194, -21999.436259202514, -5767.7558979697105, 8422.539642159896, -0.038, 0.988, 0.254, 192.0, 0.0, 0.0, 0.0, 0.0, 0.0, 0.0, 0.0, 0.0, 0.0, 1.695418093514626E9, 0.0, 2023-09-22 16:28:13.514
68.0, 26394.392716216174, 12901.136326925318, -36707.93464278396, -63125.617876722565, -187500.02235174447, 7861.488504587234, -119523.85241077573, -187500.02235174447, -39633.53212279465, 6382.384167001745, -5437.419466664728, -69822.02170157692, 158.13859202129746, -21946.216755654426, -5766.414793302392, 8505.06228268889, -0.038, 0.988, 0.254, 192.0, 0.0, 0.0, 0.0, 0.0, 0.0, 0.0, 0.0, 0.0, 0.0, 1.69541809351463E9, 0.0, 2023-09-22 16:28:13.514
70.0, 26400.137114541187, 12907.394815372803, -36699.03864849075, -63126.02020812276, -187500.02235174447, 7838.1756351203485, -119573.94267010006, -187500.02235174447, -39621.64099474442, 6395.54934448592, -5482.4805834866265, -69808.09656478126, 159.36793796633935, -21975.54224437979, -5776.875409707476, 8460.381145522731, -0.038, 0.988, 0.254, 192.0, 0.0, 0.0, 0.0, 0.0, 0.0, 0.0, 0.0, 0.0, 0.0, 1.695418093514633E9, 0.0, 2023-09-22 16:28:13.514
72.0, 26429.753175944472, 12936.854414564898, -36681.805453515706, -63104.56253344566, -187500.02235174447, 7851.452571326801, -119555.65894313563, -187500.02235174447, -39602.396142768404, 6415.956487173616, -5449.802333092968, -69792.40564017363, 182.2784760330291, -21956.16328193704, -5751.66264196189, 8500.457823331097, -0.034, 0.982, 0.254, 192.0, 127.0, 120.0, 15.0, 88.0, 3.5, 120.0, 0.0, 0.0, 0.0, 1.695418093514637E9, 0.0, 2023-09-22 16:28:13.514
74.0, 26393.565701671327, 12899.92933272473, -36717.45648592192, -63146.27088859927, -187500.02235174447, 7832.0065536506845, -119613.34879557477, -187500.02235174447, -39614.82371268555, 6407.753396958518, -5490.70602544618, -69805.03437579088, 167.28045550351806, -21989.087401519704, -5766.012461902197, 8443.840854625805, -0.034, 0.982, 0.254, 192.0, 0.0, 0.0, 0.0, 0.0, 0.0, 0.0, 0.0, 0.0, 0.0, 1.695418093514642E9, 0.0, 2023-09-22 16:28:13.514
76.0, 26432.033053878913, 12936.832062820444, -36685.96287798439, -63106.77535614674, -187500.02235174447, 7861.644966798422, -119559.34698097075, -187500.02235174447, -39617.68473597583, 6399.974989888071, -5453.646833139281, -69805.01202404643, 171.2590660165627, -21962.846453529175, -5757.3623367979935, 8502.268314631978, -0.034, 0.982, 0.254, 192.0, 0.0, 0.0, 0.0, 0.0, 0.0, 0.0, 0.0, 0.0, 0.0, 1.695418093575616E9, 0.0, 2023-09-22 16:28:13.575
78.0, 26422.310045040853, 12927.55608887149, -36689.78502628625, -63121.19223132041, -187500.02235174447, 7808.134890572416, -119652.06201697137, -187500.02235174447, -39599.1998433113, 6419.063379652904, -5496.875106915844, -69785.49895113695, 185.67594119023576, -21998.519837679843, -5750.545054739125, 8443.080895314324, -0.034, 0.982, 0.254, 192.0, 0.0, 0.0, 0.0, 0.0, 0.0, 0.0, 0.0, 0.0, 0.0, 1.695418093575627E9, 0.0, 2023-09-22 16:28:13.575
80.0, 26424.724033442028, 12929.098359238908, -36699.03864849075, -63123.36035053258, -187500.02235174447, 7859.230978397248, -119547.25468722043, -187500.02235174447, -39619.98696565473, 6403.081882367359, -5468.443687968694, -69806.75546011394, 176.46702247464927, -21964.8357587857, -5745.918243636876, 8478.508410275985, -0.034, 0.982, 0.254, 192.0, 0.0, 0.0, 0.0, 0.0, 0.0, 0.0, 0.0, 0.0, 0.0, 1.695418093575632E9, 0.0, 2023-09-22 16:28:13.575
82.0, 26409.70366116806, 12914.100338709395, -36708.82871256217, -63133.01630413727, -187500.02235174447, 7813.3428470305025, -119647.01052272446, -187500.02235174447, -39604.54191023611, 6405.004132390515, -5486.146269577297, -69793.70204135204, 172.71192940615768, -21983.790038083796, -5764.827819446065, 8446.09838081579, -0.04, 0.978, 0.25, 192.0, 127.0, 96.0, 15.0, 72.0, 3.5, 104.0, 0.0, 0.0, 0.0, 1.695418093575636E9, 0.0, 2023-09-22 16:28:13.575
84.0, 26402.95343434256, 12904.354978126881, -36721.09982026814, -63141.420560052466, -187500.02235174447, 7880.934522263351, -119531.60846610171, -187500.02235174447, -39643.27748337716, 6382.272408279468, -5464.1074495443645, -69831.63295169269, 149.80139133946793, -21967.227395442416, -5775.757822484711, 8483.716366734072, -0.04, 0.978, 0.25, 192.0, 0.0, 0.0, 0.0, 0.0, 0.0, 0.0, 0.0, 0.0, 0.0, 1.695418093575639E9, 0.0, 2023-09-22 16:28:13.575
86.0, 26422.66767295214, 12921.677580079744, -36707.7111253394, -63119.046463852705, -187500.02235174447, 7814.97452437574, -119661.11447347575, -187500.02235174447, -39609.92868064984, 6407.351065558322, -5473.450478726683, -69803.8273815903, 164.8441153578896, -21983.5888723837, -5779.021177175186, 8470.73000320554, -0.04, 0.978, 0.25, 192.0, 0.0, 0.0, 0.0, 0.0, 0.0, 0.0, 0.0, 0.0, 0.0, 1.695418093575643E9, 0.0, 2023-09-22 16:28:13.575
88.0, 26404.272187265422, 12901.65041704779, -36716.76358184381, -63136.92785941695, -187500.02235174447, 7873.3349291485465, -119554.45194893504, -187500.02235174447, -39626.580730269045, 6391.637789206242, -5482.882914886823, -69821.44055622107, 159.5467519219818, -21974.469360645933, -5769.745203226234, 8468.785401437926, -0.04, 0.978, 0.25, 192.0, 0.0, 0.0, 0.0, 0.0, 0.0, 0.0, 0.0, 0.0, 0.0, 1.695418093575647E9, 0.0, 2023-09-22 16:28:13.575
90.0, 26404.540408198885, 12901.404547858781, -36718.97640454488, -63141.59937400811, -187500.02235174447, 7826.150396603393, -119651.79379603789, -187500.02235174447, -39619.674041232356, 6391.816603161884, -5464.3980222222835, -69818.3783672307, 155.92576932022206, -21971.071895488727, -5783.580933044068, 8480.117735876767, -0.04, 0.978, 0.25, 192.0, 0.0, 0.0, 0.0, 0.0, 0.0, 0.0, 0.0, 0.0, 0.0, 1.695418093634586E9, 0.0, 2023-09-22 16:28:13.634
92.0, 26411.491800724485, 12906.120765938851, -36712.9637852864, -63143.521624031266, -187500.02235174447, 7871.613844825488, -119547.47820466498, -187500.02235174447, -39623.54089302312, 6377.779707643951, -5477.898475873289, -69832.30350402636, 156.9315978207109, -21967.316802420235, -5781.681034765367, 8475.982663152536, -0.044, 0.982, 0.248, 192.0, 127.0, 80.0, 15.0, 88.0, 3.5, 96.0, 0.0, 0.0, 0.0, 1.695418093634599E9, 0.0, 2023-09-22 16:28:13.634
94.0, 26420.901885140167, 12917.877783522343, -36713.65668936452, -63134.37976054905, -187500.02235174447, 7812.895812141396, -119646.22821166852, -187500.02235174447, -39610.91215740587, 6389.7825944164515, -5457.692498885692, -69816.478468952, 160.84315310038963, -21967.830892542708, -5782.150421398928, 8488.432584814142, -0.044, 0.982, 0.248, 192.0, 0.0, 0.0, 0.0, 0.0, 0.0, 0.0, 0.0, 0.0, 0.0, 1.695418093634604E9, 0.0, 2023-09-22 16:28:13.634
96.0, 26434.581152746818, 12932.182899973739, -36682.2077849159, -63117.571248718654, -187500.02235174447, 7834.800521707598, -119588.8289319073, -187500.02235174447, -39598.17166306635, 6408.9156876701945, -5502.66420872977, -69799.13351525468, 180.42328124323862, -21998.408078957567, -5748.980432627253, 8439.169340034645, -0.044, 0.982, 0.248, 192.0, 0.0, 0.0, 0.0, 0.0, 0.0, 0.0, 0.0, 0.0, 0.0, 1.695418093634607E9, 0.0, 2023-09-22 16:28:13.634
98.0, 26430.04374862239, 12929.65715285029, -36692.154311198516, -63114.66552193947, -187500.02235174447, 7795.327340999525, -119674.43611317112, -187500.02235174447, -39595.08712233152, 6416.068245895893, -5461.157019276264, -69791.55627388433, 174.991807340599, -21969.596680354676, -5744.063048847085, 8462.973947879547, -0.044, 0.982, 0.248, 192.0, 0.0, 0.0, 0.0, 0.0, 0.0, 0.0, 0.0, 0.0, 0.0, 1.695418093634611E9, 0.0, 2023-09-22 16:28:13.634
100.0, 26406.41795473313, 12906.41133861677, -36699.4633316354, -63138.35837106209, -187500.02235174447, 7828.340867560014, -119612.87940894121, -187500.02235174447, -39609.99573588321, 6399.483251510054, -5503.982961652632, -69806.9789775585, 169.09094680439793, -21994.228302744425, -5743.66071744689, 8415.074159511823, -0.044, 0.982, 0.248, 192.0, 0.0, 0.0, 0.0, 0.0, 0.0, 0.0, 0.0, 0.0, 0.0, 1.695418093634615E9, 0.0, 2023-09-22 16:28:13.634
102.0, 26402.75226864246, 12906.143117683307, -36712.74026784185, -63138.604240251094, -187500.02235174447, 7814.728655186732, -119667.17179622315, -187500.02235174447, -39613.102628362496, 6398.008036376004, -5451.813990093946, -69812.11987878321, 163.41360371274993, -21964.098151218674, -5764.42548804587, 8463.018651368458, -0.038, 0.984, 0.248, 192.0, 127.0, 104.0, 15.0, 96.0, 3.5, 96.0, 0.0, 0.0, 0.0, 1.695418093634618E9, 0.0, 2023-09-22 16:28:13.634
104.0, 26389.475332436006, 12892.709719265667, -36718.32820395568, -63150.785940979236, -187500.02235174447, 7845.88698695743, -119601.32355705781, -187500.02235174447, -39636.9072362074, 6384.507582724998, -5495.534002248526, -69837.04207385088, 145.8898360597892, -21988.21568348595, -5771.958025927309, 8424.126616016223, -0.038, 0.984, 0.248, 192.0, 0.0, 0.0, 0.0, 0.0, 0.0, 0.0, 0.0, 0.0, 0.0, 1.695418093634623E9, 0.0, 2023-09-22 16:28:13.634
106.0, 26405.255664021453, 12907.998312473097, -36719.53519815626, -63130.28939131372, -187500.02235174447, 7844.657641012388, -119621.06014741184, -187500.02235174447, -39633.10743965, 6375.745698898519, -5437.1065422423535, -69831.20826854804, 147.32034770492885, -21965.036924485794, -5771.622749760479, 8488.521991791964, -0.038, 0.984, 0.248, 192.0, 0.0, 0.0, 0.0, 0.0, 0.0, 0.0, 0.0, 0.0, 0.0, 1.69541809369484E9, 0.0, 2023-09-22 16:28:13.694
108.0, 26403.668690165126, 12906.724263039145, -36702.212596203404, -63129.037693624225, -187500.02235174447, 7833.973507162751, -119620.76957473393, -187500.02235174447, -39610.66628821687, 6397.605704975808, -5503.826499441445, -69808.6777101371, 168.2862840040069, -22010.07568956324, -5760.469229277281, 8416.57172639033, -0.038, 0.984, 0.248, 192.0, 0.0, 0.0, 0.0, 0.0, 0.0, 0.0, 0.0, 0.0, 0.0, 1.695418093694852E9, 0.0, 2023-09-22 16:28:13.694
110.0, 26417.638530449694, 12919.285943423027, -36697.07169497868, -63109.16699280346, -187500.02235174447, 7840.1649403768715, -119624.70348175806, -187500.02235174447, -39620.36694531047, 6391.391920017233, -5445.0861150128985, -69816.70198639655, 166.7216618921354, -21964.746351807877, -5751.28266230615, 8474.954482907591, -0.038, 0.984, 0.248, 192.0, 0.0, 0.0, 0.0, 0.0, 0.0, 0.0, 0.0, 0.0, 0.0, 1.695418093694855E9, 0.0, 2023-09-22 16:28:13.694
112.0, 26413.078774580812, 12916.737844555122, -36680.41964535948, -63116.43130975143, -187500.02235174447, 7828.877309426941, -119626.62573178123, -187500.02235174447, -39605.346573036506, 6402.277219566968, -5501.1442901068085, -69797.77005884291, 178.4563277311716, -22004.420698216047, -5746.789961670633, 8406.289923940889, -0.032, 0.982, 0.248, 192.0, 127.5, 0.0, 15.0, 88.0, 3.5, 96.0, 0.0, 0.0, 0.0, 1.695418093694859E9, 0.0, 2023-09-22 16:28:13.694
114.0, 26417.660882194148, 12925.142100470317, -36690.43322687545, -63113.30206552769, -187500.02235174447, 7844.07649565655, -119599.84834192376, -187500.02235174447, -39610.75569519469, 6406.613457991298, -5439.542882387982, -69799.35703269923, 177.36109225286154, -21960.611279083645, -5734.362391753482, 8471.177038094645, -0.032, 0.982, 0.248, 192.0, 0.0, 0.0, 0.0, 0.0, 0.0, 0.0, 0.0, 0.0, 0.0, 1.695418093694862E9, 0.0, 2023-09-22 16:28:13.694
116.0, 26407.312024511342, 12914.390911387314, -36687.61690707409, -63123.36035053258, -187500.02235174447, 7825.613954736466, -119623.45178406857, -187500.02235174447, -39625.21727385727, 6403.864193423295, -5489.364920778861, -69814.08683229529, 158.11624027684215, -21999.838590602707, -5756.468267019781, 8418.538679902396, -0.032, 0.982, 0.248, 192.0, 0.0, 0.0, 0.0, 0.0, 0.0, 0.0, 0.0, 0.0, 0.0, 1.695418093694865E9, 0.0, 2023-09-22 16:28:13.694
118.0, 26408.340204756285, 12914.547373598502, -36698.77042755728, -63130.378798291546, -187500.02235174447, 7857.9569289632955, -119574.47911196698, -187500.02235174447, -39615.42720978585, 6394.722329941074, -5445.399039435272, -69806.91192232513, 175.23767652960737, -21969.77549431032, -5729.288545762128, 8471.713479961572, -0.032, 0.982, 0.248, 192.0, 0.0, 0.0, 0.0, 0.0, 0.0, 0.0, 0.0, 0.0, 0.0, 1.695418093694869E9, 0.0, 2023-09-22 16:28:13.694
120.0, 26398.103105795755, 12901.896286236799, -36699.061000235204, -63139.811234451685, -187500.02235174447, 7828.519681515656, -119623.69765325758, -187500.02235174447, -39624.65848024589, 6378.696129166619, -5485.788641666012, -69816.59022767427, 156.1045832758645, -22005.180657527526, -5759.441049032337, 8424.439540438598, -0.032, 0.982, 0.248, 192.0, 0.0, 0.0, 0.0, 0.0, 0.0, 0.0, 0.0, 0.0, 0.0, 1.695418093755054E9, 0.0, 2023-09-22 16:28:13.755
122.0, 26417.057385093856, 12922.437539391225, -36698.47985487936, -63121.59456272061, -187500.02235174447, 7872.418507625879, -119532.90486728011, -187500.02235174447, -39640.61762578698, 6374.672815164664, -5432.949117773666, -69826.80497489036, 151.2319029846076, -21966.802712297766, -5754.031926874152, 8488.00790166949, -0.046, 0.978, 0.252, 192.0, 127.0, 72.0, 15.0, 72.0, 3.5, 112.0, 0.0, 0.0, 0.0, 1.695418093755068E9, 0.0, 2023-09-22 16:28:13.755
124.0, 26418.75611767246, 12925.343266170416, -36685.47113960638, -63119.761719675276, -187500.02235174447, 7808.648980694888, -119631.00667369446, -187500.02235174447, -39594.55068046459, 6425.187757633657, -5484.313426531962, -69778.5699103558, 184.04426384499834, -22010.679186663532, -5740.822045901066, 8416.258801967955, -0.046, 0.978, 0.252, 192.0, 0.0, 0.0, 0.0, 0.0, 0.0, 0.0, 0.0, 0.0, 0.0, 1.695418093755072E9, 0.0, 2023-09-22 16:28:13.755
126.0, 26405.79210588838, 12908.870030506854, -36709.8121893182, -63133.39628379301, -187500.02235174447, 7865.444763355824, -119534.42478590307, -187500.02235174447, -39628.3018145921, 6396.8904491532385, -5448.997670292577, -69815.4279369626, 162.92186533473318, -21971.11659897764, -5741.760819168189, 8455.307299531378, -0.046, 0.978, 0.252, 192.0, 0.0, 0.0, 0.0, 0.0, 0.0, 0.0, 0.0, 0.0, 0.0, 1.695418093755076E9, 0.0, 2023-09-22 16:28:13.755
128.0, 26421.527733984916, 12926.237335948628, -36689.472101863874, -63112.542106216206, -187500.02235174447, 7804.648018437389, -119640.61792381025, -187500.02235174447, -39617.08123887554, 6398.477423009565, -5472.042318825998, -69801.21222748903, 160.7313943781131, -22003.146648782094, -5764.827819446065, 8423.344304960288, -0.046, 0.978, 0.252, 192.0, 0.0, 0.0, 0.0, 0.0, 0.0, 0.0, 0.0, 0.0, 0.0, 1.695418093755079E9, 0.0, 2023-09-22 16:28:13.755
130.0, 26416.163315315644, 12922.549298113501, -36690.63439257555, -63116.58777196262, -187500.02235174447, 7855.78880975113, -119545.77947208637, -187500.02235174447, -39618.37764005395, 6397.158670086703, -5461.492295443094, -69803.60386414574, 174.52242070703755, -21978.58208162571, -5730.495539962714, 8435.078970799324, -0.046, 0.978, 0.252, 192.0, 0.0, 0.0, 0.0, 0.0, 0.0, 0.0, 0.0, 0.0, 0.0, 1.695418093755082E9, 0.0, 2023-09-22 16:28:13.755
132.0, 26425.93102764261, 12931.98173427364, -36677.91624998048, -63100.941550843905, -187500.02235174447, 7788.01832056264, -119671.06099975837, -187500.02235174447, -39600.47389274525, 6415.710617984608, -5472.444650226194, -69789.76813432791, 176.28820851900682, -21994.138895766606, -5742.654888946401, 8410.626162365217, -0.048, 0.986, 0.25, 192.0, 127.0, 64.0, 15.0, 104.0, 3.5, 104.0, 0.0, 0.0, 0.0, 1.695418093755085E9, 0.0, 2023-09-22 16:28:13.755
134.0, 26406.21678903303, 12910.971094485652, -36689.1591774415, -63117.25832429628, -187500.02235174447, 7851.0278881821505, -119545.24303021944, -187500.02235174447, -39630.626396015454, 6395.638751463742, -5458.631272152815, -69817.19372477457, 168.3309874929175, -21976.168093224536, -5730.406132984893, 8420.61739213674, -0.048, 0.986, 0.25, 192.0, 0.0, 0.0, 0.0, 0.0, 0.0, 0.0, 0.0, 0.0, 0.0, 1.695418093755088E9, 0.0, 2023-09-22 16:28:13.755
136.0, 26416.364481015742, 12920.045902734508, -36680.15142442601, -63105.143678801505, -187500.02235174447, 7791.080509553017, -119648.28457215842, -187500.02235174447, -39609.90632890539, 6402.366626544789, -5447.477751669616, -69798.39590768766, 178.5010312200822, -21991.568445154244, -5733.937708608832, 8419.05277002487, -0.048, 0.986, 0.25, 192.0, 0.0, 0.0, 0.0, 0.0, 0.0, 0.0, 0.0, 0.0, 0.0, 1.695418093815245E9, 0.0, 2023-09-22 16:28:13.815
138.0, 26395.666765650127, 12897.35888211237, -36699.37392465758, -63131.18346109193, -187500.02235174447, 7860.057992942095, -119510.12843968016, -187500.02235174447, -39627.83242795854, 6397.538649742442, -5451.41165869375, -69815.6291026627, 171.14730729428618, -21982.605395627666, -5719.811406113077, 8421.109130514757, -0.048, 0.986, 0.25, 192.0, 0.0, 0.0, 0.0, 0.0, 0.0, 0.0, 0.0, 0.0, 0.0, 1.695418093815255E9, 0.0, 2023-09-22 16:28:13.815
140.0, 26413.0340710919, 12916.98371374413, -36694.63535483305, -63114.62081845055, -187500.02235174447, 7806.793785905098, -119618.60145552177, -187500.02235174447, -39622.46800928927, 6392.3083415399005, -5424.746027558569, -69810.39879446015, 161.35724322286168, -21981.62191887163, -5747.236996559739, 8446.523063960442, -0.048, 0.986, 0.25, 192.0, 0.0, 0.0, 0.0, 0.0, 0.0, 0.0, 0.0, 0.0, 0.0, 1.695418093815259E9, 0.0, 2023-09-22 16:28:13.815
142.0, 26408.07198382282, 12908.825327017943, -36698.81513104619, -63129.37296979105, -187500.02235174447, 7859.163923163882, -119530.20030620102, -187500.02235174447, -39632.57099778307, 6392.420100262178, -5453.289205227996, -69819.94298934257, 163.9947490685879, -21988.036869530308, -5737.603394699502, 8423.880746827215, -0.048, 0.984, 0.252, 192.0, 127.0, 64.0, 15.0, 96.0, 3.5, 112.0, 0.0, 0.0, 0.0, 1.695418093815262E9, 0.0, 2023-09-22 16:28:13.815
144.0, 26433.351806801777, 12936.452083164702, -36684.174738427966, -63101.7462136443, -187500.02235174447, 7808.581925461523, -119646.38467387971, -187500.02235174447, -39614.82371268555, 6403.953600401116, -5423.851957780356, -69800.25110247744, 164.75470838006837, -21975.63165135761, -5746.745258181722, 8448.154741305678, -0.048, 0.984, 0.252, 192.0, 0.0, 0.0, 0.0, 0.0, 0.0, 0.0, 0.0, 0.0, 0.0, 1.695418093815265E9, 0.0, 2023-09-22 16:28:13.815
146.0, 26410.731841413002, 12911.84281251941, -36701.45263689192, -63132.122234359056, -187500.02235174447, 7850.066763170572, -119572.64626892166, -187500.02235174447, -39622.736230222734, 6401.986646889049, -5462.140496032298, -69801.39104144467, 165.1793915247192, -21988.796828841787, -5730.428484729348, 8404.390025662187, -0.048, 0.984, 0.252, 192.0, 0.0, 0.0, 0.0, 0.0, 0.0, 0.0, 0.0, 0.0, 0.0, 1.695418093815268E9, 0.0, 2023-09-22 16:28:13.815
148.0, 26419.024338605923, 12923.13044346934, -36703.35253517062, -63120.45462375339, -187500.02235174447, 7831.7159809727655, -119650.00565648147, -187500.02235174447, -39625.46314304628, 6397.851574164817, -5404.40594010424, -69803.78267810139, 150.33783320639532, -21964.098151218674, -5750.925034394865, 8461.141104834212, -0.048, 0.984, 0.252, 192.0, 0.0, 0.0, 0.0, 0.0, 0.0, 0.0, 0.0, 0.0, 0.0, 1.695418093815272E9, 0.0, 2023-09-22 16:28:13.815
150.0, 26400.51709419693, 12906.478393850137, -36705.25243344932, -63137.10667337259, -187500.02235174447, 7871.479734358756, -119591.39938251965, -187500.02235174447, -39639.030651930654, 6395.996379375027, -5445.309632457452, -69816.52317244091, 145.17458023721937, -21985.287604962305, -5753.204912329306, 8421.109130514757, -0.048, 0.984, 0.252, 192.0, 0.0, 0.0, 0.0, 0.0, 0.0, 0.0, 0.0, 0.0, 0.0, 1.695418093875575E9, 0.0, 2023-09-22 16:28:13.875
152.0, 26423.114707841243, 12930.305353439493, -36693.07073272118, -63108.988178847816, -187500.02235174447, 7847.943347447318, -119673.63145037073, -187500.02235174447, -39636.63901527393, 6393.358873529301, -5393.073605665399, -69814.95855032904, 146.96271979364394, -21957.236165670893, -5756.691784464334, 8479.044852142913, -0.048, 0.982, 0.248, 192.0, 127.0, 64.0, 15.0, 88.0, 3.5, 96.0, 0.0, 0.0, 0.0, 1.69541809387562E9, 0.0, 2023-09-22 16:28:13.875
154.0, 26399.868893607723, 12905.226696160638, -36696.1105699671, -63134.06683612667, -187500.02235174447, 7863.768382521675, -119656.8452902848, -187500.02235174447, -39621.12690462195, 6410.279144081967, -5460.46411519815, -69803.51445716793, 161.96074032315497, -21998.31867197975, -5736.999897599208, 8408.390987919687, -0.048, 0.982, 0.248, 192.0, 0.0, 0.0, 0.0, 0.0, 0.0, 0.0, 0.0, 0.0, 0.0, 1.695418093875624E9, 0.0, 2023-09-22 16:28:13.875
156.0, 26424.031129363913, 12930.46181565068, -36687.72866579636, -63103.4449462229, -187500.02235174447, 7851.474923071257, -119709.32718626586, -187500.02235174447, -39639.05300367511, 6384.351120513812, -5393.677102765692, -69814.60092241775, 150.9189785622333, -21962.7346948069, -5745.761781425689, 8476.139125363723, -0.048, 0.982, 0.248, 192.0, 0.0, 0.0, 0.0, 0.0, 0.0, 0.0, 0.0, 0.0, 0.0, 1.695418093875628E9, 0.0, 2023-09-22 16:28:13.875
158.0, 26401.634681419695, 12908.668864806756, -36686.74518904033, -63121.03576910923, -187500.02235174447, 7850.066763170572, -119722.24649456103, -187500.02235174447, -39626.98306166924, 6404.847670179328, -5463.526304188526, -69803.49210542347, 163.9947490685879, -22004.68891914951, -5733.46832197527, 8394.219981935023, -0.048, 0.982, 0.248, 192.0, 0.0, 0.0, 0.0, 0.0, 0.0, 0.0, 0.0, 0.0, 0.0, 1.695418093875632E9, 0.0, 2023-09-22 16:28:13.875
160.0, 26412.81055364735, 12916.290809666016, -36692.37782864307, -63107.512963713765, -187500.02235174447, 7861.935539476341, -119735.90341042321, -187500.02235174447, -39643.09866942152, 6382.07124257937, -5388.78207072998, -69821.3287974988, 153.1318012633087, -21956.319744148226, -5728.953269595298, 8471.981700895036, -0.048, 0.982, 0.248, 192.0, 0.0, 0.0, 0.0, 0.0, 0.0, 0.0, 0.0, 0.0, 0.0, 1.695418093875635E9, 0.0, 2023-09-22 16:28:13.875
162.0, 26406.350899499765, 12908.132422939829, -36679.0561889477, -63114.7996324062, -187500.02235174447, 7834.353486818492, -119794.88966404078, -187500.02235174447, -39616.83536968653, 6403.037178878449, -5457.200760507674, -69798.79823908786, 172.60017068388115, -22010.388613985615, -5720.37019972446, 8396.298694169367, -0.046, 0.984, 0.252, 192.0, 127.0, 72.0, 15.0, 96.0, 3.5, 112.0, 0.0, 0.0, 0.0, 1.695418093875639E9, 0.0, 2023-09-22 16:28:13.875
164.0, 26425.461641009053, 12924.449196392203, -36688.82390127467, -63104.31666425666, -187500.02235174447, 7852.570158549566, -119786.68657382567, -187500.02235174447, -39639.07535541956, 6384.932265869649, -5391.553687042438, -69825.10624231175, 152.32713846291765, -21964.76870355233, -5732.440141730326, 8470.662947972172, -0.046, 0.984, 0.252, 192.0, 0.0, 0.0, 0.0, 0.0, 0.0, 0.0, 0.0, 0.0, 0.0, 1.695418093875642E9, 0.0, 2023-09-22 16:28:13.875
166.0, 26431.94364690109, 12930.350056928404, -36682.431302360455, -63099.6451496655, -187500.02235174447, 7798.814213134553, -119890.73394426513, -187500.02235174447, -39604.45250325829, 6409.452129537121, -5459.279472742018, -69786.39302091516, 178.4563277311716, -22011.64031167511, -5726.919260849865, 8381.94887422906, -0.046, 0.984, 0.252, 192.0, 0.0, 0.0, 0.0, 0.0, 0.0, 0.0, 0.0, 0.0, 0.0, 1.695418093935078E9, 0.0, 2023-09-22 16:28:13.935
168.0, 26426.9368561431, 12923.711588825177, -36706.66059335001, -63108.33997825861, -187500.02235174447, 7839.852015954497, -119842.81180415295, -187500.02235174447, -39631.408707071394, 6392.0177688619815, -5400.44968133565, -69808.2753787369, 160.3737664668282, -21964.14285470758, -5727.813330628077, 8439.079933056824, -0.046, 0.984, 0.252, 192.0, 0.0, 0.0, 0.0, 0.0, 0.0, 0.0, 0.0, 0.0, 0.0, 1.695418093935101E9, 0.0, 2023-09-22 16:28:13.935
170.0, 26422.980597374513, 12922.906926024787, -36704.47012239339, -63111.78214690473, -187500.02235174447, 7797.629570678422, -119934.72217735318, -187500.02235174447, -39615.62837548595, 6409.340370814845, -5447.41069643625, -69786.61653835971, 163.14538277928625, -22007.72875639543, -5743.973641869265, 8380.56306607283, -0.046, 0.984, 0.252, 192.0, 0.0, 0.0, 0.0, 0.0, 0.0, 0.0, 0.0, 0.0, 0.0, 1.695418093935105E9, 0.0, 2023-09-22 16:28:13.935
172.0, 26405.054498321355, 12909.406472373781, -36728.140619771555, -63132.72573145935, -187500.02235174447, 7845.998745679706, -119857.65336247128, -187500.02235174447, -39640.66232927589, 6390.386091516744, -5403.8247947484015, -69813.7739078729, 148.32617620541768, -21973.843511801188, -5742.498426735214, 8427.501729428976, -0.042, 0.976, 0.252, 192.0, 127.0, 88.0, 15.0, 64.0, 3.5, 112.0, 0.0, 0.0, 0.0, 1.695418093935108E9, 0.0, 2023-09-22 16:28:13.935
174.0, 26401.589977930784, 12907.238353161616, -36730.08522153917, -63132.97160064836, -187500.02235174447, 7809.45364349528, -119940.24305823364, -187500.02235174447, -39651.190000914336, 6384.1499548137135, -5434.379629418806, -69821.99934983246, 130.40007715226142, -22006.901741850586, -5769.611092759502, 8397.32687441431, -0.042, 0.976, 0.252, 192.0, 0.0, 0.0, 0.0, 0.0, 0.0, 0.0, 0.0, 0.0, 0.0, 1.695418093935111E9, 0.0, 2023-09-22 16:28:13.935
176.0, 26409.927178612612, 12913.541545098013, -36716.40595393252, -63126.735463945326, -187500.02235174447, 7859.543902819622, -119856.53577524851, -187500.02235174447, -39642.27165487667, 6386.720405426074, -5415.872385009812, -69814.7797363734, 148.6838041167026, -21977.442142658492, -5739.011554600186, 8431.033305052913, -0.042, 0.976, 0.252, 192.0, 0.0, 0.0, 0.0, 0.0, 0.0, 0.0, 0.0, 0.0, 0.0, 1.695418093935117E9, 0.0, 2023-09-22 16:28:13.935
178.0, 26412.251760035964, 12910.635818318822, -36710.84036956315, -63122.198059820905, -187500.02235174447, 7806.100881826983, -119961.87954686637, -187500.02235174447, -39640.12588740896, 6379.187867544636, -5434.357277674351, -69816.14319278517, 140.8383418128898, -22000.35268072518, -5753.875464662965, 8403.85358379526, -0.042, 0.976, 0.252, 192.0, 0.0, 0.0, 0.0, 0.0, 0.0, 0.0, 0.0, 0.0, 0.0, 1.695418093935123E9, 0.0, 2023-09-22 16:28:13.935
180.0, 26409.65895767915, 12905.070233949451, -36709.09693349564, -63124.232068566336, -187500.02235174447, 7868.059917457094, -119852.08777810191, -187500.02235174447, -39641.89167522093, 6378.338501255334, -5424.477806625105, -69818.44542246406, 156.19399025368574, -21981.666622360543, -5725.689914904823, 8424.730113116517, -0.042, 0.976, 0.252, 192.0, 0.0, 0.0, 0.0, 0.0, 0.0, 0.0, 0.0, 0.0, 0.0, 1.695418093994723E9, 0.0, 2023-09-22 16:28:13.994
182.0, 26411.93883561359, 12906.970132228153, -36708.001698017324, -63118.5994289636, -187500.02235174447, 7827.178576848338, -119936.82324133198, -187500.02235174447, -39636.03551817364, 6393.805908418407, -5416.408826876739, -69811.89636133866, 147.5215134050266, -21989.10975326416, -5738.676278433357, 8423.634877638207, -0.046, 0.98, 0.254, 192.0, 127.0, 72.0, 15.0, 80.0, 3.5, 120.0, 0.0, 0.0, 0.0, 1.695418093994741E9, 0.0, 2023-09-22 16:28:13.994
184.0, 26445.71232148556, 12941.816501833977, -36677.02218020227, -63082.5907686461, -187500.02235174447, 7875.346586149524, -119848.71266468916, -187500.02235174447, -39631.58752102703, 6397.784518931451, -5415.827681520901, -69805.63787289118, 160.66433914474717, -21972.748276322876, -5714.067007788063, 8432.866148098248, -0.046, 0.98, 0.254, 192.0, 0.0, 0.0, 0.0, 0.0, 0.0, 0.0, 0.0, 0.0, 0.0, 1.695418093994745E9, 0.0, 2023-09-22 16:28:13.994
186.0, 26429.79787943338, 12930.79709181751, -36694.05420947722, -63096.22533276383, -187500.02235174447, 7828.2514605821925, -119945.00397980261, -187500.02235174447, -39613.102628362496, 6423.444321566144, -5403.266001137019, -69783.2190732025, 170.8790863608225, -21967.406209398057, -5708.791996096611, 8425.735941617006, -0.046, 0.98, 0.254, 192.0, 0.0, 0.0, 0.0, 0.0, 0.0, 0.0, 0.0, 0.0, 0.0, 1.695418093994748E9, 0.0, 2023-09-22 16:28:13.994
188.0, 26421.505382240462, 12921.387007401825, -36695.015334488795, -63108.004702091785, -187500.02235174447, 7878.364071650991, -119851.03724611251, -187500.02235174447, -39637.80130598561, 6397.091614853337, -5416.677047810203, -69805.28024497989, 153.5341326635042, -21959.985430238896, -5707.1826704958285, 8425.490072427998, -0.046, 0.98, 0.254, 192.0, 0.0, 0.0, 0.0, 0.0, 0.0, 0.0, 0.0, 0.0, 0.0, 1.695418093994751E9, 0.0, 2023-09-22 16:28:13.994
190.0, 26413.16818155863, 12913.876821264843, -36712.29323295275, -63118.755891174784, -187500.02235174447, 7816.06975985405, -119973.50245398314, -187500.02235174447, -39631.8557419605, 6393.7165014405855, -5403.042483692466, -69805.10143102425, 152.66241462974725, -21966.82506404222, -5725.913432349376, 8432.463816698053, -0.046, 0.98, 0.254, 192.0, 0.0, 0.0, 0.0, 0.0, 0.0, 0.0, 0.0, 0.0, 0.0, 1.695418093994754E9, 0.0, 2023-09-22 16:28:13.994
192.0, 26397.521960439917, 12896.21894314515, -36718.19409348894, -63140.28062108524, -187500.02235174447, 7855.475885328757, -119893.97494721114, -187500.02235174447, -39653.89456199343, 6369.844838362317, -5441.711001600147, -69830.89534412567, 141.1736179797194, -21999.838590602707, -5733.5353772086355, 8400.433766893599, -0.04, 0.978, 0.248, 192.0, 127.0, 96.0, 15.0, 72.0, 3.5, 96.0, 0.0, 0.0, 0.0, 1.695418093994757E9, 0.0, 2023-09-22 16:28:13.994
194.0, 26417.482068238507, 12919.576516100946, -36708.62754686207, -63115.760757417775, -187500.02235174447, 7812.649942952388, -119982.91253839881, -187500.02235174447, -39648.17251541287, 6380.2160477895795, -5402.394283103262, -69821.26174226544, 142.91705404723336, -21985.712288106955, -5743.526606980158, 8434.520177187942, -0.04, 0.978, 0.248, 192.0, 0.0, 0.0, 0.0, 0.0, 0.0, 0.0, 0.0, 0.0, 0.0, 1.69541809399476E9, 0.0, 2023-09-22 16:28:13.994
196.0, 26403.244007020476, 12903.147983926296, -36713.34376494215, -63136.7043419724, -187500.02235174447, 7846.043449168617, -119906.4472206172, -187500.02235174447, -39644.551532811114, 6381.601855945809, -5450.964623804644, -69816.18789627409, 152.2377314850964, -22004.68891914951, -5730.428484729348, 8387.447403365064, -0.04, 0.978, 0.248, 192.0, 0.0, 0.0, 0.0, 0.0, 0.0, 0.0, 0.0, 0.0, 0.0, 1.695418094055139E9, 0.0, 2023-09-22 16:28:14.055
198.0, 26415.582169959805, 12914.010931731575, -36717.389430688556, -63124.18736507742, -187500.02235174447, 7821.434178523324, -119964.47234922319, -187500.02235174447, -39650.22887590276, 6375.790402387429, -5392.939495198667, -69822.69225391057, 140.70423134615797, -21972.748276322876, -5742.699592435311, 8444.757276148472, -0.04, 0.978, 0.248, 192.0, 0.0, 0.0, 0.0, 0.0, 0.0, 0.0, 0.0, 0.0, 0.0, 1.69541809405516E9, 0.0, 2023-09-22 16:28:14.055
200.0, 26426.0874898538, 12926.058521992985, -36693.473064121376, -63115.78310916223, -187500.02235174447, 7822.954097146285, -119944.9592763137, -187500.02235174447, -39632.41453557188, 6392.26363805099, -5456.597263407381, -69806.7778118584, 154.47290593062712, -22012.06499481976, -5729.020324828663, 8374.729260769995, -0.04, 0.978, 0.248, 192.0, 0.0, 0.0, 0.0, 0.0, 0.0, 0.0, 0.0, 0.0, 0.0, 1.695418094055164E9, 0.0, 2023-09-22 16:28:14.055
202.0, 26431.965998645544, 12931.847623806909, -36699.10570372411, -63108.58584744762, -187500.02235174447, 7819.578983733533, -119978.79981741904, -187500.02235174447, -39634.202675128305, 6399.080920109859, -5391.218410875608, -69806.71075662503, 152.19302799618578, -21970.468398388435, -5724.304106748594, 8425.467720683542, -0.042, 0.98, 0.252, 192.0, 127.0, 88.0, 15.0, 80.0, 3.5, 112.0, 0.0, 0.0, 0.0, 1.695418094055167E9, 0.0, 2023-09-22 16:28:14.055
204.0, 26407.066155322333, 12901.35984436987, -36701.27382293628, -63134.558574504685, -187500.02235174447, 7823.602297735489, -119965.54523295704, -187500.02235174447, -39627.2512826027, 6395.079957852359, -5451.657527882759, -69803.13447751218, 158.20564725466338, -22007.21466627296, -5726.338115494027, 8358.971280929003, -0.042, 0.98, 0.252, 192.0, 0.0, 0.0, 0.0, 0.0, 0.0, 0.0, 0.0, 0.0, 0.0, 1.69541809405517E9, 0.0, 2023-09-22 16:28:14.055
206.0, 26430.66959746714, 12927.444330149214, -36694.590651344144, -63103.176725289435, -187500.02235174447, 7821.568288990055, -119986.95820414522, -187500.02235174447, -39651.48057359226, 6372.0576610633925, -5384.401128816739, -69828.50370746896, 137.0608969999429, -21971.83185480021, -5740.7549906677, 8434.743694632494, -0.042, 0.98, 0.252, 192.0, 0.0, 0.0, 0.0, 0.0, 0.0, 0.0, 0.0, 0.0, 0.0, 1.695418094055174E9, 0.0, 2023-09-22 16:28:14.055
208.0, 26414.911617626145, 12910.79228053001, -36696.55760485621, -63120.54403073121, -187500.02235174447, 7806.5926202050005, -120013.15444864685, -187500.02235174447, -39621.350422066505, 6403.126585856269, -5452.372783705328, -69795.28901520837, 162.49718219008236, -22015.283646021326, -5715.542222922114, 8357.585472772775, -0.042, 0.98, 0.252, 192.0, 0.0, 0.0, 0.0, 0.0, 0.0, 0.0, 0.0, 0.0, 0.0, 1.695418094055177E9, 0.0, 2023-09-22 16:28:14.055
210.0, 26407.17791404461, 12902.388024614815, -36734.10853554113, -63126.802519178695, -187500.02235174447, 7839.986126421229, -119979.2245005637, -187500.02235174447, -39659.34838764052, 6368.861361606284, -5379.059061891921, -69834.73984417199, 137.93261503369988, -21966.82506404222, -5735.256461531694, 8438.1411597897, -0.042, 0.98, 0.252, 192.0, 0.0, 0.0, 0.0, 0.0, 0.0, 0.0, 0.0, 0.0, 0.0, 1.695418094115263E9, 0.0, 2023-09-22 16:28:14.115
212.0, 26416.766812415935, 12914.949704998697, -36711.75679108582, -63115.60429520658, -187500.02235174447, 7813.231088308226, -120035.55089659107, -187500.02235174447, -39643.501000821714, 6382.495925724021, -5438.581757376404, -69815.89732359616, 146.62744362681434, -22005.426526716536, -5738.922147622365, 8374.773964258906, -0.046, 0.978, 0.246, 192.0, 127.0, 72.0, 15.0, 72.0, 3.5, 88.0, 0.0, 0.0, 0.0, 1.695418094115277E9, 0.0, 2023-09-22 16:28:14.115
214.0, 26423.31587354134, 12920.98467600163, -36708.67225035099, -63110.373987004044, -187500.02235174447, 7840.567271777067, -120008.81821022251, -187500.02235174447, -39637.7566024967, 6393.560039229398, -5394.459413821628, -69813.17041077261, 159.5020484330712, -21972.748276322876, -5720.303144491094, 8417.689313613095, -0.046, 0.978, 0.246, 192.0, 0.0, 0.0, 0.0, 0.0, 0.0, 0.0, 0.0, 0.0, 0.0, 1.695418094115281E9, 0.0, 2023-09-22 16:28:14.115
216.0, 26424.791088675393, 12924.091568480919, -36690.45557861991, -63110.15046955949, -187500.02235174447, 7803.396320747891, -120071.22428074174, -187500.02235174447, -39627.497151791715, 6403.730082956563, -5442.985051034099, -69797.27832046489, 160.4184699557388, -22019.01638734536, -5728.1933102838175, 8352.93630992607, -0.046, 0.978, 0.246, 192.0, 0.0, 0.0, 0.0, 0.0, 0.0, 0.0, 0.0, 0.0, 0.0, 1.695418094115284E9, 0.0, 2023-09-22 16:28:14.115
218.0, 26441.17491736113, 12939.268402966072, -36686.63343031805, -63097.655844408975, -187500.02235174447, 7840.679030499343, -120000.48100954069, -187500.02235174447, -39642.673986276866, 6396.130489841758, -5392.648922520748, -69805.70492812454, 157.6468536432807, -21978.649136859076, -5711.965943809265, 8409.508575142452, -0.046, 0.978, 0.246, 192.0, 0.0, 0.0, 0.0, 0.0, 0.0, 0.0, 0.0, 0.0, 0.0, 1.695418094115287E9, 0.0, 2023-09-22 16:28:14.115
220.0, 26433.284751568408, 12931.914679040276, -36682.766578527284, -63107.021225335746, -187500.02235174447, 7785.49257343919, -120086.4011152269, -187500.02235174447, -39619.741096465725, 6414.302458083923, -5437.642984109281, -69781.22976794599, 167.90630434826664, -22009.22632327394, -5712.703551376289, 8347.951870912537, -0.046, 0.978, 0.246, 192.0, 0.0, 0.0, 0.0, 0.0, 0.0, 0.0, 0.0, 0.0, 0.0, 1.69541809411529E9, 0.0, 2023-09-22 16:28:14.115
222.0, 26420.208981062053, 12912.312199152972, -36696.08821822265, -63119.4487952529, -187500.02235174447, 7844.009440423184, -119976.36347727341, -187500.02235174447, -39643.32218686607, 6390.341388027834, -5395.241724877564, -69809.14709677066, 157.15511526526396, -21968.68025883201, -5709.104920518986, 8395.09169996878, -0.046, 0.98, 0.25, 192.0, 127.0, 72.0, 15.0, 80.0, 3.5, 104.0, 0.0, 0.0, 0.0, 1.695418094115294E9, 0.0, 2023-09-22 16:28:14.115
224.0, 26424.835792164304, 12917.922487011254, -36693.204843187916, -63111.02218759325, -187500.02235174447, 7794.232105521215, -120067.60329813998, -187500.02235174447, -39640.908198464895, 6381.646559434719, -5413.167823930719, -69805.74963161345, 144.99576628157692, -21997.849285346187, -5736.463455732282, 8370.683595023584, -0.046, 0.98, 0.25, 192.0, 0.0, 0.0, 0.0, 0.0, 0.0, 0.0, 0.0, 0.0, 0.0, 1.695418094115297E9, 0.0, 2023-09-22 16:28:14.115
226.0, 26421.527733984916, 12913.630952075835, -36700.111532224604, -63121.43810050942, -187500.02235174447, 7857.711059774288, -119946.4121397033, -187500.02235174447, -39645.3561956115, 6389.760242671996, -5395.845221977856, -69807.44836419205, 153.08709777439807, -21980.034945015304, -5712.591792654013, 8394.667016824129, -0.046, 0.98, 0.25, 192.0, 0.0, 0.0, 0.0, 0.0, 0.0, 0.0, 0.0, 0.0, 0.0, 1.695418094175651E9, 0.0, 2023-09-22 16:28:14.175
228.0, 26424.589922975294, 12916.424920132748, -36700.71502932489, -63115.35842601758, -187500.02235174447, 7816.181518576327, -120022.56453306253, -187500.02235174447, -39646.4067276009, 6386.630998448253, -5398.885059223779, -69807.24719849195, 137.46322840013843, -22001.82789585923, -5732.663659174879, 8386.866258009226, -0.046, 0.98, 0.25, 192.0, 0.0, 0.0, 0.0, 0.0, 0.0, 0.0, 0.0, 0.0, 0.0, 1.695418094175664E9, 0.0, 2023-09-22 16:28:14.175
230.0, 26421.326568284818, 12908.22182991765, -36703.21842470389, -63123.62857146604, -187500.02235174447, 7869.781001780153, -119899.42877285824, -187500.02235174447, -39649.379509613456, 6375.790402387429, -5399.846184235356, -69817.01491081892, 140.70423134615797, -21985.198197984482, -5716.436292700326, 8398.310351170343, -0.046, 0.98, 0.25, 192.0, 0.0, 0.0, 0.0, 0.0, 0.0, 0.0, 0.0, 0.0, 0.0, 1.695418094175668E9, 0.0, 2023-09-22 16:28:14.175
232.0, 26418.55495197236, 12907.707739795178, -36708.716953839896, -63120.4993272423, -187500.02235174447, 7821.367123289958, -119989.03691637957, -187500.02235174447, -39647.6584252904, 6374.158725042192, -5393.319474854407, -69820.05474806485, 126.84614978386757, -21992.10488702117, -5740.911452878887, 8401.126670971713, -0.048, 0.976, 0.25, 192.0, 127.0, 64.0, 15.0, 64.0, 3.5, 104.0, 0.0, 0.0, 0.0, 1.695418094175679E9, 0.0, 2023-09-22 16:28:14.175
234.0, 26415.60452170426, 12908.98178922913, -36706.66059335001, -63124.433234266435, -187500.02235174447, 7869.93746399134, -119883.15670289478, -187500.02235174447, -39647.30079737912, 6382.0935943238255, -5408.2280884060965, -69814.3327014843, 139.38547842329484, -21996.01644230085, -5718.604411912491, 8395.494031368975, -0.048, 0.976, 0.25, 192.0, 0.0, 0.0, 0.0, 0.0, 0.0, 0.0, 0.0, 0.0, 0.0, 1.695418094175682E9, 0.0, 2023-09-22 16:28:14.175
236.0, 26414.732803670504, 12908.914733995764, -36720.40691619002, -63122.756853432285, -187500.02235174447, 7831.2465943392035, -119960.3149247545, -187500.02235174447, -39653.46987884878, 6375.790402387429, -5383.238838105063, -69823.31810275532, 121.81700728142349, -21996.977567312428, -5741.5149499791805, 8417.264630468444, -0.048, 0.976, 0.25, 192.0, 0.0, 0.0, 0.0, 0.0, 0.0, 0.0, 0.0, 0.0, 0.0, 1.695418094175685E9, 0.0, 2023-09-22 16:28:14.175
238.0, 26430.177859089123, 12925.74559757061, -36698.077523479165, -63109.97165560385, -187500.02235174447, 7855.453533584301, -119886.88944421882, -187500.02235174447, -39633.643881516924, 6397.717463698085, -5428.724638071613, -69807.53777116988, 141.71005984664677, -22025.856021148687, -5723.253574759195, 8379.445478850064, -0.048, 0.976, 0.25, 192.0, 0.0, 0.0, 0.0, 0.0, 0.0, 0.0, 0.0, 0.0, 0.0, 1.695418094175688E9, 0.0, 2023-09-22 16:28:14.175
240.0, 26429.306141055364, 12928.964248772176, -36701.31852642519, -63108.697606169895, -187500.02235174447, 7806.346751015992, -119978.15161682984, -187500.02235174447, -39620.992794155216, 6398.209202076102, -5395.465242322117, -69800.18404724408, 143.3864406807948, -22005.426526716536, -5722.404208469893, 8394.689368568585, -0.048, 0.976, 0.25, 192.0, 0.0, 0.0, 0.0, 0.0, 0.0, 0.0, 0.0, 0.0, 0.0, 1.695418094235135E9, 0.0, 2023-09-22 16:28:14.235
242.0, 26443.119519128744, 12943.045847779018, -36675.9045929795, -63091.68792863941, -187500.02235174447, 7824.9657541472625, -119919.81356380148, -187500.02235174447, -39611.627413228445, 6411.687303982652, -5438.64881260977, -69791.01983201741, 157.42333619872764, -22020.178678057036, -5706.579173395536, 8345.873158678194, -0.05, 0.972, 0.262, 192.0, 127.0, 56.0, 15.0, 48.0, 4.0, 24.0, 0.0, 0.0, 0.0, 1.695418094235149E9, 0.0, 2023-09-22 16:28:14.235
244.0, 26442.22544935053, 12947.672658881267, -36685.69465705093, -63089.38569896051, -187500.02235174447, 7787.414823462346, -119996.63650949438, -187500.02235174447, -39590.728532162735, 6435.827187994384, -5395.554649299937, -69765.85176776073, 174.3883102403057, -21987.902759063574, -5689.323626676039, 8372.002347946447, -0.05, 0.972, 0.262, 192.0, 0.0, 0.0, 0.0, 0.0, 0.0, 0.0, 0.0, 0.0, 0.0, 1.695418094235154E9, 0.0, 2023-09-22 16:28:14.235
246.0, 26404.026318076412, 12908.020664217553, -36711.2650527078, -63127.718940701365, -187500.02235174447, 7837.303917086592, -119900.52400833655, -187500.02235174447, -39625.37373606846, 6410.189737104147, -5427.69645782667, -69794.88668380817, 141.4865424020937, -22002.40904121507, -5699.203097725284, 8338.340620796755, -0.05, 0.972, 0.262, 192.0, 0.0, 0.0, 0.0, 0.0, 0.0, 0.0, 0.0, 0.0, 0.0, 1.695418094235158E9, 0.0, 2023-09-22 16:28:14.235
248.0, 26424.031129363913, 12928.18193771624, -36704.53717762675, -63104.94251310141, -187500.02235174447, 7823.1999663352935, -119941.31594196749, -187500.02235174447, -39627.4524483028, 6407.105196369314, -5361.445887261139, -69798.73118385448, 129.68482132969157, -21985.421715429035, -5713.1058827764855, 8410.916735043136, -0.05, 0.972, 0.262, 192.0, 0.0, 0.0, 0.0, 0.0, 0.0, 0.0, 0.0, 0.0, 0.0, 1.695418094235161E9, 0.0, 2023-09-22 16:28:14.235
250.0, 26411.022414090923, 12914.435614876225, -36704.26895669329, -63123.807385421685, -187500.02235174447, 7835.806350208087, -119902.37920312634, -187500.02235174447, -39606.397105025906, 6424.070170410892, -5424.567213602926, -69781.45328539054, 148.57204539442606, -22036.56250674278, -5701.862955315466, 8350.052934891335, -0.05, 0.972, 0.262, 192.0, 0.0, 0.0, 0.0, 0.0, 0.0, 0.0, 0.0, 0.0, 0.0, 1.695418094235164E9, 0.0, 2023-09-22 16:28:14.235
252.0, 26431.831888178815, 12934.976868030653, -36705.34184042714, -63105.52365845724, -187500.02235174447, 7829.301992571592, -119924.90976153729, -187500.02235174447, -39614.44373302981, 6415.643562751242, -5362.138791339254, -69792.78561982937, 136.79267606647923, -21991.948424809983, -5716.235127000228, 8422.159662504157, -0.044, 0.968, 0.26, 192.0, 127.0, 80.0, 15.0, 32.0, 4.0, 16.0, 0.0, 0.0, 0.0, 1.695418094235175E9, 0.0, 2023-09-22 16:28:14.235
