%OpenBCI Raw EXG Data
%Number of channels = 16
%Sample Rate = 125 Hz
%Board = OpenBCI_GUI$BoardCytonSerialDaisy
Sample Index, EXG Channel 0, EXG Channel 1, EXG Channel 2, EXG Channel 3, EXG Channel 4, EXG Channel 5, EXG Channel 6, EXG Channel 7, EXG Channel 8, EXG Channel 9, EXG Channel 10, EXG Channel 11, EXG Channel 12, EXG Channel 13, EXG Channel 14, EXG Channel 15, Accel Channel 0, Accel Channel 1, Accel Channel 2, Other, Other, Other, Other, Other, Other, Other, Analog Channel 0, Analog Channel 1, Analog Channel 2, Timestamp, Other, Timestamp (Formatted)
0.0, 26453.13310064472, 12961.217816021182, -36811.400867867575, -63181.69840356093, -187500.02235174447, 7793.539201443101, -119797.5271698865, -187500.02235174447, 0.0, 0.0, 0.0, 0.0, 0.0, 0.0, 0.0, 0.0, 0.0, 0.0, 0.0, 192.0, 0.0, 0.0, 0.0, 0.0, 0.0, 0.0, 0.0, 0.0, 0.0, 1.695418107973959E9, 0.0, 2023-09-22 16:28:27.973
240.0, 26449.690931998604, 12957.462722952692, -36831.472734388444, -63189.94619726494, -187500.02235174447, 7847.406905580391, -119705.99677634201, -187500.02235174447, -39731.54452223117, 6437.280051383978, -5320.542194907927, -69829.12955631371, -373.497649848181, -22081.89184449814, -5644.933062187799, 7979.751584500264, 0.0, 0.0, 0.0, 192.0, 0.0, 0.0, 0.0, 0.0, 0.0, 0.0, 0.0, 0.0, 0.0, 1.695418107973969E9, 0.0, 2023-09-22 16:28:27.973
242.0, 26476.825949767346, 12987.056432611518, -36798.414504339045, -63155.56921429268, -187500.02235174447, 7782.20686700426, -119818.15783001875, -187500.02235174447, -39702.151978272435, 6473.556932634942, -5363.435192517662, -69797.61359663172, -362.9699782097314, -22128.56228692082, -5651.146847146374, 7926.465025718811, 0.0, 0.0, 0.0, 192.0, 0.0, 0.0, 0.0, 0.0, 0.0, 0.0, 0.0, 0.0, 0.0, 1.695418107973973E9, 0.0, 2023-09-22 16:28:27.973
244.0, 26465.337153117318, 12974.42769699427, -36811.35616437867, -63165.02400219727, -187500.02235174447, 7824.295201813603, -119740.6196285033, -187500.02235174447, -39697.32400147009, 6482.207057739146, -5344.212692286097, -69787.04122150436, -344.26156810063935, -22097.269844683393, -5623.117759599419, 7938.222043302303, 0.0, 0.0, 0.0, 192.0, 0.0, 0.0, 0.0, 0.0, 0.0, 0.0, 0.0, 0.0, 0.0, 1.695418107973977E9, 0.0, 2023-09-22 16:28:27.973
246.0, 26474.926051488645, 12986.989377378151, -36800.69438227348, -63148.23784211133, -187500.02235174447, 7766.515942396634, -119855.55229849248, -187500.02235174447, -39702.442550950356, 6475.725051847106, -5366.407974530217, -69787.89058779366, -358.74549850767835, -22128.942266576563, -5644.0166406651315, 7903.956819052318, -0.025, 0.49, 0.127, 192.0, 127.0, 56.0, 15.0, 80.0, 3.5, 120.0, 0.0, 0.0, 0.0, 1.69541810797398E9, 0.0, 2023-09-22 16:28:27.973
248.0, 26470.299240386397, 12980.373261019382, -36808.71865853294, -63154.764551492284, -187500.02235174447, 7817.142643587905, -119769.00634396153, -187500.02235174447, -39707.78461787518, 6482.14000250578, -5352.885169134756, -69794.73022159698, -352.97874843820915, -22107.104612243726, -5617.641582207869, 7919.066598304105, -0.025, 0.49, 0.127, 192.0, 0.0, 0.0, 0.0, 0.0, 0.0, 0.0, 0.0, 0.0, 0.0, 1.695418107973983E9, 0.0, 2023-09-22 16:28:27.973
250.0, 26477.8988335012, 12988.174019834283, -36796.604013038166, -63144.99683916532, -187500.02235174447, 7742.800741529553, -119907.6989183067, -187500.02235174447, -39685.34346644205, 6490.365444465333, -5369.604273987326, -69772.89256726415, -349.3801175809047, -22121.342673461757, -5634.606556249447, 7885.22605719877, -0.025, 0.49, 0.127, 192.0, 0.0, 0.0, 0.0, 0.0, 0.0, 0.0, 0.0, 0.0, 0.0, 1.695418107973986E9, 0.0, 2023-09-22 16:28:27.973
252.0, 26446.584039519315, 12951.763028116588, -36822.040298228305, -63181.78781053875, -187500.02235174447, 7811.241783051704, -119792.65448959524, -187500.02235174447, -39719.09460056956, 6465.845580797861, -5361.825866916879, -69812.7233758835, -362.52294332062525, -22106.746984332443, -5625.867024167422, 7895.217286970293, -0.025, 0.49, 0.127, 192.0, 0.0, 0.0, 0.0, 0.0, 0.0, 0.0, 0.0, 0.0, 0.0, 1.69541810797399E9, 0.0, 2023-09-22 16:28:27.973
254.0, 26448.908620942668, 12954.378182217859, -36826.84592328619, -63180.80433378272, -187500.02235174447, 7757.955224270252, -119910.3587758969, -187500.02235174447, -39717.753495902245, 6454.13326670328, -5353.689831935148, -69815.04795730686, -373.54235333709164, -22117.72169086, -5652.3538413469605, 7898.771214338686, -0.025, 0.49, 0.127, 192.0, 0.0, 0.0, 0.0, 0.0, 0.0, 0.0, 0.0, 0.0, 0.0, 1.695418107973993E9, 0.0, 2023-09-22 16:28:27.973
0.0, 13147.631364778445, 6421.320905842889, -18460.909242738395, -31619.87294195568, -93750.01117587223, 3878.4746978848816, -59140.994744419426, -93750.01117587223, -19862.49773055288, 3225.803759789915, -2668.8206397081185, -34911.99432754449, -182.07731033293132, -11051.596528482025, -2819.002010703327, 3963.076050648219, -0.0345, 0.734, 0.1925, 192.0, 127.0, 80.0, 15.0, 72.0, 4.0, 8.0, 0.0, 0.0, 0.0, 1.69541810805576E9, 0.0, 2023-09-22 16:28:28.055
2.0, 26286.053810841302, 12837.702076161157, -36935.54245657235, -63235.163776298024, -187500.02235174447, 7728.920308222808, -118356.01846647484, -187500.02235174447, -39888.40906481851, 6338.060657746871, -5426.377704903806, -69857.42686479412, -840.4926467529115, -22213.789488528906, -5588.293741738051, 8402.735996572495, -0.0345, 0.734, 0.1925, 192.0, 0.0, 0.0, 0.0, 0.0, 0.0, 0.0, 0.0, 0.0, 0.0, 1.695418108116339E9, 0.0, 2023-09-22 16:28:28.116
4.0, 26279.974136349458, 12834.863404615333, -36915.38118307367, -63230.80518612924, -187500.02235174447, 7738.978593227696, -118317.01467240033, -187500.02235174447, -39884.00577116082, 6352.119905009259, -5481.474754986139, -69851.68246646911, -829.7861611588194, -22238.242296963013, -5579.263636978107, 8358.300728595344, -0.0345, 0.734, 0.1925, 192.0, 0.0, 0.0, 0.0, 0.0, 0.0, 0.0, 0.0, 0.0, 0.0, 1.69541810811635E9, 0.0, 2023-09-22 16:28:28.116
6.0, 26269.11118854418, 12827.48732894508, -36928.12167741319, -63233.10741580814, -187500.02235174447, 7724.695828520755, -118357.67249556453, -187500.02235174447, -39889.12432064108, 6345.347326439301, -5444.952004546167, -69859.41617005065, -827.7074489244758, -22209.3414913823, -5574.256846220118, 8401.908982027648, -0.0345, 0.734, 0.1925, 192.0, 0.0, 0.0, 0.0, 0.0, 0.0, 0.0, 0.0, 0.0, 0.0, 1.695418108116354E9, 0.0, 2023-09-22 16:28:28.116
8.0, 26239.696292840996, 12796.172534963196, -36935.65421529463, -63263.52814001181, -187500.02235174447, 7738.419799616314, -118309.79505894126, -187500.02235174447, -39897.17094864499, 6343.738000838519, -5503.826499441445, -69865.29467884239, -834.4800274944339, -22238.935201041128, -5584.918628325299, 8348.577719757286, -0.05, 0.972, 0.264, 192.0, 127.0, 56.0, 15.0, 48.0, 4.0, 32.0, 0.0, 0.0, 0.0, 1.695418108116357E9, 0.0, 2023-09-22 16:28:28.116
10.0, 26256.884784327125, 12808.95773279163, -36927.965215202, -63247.50193923735, -187500.02235174447, 7729.255584389638, -118327.31882659422, -187500.02235174447, -39911.16314067401, 6322.280326161424, -5450.383478448806, -69886.05944944137, -849.4333445350343, -22211.889590250208, -5600.743663399657, 8415.297676956377, -0.05, 0.972, 0.264, 192.0, 0.0, 0.0, 0.0, 0.0, 0.0, 0.0, 0.0, 0.0, 0.0, 1.69541810811636E9, 0.0, 2023-09-22 16:28:28.116
12.0, 26226.57581884573, 12778.268787654495, -36935.09542168325, -63272.647651749576, -187500.02235174447, 7736.452846104246, -118306.35289029514, -187500.02235174447, -39906.04459119375, 6319.4416546156, -5519.003333926598, -69882.25965288396, -844.5606642437774, -22253.039151792425, -5592.428814462282, 8345.64964123364, -0.05, 0.972, 0.264, 192.0, 0.0, 0.0, 0.0, 0.0, 0.0, 0.0, 0.0, 0.0, 0.0, 1.695418108116363E9, 0.0, 2023-09-22 16:28:28.116
14.0, 26256.460101182474, 12815.35033170585, -36923.98660468896, -63238.33772401068, -187500.02235174447, 7731.803683257543, -118312.924303165, -187500.02235174447, -39912.012506963314, 6331.936279766117, -5465.359147233862, -69880.91854821665, -847.6452049786097, -22214.77296528494, -5596.25096276414, 8415.252973467466, -0.05, 0.972, 0.264, 192.0, 0.0, 0.0, 0.0, 0.0, 0.0, 0.0, 0.0, 0.0, 0.0, 1.695418108116367E9, 0.0, 2023-09-22 16:28:28.116
16.0, 26227.313426412755, 12778.112325443308, -36938.62699730718, -63269.16077961455, -187500.02235174447, 7714.9057644493305, -118334.35962609765, -187500.02235174447, -39910.89491974055, 6335.937242023617, -5524.524214807059, -69879.06335342686, -850.0815451242382, -22250.625163391254, -5602.643561678357, 8344.263833077412, -0.05, 0.972, 0.264, 192.0, 0.0, 0.0, 0.0, 0.0, 0.0, 0.0, 0.0, 0.0, 0.0, 1.695418108176093E9, 0.0, 2023-09-22 16:28:28.176
18.0, 26251.900345313592, 12812.53401190448, -36921.25969186541, -63230.760482640326, -187500.02235174447, 7731.490758835168, -118312.74548920937, -187500.02235174447, -39913.37596337509, 6314.479567346521, -5478.166696806753, -69881.38793485021, -850.9979666469058, -22224.004235744982, -5600.654256421835, 8399.025606992915, -0.038, 0.978, 0.266, 192.0, 127.0, 104.0, 15.0, 72.0, 4.0, 40.0, 0.0, 0.0, 0.0, 1.695418108176111E9, 0.0, 2023-09-22 16:28:28.176
20.0, 26213.85767625066, 12773.23964515205, -36945.913665999615, -63276.22393086242, -187500.02235174447, 7709.407235313325, -118352.24102166189, -187500.02235174447, -39904.1670446595, 6347.135465995725, -5522.601964783903, -69862.36660031875, -845.6782514665427, -22238.689331852118, -5599.424910476793, 8336.84305391825, -0.038, 0.978, 0.266, 192.0, 0.0, 0.0, 0.0, 0.0, 0.0, 0.0, 0.0, 0.0, 0.0, 1.695418108176116E9, 0.0, 2023-09-22 16:28:28.176
22.0, 26234.130708471625, 12787.544761603447, -36938.425831607085, -63254.92271839651, -187500.02235174447, 7745.1923781862715, -118285.34225050715, -187500.02235174447, -39945.517771901825, 6282.29305533088, -5468.0413565684985, -69917.5530573789, -877.0377489373385, -22213.811840273363, -5627.945736401765, 8416.884650812704, -0.038, 0.978, 0.266, 192.0, 0.0, 0.0, 0.0, 0.0, 0.0, 0.0, 0.0, 0.0, 0.0, 1.69541810817612E9, 0.0, 2023-09-22 16:28:28.176
24.0, 26228.363958402155, 12780.168685933195, -36935.721270527996, -63265.495093523874, -187500.02235174447, 7698.030197385574, -118365.69677182399, -187500.02235174447, -39897.416817834004, 6328.49411112, -5527.027610186054, -69871.79903647889, -839.732687441431, -22254.983753560038, -5598.284971509573, 8342.74391445445, -0.038, 0.978, 0.266, 192.0, 0.0, 0.0, 0.0, 0.0, 0.0, 0.0, 0.0, 0.0, 0.0, 1.695418108176124E9, 0.0, 2023-09-22 16:28:28.176
26.0, 26232.879010782126, 12787.05302322543, -36947.50063985594, -63264.06458187874, -187500.02235174447, 7740.252642661649, -118274.81457886871, -187500.02235174447, -39932.66551884002, 6296.128785148715, -5489.722548690146, -69906.82422004035, -866.8453534657185, -22217.432822875122, -5608.2091460477295, 8396.14223195818, -0.038, 0.978, 0.266, 192.0, 0.0, 0.0, 0.0, 0.0, 0.0, 0.0, 0.0, 0.0, 0.0, 1.695418108176128E9, 0.0, 2023-09-22 16:28:28.176
28.0, 26218.70800479746, 12772.882017240765, -36958.25182893894, -63281.52129429833, -187500.02235174447, 7699.483060775168, -118348.12830068212, -187500.02235174447, -39920.88614951207, 6304.644799786187, -5518.019857170565, -69892.78732452242, -865.4148418205789, -22247.965305801074, -5618.245079308162, 8349.382382557676, -0.04, 0.976, 0.268, 192.0, 127.0, 96.0, 15.0, 64.0, 4.0, 48.0, 0.0, 0.0, 0.0, 1.695418108176133E9, 0.0, 2023-09-22 16:28:28.176
30.0, 26235.069481738745, 12785.980139491576, -36945.980721232976, -63261.98586964439, -187500.02235174447, 7735.938755981774, -118263.57165140769, -187500.02235174447, -39936.912350286526, 6286.897514688673, -5500.339627306417, -69906.48894387353, -870.3545773452017, -22234.73307308353, -5611.3830937603825, 8388.877915010204, -0.04, 0.976, 0.268, 192.0, 0.0, 0.0, 0.0, 0.0, 0.0, 0.0, 0.0, 0.0, 0.0, 1.695418108176138E9, 0.0, 2023-09-22 16:28:28.176
32.0, 26226.553467101276, 12773.977252719076, -36938.96227347401, -63268.445523791976, -187500.02235174447, 7668.1235633043725, -118380.27010920884, -187500.02235174447, -39900.5684138022, 6318.748750537486, -5534.358982367395, -69873.11778940175, -846.2593968223807, -22257.800073361406, -5603.604686689936, 8337.066571362802, -0.04, 0.976, 0.268, 192.0, 0.0, 0.0, 0.0, 0.0, 0.0, 0.0, 0.0, 0.0, 0.0, 1.695418108236141E9, 0.0, 2023-09-22 16:28:28.236
34.0, 26208.493257581387, 12750.373810574272, -36949.221724179, -63288.785611246305, -187500.02235174447, 7724.740532009666, -118260.97884905087, -187500.02235174447, -39938.20875146494, 6270.044299369371, -5516.94697343671, -69923.72213884856, -867.6276645216542, -22233.146099227204, -5603.001189589642, 8364.916844954116, -0.04, 0.976, 0.268, 192.0, 0.0, 0.0, 0.0, 0.0, 0.0, 0.0, 0.0, 0.0, 0.0, 1.695418108236152E9, 0.0, 2023-09-22 16:28:28.236
36.0, 26197.13857139809, 12730.793682431422, -36955.68137832658, -63298.2403991509, -187500.02235174447, 7670.872827872376, -118353.7385885404, -187500.02235174447, -39932.24083569537, 6259.024889352905, -5523.697200262213, -69927.8572115728, -873.282655868847, -22252.078026780848, -5618.4238932638045, 8357.540769283863, -0.04, 0.976, 0.268, 192.0, 0.0, 0.0, 0.0, 0.0, 0.0, 0.0, 0.0, 0.0, 0.0, 1.695418108236156E9, 0.0, 2023-09-22 16:28:28.236
38.0, 26185.538016025785, 12720.46717649307, -36967.997189521455, -63306.86817251065, -187500.02235174447, 7728.71914252271, -118233.62031383757, -187500.02235174447, -39949.51873415932, 6237.209586764525, -5536.929432979755, -69948.21965077159, -876.9706937039726, -22261.443407707622, -5612.344218771961, 8364.98390018748, -0.044, 0.978, 0.268, 192.0, 127.0, 80.0, 15.0, 72.0, 4.0, 48.0, 0.0, 0.0, 0.0, 1.69541810823616E9, 0.0, 2023-09-22 16:28:28.236
40.0, 26196.602129531162, 12733.587650488336, -36958.497698127954, -63287.891541468096, -187500.02235174447, 7684.194467567739, -118320.90387593555, -187500.02235174447, -39945.74128934638, 6244.026868823394, -5518.645706015313, -69938.13901402224, -885.5537635748105, -22256.615430905276, -5625.934079400788, 8384.89930449716, -0.044, 0.978, 0.268, 192.0, 0.0, 0.0, 0.0, 0.0, 0.0, 0.0, 0.0, 0.0, 0.0, 1.695418108236164E9, 0.0, 2023-09-22 16:28:28.236
42.0, 26198.47967606541, 12729.407874275194, -36948.30530265633, -63288.360928101654, -187500.02235174447, 7716.224517372194, -118227.16065969, -187500.02235174447, -39938.029937509295, 6244.7421246459635, -5544.19374992773, -69933.26633373098, -866.8453534657185, -22268.059524066393, -5602.352989000438, 8370.773002001406, -0.044, 0.978, 0.268, 192.0, 0.0, 0.0, 0.0, 0.0, 0.0, 0.0, 0.0, 0.0, 0.0, 1.695418108236171E9, 0.0, 2023-09-22 16:28:28.236
44.0, 26199.261987121343, 12730.167833586675, -36961.783404562884, -63288.18211414601, -187500.02235174447, 7656.388897465336, -118324.8824864486, -187500.02235174447, -39923.3224896577, 6249.748915403952, -5530.603889298903, -69922.64925511471, -867.0912226547268, -22266.830178121352, -5617.999210119154, 8374.37163285871, -0.044, 0.978, 0.268, 192.0, 0.0, 0.0, 0.0, 0.0, 0.0, 0.0, 0.0, 0.0, 0.0, 1.695418108236176E9, 0.0, 2023-09-22 16:28:28.236
46.0, 26169.869443162614, 12702.652836162191, -36980.111835016236, -63311.45028012399, -187500.02235174447, 7707.529688779079, -118206.86527572457, -187500.02235174447, -39961.588676165185, 6215.394284176145, -5560.868151291389, -69959.03789508795, -891.1864031775478, -22277.64842243772, -5626.515224756626, 8346.878987178683, -0.044, 0.978, 0.268, 192.0, 0.0, 0.0, 0.0, 0.0, 0.0, 0.0, 0.0, 0.0, 0.0, 1.695418108294956E9, 0.0, 2023-09-22 16:28:28.294
48.0, 26195.261024863845, 12731.33012429835, -36970.61234362273, -63285.74577400038, -187500.02235174447, 7667.408307481803, -118285.18578829597, -187500.02235174447, -39942.679100356, 6240.361182732723, -5525.373581096361, -69934.83095584286, -880.7928420058302, -22260.12465478476, -5631.186739347785, 8380.585417817285, -0.044, 0.976, 0.262, 192.0, 127.0, 80.0, 15.0, 64.0, 4.0, 24.0, 0.0, 0.0, 0.0, 1.695418108294971E9, 0.0, 2023-09-22 16:28:28.294
50.0, 26178.966603155925, 12713.381673500739, -36967.05841625433, -63305.638826565606, -187500.02235174447, 7690.184735081761, -118213.07906068314, -187500.02235174447, -39943.9307980455, 6243.490426956467, -5574.949750298232, -69933.73572036454, -875.0931471697268, -22275.323841014368, -5625.218823578218, 8327.991763113949, -0.044, 0.976, 0.262, 192.0, 0.0, 0.0, 0.0, 0.0, 0.0, 0.0, 0.0, 0.0, 0.0, 1.695418108294975E9, 0.0, 2023-09-22 16:28:28.294
52.0, 26174.630364731594, 12709.224249032051, -36978.54721290436, -63312.05377722428, -187500.02235174447, 7670.626958683367, -118254.63095362556, -187500.02235174447, -39955.55370516225, 6219.596412133743, -5529.553357309504, -69947.68320890465, -888.0124554648943, -22254.559070415387, -5638.451056295759, 8372.248217135455, -0.044, 0.976, 0.262, 192.0, 0.0, 0.0, 0.0, 0.0, 0.0, 0.0, 0.0, 0.0, 0.0, 1.695418108294978E9, 0.0, 2023-09-22 16:28:28.294
54.0, 26160.19113781347, 12690.582894156325, -36990.03600955439, -63338.51824265936, -187500.02235174447, 7692.174040338283, -118189.5426737717, -187500.02235174447, -39967.19896402347, 6202.497327625433, -5577.587256143958, -69962.74828466753, -900.8423567822406, -22291.193579577637, -5645.715373243735, 8327.902356136126, -0.044, 0.976, 0.262, 192.0, 0.0, 0.0, 0.0, 0.0, 0.0, 0.0, 0.0, 0.0, 0.0, 1.695418108294981E9, 0.0, 2023-09-22 16:28:28.294
56.0, 26187.482617793397, 12717.60615320279, -36977.11670125922, -63310.82443127924, -187500.02235174447, 7669.889351116342, -118221.59507532061, -187500.02235174447, -39958.12415577462, 6205.693627082543, -5532.2579183885955, -69962.4130085007, -898.2048509365143, -22279.07893408286, -5652.30913785805, 8385.905132997648, -0.044, 0.976, 0.262, 192.0, 0.0, 0.0, 0.0, 0.0, 0.0, 0.0, 0.0, 0.0, 0.0, 1.695418108294984E9, 0.0, 2023-09-22 16:28:28.294
58.0, 26181.246481090366, 12712.956990356088, -36967.572506376804, -63314.2442481809, -187500.02235174447, 7666.223665025672, -118197.65635700898, -187500.02235174447, -39950.412803937536, 6224.513795913911, -5589.947770827744, -69949.04666531643, -885.3749496191681, -22318.261542113014, -5637.9146144288325, 8317.195870542035, -0.04, 0.972, 0.268, 192.0, 127.0, 96.0, 15.0, 48.0, 4.0, 48.0, 0.0, 0.0, 0.0, 1.695418108294987E9, 0.0, 2023-09-22 16:28:28.294
60.0, 26174.60801298714, 12708.03960657592, -36985.476253685505, -63317.82052729375, -187500.02235174447, 7674.829086640965, -118180.53492075622, -187500.02235174447, -39961.00753080935, 6212.600316119232, -5533.0178777000765, -69956.69096192015, -892.6839700560535, -22284.04102135194, -5638.11578012893, 8378.238484649479, -0.04, 0.972, 0.268, 192.0, 0.0, 0.0, 0.0, 0.0, 0.0, 0.0, 0.0, 0.0, 0.0, 1.69541810829499E9, 0.0, 2023-09-22 16:28:28.294
62.0, 26179.011306644836, 12717.673208436157, -36968.08659649928, -63306.91287599956, -187500.02235174447, 7671.543380206035, -118174.74581894229, -187500.02235174447, -39965.00849306685, 6218.0317900218715, -5580.984721301165, -69956.62390668677, -903.859842283707, -22309.74552747554, -5651.057440168553, 8328.103521836225, -0.04, 0.972, 0.268, 192.0, 0.0, 0.0, 0.0, 0.0, 0.0, 0.0, 0.0, 0.0, 0.0, 1.69541810835522E9, 0.0, 2023-09-22 16:28:28.355
64.0, 26205.967510457936, 12740.986077903042, -36951.278084668884, -63276.268634351334, -187500.02235174447, 7680.081746587962, -118175.41637127595, -187500.02235174447, -39946.81417308023, 6232.962755318017, -5529.933336965244, -69938.00490355551, -881.2398768949363, -22273.155721802203, -5614.06530309502, 8382.999406218458, -0.04, 0.972, 0.268, 192.0, 0.0, 0.0, 0.0, 0.0, 0.0, 0.0, 0.0, 0.0, 0.0, 1.695418108355232E9, 0.0, 2023-09-22 16:28:28.355
66.0, 26179.52539676731, 12714.052225834397, -36958.631808594684, -63299.22387590694, -187500.02235174447, 7656.947691076719, -118206.44059257992, -187500.02235174447, -39937.694661342466, 6242.372839733701, -5580.805907345522, -69931.70171161911, -878.4235570935675, -22304.336405317357, -5610.801948404544, 8309.842146616238, -0.04, 0.972, 0.268, 192.0, 0.0, 0.0, 0.0, 0.0, 0.0, 0.0, 0.0, 0.0, 0.0, 1.695418108355236E9, 0.0, 2023-09-22 16:28:28.355
68.0, 26169.400056529055, 12701.915228595166, -36977.98841929298, -63313.43958538051, -187500.02235174447, 7690.587066481957, -118140.79351911468, -187500.02235174447, -39959.04057729728, 6219.551708644833, -5527.251127630607, -69954.50049096352, -885.6878740415424, -22276.754352659507, -5608.879698381388, 8373.857542736238, -0.036000000000000004, 0.976, 0.266, 192.0, 127.0, 112.0, 15.0, 64.0, 4.0, 40.0, 0.0, 0.0, 0.0, 1.69541810835524E9, 0.0, 2023-09-22 16:28:28.355
70.0, 26180.71003922344, 12717.494394480515, -36962.632770852186, -63294.932340971514, -187500.02235174447, 7651.583272407445, -118194.7506302298, -187500.02235174447, -39959.688777886484, 6220.535185400866, -5567.528971139071, -69951.10302580631, -895.4779381129669, -22319.155611891227, -5628.057495124041, 8326.762417168906, -0.036000000000000004, 0.976, 0.266, 192.0, 0.0, 0.0, 0.0, 0.0, 0.0, 0.0, 0.0, 0.0, 0.0, 1.695418108355243E9, 0.0, 2023-09-22 16:28:28.355
72.0, 26181.55940551274, 12716.37680725775, -36971.05937851183, -63296.42990785002, -187500.02235174447, 7692.643426971845, -118112.58561761209, -187500.02235174447, -39961.320455231726, 6221.89864181264, -5532.436732344238, -69953.62877292976, -885.4643565969893, -22289.763067932498, -5607.806814647533, 8369.633063034185, -0.036000000000000004, 0.976, 0.266, 192.0, 0.0, 0.0, 0.0, 0.0, 0.0, 0.0, 0.0, 0.0, 0.0, 1.695418108355247E9, 0.0, 2023-09-22 16:28:28.355
74.0, 26198.725545254416, 12742.103665125807, -36950.093442212754, -63271.70887848245, -187500.02235174447, 7652.209121252195, -118187.91099642646, -187500.02235174447, -39942.030899766796, 6251.112371815726, -5557.448334389727, -69926.33729294983, -878.4012053491123, -22306.504524529522, -5617.641582207869, 8328.639963703152, -0.036000000000000004, 0.976, 0.266, 192.0, 0.0, 0.0, 0.0, 0.0, 0.0, 0.0, 0.0, 0.0, 0.0, 1.695418108355251E9, 0.0, 2023-09-22 16:28:28.355
76.0, 26189.650737005562, 12733.341781299327, -36970.56764013382, -63288.31622461275, -187500.02235174447, 7702.724063721188, -118094.2795389032, -187500.02235174447, -39943.99785327886, 6266.825648167807, -5527.720514264169, -69919.47530740206, -871.4945163124223, -22270.249995023012, -5597.368549986905, 8360.960586185525, -0.036000000000000004, 0.976, 0.266, 192.0, 0.0, 0.0, 0.0, 0.0, 0.0, 0.0, 0.0, 0.0, 0.0, 1.695418108416905E9, 0.0, 2023-09-22 16:28:28.416
78.0, 26178.31840256672, 12717.829670647345, -36987.5326141754, -63308.74571904489, -187500.02235174447, 7667.967101093185, -118156.99853384479, -187500.02235174447, -39969.12121404662, 6236.5837379197765, -5532.772008511068, -69945.91742109269, -908.7995778083299, -22281.872902139774, -5653.203207636262, 8351.03641164737, -0.032, 0.974, 0.26, 192.0, 127.5, 0.0, 15.0, 56.0, 4.0, 16.0, 0.0, 0.0, 0.0, 1.695418108416917E9, 0.0, 2023-09-22 16:28:28.416
80.0, 26183.61576600263, 12723.462310250081, -36977.94371580407, -63304.364777131654, -187500.02235174447, 7699.550116008534, -118069.17852987988, -187500.02235174447, -39971.24462976988, 6228.671220382598, -5532.950822466711, -69953.62877292976, -901.1105777157043, -22277.84958813782, -5639.501588285159, 8374.282225880888, -0.032, 0.974, 0.26, 192.0, 0.0, 0.0, 0.0, 0.0, 0.0, 0.0, 0.0, 0.0, 0.0, 1.695418108416921E9, 0.0, 2023-09-22 16:28:28.416
82.0, 26188.667260249527, 12723.886993394732, -36957.00013124945, -63290.752564758375, -187500.02235174447, 7630.818501808465, -118184.13355161353, -187500.02235174447, -39940.198056721456, 6242.529301944888, -5551.189845942241, -69927.38782493923, -881.0387111948385, -22307.376242563278, -5635.120646371919, 8334.965507384004, -0.032, 0.974, 0.26, 192.0, 0.0, 0.0, 0.0, 0.0, 0.0, 0.0, 0.0, 0.0, 0.0, 1.695418108416924E9, 0.0, 2023-09-22 16:28:28.416
84.0, 26165.622611716106, 12698.316597737861, -36982.65993388414, -63319.45220463899, -187500.02235174447, 7699.863040430909, -118055.70042797332, -187500.02235174447, -39973.412748982046, 6209.739292828953, -5534.850720745411, -69961.20601430011, -898.0483887253272, -22293.764030189996, -5628.504530013148, 8356.400830316643, -0.032, 0.974, 0.26, 192.0, 0.0, 0.0, 0.0, 0.0, 0.0, 0.0, 0.0, 0.0, 0.0, 1.695418108416927E9, 0.0, 2023-09-22 16:28:28.416
86.0, 26170.18236758499, 12702.786946628923, -36981.27412572791, -63313.68545456952, -187500.02235174447, 7653.282004986049, -118147.7896151292, -187500.02235174447, -39970.328208247214, 6208.509946883911, -5523.004296184099, -69959.84255788835, -908.2854876858578, -22297.250902325024, -5652.68911751379, 8365.140362398668, -0.032, 0.974, 0.26, 192.0, 0.0, 0.0, 0.0, 0.0, 0.0, 0.0, 0.0, 0.0, 0.0, 1.69541810841693E9, 0.0, 2023-09-22 16:28:28.416
88.0, 26158.000666856846, 12684.972606298043, -36988.002000808956, -63331.11981524466, -187500.02235174447, 7709.183717868772, -118021.39050023444, -187500.02235174447, -39978.4865949734, 6195.501231610922, -5534.00135445611, -69972.20307257213, -901.4235021380786, -22305.833972195862, -5634.248928338162, 8360.267682107411, -0.034, 0.974, 0.262, 192.0, 127.0, 120.0, 15.0, 56.0, 4.0, 24.0, 0.0, 0.0, 0.0, 1.695418108416934E9, 0.0, 2023-09-22 16:28:28.416
90.0, 26189.337812583188, 12718.075539836353, -36969.07007325531, -63301.45905035247, -187500.02235174447, 7650.957423562697, -118122.5768473836, -187500.02235174447, -39956.134850518094, 6199.882173524163, -5516.365828080872, -69957.42856948717, -894.6732753125758, -22311.645425754243, -5638.741628973678, 8374.505743325442, -0.034, 0.974, 0.262, 192.0, 0.0, 0.0, 0.0, 0.0, 0.0, 0.0, 0.0, 0.0, 0.0, 1.695418108416937E9, 0.0, 2023-09-22 16:28:28.416
92.0, 26166.002591371845, 12701.043510561409, -36986.32561997481, -63321.55326861778, -187500.02235174447, 7693.850421172431, -118023.04452932412, -187500.02235174447, -39965.41082446704, 6208.733464328464, -5549.0440784745315, -69956.28863051995, -889.733539787953, -22319.669702013696, -5617.105140340941, 8339.614670230707, -0.034, 0.974, 0.262, 192.0, 0.0, 0.0, 0.0, 0.0, 0.0, 0.0, 0.0, 0.0, 0.0, 1.69541810847576E9, 0.0, 2023-09-22 16:28:28.475
94.0, 26184.28631833629, 12723.171737572162, -36980.64827688316, -63301.97314047494, -187500.02235174447, 7646.956461305197, -118111.87036178952, -187500.02235174447, -39965.32141748922, 6221.093979012248, -5516.164662380775, -69948.44316821614, -895.4779381129669, -22303.30822507241, -5638.518111529125, 8366.146190899157, -0.034, 0.974, 0.262, 192.0, 0.0, 0.0, 0.0, 0.0, 0.0, 0.0, 0.0, 0.0, 0.0, 1.695418108475773E9, 0.0, 2023-09-22 16:28:28.475
96.0, 26163.052161103747, 12702.585780928825, -36986.660896141635, -63321.28504768432, -187500.02235174447, 7686.51904899109, -118021.68107291235, -187500.02235174447, -39974.798557138274, 6214.209641720015, -5557.247168689629, -69959.52963346597, -899.0318654813607, -22313.075937399382, -5637.221710350717, 8328.79642591434, -0.034, 0.974, 0.262, 192.0, 0.0, 0.0, 0.0, 0.0, 0.0, 0.0, 0.0, 0.0, 0.0, 1.695418108475777E9, 0.0, 2023-09-22 16:28:28.475
98.0, 26176.08322812119, 12712.956990356088, -36979.73185536049, -63303.314245142254, -187500.02235174447, 7661.507446945602, -118078.1639311509, -187500.02235174447, -39972.04929257027, 6217.5624033883105, -5512.454272801194, -69953.65112467422, -899.8588800262071, -22286.03032660846, -5636.461751039237, 8379.266664894421, -0.038, 0.98, 0.264, 192.0, 127.0, 104.0, 15.0, 80.0, 4.0, 32.0, 0.0, 0.0, 0.0, 1.69541810847578E9, 0.0, 2023-09-22 16:28:28.475
100.0, 26183.70517298045, 12716.354455513294, -36968.5783348773, -63305.080032954225, -187500.02235174447, 7667.430659226258, -118037.79668066463, -187500.02235174447, -39954.90550457305, 6225.921955814595, -5566.1878664717515, -69941.64823790173, -884.6373420521429, -22310.03610015346, -5621.374323531905, 8319.140472309646, -0.038, 0.98, 0.264, 192.0, 0.0, 0.0, 0.0, 0.0, 0.0, 0.0, 0.0, 0.0, 0.0, 1.695418108475783E9, 0.0, 2023-09-22 16:28:28.475
102.0, 26180.687687478985, 12716.130938068742, -36989.00782930945, -63308.11987020015, -187500.02235174447, 7658.3782027218585, -118071.77133223669, -187500.02235174447, -39966.79663262327, 6217.763569088408, -5518.533947293037, -69950.56658393939, -900.8423567822406, -22279.50361722751, -5629.890338169377, 8365.922673454605, -0.038, 0.98, 0.264, 192.0, 0.0, 0.0, 0.0, 0.0, 0.0, 0.0, 0.0, 0.0, 0.0, 1.695418108475787E9, 0.0, 2023-09-22 16:28:28.475
104.0, 26159.162957568522, 12690.761708111968, -36986.43737869708, -63327.11885298716, -187500.02235174447, 7680.417022754792, -118020.63054092295, -187500.02235174447, -39982.12992931961, 6201.916182269595, -5556.777782056068, -69960.7142759221, -910.5206621313885, -22298.12262035878, -5634.695963227268, 8328.058818347314, -0.038, 0.98, 0.264, 192.0, 0.0, 0.0, 0.0, 0.0, 0.0, 0.0, 0.0, 0.0, 0.0, 1.69541810847579E9, 0.0, 2023-09-22 16:28:28.475
106.0, 26193.808161474248, 12725.988057373532, -36971.39465467866, -63291.91485547005, -187500.02235174447, 7666.313072003493, -118044.34574179004, -187500.02235174447, -39973.97154259343, 6201.983237502961, -5501.524269762549, -69957.7191421651, -907.9278597745729, -22270.74173340103, -5632.058457381542, 8391.85069702276, -0.038, 0.98, 0.264, 192.0, 0.0, 0.0, 0.0, 0.0, 0.0, 0.0, 0.0, 0.0, 0.0, 1.695418108537067E9, 0.0, 2023-09-22 16:28:28.537
108.0, 26178.56427175573, 12709.313656009872, -36975.64148612517, -63309.14805044509, -187500.02235174447, 7655.807752109498, -118044.59161097904, -187500.02235174447, -39953.98908305039, 6220.758702845419, -5567.19369497224, -69938.25077274452, -888.9959322209278, -22306.951559418627, -5619.96616363122, 8315.251268774422, -0.028, 0.978, 0.262, 192.0, 127.5, 16.0, 15.0, 72.0, 4.0, 24.0, 0.0, 0.0, 0.0, 1.695418108537089E9, 0.0, 2023-09-22 16:28:28.537
110.0, 26183.23578634689, 12717.60615320279, -36980.69298037207, -63300.96731197445, -187500.02235174447, 7663.697917902222, -118032.18639280634, -187500.02235174447, -39962.974484321414, 6214.254345208925, -5510.934354178233, -69945.85036585933, -894.5168131013886, -22272.373410746266, -5621.821358421012, 8377.433821849087, -0.028, 0.978, 0.262, 192.0, 0.0, 0.0, 0.0, 0.0, 0.0, 0.0, 0.0, 0.0, 0.0, 1.695418108537094E9, 0.0, 2023-09-22 16:28:28.537
112.0, 26176.686725221483, 12715.348627012805, -36979.48598617149, -63306.8458207662, -187500.02235174447, 7655.450124198213, -118025.0114828362, -187500.02235174447, -39972.11634780364, 6208.487595139456, -5552.19567444273, -69950.67834266166, -905.826795795774, -22301.765954704995, -5640.708582485746, 8326.583603213263, -0.028, 0.978, 0.262, 192.0, 0.0, 0.0, 0.0, 0.0, 0.0, 0.0, 0.0, 0.0, 0.0, 1.695418108537098E9, 0.0, 2023-09-22 16:28:28.537
114.0, 26194.590472530184, 12734.213499333084, -36973.60747737974, -63287.95859670146, -187500.02235174447, 7676.349005263925, -117984.1524939719, -187500.02235174447, -39965.41082446704, 6231.845168095251, -5503.066540129965, -69936.37322621027, -895.9473247465284, -22267.478378710555, -5619.742646186668, 8384.161696930134, -0.028, 0.978, 0.262, 192.0, 0.0, 0.0, 0.0, 0.0, 0.0, 0.0, 0.0, 0.0, 0.0, 1.695418108537103E9, 0.0, 2023-09-22 16:28:28.537
116.0, 26185.04627764777, 12720.936563126632, -36972.84751806826, -63301.88373349712, -187500.02235174447, 7639.245109468116, -118025.10088981401, -187500.02235174447, -39952.156240005046, 6242.909281600629, -5554.810828544, -69923.18569698164, -889.1747461765702, -22305.74456521804, -5626.068189867519, 8307.763434381895, -0.028, 0.978, 0.262, 192.0, 0.0, 0.0, 0.0, 0.0, 0.0, 0.0, 0.0, 0.0, 0.0, 1.695418108537108E9, 0.0, 2023-09-22 16:28:28.537
118.0, 26180.620632245616, 12713.471080478559, -36982.2799542284, -63310.98089349043, -187500.02235174447, 7671.364566250392, -117950.02138018864, -187500.02235174447, -39970.9317053475, 6216.042484765349, -5506.508708776082, -69948.9572583386, -902.3846271496567, -22275.681468925653, -5630.069152125019, 8357.719583239506, -0.04, 0.976, 0.268, 192.0, 127.0, 96.0, 15.0, 64.0, 4.0, 48.0, 0.0, 0.0, 0.0, 1.695418108537112E9, 0.0, 2023-09-22 16:28:28.537
120.0, 26163.52154773731, 12693.488620935515, -36990.39363746568, -63325.218954708456, -187500.02235174447, 7642.396705436315, -117987.37114517346, -187500.02235174447, -39968.47301345742, 6212.175632974581, -5540.1257324368635, -69957.60738344281, -910.3865516646566, -22309.052623397427, -5654.052573925564, 8311.920858850583, -0.04, 0.976, 0.268, 192.0, 0.0, 0.0, 0.0, 0.0, 0.0, 0.0, 0.0, 0.0, 0.0, 1.695418108537117E9, 0.0, 2023-09-22 16:28:28.537
122.0, 26183.101675880156, 12714.968647357065, -36983.01756179542, -63307.605780077676, -187500.02235174447, 7683.14393557834, -117900.04287958657, -187500.02235174447, -39965.209658766944, 6213.963772531006, -5504.3182378194615, -69957.67443867617, -902.6081445942098, -22288.466666754088, -5637.869910939921, 8362.100525152746, -0.04, 0.976, 0.268, 192.0, 0.0, 0.0, 0.0, 0.0, 0.0, 0.0, 0.0, 0.0, 0.0, 1.695418108595334E9, 0.0, 2023-09-22 16:28:28.595
124.0, 26181.112370623636, 12716.600324702302, -36973.383959935185, -63293.07714618173, -187500.02235174447, 7638.015763523074, -117971.18848218782, -187500.02235174447, -39943.17083873401, 6236.270813497403, -5532.324973621961, -69928.63952262873, -892.79572877833, -22313.1653443772, -5629.219785835718, 8319.3639897542, -0.04, 0.976, 0.268, 192.0, 0.0, 0.0, 0.0, 0.0, 0.0, 0.0, 0.0, 0.0, 0.0, 1.695418108595347E9, 0.0, 2023-09-22 16:28:28.595
126.0, 26180.173597356512, 12719.349589270305, -36978.12252975971, -63293.680643282016, -187500.02235174447, 7681.691072188744, -117875.03127754109, -187500.02235174447, -39959.01822555283, 6235.287336741369, -5510.599078011403, -69935.41210119869, -897.8695747696847, -22284.488056241044, -5614.691151939768, 8352.310461081323, -0.04, 0.976, 0.268, 192.0, 0.0, 0.0, 0.0, 0.0, 0.0, 0.0, 0.0, 0.0, 0.0, 1.69541810859535E9, 0.0, 2023-09-22 16:28:28.595
128.0, 26185.001574158858, 12720.71304568208, -36968.84655581076, -63295.40172760508, -187500.02235174447, 7622.548356360002, -117972.93191825533, -187500.02235174447, -39932.307890928736, 6254.643947439665, -5530.402723598805, -69915.29553118891, -893.1086532007043, -22307.197428607637, -5630.315021314028, 8311.317361750289, -0.042, 0.974, 0.266, 192.0, 127.0, 88.0, 15.0, 56.0, 4.0, 40.0, 0.0, 0.0, 0.0, 1.695418108595354E9, 0.0, 2023-09-22 16:28:28.595
130.0, 26174.13862635358, 12709.760690898978, -36983.91163157364, -63312.32199815774, -187500.02235174447, 7686.899028646831, -117838.35206488993, -187500.02235174447, -39948.021167280815, 6236.4049239641345, -5507.313371576473, -69938.63075240025, -900.7082463155087, -22283.59398646283, -5615.853442651444, 8339.189987086056, -0.042, 0.974, 0.266, 192.0, 0.0, 0.0, 0.0, 0.0, 0.0, 0.0, 0.0, 0.0, 0.0, 1.695418108595357E9, 0.0, 2023-09-22 16:28:28.595
132.0, 26196.870350464626, 12731.866566165278, -36967.95248603255, -63288.00330019037, -187500.02235174447, 7620.8719755258535, -117945.4392725753, -187500.02235174447, -39913.912405242016, 6260.790677164874, -5509.727359977646, -69913.70855733259, -888.8171182652853, -22302.07887912737, -5624.838843922477, 8322.895565378138, -0.042, 0.974, 0.266, 192.0, 0.0, 0.0, 0.0, 0.0, 0.0, 0.0, 0.0, 0.0, 0.0, 1.695418108595361E9, 0.0, 2023-09-22 16:28:28.595
134.0, 26157.017190100814, 12691.141687767707, -37008.85617838576, -63336.28306821383, -187500.02235174447, 7689.447127514735, -117795.05673587999, -187500.02235174447, -39943.841391067675, 6236.248461752947, -5520.210328127186, -69942.29643849093, -905.826795795774, -22297.1614953472, -5621.933117143288, 8321.2638880329, -0.042, 0.974, 0.266, 192.0, 0.0, 0.0, 0.0, 0.0, 0.0, 0.0, 0.0, 0.0, 0.0, 1.695418108595364E9, 0.0, 2023-09-22 16:28:28.595
136.0, 26195.059859163746, 12733.744112699524, -36976.13322450319, -63287.310396112254, -187500.02235174447, 7639.021592023563, -117888.08469630298, -187500.02235174447, -39935.25832119684, 6250.777095648897, -5507.46983378766, -69926.06907201637, -911.8170633097964, -22307.532704774465, -5651.21390237974, 8342.341583054254, -0.042, 0.974, 0.266, 192.0, 0.0, 0.0, 0.0, 0.0, 0.0, 0.0, 0.0, 0.0, 0.0, 1.695418108656769E9, 0.0, 2023-09-22 16:28:28.656
138.0, 26197.697365009473, 12736.985115645542, -36969.00301802195, -63287.71272751245, -187500.02235174447, 7669.03998482704, -117804.91385518479, -187500.02235174447, -39915.38762037607, 6284.684691987597, -5543.523197594071, -69899.33638564782, -886.4031298641122, -22316.808678723417, -5610.667837937813, 8312.636114673152, -0.036000000000000004, 0.976, 0.262, 192.0, 127.0, 112.0, 15.0, 64.0, 4.0, 24.0, 0.0, 0.0, 0.0, 1.695418108656807E9, 0.0, 2023-09-22 16:28:28.656
140.0, 26199.150228399067, 12733.922926655165, -36979.50833791594, -63291.378413603124, -187500.02235174447, 7624.314144171971, -117892.73385914968, -187500.02235174447, -39914.09121919766, 6289.713834490041, -5516.008200169587, -69901.32569090434, -898.3166096587909, -22299.195504092637, -5628.772750946611, 8331.143359082145, -0.036000000000000004, 0.976, 0.262, 192.0, 0.0, 0.0, 0.0, 0.0, 0.0, 0.0, 0.0, 0.0, 0.0, 1.69541810865681E9, 0.0, 2023-09-22 16:28:28.656
142.0, 26177.13376011059, 12705.759728641478, -36976.826128581306, -63306.555248088276, -187500.02235174447, 7663.2508830131155, -117788.79824743251, -187500.02235174447, -39934.07367874071, 6261.774153920907, -5546.451276117716, -69924.92913304915, -903.7704353058858, -22301.542437260443, -5623.050704366053, 8308.16576578209, -0.036000000000000004, 0.976, 0.262, 192.0, 0.0, 0.0, 0.0, 0.0, 0.0, 0.0, 0.0, 0.0, 0.0, 1.695418108656814E9, 0.0, 2023-09-22 16:28:28.656
144.0, 26200.826609233216, 12733.118263854774, -36969.204183722046, -63284.85170422217, -187500.02235174447, 7626.772836062055, -117866.9175943038, -187500.02235174447, -39913.15244593054, 6274.782869193897, -5515.04707515801, -69906.64540608472, -895.0979584572266, -22282.766971917987, -5623.251870066151, 8336.664239962607, -0.036000000000000004, 0.976, 0.262, 192.0, 0.0, 0.0, 0.0, 0.0, 0.0, 0.0, 0.0, 0.0, 0.0, 1.695418108656817E9, 0.0, 2023-09-22 16:28:28.656
146.0, 26175.055047876245, 12709.492469965515, -36982.2799542284, -63309.706844056476, -187500.02235174447, 7667.542417948534, -117764.92658435424, -187500.02235174447, -39937.98523402038, 6261.081249842793, -5551.234549431151, -69923.4092144262, -907.2573074409137, -22281.69408818413, -5624.391809033372, 8300.365006967188, -0.036000000000000004, 0.976, 0.262, 192.0, 0.0, 0.0, 0.0, 0.0, 0.0, 0.0, 0.0, 0.0, 0.0, 1.69541810865682E9, 0.0, 2023-09-22 16:28:28.656
148.0, 26170.361181540633, 12707.749033898, -36997.993230580476, -63308.499849855885, -187500.02235174447, 7656.455952698702, -117787.45714276518, -187500.02235174447, -39947.596484136164, 6254.263967783924, -5500.585496495426, -69932.14874650822, -923.6411361266538, -22256.056637293892, -5648.934024445299, 8357.026679161392, -0.034, 0.976, 0.268, 192.0, 127.0, 120.0, 15.0, 64.0, 4.0, 48.0, 0.0, 0.0, 0.0, 1.695418108656823E9, 0.0, 2023-09-22 16:28:28.656
150.0, 26176.552614754753, 12720.89185963772, -36977.98841929298, -63300.185000918515, -187500.02235174447, 7667.989452837641, -117726.52628738002, -187500.02235174447, -39955.75487086235, 6261.975319621006, -5556.375450655872, -69934.38392095374, -919.6625256136091, -22287.70670744261, -5644.553082532058, 8308.769262882384, -0.034, 0.976, 0.268, 192.0, 0.0, 0.0, 0.0, 0.0, 0.0, 0.0, 0.0, 0.0, 0.0, 1.695418108656827E9, 0.0, 2023-09-22 16:28:28.656
152.0, 26174.18332984249, 12714.409853745683, -36981.60940189474, -63287.82448623473, -187500.02235174447, 7663.228531268661, -117735.82461307343, -187500.02235174447, -39949.89871381506, 6273.039433126382, -5506.575764009448, -69919.74352833552, -913.2699266993912, -22252.033323291937, -5631.879643425899, 8364.112182153724, -0.034, 0.976, 0.268, 192.0, 0.0, 0.0, 0.0, 0.0, 0.0, 0.0, 0.0, 0.0, 0.0, 1.695418108716268E9, 0.0, 2023-09-22 16:28:28.716
154.0, 26179.65950723404, 12717.18147005814, -36967.61720986572, -63288.31622461275, -187500.02235174447, 7660.613377167389, -117709.49425810509, -187500.02235174447, -39942.030899766796, 6258.846075397262, -5567.081936249964, -69914.75908932199, -908.7995778083299, -22292.713498200595, -5631.253794581151, 8296.989893554437, -0.034, 0.976, 0.268, 192.0, 0.0, 0.0, 0.0, 0.0, 0.0, 0.0, 0.0, 0.0, 0.0, 1.695418108716281E9, 0.0, 2023-09-22 16:28:28.716
156.0, 26177.84901593316, 12719.886031137232, -36989.253698498454, -63298.28510263981, -187500.02235174447, 7663.697917902222, -117700.24063590058, -187500.02235174447, -39943.66257711203, 6258.242578296969, -5514.488281546626, -69919.58706612434, -908.1737289635813, -22264.952631587104, -5630.404428291849, 8348.443609290554, -0.034, 0.976, 0.268, 192.0, 0.0, 0.0, 0.0, 0.0, 0.0, 0.0, 0.0, 0.0, 0.0, 1.695418108716285E9, 0.0, 2023-09-22 16:28:28.716
158.0, 26168.885966406582, 12711.794699644412, -36981.25177398345, -63306.66700681055, -187500.02235174447, 7656.366545720881, -117690.07059217342, -187500.02235174447, -39949.29521671477, 6263.852866155251, -5562.611587358902, -69917.44129865662, -917.18148197907, -22305.5657512624, -5647.704678500257, 8293.324207463767, -0.034, 0.976, 0.266, 192.0, 127.0, 120.0, 15.0, 64.0, 4.0, 40.0, 0.0, 0.0, 0.0, 1.695418108716288E9, 0.0, 2023-09-22 16:28:28.716
160.0, 26188.041411404778, 12734.727589455557, -36984.93981181858, -63287.98094844591, -187500.02235174447, 7666.424830725769, -117668.23293784058, -187500.02235174447, -39954.65963538404, 6267.295034801368, -5507.223964598652, -69920.36937718026, -918.7014006020308, -22272.574576446365, -5639.680402240801, 8357.808990217327, -0.034, 0.976, 0.266, 192.0, 0.0, 0.0, 0.0, 0.0, 0.0, 0.0, 0.0, 0.0, 0.0, 1.695418108716291E9, 0.0, 2023-09-22 16:28:28.716
162.0, 26184.17455961401, 12731.71010395409, -36967.61720986572, -63289.09853566868, -187500.02235174447, 7634.238318710127, -117696.99963295457, -187500.02235174447, -39930.78797230578, 6292.798375224874, -5564.064450748498, -69895.69305130161, -905.6256300956762, -22305.901027429227, -5631.499663770159, 8286.328111449255, -0.034, 0.976, 0.266, 192.0, 0.0, 0.0, 0.0, 0.0, 0.0, 0.0, 0.0, 0.0, 0.0, 1.695418108716295E9, 0.0, 2023-09-22 16:28:28.716
164.0, 26180.620632245616, 12726.435092262638, -36980.76003560544, -63295.80405900527, -187500.02235174447, 7655.964214320686, -117638.75098690404, -187500.02235174447, -39950.21163823744, 6267.4291452681, -5512.1189966343645, -69920.48113590255, -916.1309499896706, -22271.524044456964, -5634.405390549349, 8345.493179022453, -0.034, 0.976, 0.266, 192.0, 0.0, 0.0, 0.0, 0.0, 0.0, 0.0, 0.0, 0.0, 0.0, 1.695418108716298E9, 0.0, 2023-09-22 16:28:28.716
166.0, 26160.571117469208, 12709.336007754328, -36984.60453565175, -63311.74085280191, -187500.02235174447, 7628.963307018675, -117673.46324604312, -187500.02235174447, -39939.080469498695, 6273.6205784822205, -5559.683508835257, -69912.85919104329, -915.7062668450197, -22305.856323940316, -5650.386887834894, 8284.607027126196, -0.034, 0.976, 0.266, 192.0, 0.0, 0.0, 0.0, 0.0, 0.0, 0.0, 0.0, 0.0, 0.0, 1.695418108775083E9, 0.0, 2023-09-22 16:28:28.775
168.0, 26176.910242666036, 12725.116339339775, -36979.70950361604, -63289.47851532442, -187500.02235174447, 7661.641557412334, -117600.52950388545, -187500.02235174447, -39957.610065652145, 6260.298938786857, -5512.655438501291, -69930.29355171842, -924.1552262491258, -22276.620242192777, -5651.616233779935, 8346.633117989673, -0.032, 0.974, 0.27, 192.0, 127.5, 0.0, 15.0, 56.0, 4.0, 56.0, 0.0, 0.0, 0.0, 1.695418108775097E9, 0.0, 2023-09-22 16:28:28.775
170.0, 26166.56138498323, 12716.868545635765, -36971.640523867674, -63290.55139905828, -187500.02235174447, 7615.50755685658, -117675.96664142211, -187500.02235174447, -39939.28163519879, 6281.197819852569, -5553.469723876682, -69908.05356598539, -911.2806214428689, -22312.65125425473, -5640.9097481858435, 8288.250361472412, -0.032, 0.974, 0.27, 192.0, 0.0, 0.0, 0.0, 0.0, 0.0, 0.0, 0.0, 0.0, 0.0, 1.695418108775101E9, 0.0, 2023-09-22 16:28:28.775
172.0, 26165.913184394027, 12713.359321756283, -36973.78629133538, -63288.226817634924, -187500.02235174447, 7663.116772546384, -117578.08835245232, -187500.02235174447, -39958.83941159718, 6265.328081289302, -5529.665116031781, -69927.47723191706, -917.0250197678829, -22284.443352752132, -5636.953489417254, 8330.875138148682, -0.032, 0.974, 0.27, 192.0, 0.0, 0.0, 0.0, 0.0, 0.0, 0.0, 0.0, 0.0, 0.0, 1.695418108775104E9, 0.0, 2023-09-22 16:28:28.775
174.0, 26167.70132395045, 12711.615885688769, -36969.45005291105, -63287.4892100679, -187500.02235174447, 7611.46189111017, -117667.4729785291, -187500.02235174447, -39943.28259745629, 6268.770249935419, -5556.420154144783, -69915.27317944446, -913.5604993773103, -22305.006957651014, -5646.45298081076, 8293.2571522304, -0.032, 0.974, 0.27, 192.0, 0.0, 0.0, 0.0, 0.0, 0.0, 0.0, 0.0, 0.0, 0.0, 1.695418108775108E9, 0.0, 2023-09-22 16:28:28.775
176.0, 26166.248460560855, 12706.050301319397, -36971.640523867674, -63289.99260544689, -187500.02235174447, 7653.907853830798, -117577.5519105854, -187500.02235174447, -39947.30591145824, 6266.244502811969, -5551.547473853526, -69926.27023771647, -910.8559382982181, -22292.22175982258, -5635.791198705578, 8306.377626225665, -0.032, 0.974, 0.27, 192.0, 0.0, 0.0, 0.0, 0.0, 0.0, 0.0, 0.0, 0.0, 0.0, 1.695418108775111E9, 0.0, 2023-09-22 16:28:28.775
178.0, 26153.820890643703, 12699.165964027163, -36981.96702980602, -63291.82544849223, -187500.02235174447, 7620.514347614569, -117655.04540861196, -187500.02235174447, -39965.366120978135, 6243.356316489735, -5549.424058130272, -69937.46846168858, -930.8383978412626, -22297.720288958586, -5656.1089344154525, 8298.174536010569, -0.026000000000000002, 0.978, 0.274, 192.0, 127.5, 24.0, 15.0, 72.0, 4.0, 72.0, 0.0, 0.0, 0.0, 1.695418108775114E9, 0.0, 2023-09-22 16:28:28.775
180.0, 26167.097826850157, 12710.364187999272, -36968.31011394383, -63284.69524201098, -187500.02235174447, 7657.662946899289, -117569.9523174706, -187500.02235174447, -39954.6819871285, 6260.947139376061, -5555.816657044489, -69918.000092268, -908.5313568748662, -22290.344213288336, -5623.676553210802, 8295.849954587216, -0.026000000000000002, 0.978, 0.274, 192.0, 0.0, 0.0, 0.0, 0.0, 0.0, 0.0, 0.0, 0.0, 0.0, 1.695418108775118E9, 0.0, 2023-09-22 16:28:28.775
182.0, 26160.280544791287, 12704.306865251883, -36985.208032752045, -63299.44739335149, -187500.02235174447, 7616.423978379247, -117658.97931563608, -187500.02235174447, -39964.65086515556, 6251.71586891602, -5545.199578428219, -69930.31590346288, -923.6411361266538, -22294.635748223754, -5654.924291959321, 8297.705149377007, -0.026000000000000002, 0.978, 0.274, 192.0, 0.0, 0.0, 0.0, 0.0, 0.0, 0.0, 0.0, 0.0, 0.0, 1.695418108835362E9, 0.0, 2023-09-22 16:28:28.835
184.0, 26161.621649458608, 12707.816089131367, -36985.09627402977, -63303.135431186616, -187500.02235174447, 7657.171208521272, -117565.7948930019, -187500.02235174447, -39971.021112325325, 6245.457380468533, -5558.208293701207, -69939.70363613412, -919.8413395692515, -22302.45885878311, -5643.5472540315695, 8292.49719291892, -0.026000000000000002, 0.978, 0.274, 192.0, 0.0, 0.0, 0.0, 0.0, 0.0, 0.0, 0.0, 0.0, 0.0, 1.695418108835372E9, 0.0, 2023-09-22 16:28:28.835
186.0, 26170.2270710739, 12715.66155143518, -36979.955372805045, -63296.966349716946, -187500.02235174447, 7600.956571216175, -117677.35244957835, -187500.02235174447, -39946.79182133578, 6265.90922664514, -5548.887616263344, -69916.7483945785, -909.2913161863466, -22305.275178584478, -5654.477257070214, 8288.764451594883, -0.026000000000000002, 0.978, 0.274, 192.0, 0.0, 0.0, 0.0, 0.0, 0.0, 0.0, 0.0, 0.0, 0.0, 1.695418108835376E9, 0.0, 2023-09-22 16:28:28.835
188.0, 26148.679989418983, 12698.18248727113, -36983.3304862178, -63312.29964641329, -187500.02235174447, 7654.980737564652, -117567.2477563915, -187500.02235174447, -39973.32334200422, 6246.66437466912, -5571.284064207562, -69937.04377854393, -920.7577610919192, -22302.592969249843, -5648.68815525629, 8274.34757642121, -0.03, 0.978, 0.268, 192.0, 127.5, 8.0, 15.0, 72.0, 4.0, 48.0, 0.0, 0.0, 0.0, 1.695418108835379E9, 0.0, 2023-09-22 16:28:28.835
190.0, 26150.51283246432, 12699.32242623835, -36995.86981485722, -63311.11500395716, -187500.02235174447, 7623.643591838311, -117634.39239673525, -187500.02235174447, -39984.14158632059, 6239.243595509958, -5536.772970768568, -69945.33627573684, -934.7276013764861, -22283.258710296002, -5668.849428754977, 8312.12202455068, -0.03, 0.978, 0.268, 192.0, 0.0, 0.0, 0.0, 0.0, 0.0, 0.0, 0.0, 0.0, 0.0, 1.695418108835383E9, 0.0, 2023-09-22 16:28:28.835
192.0, 26138.88992534756, 12687.386594699215, -37000.76484689294, -63324.83897505271, -187500.02235174447, 7658.400554466314, -117537.51993626595, -187500.02235174447, -39989.10367358967, 6237.164883275615, -5584.806869603022, -69953.00292408501, -936.2698717439023, -22304.403460550722, -5665.004928708664, 8275.331053177244, -0.03, 0.978, 0.268, 192.0, 0.0, 0.0, 0.0, 0.0, 0.0, 0.0, 0.0, 0.0, 0.0, 1.695418108835386E9, 0.0, 2023-09-22 16:28:28.835
194.0, 26146.064835317713, 12695.455574447582, -36998.14969279167, -63308.1422219446, -187500.02235174447, 7642.79903683651, -117574.3556111283, -187500.02235174447, -39988.5895834672, 6229.364124460712, -5540.729229537157, -69955.55102295292, -941.5895869242653, -22280.867073639285, -5671.21871366724, 8329.802254414828, -0.03, 0.978, 0.268, 192.0, 0.0, 0.0, 0.0, 0.0, 0.0, 0.0, 0.0, 0.0, 0.0, 1.69541810883539E9, 0.0, 2023-09-22 16:28:28.835
196.0, 26143.36027423862, 12693.421565702149, -36982.481119928496, -63312.72432955794, -187500.02235174447, 7659.004051566608, -117507.65800567366, -187500.02235174447, -39979.24655428488, 6240.09296179926, -5598.910820354321, -69941.13414777924, -927.9550228065281, -22315.691091500652, -5655.907768715354, 8281.187210224534, -0.03, 0.978, 0.268, 192.0, 0.0, 0.0, 0.0, 0.0, 0.0, 0.0, 0.0, 0.0, 0.0, 1.695418108897144E9, 0.0, 2023-09-22 16:28:28.897
198.0, 26159.900565135547, 12710.252429276996, -36990.19247176558, -63295.66994853854, -187500.02235174447, 7637.0099350225855, -117552.24973586199, -187500.02235174447, -39984.09688283168, 6235.488502441466, -5556.19663670023, -69946.36445598179, -937.4098107111229, -22290.008937121504, -5662.859161240955, 8330.092827092747, -0.032, 0.984, 0.264, 192.0, 127.5, 0.0, 15.0, 96.0, 4.0, 32.0, 0.0, 0.0, 0.0, 1.695418108897158E9, 0.0, 2023-09-22 16:28:28.897
200.0, 26150.825756886694, 12703.368091984761, -36987.75613161995, -63305.839992265704, -187500.02235174447, 7641.010897280085, -117517.62688370072, -187500.02235174447, -39968.56242043524, 6250.218302037514, -5618.803872919545, -69930.87469707426, -922.8811768151733, -22313.99235892205, -5654.276091370117, 8256.175608179046, -0.032, 0.984, 0.264, 192.0, 0.0, 0.0, 0.0, 0.0, 0.0, 0.0, 0.0, 0.0, 0.0, 1.695418108897161E9, 0.0, 2023-09-22 16:28:28.897
202.0, 26160.906393636036, 12712.331141511339, -36992.36059097774, -63294.64176829359, -187500.02235174447, 7637.680487356244, -117535.06124437586, -187500.02235174447, -39967.75775763485, 6250.039488081871, -5564.556189126514, -69929.91357206268, -926.9044908171286, -22272.708686913098, -5650.409239579349, 8312.703169906517, -0.032, 0.984, 0.264, 192.0, 0.0, 0.0, 0.0, 0.0, 0.0, 0.0, 0.0, 0.0, 0.0, 1.695418108897165E9, 0.0, 2023-09-22 16:28:28.897
204.0, 26134.017245056304, 12683.050356274887, -37002.75415214946, -63326.35889367568, -187500.02235174447, 7646.978813049653, -117499.05258405836, -187500.02235174447, -39978.84422288468, 6234.169749518604, -5614.06530309502, -69943.34697048033, -937.1415897776592, -22303.621149494786, -5659.707565272756, 8259.237797169424, -0.032, 0.984, 0.264, 192.0, 0.0, 0.0, 0.0, 0.0, 0.0, 0.0, 0.0, 0.0, 0.0, 1.695418108897168E9, 0.0, 2023-09-22 16:28:28.897
206.0, 26167.343696039166, 12715.773310157456, -36985.632715896696, -63293.45712583746, -187500.02235174447, 7649.862188084387, -117488.72607812002, -187500.02235174447, -39977.65958042855, 6227.933612815573, -5555.414325644294, -69946.99030482654, -940.7402206349636, -22276.061448581393, -5666.435440353804, 8333.490292249953, -0.032, 0.984, 0.264, 192.0, 0.0, 0.0, 0.0, 0.0, 0.0, 0.0, 0.0, 0.0, 0.0, 1.695418108897171E9, 0.0, 2023-09-22 16:28:28.897
208.0, 26151.31749526471, 12697.958969826577, -36988.80666360935, -63321.083881984225, -187500.02235174447, 7630.550280875002, -117507.61330218475, -187500.02235174447, -39955.173725506516, 6252.967566605516, -5616.568698474014, -69926.31494120538, -921.0259820253829, -22309.834934453364, -5662.345071118483, 8258.835465769227, -0.034, 0.982, 0.256, 192.0, 127.0, 120.0, 15.0, 88.0, 4.0, 0.0, 0.0, 0.0, 0.0, 1.695418108897174E9, 0.0, 2023-09-22 16:28:28.897
210.0, 26142.622666671596, 12685.263178975962, -37012.83478889881, -63331.432739667034, -187500.02235174447, 7672.392746495337, -117440.37925486318, -187500.02235174447, -39993.6410777141, 6215.148414987138, -5552.061563975998, -69970.52669173798, -951.3125957623239, -22268.953593844606, -5676.136097447407, 8335.591356228751, -0.034, 0.982, 0.256, 192.0, 0.0, 0.0, 0.0, 0.0, 0.0, 0.0, 0.0, 0.0, 0.0, 1.69541810889718E9, 0.0, 2023-09-22 16:28:28.897
212.0, 26152.926820865494, 12696.41669945916, -36992.047666555365, -63315.04891098129, -187500.02235174447, 7638.79807457901, -117491.20712175455, -187500.02235174447, -39973.45745247095, 6226.011362792417, -5603.001189589642, -69950.07484556136, -943.6459474141536, -22308.493829786043, -5683.869801028944, 8281.768355580372, -0.034, 0.982, 0.256, 192.0, 0.0, 0.0, 0.0, 0.0, 0.0, 0.0, 0.0, 0.0, 0.0, 1.695418108955963E9, 0.0, 2023-09-22 16:28:28.955
214.0, 26150.55753595323, 12697.266065748461, -37000.40721898165, -63314.95950400347, -187500.02235174447, 7666.000147581119, -117444.82725200978, -187500.02235174447, -39976.07260657223, 6232.493368684455, -5573.563942142003, -69948.5102234495, -936.5604444218212, -22282.02936435096, -5662.8368094965, 8321.397998499633, -0.034, 0.982, 0.256, 192.0, 0.0, 0.0, 0.0, 0.0, 0.0, 0.0, 0.0, 0.0, 0.0, 1.695418108955975E9, 0.0, 2023-09-22 16:28:28.955
216.0, 26144.589620183662, 12684.346757453295, -36990.03600955439, -63316.121794715145, -187500.02235174447, 7626.214042450672, -117509.35673825226, -187500.02235174447, -39973.99389433788, 6218.724694099987, -5614.1994135617515, -69952.84646187384, -943.0648020583155, -22309.343196075344, -5674.392661379893, 8267.642053084619, -0.034, 0.982, 0.256, 192.0, 0.0, 0.0, 0.0, 0.0, 0.0, 0.0, 0.0, 0.0, 0.0, 1.695418108955978E9, 0.0, 2023-09-22 16:28:28.955
218.0, 26149.171727797002, 12686.626635387736, -36991.24300375498, -63317.32878891573, -187500.02235174447, 7671.4092697393025, -117428.10814715723, -187500.02235174447, -39974.01624608234, 6220.490481911956, -5577.430793932771, -69952.39942698472, -930.503121674433, -22283.79515216293, -5642.809646464544, 8311.40676872811, -0.034, 0.976, 0.26, 192.0, 127.0, 120.0, 15.0, 64.0, 4.0, 16.0, 0.0, 0.0, 0.0, 1.695418108955982E9, 0.0, 2023-09-22 16:28:28.955
220.0, 26136.02890205728, 12676.478943405027, -37004.45288472806, -63330.40455942209, -187500.02235174447, 7629.946783774708, -117504.57346493882, -187500.02235174447, -39976.564344950246, 6220.356371445224, -5601.704788411234, -69954.1652147967, -941.7460491354525, -22311.399556565233, -5663.3285478745165, 8276.225122955457, -0.034, 0.976, 0.26, 192.0, 0.0, 0.0, 0.0, 0.0, 0.0, 0.0, 0.0, 0.0, 0.0, 1.695418108955985E9, 0.0, 2023-09-22 16:28:28.955
222.0, 26127.64699788654, 12666.912396778154, -37023.1389430927, -63346.38605670763, -187500.02235174447, 7691.503488004624, -117397.15098108661, -187500.02235174447, -40006.58273775372, 6195.501231610922, -5578.570732899992, -69982.2166540881, -956.8781801316953, -22292.780553433964, -5667.4412688542925, 8318.872251376182, -0.034, 0.976, 0.26, 192.0, 0.0, 0.0, 0.0, 0.0, 0.0, 0.0, 0.0, 0.0, 0.0, 1.695418108955988E9, 0.0, 2023-09-22 16:28:28.955
224.0, 26155.83254764468, 12703.815126873867, -36986.99617230847, -63304.029500964825, -187500.02235174447, 7633.053676253996, -117513.44710748758, -187500.02235174447, -39979.62653394062, 6217.785920832864, -5604.677570423791, -69950.56658393939, -944.2494445144469, -22314.685263000163, -5675.756117791667, 8291.267846973878, -0.034, 0.976, 0.26, 192.0, 0.0, 0.0, 0.0, 0.0, 0.0, 0.0, 0.0, 0.0, 0.0, 1.695418108955991E9, 0.0, 2023-09-22 16:28:28.955
226.0, 26143.896716105548, 12691.9463505681, -37002.21771028253, -63320.927419773034, -187500.02235174447, 7681.04287159954, -117423.23546686597, -187500.02235174447, -39981.45937698596, 6227.821854093297, -5601.838898877967, -69948.5549269384, -930.0337350408715, -22291.528855744466, -5648.822265723022, 8302.175498268069, -0.034, 0.976, 0.26, 192.0, 0.0, 0.0, 0.0, 0.0, 0.0, 0.0, 0.0, 0.0, 0.0, 1.695418109015517E9, 0.0, 2023-09-22 16:28:29.015
228.0, 26130.820945599193, 12680.390498684705, -37021.70843144756, -63329.24226871041, -187500.02235174447, 7639.155702490295, -117508.8873516187, -187500.02235174447, -40000.79363593979, 6208.532298628366, -5593.926381340788, -69964.22349980158, -960.9014941336507, -22295.17219009068, -5691.871725543943, 8299.158012766602, -0.036000000000000004, 0.976, 0.262, 192.0, 127.0, 112.0, 15.0, 64.0, 4.0, 24.0, 0.0, 0.0, 0.0, 1.695418109015529E9, 0.0, 2023-09-22 16:28:29.015
230.0, 26135.73832937936, 12681.888065563211, -37012.678326687615, -63333.6455623681, -187500.02235174447, 7685.490868746147, -117404.23648407895, -187500.02235174447, -40001.844167929194, 6204.665446837598, -5605.705750668735, -69971.55487198292, -954.7324126639859, -22297.675585469675, -5677.499553859181, 8300.45441394501, -0.036000000000000004, 0.976, 0.262, 192.0, 0.0, 0.0, 0.0, 0.0, 0.0, 0.0, 0.0, 0.0, 0.0, 1.695418109015533E9, 0.0, 2023-09-22 16:28:29.015
232.0, 26145.886021362072, 12690.314673222862, -37000.6307364262, -63318.424024394044, -187500.02235174447, 7632.092551242417, -117508.26150277395, -187500.02235174447, -39989.99774336788, 6208.867574795196, -5594.284009252073, -69961.92127012268, -948.920959105606, -22302.615320994297, -5681.925199261332, 8297.97337031047, -0.036000000000000004, 0.976, 0.262, 192.0, 0.0, 0.0, 0.0, 0.0, 0.0, 0.0, 0.0, 0.0, 0.0, 1.695418109015536E9, 0.0, 2023-09-22 16:28:29.015
234.0, 26124.897733318536, 12668.678184590124, -37021.350803536276, -63343.70384737299, -187500.02235174447, 7684.373281523381, -117394.91580664109, -187500.02235174447, -40005.420447042045, 6191.433214120057, -5608.2091460477295, -69983.08837212186, -952.6089969407317, -22302.4141552942, -5678.147754448385, 8283.377681181155, -0.036000000000000004, 0.976, 0.262, 192.0, 0.0, 0.0, 0.0, 0.0, 0.0, 0.0, 0.0, 0.0, 0.0, 1.69541810901554E9, 0.0, 2023-09-22 16:28:29.015
236.0, 26135.11248053461, 12683.98912954201, -37016.522826733926, -63325.50952738638, -187500.02235174447, 7641.100304257907, -117481.68527861658, -187500.02235174447, -40000.033676628314, 6204.12900497067, -5580.1577067563185, -69969.49851149303, -955.5817789532875, -22293.987547634548, -5688.094280730997, 8305.88588784765, -0.036000000000000004, 0.976, 0.262, 192.0, 0.0, 0.0, 0.0, 0.0, 0.0, 0.0, 0.0, 0.0, 0.0, 1.695418109015543E9, 0.0, 2023-09-22 16:28:29.015
238.0, 26134.30781773422, 12677.350661438782, -37010.21963479753, -63328.45995765448, -187500.02235174447, 7676.594874452934, -117391.78656241734, -187500.02235174447, -40006.71684822045, 6196.596467089233, -5614.154710072841, -69976.85223541883, -954.7994678973517, -22303.79996345043, -5675.532600347114, 8276.962730522482, -0.038, 0.978, 0.262, 192.0, 127.0, 104.0, 15.0, 72.0, 4.0, 24.0, 0.0, 0.0, 0.0, 1.695418109015547E9, 0.0, 2023-09-22 16:28:29.015
240.0, 26141.773300382294, 12686.000786542987, -36999.44609397007, -63318.356969160675, -187500.02235174447, 7643.670754870267, -117458.52887136089, -187500.02235174447, -39988.187252067, 6210.208679462515, -5583.018730046598, -69962.27889803397, -943.310671247324, -22283.50457948501, -5671.889266000899, 8304.030693057859, -0.038, 0.978, 0.262, 192.0, 0.0, 0.0, 0.0, 0.0, 0.0, 0.0, 0.0, 0.0, 0.0, 1.69541810901555E9, 0.0, 2023-09-22 16:28:29.015
242.0, 26150.378721997586, 12692.303978479384, -36985.18568100759, -63314.75833830337, -187500.02235174447, 7667.967101093185, -117393.99938511843, -187500.02235174447, -39982.50990897536, 6211.303914940824, -5623.900070655354, -69957.98736309855, -933.5876624092654, -22297.899102914227, -5654.633719281402, 8261.271805914856, -0.038, 0.978, 0.262, 192.0, 0.0, 0.0, 0.0, 0.0, 0.0, 0.0, 0.0, 0.0, 0.0, 1.695418109075329E9, 0.0, 2023-09-22 16:28:29.075
244.0, 26132.497326433342, 12670.354565424272, -37021.32845179182, -63334.07024551276, -187500.02235174447, 7652.834970096943, -117431.2150396365, -187500.02235174447, -40001.03950512881, 6191.522621097877, -5572.982796786166, -69977.12045635229, -955.2688545309132, -22277.22373929307, -5669.989367722198, 8302.063739545792, -0.038, 0.978, 0.262, 192.0, 0.0, 0.0, 0.0, 0.0, 0.0, 0.0, 0.0, 0.0, 0.0, 1.69541810907534E9, 0.0, 2023-09-22 16:28:29.075
246.0, 26132.676140388983, 12675.629577115724, -37003.96114635005, -63331.74566408941, -187500.02235174447, 7655.628938153856, -117396.59218747524, -187500.02235174447, -39996.21152832646, 6198.764586301397, -5627.92338465731, -69967.39744751423, -947.3116335048239, -22322.910704959715, -5673.319777646038, 8242.988078950415, -0.038, 0.978, 0.262, 192.0, 0.0, 0.0, 0.0, 0.0, 0.0, 0.0, 0.0, 0.0, 0.0, 1.695418109075343E9, 0.0, 2023-09-22 16:28:29.075
248.0, 26163.923879137503, 12712.04056883342, -36999.15552129215, -63298.933303229016, -187500.02235174447, 7631.3772954198475, -117445.36369387672, -187500.02235174447, -39995.5409759928, 6209.046388750839, -5574.949750298232, -69962.14478756723, -952.921921363106, -22294.36752729029, -5674.593827079992, 8292.653655130107, -0.04, 0.98, 0.264, 192.0, 127.0, 96.0, 15.0, 80.0, 4.0, 32.0, 0.0, 0.0, 0.0, 1.695418109075347E9, 0.0, 2023-09-22 16:28:29.075
250.0, 26131.2679804883, 12676.635405616213, -37003.22353878302, -63325.75539657538, -187500.02235174447, 7639.55803389049, -117412.61838824968, -187500.02235174447, -39991.89764164658, 6216.064836509805, -5632.34903005946, -69954.09815956332, -941.9919183244608, -22313.74648973304, -5664.356728119461, 8223.877337441128, -0.04, 0.98, 0.264, 192.0, 0.0, 0.0, 0.0, 0.0, 0.0, 0.0, 0.0, 0.0, 0.0, 1.69541810907535E9, 0.0, 2023-09-22 16:28:29.075
252.0, 26150.356370253132, 12693.019234301953, -36999.960184092546, -63313.55134410279, -187500.02235174447, 7635.601775121901, -117430.14215590265, -187500.02235174447, -40004.25815633037, 6191.343807142235, -5568.199523472729, -69969.27499404848, -952.3184242628128, -22276.754352659507, -5677.9465887482875, 8292.407785941099, -0.04, 0.98, 0.264, 192.0, 0.0, 0.0, 0.0, 0.0, 0.0, 0.0, 0.0, 0.0, 0.0, 1.695418109075353E9, 0.0, 2023-09-22 16:28:29.075
254.0, 26124.964788551904, 12666.867693289245, -37016.031088355914, -63348.24125149742, -187500.02235174447, 7636.540548389024, -117421.04499590934, -187500.02235174447, -39998.849034172184, 6192.282580409358, -5620.212032820229, -69971.6666307052, -952.8772178741954, -22314.193524622147, -5679.98059749372, 8225.888994442104, -0.04, 0.98, 0.264, 192.0, 0.0, 0.0, 0.0, 0.0, 0.0, 0.0, 0.0, 0.0, 0.0, 1.695418109075356E9, 0.0, 2023-09-22 16:28:29.075
0.0, 26143.65084691654, 12686.805449343377, -37014.55587322186, -63330.40455942209, -187500.02235174447, 7647.269385727572, -117405.01879513489, -187500.02235174447, -40015.00934541337, 6178.4692023359785, -5556.889540778344, -69988.02810764649, -969.2386948154801, -22284.085724840847, -5692.564629622058, 8297.660445888096, -0.04, 0.98, 0.264, 192.0, 0.0, 0.0, 0.0, 0.0, 0.0, 0.0, 0.0, 0.0, 0.0, 1.695418109136848E9, 0.0, 2023-09-22 16:28:29.136
2.0, 26139.18049802548, 12683.229170230528, -37009.32556501932, -63334.74079784642, -187500.02235174447, 7620.670809825756, -117440.0216269519, -187500.02235174447, -39998.75962719436, 6187.789879773842, -5610.10904432643, -69971.53252023847, -959.3145202773238, -22328.81156549592, -5688.586019109013, 8226.380732820122, -0.038, 0.98, 0.262, 192.0, 127.0, 104.0, 15.0, 80.0, 4.0, 24.0, 0.0, 0.0, 0.0, 1.695418109136861E9, 0.0, 2023-09-22 16:28:29.136
4.0, 26139.202849769932, 12687.69951912159, -37008.85617838576, -63330.27044895536, -187500.02235174447, 7648.074048527962, -117395.31813804129, -187500.02235174447, -39995.429217270525, 6194.003664732417, -5564.444430404238, -69965.58695621336, -944.2494445144469, -22298.12262035878, -5667.307158387561, 8273.29704443181, -0.038, 0.98, 0.262, 192.0, 0.0, 0.0, 0.0, 0.0, 0.0, 0.0, 0.0, 0.0, 0.0, 1.695418109136865E9, 0.0, 2023-09-22 16:28:29.136
6.0, 26121.92495130598, 12666.55476886687, -37021.8872454032, -63350.74464687642, -187500.02235174447, 7628.0915889849175, -117423.95072268853, -187500.02235174447, -40012.416543056555, 6177.46337383549, -5593.144070284852, -69980.94260465415, -965.6847674470863, -22322.70953925962, -5691.290580188105, 8231.275764855834, -0.038, 0.98, 0.262, 192.0, 0.0, 0.0, 0.0, 0.0, 0.0, 0.0, 0.0, 0.0, 0.0, 1.695418109136868E9, 0.0, 2023-09-22 16:28:29.136
8.0, 26164.236803559877, 12713.739301412023, -36991.95825957754, -63309.550381845285, -187500.02235174447, 7648.8116560949875, -117373.0558005638, -187500.02235174447, -40004.995763897394, 6184.928856483562, -5561.33753792495, -69971.57722372738, -952.7207556630083, -22298.03321338096, -5678.795955037589, 8279.421422412566, -0.038, 0.98, 0.262, 192.0, 0.0, 0.0, 0.0, 0.0, 0.0, 0.0, 0.0, 0.0, 0.0, 1.695418109136871E9, 0.0, 2023-09-22 16:28:29.136
10.0, 26164.996762871357, 12714.432205490139, -36979.195413493566, -63303.046024208794, -187500.02235174447, 7608.198536419694, -117446.79420552186, -187500.02235174447, -39976.273772272325, 6223.463263924511, -5601.771843644601, -69932.32756046386, -933.6770693870866, -22314.23822811106, -5666.390736864893, 8216.613020493152, -0.038, 0.98, 0.262, 192.0, 0.0, 0.0, 0.0, 0.0, 0.0, 0.0, 0.0, 0.0, 0.0, 1.695418109136875E9, 0.0, 2023-09-22 16:28:29.136
12.0, 26138.12996603608, 12686.134897009719, -37008.27503302992, -63326.64946635359, -187500.02235174447, 7667.743583648633, -117335.5942768567, -187500.02235174447, -40001.710057462464, 6195.6129903331985, -5562.499828636626, -69957.1603485537, -947.3563369937345, -22278.855416638307, -5656.086582670997, 8264.311643160778, -0.03, 0.974, 0.264, 192.0, 127.5, 8.0, 15.0, 56.0, 4.0, 32.0, 0.0, 0.0, 0.0, 1.695418109136878E9, 0.0, 2023-09-22 16:28:29.136
14.0, 26148.478823718888, 12700.395309972206, -36987.3314484753, -63303.15778293107, -187500.02235174447, 7614.948763245197, -117422.27434185438, -187500.02235174447, -39996.43504577101, 6203.525507870378, -5583.53282016907, -69950.3654182393, -956.051165586849, -22299.731945959564, -5678.572437593036, 8241.334049860723, -0.03, 0.974, 0.264, 192.0, 0.0, 0.0, 0.0, 0.0, 0.0, 0.0, 0.0, 0.0, 0.0, 1.695418109136881E9, 0.0, 2023-09-22 16:28:29.136
16.0, 26147.98708534087, 12700.440013461115, -36989.946602576565, -63301.10142244118, -187500.02235174447, 7669.330557504959, -117311.76731726734, -187500.02235174447, -40007.096827876194, 6197.825813034274, -5569.1159449953975, -69957.54032820945, -951.3796509956899, -22282.31993702888, -5651.996213435676, 8271.575960108752, -0.03, 0.974, 0.264, 192.0, 0.0, 0.0, 0.0, 0.0, 0.0, 0.0, 0.0, 0.0, 0.0, 1.695418109195728E9, 0.0, 2023-09-22 16:28:29.195
18.0, 26158.402998257043, 12713.8510601343, -36981.0282565389, -63287.77978274582, -187500.02235174447, 7618.592097591412, -117403.54358000084, -187500.02235174447, -39988.075493344724, 6221.004572034428, -5576.089689265453, -69932.48402267504, -947.4010404826452, -22296.714460458097, -5659.014661194642, 8251.794666265807, -0.03, 0.974, 0.264, 192.0, 0.0, 0.0, 0.0, 0.0, 0.0, 0.0, 0.0, 0.0, 0.0, 1.69541810919574E9, 0.0, 2023-09-22 16:28:29.195
20.0, 26163.40978901503, 12711.481775222037, -36983.28578272889, -63296.18403866101, -187500.02235174447, 7656.902987587809, -117297.30573860476, -187500.02235174447, -39990.601240468175, 6213.270868452892, -5574.793288087045, -69939.72598787857, -940.5837584237765, -22280.241224794536, -5648.397582578371, 8258.097858202203, -0.03, 0.974, 0.264, 192.0, 0.0, 0.0, 0.0, 0.0, 0.0, 0.0, 0.0, 0.0, 0.0, 1.695418109195743E9, 0.0, 2023-09-22 16:28:29.195
22.0, 26148.45647197443, 12696.46140294807, -37002.485931216, -63314.71363481446, -187500.02235174447, 7603.571725317446, -117371.9605650855, -187500.02235174447, -39993.01522886935, 6197.088205467249, -5563.885636792856, -69948.9125548497, -953.8383428857736, -22291.21593132209, -5680.1817631938175, 8248.263090641867, -0.026000000000000002, 0.972, 0.26, 192.0, 127.5, 24.0, 15.0, 48.0, 4.0, 16.0, 0.0, 0.0, 0.0, 1.695418109195746E9, 0.0, 2023-09-22 16:28:29.195
24.0, 26145.21546902841, 12694.002711057987, -36991.55592817735, -63318.58048660523, -187500.02235174447, 7647.448199683214, -117245.71791240192, -187500.02235174447, -39998.89373766109, 6198.049330478827, -5572.267540963596, -69958.5685084544, -945.3670317372122, -22299.59783549283, -5658.545274561081, 8240.127055660136, -0.026000000000000002, 0.972, 0.26, 192.0, 0.0, 0.0, 0.0, 0.0, 0.0, 0.0, 0.0, 0.0, 0.0, 1.69541810919575E9, 0.0, 2023-09-22 16:28:29.195
26.0, 26152.74800690985, 12703.9492373406, -36989.812492109835, -63304.722405042936, -187500.02235174447, 7609.383178875826, -117317.24349465889, -187500.02235174447, -40000.83833942871, 6202.094996225238, -5545.199578428219, -69952.66764791819, -953.0783835742932, -22297.65323372522, -5666.055460698064, 8259.863646014172, -0.026000000000000002, 0.972, 0.26, 192.0, 0.0, 0.0, 0.0, 0.0, 0.0, 0.0, 0.0, 0.0, 0.0, 1.695418109195753E9, 0.0, 2023-09-22 16:28:29.195
28.0, 26140.298085248243, 12689.957045311576, -36991.80179736636, -63316.457070881974, -187500.02235174447, 7673.711499418199, -117189.68208905245, -187500.02235174447, -40004.235804585915, 6200.1280427131705, -5566.076107749475, -69951.2594880175, -946.149342793148, -22302.011823894005, -5643.659012753847, 8249.850064498194, -0.026000000000000002, 0.972, 0.26, 192.0, 0.0, 0.0, 0.0, 0.0, 0.0, 0.0, 0.0, 0.0, 0.0, 1.695418109195756E9, 0.0, 2023-09-22 16:28:29.195
30.0, 26151.161033053522, 12704.865658863266, -36992.76292237794, -63303.180134675524, -187500.02235174447, 7643.223719981161, -117243.99682807886, -187500.02235174447, -40002.93940340751, 6206.721807327486, -5528.726342764658, -69947.4596914601, -955.3582615087345, -22280.55414921691, -5658.679385027813, 8293.123041763669, -0.026000000000000002, 0.972, 0.26, 192.0, 0.0, 0.0, 0.0, 0.0, 0.0, 0.0, 0.0, 0.0, 0.0, 1.695418109258941E9, 0.0, 2023-09-22 16:28:29.258
32.0, 26161.487538991874, 12716.108586324286, -36974.725064602506, -63292.60775954816, -187500.02235174447, 7675.477287230169, -117150.87946067804, -187500.02235174447, -40006.22510984244, 6213.248516708436, -5560.331709424461, -69948.13024379376, -955.76059290893, -22283.772800418476, -5650.990384935187, 8274.280521187846, -0.026000000000000002, 0.97, 0.266, 192.0, 127.5, 24.0, 15.0, 40.0, 4.0, 40.0, 0.0, 0.0, 0.0, 1.695418109258956E9, 0.0, 2023-09-22 16:28:29.258
34.0, 26161.88987039207, 12720.17660381515, -36988.29257348688, -63299.42504160703, -187500.02235174447, 7628.493920385114, -117227.09890927064, -187500.02235174447, -39987.27083054434, 6237.030772808883, -5531.185034654741, -69928.23719122853, -942.3495462357457, -22268.663021166685, -5643.390791820382, 8301.147318023124, -0.026000000000000002, 0.97, 0.266, 192.0, 0.0, 0.0, 0.0, 0.0, 0.0, 0.0, 0.0, 0.0, 0.0, 1.695418109258959E9, 0.0, 2023-09-22 16:28:29.258
36.0, 26133.369044467097, 12685.017309786954, -37006.531596962406, -63332.550326889796, -187500.02235174447, 7647.738772361133, -117156.08741713614, -187500.02235174447, -40009.73433372192, 6203.257286936914, -5584.695110880746, -69954.38873224125, -957.2358080429802, -22303.419983794687, -5663.127382174419, 8246.989041207915, -0.026000000000000002, 0.97, 0.266, 192.0, 0.0, 0.0, 0.0, 0.0, 0.0, 0.0, 0.0, 0.0, 0.0, 1.695418109258963E9, 0.0, 2023-09-22 16:28:29.258
38.0, 26157.486576734376, 12711.146499055207, -36992.964088078035, -63294.82058224924, -187500.02235174447, 7613.384141133326, -117206.55765611622, -187500.02235174447, -40013.8470547017, 6194.540106599344, -5537.66704054678, -69960.35664801081, -965.3047877913461, -22281.872902139774, -5676.493725358692, 8295.224105742467, -0.026000000000000002, 0.97, 0.266, 192.0, 0.0, 0.0, 0.0, 0.0, 0.0, 0.0, 0.0, 0.0, 0.0, 1.695418109258966E9, 0.0, 2023-09-22 16:28:29.258
40.0, 26123.511925162307, 12673.573216625837, -37004.94462310608, -63328.12468148764, -187500.02235174447, 7623.84475753841, -117146.02913213124, -187500.02235174447, -40004.168749352546, 6199.613952590698, -5597.145032542352, -69954.63460143025, -952.1396103071703, -22315.02053916699, -5657.248873382673, 8220.301058328278, -0.026000000000000002, 0.97, 0.266, 192.0, 0.0, 0.0, 0.0, 0.0, 0.0, 0.0, 0.0, 0.0, 0.0, 1.695418109258969E9, 0.0, 2023-09-22 16:28:29.258
42.0, 26146.46716671791, 12696.819030859355, -37002.12830330471, -63306.599951577184, -187500.02235174447, 7622.79422554901, -117148.17489959895, -187500.02235174447, -40024.77705774034, 6174.22237088947, -5522.892537461822, -69977.88041566378, -971.920904150117, -22277.559015459898, -5669.4305741108155, 8302.3096087348, -0.032, 0.97, 0.262, 192.0, 127.5, 0.0, 15.0, 40.0, 4.0, 24.0, 0.0, 0.0, 0.0, 1.695418109258972E9, 0.0, 2023-09-22 16:28:29.258
44.0, 26151.250440031345, 12704.440975718615, -36986.9291170751, -63308.5445533448, -187500.02235174447, 7606.7233212856445, -117145.29152456422, -187500.02235174447, -40000.68187721752, 6203.301990425824, -5592.272352251095, -69948.21965077159, -949.7256219059971, -22314.752318233528, -5654.834884981499, 8224.547889774787, -0.032, 0.97, 0.262, 192.0, 0.0, 0.0, 0.0, 0.0, 0.0, 0.0, 0.0, 0.0, 0.0, 1.695418109258976E9, 0.0, 2023-09-22 16:28:29.258
46.0, 26146.288352762265, 12697.757804126479, -37006.397486495676, -63323.05083549629, -187500.02235174447, 7611.46189111017, -117129.98057961233, -187500.02235174447, -39997.55263299378, 6210.320438184791, -5541.0645057039865, -69942.43054895765, -943.4894852029664, -22281.13529457275, -5648.375230833916, 8272.984120009438, -0.032, 0.97, 0.262, 192.0, 0.0, 0.0, 0.0, 0.0, 0.0, 0.0, 0.0, 0.0, 0.0, 1.695418109317081E9, 0.0, 2023-09-22 16:28:29.317
48.0, 26128.853992087126, 12676.143667238197, -37013.46063774355, -63341.356914205186, -187500.02235174447, 7611.953629488186, -117101.48210543182, -187500.02235174447, -40024.30767110678, 6169.036766175838, -5571.440526418749, -69974.34884003983, -972.7255669505081, -22313.500620544033, -5682.998082995186, 8234.695581757496, -0.032, 0.97, 0.262, 192.0, 0.0, 0.0, 0.0, 0.0, 0.0, 0.0, 0.0, 0.0, 0.0, 1.695418109317091E9, 0.0, 2023-09-22 16:28:29.317
50.0, 26155.921954622503, 12706.385577486228, -36996.22744276851, -63312.00907373537, -187500.02235174447, 7624.783530805533, -117078.2809946872, -187500.02235174447, -40010.20372035548, 6192.170821687081, -5521.484377561138, -69957.67443867617, -952.9442731075613, -22289.271329554478, -5663.239140896695, 8292.228971985456, -0.032, 0.97, 0.262, 192.0, 0.0, 0.0, 0.0, 0.0, 0.0, 0.0, 0.0, 0.0, 0.0, 1.695418109317094E9, 0.0, 2023-09-22 16:28:29.317
52.0, 26134.330169478675, 12682.290396963406, -37003.111780060746, -63332.1479954896, -187500.02235174447, 7599.928390971231, -117108.76877412424, -187500.02235174447, -40011.16484536706, 6193.266057165391, -5573.273369464085, -69960.84838638883, -957.7498981654524, -22321.055510169925, -5675.376138135927, 8223.027971151825, -0.036000000000000004, 0.978, 0.27, 192.0, 127.0, 112.0, 15.0, 72.0, 4.0, 56.0, 0.0, 0.0, 0.0, 1.695418109317097E9, 0.0, 2023-09-22 16:28:29.317
54.0, 26132.944361322447, 12677.887103305711, -37007.06803882933, -63332.975010034446, -187500.02235174447, 7631.042019253018, -117035.67856975539, -187500.02235174447, -40015.25521460238, 6177.977463957962, -5530.782703254546, -69975.2652615625, -955.4253167421004, -22290.344213288336, -5663.864989741443, 8275.487515388431, -0.036000000000000004, 0.978, 0.27, 192.0, 0.0, 0.0, 0.0, 0.0, 0.0, 0.0, 0.0, 0.0, 0.0, 1.695418109317101E9, 0.0, 2023-09-22 16:28:29.317
56.0, 26133.726672378383, 12683.005652785976, -36994.88633810119, -63323.67668434104, -187500.02235174447, 7594.139289157306, -117082.52782613372, -187500.02235174447, -40014.07057214625, 6182.291350637835, -5566.411383916305, -69968.93971788166, -959.1357063216814, -22325.3693968498, -5671.26341715615, 8229.91230844406, -0.036000000000000004, 0.978, 0.27, 192.0, 0.0, 0.0, 0.0, 0.0, 0.0, 0.0, 0.0, 0.0, 0.0, 1.695418109317104E9, 0.0, 2023-09-22 16:28:29.317
58.0, 26134.106652034123, 12683.855019075278, -37011.359573764756, -63327.20825996498, -187500.02235174447, 7637.121693744862, -116991.64563317844, -187500.02235174447, -40019.83732221572, 6185.733519283953, -5529.821578242967, -69974.23708131757, -954.0395085858713, -22304.537571017456, -5661.942739718287, 8276.314529933277, -0.036000000000000004, 0.978, 0.27, 192.0, 0.0, 0.0, 0.0, 0.0, 0.0, 0.0, 0.0, 0.0, 0.0, 1.695418109317107E9, 0.0, 2023-09-22 16:28:29.317
60.0, 26129.099861276136, 12674.8919695487, -37014.04178309939, -63331.857422811685, -187500.02235174447, 7589.333664099416, -117068.04389572667, -187500.02235174447, -40014.785827968815, 6183.140716927138, -5564.109154237408, -69974.013563873, -959.4933342329663, -22341.239135413067, -5687.64724584189, 8233.332125345722, -0.036000000000000004, 0.978, 0.27, 192.0, 0.0, 0.0, 0.0, 0.0, 0.0, 0.0, 0.0, 0.0, 0.0, 1.695418109376684E9, 0.0, 2023-09-22 16:28:29.376
62.0, 26140.40984397052, 12689.13003076673, -37003.08942831629, -63320.70390232848, -187500.02235174447, 7630.952612275197, -116971.7078771243, -187500.02235174447, -40028.129819408634, 6167.807420230797, -5544.081991205453, -69986.1729128567, -960.3203487778127, -22320.98845493656, -5672.760984034656, 8268.513771118376, -0.04, 0.978, 0.26, 192.0, 127.0, 96.0, 15.0, 72.0, 4.0, 16.0, 0.0, 0.0, 0.0, 1.695418109376698E9, 0.0, 2023-09-22 16:28:29.376
64.0, 26136.632399157574, 12686.961911554565, -37002.687096916095, -63325.66598959756, -187500.02235174447, 7581.622312262334, -117046.38505534948, -187500.02235174447, -40009.53316802182, 6192.170821687081, -5564.310319937506, -69964.64818294623, -950.0385463283714, -22340.233306912578, -5669.922312488832, 8229.264107854857, -0.04, 0.978, 0.26, 192.0, 0.0, 0.0, 0.0, 0.0, 0.0, 0.0, 0.0, 0.0, 0.0, 1.695418109376702E9, 0.0, 2023-09-22 16:28:29.376
66.0, 26144.343750994656, 12694.8967808362, -37001.70362016006, -63324.369588419155, -187500.02235174447, 7631.645516353312, -116925.9985597132, -187500.02235174447, -40015.16580762456, 6184.7500425279195, -5545.065467961486, -69973.96886038409, -946.2834532598798, -22319.647350269242, -5656.511265815648, 8254.610986067175, -0.04, 0.978, 0.26, 192.0, 0.0, 0.0, 0.0, 0.0, 0.0, 0.0, 0.0, 0.0, 0.0, 1.695418109376705E9, 0.0, 2023-09-22 16:28:29.376
68.0, 26146.60127718464, 12701.065862305864, -37001.278937015406, -63324.168422719056, -187500.02235174447, 7583.298693096483, -117010.57756073208, -187500.02235174447, -40004.48167377492, 6195.277714166369, -5545.221930172674, -69957.87560437627, -948.9656625945166, -22325.70467301663, -5668.871780499432, 8240.082352171225, -0.04, 0.978, 0.26, 192.0, 0.0, 0.0, 0.0, 0.0, 0.0, 0.0, 0.0, 0.0, 0.0, 1.695418109376708E9, 0.0, 2023-09-22 16:28:29.376
70.0, 26143.248515516345, 12695.634388403225, -37005.16814055063, -63333.802024579294, -187500.02235174447, 7632.427827409248, -116890.66045172936, -187500.02235174447, -40019.613804771165, 6188.236914662947, -5551.502770364616, -69968.80560741492, -954.7547644084411, -22320.42966132518, -5665.071983942031, 8241.401105094088, -0.04, 0.978, 0.26, 192.0, 0.0, 0.0, 0.0, 0.0, 0.0, 0.0, 0.0, 0.0, 0.0, 1.695418109376711E9, 0.0, 2023-09-22 16:28:29.376
72.0, 26136.095957290647, 12691.298149978895, -37019.71912619104, -63337.62417288115, -187500.02235174447, 7595.860373480365, -116945.91396402288, -187500.02235174447, -40018.853845459686, 6188.482783851956, -5537.488226591137, -69965.31873527989, -960.9461976225613, -22323.42479508219, -5677.9465887482875, 8246.810227252272, -0.038, 0.982, 0.262, 192.0, 127.0, 104.0, 15.0, 88.0, 4.0, 24.0, 0.0, 0.0, 0.0, 1.695418109376715E9, 0.0, 2023-09-22 16:28:29.376
74.0, 26136.587695668662, 12692.885123835222, -37010.80078015337, -63331.96918153396, -187500.02235174447, 7642.620222880867, -116814.7762793036, -187500.02235174447, -40029.62738628714, 6184.07949019426, -5545.445447617227, -69974.08061910637, -964.4777732464997, -22325.861135227817, -5669.899960744377, 8247.167855163558, -0.038, 0.982, 0.262, 192.0, 0.0, 0.0, 0.0, 0.0, 0.0, 0.0, 0.0, 0.0, 0.0, 1.695418109376718E9, 0.0, 2023-09-22 16:28:29.376
76.0, 26141.616838171107, 12697.534286681925, -37015.06996334434, -63327.521184387355, -187500.02235174447, 7618.145062702306, -116871.25913754215, -187500.02235174447, -40020.507874549374, 6192.260228664903, -5520.076217660453, -69966.50337773602, -968.0987558482595, -22314.126469388782, -5680.382928893916, 8268.133791462635, -0.038, 0.982, 0.262, 192.0, 0.0, 0.0, 0.0, 0.0, 0.0, 0.0, 0.0, 0.0, 0.0, 1.6954181094356E9, 0.0, 2023-09-22 16:28:29.435
78.0, 26151.13868130907, 12704.239810018518, -37003.82703588332, -63320.9944750064, -187500.02235174447, 7641.167359491273, -116794.54795057153, -187500.02235174447, -40013.15415062358, 6195.188307188548, -5556.643671589336, -69966.6151364583, -966.6682442031198, -22322.821297981896, -5665.988405464698, 8241.87049172765, -0.038, 0.982, 0.262, 192.0, 0.0, 0.0, 0.0, 0.0, 0.0, 0.0, 0.0, 0.0, 0.0, 1.695418109435613E9, 0.0, 2023-09-22 16:28:29.435
80.0, 26143.762605638818, 12696.707272137079, -37019.36149827975, -63327.72235008745, -187500.02235174447, 7620.067312725462, -116854.69649490077, -187500.02235174447, -39997.28441206031, 6207.057083494316, -5532.3696771108725, -69957.87560437627, -960.7897354113741, -22304.157591361713, -5665.876646742421, 8259.081334958237, -0.038, 0.982, 0.262, 192.0, 0.0, 0.0, 0.0, 0.0, 0.0, 0.0, 0.0, 0.0, 0.0, 1.695418109435617E9, 0.0, 2023-09-22 16:28:29.435
82.0, 26134.50898343432, 12691.23109474553, -37015.204073811066, -63326.56005937578, -187500.02235174447, 7665.508409203102, -116758.22636583167, -187500.02235174447, -40016.50691229188, 6194.383644388157, -5555.928415766766, -69975.93581389617, -978.8722966757175, -22307.89033268575, -5672.045728212086, 8244.82092199575, -0.036000000000000004, 0.984, 0.272, 192.0, 127.0, 112.0, 15.0, 96.0, 4.0, 64.0, 0.0, 0.0, 0.0, 1.69541810943562E9, 0.0, 2023-09-22 16:28:29.435
84.0, 26166.69549544996, 12728.334990541338, -36997.769713135924, -63293.680643282016, -187500.02235174447, 7620.849623781398, -116840.36902670492, -187500.02235174447, -39985.996781110385, 6230.66052563912, -5524.18893864023, -69938.76486286698, -959.8956656331618, -22289.874826654774, -5656.511265815648, 8276.49334388892, -0.036000000000000004, 0.984, 0.272, 192.0, 0.0, 0.0, 0.0, 0.0, 0.0, 0.0, 0.0, 0.0, 0.0, 1.695418109435623E9, 0.0, 2023-09-22 16:28:29.435
86.0, 26148.389416741065, 12705.80443213039, -37016.96986162304, -63324.235477952425, -187500.02235174447, 7630.282059941538, -116797.43132560627, -187500.02235174447, -39975.20088853847, 6236.494330941955, -5583.801041102533, -69935.63561864324, -953.8606946302289, -22311.690129243154, -5654.209036136751, 8206.085348854704, -0.036000000000000004, 0.984, 0.272, 192.0, 0.0, 0.0, 0.0, 0.0, 0.0, 0.0, 0.0, 0.0, 0.0, 1.695418109435627E9, 0.0, 2023-09-22 16:28:29.435
88.0, 26166.18140532749, 12719.573106714859, -37018.04274535689, -63306.890524255105, -187500.02235174447, 7624.001219749596, -116823.31464568552, -187500.02235174447, -39977.2348972839, 6226.078418025782, -5527.005258441599, -69945.20216527011, -964.2319040574914, -22273.893329369228, -5659.931082717309, 8264.646919327608, -0.036000000000000004, 0.984, 0.272, 192.0, 0.0, 0.0, 0.0, 0.0, 0.0, 0.0, 0.0, 0.0, 0.0, 1.69541810943563E9, 0.0, 2023-09-22 16:28:29.435
90.0, 26156.74896916735, 12714.678074679146, -37008.72206791903, -63315.25007668139, -187500.02235174447, 7628.695086085211, -116794.77146801609, -187500.02235174447, -39958.83941159718, 6249.6148049372205, -5576.559075899015, -69924.7056156046, -948.9433108500614, -22302.235341338557, -5644.329565087505, 8202.91140114205, -0.036000000000000004, 0.984, 0.272, 192.0, 0.0, 0.0, 0.0, 0.0, 0.0, 0.0, 0.0, 0.0, 0.0, 1.695418109495759E9, 0.0, 2023-09-22 16:28:29.495
92.0, 26174.74212345387, 12732.51476675448, -37004.296422516876, -63296.09463168319, -187500.02235174447, 7619.419112136258, -116821.83943055147, -187500.02235174447, -39961.923952332014, 6255.940348618073, -5515.315296091473, -69920.41408066917, -952.2513690294468, -22266.91958509917, -5645.111876143441, 8263.104648960192, -0.032, 0.984, 0.268, 192.0, 127.5, 0.0, 15.0, 96.0, 4.0, 48.0, 0.0, 0.0, 0.0, 1.695418109495777E9, 0.0, 2023-09-22 16:28:29.495
94.0, 26149.26113477482, 12710.095967065809, -37015.56170172235, -63320.167460461555, -187500.02235174447, 7615.909888256775, -116822.9793695187, -187500.02235174447, -39954.6819871285, 6262.109430087738, -5573.139258997352, -69913.32857767685, -945.7246596484971, -22299.620187237288, -5649.112838400941, 8185.745261400374, -0.032, 0.984, 0.268, 192.0, 0.0, 0.0, 0.0, 0.0, 0.0, 0.0, 0.0, 0.0, 0.0, 1.69541810949578E9, 0.0, 2023-09-22 16:28:29.495
96.0, 26157.50892847883, 12716.89089738022, -37018.333318034805, -63310.19858243449, -187500.02235174447, 7628.248051196105, -116819.00075900565, -187500.02235174447, -39969.12121404662, 6250.732392159986, -5521.1043979053975, -69926.65021737221, -958.2863400323797, -22261.801035618908, -5650.789219235089, 8251.63820405462, -0.032, 0.984, 0.268, 192.0, 0.0, 0.0, 0.0, 0.0, 0.0, 0.0, 0.0, 0.0, 0.0, 1.695418109495784E9, 0.0, 2023-09-22 16:28:29.495
98.0, 26141.75094863784, 12700.954103583588, -37013.28182378791, -63321.1956407065, -187500.02235174447, 7601.068329938452, -116859.07743681401, -187500.02235174447, -39966.75192913436, 6242.238729266969, -5581.923494568288, -69932.01463604148, -959.1357063216814, -22295.351004046322, -5650.409239579349, 8188.561581201742, -0.032, 0.984, 0.268, 192.0, 0.0, 0.0, 0.0, 0.0, 0.0, 0.0, 0.0, 0.0, 0.0, 1.695418109495787E9, 0.0, 2023-09-22 16:28:29.495
100.0, 26148.612934185618, 12710.699464166102, -37020.61319596925, -63312.05377722428, -187500.02235174447, 7634.551243132501, -116808.09310771145, -187500.02235174447, -39981.28056303031, 6234.683839641076, -5539.924566736766, -69945.00099957002, -968.7022529485528, -22262.22571876356, -5648.062306411542, 8247.950166219493, -0.032, 0.984, 0.268, 192.0, 0.0, 0.0, 0.0, 0.0, 0.0, 0.0, 0.0, 0.0, 0.0, 1.69541810949579E9, 0.0, 2023-09-22 16:28:29.495
102.0, 26149.12702430809, 12708.03960657592, -37016.56753022284, -63312.29964641329, -187500.02235174447, 7605.1363474293175, -116856.90931760185, -187500.02235174447, -39969.076510557716, 6245.6808979130865, -5584.2033725027295, -69927.23136272805, -968.1881628260808, -22296.513294758, -5662.16625716284, 8189.90268586906, -0.034, 0.982, 0.266, 192.0, 127.0, 120.0, 15.0, 88.0, 4.0, 40.0, 0.0, 0.0, 0.0, 1.695418109495794E9, 0.0, 2023-09-22 16:28:29.495
104.0, 26150.423425486497, 12709.850097876799, -37024.30123380438, -63312.76903304685, -187500.02235174447, 7642.106132758396, -116789.42940109127, -187500.02235174447, -39979.24655428488, 6232.783941362374, -5546.652441817813, -69936.55204016592, -969.3281017933014, -22268.059524066393, -5655.036050681598, 8232.862738712161, -0.034, 0.982, 0.266, 192.0, 0.0, 0.0, 0.0, 0.0, 0.0, 0.0, 0.0, 0.0, 0.0, 1.695418109495797E9, 0.0, 2023-09-22 16:28:29.495
106.0, 26152.569192954208, 12710.52065021046, -37022.736611692504, -63316.72529181544, -187500.02235174447, 7603.594077061901, -116858.51864320262, -187500.02235174447, -39976.47493797242, 6232.4710169400005, -5575.374433442883, -69934.60743839829, -976.4806600189996, -22295.88744591325, -5674.1914956797955, 8187.935732356994, -0.034, 0.982, 0.266, 192.0, 0.0, 0.0, 0.0, 0.0, 0.0, 0.0, 0.0, 0.0, 0.0, 1.695418109557349E9, 0.0, 2023-09-22 16:28:29.557
108.0, 26153.709131921427, 12706.22911527504, -37026.84933267228, -63324.41429190806, -187500.02235174447, 7637.300507700505, -116786.3672121009, -187500.02235174447, -39973.50215595987, 6233.342734973757, -5553.514427365592, -69943.79400536943, -967.1823343255919, -22279.101285827313, -5657.0477076825755, 8220.546927517287, -0.034, 0.982, 0.266, 192.0, 0.0, 0.0, 0.0, 0.0, 0.0, 0.0, 0.0, 0.0, 0.0, 1.695418109557362E9, 0.0, 2023-09-22 16:28:29.557
110.0, 26150.445777230954, 12705.290342007916, -37027.40812628366, -63331.499794900396, -187500.02235174447, 7592.887591467809, -116865.58179445051, -187500.02235174447, -39976.72080716143, 6225.854900581229, -5572.088727007953, -69943.77165362498, -976.3689012967232, -22305.833972195862, -5676.091393958497, 8188.941560857483, -0.034, 0.982, 0.266, 192.0, 0.0, 0.0, 0.0, 0.0, 0.0, 0.0, 0.0, 0.0, 0.0, 1.695418109557366E9, 0.0, 2023-09-22 16:28:29.557
112.0, 26147.98708534087, 12698.338949482317, -37032.750193208485, -63345.98372530744, -187500.02235174447, 7649.213987495183, -116755.58885998593, -187500.02235174447, -39987.1367200776, 6214.321400442291, -5549.580520341458, -69956.15452005321, -977.5535437528544, -22289.18192257666, -5665.295501386583, 8217.954125160471, -0.034, 0.976, 0.27, 192.0, 127.0, 120.0, 15.0, 64.0, 4.0, 56.0, 0.0, 0.0, 0.0, 1.69541810955737E9, 0.0, 2023-09-22 16:28:29.557
114.0, 26159.14060582407, 12711.191202544118, -37026.022318127434, -63333.109120501176, -187500.02235174447, 7603.7281875286335, -116850.36025647644, -187500.02235174447, -39974.597391438176, 6227.196005248547, -5556.442505889238, -69943.79400536943, -978.5146687644326, -22301.005995393516, -5681.7910887946, 8201.078558096715, -0.034, 0.976, 0.27, 192.0, 0.0, 0.0, 0.0, 0.0, 0.0, 0.0, 0.0, 0.0, 0.0, 1.695418109557374E9, 0.0, 2023-09-22 16:28:29.557
116.0, 26166.404922772042, 12718.097891580808, -37010.286690030895, -63318.513431371866, -187500.02235174447, 7640.854435068898, -116765.1107031239, -187500.02235174447, -39966.059025056245, 6241.791694377863, -5563.662119348302, -69930.58412439634, -961.5273429783992, -22297.921454658685, -5652.867931469433, 8206.062997110248, -0.034, 0.976, 0.27, 192.0, 0.0, 0.0, 0.0, 0.0, 0.0, 0.0, 0.0, 0.0, 0.0, 1.695418109557378E9, 0.0, 2023-09-22 16:28:29.557
118.0, 26162.426312259, 12715.259220034985, -37010.286690030895, -63314.53482085882, -187500.02235174447, 7586.047957664485, -116866.34175376198, -187500.02235174447, -39957.744176118875, 6236.427275708589, -5556.666023333791, -69928.75128135101, -963.181372068092, -22306.906855929716, -5664.021451952631, 8191.087328325192, -0.034, 0.976, 0.27, 192.0, 0.0, 0.0, 0.0, 0.0, 0.0, 0.0, 0.0, 0.0, 0.0, 1.695418109557381E9, 0.0, 2023-09-22 16:28:29.557
120.0, 26153.97735285489, 12708.531344953937, -37010.04082084189, -63321.352102917685, -187500.02235174447, 7635.579423377446, -116758.98632514315, -187500.02235174447, -39972.80925188175, 6225.251403480936, -5563.639767603847, -69944.15163328072, -966.8470581587623, -22304.13523961726, -5650.431591323804, 8186.661682923042, -0.034, 0.976, 0.27, 192.0, 0.0, 0.0, 0.0, 0.0, 0.0, 0.0, 0.0, 0.0, 0.0, 1.695418109616343E9, 0.0, 2023-09-22 16:28:29.616
122.0, 26154.536146466275, 12718.790795658922, -37004.430532983606, -63310.75737604587, -187500.02235174447, 7605.203402662683, -116842.09011102798, -187500.02235174447, -39958.25826624135, 6242.082267055782, -5542.986755727143, -69927.87956331726, -960.4544592445445, -22296.89327441374, -5652.331489602505, 8197.658741195053, -0.038, 0.974, 0.268, 192.0, 127.0, 104.0, 15.0, 56.0, 4.0, 48.0, 0.0, 0.0, 0.0, 1.69541810961636E9, 0.0, 2023-09-22 16:28:29.616
124.0, 26148.65763767453, 12711.101795566297, -37001.055419570854, -63311.69614931299, -187500.02235174447, 7653.147894519317, -116737.66276093278, -187500.02235174447, -39970.57407743622, 6237.678973398087, -5558.185941956752, -69934.00394129801, -960.85679064474, -22291.12652434427, -5641.781466219601, 8193.680130682007, -0.038, 0.974, 0.268, 192.0, 0.0, 0.0, 0.0, 0.0, 0.0, 0.0, 0.0, 0.0, 0.0, 1.695418109616364E9, 0.0, 2023-09-22 16:28:29.616
126.0, 26157.08424533418, 12714.298095023405, -37012.812437154345, -63301.72727128593, -187500.02235174447, 7615.216984178661, -116814.06102348102, -187500.02235174447, -39977.36900775063, 6219.328191200279, -5526.424113085761, -69944.19633676963, -979.7663664539298, -22283.97396611857, -5670.88343750041, 8223.385599063111, -0.038, 0.974, 0.268, 192.0, 0.0, 0.0, 0.0, 0.0, 0.0, 0.0, 0.0, 0.0, 0.0, 1.695418109616368E9, 0.0, 2023-09-22 16:28:29.616
128.0, 26174.719771709417, 12730.726627198057, -36985.00686705195, -63289.12088741313, -187500.02235174447, 7624.492958127614, -116762.1602728558, -187500.02235174447, -39948.647016125564, 6242.953985089539, -5578.906009066822, -69919.58706612434, -949.792677139363, -22318.485059557566, -5642.742591231178, 8164.891083823572, -0.038, 0.974, 0.268, 192.0, 0.0, 0.0, 0.0, 0.0, 0.0, 0.0, 0.0, 0.0, 0.0, 1.695418109616372E9, 0.0, 2023-09-22 16:28:29.616
130.0, 26161.196966313957, 12719.528403225948, -37010.934890620105, -63307.158745188564, -187500.02235174447, 7598.520231070546, -116824.52163988611, -187500.02235174447, -39942.656748611545, 6252.274662527402, -5541.66800280428, -69912.76978406546, -943.1989125250474, -22299.955463404116, -5636.931137672799, 8185.09706081117, -0.038, 0.974, 0.268, 192.0, 0.0, 0.0, 0.0, 0.0, 0.0, 0.0, 0.0, 0.0, 0.0, 1.695418109616375E9, 0.0, 2023-09-22 16:28:29.616
132.0, 26145.79661438425, 12703.70336815159, -37023.653033215174, -63330.024579766345, -187500.02235174447, 7633.008972765086, -116739.4509004892, -187500.02235174447, -39982.912240375554, 6215.483691153967, -5560.734040824657, -69953.3605519963, -972.9490843950612, -22314.975835678084, -5656.623024537925, 8168.065031536225, -0.03, 0.978, 0.264, 192.0, 127.5, 8.0, 15.0, 72.0, 4.0, 32.0, 0.0, 0.0, 0.0, 1.695418109616379E9, 0.0, 2023-09-22 16:28:29.616
134.0, 26154.93847786647, 12715.303923523894, -37029.57624549583, -63323.34140817421, -187500.02235174447, 7603.12469042834, -116786.23310163416, -187500.02235174447, -39966.37194947862, 6229.811159349819, -5527.251127630607, -69938.34017972233, -961.4826394894886, -22302.74943146103, -5658.098239671975, 8208.85696516716, -0.03, 0.978, 0.264, 192.0, 0.0, 0.0, 0.0, 0.0, 0.0, 0.0, 0.0, 0.0, 0.0, 1.695418109616383E9, 0.0, 2023-09-22 16:28:29.616
136.0, 26141.102748048634, 12699.143612282707, -37032.03493738591, -63338.987629292926, -187500.02235174447, 7612.378312632837, -116733.14770855282, -187500.02235174447, -39977.01137983935, 6215.126063242682, -5584.3821864583715, -69947.14676703773, -963.5613517238322, -22334.824184754394, -5665.876646742421, 8146.115618481114, -0.03, 0.978, 0.264, 192.0, 0.0, 0.0, 0.0, 0.0, 0.0, 0.0, 0.0, 0.0, 0.0, 1.695418109676678E9, 0.0, 2023-09-22 16:28:29.676
138.0, 26160.347600024656, 12718.522574725459, -37028.838637928806, -63323.4978703854, -187500.02235174447, 7600.509536327069, -116747.29636279301, -187500.02235174447, -39985.01330435435, 6207.191193961048, -5530.536834065537, -69956.35568575331, -973.5078780064438, -22304.13523961726, -5676.31491140305, 8202.10673834166, -0.03, 0.978, 0.264, 192.0, 0.0, 0.0, 0.0, 0.0, 0.0, 0.0, 0.0, 0.0, 0.0, 1.69541810967669E9, 0.0, 2023-09-22 16:28:29.676
140.0, 26135.157184023523, 12693.645083146703, -37034.11364962025, -63349.35883872019, -187500.02235174447, 7599.995446204597, -116717.7026531342, -187500.02235174447, -39967.95892333495, 6229.6546971386315, -5597.077977308986, -69933.82512734237, -955.0900405752708, -22339.987437723572, -5667.463620598748, 8125.596717071143, -0.03, 0.978, 0.264, 192.0, 0.0, 0.0, 0.0, 0.0, 0.0, 0.0, 0.0, 0.0, 0.0, 1.695418109676694E9, 0.0, 2023-09-22 16:28:29.676
142.0, 26138.509945691818, 12695.366167469761, -37044.66367300316, -63341.714542116475, -187500.02235174447, 7619.195594691706, -116678.90002475979, -187500.02235174447, -40013.62353725714, 6177.88805698014, -5524.747732251612, -69980.42851453168, -992.6409712601867, -22296.535646502452, -5703.874612316444, 8216.948296659983, -0.038, 0.978, 0.262, 192.0, 127.0, 104.0, 15.0, 72.0, 4.0, 24.0, 0.0, 0.0, 0.0, 1.695418109676697E9, 0.0, 2023-09-22 16:28:29.676
144.0, 26143.31557074971, 12701.445841961604, -37026.06702161634, -63332.01388502287, -187500.02235174447, 7616.558088845979, -116673.64736481279, -187500.02235174447, -39992.992877124896, 6199.591600846244, -5588.159631271319, -69962.03302884496, -979.3863867981896, -22335.00299871004, -5699.560725636569, 8151.636499361575, -0.038, 0.978, 0.262, 192.0, 0.0, 0.0, 0.0, 0.0, 0.0, 0.0, 0.0, 0.0, 0.0, 1.6954181096767E9, 0.0, 2023-09-22 16:28:29.676
146.0, 26172.194024585966, 12729.407874275194, -37014.31000403285, -63303.895390498095, -187500.02235174447, 7630.550280875002, -116649.17220463422, -187500.02235174447, -39975.647923427576, 6224.80436859183, -5544.104342949909, -69937.44610994413, -961.8849708896842, -22289.11486734329, -5668.7376700327, 8204.67718895402, -0.038, 0.978, 0.262, 192.0, 0.0, 0.0, 0.0, 0.0, 0.0, 0.0, 0.0, 0.0, 0.0, 1.695418109676703E9, 0.0, 2023-09-22 16:28:29.676
148.0, 26147.98708534087, 12702.8987053512, -37023.585977981806, -63322.91672502956, -187500.02235174447, 7614.926411500742, -116664.81842575294, -187500.02235174447, -39979.134795562604, 6223.575022646788, -5586.706767881724, -69935.50150817652, -973.5302297508991, -22303.08470762786, -5674.571475335536, 8145.757990569829, -0.038, 0.978, 0.262, 192.0, 0.0, 0.0, 0.0, 0.0, 0.0, 0.0, 0.0, 0.0, 0.0, 1.695418109676707E9, 0.0, 2023-09-22 16:28:29.676
150.0, 26163.94623088196, 12716.935600869132, -37008.72206791903, -63299.78266951832, -187500.02235174447, 7637.881653056343, -116612.56004721642, -187500.02235174447, -39987.29318228879, 6211.7509498299305, -5541.220967915174, -69944.59866816983, -972.9937878839718, -22271.32287875687, -5664.043803697086, 8203.425491264521, -0.038, 0.978, 0.262, 192.0, 0.0, 0.0, 0.0, 0.0, 0.0, 0.0, 0.0, 0.0, 0.0, 1.695418109735392E9, 0.0, 2023-09-22 16:28:29.735
152.0, 26153.575021454697, 12709.17954554314, -37014.01943135494, -63313.752509802885, -187500.02235174447, 7605.270457896049, -116660.63864953979, -187500.02235174447, -39978.06191182875, 6222.837415079763, -5576.670834621291, -69934.11570002028, -971.1385930941813, -22293.585216234354, -5664.513190330647, 8154.005784273838, -0.036000000000000004, 0.978, 0.262, 192.0, 127.0, 112.0, 15.0, 72.0, 4.0, 24.0, 0.0, 0.0, 0.0, 1.695418109735423E9, 0.0, 2023-09-22 16:28:29.735
154.0, 26144.433157972475, 12699.188315771618, -37032.727841464024, -63330.56102163327, -187500.02235174447, 7657.75235387711, -116555.00430524402, -187500.02235174447, -39990.936516635, 6209.448720151034, -5535.633031801347, -69951.17008103969, -976.8159361858293, -22260.683448396143, -5659.864027483944, 8214.042569880792, -0.036000000000000004, 0.978, 0.262, 192.0, 0.0, 0.0, 0.0, 0.0, 0.0, 0.0, 0.0, 0.0, 0.0, 1.695418109735427E9, 0.0, 2023-09-22 16:28:29.735
156.0, 26143.472032960897, 12701.46819370606, -37030.40326004067, -63329.622248366155, -187500.02235174447, 7625.498786628103, -116604.49106746806, -187500.02235174447, -39988.45547300047, 6209.716941084497, -5557.157761711808, -69946.87854610426, -986.628352001709, -22287.55024523142, -5677.633664325913, 8188.740395157385, -0.036000000000000004, 0.978, 0.262, 192.0, 0.0, 0.0, 0.0, 0.0, 0.0, 0.0, 0.0, 0.0, 0.0, 1.69541810973543E9, 0.0, 2023-09-22 16:28:29.735
158.0, 26152.077454576192, 12706.095004808309, -37019.674422702126, -63321.12858547313, -187500.02235174447, 7662.066240556985, -116515.5534762804, -187500.02235174447, -39988.34371427819, 6206.677103838576, -5539.745752781124, -69950.1642525392, -973.6866919620862, -22280.21887305008, -5661.02631819562, 8224.346724074689, -0.036000000000000004, 0.978, 0.262, 192.0, 0.0, 0.0, 0.0, 0.0, 0.0, 0.0, 0.0, 0.0, 0.0, 1.695418109735433E9, 0.0, 2023-09-22 16:28:29.735
160.0, 26147.942381851957, 12704.575086185347, -37024.43534427111, -63323.78844306331, -187500.02235174447, 7620.536699359024, -116596.69030865317, -187500.02235174447, -39984.70037993197, 6205.827737549274, -5557.67185183428, -69950.34306649484, -978.7158344645303, -22303.4646872836, -5672.939797990299, 8193.2330957929, -0.036000000000000004, 0.978, 0.262, 192.0, 0.0, 0.0, 0.0, 0.0, 0.0, 0.0, 0.0, 0.0, 0.0, 1.695418109735437E9, 0.0, 2023-09-22 16:28:29.735
162.0, 26136.94532357995, 12696.997844814998, -37030.42561178513, -63333.466748412466, -187500.02235174447, 7676.2819500305595, -116480.1483130632, -187500.02235174447, -39990.37772302362, 6208.666409095098, -5549.021726730076, -69955.28280201946, -974.4913547624773, -22288.667832454186, -5662.613292051947, 8217.976476904927, -0.042, 0.978, 0.268, 192.0, 127.0, 88.0, 15.0, 72.0, 4.0, 48.0, 0.0, 0.0, 0.0, 1.69541810973544E9, 0.0, 2023-09-22 16:28:29.735
164.0, 26148.121195807602, 12704.865658863266, -37020.12145759123, -63317.01586449336, -187500.02235174447, 7612.735940544122, -116581.51347416801, -187500.02235174447, -39985.32622877672, 6206.140661971648, -5555.704898322213, -69950.74539789504, -982.403872299656, -22301.676547727177, -5683.042786484098, 8205.973590132427, -0.042, 0.978, 0.268, 192.0, 0.0, 0.0, 0.0, 0.0, 0.0, 0.0, 0.0, 0.0, 0.0, 1.695418109735443E9, 0.0, 2023-09-22 16:28:29.735
166.0, 26162.135739581077, 12720.444824748616, -37004.296422516876, -63306.8458207662, -187500.02235174447, 7647.023516538563, -116496.5991969823, -187500.02235174447, -39981.01234209685, 6210.588659118254, -5569.227703717674, -69946.76678738199, -969.6857297045863, -22296.98268139156, -5658.478219327715, 8195.848249894172, -0.042, 0.978, 0.268, 192.0, 0.0, 0.0, 0.0, 0.0, 0.0, 0.0, 0.0, 0.0, 0.0, 1.695418109797029E9, 0.0, 2023-09-22 16:28:29.797
168.0, 26170.45058851845, 12726.010409117987, -37001.770675393425, -63300.3414631297, -187500.02235174447, 7588.7078152546665, -116606.45802098014, -187500.02235174447, -39961.2310482539, 6229.542938416354, -5565.405555415816, -69928.9077435622, -961.5049912339439, -22294.546341245932, -5660.735745517701, 8181.945464842972, -0.042, 0.978, 0.268, 192.0, 0.0, 0.0, 0.0, 0.0, 0.0, 0.0, 0.0, 0.0, 0.0, 1.695418109797041E9, 0.0, 2023-09-22 16:28:29.797
170.0, 26149.417596986008, 12701.624655917247, -37020.09910584678, -63330.85159431119, -187500.02235174447, 7644.788342093032, -116495.05692661488, -187500.02235174447, -39973.94919084897, 6211.974467274484, -5575.5755991429805, -69945.6044966703, -962.4214127566115, -22290.99241387754, -5649.895149456876, 8166.992147802371, -0.042, 0.978, 0.268, 192.0, 0.0, 0.0, 0.0, 0.0, 0.0, 0.0, 0.0, 0.0, 0.0, 1.695418109797044E9, 0.0, 2023-09-22 16:28:29.797
172.0, 26171.143492596566, 12721.987095116032, -37009.2361580415, -63307.605780077676, -187500.02235174447, 7599.615466548857, -116598.7690208875, -187500.02235174447, -39974.105653060156, 6212.622667863688, -5538.561110324992, -69942.54230767993, -975.0277966294046, -22277.3578497598, -5672.872742756933, 8192.51783997033, -0.038, 0.976, 0.266, 192.0, 127.0, 104.0, 15.0, 64.0, 4.0, 40.0, 0.0, 0.0, 0.0, 1.695418109797048E9, 0.0, 2023-09-22 16:28:29.797
174.0, 26156.927783122992, 12709.268952520963, -37004.74345740598, -63317.641713338104, -187500.02235174447, 7638.41809492327, -116521.52139204997, -187500.02235174447, -39968.67417915752, 6215.863670809707, -5577.140221254853, -69936.44028144363, -957.1016975762484, -22290.388916777243, -5641.982631919698, 8154.095191251659, -0.038, 0.976, 0.266, 192.0, 0.0, 0.0, 0.0, 0.0, 0.0, 0.0, 0.0, 0.0, 0.0, 1.695418109797052E9, 0.0, 2023-09-22 16:28:29.797
176.0, 26159.386475013078, 12717.203821802595, -37010.53255921991, -63313.43958538051, -187500.02235174447, 7623.308315671482, -116571.9692792856, -187500.02235174447, -39986.53322297731, 6206.23006894947, -5524.345400851417, -69945.1574617812, -976.6147704857315, -22262.918622841673, -5657.874722227421, 8203.157270331058, -0.038, 0.976, 0.266, 192.0, 0.0, 0.0, 0.0, 0.0, 0.0, 0.0, 0.0, 0.0, 0.0, 1.695418109797055E9, 0.0, 2023-09-22 16:28:29.797
178.0, 26153.329152265687, 12710.163022299173, -37005.92809986211, -63325.62128610865, -187500.02235174447, 7657.238263754638, -116484.64101369871, -187500.02235174447, -39985.2368217989, 6211.773301574386, -5556.174284955774, -69941.71529313509, -974.245485573469, -22284.89038764124, -5655.840713481988, 8173.47415369441, -0.038, 0.976, 0.266, 192.0, 0.0, 0.0, 0.0, 0.0, 0.0, 0.0, 0.0, 0.0, 0.0, 1.695418109797059E9, 0.0, 2023-09-22 16:28:29.797
180.0, 26143.56143993872, 12698.920094838155, -37029.665652473646, -63334.29376295731, -187500.02235174447, 7641.524987402558, -116520.76143273848, -187500.02235174447, -39997.15030159358, 6188.952170485517, -5506.464005287172, -69957.33916250935, -986.4718897905219, -22269.065352566882, -5667.865951998943, 8226.648953753585, -0.038, 0.976, 0.266, 192.0, 0.0, 0.0, 0.0, 0.0, 0.0, 0.0, 0.0, 0.0, 0.0, 1.695418109797063E9, 0.0, 2023-09-22 16:28:29.797
182.0, 26168.774207684306, 12728.916135897176, -36997.97087883602, -63308.656312067076, -187500.02235174447, 7640.809731579988, -116493.60406322528, -187500.02235174447, -39977.97250485093, 6208.577002117277, -5566.567846127492, -69936.3061709769, -970.8480204162622, -22310.773707720484, -5653.605539036458, 8168.892046081072, -0.032, 0.972, 0.274, 192.0, 127.5, 0.0, 15.0, 48.0, 4.0, 72.0, 0.0, 0.0, 0.0, 1.695418109856828E9, 0.0, 2023-09-22 16:28:29.856
184.0, 26173.825701931204, 12735.867528422777, -37009.392620252685, -63300.69909104099, -187500.02235174447, 7624.001219749596, -116532.76431951098, -187500.02235174447, -39975.04442632728, 6218.389417933156, -5517.796339726012, -69929.91357206268, -968.6575494596422, -22278.2072160491, -5643.837826709489, 8208.924020400527, -0.032, 0.972, 0.274, 192.0, 0.0, 0.0, 0.0, 0.0, 0.0, 0.0, 0.0, 0.0, 0.0, 1.695418109856839E9, 0.0, 2023-09-22 16:28:29.856
186.0, 26165.108521593636, 12725.965705629076, -37008.09621907428, -63309.34921614519, -187500.02235174447, 7627.510443629079, -116519.04034841542, -187500.02235174447, -39969.38943498009, 6225.474920925489, -5569.205351973218, -69920.34702543581, -963.5166482349216, -22308.538533274954, -5644.217806365229, 8146.115618481114, -0.032, 0.972, 0.274, 192.0, 0.0, 0.0, 0.0, 0.0, 0.0, 0.0, 0.0, 0.0, 0.0, 1.695418109856843E9, 0.0, 2023-09-22 16:28:29.856
188.0, 26163.566251226217, 12723.909345139187, -37020.52378899143, -63311.494983612894, -187500.02235174447, 7629.879728541342, -116543.62726731626, -187500.02235174447, -39979.71594091844, 6218.143548744149, -5510.263801844573, -69927.4101766837, -968.2552180594466, -22271.389933990235, -5643.323736587016, 8207.269991310834, -0.032, 0.972, 0.274, 192.0, 0.0, 0.0, 0.0, 0.0, 0.0, 0.0, 0.0, 0.0, 0.0, 1.695418109856846E9, 0.0, 2023-09-22 16:28:29.856
190.0, 26159.36412326862, 12720.958914871087, -37008.3867917522, -63310.48915511241, -187500.02235174447, 7632.852510553898, -116542.57673532686, -187500.02235174447, -39996.94913589348, 6196.440004878045, -5556.666023333791, -69949.53840369445, -990.0034654144604, -22300.84953318233, -5668.871780499432, 8159.392554687567, -0.032, 0.972, 0.274, 192.0, 0.0, 0.0, 0.0, 0.0, 0.0, 0.0, 0.0, 0.0, 0.0, 1.695418109856849E9, 0.0, 2023-09-22 16:28:29.856
192.0, 26171.94815539696, 12734.99581038902, -37005.190492295085, -63297.77101251734, -187500.02235174447, 7633.634821609834, -116542.46497660459, -187500.02235174447, -39975.3349990052, 6219.7305226004755, -5520.9255839497555, -69923.49862140401, -961.2814737893908, -22276.26261428149, -5635.075942883008, 8204.923058143027, -0.034, 0.976, 0.27, 192.0, 127.0, 120.0, 15.0, 64.0, 4.0, 56.0, 0.0, 0.0, 0.0, 1.695418109856852E9, 0.0, 2023-09-22 16:28:29.856
194.0, 26169.310649551233, 12732.581821987847, -37010.84548364228, -63311.226762679435, -187500.02235174447, 7619.329705158438, -116560.43577914665, -187500.02235174447, -39982.17463280853, 6218.7917493333525, -5565.003224015621, -69929.77946159596, -975.2736658184131, -22302.101230871827, -5650.655108768357, 8149.691897593963, -0.034, 0.976, 0.27, 192.0, 0.0, 0.0, 0.0, 0.0, 0.0, 0.0, 0.0, 0.0, 0.0, 1.695418109856855E9, 0.0, 2023-09-22 16:28:29.856
196.0, 26168.103655350646, 12732.8053394324, -37016.32166103383, -63306.95757948847, -187500.02235174447, 7635.981754777641, -116529.27744737595, -187500.02235174447, -39986.98025786642, 6210.052217251327, -5520.970287438666, -69938.98838031154, -974.469003018022, -22276.061448581393, -5643.144922631374, 8203.179622075513, -0.034, 0.976, 0.27, 192.0, 0.0, 0.0, 0.0, 0.0, 0.0, 0.0, 0.0, 0.0, 0.0, 1.695418109915815E9, 0.0, 2023-09-22 16:28:29.915
198.0, 26167.522509994807, 12733.23002257705, -36997.81441662484, -63310.109175456666, -187500.02235174447, 7582.583437273913, -116621.32193104291, -187500.02235174447, -39964.740272133386, 6227.732447115475, -5582.526991668581, -69914.6026271108, -959.0462993438601, -22320.116736902804, -5647.235291866696, 8126.691952549452, -0.034, 0.976, 0.27, 192.0, 0.0, 0.0, 0.0, 0.0, 0.0, 0.0, 0.0, 0.0, 0.0, 1.695418109915829E9, 0.0, 2023-09-22 16:28:29.915
200.0, 26153.84324238816, 12717.94142936962, -37025.17295183813, -63322.02265525135, -187500.02235174447, 7630.930260530742, -116556.45716863361, -187500.02235174447, -40001.55359525127, 6188.348673385224, -5535.342459123428, -69956.69096192015, -981.3756920547119, -22284.55511147441, -5648.799913978567, 8183.957121843949, -0.034, 0.976, 0.27, 192.0, 0.0, 0.0, 0.0, 0.0, 0.0, 0.0, 0.0, 0.0, 0.0, 1.695418109915833E9, 0.0, 2023-09-22 16:28:29.915
202.0, 26144.142585294558, 12713.538135711926, -37021.01552736945, -63321.709730828974, -187500.02235174447, 7589.400719332782, -116646.37823657731, -187500.02235174447, -39985.505042732366, 6212.890888797151, -5579.15187825583, -69934.94271456513, -975.3854245406897, -22317.970969435093, -5654.991347192687, 8132.70457180793, -0.032, 0.972, 0.268, 192.0, 127.5, 0.0, 15.0, 48.0, 4.0, 48.0, 0.0, 0.0, 0.0, 1.695418109915837E9, 0.0, 2023-09-22 16:28:29.915
204.0, 26155.02788484429, 12726.65860970719, -37020.94847213608, -63308.209277177964, -187500.02235174447, 7638.686315856733, -116566.02371526048, -187500.02235174447, -40017.75860998137, 6197.736406056453, -5543.277328405062, -69956.53449970896, -996.0384364173933, -22281.671736439675, -5654.007870436653, 8189.90268586906, -0.032, 0.972, 0.268, 192.0, 0.0, 0.0, 0.0, 0.0, 0.0, 0.0, 0.0, 0.0, 0.0, 1.695418109915841E9, 0.0, 2023-09-22 16:28:29.915
206.0, 26164.572079726706, 12734.146444099719, -37007.023335340426, -63301.079070696724, -187500.02235174447, 7582.181105873717, -116667.52298683203, -187500.02235174447, -39981.928763619515, 6228.671220382598, -5573.586293886458, -69922.17986848115, -973.5078780064438, -22299.687242470653, -5647.279995355606, 8142.427580645988, -0.032, 0.972, 0.268, 192.0, 0.0, 0.0, 0.0, 0.0, 0.0, 0.0, 0.0, 0.0, 0.0, 1.695418109915844E9, 0.0, 2023-09-22 16:28:29.915
208.0, 26158.715922679417, 12725.317505039871, -37011.44898074257, -63307.71753879995, -187500.02235174447, 7619.1061877138845, -116581.60288114582, -187500.02235174447, -39984.74508342089, 6217.13772024366, -5561.985738514154, -69933.98158955356, -965.438898258078, -22280.375335261266, -5628.012791635131, 8158.90081630955, -0.032, 0.972, 0.268, 192.0, 0.0, 0.0, 0.0, 0.0, 0.0, 0.0, 0.0, 0.0, 0.0, 1.695418109915855E9, 0.0, 2023-09-22 16:28:29.915
210.0, 26147.629457429586, 12713.582839200835, -37023.94360589309, -63311.986721990914, -187500.02235174447, 7585.667978008745, -116651.16150989075, -187500.02235174447, -40001.06185687326, 6196.104728711215, -5554.609662843903, -69951.14772929523, -989.8246514588179, -22283.41517250719, -5659.64051003939, 8154.005784273838, -0.032, 0.972, 0.268, 192.0, 0.0, 0.0, 0.0, 0.0, 0.0, 0.0, 0.0, 0.0, 0.0, 1.695418109915858E9, 0.0, 2023-09-22 16:28:29.915
212.0, 26157.821852901205, 12724.199917817106, -37009.75024816397, -63303.113079442155, -187500.02235174447, 7633.366600676371, -116554.93725001065, -187500.02235174447, -40000.324249306235, 6201.782071802863, -5543.903177249811, -69947.39263622674, -982.985017655494, -22270.920547356673, -5645.849483710466, 8174.412926961533, -0.034, 0.974, 0.268, 192.0, 127.0, 120.0, 15.0, 56.0, 4.0, 48.0, 0.0, 0.0, 0.0, 1.695418109979001E9, 0.0, 2023-09-22 16:28:29.979
214.0, 26147.89767836305, 12713.42637698965, -37018.86975990173, -63316.07709122624, -187500.02235174447, 7586.226771620128, -116646.0876638994, -187500.02235174447, -39994.91512714805, 6207.548821872333, -5543.344383638428, -69939.83774660084, -987.5224217799214, -22275.055620080904, -5660.467524584237, 8163.818200089718, -0.034, 0.974, 0.268, 192.0, 0.0, 0.0, 0.0, 0.0, 0.0, 0.0, 0.0, 0.0, 0.0, 1.695418109979014E9, 0.0, 2023-09-22 16:28:29.979
216.0, 26160.99580061386, 12726.390388773727, -37003.62587018322, -63312.65727432457, -187500.02235174447, 7627.353981417893, -116560.52518612448, -187500.02235174447, -39989.39424626759, 6204.017246248394, -5552.016860487087, -69941.33531347934, -975.0725001183152, -22282.722268429075, -5643.703716242757, 8160.130162254592, -0.034, 0.974, 0.268, 192.0, 0.0, 0.0, 0.0, 0.0, 0.0, 0.0, 0.0, 0.0, 0.0, 1.695418109979018E9, 0.0, 2023-09-22 16:28:29.979
218.0, 26150.579887697684, 12713.60519094529, -37015.87462614472, -63326.56005937578, -187500.02235174447, 7584.393928574793, -116641.46085279714, -187500.02235174447, -39995.92095564854, 6195.054196721816, -5525.708857263191, -69950.6112874283, -984.8849159341951, -22277.31314627089, -5653.40437333636, 8168.735583869885, -0.034, 0.974, 0.268, 192.0, 0.0, 0.0, 0.0, 0.0, 0.0, 0.0, 0.0, 0.0, 0.0, 1.695418109979021E9, 0.0, 2023-09-22 16:28:29.979
220.0, 26146.198945784447, 12707.592571686813, -37008.43149524111, -63336.1489577471, -187500.02235174447, 7632.852510553898, -116550.77982554196, -187500.02235174447, -40002.15709235157, 6185.264132650392, -5543.389087127339, -69956.64625843122, -981.7780234549074, -22289.65130921022, -5639.345126073972, 8157.0232697753045, -0.034, 0.974, 0.268, 192.0, 0.0, 0.0, 0.0, 0.0, 0.0, 0.0, 0.0, 0.0, 0.0, 1.695418109979024E9, 0.0, 2023-09-22 16:28:29.979
222.0, 26157.30776277873, 12720.89185963772, -37016.54517847839, -63323.56492561876, -187500.02235174447, 7593.111108912362, -116638.39866380676, -187500.02235174447, -40003.52054876334, 6181.665501793087, -5510.621429755858, -69959.03789508795, -992.3951020711783, -22282.588157962342, -5659.819323995033, 8185.633502678097, -0.028, 0.978, 0.266, 192.0, 127.5, 16.0, 15.0, 72.0, 4.0, 40.0, 0.0, 0.0, 0.0, 1.695418109979027E9, 0.0, 2023-09-22 16:28:29.979
224.0, 26152.211565042922, 12713.918115367665, -37008.11857081873, -63324.95073377499, -187500.02235174447, 7622.45894938218, -116561.32984892487, -187500.02235174447, -39996.94913589348, 6197.445833378534, -5556.129581466864, -69946.92324959318, -980.3698635542231, -22300.961291904605, -5640.015678407631, 8141.399400401045, -0.028, 0.978, 0.266, 192.0, 0.0, 0.0, 0.0, 0.0, 0.0, 0.0, 0.0, 0.0, 0.0, 1.69541810997903E9, 0.0, 2023-09-22 16:28:29.979
226.0, 26156.212527300424, 12718.410816003183, -37024.61415822675, -63317.75347206038, -187500.02235174447, 7599.146079915296, -116627.80393693494, -187500.02235174447, -40005.33104006422, 6188.303969896313, -5506.575764009448, -69955.03693283045, -991.9704189265275, -22276.35202125931, -5645.961242432742, 8190.215610291435, -0.028, 0.978, 0.266, 192.0, 0.0, 0.0, 0.0, 0.0, 0.0, 0.0, 0.0, 0.0, 0.0, 1.695418110037843E9, 0.0, 2023-09-22 16:28:30.037
228.0, 26150.646942931053, 12711.302961266394, -37016.27695754492, -63322.29087618481, -187500.02235174447, 7626.884594784331, -116571.27637520748, -187500.02235174447, -40006.605089498174, 6187.588714073743, -5552.3297849094615, -69953.85229037431, -991.1657561261364, -22302.257693083015, -5642.094390641974, 8147.032040003782, -0.028, 0.978, 0.266, 192.0, 0.0, 0.0, 0.0, 0.0, 0.0, 0.0, 0.0, 0.0, 0.0, 1.695418110037858E9, 0.0, 2023-09-22 16:28:30.037
230.0, 26163.70036169295, 12726.770368429467, -37015.09231508879, -63303.046024208794, -187500.02235174447, 7609.785510276021, -116631.6260852368, -187500.02235174447, -40005.085170875216, 6192.260228664903, -5507.358075065384, -69949.49370020554, -993.0433026603822, -22273.088666568838, -5646.229463366207, 8193.121337070625, -0.028, 0.978, 0.266, 192.0, 0.0, 0.0, 0.0, 0.0, 0.0, 0.0, 0.0, 0.0, 0.0, 1.695418110037862E9, 0.0, 2023-09-22 16:28:30.037
232.0, 26154.357332510634, 12714.432205490139, -37018.04274535689, -63320.525088372844, -187500.02235174447, 7632.561937875979, -116590.25300625003, -187500.02235174447, -40000.54776675079, 6201.938534014051, -5555.593139599936, -69941.84940360182, -986.0695583903264, -22291.953538889116, -5636.707620228246, 8136.146740454047, -0.034, 0.982, 0.264, 192.0, 127.0, 120.0, 15.0, 88.0, 4.0, 32.0, 0.0, 0.0, 0.0, 1.695418110037866E9, 0.0, 2023-09-22 16:28:30.037
234.0, 26177.938422910982, 12740.404932547204, -37011.918367376136, -63297.92747472852, -187500.02235174447, 7620.55905110348, -116631.71549221463, -187500.02235174447, -39999.31842080574, 6192.304932153814, -5499.512612761571, -69948.77844438296, -991.2551631039577, -22262.851567608308, -5644.754248232156, 8197.457575494955, -0.034, 0.982, 0.264, 192.0, 0.0, 0.0, 0.0, 0.0, 0.0, 0.0, 0.0, 0.0, 0.0, 1.69541811003787E9, 0.0, 2023-09-22 16:28:30.037
236.0, 26166.069646605214, 12735.688714467135, -37001.56950969333, -63303.98479747592, -187500.02235174447, 7612.154795188284, -116620.83019266489, -187500.02235174447, -39991.00357186837, 6215.282525453869, -5564.735003082157, -69928.12543250626, -979.207572842547, -22297.429716280665, -5636.595861505969, 8125.552013582232, -0.034, 0.982, 0.264, 192.0, 0.0, 0.0, 0.0, 0.0, 0.0, 0.0, 0.0, 0.0, 0.0, 1.695418110037873E9, 0.0, 2023-09-22 16:28:30.037
238.0, 26173.51277750883, 12738.61679299078, -37002.64239342718, -63305.7952887768, -187500.02235174447, 7610.478414354136, -116621.38898627627, -187500.02235174447, -39995.76449343735, 6209.493423639944, -5512.700141990202, -69935.03212154294, -977.4864885194885, -22267.187806032634, -5630.650297480857, 8182.057223565248, -0.034, 0.982, 0.264, 192.0, 0.0, 0.0, 0.0, 0.0, 0.0, 0.0, 0.0, 0.0, 0.0, 1.695418110037877E9, 0.0, 2023-09-22 16:28:30.037
240.0, 26165.644963460563, 12726.502147496003, -36998.23909976949, -63320.21216395047, -187500.02235174447, 7585.444460564192, -116642.84666095336, -187500.02235174447, -39991.42825501302, 6201.782071802863, -5563.371546670383, -69940.79887161242, -973.4631745175332, -22307.84562919684, -5639.7921609630785, 8117.684199533964, -0.034, 0.982, 0.264, 192.0, 0.0, 0.0, 0.0, 0.0, 0.0, 0.0, 0.0, 0.0, 0.0, 1.695418110037881E9, 0.0, 2023-09-22 16:28:30.037
242.0, 26145.93072485098, 12706.18441178613, -37018.66859420164, -63333.71261760147, -187500.02235174447, 7618.07800746894, -116589.64950914973, -187500.02235174447, -40006.15805460907, 6187.476955351467, -5506.575764009448, -69954.90282236371, -980.4145670431337, -22274.765047402983, -5622.469559010215, 8179.263255508335, -0.038, 0.978, 0.264, 192.0, 127.0, 104.0, 15.0, 72.0, 4.0, 32.0, 0.0, 0.0, 0.0, 1.695418110096725E9, 0.0, 2023-09-22 16:28:30.096
244.0, 26164.549727982252, 12725.093987595319, -36995.51218694594, -63318.80400404978, -187500.02235174447, 7595.815669991454, -116608.15675355874, -187500.02235174447, -40002.71588596295, 6189.600371074721, -5539.455180103205, -69948.73374089405, -986.8518694462621, -22306.951559418627, -5638.3840010623935, 8137.7113625659185, -0.038, 0.978, 0.264, 192.0, 0.0, 0.0, 0.0, 0.0, 0.0, 0.0, 0.0, 0.0, 0.0, 1.695418110096744E9, 0.0, 2023-09-22 16:28:30.096
246.0, 26166.404922772042, 12729.43022601965, -37017.39454476769, -63322.78261456283, -187500.02235174447, 7638.7757228345545, -116513.81004021288, -187500.02235174447, -40011.075438389234, 6190.650903064121, -5482.748804420091, -69952.01944732899, -988.662360747142, -22268.12657929976, -5628.6386404798795, 8201.547944730275, -0.038, 0.978, 0.264, 192.0, 0.0, 0.0, 0.0, 0.0, 0.0, 0.0, 0.0, 0.0, 0.0, 1.695418110096751E9, 0.0, 2023-09-22 16:28:30.096
248.0, 26176.954946154947, 12742.036609892442, -36997.05445731336, -63301.90608524157, -187500.02235174447, 7610.254896909582, -116557.03831398944, -187500.02235174447, -39997.731446949416, 6208.778167817374, -5515.270592602563, -69931.83582208584, -990.8304799593068, -22293.07112611188, -5646.967070933231, 8159.414906432022, -0.038, 0.978, 0.264, 192.0, 0.0, 0.0, 0.0, 0.0, 0.0, 0.0, 0.0, 0.0, 0.0, 1.695418110096755E9, 0.0, 2023-09-22 16:28:30.096
250.0, 26192.020021917826, 12754.263014109494, -36992.807625866844, -63281.454239064966, -187500.02235174447, 7635.758237333088, -116495.36985103725, -187500.02235174447, -39990.22126081244, 6227.844205837751, -5479.172525307242, -69921.1069847473, -971.4068140276449, -22257.397741961213, -5615.786387418078, 8201.413834263543, -0.038, 0.978, 0.264, 192.0, 0.0, 0.0, 0.0, 0.0, 0.0, 0.0, 0.0, 0.0, 0.0, 1.695418110096758E9, 0.0, 2023-09-22 16:28:30.096
