%OpenBCI Raw EXG Data
%Number of channels = 16
%Sample Rate = 125 Hz
%Board = OpenBCI_GUI$BoardCytonSerialDaisy
Sample Index, EXG Channel 0, EXG Channel 1, EXG Channel 2, EXG Channel 3, EXG Channel 4, EXG Channel 5, EXG Channel 6, EXG Channel 7, EXG Channel 8, EXG Channel 9, EXG Channel 10, EXG Channel 11, EXG Channel 12, EXG Channel 13, EXG Channel 14, EXG Channel 15, Accel Channel 0, Accel Channel 1, Accel Channel 2, Other, Other, Other, Other, Other, Other, Other, Analog Channel 0, Analog Channel 1, Analog Channel 2, Timestamp, Other, Timestamp (Formatted)
230.0, -187500.02235174447, 3671.654006439925, -16709.940637343007, -37120.68195589566, -15972.288366828963, -39288.1753192157, -187500.02235174447, -47376.3328643242, 12605.869782670712, -12055.905110347881, -54494.603514028015, -52058.66569979974, -42693.73180791519, -39038.372223183185, -31432.185343764468, -42127.0927342287, 0.0, 0.0, 0.0, 192.0, 0.0, 0.0, 0.0, 0.0, 0.0, 0.0, 0.0, 0.0, 0.0, 1.695675248275649E9, 0.0, 2023-09-25 15:54:08.275
232.0, -187500.02235174447, 3651.2692154966853, -16721.652951437587, -37134.49533396904, -15985.833523968879, -39298.63593562078, -187500.02235174447, -47392.89550696558, 12676.07661200483, -12066.633947686429, -54501.21963038679, -52064.54420859149, -42692.70362767025, -39049.704557622026, -31438.93557058997, -42096.78376874731, -0.003, 0.497, 0.11, 192.0, 127.5, 104.0, 15.5, 8.0, 3.0, 112.0, 0.0, 0.0, 0.0, 1.695675248275656E9, 0.0, 2023-09-25 15:54:08.275
234.0, -187500.02235174447, 3661.9757010907774, -16718.054320580282, -37130.047336822434, -15977.652785498238, -39301.2734414665, -187500.02235174447, -47397.05293143427, 12632.334248105795, -12071.05959308858, -54507.45576708982, -52070.40036563878, -42705.06414235403, -39054.0184443019, -31446.624570682598, -42111.91589974355, -0.003, 0.497, 0.11, 192.0, 0.0, 0.0, 0.0, 0.0, 0.0, 0.0, 0.0, 0.0, 0.0, 1.69567524827566E9, 0.0, 2023-09-25 15:54:08.275
236.0, -187500.02235174447, 3666.7813261486685, -16729.699579441498, -37139.211552049106, -15990.885018215778, -39299.39589493226, -187500.02235174447, -47399.64573379108, 12675.316652693351, -12073.920616378859, -54508.05926419012, -52068.23224642662, -42692.88244162589, -39054.376072213185, -31445.75285264884, -42101.70115252747, -0.003, 0.497, 0.11, 192.0, 0.0, 0.0, 0.0, 0.0, 0.0, 0.0, 0.0, 0.0, 0.0, 1.695675248275663E9, 0.0, 2023-09-25 15:54:08.275
238.0, -187500.02235174447, 3669.1729628053863, -16718.27783802484, -37126.135781542755, -15976.512846531017, -39287.169490715205, -187500.02235174447, -47378.411576558545, 12639.665620287136, -12074.278244290143, -54509.37801711298, -52073.104926717875, -42704.21477606473, -39045.74829885344, -31447.45158522744, -42110.2395189094, -0.003, 0.497, 0.11, 192.0, 0.0, 0.0, 0.0, 0.0, 0.0, 0.0, 0.0, 0.0, 0.0, 1.695675248275666E9, 0.0, 2023-09-25 15:54:08.275
240.0, -187500.02235174447, 3675.9678931197996, -16716.512050212867, -37119.96670007309, -15978.412744809717, -39283.749673813545, -187500.02235174447, -47382.56900102723, 12675.18254222662, -12074.635872201428, -54507.053435689624, -52066.19823768118, -42694.290601526576, -39046.37414769818, -31448.122137561102, -42097.36491410314, -0.003, 0.497, 0.11, 192.0, 0.0, 0.0, 0.0, 0.0, 0.0, 0.0, 0.0, 0.0, 0.0, 1.695675248275669E9, 0.0, 2023-09-25 15:54:08.275
242.0, -187500.02235174447, 3653.2361690087523, -16715.21564903446, -37125.19700827563, -15979.373869821296, -39288.220022704605, -187500.02235174447, -47391.934381954, 12634.323553362317, -12056.061572559069, -54497.196316384834, -52057.41400211025, -42694.134139315385, -39034.527723136875, -31437.639169411563, -42114.2404811669, -0.0055, 0.7475, 0.164, 192.0, 127.5, 96.0, 15.5, 24.0, 3.0, 104.0, 0.0, 0.0, 0.0, 1.695675248275672E9, 0.0, 2023-09-25 15:54:08.275
244.0, -187500.02235174447, 3660.0981545565314, -16719.26131478087, -37127.40983097671, -15984.134791390275, -39288.04120874897, -187500.02235174447, -47392.06849242074, 12666.375954911227, -12072.95949136728, -54508.238078145754, -52067.27112141504, -42697.710418428236, -39049.704557622026, -31444.03176832578, -42089.00536167686, -0.0055, 0.7475, 0.164, 192.0, 0.0, 0.0, 0.0, 0.0, 0.0, 0.0, 0.0, 0.0, 0.0, 1.695675248275676E9, 0.0, 2023-09-25 15:54:08.275
246.0, -187500.02235174447, 3672.1233930734866, -16714.96977984545, -37126.694575154135, -15985.654710013237, -39299.418246676716, -187500.02235174447, -47395.35419885567, 12662.486751376004, -12074.814686157071, -54514.1165869375, -52076.74826106409, -42711.2332238237, -39051.82797334528, -31449.999684095346, -42087.64190526508, -0.0055, 0.7475, 0.164, 192.0, 0.0, 0.0, 0.0, 0.0, 0.0, 0.0, 0.0, 0.0, 0.0, 1.695675248275679E9, 0.0, 2023-09-25 15:54:08.275
0.0, -93750.01117587223, 1811.9441642694671, -8589.574228474406, -18609.88361953302, -8026.690247856409, -19638.868527277533, -93750.01117587223, -23701.320433774046, 6338.641803102709, -6027.796092962753, -27248.184650919993, -26027.19825830439, -21340.059797770955, -19518.99612176372, -15718.73017772796, -21045.620268061193, -0.006, 1.006, 0.2, 192.0, 127.5, 104.0, 15.5, 56.0, 3.0, 32.0, 0.0, 0.0, 0.0, 1.695675248443899E9, 0.0, 2023-09-25 15:54:08.443
2.0, -187500.02235174447, 3633.3878199324395, -17169.984241722137, -37213.240529685085, -16049.670106133237, -39254.111260665806, -187500.02235174447, -47365.55932349674, 12366.25908210982, -12047.165578265856, -54528.91344176691, -52051.49078982959, -42648.067193992996, -38929.18395151901, -31424.27282622729, -41986.83553777165, -0.006, 1.006, 0.2, 192.0, 0.0, 0.0, 0.0, 0.0, 0.0, 0.0, 0.0, 0.0, 0.0, 1.695675248443908E9, 0.0, 2023-09-25 15:54:08.443
4.0, -187500.02235174447, 3653.146762030931, -17160.171825906258, -37205.37271563682, -16044.238632230597, -39259.31921712389, -187500.02235174447, -47374.90235267906, 12435.884766088102, -12035.676781615828, -54518.54223233965, -52035.21871986613, -42638.075964221476, -38916.48816066839, -31417.142619746046, -41956.39246182352, -0.006, 1.006, 0.2, 192.0, 0.0, 0.0, 0.0, 0.0, 0.0, 0.0, 0.0, 0.0, 0.0, 1.695675248443912E9, 0.0, 2023-09-25 15:54:08.443
6.0, -187500.02235174447, 3631.7561425872022, -17180.78013429405, -37228.2385502146, -16069.406696487273, -39248.500972807524, -187500.02235174447, -47388.112233652144, 12353.809160448214, -12024.746778577182, -54511.389674113954, -52018.45491152465, -42627.794161772035, -38908.55329138676, -31411.912311543503, -41995.99975299832, -0.006, 1.006, 0.2, 192.0, 0.0, 0.0, 0.0, 0.0, 0.0, 0.0, 0.0, 0.0, 0.0, 1.695675248443915E9, 0.0, 2023-09-25 15:54:08.443
8.0, -187500.02235174447, 3634.6618693663922, -17177.4050208813, -37224.12582923482, -16061.717696394648, -39258.380443856775, -187500.02235174447, -47394.46012907745, 12451.106304062165, -12049.780732367128, -54535.440151147865, -52035.419885566225, -42647.642510848345, -38925.674727639525, -31439.89669560155, -41948.72581347535, -0.004, 1.008, 0.202, 192.0, 127.5, 112.0, 15.5, 64.0, 3.0, 40.0, 0.0, 0.0, 0.0, 1.695675248443919E9, 0.0, 2023-09-25 15:54:08.443
10.0, -187500.02235174447, 3645.502465427216, -17160.797674751007, -37214.9839657526, -16044.328039208418, -39245.90817045071, -187500.02235174447, -47386.74877724037, 12359.799427962236, -12024.94794427728, -54517.201127672335, -52011.503518999045, -42627.05655420501, -38898.338544170685, -31413.275767955278, -41994.88216577556, -0.004, 1.008, 0.202, 192.0, 0.0, 0.0, 0.0, 0.0, 0.0, 0.0, 0.0, 0.0, 0.0, 1.695675248443922E9, 0.0, 2023-09-25 15:54:08.443
12.0, -187500.02235174447, 3627.7998838186127, -17179.953119749203, -37237.60393114137, -16060.197777771686, -39266.04709220494, -187500.02235174447, -47414.01790547585, 12440.578632423716, -12031.787578080604, -54526.074770221094, -52017.69495221317, -42620.86512099089, -38913.5377304003, -31427.536180917763, -41956.370110079064, -0.004, 1.008, 0.202, 192.0, 0.0, 0.0, 0.0, 0.0, 0.0, 0.0, 0.0, 0.0, 0.0, 1.695675248443925E9, 0.0, 2023-09-25 15:54:08.443
14.0, -187500.02235174447, 3634.14777924392, -17160.372991606357, -37226.115134491345, -16049.692457877693, -39254.0665571769, -187500.02235174447, -47400.11512042465, 12370.528265300783, -12037.57667989453, -54529.4722353783, -52027.26149884004, -42628.352955383416, -38914.99059378989, -31428.810230351715, -41991.73056980736, -0.004, 1.008, 0.202, 192.0, 0.0, 0.0, 0.0, 0.0, 0.0, 0.0, 0.0, 0.0, 0.0, 1.695675248443928E9, 0.0, 2023-09-25 15:54:08.443
16.0, -187500.02235174447, 3625.318840184074, -17165.78211376454, -37231.79247758299, -16064.444609218195, -39259.38627235726, -187500.02235174447, -47422.75743755787, 12443.014972569345, -12036.995534538692, -54525.4712731208, -52021.986487148584, -42617.24413838913, -38913.3365647002, -31432.23004725338, -41965.042586927724, -0.004, 1.008, 0.202, 192.0, 0.0, 0.0, 0.0, 0.0, 0.0, 0.0, 0.0, 0.0, 0.0, 1.695675248502831E9, 0.0, 2023-09-25 15:54:08.502
18.0, -187500.02235174447, 3632.113770498487, -17152.683991513728, -37221.24245420009, -16045.110350264355, -39253.84303973235, -187500.02235174447, -47384.24538186138, 12386.286245141775, -12038.314287461555, -54526.18652894337, -52025.92039417272, -42619.613423301395, -38913.3365647002, -31422.97642504888, -41989.62950582856, -0.002, 1.014, 0.20600000000000002, 192.0, 127.5, 120.0, 15.5, 88.0, 3.0, 56.0, 0.0, 0.0, 0.0, 1.695675248502841E9, 0.0, 2023-09-25 15:54:08.502
20.0, -187500.02235174447, 3629.7221338417694, -17162.16113116278, -37227.858570558856, -16060.287184749508, -39266.15885092722, -187500.02235174447, -47402.95379197047, 12461.477513489428, -12036.95083104978, -54523.772540542195, -52022.79114994898, -42607.11879815088, -38918.477465924916, -31419.73542210286, -41962.65095027101, -0.002, 1.014, 0.20600000000000002, 192.0, 0.0, 0.0, 0.0, 0.0, 0.0, 0.0, 0.0, 0.0, 0.0, 1.695675248502845E9, 0.0, 2023-09-25 15:54:08.502
22.0, -187500.02235174447, 3628.828064063557, -17155.097979914903, -37221.68948908919, -16044.976239797621, -39257.55342931193, -187500.02235174447, -47376.89165793558, 12402.334797660686, -12036.14616824939, -54525.73949405426, -52025.33924881688, -42616.48417907765, -38910.564948387735, -31423.40110819353, -41993.74222680834, -0.002, 1.014, 0.20600000000000002, 192.0, 0.0, 0.0, 0.0, 0.0, 0.0, 0.0, 0.0, 0.0, 0.0, 1.695675248502848E9, 0.0, 2023-09-25 15:54:08.502
24.0, -187500.02235174447, 3630.7503140867134, -17158.87542472785, -37220.32603267742, -16041.779940340513, -39251.00436818652, -187500.02235174447, -47373.293027078274, 12466.305490291774, -12035.833243827015, -54522.47613936379, -52019.66190572523, -42602.804911471, -38903.926480284514, -31411.353517932122, -41963.2544473713, -0.002, 1.014, 0.20600000000000002, 192.0, 0.0, 0.0, 0.0, 0.0, 0.0, 0.0, 0.0, 0.0, 0.0, 1.695675248502851E9, 0.0, 2023-09-25 15:54:08.502
26.0, -187500.02235174447, 3618.792130803124, -17161.848206740404, -37225.77985832452, -16042.964582796645, -39255.74293801105, -187500.02235174447, -47390.68268426451, 12419.478585657906, -12044.14809276439, -54531.01450574571, -52028.915527929734, -42615.61246104389, -38910.296727454275, -31415.041555767246, -41981.58287782465, -0.002, 1.014, 0.20600000000000002, 192.0, 0.0, 0.0, 0.0, 0.0, 0.0, 0.0, 0.0, 0.0, 0.0, 1.695675248502854E9, 0.0, 2023-09-25 15:54:08.502
28.0, -187500.02235174447, 3609.024418476155, -17174.63340456884, -37236.84397182989, -16059.348411482384, -39265.510650338016, -187500.02235174447, -47393.56605929924, 12481.057641632276, -12059.257872016176, -54542.011564017725, -52043.22064438113, -42618.138208167344, -38927.060535795754, -31436.856858355626, -41952.36914782157, -0.002, 0.994, 0.20400000000000001, 192.0, 127.5, 120.0, 15.5, 8.0, 3.0, 48.0, 0.0, 0.0, 0.0, 1.695675248502858E9, 0.0, 2023-09-25 15:54:08.502
30.0, -187500.02235174447, 3611.3266481550513, -17161.15530266229, -37230.54077989349, -16044.439797930694, -39264.08013869287, -187500.02235174447, -47381.071434148726, 12457.498902976384, -12046.517377676651, -54535.46250289232, -52043.19829263667, -42622.07211519148, -38918.00807929136, -31424.40693669402, -41972.08338643115, -0.002, 0.994, 0.20400000000000001, 192.0, 0.0, 0.0, 0.0, 0.0, 0.0, 0.0, 0.0, 0.0, 0.0, 1.695675248562119E9, 0.0, 2023-09-25 15:54:08.562
32.0, -187500.02235174447, 3622.793093060624, -17142.133968130824, -37217.21914019813, -16036.192004226687, -39259.207458401615, -187500.02235174447, -47386.74877724037, 12484.61156900067, -12043.544595664096, -54529.69575282285, -52040.7843042355, -42609.97982144116, -38920.444419436986, -31425.1668960055, -41960.371072336566, -0.002, 0.994, 0.20400000000000001, 192.0, 0.0, 0.0, 0.0, 0.0, 0.0, 0.0, 0.0, 0.0, 0.0, 1.695675248562131E9, 0.0, 2023-09-25 15:54:08.562
34.0, -187500.02235174447, 3608.1974039313086, -17154.38272409233, -37229.89257930429, -16053.17933001272, -39276.15008069874, -187500.02235174447, -47399.77984425781, 12469.032403115321, -12031.117025746946, -54521.29149690765, -52035.21871986613, -42608.43755107374, -38914.141227500586, -31421.434154681465, -41972.597476553616, -0.002, 0.994, 0.20400000000000001, 192.0, 0.0, 0.0, 0.0, 0.0, 0.0, 0.0, 0.0, 0.0, 0.0, 1.695675248562134E9, 0.0, 2023-09-25 15:54:08.562
36.0, -187500.02235174447, 3607.2586306641856, -17154.896814214804, -37228.14914323678, -16061.270661505541, -39260.883839235765, -187500.02235174447, -47393.25313487687, 12474.262711317864, -12055.212206269767, -54537.58591861557, -52053.368336363834, -42618.808760501, -38936.582378933716, -31442.869477614106, -41971.68105503095, -0.002, 0.994, 0.20400000000000001, 192.0, 0.0, 0.0, 0.0, 0.0, 0.0, 0.0, 0.0, 0.0, 0.0, 1.695675248562138E9, 0.0, 2023-09-25 15:54:08.562
38.0, -187500.02235174447, 3620.0438284926213, -17132.589773248408, -37203.85279701386, -16037.801329827469, -39253.37365309878, -187500.02235174447, -47381.02673065981, 12496.368586584162, -12035.341505448998, -54524.77836904268, -52037.27508035601, -42617.86998723388, -38913.425971678014, -31418.70724185792, -41960.61694152557, -0.01, 1.0, 0.196, 192.0, 127.5, 88.0, 15.5, 32.0, 3.0, 16.0, 0.0, 0.0, 0.0, 1.695675248562141E9, 0.0, 2023-09-25 15:54:08.562
40.0, -187500.02235174447, 3609.9631917432775, -17143.743293731608, -37215.36394540834, -16053.000516057076, -39256.547600811435, -187500.02235174447, -47402.08207393671, 12465.500827491383, -12034.425083926331, -54520.10685445152, -52031.374219819816, -42609.86806271888, -38914.99059378989, -31418.975462791383, -41981.8063952692, -0.01, 1.0, 0.196, 192.0, 0.0, 0.0, 0.0, 0.0, 0.0, 0.0, 0.0, 0.0, 0.0, 1.695675248562144E9, 0.0, 2023-09-25 15:54:08.562
42.0, -187500.02235174447, 3609.3596946429843, -17138.356523317878, -37211.161817450746, -16052.754646868068, -39253.19483914314, -187500.02235174447, -47388.827489474716, 12501.084804664231, -12043.76811310865, -54533.24968019124, -52044.561749048444, -42622.966184969686, -38922.85840783816, -31429.145506518547, -41965.93665670594, -0.01, 1.0, 0.196, 192.0, 0.0, 0.0, 0.0, 0.0, 0.0, 0.0, 0.0, 0.0, 0.0, 1.695675248562147E9, 0.0, 2023-09-25 15:54:08.562
44.0, -187500.02235174447, 3598.4743950932498, -17146.090226899414, -37227.34448043638, -16078.61561520286, -39268.88576375077, -187500.02235174447, -47431.02758300633, 12486.891446935111, -12050.607746911974, -54536.2224622038, -52050.73083051811, -42614.89720522132, -38936.33650974471, -31441.148393291045, -41970.67522653046, -0.01, 1.0, 0.196, 192.0, 0.0, 0.0, 0.0, 0.0, 0.0, 0.0, 0.0, 0.0, 0.0, 1.69567524856215E9, 0.0, 2023-09-25 15:54:08.562
46.0, -187500.02235174447, 3613.8076917895905, -17129.035845880015, -37210.55832035045, -16054.900414335778, -39269.265743406504, -187500.02235174447, -47405.56894607174, 12536.154691714608, -12043.05285728608, -54532.713238324315, -52050.41790609573, -42623.48027509216, -38932.15673353156, -31441.46131771342, -41968.127127662556, -0.01, 1.0, 0.196, 192.0, 0.0, 0.0, 0.0, 0.0, 0.0, 0.0, 0.0, 0.0, 0.0, 1.695675248621993E9, 0.0, 2023-09-25 15:54:08.621
48.0, -187500.02235174447, 3610.9466684993113, -17135.16022386077, -37218.26967218753, -16060.84597836089, -39257.70989152311, -187500.02235174447, -47423.226824191435, 12486.667929490559, -12039.655392128872, -54528.376999899985, -52048.003917694565, -42625.3131181375, -38928.960434074455, -31442.154221791534, -41990.12124420658, -0.02, 1.0, 0.182, 192.0, 127.5, 48.0, 15.5, 32.0, 2.5, 88.0, 0.0, 0.0, 0.0, 1.695675248622001E9, 0.0, 2023-09-25 15:54:08.622
50.0, -187500.02235174447, 3617.205156946797, -17118.10584284137, -37206.1326749483, -16041.26585021804, -39256.94993221163, -187500.02235174447, -47404.205489659966, 12543.575470873771, -12033.66512461485, -54519.65981956242, -52041.54426354698, -42612.95260345371, -38920.623233392624, -31430.2183902524, -41974.81029925469, -0.02, 1.0, 0.182, 192.0, 0.0, 0.0, 0.0, 0.0, 0.0, 0.0, 0.0, 0.0, 0.0, 1.695675248622005E9, 0.0, 2023-09-25 15:54:08.622
52.0, -187500.02235174447, 3601.536584083627, -17133.550898259986, -37230.18315198221, -16058.9907835711, -39257.41931884519, -187500.02235174447, -47428.47948413843, 12469.546493237793, -12047.3443922215, -54516.86585150551, -52043.935900203694, -42611.94677495322, -38927.86519859615, -31422.79761109324, -42003.75580832432, -0.02, 1.0, 0.182, 192.0, 0.0, 0.0, 0.0, 0.0, 0.0, 0.0, 0.0, 0.0, 0.0, 1.695675248622009E9, 0.0, 2023-09-25 15:54:08.622
54.0, -187500.02235174447, 3616.467549379772, -17124.967828389148, -37214.60398609686, -16057.448513203683, -39256.65935953371, -187500.02235174447, -47383.95480918346, 12555.108971012709, -12053.558177180073, -54535.35074417004, -52054.62003405333, -42625.558987326505, -38935.37538473313, -31430.263093741312, -41970.38465385255, -0.02, 1.0, 0.182, 192.0, 0.0, 0.0, 0.0, 0.0, 0.0, 0.0, 0.0, 0.0, 0.0, 1.695675248622012E9, 0.0, 2023-09-25 15:54:08.622
56.0, -187500.02235174447, 3602.5200608396603, -17126.465395267653, -37218.85081754337, -16059.70603939367, -39245.796411728435, -187500.02235174447, -47388.71573075244, 12483.225760844442, -12051.09948528999, -54526.05241847663, -52049.121504917326, -42633.180932185765, -38929.96626257495, -31420.160105247513, -42001.207709456416, -0.02, 1.0, 0.182, 192.0, 0.0, 0.0, 0.0, 0.0, 0.0, 0.0, 0.0, 0.0, 0.0, 1.695675248622015E9, 0.0, 2023-09-25 15:54:08.622
58.0, -187500.02235174447, 3611.5501655996045, -17113.14375557229, -37204.90332900325, -16050.698286378181, -39246.355205339816, -187500.02235174447, -47385.13945163959, 12574.15265728863, -12054.80987486957, -54524.44309287585, -52047.62393803882, -42628.04003096104, -38928.31223348525, -31418.349613946633, -41964.5061450608, -0.028, 1.002, 0.176, 192.0, 127.5, 16.0, 15.5, 40.0, 2.5, 64.0, 0.0, 0.0, 0.0, 1.695675248622018E9, 0.0, 2023-09-25 15:54:08.622
60.0, -187500.02235174447, 3609.337342898529, -17113.702549183672, -37213.50875061855, -16058.409638215262, -39258.17927815668, -187500.02235174447, -47408.83230076222, 12506.829202989245, -12058.162636537867, -54529.24871793375, -52053.86007474185, -42632.66684206329, -38933.18491377651, -31426.50800067282, -41989.11541570609, -0.028, 1.002, 0.176, 192.0, 0.0, 0.0, 0.0, 0.0, 0.0, 0.0, 0.0, 0.0, 0.0, 1.69567524868231E9, 0.0, 2023-09-25 15:54:08.682
62.0, -187500.02235174447, 3606.342209141518, -17103.465450223142, -37203.36105863584, -16062.74587663959, -39250.04324317494, -187500.02235174447, -47418.97999274493, 12581.72989865898, -12045.645659642894, -54515.48004334928, -52047.91451071674, -42630.364612384394, -38925.94294857299, -31424.004605293827, -41970.0046741968, -0.028, 1.002, 0.176, 192.0, 0.0, 0.0, 0.0, 0.0, 0.0, 0.0, 0.0, 0.0, 0.0, 1.695675248682322E9, 0.0, 2023-09-25 15:54:08.682
64.0, -187500.02235174447, 3608.0409417201213, -17079.19145574468, -37188.36303810633, -16048.664277632748, -39251.71962400909, -187500.02235174447, -47413.012076975356, 12520.776691529358, -12053.044087057602, -54522.163214941414, -52061.97375797913, -42641.02639448958, -38936.69413765599, -31435.13577403257, -41997.74318906584, -0.028, 1.002, 0.176, 192.0, 0.0, 0.0, 0.0, 0.0, 0.0, 0.0, 0.0, 0.0, 0.0, 1.695675248682326E9, 0.0, 2023-09-25 15:54:08.682
66.0, -187500.02235174447, 3598.8096712600795, -17077.80564758845, -37190.531157318495, -16054.74395212459, -39258.24633339004, -187500.02235174447, -47426.19960620399, 12594.11276508722, -12044.773941609137, -54513.24486890374, -52054.55297881997, -42626.98949897164, -38931.821457364735, -31420.428326180976, -41971.6587032865, -0.028, 1.002, 0.176, 192.0, 0.0, 0.0, 0.0, 0.0, 0.0, 0.0, 0.0, 0.0, 0.0, 1.69567524868233E9, 0.0, 2023-09-25 15:54:08.682
68.0, -187500.02235174447, 3597.2226974037526, -17071.81538007443, -37189.83825324038, -16054.56513816895, -39261.75555726952, -187500.02235174447, -47412.27446940833, 12526.074054965266, -12044.773941609137, -54518.05049396164, -52059.179789922215, -42635.751382798124, -38935.0401085663, -31424.719861116395, -42004.1134362356, -0.036000000000000004, 1.022, 0.176, 192.0, 127.0, 112.0, 15.5, 120.0, 2.5, 64.0, 0.0, 0.0, 0.0, 1.695675248682333E9, 0.0, 2023-09-25 15:54:08.682
70.0, -187500.02235174447, 3598.5861538155264, -17069.75901958454, -37196.2308521546, -16052.84405384589, -39250.80320248642, -187500.02235174447, -47399.82454774673, 12600.952398890544, -12051.501816690186, -54524.197223686846, -52060.364432378345, -42641.74165031215, -38940.69509991349, -31421.389451192554, -41965.28845611673, -0.036000000000000004, 1.022, 0.176, 192.0, 0.0, 0.0, 0.0, 0.0, 0.0, 0.0, 0.0, 0.0, 0.0, 1.695675248682337E9, 0.0, 2023-09-25 15:54:08.682
72.0, -187500.02235174447, 3591.545354312105, -17066.495664894064, -37204.83627376989, -16050.497120678083, -39254.53594381046, -187500.02235174447, -47407.02180946134, 12552.002078533422, -12037.777845594626, -54514.340104382056, -52055.625862553825, -42647.88838003736, -38930.05566955276, -31416.82969532367, -41990.97061049588, -0.036000000000000004, 1.022, 0.176, 192.0, 0.0, 0.0, 0.0, 0.0, 0.0, 0.0, 0.0, 0.0, 0.0, 1.69567524868234E9, 0.0, 2023-09-25 15:54:08.682
74.0, -187500.02235174447, 3591.411243845373, -17072.37417368581, -37210.9830034951, -16059.03548706001, -39257.329911867375, -187500.02235174447, -47418.443550878, 12610.92127691761, -12058.900244104892, -54533.272031935696, -52070.82504878343, -42649.7659265716, -38948.406451750576, -31430.12898327458, -41967.32246486217, -0.036000000000000004, 1.022, 0.176, 192.0, 0.0, 0.0, 0.0, 0.0, 0.0, 0.0, 0.0, 0.0, 0.0, 1.695675248682343E9, 0.0, 2023-09-25 15:54:08.682
76.0, -187500.02235174447, 3582.023511174144, -17071.927138796706, -37212.65938432925, -16063.37172548434, -39250.7137955086, -187500.02235174447, -47425.70786782597, 12573.057421810321, -12053.178197524334, -54523.86194752002, -52066.309996403455, -42649.98944401615, -38938.8399051237, -31424.876323327582, -41990.68003781796, -0.036000000000000004, 1.022, 0.176, 192.0, 0.0, 0.0, 0.0, 0.0, 0.0, 0.0, 0.0, 0.0, 0.0, 1.695675248742619E9, 0.0, 2023-09-25 15:54:08.742
78.0, -187500.02235174447, 3575.0944703929986, -17083.505342424553, -37223.20940771215, -16076.983937857622, -39262.20259215863, -187500.02235174447, -47452.1499815166, 12633.295373117373, -12056.419200470353, -54535.015468003214, -52071.0932697169, -42656.09147025245, -38941.52211445834, -31438.89086710106, -41968.28358987375, -0.036000000000000004, 1.016, 0.176, 192.0, 127.0, 112.0, 15.5, 96.0, 2.5, 64.0, 0.0, 0.0, 0.0, 1.695675248742629E9, 0.0, 2023-09-25 15:54:08.742
80.0, -187500.02235174447, 3587.6561507768815, -17069.267281206525, -37211.5865005954, -16053.648716646281, -39260.50385958003, -187500.02235174447, -47408.96641122895, 12619.079663643797, -12052.932328335326, -54537.608270360026, -52074.982473252116, -42664.94276105676, -38938.97401559044, -31431.201867008433, -41997.58672685465, -0.036000000000000004, 1.016, 0.176, 192.0, 0.0, 0.0, 0.0, 0.0, 0.0, 0.0, 0.0, 0.0, 0.0, 1.695675248742633E9, 0.0, 2023-09-25 15:54:08.742
82.0, -187500.02235174447, 3584.348092597496, -17077.783295843994, -37218.51554137654, -16055.325097480429, -39245.52819079497, -187500.02235174447, -47408.541728084296, 12625.002875924454, -12050.42893295633, -54528.868738278004, -52063.04664171299, -42653.07398475099, -38935.44243996649, -31416.82969532367, -42004.29225019125, -0.036000000000000004, 1.016, 0.176, 192.0, 0.0, 0.0, 0.0, 0.0, 0.0, 0.0, 0.0, 0.0, 0.0, 1.695675248742636E9, 0.0, 2023-09-25 15:54:08.742
84.0, -187500.02235174447, 3581.5317727961274, -17079.61613888933, -37221.153047222266, -16051.547652667483, -39243.18125762716, -187500.02235174447, -47409.033466462315, 12636.804596996857, -12055.502778947686, -54534.322563925096, -52062.15257193477, -42659.0195487761, -38930.99444281989, -31412.381698177065, -41991.08236921816, -0.036000000000000004, 1.016, 0.176, 192.0, 0.0, 0.0, 0.0, 0.0, 0.0, 0.0, 0.0, 0.0, 0.0, 1.69567524874264E9, 0.0, 2023-09-25 15:54:08.742
86.0, -187500.02235174447, 3578.894266950401, -17087.14867677077, -37229.33378569291, -16062.634117917314, -39245.997577428534, -187500.02235174447, -47423.51739686935, 12640.157358665152, -12053.133494035423, -54536.155406970436, -52058.26336839955, -42656.40439467483, -38937.56585568975, -31417.299081957233, -41983.32631389217, -0.036000000000000004, 1.016, 0.176, 192.0, 0.0, 0.0, 0.0, 0.0, 0.0, 0.0, 0.0, 0.0, 0.0, 1.695675248742643E9, 0.0, 2023-09-25 15:54:08.742
88.0, -187500.02235174447, 3571.048804646588, -17100.3362059994, -37237.31335846345, -16077.47567623564, -39257.91105722321, -187500.02235174447, -47438.78363833233, 12667.739411323002, -12064.130552307433, -54543.12915124049, -52066.4888103591, -42670.32953147048, -38946.66301568306, -31428.184381506966, -41981.73934003584, -0.052000000000000005, 1.002, 0.168, 192.0, 127.0, 48.0, 15.5, 40.0, 2.5, 32.0, 0.0, 0.0, 0.0, 1.695675248742646E9, 0.0, 2023-09-25 15:54:08.742
90.0, -187500.02235174447, 3574.669787248348, -17095.776450130517, -37230.38431768231, -16077.498027980093, -39262.24729564754, -187500.02235174447, -47438.51541739886, 12656.898815262177, -12077.876875147447, -54551.93573855588, -52073.90958951826, -42675.895115839856, -38959.2470478114, -31445.395224737553, -41989.875375017575, -0.052000000000000005, 1.002, 0.168, 192.0, 0.0, 0.0, 0.0, 0.0, 0.0, 0.0, 0.0, 0.0, 0.0, 1.695675248803644E9, 0.0, 2023-09-25 15:54:08.803
92.0, -187500.02235174447, 3582.7164152522587, -17106.70645316916, -37232.44067817219, -16085.477600750639, -39262.40375785873, -187500.02235174447, -47444.90801631308, 12665.191312455096, -12044.975107309236, -54544.20203497435, -52058.30807188846, -42675.78335711758, -38935.64360566659, -31442.26598051381, -42002.97349726838, -0.052000000000000005, 1.002, 0.168, 192.0, 0.0, 0.0, 0.0, 0.0, 0.0, 0.0, 0.0, 0.0, 0.0, 1.695675248803661E9, 0.0, 2023-09-25 15:54:08.803
94.0, -187500.02235174447, 3576.636740760415, -17096.737575142095, -37219.543721621485, -16070.636042432314, -39254.24537113254, -187500.02235174447, -47425.596109103695, 12630.859032971744, -12051.680630645827, -54545.096104752556, -52059.58212132241, -42678.51026994113, -38940.87391386914, -31443.785899136772, -42005.231023458364, -0.052000000000000005, 1.002, 0.168, 192.0, 0.0, 0.0, 0.0, 0.0, 0.0, 0.0, 0.0, 0.0, 0.0, 1.695675248803666E9, 0.0, 2023-09-25 15:54:08.803
96.0, -187500.02235174447, 3572.926351180834, -17081.04665053447, -37209.060753471946, -16058.387286470806, -39259.09569967934, -187500.02235174447, -47423.87502478064, 12673.573216625837, -12071.305462277587, -54536.66949709291, -52060.92322598973, -42673.88345883888, -38943.80199239278, -31425.949207061436, -41981.38171212455, -0.052000000000000005, 1.002, 0.168, 192.0, 0.0, 0.0, 0.0, 0.0, 0.0, 0.0, 0.0, 0.0, 0.0, 1.69567524880367E9, 0.0, 2023-09-25 15:54:08.803
98.0, -187500.02235174447, 3576.6143890159597, -17073.268243464023, -37207.518483104526, -16058.119065537343, -39246.221094873086, -187500.02235174447, -47417.549481099784, 12579.874703869189, -12063.415296484864, -54526.18652894337, -52053.97183346413, -42654.10216499593, -38934.28014925482, -31418.237855224357, -42023.492398678354, -0.036000000000000004, 1.01, 0.162, 192.0, 127.0, 112.0, 15.5, 72.0, 2.5, 8.0, 0.0, 0.0, 0.0, 1.695675248803675E9, 0.0, 2023-09-25 15:54:08.803
100.0, -187500.02235174447, 3567.673691233837, -17074.81051383144, -37207.00439298205, -16066.03158307452, -39268.237563161565, -187500.02235174447, -47445.10918201318, 12638.16805340863, -12070.657261688384, -54527.23706093277, -52063.58308357991, -42663.221676733694, -38949.792259906804, -31430.888942586058, -41989.18247093946, -0.036000000000000004, 1.01, 0.162, 192.0, 0.0, 0.0, 0.0, 0.0, 0.0, 0.0, 0.0, 0.0, 0.0, 1.695675248803679E9, 0.0, 2023-09-25 15:54:08.803
102.0, -187500.02235174447, 3555.313176550052, -17071.23423471859, -37199.06952370042, -16077.252158791085, -39263.38723461476, -187500.02235174447, -47440.05768776628, 12547.978764531466, -12074.613520456973, -54527.46057837732, -52065.81825802544, -42670.06131053702, -38949.90401862908, -31444.92583810399, -42022.88890157806, -0.036000000000000004, 1.01, 0.162, 192.0, 0.0, 0.0, 0.0, 0.0, 0.0, 0.0, 0.0, 0.0, 0.0, 1.695675248803693E9, 0.0, 2023-09-25 15:54:08.803
104.0, -187500.02235174447, 3566.3549383109735, -17052.61523158732, -37172.11331988732, -16047.077303776421, -39251.451403075625, -187500.02235174447, -47399.22105064643, 12599.857163412235, -12062.990613340213, -54523.012581230716, -52054.217702653135, -42664.67454012329, -38935.464791710954, -31436.722747888896, -42001.07359898968, -0.036000000000000004, 1.01, 0.162, 192.0, 0.0, 0.0, 0.0, 0.0, 0.0, 0.0, 0.0, 0.0, 0.0, 1.695675248803697E9, 0.0, 2023-09-25 15:54:08.803
106.0, -187500.02235174447, 3552.2062840707645, -17062.360592169833, -37183.51270955953, -16060.823626616435, -39250.02089143049, -187500.02235174447, -47425.55140561479, 12506.784499500334, -12054.42989521383, -54511.188508413856, -52042.72890600311, -42661.567647644006, -38922.23255899341, -31418.550779646732, -42029.46031444792, -0.036000000000000004, 1.01, 0.162, 192.0, 0.0, 0.0, 0.0, 0.0, 0.0, 0.0, 0.0, 0.0, 0.0, 1.695675248862503E9, 0.0, 2023-09-25 15:54:08.862
108.0, -187500.02235174447, 3551.960414881756, -17059.141940968268, -37172.80622396544, -16045.713847364646, -39263.70015903714, -187500.02235174447, -47428.43478064952, 12586.44611673905, -12066.142209308411, -54521.13503469647, -52048.29449037248, -42672.475298938196, -38931.15090503108, -31432.006529808827, -41987.97547673887, -0.02, 1.01, 0.168, 192.0, 127.5, 48.0, 15.5, 72.0, 2.5, 32.0, 0.0, 0.0, 0.0, 1.695675248862534E9, 0.0, 2023-09-25 15:54:08.862
110.0, -187500.02235174447, 3540.739839165192, -17067.747362583563, -37185.03262818249, -16058.9907835711, -39250.02089143049, -187500.02235174447, -47390.10153890867, 12480.856475932178, -12066.812761642072, -54512.55196482563, -52043.28769961449, -42664.02633953409, -38922.90311132707, -31425.21159949441, -42027.85098884714, -0.02, 1.01, 0.168, 192.0, 0.0, 0.0, 0.0, 0.0, 0.0, 0.0, 0.0, 0.0, 0.0, 1.695675248862539E9, 0.0, 2023-09-25 15:54:08.862
112.0, -187500.02235174447, 3546.0372026010996, -17070.94366204067, -37191.73815151908, -16057.023830059032, -39248.523324551985, -187500.02235174447, -47382.50194579386, 12546.302383697317, -12073.831209401038, -54521.85029051904, -52047.847455483374, -42662.99815928914, -38930.61446316415, -31435.69456764395, -41991.59645934063, -0.02, 1.01, 0.168, 192.0, 0.0, 0.0, 0.0, 0.0, 0.0, 0.0, 0.0, 0.0, 0.0, 1.695675248862544E9, 0.0, 2023-09-25 15:54:08.862
114.0, -187500.02235174447, 3546.841865401491, -17061.690039836176, -37187.31250611693, -16030.179384968209, -39242.75657448251, -187500.02235174447, -47361.89363740607, 12477.794286941802, -12066.231616286233, -54515.54709858264, -52039.42084782373, -42663.78047034508, -38921.29378572629, -31417.23202672387, -42005.7674653253, -0.02, 1.01, 0.168, 192.0, 0.0, 0.0, 0.0, 0.0, 0.0, 0.0, 0.0, 0.0, 0.0, 1.69567524886255E9, 0.0, 2023-09-25 15:54:08.862
116.0, -187500.02235174447, 3535.2860135180968, -17080.174932500715, -37210.938300006186, -16043.992763041588, -39253.32894960987, -187500.02235174447, -47400.09276868019, 12515.032293204344, -12072.020718100157, -54512.14963342543, -52035.95632743315, -42650.794106816546, -38924.31127122775, -31408.671308597484, -41987.39433138303, -0.02, 1.01, 0.168, 192.0, 0.0, 0.0, 0.0, 0.0, 0.0, 0.0, 0.0, 0.0, 0.0, 1.695675248862556E9, 0.0, 2023-09-25 15:54:08.862
118.0, -187500.02235174447, 3525.473597702217, -17084.220598247124, -37224.572864123926, -16050.720638122635, -39256.50289732253, -187500.02235174447, -47394.14720465508, 12438.745789378381, -12078.301558292098, -54517.71521779481, -52044.24882462607, -42667.423804691294, -38927.32875672922, -31417.65670986852, -42011.15423573902, -0.014, 0.972, 0.182, 192.0, 127.5, 72.0, 15.0, 48.0, 2.5, 88.0, 0.0, 0.0, 0.0, 1.695675248862561E9, 0.0, 2023-09-25 15:54:08.862
120.0, -187500.02235174447, 3523.9089755903456, -17081.270167979023, -37228.01503277005, -16050.184196255708, -39267.745824783546, -187500.02235174447, -47407.75941702836, 12498.80492672979, -12092.852543932504, -54532.26620343521, -52056.83285675441, -42670.575400659494, -38950.01577735136, -31424.876323327582, -41974.34091262113, -0.014, 0.972, 0.182, 192.0, 0.0, 0.0, 0.0, 0.0, 0.0, 0.0, 0.0, 0.0, 0.0, 1.695675248922836E9, 0.0, 2023-09-25 15:54:08.922
122.0, -187500.02235174447, 3532.7379146501917, -17052.570528098408, -37207.67494531572, -16038.136605994297, -39263.18606891466, -187500.02235174447, -47427.42895214903, 12423.501899659861, -12060.509569705675, -54508.372188612484, -52038.61618502333, -42667.088528524466, -38923.28309098281, -31412.426401665976, -42015.2669567188, -0.014, 0.972, 0.182, 192.0, 0.0, 0.0, 0.0, 0.0, 0.0, 0.0, 0.0, 0.0, 0.0, 1.69567524892285E9, 0.0, 2023-09-25 15:54:08.922
124.0, -187500.02235174447, 3512.6883998737812, -17065.735705582585, -37225.2881199465, -16053.626364901826, -39268.14815618374, -187500.02235174447, -47433.709792340975, 12442.41147546905, -12063.795276140605, -54505.7123310223, -52037.34213558938, -42657.47727840868, -38930.86033235316, -31405.407953907008, -42002.660572846005, -0.014, 0.972, 0.182, 192.0, 0.0, 0.0, 0.0, 0.0, 0.0, 0.0, 0.0, 0.0, 0.0, 1.695675248922854E9, 0.0, 2023-09-25 15:54:08.922
126.0, -187500.02235174447, 3521.0032488111556, -17042.199318671148, -37207.31731740443, -16036.326114693418, -39261.934371225165, -187500.02235174447, -47389.00630343036, 12407.810975052236, -12077.161619324877, -54518.65399106193, -52054.55297881997, -42679.69491239726, -38941.812687136255, -31410.414744665, -42005.231023458364, -0.014, 0.972, 0.182, 192.0, 0.0, 0.0, 0.0, 0.0, 0.0, 0.0, 0.0, 0.0, 0.0, 1.695675248922857E9, 0.0, 2023-09-25 15:54:08.922
128.0, -187500.02235174447, 3523.6184029124265, -17037.08076919088, -37208.50195986056, -16028.882983789801, -39254.312426365905, -187500.02235174447, -47383.306608594256, 12396.277474913297, -12070.836075644027, -54502.29251412064, -52038.549129789964, -42655.57738012998, -38932.89434109859, -31387.63831706504, -42007.04151475925, -0.026000000000000002, 0.982, 0.186, 192.0, 127.5, 24.0, 15.0, 88.0, 2.5, 104.0, 0.0, 0.0, 0.0, 1.695675248922861E9, 0.0, 2023-09-25 15:54:08.922
130.0, -187500.02235174447, 3512.8448620849686, -17030.554059809932, -37211.09476221738, -16031.341675679885, -39253.79833624343, -187500.02235174447, -47381.071434148726, 12344.846110921635, -12055.94981383679, -54499.20797338581, -52033.16235937624, -42661.85822032192, -38929.452172452475, -31374.808415747695, -42019.78200909877, -0.026000000000000002, 0.982, 0.186, 192.0, 0.0, 0.0, 0.0, 0.0, 0.0, 0.0, 0.0, 0.0, 0.0, 1.695675248922864E9, 0.0, 2023-09-25 15:54:08.922
132.0, -187500.02235174447, 3496.081053743488, -17045.529728594985, -37229.7361170931, -16052.531129423516, -39252.926618209676, -187500.02235174447, -47411.00041997438, 12318.113424553088, -12073.317119278565, -54505.4664618333, -52042.281871114006, -42659.75715634313, -38942.01385283635, -31377.088293682136, -42015.378715441075, -0.026000000000000002, 0.982, 0.186, 192.0, 0.0, 0.0, 0.0, 0.0, 0.0, 0.0, 0.0, 0.0, 0.0, 1.695675248922868E9, 0.0, 2023-09-25 15:54:08.922
134.0, -187500.02235174447, 3488.1014809729436, -17040.411179114722, -37230.160800237754, -16046.116178764843, -39247.69631000714, -187500.02235174447, -47376.84695444667, 12297.594523143116, -12088.24808457471, -54522.90082250844, -52056.98931896559, -42681.125424042395, -38946.61831219415, -31382.2068431624, -42007.354439181625, -0.026000000000000002, 0.982, 0.186, 192.0, 0.0, 0.0, 0.0, 0.0, 0.0, 0.0, 0.0, 0.0, 0.0, 1.695675248922872E9, 0.0, 2023-09-25 15:54:08.922
136.0, -187500.02235174447, 3490.3366554184745, -17036.521975579497, -37230.00433802656, -16048.820739843935, -39254.0665571769, -187500.02235174447, -47418.93528925601, 12270.034822229723, -12077.988633869725, -54523.70548530883, -52060.990281223094, -42674.911639083824, -38949.88166688463, -31376.887127982038, -41995.61977334259, -0.026000000000000002, 0.982, 0.186, 192.0, 0.0, 0.0, 0.0, 0.0, 0.0, 0.0, 0.0, 0.0, 0.0, 1.695675248983105E9, 0.0, 2023-09-25 15:54:08.983
138.0, -187500.02235174447, 3498.048007255555, -17015.779556724974, -37204.32218364742, -16038.918917050234, -39240.94608318163, -187500.02235174447, -47393.47665232142, 12252.779275510225, -12057.134456292923, -54509.288610135154, -52042.10305715836, -42676.63272340688, -38939.10812605717, -31356.569392272162, -42001.29711643423, -0.048, 0.994, 0.202, 192.0, 127.0, 64.0, 15.5, 8.0, 3.0, 40.0, 0.0, 0.0, 0.0, 1.695675248983119E9, 0.0, 2023-09-25 15:54:08.983
140.0, -187500.02235174447, 3465.3250533729856, -17035.42674010119, -37228.93145429271, -16052.620536401337, -39243.31536809389, -187500.02235174447, -47387.59814352967, 12185.724042144304, -12071.193703555311, -54520.486834107265, -52053.34598461938, -42677.19151701826, -38946.88653312761, -31361.240906863324, -42009.54491013824, -0.048, 0.994, 0.202, 192.0, 0.0, 0.0, 0.0, 0.0, 0.0, 0.0, 0.0, 0.0, 0.0, 1.695675248983122E9, 0.0, 2023-09-25 15:54:08.983
142.0, -187500.02235174447, 3470.309492386519, -17032.90099297774, -37228.01503277005, -16037.868385060834, -39247.13751639575, -187500.02235174447, -47359.97138738292, 12205.482984242795, -12072.62421520045, -54529.44988363384, -52059.71623178914, -42688.188575290274, -38948.115879072655, -31354.557735271184, -41988.13193895006, -0.048, 0.994, 0.202, 192.0, 0.0, 0.0, 0.0, 0.0, 0.0, 0.0, 0.0, 0.0, 0.0, 1.695675248983126E9, 0.0, 2023-09-25 15:54:08.983
144.0, -187500.02235174447, 3480.770108791603, -17020.384016082768, -37226.71863159163, -16030.559364623949, -39241.39311807074, -187500.02235174447, -47353.601140213155, 12127.453044349319, -12088.359843296987, -54526.275935921185, -52056.16230442075, -42681.66186590932, -38944.65135868208, -31341.928999653937, -42006.39331417004, -0.048, 0.994, 0.202, 192.0, 0.0, 0.0, 0.0, 0.0, 0.0, 0.0, 0.0, 0.0, 0.0, 1.695675248983129E9, 0.0, 2023-09-25 15:54:08.983
146.0, -187500.02235174447, 3481.1053849584328, -17021.970989939095, -37233.938245050704, -16034.336809436896, -39238.9120744362, -187500.02235174447, -47381.98785567139, 12131.185785673355, -12048.596089910996, -54511.680246791875, -52040.49373155758, -42674.08462453898, -38936.80589637827, -31337.995092629804, -42002.32529667918, -0.048, 0.994, 0.202, 192.0, 0.0, 0.0, 0.0, 0.0, 0.0, 0.0, 0.0, 0.0, 0.0, 1.695675248983133E9, 0.0, 2023-09-25 15:54:08.983
148.0, -187500.02235174447, 3465.6379777953603, -17033.61624880031, -37254.43479471622, -16043.255155474562, -39247.5621995404, -187500.02235174447, -47391.71086450945, 12026.177290222322, -12041.95762180777, -54513.53544158166, -52037.789170478485, -42674.844583850456, -38943.13144005912, -31334.798793172693, -42028.76741036981, -0.066, 0.974, 0.226, 192.0, 126.5, 120.0, 15.0, 56.0, 3.5, 8.0, 0.0, 0.0, 0.0, 1.695675248983137E9, 0.0, 2023-09-25 15:54:08.983
150.0, -187500.02235174447, 3469.281312141575, -17028.140071408758, -37251.86434410386, -16036.974315282621, -39246.690481506645, -187500.02235174447, -47364.41938452952, 12061.157770294878, -12047.81377885506, -54529.44988363384, -52051.7366590186, -42686.02045607811, -38954.17320182004, -31347.896915423506, -42007.913232793006, -0.066, 0.974, 0.226, 192.0, 0.0, 0.0, 0.0, 0.0, 0.0, 0.0, 0.0, 0.0, 0.0, 1.695675249042434E9, 0.0, 2023-09-25 15:54:09.042
152.0, -187500.02235174447, 3462.955768460723, -17026.08371091887, -37263.867230876356, -16050.31830672244, -39243.896513449734, -187500.02235174447, -47394.12485291062, 11946.515672983609, -12038.04606652809, -54516.95525848332, -52046.05931592695, -42678.51026994113, -38941.76798364735, -31334.329406539135, -42043.139582054566, -0.066, 0.974, 0.226, 192.0, 0.0, 0.0, 0.0, 0.0, 0.0, 0.0, 0.0, 0.0, 0.0, 1.695675249042445E9, 0.0, 2023-09-25 15:54:09.042
154.0, -187500.02235174447, 3463.3133963720084, -17028.095367919846, -37260.11213780787, -16052.195853256686, -39262.87314449229, -187500.02235174447, -47423.360934658165, 11995.644807296374, -12048.707848633272, -54530.768636556706, -52056.49758058758, -42691.83190963649, -38962.62216122415, -31356.569392272162, -42016.004564285824, -0.066, 0.974, 0.226, 192.0, 0.0, 0.0, 0.0, 0.0, 0.0, 0.0, 0.0, 0.0, 0.0, 1.695675249042449E9, 0.0, 2023-09-25 15:54:09.042
156.0, -187500.02235174447, 3465.414460350807, -17027.581277797377, -37252.91487609326, -16057.22499575913, -39259.36392061281, -187500.02235174447, -47389.386283086096, 11902.035701517547, -12049.266642244655, -54530.187491200864, -52062.130220190316, -42695.341133515976, -38979.31891433226, -31353.171927114956, -42048.99573910186, -0.066, 0.974, 0.226, 192.0, 0.0, 0.0, 0.0, 0.0, 0.0, 0.0, 0.0, 0.0, 0.0, 1.695675249042452E9, 0.0, 2023-09-25 15:54:09.042
158.0, -187500.02235174447, 3466.464992340206, -17013.499678790533, -37232.61949212784, -16039.522414150528, -39249.417394330194, -187500.02235174447, -47427.272489937845, 11944.660478193819, -12028.211298967755, -54517.35758988352, -52041.76778099153, -42684.96992408871, -38958.28592279982, -31337.972740885347, -42035.22706451739, -0.07200000000000001, 0.978, 0.246, 192.0, 126.5, 96.0, 15.0, 72.0, 3.5, 88.0, 0.0, 0.0, 0.0, 1.695675249042456E9, 0.0, 2023-09-25 15:54:09.042
160.0, -187500.02235174447, 3465.436812095262, -17016.204239869625, -37231.32309094943, -16040.707056606658, -39243.538885538444, -187500.02235174447, -47374.075338134215, 11851.297241604, -12029.485348401708, -54519.726874795786, -52041.34309784688, -42688.38974099037, -38961.9963123794, -31334.217647816855, -42060.77510842981, -0.07200000000000001, 0.978, 0.246, 192.0, 0.0, 0.0, 0.0, 0.0, 0.0, 0.0, 0.0, 0.0, 0.0, 1.695675249042459E9, 0.0, 2023-09-25 15:54:09.042
162.0, -187500.02235174447, 3475.0033587221337, -17012.896181690237, -37216.74975356457, -16033.733312336602, -39244.47765880557, -187500.02235174447, -47387.53108829631, 11916.609038902407, -12022.623362853928, -54516.284706149665, -52032.402400064755, -42679.180822274786, -38962.443347268505, -31323.421755244945, -42022.106590522126, -0.07200000000000001, 0.978, 0.246, 192.0, 0.0, 0.0, 0.0, 0.0, 0.0, 0.0, 0.0, 0.0, 0.0, 1.695675249042463E9, 0.0, 2023-09-25 15:54:09.042
164.0, -187500.02235174447, 3469.124849930388, -17013.18675436816, -37220.41543965524, -16042.025809529521, -39245.662301261706, -187500.02235174447, -47391.01796043134, 11826.978543636626, -12001.746833532672, -54507.902801978926, -52020.44421678117, -42686.1769182893, -38956.20721056547, -31316.805638886173, -42057.93643688398, -0.07200000000000001, 0.978, 0.246, 192.0, 0.0, 0.0, 0.0, 0.0, 0.0, 0.0, 0.0, 0.0, 0.0, 1.695675249042466E9, 0.0, 2023-09-25 15:54:09.042
166.0, -187500.02235174447, 3470.085974941966, -17010.213972355603, -37213.4863988741, -16039.65652461726, -39235.13462962325, -187500.02235174447, -47380.37853007061, 11876.979395983148, -12028.635982112406, -54514.45186310433, -52026.054504639455, -42672.63176114938, -38965.37142579215, -31323.846438389595, -42039.40684073053, -0.07200000000000001, 0.978, 0.246, 192.0, 0.0, 0.0, 0.0, 0.0, 0.0, 0.0, 0.0, 0.0, 0.0, 1.69567524910222E9, 0.0, 2023-09-25 15:54:09.102
168.0, -187500.02235174447, 3461.5923120489497, -17023.915591706704, -37219.677832088215, -16046.429103187216, -39246.31050185091, -187500.02235174447, -47366.34163455268, 11828.163186092757, -11993.923722973315, -54520.755055040725, -52016.91264115723, -42680.097243797456, -38980.32474283275, -31318.10204006458, -42053.84606764866, -0.094, 0.98, 0.254, 192.0, 126.5, 8.0, 15.0, 80.0, 3.5, 120.0, 0.0, 0.0, 0.0, 1.695675249102231E9, 0.0, 2023-09-25 15:54:09.102
170.0, -187500.02235174447, 3462.486381827162, -17026.240173130056, -37228.30560544796, -16052.017039301043, -39238.82266745838, -187500.02235174447, -47380.40088181506, 11880.309805906989, -12006.574810335018, -54518.60928757302, -52016.93499290168, -42661.67940636628, -38980.280039343845, -31324.986377356814, -42035.49528545085, -0.094, 0.98, 0.254, 192.0, 0.0, 0.0, 0.0, 0.0, 0.0, 0.0, 0.0, 0.0, 0.0, 1.695675249102234E9, 0.0, 2023-09-25 15:54:09.102
172.0, -187500.02235174447, 3463.536913816561, -17025.92724870768, -37215.967442508634, -16046.071475275932, -39235.447554045626, -187500.02235174447, -47398.05875993476, 11824.273982557534, -12042.538767163607, -54533.473197635794, -52029.541376774476, -42678.21969726321, -39002.52002507687, -31333.278874549735, -42069.73815795638, -0.094, 0.98, 0.254, 192.0, 0.0, 0.0, 0.0, 0.0, 0.0, 0.0, 0.0, 0.0, 0.0, 1.695675249102237E9, 0.0, 2023-09-25 15:54:09.102
174.0, -187500.02235174447, 3463.872189983391, -17023.870888217796, -37205.149198192266, -16058.722562637635, -39235.91694067919, -187500.02235174447, -47402.01501870335, 11867.323442378456, -11977.718708243217, -54513.33427588156, -51994.583248446375, -42667.557915158024, -38999.927222720056, -31329.43437450342, -42055.63420720508, -0.094, 0.98, 0.254, 192.0, 0.0, 0.0, 0.0, 0.0, 0.0, 0.0, 0.0, 0.0, 0.0, 1.695675249102242E9, 0.0, 2023-09-25 15:54:09.102
176.0, -187500.02235174447, 3432.4903407681395, -17052.503472865043, -37228.10443974786, -16076.335737268417, -39265.778871271476, -187500.02235174447, -47409.88283275162, 11848.749142736095, -12017.99655175168, -54538.01060176022, -52022.79114994898, -42690.13317705788, -39044.5636563973, -31343.985360143826, -42069.44758527847, -0.094, 0.98, 0.254, 192.0, 0.0, 0.0, 0.0, 0.0, 0.0, 0.0, 0.0, 0.0, 0.0, 1.695675249102246E9, 0.0, 2023-09-25 15:54:09.102
178.0, -187500.02235174447, 3437.3630210593965, -17060.10306597985, -37225.17636122422, -16077.855655891379, -39268.39402537275, -187500.02235174447, -47430.80406556178, 11885.562465853985, -12027.451339656274, -54556.09316302457, -52030.56955701942, -42673.34701697195, -39078.471252736, -31351.763767214274, -42063.36791078662, -0.094, 0.974, 0.264, 192.0, 126.5, 8.0, 15.0, 56.0, 4.0, 32.0, 0.0, 0.0, 0.0, 1.695675249102251E9, 0.0, 2023-09-25 15:54:09.102
180.0, -187500.02235174447, 3439.285271082553, -17056.57149035591, -37239.70499512017, -16073.050030833487, -39282.29681042395, -187500.02235174447, -47411.91684149705, 11896.090137492436, -12030.245307713189, -54576.29914001217, -52048.29449037248, -42700.23616555169, -39099.258375079444, -31360.324485340654, -42076.1307568706, -0.094, 0.974, 0.264, 192.0, 0.0, 0.0, 0.0, 0.0, 0.0, 0.0, 0.0, 0.0, 0.0, 1.695675249162424E9, 0.0, 2023-09-25 15:54:09.162
182.0, -187500.02235174447, 3443.085067639955, -17053.688115321173, -37233.379451439316, -16087.444554262705, -39268.505784095025, -187500.02235174447, -47396.49413782288, 11914.2621057346, -12020.09761573048, -54551.55575890014, -52044.07001067043, -42645.18381895826, -39072.749206155444, -31352.747243970305, -42071.61570449063, -0.094, 0.974, 0.264, 192.0, 0.0, 0.0, 0.0, 0.0, 0.0, 0.0, 0.0, 0.0, 0.0, 1.69567524916244E9, 0.0, 2023-09-25 15:54:09.162
184.0, -187500.02235174447, 3454.6856230122594, -17025.659027774218, -37207.80905578245, -16059.728391138124, -39273.31140915292, -187500.02235174447, -47388.84984121917, 11975.46118205323, -12000.293970143077, -54563.80451486165, -52034.01172566554, -42673.503479183135, -39130.97550046152, -31352.25550559229, -42059.009320617835, -0.094, 0.974, 0.264, 192.0, 0.0, 0.0, 0.0, 0.0, 0.0, 0.0, 0.0, 0.0, 0.0, 1.695675249162444E9, 0.0, 2023-09-25 15:54:09.162
186.0, -187500.02235174447, 3475.316283144508, -16989.40449826771, -37180.58463103588, -16044.484501419605, -39241.70604249311, -187500.02235174447, -47379.886791692596, 11988.022862437114, -11973.248359352156, -54529.44988363384, -52014.90098415625, -42690.6249154359, -39136.3399191308, -31320.784249399218, -42061.22214331891, -0.094, 0.974, 0.264, 192.0, 0.0, 0.0, 0.0, 0.0, 0.0, 0.0, 0.0, 0.0, 0.0, 1.695675249162447E9, 0.0, 2023-09-25 15:54:09.162
188.0, -187500.02235174447, 3466.35323361793, -17004.916608919695, -37162.9714564051, -16040.12591125082, -39232.363013310794, -187500.02235174447, -47375.125870123615, 12066.119857563956, -11978.769240232616, -54517.15642418342, -52012.86697541082, -42683.27119151011, -39215.08511484684, -31321.924188366436, -42041.55260819824, -0.084, 0.98, 0.256, 192.0, 126.5, 48.0, 15.0, 80.0, 4.0, 0.0, 0.0, 0.0, 0.0, 1.695675249162451E9, 0.0, 2023-09-25 15:54:09.162
190.0, -187500.02235174447, 3429.294041311031, -17047.049647217947, -37225.51163739105, -16066.009231330067, -39258.42514734568, -187500.02235174447, -47402.21618440344, 12041.95762180777, -11976.310548342533, -54561.97167181631, -52050.01557469554, -42676.54331642906, -39257.82165024539, -31343.4489182769, -42065.290160809775, -0.084, 0.98, 0.256, 192.0, 0.0, 0.0, 0.0, 0.0, 0.0, 0.0, 0.0, 0.0, 0.0, 1.695675249162454E9, 0.0, 2023-09-25 15:54:09.162
192.0, -187500.02235174447, 3495.45520489874, -16976.440486483632, -37135.6129211918, -16031.386379168795, -39236.207513357105, -187500.02235174447, -47376.22110560192, 12153.291660939654, -11810.326494017423, -54517.93873523936, -52033.2294146096, -42684.768758388615, -39311.86816833832, -31347.315770067667, -42050.35919551363, -0.084, 0.98, 0.256, 192.0, 0.0, 0.0, 0.0, 0.0, 0.0, 0.0, 0.0, 0.0, 0.0, 1.695675249162458E9, 0.0, 2023-09-25 15:54:09.162
194.0, -187500.02235174447, 3475.2939314000528, -16980.463800485588, -37164.78194770598, -16034.69443734818, -39247.405737329216, -187500.02235174447, -47379.037425403294, 12139.277117166177, -11840.523700776543, -54493.88825820545, -52002.29460028346, -42703.41011326434, -39284.666095336215, -31312.558807439666, -42061.669178208016, -0.084, 0.98, 0.256, 192.0, 0.0, 0.0, 0.0, 0.0, 0.0, 0.0, 0.0, 0.0, 0.0, 1.695675249162462E9, 0.0, 2023-09-25 15:54:09.162
196.0, -187500.02235174447, 3458.1724951472875, -17012.024463656482, -37189.972363707115, -16053.872234090833, -39261.68850203616, -187500.02235174447, -47406.97710597242, 12215.764786692238, -11820.451834255677, -54539.97755527229, -52043.39945833677, -42741.27396837163, -39314.03628755049, -31341.683130464928, -42052.05792809223, -0.084, 0.98, 0.256, 192.0, 0.0, 0.0, 0.0, 0.0, 0.0, 0.0, 0.0, 0.0, 0.0, 1.695675249222736E9, 0.0, 2023-09-25 15:54:09.222
198.0, -187500.02235174447, 3431.1268843563657, -17068.060287005937, -37224.84108505739, -16101.637911991826, -39272.95378124163, -187500.02235174447, -47414.01790547585, 12193.055414325645, -11803.352749747366, -54563.55864567264, -52071.31678716145, -42759.51299184716, -39302.480435667094, -31373.132034913546, -42067.882963166594, -0.07200000000000001, 0.988, 0.25, 192.0, 126.5, 96.0, 15.0, 112.0, 3.5, 104.0, 0.0, 0.0, 0.0, 1.695675249222745E9, 0.0, 2023-09-25 15:54:09.222
200.0, -187500.02235174447, 3413.379599258852, -17082.991252302083, -37229.75846883756, -16087.779830429536, -39298.501825154046, -187500.02235174447, -47417.03539097731, 12258.255452901776, -11789.695833885175, -54599.03086412321, -52076.83766804191, -42702.58309871949, -39333.370546504324, -31392.645107823028, -42051.36502401412, -0.07200000000000001, 0.988, 0.25, 192.0, 0.0, 0.0, 0.0, 0.0, 0.0, 0.0, 0.0, 0.0, 0.0, 1.695675249222749E9, 0.0, 2023-09-25 15:54:09.222
202.0, -187500.02235174447, 3432.1103611123995, -17068.23910096158, -37230.96546303815, -16085.56700772846, -39273.19965043064, -187500.02235174447, -47419.42702763403, 12141.422884633886, -11822.463491256654, -54649.5011031033, -52105.246735244604, -42705.242956309674, -39316.85260735185, -31417.1649714905, -42109.546614831284, -0.07200000000000001, 0.988, 0.25, 192.0, 0.0, 0.0, 0.0, 0.0, 0.0, 0.0, 0.0, 0.0, 0.0, 1.695675249222752E9, 0.0, 2023-09-25 15:54:09.222
204.0, -187500.02235174447, 3484.3016844155413, -16947.517329158465, -37145.76061317451, -16005.145431178265, -39254.78181299947, -187500.02235174447, -47373.40478580055, 12227.946487420379, -11658.066410787871, -54488.12150813598, -52040.00199317956, -42692.0777788255, -39198.54482394992, -31342.10781360958, -42059.74692818486, -0.07200000000000001, 0.988, 0.25, 192.0, 0.0, 0.0, 0.0, 0.0, 0.0, 0.0, 0.0, 0.0, 0.0, 1.695675249222755E9, 0.0, 2023-09-25 15:54:09.222
206.0, -187500.02235174447, 3483.005283237134, -16973.668870171176, -37172.4709477986, -16034.582678625904, -39215.64390845822, -187500.02235174447, -47375.14822186807, 12100.58624751404, -11695.639693217241, -54531.729761568284, -52021.718266215124, -42682.98061883219, -39279.16756620021, -31339.850287419595, -42083.03744590729, -0.07200000000000001, 0.988, 0.25, 192.0, 0.0, 0.0, 0.0, 0.0, 0.0, 0.0, 0.0, 0.0, 0.0, 1.695675249222758E9, 0.0, 2023-09-25 15:54:09.222
208.0, -187500.02235174447, 3469.5718848194942, -16999.194562339137, -37221.71184083365, -16038.60599262786, -39246.62342627328, -187500.02235174447, -47400.226879146925, 12105.548334783118, -11586.63023550871, -54492.6142087715, -52030.77072271952, -42662.461717422215, -39192.06281805788, -31351.20497360289, -42049.10749782414, -0.07, 0.992, 0.23, 192.0, 126.5, 104.0, 15.5, 0.0, 3.5, 24.0, 0.0, 0.0, 0.0, 1.695675249222761E9, 0.0, 2023-09-25 15:54:09.222
210.0, -187500.02235174447, 3471.5388383315612, -16970.003184080506, -37148.80045042044, -16032.727483836114, -39218.99667012652, -187500.02235174447, -47387.642847018586, 11926.421454718287, -11661.754448622996, -54512.77548227018, -52035.95632743315, -42655.130345240876, -39287.1247872263, -31351.696711980905, -42075.4825562814, -0.07, 0.992, 0.23, 192.0, 0.0, 0.0, 0.0, 0.0, 0.0, 0.0, 0.0, 0.0, 0.0, 1.695675249283012E9, 0.0, 2023-09-25 15:54:09.283
212.0, -187500.02235174447, 3462.955768460723, -17022.976818439583, -37206.55735809295, -16029.128852978809, -39252.54663855394, -187500.02235174447, -47386.97229468493, 11867.368145867365, -11586.607883764254, -54526.81237778812, -52019.684257469686, -42624.12847568136, -39148.65573032567, -31364.77248248726, -42048.593407701665, -0.07, 0.992, 0.23, 192.0, 0.0, 0.0, 0.0, 0.0, 0.0, 0.0, 0.0, 0.0, 0.0, 1.695675249283025E9, 0.0, 2023-09-25 15:54:09.283
214.0, -187500.02235174447, 3486.1792309497873, -16993.539570991943, -37138.45159273763, -16024.12206222082, -39245.997577428534, -187500.02235174447, -47381.45141380446, 11662.82733235685, -11542.23967102047, -54522.07380796359, -52023.57346100491, -42634.96907174219, -39192.35339073579, -31356.54704052771, -42072.80034694676, -0.07, 0.992, 0.23, 192.0, 0.0, 0.0, 0.0, 0.0, 0.0, 0.0, 0.0, 0.0, 0.0, 1.695675249283028E9, 0.0, 2023-09-25 15:54:09.283
216.0, -187500.02235174447, 3472.388204620863, -16918.996503233495, -37147.54875273094, -15994.841276984369, -39202.63519318523, -187500.02235174447, -47354.07052684671, 11546.598261189254, -11498.899638521629, -54489.84259245904, -52001.512289227525, -42606.06826616148, -39310.236490993084, -31334.038833861214, -42051.253265291845, -0.07, 0.992, 0.23, 192.0, 0.0, 0.0, 0.0, 0.0, 0.0, 0.0, 0.0, 0.0, 0.0, 1.695675249283032E9, 0.0, 2023-09-25 15:54:09.283
218.0, -187500.02235174447, 3500.663161356826, -16935.380331919234, -37114.602281403815, -16009.12404169131, -39226.775077196966, -187500.02235174447, -47368.80032644276, 11328.95932542793, -11526.816967346307, -54448.24599602771, -52009.29069629797, -42616.61828954438, -39173.62262888225, -31318.14674355349, -42050.31449202472, -0.062, 1.002, 0.216, 192.0, 127.0, 8.0, 15.5, 40.0, 3.0, 96.0, 0.0, 0.0, 0.0, 1.695675249283035E9, 0.0, 2023-09-25 15:54:09.283
220.0, -187500.02235174447, 3492.9518095197454, -16940.364770932767, -37119.67612739517, -16001.747966021057, -39213.0064026125, -187500.02235174447, -47378.14335562508, 11196.949922674887, -11430.16802432156, -54487.87563894697, -51975.070175536894, -42625.424876859775, -39144.766526790445, -31317.16326679746, -42022.17364575549, -0.062, 1.002, 0.216, 192.0, 0.0, 0.0, 0.0, 0.0, 0.0, 0.0, 0.0, 0.0, 0.0, 1.695675249283038E9, 0.0, 2023-09-25 15:54:09.283
222.0, -187500.02235174447, 3515.862347586435, -16889.223979619026, -37078.92889725314, -15980.44675355515, -39209.631289199744, -187500.02235174447, -47346.8285616432, 10990.397452163394, -11456.498379289911, -54445.07204831506, -51977.14888777124, -42628.844693761435, -39156.27767518493, -31314.30224350718, -42024.92291032349, -0.062, 1.002, 0.216, 192.0, 0.0, 0.0, 0.0, 0.0, 0.0, 0.0, 0.0, 0.0, 0.0, 1.695675249283041E9, 0.0, 2023-09-25 15:54:09.283
224.0, -187500.02235174447, 3513.7836353520916, -16895.68363376661, -37102.06295276439, -15991.26499787152, -39187.65952440018, -187500.02235174447, -47343.83342788618, 10822.446444326217, -11382.648215609577, -54435.349039477, -51961.54737014144, -42600.23446085864, -39185.75962612148, -31290.028249028714, -42015.870453819094, -0.062, 1.002, 0.216, 192.0, 0.0, 0.0, 0.0, 0.0, 0.0, 0.0, 0.0, 0.0, 0.0, 1.695675249283044E9, 0.0, 2023-09-25 15:54:09.283
226.0, -187500.02235174447, 3521.0032488111556, -16899.438726835102, -37061.33807436682, -15998.73048051959, -39191.749893635504, -187500.02235174447, -47366.07341361921, 10603.824031808857, -11346.952479714451, -54435.885481343925, -51970.35395745683, -42614.919556965775, -39138.15041043168, -31314.793981885196, -42023.58180565618, -0.062, 1.002, 0.216, 192.0, 0.0, 0.0, 0.0, 0.0, 0.0, 0.0, 0.0, 0.0, 0.0, 1.695675249343302E9, 0.0, 2023-09-25 15:54:09.343
228.0, -187500.02235174447, 3512.286068473586, -16904.758442015464, -37079.91237400918, -15996.629416540793, -39199.774169894954, -187500.02235174447, -47338.40195398354, 10401.25017181041, -11333.675543508, -54441.763990135674, -51952.47256189258, -42613.109065664896, -39174.539050404914, -31308.04375505969, -42023.60415740063, -0.054, 1.014, 0.218, 192.0, 127.0, 40.0, 15.5, 88.0, 3.0, 104.0, 0.0, 0.0, 0.0, 1.695675249343314E9, 0.0, 2023-09-25 15:54:09.343
230.0, -187500.02235174447, 3504.798234081058, -16918.460061366568, -37095.446836405616, -16014.510812105038, -39210.16773106667, -187500.02235174447, -47365.60402698565, 10209.293390428233, -11342.929165712496, -54458.97483336626, -51965.32481495438, -42628.26354840559, -39126.54985505937, -31323.2429412893, -42021.03370678827, -0.054, 1.014, 0.218, 192.0, 0.0, 0.0, 0.0, 0.0, 0.0, 0.0, 0.0, 0.0, 0.0, 1.695675249343318E9, 0.0, 2023-09-25 15:54:09.343
232.0, -187500.02235174447, 3510.3638184504293, -16922.68454106862, -37093.4575311491, -16020.366969152328, -39207.01613509848, -187500.02235174447, -47354.495209991364, 10020.510556758709, -11338.503520310345, -54462.528760734654, -51981.14985002874, -42624.53080708156, -39168.526431146434, -31327.847400647093, -42022.48657017786, -0.054, 1.014, 0.218, 192.0, 0.0, 0.0, 0.0, 0.0, 0.0, 0.0, 0.0, 0.0, 0.0, 1.695675249343322E9, 0.0, 2023-09-25 15:54:09.343
234.0, -187500.02235174447, 3501.959562535234, -16918.05772996637, -37125.04054606445, -16007.335902134884, -39226.75272545251, -187500.02235174447, -47364.75466069635, 9888.188229583291, -11306.227601316883, -54463.847513657514, -51965.771849843484, -42636.35487989842, -39097.4255320341, -31321.991243599805, -42005.163968225, -0.054, 1.014, 0.218, 192.0, 0.0, 0.0, 0.0, 0.0, 0.0, 0.0, 0.0, 0.0, 0.0, 1.695675249343325E9, 0.0, 2023-09-25 15:54:09.343
236.0, -187500.02235174447, 3466.2638266401086, -16935.335628430323, -37117.84328434984, -16022.289219175485, -39217.32028929237, -187500.02235174447, -47353.22116055741, 9699.830079058418, -11307.166374584005, -54470.53068524965, -51978.177068016186, -42641.65224333433, -39168.973466035546, -31322.371223255544, -42023.760619611814, -0.054, 1.014, 0.218, 192.0, 0.0, 0.0, 0.0, 0.0, 0.0, 0.0, 0.0, 0.0, 0.0, 1.695675249343329E9, 0.0, 2023-09-25 15:54:09.343
238.0, -187500.02235174447, 3494.4270246537953, -16923.220982935545, -37122.090115796345, -15998.64107354177, -39212.49231249002, -187500.02235174447, -47324.07448578769, 9623.94590663265, -11297.421014001491, -54476.63271148595, -51982.53565818497, -42646.05553699202, -39149.37098614824, -31319.264330776256, -41990.2106511844, -0.06, 0.988, 0.234, 192.0, 127.0, 16.0, 15.0, 112.0, 3.5, 40.0, 0.0, 0.0, 0.0, 1.695675249343332E9, 0.0, 2023-09-25 15:54:09.343
240.0, -187500.02235174447, 3478.6466930683487, -16929.92650627214, -37142.7654794175, -16003.223181155108, -39212.55936772339, -187500.02235174447, -47343.0734685747, 9460.06291628634, -11305.110014094116, -54465.65800495839, -51971.00215804603, -42632.10804845191, -39134.283558640906, -31300.131237522513, -42007.4661979039, -0.06, 0.988, 0.234, 192.0, 0.0, 0.0, 0.0, 0.0, 0.0, 0.0, 0.0, 0.0, 0.0, 1.69567524940218E9, 0.0, 2023-09-25 15:54:09.402
242.0, -187500.02235174447, 3479.7195768022034, -16937.280230197935, -37153.13668884477, -16010.465146358627, -39233.346490066826, -187500.02235174447, -47357.75856468184, 9403.870630725698, -11341.364543600625, -54474.129316106955, -51978.95937907212, -42647.53075212607, -39124.67230852512, -31321.030118588227, -41993.31754366369, -0.06, 0.988, 0.234, 192.0, 0.0, 0.0, 0.0, 0.0, 0.0, 0.0, 0.0, 0.0, 0.0, 1.695675249402195E9, 0.0, 2023-09-25 15:54:09.402
244.0, -187500.02235174447, 3488.7273298176924, -16931.02174175045, -37151.14738358824, -16006.710053290137, -39219.53311199345, -187500.02235174447, -47353.15410532404, 9259.456009799958, -11375.316843428236, -54467.714365448286, -51967.403527188726, -42644.53561836906, -39121.476009068014, -31311.083592305615, -42011.78008458377, -0.06, 0.988, 0.234, 192.0, 0.0, 0.0, 0.0, 0.0, 0.0, 0.0, 0.0, 0.0, 0.0, 1.695675249402199E9, 0.0, 2023-09-25 15:54:09.402
246.0, -187500.02235174447, 3493.3541409199406, -16922.796299790894, -37136.59639794784, -16004.519582333516, -39211.08415258934, -187500.02235174447, -47350.38248901159, 9238.221852567418, -11397.333311716713, -54462.99814736821, -51959.066326506894, -42640.57935960047, -39120.76075324545, -31309.071935304637, -41993.47400587488, -0.06, 0.988, 0.234, 192.0, 0.0, 0.0, 0.0, 0.0, 0.0, 0.0, 0.0, 0.0, 0.0, 1.695675249402202E9, 0.0, 2023-09-25 15:54:09.402
248.0, -187500.02235174447, 3482.2006204367426, -16929.188898705113, -37152.33202604437, -16021.21633544163, -39222.88587366175, -187500.02235174447, -47382.0325591603, 9112.314476050673, -11420.31090501677, -54468.49667650422, -51971.56095165741, -42645.20617070272, -39127.712145771045, -31318.57142669814, -42009.54491013824, -0.052000000000000005, 0.974, 0.23800000000000002, 192.0, 127.0, 48.0, 15.0, 56.0, 3.5, 56.0, 0.0, 0.0, 0.0, 1.695675249402205E9, 0.0, 2023-09-25 15:54:09.402
250.0, -187500.02235174447, 3476.2327046671758, -16920.024683478438, -37148.88985739826, -16017.371835395317, -39230.28430107645, -187500.02235174447, -47368.84502993167, 9119.13175810954, -11438.281707558835, -54472.96702539528, -51979.60757966132, -42647.73191782617, -39124.47114282503, -31326.215723301855, -41991.50705236281, -0.052000000000000005, 0.974, 0.23800000000000002, 192.0, 0.0, 0.0, 0.0, 0.0, 0.0, 0.0, 0.0, 0.0, 0.0, 1.695675249402209E9, 0.0, 2023-09-25 15:54:09.402
252.0, -187500.02235174447, 3472.4776115986842, -16905.7419187715, -37146.85584865283, -16005.12307943381, -39232.921806922175, -187500.02235174447, -47385.31826559523, 8994.476079282294, -11453.011507154884, -54461.902911889905, -51978.19941976064, -42642.30044392353, -39116.35745958775, -31314.883388863014, -42019.446732931945, -0.052000000000000005, 0.974, 0.23800000000000002, 192.0, 0.0, 0.0, 0.0, 0.0, 0.0, 0.0, 0.0, 0.0, 0.0, 1.695675249402212E9, 0.0, 2023-09-25 15:54:09.402
254.0, -187500.02235174447, 3465.2356463951646, -16914.794375275895, -37148.085194597865, -16021.305742419452, -39237.36980406878, -187500.02235174447, -47386.793480729284, 9015.01733243672, -11471.295234119325, -54465.2556735582, -51977.79708836044, -42635.483161864664, -39115.50809329845, -31312.022365572735, -41996.91617452099, -0.052000000000000005, 0.974, 0.23800000000000002, 192.0, 0.0, 0.0, 0.0, 0.0, 0.0, 0.0, 0.0, 0.0, 0.0, 1.695675249402215E9, 0.0, 2023-09-25 15:54:09.402
0.0, -187500.02235174447, 3466.0403091955554, -16899.90811346866, -37144.374805018284, -16010.308684147441, -39236.6098447573, -187500.02235174447, -47397.41055934555, 8921.743502824726, -11488.528429094367, -54475.71628996328, -51990.045844321954, -42650.525885883086, -39120.55958754535, -31325.142839568, -42003.19701471293, -0.052000000000000005, 0.974, 0.23800000000000002, 192.0, 0.0, 0.0, 0.0, 0.0, 0.0, 0.0, 0.0, 0.0, 0.0, 1.695675249462498E9, 0.0, 2023-09-25 15:54:09.462
2.0, -187500.02235174447, 3481.284198914075, -16893.090831409794, -37127.96862458809, -15996.428250840694, -39235.358147067804, -187500.02235174447, -47361.31249205023, 8944.050543791122, -11476.905521977607, -54467.04381311462, -51980.680463395176, -42623.659089047804, -39111.46242755204, -31310.793019627694, -41988.891898261536, -0.042, 0.978, 0.246, 192.0, 127.0, 88.0, 15.0, 72.0, 3.5, 88.0, 0.0, 0.0, 0.0, 1.695675249462508E9, 0.0, 2023-09-25 15:54:09.462
4.0, -187500.02235174447, 3486.290989672064, -16883.211360360547, -37121.173694273675, -15993.030785683488, -39223.53407425095, -187500.02235174447, -47329.79653236825, 8850.866121156945, -11467.718955006476, -54460.24888280021, -51968.18583824466, -42618.33937386744, -39099.14661635717, -31294.208025241856, -42011.15423573902, -0.042, 0.978, 0.246, 192.0, 0.0, 0.0, 0.0, 0.0, 0.0, 0.0, 0.0, 0.0, 0.0, 1.695675249462511E9, 0.0, 2023-09-25 15:54:09.462
6.0, -187500.02235174447, 3482.6923588147592, -16878.67395623612, -37121.21839776259, -15992.583750794382, -39220.09190560483, -187500.02235174447, -47341.50884646283, 8931.690029107336, -11500.03957748885, -54451.755219907194, -51958.6639951067, -42598.289859091026, -39101.33708731378, -31286.384914682498, -41973.06686318718, -0.042, 0.978, 0.246, 192.0, 0.0, 0.0, 0.0, 0.0, 0.0, 0.0, 0.0, 0.0, 0.0, 1.695675249462515E9, 0.0, 2023-09-25 15:54:09.462
8.0, -187500.02235174447, 3490.470765885206, -16889.738069741496, -37139.435069493666, -16000.853896242847, -39222.505894006004, -187500.02235174447, -47348.3261285217, 8929.700723850814, -11521.430196932579, -54456.69495543182, -51960.00509977402, -42601.48615854814, -39097.4255320341, -31292.732810107806, -41984.84623251513, -0.042, 0.978, 0.246, 192.0, 0.0, 0.0, 0.0, 0.0, 0.0, 0.0, 0.0, 0.0, 0.0, 1.695675249462518E9, 0.0, 2023-09-25 15:54:09.462
10.0, -187500.02235174447, 3495.701074087748, -16897.516476811943, -37145.96177887461, -16002.21735265462, -39228.42910628666, -187500.02235174447, -47358.831448415694, 9066.403992939471, -11562.020964863415, -54468.65313871541, -51962.6649573642, -42595.67470498976, -39106.72385772751, -31301.00295555627, -41957.19712462391, -0.042, 0.978, 0.246, 192.0, 0.0, 0.0, 0.0, 0.0, 0.0, 0.0, 0.0, 0.0, 0.0, 1.695675249462522E9, 0.0, 2023-09-25 15:54:09.462
12.0, -187500.02235174447, 3497.802138066547, -16896.24242737799, -37146.78879341946, -16005.614817811826, -39237.05687964641, -187500.02235174447, -47372.51071602234, 9107.508850992781, -11594.363939090246, -54467.557903237095, -51968.588169644856, -42597.038161401535, -39107.21559610553, -31303.305185235167, -41987.97547673887, -0.042, 0.962, 0.25, 192.0, 127.0, 88.0, 15.0, 8.0, 3.5, 104.0, 0.0, 0.0, 0.0, 1.695675249462525E9, 0.0, 2023-09-25 15:54:09.462
14.0, -187500.02235174447, 3504.1053300029434, -16888.553427285366, -37140.753822416526, -16009.9287044917, -39235.00051915652, -187500.02235174447, -47380.512640537345, 9235.427884510504, -11614.502860844477, -54462.12642933446, -51970.15279175673, -42586.890469418824, -39114.41285782014, -31307.775534126227, -41980.152366179515, -0.042, 0.962, 0.25, 192.0, 0.0, 0.0, 0.0, 0.0, 0.0, 0.0, 0.0, 0.0, 0.0, 1.695675249522786E9, 0.0, 2023-09-25 15:54:09.522
16.0, -187500.02235174447, 3502.630114868893, -16884.15013362767, -37136.50699097002, -16013.21441092663, -39250.08794666385, -187500.02235174447, -47397.85759423466, 9323.22553673095, -11627.578631350832, -54462.48405724574, -51975.40545170372, -42596.27820209005, -39120.17960788961, -31313.05054581768, -41981.15819468, -0.042, 0.962, 0.25, 192.0, 0.0, 0.0, 0.0, 0.0, 0.0, 0.0, 0.0, 0.0, 0.0, 1.695675249522803E9, 0.0, 2023-09-25 15:54:09.522
18.0, -187500.02235174447, 3498.6515043558484, -16885.20066561707, -37137.311653770405, -16020.724597063614, -39260.615618302305, -187500.02235174447, -47410.79925427428, 9456.710154618044, -11654.35602120829, -54472.92232190637, -51986.84954486484, -42592.970143910665, -39133.90357898517, -31323.220589544846, -41972.57512480916, -0.042, 0.962, 0.25, 192.0, 0.0, 0.0, 0.0, 0.0, 0.0, 0.0, 0.0, 0.0, 0.0, 1.695675249522806E9, 0.0, 2023-09-25 15:54:09.522
20.0, -187500.02235174447, 3503.2336119691868, -16871.074363121315, -37123.09594429683, -16014.89079176078, -39254.312426365905, -187500.02235174447, -47382.30078009376, 9554.789609287931, -11667.007108569993, -54469.949539893816, -51984.949646586145, -42596.81464395698, -39124.292328869386, -31323.95819711187, -41981.24760165782, -0.042, 0.962, 0.25, 192.0, 0.0, 0.0, 0.0, 0.0, 0.0, 0.0, 0.0, 0.0, 0.0, 1.695675249522809E9, 0.0, 2023-09-25 15:54:09.522
22.0, -187500.02235174447, 3503.345370691463, -16863.675935706608, -37117.84328434984, -16014.242591171575, -39239.560275025404, -187500.02235174447, -47368.30858806474, 9647.348183077358, -11679.613492442786, -54463.55694097959, -51977.95355057163, -42582.3977687833, -39114.18934037559, -31317.5432464532, -41986.67907556046, -0.032, 0.97, 0.254, 192.0, 127.5, 0.0, 15.0, 40.0, 3.5, 120.0, 0.0, 0.0, 0.0, 1.695675249522813E9, 0.0, 2023-09-25 15:54:09.522
24.0, -187500.02235174447, 3524.825397113013, -16839.804272628342, -37088.89777528022, -15981.16200937772, -39228.451458031115, -187500.02235174447, -47340.5253697068, 9752.557844228488, -11691.92930363766, -54459.243054299724, -51973.57260865839, -42588.656257230796, -39098.52076751242, -31296.644365387485, -41963.12033690457, -0.032, 0.97, 0.254, 192.0, 0.0, 0.0, 0.0, 0.0, 0.0, 0.0, 0.0, 0.0, 0.0, 1.695675249522816E9, 0.0, 2023-09-25 15:54:09.522
26.0, -187500.02235174447, 3517.7622458651363, -16857.14922632566, -37104.02990627645, -16011.046291714465, -39227.892664419735, -187500.02235174447, -47397.65642853456, 9793.059205181504, -11695.818507172884, -54446.39080123792, -51960.13921024075, -42569.52316397705, -39079.41002600313, -31284.730885592806, -41978.27481964527, -0.032, 0.97, 0.254, 192.0, 0.0, 0.0, 0.0, 0.0, 0.0, 0.0, 0.0, 0.0, 0.0, 1.69567524952282E9, 0.0, 2023-09-25 15:54:09.522
28.0, -187500.02235174447, 3519.863309843935, -16851.896566378662, -37095.40213291671, -16004.07254744441, -39237.593321513334, -187500.02235174447, -47356.99860537036, 9914.518584551643, -11712.001170158526, -54460.27123454466, -51970.01868129, -42587.53867000803, -39079.342970769765, -31302.411115456955, -41964.79671773872, -0.032, 0.97, 0.254, 192.0, 0.0, 0.0, 0.0, 0.0, 0.0, 0.0, 0.0, 0.0, 0.0, 1.695675249522824E9, 0.0, 2023-09-25 15:54:09.522
30.0, -187500.02235174447, 3495.83518455448, -16875.29884282337, -37127.38747923225, -16026.938382022188, -39252.34547285384, -187500.02235174447, -47380.222067859424, 9942.279451165134, -11738.555042571432, -54469.34604279352, -51977.79708836044, -42586.398731040805, -39091.54702324236, -31304.221606757834, -41992.55758435221, -0.032, 0.97, 0.254, 192.0, 0.0, 0.0, 0.0, 0.0, 0.0, 0.0, 0.0, 0.0, 0.0, 1.695675249583146E9, 0.0, 2023-09-25 15:54:09.583
32.0, -187500.02235174447, 3523.149016278865, -16852.254194289948, -37102.219414975574, -16003.044367199465, -39236.09575463483, -187500.02235174447, -47356.41746001452, 10073.126563206502, -11746.914594997716, -54473.03408062865, -51980.412242461716, -42594.154786366795, -39082.8745463937, -31312.40234522848, -41969.62469454106, -0.022, 0.97, 0.256, 192.0, 127.5, 40.0, 15.0, 40.0, 4.0, 0.0, 0.0, 0.0, 0.0, 1.695675249583156E9, 0.0, 2023-09-25 15:54:09.583
34.0, -187500.02235174447, 3507.3016294600525, -16873.06366837784, -37128.25919726601, -16017.595352839871, -39232.653585988715, -187500.02235174447, -47373.04715788927, 10082.558999366642, -11730.150786656235, -54456.806714154096, -51961.54737014144, -42572.920629134256, -39057.14768852564, -31291.57051939613, -41992.937564007945, -0.022, 0.97, 0.256, 192.0, 0.0, 0.0, 0.0, 0.0, 0.0, 0.0, 0.0, 0.0, 0.0, 1.69567524958316E9, 0.0, 2023-09-25 15:54:09.583
36.0, -187500.02235174447, 3501.7583968351364, -16887.659357507153, -37138.54099971545, -16028.324190178419, -39250.333815852864, -187500.02235174447, -47389.92272495302, 10219.105806244113, -11762.873740538806, -54482.60062725552, -51989.44234722166, -42595.65235324531, -39077.085444579774, -31320.471324976843, -41961.66747351497, -0.022, 0.97, 0.256, 192.0, 0.0, 0.0, 0.0, 0.0, 0.0, 0.0, 0.0, 0.0, 0.0, 1.695675249583164E9, 0.0, 2023-09-25 15:54:09.583
38.0, -187500.02235174447, 3500.573754379005, -16887.14526738468, -37143.59249396235, -16027.228954700107, -39250.49027806405, -187500.02235174447, -47398.259925634855, 10202.945495002925, -11776.173028489713, -54489.73083373676, -51998.74067291507, -42594.177138111256, -39080.974648115, -31326.282778535224, -41997.94435476594, -0.022, 0.97, 0.256, 192.0, 0.0, 0.0, 0.0, 0.0, 0.0, 0.0, 0.0, 0.0, 0.0, 1.695675249583168E9, 0.0, 2023-09-25 15:54:09.583
40.0, -187500.02235174447, 3517.583431909494, -16871.52139801042, -37126.985147832056, -16013.527335349005, -39249.216228630095, -187500.02235174447, -47388.961599941445, 10314.726569023916, -11766.986461518582, -54475.112792862994, -51986.268399509005, -42586.08580661843, -39066.53542119687, -31310.72596439433, -41977.134880678044, -0.022, 0.97, 0.256, 192.0, 0.0, 0.0, 0.0, 0.0, 0.0, 0.0, 0.0, 0.0, 0.0, 1.695675249583172E9, 0.0, 2023-09-25 15:54:09.583
42.0, -187500.02235174447, 3510.676742872804, -16875.991746901484, -37132.97541534608, -16035.119120492831, -39248.523324551985, -187500.02235174447, -47406.015980960845, 10265.932710877982, -11772.552045887953, -54471.93884515034, -51986.6707309092, -42587.78453919703, -39065.88722060767, -31316.068031319148, -42009.589613627155, -0.032, 0.976, 0.246, 192.0, 127.5, 0.0, 15.0, 64.0, 3.5, 88.0, 0.0, 0.0, 0.0, 1.695675249583185E9, 0.0, 2023-09-25 15:54:09.583
44.0, -187500.02235174447, 3506.0499317705553, -16870.806142187852, -37124.05706930841, -16036.393169926783, -39253.17248739868, -187500.02235174447, -47407.04416120579, 10350.444656663496, -11780.777487847507, -54472.0059003837, -51989.50940245503, -42591.919611921265, -39064.63552291817, -31324.002900600783, -41990.79179654024, -0.032, 0.976, 0.246, 192.0, 0.0, 0.0, 0.0, 0.0, 0.0, 0.0, 0.0, 0.0, 0.0, 1.695675249643295E9, 0.0, 2023-09-25 15:54:09.643
46.0, -187500.02235174447, 3501.378417179396, -16869.08505786479, -37119.74318262854, -16040.617649628837, -39250.758498997515, -187500.02235174447, -47413.05678046427, 10314.592458557185, -11792.445098453176, -54474.97868239626, -51992.973922845595, -42599.4521498027, -39066.69188340806, -31326.416889001954, -42012.18241598397, -0.032, 0.976, 0.246, 192.0, 0.0, 0.0, 0.0, 0.0, 0.0, 0.0, 0.0, 0.0, 0.0, 1.695675249643316E9, 0.0, 2023-09-25 15:54:09.643
48.0, -187500.02235174447, 3507.0110567821334, -16868.66037472014, -37114.06583953689, -16044.775074097524, -39253.8653914768, -187500.02235174447, -47414.30847815377, 10419.690360986038, -11797.29542699998, -54479.87371443197, -51991.20813503363, -42603.251946360106, -39063.048549061845, -31331.267217548757, -41981.3593603801, -0.032, 0.976, 0.246, 192.0, 0.0, 0.0, 0.0, 0.0, 0.0, 0.0, 0.0, 0.0, 0.0, 1.69567524964332E9, 0.0, 2023-09-25 15:54:09.643
50.0, -187500.02235174447, 3520.5562139220497, -16852.29889777886, -37095.40213291671, -16027.69834133367, -39235.156981367705, -187500.02235174447, -47392.51552730984, 10343.940299027003, -11786.81245885044, -54466.46266775879, -51981.6192366623, -42589.550327009005, -39038.215760971994, -31316.53741795271, -42027.58276791367, -0.032, 0.976, 0.246, 192.0, 0.0, 0.0, 0.0, 0.0, 0.0, 0.0, 0.0, 0.0, 0.0, 1.695675249643323E9, 0.0, 2023-09-25 15:54:09.643
52.0, -187500.02235174447, 3507.5251469046057, -16867.520435752922, -37102.17471148667, -16035.40969317075, -39239.917902936686, -187500.02235174447, -47404.51841408234, 10416.762282462392, -11805.990255593093, -54475.85040043001, -51993.10803331233, -42590.33263806494, -39038.95336853902, -31325.746336668297, -42000.134825722555, -0.032, 0.994, 0.23600000000000002, 192.0, 127.5, 0.0, 15.5, 8.0, 3.5, 48.0, 0.0, 0.0, 0.0, 1.695675249643327E9, 0.0, 2023-09-25 15:54:09.643
54.0, -187500.02235174447, 3507.435739926784, -16862.804217672852, -37098.75489458501, -16034.22505071462, -39236.54278952393, -187500.02235174447, -47400.24923089138, 10351.741057841904, -11805.72203465963, -54476.096269619025, -51994.04680657945, -42598.69219049122, -39028.29158643384, -31322.52768546673, -42031.44961970444, -0.032, 0.994, 0.23600000000000002, 192.0, 0.0, 0.0, 0.0, 0.0, 0.0, 0.0, 0.0, 0.0, 0.0, 1.69567524964333E9, 0.0, 2023-09-25 15:54:09.643
56.0, -187500.02235174447, 3510.1403010058766, -16865.91111015214, -37099.55955738539, -16035.74496933758, -39236.565141268395, -187500.02235174447, -47405.03250420481, 10432.184986136555, -11812.136985318302, -54477.705595219806, -51994.76206240202, -42587.181042096745, -39034.594778370236, -31325.701633179386, -42002.25824144581, -0.032, 0.994, 0.23600000000000002, 192.0, 0.0, 0.0, 0.0, 0.0, 0.0, 0.0, 0.0, 0.0, 0.0, 1.695675249643334E9, 0.0, 2023-09-25 15:54:09.643
58.0, -187500.02235174447, 3499.389111922874, -16857.104522836747, -37102.04060101994, -16025.999608755066, -39232.6088824998, -187500.02235174447, -47404.65252454907, 10406.324017801764, -11803.285694514001, -54470.150705593915, -51988.25770476553, -42593.08190263294, -39017.62980432866, -31316.895045863992, -42015.4681224189, -0.032, 0.994, 0.23600000000000002, 192.0, 0.0, 0.0, 0.0, 0.0, 0.0, 0.0, 0.0, 0.0, 0.0, 1.695675249643337E9, 0.0, 2023-09-25 15:54:09.643
60.0, -187500.02235174447, 3510.9449638062674, -16850.33194426679, -37094.86569104978, -16024.971428510122, -39232.34066156634, -187500.02235174447, -47403.33377162621, 10466.047878986345, -11806.973732349126, -54468.340214293035, -51984.99435007505, -42582.911858905776, -39021.74252530844, -31320.113697065557, -42005.20867171391, -0.032, 0.994, 0.23600000000000002, 192.0, 0.0, 0.0, 0.0, 0.0, 0.0, 0.0, 0.0, 0.0, 0.0, 1.695675249702646E9, 0.0, 2023-09-25 15:54:09.702
62.0, -187500.02235174447, 3499.9479055342563, -16854.042333846373, -37099.29133645193, -16032.593373369382, -39238.21917035808, -187500.02235174447, -47406.10538793867, 10433.950773948523, -11800.737595646096, -54462.528760734654, -51979.071137794395, -42583.56005949498, -39010.879577503154, -31321.700670921884, -42029.147390025544, -0.034, 0.998, 0.222, 192.0, 127.0, 120.0, 15.5, 24.0, 3.0, 120.0, 0.0, 0.0, 0.0, 1.695675249702655E9, 0.0, 2023-09-25 15:54:09.702
64.0, -187500.02235174447, 3483.0723384704997, -16870.224996832014, -37111.741258113536, -16050.698286378181, -39243.09185064934, -187500.02235174447, -47421.37162940164, 10499.374329969207, -11819.177784821724, -54479.3596243095, -51991.923390856195, -42591.76314971008, -39026.50344687742, -31328.607359958576, -41999.15134896652, -0.034, 0.998, 0.222, 192.0, 0.0, 0.0, 0.0, 0.0, 0.0, 0.0, 0.0, 0.0, 0.0, 1.695675249702659E9, 0.0, 2023-09-25 15:54:09.702
66.0, -187500.02235174447, 3502.540707891072, -16841.659467418132, -37087.44491189062, -16008.051157957454, -39222.95292889511, -187500.02235174447, -47385.69824525098, 10496.714472379026, -11816.897906887283, -54479.00199639821, -51991.67752166719, -42593.752454966605, -39013.897063004624, -31329.926112881436, -42011.400104928034, -0.034, 0.998, 0.222, 192.0, 0.0, 0.0, 0.0, 0.0, 0.0, 0.0, 0.0, 0.0, 0.0, 1.695675249702662E9, 0.0, 2023-09-25 15:54:09.702
68.0, -187500.02235174447, 3481.217143680709, -16866.268738063423, -37119.74318262854, -16026.424291899717, -39227.98207139756, -187500.02235174447, -47403.84786174868, 10530.219737317531, -11822.776415679029, -54468.742545693225, -51981.66394015121, -42563.331730762926, -39009.09143794673, -31306.456781203364, -41999.866604789095, -0.034, 0.998, 0.222, 192.0, 0.0, 0.0, 0.0, 0.0, 0.0, 0.0, 0.0, 0.0, 0.0, 1.695675249702666E9, 0.0, 2023-09-25 15:54:09.702
70.0, -187500.02235174447, 3498.897373544857, -16850.108426822237, -37099.62661261876, -16007.961750979634, -39220.76245793849, -187500.02235174447, -47389.185117386, 10551.789170716902, -11828.409055281765, -54476.54330450813, -51986.78248963148, -42575.44637625771, -39006.05160070081, -31320.225455787833, -42000.157177467016, -0.034, 0.998, 0.222, 192.0, 0.0, 0.0, 0.0, 0.0, 0.0, 0.0, 0.0, 0.0, 0.0, 1.695675249702669E9, 0.0, 2023-09-25 15:54:09.702
72.0, -187500.02235174447, 3481.373605891896, -16872.035488132893, -37122.69361289664, -16036.214355971142, -39221.745934694525, -187500.02235174447, -47411.35804788567, 10569.447048836595, -11836.545090263497, -54474.53164750715, -51980.85927735082, -42556.134469048324, -39006.409228612094, -31320.314862765656, -41993.76457855279, -0.036000000000000004, 1.008, 0.218, 192.0, 127.0, 112.0, 15.5, 64.0, 3.0, 104.0, 0.0, 0.0, 0.0, 1.695675249702673E9, 0.0, 2023-09-25 15:54:09.702
74.0, -187500.02235174447, 3494.2035072092426, -16855.249328046957, -37101.168882986174, -16008.967579480122, -39220.51658874948, -187500.02235174447, -47384.96063768395, 10602.997017264011, -11834.376971051333, -54476.34213880803, -51978.48999243856, -42564.20344879669, -39001.26832738738, -31328.920284380947, -42000.291287933745, -0.036000000000000004, 1.008, 0.218, 192.0, 0.0, 0.0, 0.0, 0.0, 0.0, 0.0, 0.0, 0.0, 0.0, 1.695675249763744E9, 0.0, 2023-09-25 15:54:09.763
76.0, -187500.02235174447, 3490.157841462832, -16864.52530199591, -37106.73446735555, -16021.372797652817, -39212.40290551221, -187500.02235174447, -47384.73712023939, 10574.342080872308, -11837.752084464084, -54470.03894687164, -51970.21984699009, -42541.76229736356, -38992.1041121607, -31311.932958594916, -42019.22321548739, -0.036000000000000004, 1.008, 0.218, 192.0, 0.0, 0.0, 0.0, 0.0, 0.0, 0.0, 0.0, 0.0, 0.0, 1.695675249763752E9, 0.0, 2023-09-25 15:54:09.763
78.0, -187500.02235174447, 3477.5961610789495, -16885.29007259489, -37121.64308090724, -16033.621553614326, -39232.25125458852, -187500.02235174447, -47401.478576836416, 10637.239889769542, -11845.552843278987, -54484.142897622936, -51978.71350988311, -42554.63690216981, -38996.86503372968, -31331.602493715585, -41994.010447741806, -0.036000000000000004, 1.008, 0.218, 192.0, 0.0, 0.0, 0.0, 0.0, 0.0, 0.0, 0.0, 0.0, 0.0, 1.695675249763756E9, 0.0, 2023-09-25 15:54:09.763
80.0, -187500.02235174447, 3480.188963435765, -16894.320177354835, -37136.37288050329, -16047.524338665527, -39248.85860071881, -187500.02235174447, -47421.259870679365, 10634.155349034709, -11868.418677856765, -54491.49662154873, -51991.18578328917, -42554.23457076962, -39013.897063004624, -31346.600514245096, -42003.95697402441, -0.036000000000000004, 1.008, 0.218, 192.0, 0.0, 0.0, 0.0, 0.0, 0.0, 0.0, 0.0, 0.0, 0.0, 1.695675249763759E9, 0.0, 2023-09-25 15:54:09.763
82.0, -187500.02235174447, 3491.543649619061, -16885.424183061623, -37122.47009545208, -16034.292105947985, -39244.14238263874, -187500.02235174447, -47402.70792278146, 10717.661466319736, -11869.558616823986, -54496.95044719583, -51995.79024264697, -42559.53193420553, -39014.99229848293, -31362.850232464105, -41987.908421505505, -0.034, 1.004, 0.214, 192.0, 127.0, 120.0, 15.5, 48.0, 3.0, 88.0, 0.0, 0.0, 0.0, 1.695675249763763E9, 0.0, 2023-09-25 15:54:09.763
84.0, -187500.02235174447, 3487.632094339382, -16868.995650886973, -37098.53137714045, -16018.444719129173, -39210.86063514479, -187500.02235174447, -47381.5855242712, 10698.21544864362, -11851.587814281918, -54481.43833654384, -51975.69602438164, -42547.685509644216, -38987.14202489162, -31335.06701410616, -41995.664476831495, -0.034, 1.004, 0.214, 192.0, 0.0, 0.0, 0.0, 0.0, 0.0, 0.0, 0.0, 0.0, 0.0, 1.695675249763766E9, 0.0, 2023-09-25 15:54:09.763
86.0, -187500.02235174447, 3503.993571280667, -16861.19489207207, -37082.86280427728, -16009.369910880318, -39209.54188222193, -187500.02235174447, -47369.89556192107, 10782.436821751216, -11845.329325834433, -54476.364490552485, -51974.33256796987, -42543.90806483127, -38977.64253349812, -31339.403252530486, -41973.91622947648, -0.034, 1.004, 0.214, 192.0, 0.0, 0.0, 0.0, 0.0, 0.0, 0.0, 0.0, 0.0, 0.0, 1.69567524976377E9, 0.0, 2023-09-25 15:54:09.763
88.0, -187500.02235174447, 3497.9809520221893, -16868.995650886973, -37091.8035020594, -16008.274675402008, -39213.6546032017, -187500.02235174447, -47375.63996024609, 10742.248385220575, -11827.20206108118, -54471.11183060549, -51966.44240217715, -42535.727326360626, -38963.31506530226, -31328.763822169763, -41993.25048843032, -0.034, 1.004, 0.214, 192.0, 0.0, 0.0, 0.0, 0.0, 0.0, 0.0, 0.0, 0.0, 0.0, 1.695675249763773E9, 0.0, 2023-09-25 15:54:09.763
90.0, -187500.02235174447, 3501.5572311350384, -16871.543749754877, -37092.04937124841, -16005.59246606737, -39222.14826609472, -187500.02235174447, -47373.04715788927, 10823.541679804526, -11832.566479750452, -54476.05156613011, -51970.91275106821, -42536.50963741656, -38970.557030505784, -31330.01551985926, -41976.15140392201, -0.034, 1.004, 0.214, 192.0, 0.0, 0.0, 0.0, 0.0, 0.0, 0.0, 0.0, 0.0, 0.0, 1.695675249822803E9, 0.0, 2023-09-25 15:54:09.822
92.0, -187500.02235174447, 3492.571829864005, -16882.026717904417, -37104.43223767665, -16022.669198831225, -39228.00442314201, -187500.02235174447, -47396.158861656055, 10786.504839242083, -11843.027096155536, -54481.77361271067, -51975.67367263719, -42540.063564784956, -38981.06235039978, -31336.944560640404, -41993.67517157497, -0.03, 0.994, 0.214, 192.0, 127.5, 8.0, 15.5, 8.0, 3.0, 88.0, 0.0, 0.0, 0.0, 1.695675249822813E9, 0.0, 2023-09-25 15:54:09.822
94.0, -187500.02235174447, 3509.514452161128, -16872.795447444376, -37085.522661867464, -16015.874268516813, -39224.539902751436, -187500.02235174447, -47377.47280329142, 10887.802945113533, -11840.881328687827, -54485.104022634514, -51977.66297789371, -42547.6408061553, -38982.202289367, -31341.59372348711, -41964.46144157189, -0.03, 0.994, 0.214, 192.0, 0.0, 0.0, 0.0, 0.0, 0.0, 0.0, 0.0, 0.0, 0.0, 1.695675249822833E9, 0.0, 2023-09-25 15:54:09.822
96.0, -187500.02235174447, 3498.9197252893123, -16882.160828371147, -37097.65965910669, -16028.659466345247, -39229.8596179318, -187500.02235174447, -47393.11902441014, 10823.742845504625, -11828.38670353731, -54475.42571728536, -51969.973977801084, -42549.87598060083, -38971.20523109499, -31338.44212751891, -41997.40791289901, -0.03, 0.994, 0.214, 192.0, 0.0, 0.0, 0.0, 0.0, 0.0, 0.0, 0.0, 0.0, 0.0, 1.695675249822853E9, 0.0, 2023-09-25 15:54:09.822
98.0, -187500.02235174447, 3504.6641236143264, -16873.86833117823, -37085.07562697835, -16018.467070873628, -39223.93640565114, -187500.02235174447, -47382.4348905605, 10935.032181147597, -11838.802616453484, -54484.478173789765, -51981.10514653983, -42557.05089057099, -38984.52687079035, -31347.986322401324, -41958.87350545806, -0.03, 0.994, 0.214, 192.0, 0.0, 0.0, 0.0, 0.0, 0.0, 0.0, 0.0, 0.0, 0.0, 1.695675249822857E9, 0.0, 2023-09-25 15:54:09.822
100.0, -187500.02235174447, 3501.4901759016725, -16870.783790443398, -37087.400208401705, -16020.322265663419, -39227.08800161934, -187500.02235174447, -47377.204582357954, 10880.270407232096, -11826.844433169894, -54473.011728884194, -51974.444326692144, -42551.3958992238, -38977.5978300092, -31331.200162315392, -41987.72960754986, -0.03, 0.994, 0.214, 192.0, 0.0, 0.0, 0.0, 0.0, 0.0, 0.0, 0.0, 0.0, 0.0, 1.695675249822861E9, 0.0, 2023-09-25 15:54:09.822
102.0, -187500.02235174447, 3523.707809890248, -16855.4281420026, -37065.00376045749, -16005.301893389451, -39214.59337646882, -187500.02235174447, -47364.3299775517, 10952.913576711844, -11825.77154943604, -54472.609397484, -51973.19262900265, -42543.52808517553, -38966.73488220393, -31331.602493715585, -41974.34091262113, -0.024, 0.998, 0.214, 192.0, 127.5, 32.0, 15.5, 24.0, 3.0, 88.0, 0.0, 0.0, 0.0, 1.695675249822864E9, 0.0, 2023-09-25 15:54:09.822
104.0, -187500.02235174447, 3505.6252486259045, -16860.881967649697, -37073.58683032833, -16015.471937116616, -39224.78577194044, -187500.02235174447, -47381.45141380446, 10905.527878466592, -11821.10003484488, -54468.42962127085, -51972.499724924535, -42541.20350375218, -38964.253838569384, -31326.886275635516, -41996.245622187336, -0.024, 0.998, 0.214, 192.0, 0.0, 0.0, 0.0, 0.0, 0.0, 0.0, 0.0, 0.0, 0.0, 1.695675249883046E9, 0.0, 2023-09-25 15:54:09.883
106.0, -187500.02235174447, 3506.2734492151085, -16856.031639102894, -37065.67431279115, -16012.812079526435, -39228.49616152002, -187500.02235174447, -47386.77112898483, 10988.98929226271, -11836.165110607757, -54482.57827551106, -51987.609504176326, -42546.053832298974, -38981.64349575561, -31341.21374383137, -41966.74131950633, -0.024, 0.998, 0.214, 192.0, 0.0, 0.0, 0.0, 0.0, 0.0, 0.0, 0.0, 0.0, 0.0, 1.695675249883058E9, 0.0, 2023-09-25 15:54:09.883
108.0, -187500.02235174447, 3513.336600462985, -16848.834377388284, -37059.12525166574, -16009.615780069325, -39225.322213807376, -187500.02235174447, -47385.966466184436, 10941.49183529518, -11816.115595831347, -54467.37908928146, -51976.679501137674, -42542.96929156414, -38962.935085646524, -31326.752165168786, -41998.950183266425, -0.024, 0.998, 0.214, 192.0, 0.0, 0.0, 0.0, 0.0, 0.0, 0.0, 0.0, 0.0, 0.0, 1.695675249883061E9, 0.0, 2023-09-25 15:54:09.883
110.0, -187500.02235174447, 3508.6203823829155, -16857.730371681497, -37068.96001922608, -16023.451509887162, -39234.28526333395, -187500.02235174447, -47399.39986460208, 10992.118536486452, -11827.58204073692, -54478.35379580901, -51987.47539370959, -42545.47268694314, -38979.162452121076, -31343.270104321255, -41980.219421412876, -0.024, 0.998, 0.214, 192.0, 0.0, 0.0, 0.0, 0.0, 0.0, 0.0, 0.0, 0.0, 0.0, 1.695675249883066E9, 0.0, 2023-09-25 15:54:09.883
112.0, -187500.02235174447, 3507.0781120154993, -16854.198796057557, -37062.43330984513, -16019.115271462832, -39220.71775444958, -187500.02235174447, -47388.112233652144, 10964.447076850782, -11818.641342954797, -54471.84943817252, -51982.848582607345, -42548.4901724446, -38969.41709153856, -31342.53249675423, -41997.51967162129, -0.028, 1.004, 0.21, 192.0, 127.5, 16.0, 15.5, 48.0, 3.0, 72.0, 0.0, 0.0, 0.0, 1.69567524988307E9, 0.0, 2023-09-25 15:54:09.883
114.0, -187500.02235174447, 3505.6476003703597, -16865.978165385506, -37073.430368117144, -16029.575887867915, -39224.96458589609, -187500.02235174447, -47398.79636750178, 11006.960094804776, -11830.845395427394, -54478.44320278683, -51990.38112048878, -42547.41728871075, -38980.81648121077, -31344.141822355014, -41987.68490406095, -0.028, 1.004, 0.21, 192.0, 0.0, 0.0, 0.0, 0.0, 0.0, 0.0, 0.0, 0.0, 0.0, 1.695675249883073E9, 0.0, 2023-09-25 15:54:09.883
116.0, -187500.02235174447, 3509.2462312276643, -16853.729409424, -37065.42844360214, -16018.60118134036, -39228.49616152002, -187500.02235174447, -47390.90620170906, 11028.32836250405, -11828.744331448595, -54481.08070863256, -51994.40443449074, -42563.35408250739, -38981.91171668908, -31348.500412523797, -41988.467215116885, -0.028, 1.004, 0.21, 192.0, 0.0, 0.0, 0.0, 0.0, 0.0, 0.0, 0.0, 0.0, 0.0, 1.695675249883076E9, 0.0, 2023-09-25 15:54:09.883
118.0, -187500.02235174447, 3517.628135398404, -16848.230880287992, -37057.67238827615, -16015.807213283446, -39220.8071614274, -187500.02235174447, -47383.440719060985, 11055.66454597289, -11819.378950521821, -54468.8543044155, -51984.033225063475, -42548.937207333714, -38977.28490558683, -31338.576237985642, -41994.94922100892, -0.028, 1.004, 0.21, 192.0, 0.0, 0.0, 0.0, 0.0, 0.0, 0.0, 0.0, 0.0, 0.0, 1.695675249883079E9, 0.0, 2023-09-25 15:54:09.883
120.0, -187500.02235174447, 3501.7807485795915, -16857.95388912605, -37071.128138438246, -16027.296009933474, -39233.14532436673, -187500.02235174447, -47393.923687210525, 11081.883142218965, -11825.413921524754, -54474.1069643625, -51991.43165247818, -42561.85651562888, -38977.888402687124, -31342.174868842947, -41996.446787887435, -0.028, 1.004, 0.21, 192.0, 0.0, 0.0, 0.0, 0.0, 0.0, 0.0, 0.0, 0.0, 0.0, 1.695675249943333E9, 0.0, 2023-09-25 15:54:09.943
122.0, -187500.02235174447, 3493.510603131128, -16868.392153786677, -37085.29914442291, -16037.041370515988, -39240.49904829253, -187500.02235174447, -47406.97710597242, 11102.714968051312, -11848.547977035998, -54484.54522902313, -52005.714417185125, -42562.974102851644, -38997.17795815205, -31348.433357290432, -41997.40791289901, -0.034, 1.008, 0.20800000000000002, 192.0, 127.0, 120.0, 15.5, 64.0, 3.0, 64.0, 0.0, 0.0, 0.0, 1.695675249943346E9, 0.0, 2023-09-25 15:54:09.943
124.0, -187500.02235174447, 3507.1675189933208, -16856.478673992002, -37073.27390590595, -16026.290181432985, -39232.54182726644, -187500.02235174447, -47395.62241978913, 11148.44663720687, -11840.903680432282, -54483.80762145611, -52005.982638118585, -42571.646579700304, -38992.59585053872, -31352.948409670404, -41998.50314837732, -0.034, 1.008, 0.20800000000000002, 192.0, 0.0, 0.0, 0.0, 0.0, 0.0, 0.0, 0.0, 0.0, 0.0, 1.69567524994335E9, 0.0, 2023-09-25 15:54:09.943
126.0, -187500.02235174447, 3509.31328646103, -16852.500063478954, -37072.2010221721, -16025.9325535217, -39222.304728305906, -187500.02235174447, -47395.264791877846, 11135.527328911701, -11828.967848893148, -54474.46459227378, -51995.09733856885, -42559.08489931642, -38980.704722488495, -31338.844458919106, -42009.34374443814, -0.034, 1.008, 0.20800000000000002, 192.0, 0.0, 0.0, 0.0, 0.0, 0.0, 0.0, 0.0, 0.0, 0.0, 1.695675249943353E9, 0.0, 2023-09-25 15:54:09.943
128.0, -187500.02235174447, 3510.475577172706, -16848.09676982126, -37067.90948723668, -16026.670161088725, -39231.71481272159, -187500.02235174447, -47405.97127747194, 11197.866344197553, -11828.207889581668, -54474.37518529597, -51998.13717581477, -42568.83025989893, -38984.50451904589, -31342.77836594324, -41995.93269776496, -0.034, 1.008, 0.20800000000000002, 192.0, 0.0, 0.0, 0.0, 0.0, 0.0, 0.0, 0.0, 0.0, 0.0, 1.695675249943356E9, 0.0, 2023-09-25 15:54:09.943
130.0, -187500.02235174447, 3503.211260224731, -16853.95292686855, -37078.50421410849, -16040.707056606658, -39228.96554815359, -187500.02235174447, -47415.180196187524, 11152.268785508728, -11830.040732627003, -54475.87275217447, -51999.81355664892, -42567.35504476488, -38986.15854813559, -31345.214706088867, -42015.08814276316, -0.034, 1.008, 0.20800000000000002, 192.0, 0.0, 0.0, 0.0, 0.0, 0.0, 0.0, 0.0, 0.0, 0.0, 1.695675249943359E9, 0.0, 2023-09-25 15:54:09.943
132.0, -187500.02235174447, 3526.971164580723, -16833.657542903133, -37056.91242896467, -16016.544820850471, -39230.7089842211, -187500.02235174447, -47402.41735010354, 11190.154992360473, -11820.80946216696, -54470.44127827183, -51991.96809434511, -42565.924533119745, -38972.032245639835, -31343.62773223254, -42003.21936645739, -0.036000000000000004, 1.01, 0.20600000000000002, 192.0, 127.0, 112.0, 15.5, 72.0, 3.0, 56.0, 0.0, 0.0, 0.0, 1.695675249943362E9, 0.0, 2023-09-25 15:54:09.943
134.0, -187500.02235174447, 3514.8118155970355, -16838.686685405577, -37070.703455293595, -16023.831489542901, -39219.62251897127, -187500.02235174447, -47393.94603895498, 10977.7910682906, -11805.677331170718, -54454.72800191975, -51975.00312030353, -42554.77101263655, -38963.76210019137, -31323.86879013405, -42047.408765245535, -0.036000000000000004, 1.01, 0.20600000000000002, 192.0, 0.0, 0.0, 0.0, 0.0, 0.0, 0.0, 0.0, 0.0, 0.0, 1.695675250002489E9, 0.0, 2023-09-25 15:54:10.002
136.0, -187500.02235174447, 3502.697170102259, -16858.28916529288, -37088.78601655793, -16038.27071646103, -39230.15019060972, -187500.02235174447, -47378.81390795874, 11081.167886396395, -11827.939668648205, -54476.6103597415, -51993.15273680124, -42563.42113774075, -38977.128443375645, -31339.71617695286, -42002.19118621245, -0.036000000000000004, 1.01, 0.20600000000000002, 192.0, 0.0, 0.0, 0.0, 0.0, 0.0, 0.0, 0.0, 0.0, 0.0, 1.6956752500025E9, 0.0, 2023-09-25 15:54:10.002
138.0, -187500.02235174447, 3498.092710744466, -16868.30274680886, -37103.24759522052, -16047.12200726533, -39230.507818521, -187500.02235174447, -47396.9858762009, 11090.466212089803, -11826.330343047423, -54480.81248769909, -51995.85729788033, -42569.500812232596, -38980.43650155503, -31342.264275820766, -42014.93168055197, -0.036000000000000004, 1.01, 0.20600000000000002, 192.0, 0.0, 0.0, 0.0, 0.0, 0.0, 0.0, 0.0, 0.0, 0.0, 1.695675250002503E9, 0.0, 2023-09-25 15:54:10.002
140.0, -187500.02235174447, 3503.0100945246336, -16875.410601545645, -37106.53330165545, -16045.535033409005, -39233.43589704465, -187500.02235174447, -47421.10340846818, 11232.533899847735, -11822.754063934573, -54487.96504592479, -51996.79607114745, -42573.90410589029, -38979.87770794365, -31358.82691846215, -41990.05418897321, -0.036000000000000004, 1.01, 0.20600000000000002, 192.0, 0.0, 0.0, 0.0, 0.0, 0.0, 0.0, 0.0, 0.0, 0.0, 1.695675250002507E9, 0.0, 2023-09-25 15:54:10.002
142.0, -187500.02235174447, 3492.54947811955, -16878.897473680674, -37118.20091226112, -16040.684704862202, -39239.426164558674, -187500.02235174447, -47411.559213585766, 11219.011094452275, -11826.307991302967, -54487.45095580232, -52001.91462062772, -42572.42889075624, -38982.26934460036, -31354.35656957109, -42016.36219219711, -0.04, 0.996, 0.218, 192.0, 127.0, 96.0, 15.5, 16.0, 3.0, 104.0, 0.0, 0.0, 0.0, 1.695675250002511E9, 0.0, 2023-09-25 15:54:10.002
144.0, -187500.02235174447, 3507.927478304801, -16858.982069370995, -37097.257327706495, -16017.081262717398, -39226.68567021914, -187500.02235174447, -47382.4348905605, 11344.382029102091, -11818.686046443707, -54479.60549349851, -51992.705701912135, -42563.8458208854, -38974.58034450774, -31337.905685651982, -41993.161081452505, -0.04, 0.996, 0.218, 192.0, 0.0, 0.0, 0.0, 0.0, 0.0, 0.0, 0.0, 0.0, 0.0, 1.695675250002514E9, 0.0, 2023-09-25 15:54:10.002
146.0, -187500.02235174447, 3497.64567585536, -16867.00634563045, -37112.72473486957, -16019.986989496589, -39212.581719467846, -187500.02235174447, -47374.74589046787, 11301.153755325528, -11805.118537559336, -54469.994243382724, -51980.47929769508, -42556.46974521515, -38958.442385011, -31321.030118588227, -42022.28540447776, -0.04, 0.996, 0.218, 192.0, 0.0, 0.0, 0.0, 0.0, 0.0, 0.0, 0.0, 0.0, 0.0, 1.695675250002517E9, 0.0, 2023-09-25 15:54:10.002
148.0, -187500.02235174447, 3497.377454921896, -16873.86833117823, -37117.887987838745, -16019.718768563125, -39224.09286786233, -187500.02235174447, -47383.172498127526, 11411.481965956924, -11825.05629361347, -54489.999054670225, -51997.6230856923, -42559.17430629424, -38980.347094577206, -31332.138935582512, -41994.07750297517, -0.04, 0.996, 0.218, 192.0, 0.0, 0.0, 0.0, 0.0, 0.0, 0.0, 0.0, 0.0, 0.0, 1.69567525000252E9, 0.0, 2023-09-25 15:54:10.002
150.0, -187500.02235174447, 3501.356065434941, -16869.062706120338, -37115.384592459755, -16017.952980751155, -39214.816893913376, -187500.02235174447, -47381.94315218248, 11348.561805315234, -11793.450926953665, -54463.46753400178, -51974.98076855907, -42546.56792242145, -38949.54639071779, -31313.63169117352, -42039.295082008255, -0.04, 0.996, 0.218, 192.0, 0.0, 0.0, 0.0, 0.0, 0.0, 0.0, 0.0, 0.0, 0.0, 1.695675250062508E9, 0.0, 2023-09-25 15:54:10.062
152.0, -187500.02235174447, 3499.411463667329, -16878.182217858102, -37120.79371461794, -16028.279486689507, -39219.39900152672, -187500.02235174447, -47388.98395168591, 11442.84146342772, -11814.103938830369, -54480.633673743454, -51990.42582397769, -42553.0946318024, -38968.97005664946, -31331.267217548757, -42006.147444981034, -0.038, 0.972, 0.222, 192.0, 127.0, 104.0, 15.0, 48.0, 3.0, 120.0, 0.0, 0.0, 0.0, 1.695675250062516E9, 0.0, 2023-09-25 15:54:10.062
154.0, -187500.02235174447, 3492.571829864005, -16889.089869152293, -37129.10856355531, -16039.32124845043, -39230.686632476645, -187500.02235174447, -47399.77984425781, 11412.912477602064, -11804.269171270034, -54482.64533074443, -51991.498707711544, -42565.14222206381, -38971.38404505063, -31331.803659415684, -42014.30583170722, -0.038, 0.972, 0.222, 192.0, 0.0, 0.0, 0.0, 0.0, 0.0, 0.0, 0.0, 0.0, 0.0, 1.69567525006252E9, 0.0, 2023-09-25 15:54:10.062
156.0, -187500.02235174447, 3482.759414048125, -16906.457174594067, -37139.3680142603, -16057.984955070611, -39235.179333112166, -187500.02235174447, -47417.81770203325, 11501.492440878445, -11826.86678491435, -54507.053435689624, -52012.35288528835, -42575.982818124634, -38994.76396975088, -31359.899802196003, -41983.4604243589, -0.038, 0.972, 0.222, 192.0, 0.0, 0.0, 0.0, 0.0, 0.0, 0.0, 0.0, 0.0, 0.0, 1.695675250062523E9, 0.0, 2023-09-25 15:54:10.062
158.0, -187500.02235174447, 3501.579582879494, -16875.969395157026, -37111.3612784578, -16019.69641681867, -39229.97137665407, -187500.02235174447, -47392.1355476541, 11467.674251517565, -11806.86197362685, -54497.129261151465, -52003.63570495078, -42577.92741989224, -38973.9991991519, -31352.143746870013, -42007.89088104855, -0.038, 0.972, 0.222, 192.0, 0.0, 0.0, 0.0, 0.0, 0.0, 0.0, 0.0, 0.0, 0.0, 1.695675250062527E9, 0.0, 2023-09-25 15:54:10.062
160.0, -187500.02235174447, 3496.6845508437814, -16883.52428478292, -37115.31753722639, -16021.573963352916, -39223.53407425095, -187500.02235174447, -47387.88871620759, 11482.784030769353, -11798.18949677819, -54486.7580517242, -51993.599771690344, -42550.45712595667, -38964.36559729166, -31329.322615781144, -42012.942375295446, -0.038, 0.972, 0.222, 192.0, 0.0, 0.0, 0.0, 0.0, 0.0, 0.0, 0.0, 0.0, 0.0, 1.69567525006253E9, 0.0, 2023-09-25 15:54:10.062
162.0, -187500.02235174447, 3489.64375134036, -16882.42904930461, -37114.736391870545, -16028.592411111882, -39228.85378943131, -187500.02235174447, -47384.75947198385, 11449.345821064213, -11792.780374620006, -54490.69195874834, -51998.76302465952, -42571.98185586713, -38964.052672869286, -31331.87071464905, -42018.15033175353, -0.044, 0.968, 0.234, 192.0, 127.0, 80.0, 15.0, 32.0, 3.5, 40.0, 0.0, 0.0, 0.0, 1.695675250062534E9, 0.0, 2023-09-25 15:54:10.062
164.0, -187500.02235174447, 3487.7885565505694, -16882.451401049067, -37110.422505190676, -16031.296972190974, -39224.83047542936, -187500.02235174447, -47387.285219107296, 11480.861780746196, -11808.38189224981, -54503.007769943215, -52011.928202143696, -42572.76416692307, -38976.27907708634, -31343.58302874363, -41999.084293733154, -0.044, 0.968, 0.234, 192.0, 0.0, 0.0, 0.0, 0.0, 0.0, 0.0, 0.0, 0.0, 0.0, 1.695675250122712E9, 0.0, 2023-09-25 15:54:10.122
166.0, -187500.02235174447, 3491.49894613015, -16876.70700272405, -37105.75099059952, -16032.816890813934, -39228.22794058656, -187500.02235174447, -47393.09667266568, 11459.717030491476, -11790.701662385663, -54485.93103717936, -51998.38304500378, -42573.881754145834, -38963.38212053563, -31332.63067396053, -42008.58378512666, -0.044, 0.968, 0.234, 192.0, 0.0, 0.0, 0.0, 0.0, 0.0, 0.0, 0.0, 0.0, 0.0, 1.695675250122722E9, 0.0, 2023-09-25 15:54:10.122
168.0, -187500.02235174447, 3487.5650391060162, -16880.372688814725, -37107.896758067225, -16039.902393806267, -39234.77700171197, -187500.02235174447, -47407.73706528391, 11463.852103215708, -11802.481031713609, -54493.64238901644, -52009.08953059787, -42575.24521055761, -38979.52008003236, -31341.95135139839, -42000.93948852295, -0.044, 0.968, 0.234, 192.0, 0.0, 0.0, 0.0, 0.0, 0.0, 0.0, 0.0, 0.0, 0.0, 1.695675250122726E9, 0.0, 2023-09-25 15:54:10.122
170.0, -187500.02235174447, 3503.568888136016, -16856.81395015883, -37076.917240252165, -16010.308684147441, -39226.37274579677, -187500.02235174447, -47370.432003787995, 11469.149466651616, -11780.352804702856, -54483.561752267095, -51997.53367871448, -42576.85453615839, -38964.72322520295, -31331.513086737763, -42001.74415132334, -0.044, 0.968, 0.234, 192.0, 0.0, 0.0, 0.0, 0.0, 0.0, 0.0, 0.0, 0.0, 0.0, 1.695675250122729E9, 0.0, 2023-09-25 15:54:10.122
172.0, -187500.02235174447, 3485.352216404941, -16868.928595653608, -37093.39047591573, -16035.163823981742, -39219.019021870976, -187500.02235174447, -47372.28719857779, 11435.107759846183, -11772.596749376864, -54474.57635099606, -51988.41416697671, -42559.57663769444, -38954.93316113152, -31318.5937784426, -42010.50603514982, -0.034, 0.978, 0.23600000000000002, 192.0, 127.0, 120.0, 15.0, 72.0, 3.5, 48.0, 0.0, 0.0, 0.0, 1.695675250122733E9, 0.0, 2023-09-25 15:54:10.122
174.0, -187500.02235174447, 3494.9411147762676, -16862.871272906217, -37087.86959503527, -16030.380550668306, -39224.115219606785, -187500.02235174447, -47371.70605322195, 11483.94632148103, -11786.924217572716, -54495.385825083955, -52008.46368175312, -42586.756358952094, -38968.79124269381, -31343.471270021353, -41980.46529060189, -0.034, 0.978, 0.23600000000000002, 192.0, 0.0, 0.0, 0.0, 0.0, 0.0, 0.0, 0.0, 0.0, 0.0, 1.695675250122736E9, 0.0, 2023-09-25 15:54:10.122
176.0, -187500.02235174447, 3492.5271263750947, -16863.653583962154, -37101.97354578657, -16031.118158235331, -39228.25029233102, -187500.02235174447, -47390.079187164214, 11441.634469227132, -11779.749307602562, -54485.0593191456, -52001.84756539435, -42571.512469233574, -38965.55023974779, -31331.513086737763, -41999.508976877805, -0.034, 0.978, 0.23600000000000002, 192.0, 0.0, 0.0, 0.0, 0.0, 0.0, 0.0, 0.0, 0.0, 0.0, 1.69567525012274E9, 0.0, 2023-09-25 15:54:10.122
178.0, -187500.02235174447, 3491.7448153191585, -16863.541825239878, -37099.358391685295, -16027.586582611393, -39229.792562698436, -187500.02235174447, -47384.223030116926, 11499.167859455092, -11773.803743577451, -54486.35572032401, -52001.8252136499, -42573.0994430899, -38962.33158854623, -31327.19920005789, -41980.55469757971, -0.034, 0.978, 0.23600000000000002, 192.0, 0.0, 0.0, 0.0, 0.0, 0.0, 0.0, 0.0, 0.0, 0.0, 1.695675250122743E9, 0.0, 2023-09-25 15:54:10.122
180.0, -187500.02235174447, 3489.9790275071896, -16868.392153786677, -37098.57608062936, -16029.59823961237, -39218.884911404246, -187500.02235174447, -47357.289178048275, 11437.767617436364, -11777.42472617921, -54487.78623196915, -52004.015684606515, -42573.36766402336, -38973.46275728497, -31331.49073499331, -42005.655706603015, -0.034, 0.978, 0.23600000000000002, 192.0, 0.0, 0.0, 0.0, 0.0, 0.0, 0.0, 0.0, 0.0, 0.0, 1.695675250182915E9, 0.0, 2023-09-25 15:54:10.182
182.0, -187500.02235174447, 3497.422158410807, -16858.80325541535, -37089.27775493595, -16011.940361492678, -39222.014155627985, -187500.02235174447, -47359.01026237134, 11523.6206678892, -11781.582150647897, -54490.80371747062, -52005.11092008483, -42576.675722202745, -38962.82332692425, -31327.355662269078, -41965.48962181683, -0.034, 0.982, 0.24, 192.0, 127.0, 120.0, 15.0, 88.0, 3.5, 64.0, 0.0, 0.0, 0.0, 1.695675250182941E9, 0.0, 2023-09-25 15:54:10.182
184.0, -187500.02235174447, 3512.6883998737812, -16846.46509247602, -37078.593621086315, -16008.207620168641, -39194.92384134816, -187500.02235174447, -47348.86257038863, 11453.011507154884, -11745.931118241682, -54467.289682303635, -51980.85927735082, -42553.340500991406, -38938.90696035707, -31296.420847942933, -41997.94435476594, -0.034, 0.982, 0.24, 192.0, 0.0, 0.0, 0.0, 0.0, 0.0, 0.0, 0.0, 0.0, 0.0, 1.695675250182944E9, 0.0, 2023-09-25 15:54:10.182
186.0, -187500.02235174447, 3515.4823679306946, -16847.202700043046, -37078.303048408394, -16008.07350970191, -39198.00838208299, -187500.02235174447, -47348.214369799425, 11533.85776684973, -11748.836845020873, -54473.861095173495, -51983.36267272982, -42562.54941970699, -38937.90113185658, -31308.893121348992, -41970.02702594126, -0.034, 0.982, 0.24, 192.0, 0.0, 0.0, 0.0, 0.0, 0.0, 0.0, 0.0, 0.0, 0.0, 1.695675250182947E9, 0.0, 2023-09-25 15:54:10.182
188.0, -187500.02235174447, 3510.676742872804, -16857.640964703674, -37089.210699702584, -16012.700320804159, -39202.456379229596, -187500.02235174447, -47360.597236227666, 11466.847236972719, -11741.952507728638, -54467.982586381746, -51978.020605804995, -42556.02271032604, -38934.92834984402, -31297.918414821437, -41992.69169481894, -0.034, 0.982, 0.24, 192.0, 0.0, 0.0, 0.0, 0.0, 0.0, 0.0, 0.0, 0.0, 0.0, 1.695675250182951E9, 0.0, 2023-09-25 15:54:10.182
190.0, -187500.02235174447, 3508.8438998274687, -16864.77117118492, -37093.211661960086, -16019.450547629662, -39214.66043170219, -187500.02235174447, -47372.66717823353, 11557.215339805525, -11762.4267056497, -54481.460688288294, -51993.51036471252, -42567.93619012072, -38959.22469606694, -31316.895045863992, -41965.26610437228, -0.034, 0.982, 0.24, 192.0, 0.0, 0.0, 0.0, 0.0, 0.0, 0.0, 0.0, 0.0, 0.0, 1.695675250182954E9, 0.0, 2023-09-25 15:54:10.182
192.0, -187500.02235174447, 3503.9712195362117, -16866.84988341926, -37098.039638762435, -16022.959771509144, -39213.364030523786, -187500.02235174447, -47368.24153283138, 11487.366138382691, -11749.775618287995, -54473.995205640225, -51986.84954486484, -42567.6456174428, -38944.070213326246, -31308.46843820434, -42004.60517461362, -0.036000000000000004, 0.98, 0.242, 192.0, 127.0, 112.0, 15.0, 80.0, 3.5, 72.0, 0.0, 0.0, 0.0, 1.695675250182957E9, 0.0, 2023-09-25 15:54:10.182
194.0, -187500.02235174447, 3508.352161449452, -16868.615671231233, -37097.99493527352, -16023.339751164885, -39210.14537932222, -187500.02235174447, -47367.570980497716, 11608.333779374812, -11760.929138771193, -54494.91643845039, -52001.020550849506, -42573.85940240138, -38963.09154785771, -31324.271121534246, -41960.41577582547, -0.036000000000000004, 0.98, 0.242, 192.0, 0.0, 0.0, 0.0, 0.0, 0.0, 0.0, 0.0, 0.0, 0.0, 1.695675250243423E9, 0.0, 2023-09-25 15:54:10.243
196.0, -187500.02235174447, 3503.345370691463, -16868.794485186874, -37105.32630745487, -16022.333922664397, -39202.14345480722, -187500.02235174447, -47364.57584674071, 11536.249403506446, -11736.185757659168, -54478.3090923201, -51985.799012875446, -42566.08099533093, -38937.699966156484, -31306.456781203364, -42003.48758739085, -0.036000000000000004, 0.98, 0.242, 192.0, 0.0, 0.0, 0.0, 0.0, 0.0, 0.0, 0.0, 0.0, 0.0, 1.695675250243456E9, 0.0, 2023-09-25 15:54:10.243
198.0, -187500.02235174447, 3509.067417272022, -16868.034525875395, -37103.694630109625, -16016.030730728, -39203.81983564137, -187500.02235174447, -47364.017053129326, 11644.610660625776, -11751.56375784442, -54492.63656051595, -51999.36652175982, -42575.89341114681, -38951.692158185506, -31319.353737754078, -41965.22140088337, -0.036000000000000004, 0.98, 0.242, 192.0, 0.0, 0.0, 0.0, 0.0, 0.0, 0.0, 0.0, 0.0, 0.0, 1.69567525024346E9, 0.0, 2023-09-25 15:54:10.243
200.0, -187500.02235174447, 3509.3356382054853, -16862.603051972754, -37100.87831030826, -16015.06960571642, -39202.47873097405, -187500.02235174447, -47367.928608409005, 11597.046148424883, -11745.975821730593, -54487.607418013504, -51995.3208560134, -42579.46969025966, -38947.60178895018, -31310.547150438688, -41989.20482268391, -0.036000000000000004, 0.98, 0.242, 192.0, 0.0, 0.0, 0.0, 0.0, 0.0, 0.0, 0.0, 0.0, 0.0, 1.695675250243463E9, 0.0, 2023-09-25 15:54:10.243
202.0, -187500.02235174447, 3498.986780522678, -16870.493217765477, -37109.79665634593, -16027.631286100304, -39211.17355956716, -187500.02235174447, -47378.121003880624, 11678.339443008834, -11749.753266543541, -54486.40042381292, -51995.7231874136, -42570.752509922095, -38951.37923376313, -31314.503409207275, -41965.98136019485, -0.046, 0.98, 0.248, 192.0, 127.0, 72.0, 15.0, 80.0, 3.5, 96.0, 0.0, 0.0, 0.0, 1.695675250243467E9, 0.0, 2023-09-25 15:54:10.243
204.0, -187500.02235174447, 3503.4347776692844, -16865.508778751944, -37107.539130155936, -16018.869402273824, -39208.98308861054, -187500.02235174447, -47373.98593115639, 11630.953744763583, -11750.557929343931, -54488.92617093637, -52001.10995782733, -42579.201469326195, -38955.93898963201, -31309.697784149386, -41989.5624505952, -0.046, 0.98, 0.248, 192.0, 0.0, 0.0, 0.0, 0.0, 0.0, 0.0, 0.0, 0.0, 0.0, 1.69567525024347E9, 0.0, 2023-09-25 15:54:10.243
206.0, -187500.02235174447, 3511.704923117748, -16866.20168283006, -37106.287432466444, -16024.256172687552, -39198.79069313892, -187500.02235174447, -47376.5340300243, 11693.717443194086, -11749.596804332354, -54491.29545584863, -51997.35486475884, -42577.43568151423, -38959.023530366845, -31312.24588301729, -41961.756880492794, -0.046, 0.98, 0.248, 192.0, 0.0, 0.0, 0.0, 0.0, 0.0, 0.0, 0.0, 0.0, 0.0, 1.695675250243473E9, 0.0, 2023-09-25 15:54:10.243
208.0, -187500.02235174447, 3517.605783653949, -16857.283336792392, -37099.090170751835, -16015.382530138795, -39197.36018149379, -187500.02235174447, -47363.726480451405, 11655.898291575706, -11730.754283756529, -54481.058356888105, -51986.62602742029, -42587.47161477466, -38939.175181290535, -31310.10011554958, -41976.33021787766, -0.046, 0.98, 0.248, 192.0, 0.0, 0.0, 0.0, 0.0, 0.0, 0.0, 0.0, 0.0, 0.0, 1.695675250243477E9, 0.0, 2023-09-25 15:54:10.243
210.0, -187500.02235174447, 3518.9692400657227, -16854.489368735478, -37095.87151955027, -16010.308684147441, -39197.8519198718, -187500.02235174447, -47354.96459662492, 11679.568788953877, -11736.99042045956, -54480.65602548791, -51987.67655940969, -42568.11500407637, -38945.76894590485, -31302.701688134875, -41964.707310760896, -0.046, 0.98, 0.248, 192.0, 0.0, 0.0, 0.0, 0.0, 0.0, 0.0, 0.0, 0.0, 0.0, 1.695675250302667E9, 0.0, 2023-09-25 15:54:10.302
212.0, -187500.02235174447, 3516.3540859644518, -16854.75758966894, -37091.84820554831, -16009.83929751388, -39199.41654198367, -187500.02235174447, -47351.32126227871, 11654.668945630663, -11719.444301062143, -54471.17888583885, -51976.7689081155, -42571.82539365595, -38923.19368400499, -31290.363525195546, -41978.23011615636, -0.036000000000000004, 0.98, 0.24, 192.0, 127.0, 112.0, 15.0, 80.0, 3.5, 64.0, 0.0, 0.0, 0.0, 1.695675250302677E9, 0.0, 2023-09-25 15:54:10.302
214.0, -187500.02235174447, 3509.670914372315, -16869.48738926499, -37106.287432466444, -16018.936457507189, -39202.21051004058, -187500.02235174447, -47368.42034678702, 11665.040155057926, -11725.211051131613, -54480.94659816583, -51984.39085297476, -42570.03725409952, -38934.816591121744, -31302.008784056758, -41977.3583981226, -0.036000000000000004, 0.98, 0.24, 192.0, 0.0, 0.0, 0.0, 0.0, 0.0, 0.0, 0.0, 0.0, 0.0, 1.695675250302681E9, 0.0, 2023-09-25 15:54:10.302
216.0, -187500.02235174447, 3512.8225103405134, -16873.95773815605, -37107.606185389304, -16015.583695838894, -39201.33879200683, -187500.02235174447, -47367.83920143118, 11691.4599170041, -11727.468577321599, -54491.02723491517, -51996.10316706934, -42587.13633860783, -38936.090640555696, -31310.033060316215, -41967.81420324018, -0.036000000000000004, 0.98, 0.24, 192.0, 0.0, 0.0, 0.0, 0.0, 0.0, 0.0, 0.0, 0.0, 0.0, 1.695675250302684E9, 0.0, 2023-09-25 15:54:10.302
218.0, -187500.02235174447, 3518.0304667985997, -16876.57289225732, -37109.573138901374, -16019.808175540946, -39202.38932399623, -187500.02235174447, -47367.12394560861, 11678.831181386851, -11725.702789509629, -54488.389729069444, -51994.85146937984, -42580.00613212659, -38940.96332084695, -31312.00001382828, -41984.08627320365, -0.036000000000000004, 0.98, 0.24, 192.0, 0.0, 0.0, 0.0, 0.0, 0.0, 0.0, 0.0, 0.0, 0.0, 1.695675250302687E9, 0.0, 2023-09-25 15:54:10.302
220.0, -187500.02235174447, 3516.2646789866308, -16886.3853080732, -37111.78596160245, -16025.574925610415, -39217.36499278128, -187500.02235174447, -47375.34938756817, 11708.290780578945, -11719.153728384224, -54490.848420959526, -51995.34320775786, -42588.74566420861, -38937.87878011212, -31322.974720355836, -41974.45267134341, -0.036000000000000004, 0.98, 0.24, 192.0, 0.0, 0.0, 0.0, 0.0, 0.0, 0.0, 0.0, 0.0, 0.0, 1.69567525030269E9, 0.0, 2023-09-25 15:54:10.302
222.0, -187500.02235174447, 3509.670914372315, -16897.225904134026, -37124.48175245306, -16039.343600194885, -39226.506856263506, -187500.02235174447, -47386.27939060681, 11674.36083249579, -11723.80289123093, -54494.08942390555, -52000.08177758238, -42582.26365831657, -38948.85348663968, -31332.049528604693, -41991.88703201855, -0.042, 0.992, 0.232, 192.0, 127.0, 88.0, 15.5, 0.0, 3.5, 32.0, 0.0, 0.0, 0.0, 1.695675250302694E9, 0.0, 2023-09-25 15:54:10.302
224.0, -187500.02235174447, 3531.217996027231, -16861.887796150186, -37082.21460368807, -16010.688663803181, -39208.69251593263, -187500.02235174447, -47356.596273970164, 11721.388902829756, -11706.323827066879, -54488.948522680825, -51989.08471931038, -42590.26558283158, -38930.45800095296, -31330.641368704008, -41980.97938072436, -0.042, 0.992, 0.232, 192.0, 0.0, 0.0, 0.0, 0.0, 0.0, 0.0, 0.0, 0.0, 0.0, 1.695675250362638E9, 0.0, 2023-09-25 15:54:10.362
226.0, -187500.02235174447, 3511.928440562301, -16878.00340390246, -37103.94049929863, -16027.944210522677, -39207.88785313223, -187500.02235174447, -47378.433928303, 11666.269501002967, -11688.017748357983, -54473.570522495575, -51969.52694291198, -42558.302588260485, -38916.309346712755, -31308.62490041553, -41998.14552046604, -0.042, 0.992, 0.232, 192.0, 0.0, 0.0, 0.0, 0.0, 0.0, 0.0, 0.0, 0.0, 0.0, 1.69567525036265E9, 0.0, 2023-09-25 15:54:10.362
228.0, -187500.02235174447, 3514.834167341491, -16877.824589946817, -37103.78403708745, -16016.433062128195, -39218.303766048404, -187500.02235174447, -47366.49809676386, 11759.856255037339, -11707.97785615657, -54501.93488620936, -51989.88938211076, -42583.98474263963, -38934.905998099566, -31326.238075046313, -41951.54213327672, -0.042, 0.992, 0.232, 192.0, 0.0, 0.0, 0.0, 0.0, 0.0, 0.0, 0.0, 0.0, 0.0, 1.695675250362653E9, 0.0, 2023-09-25 15:54:10.362
230.0, -187500.02235174447, 3499.1432427338655, -16890.520380797432, -37118.178560516666, -16033.576850125415, -39212.022925856465, -187500.02235174447, -47375.59525675717, 11701.741719453541, -11699.685358963652, -54494.67056926138, -51980.14402152825, -42567.22093429815, -38927.976957318424, -31316.2915487637, -41976.88901148904, -0.042, 0.992, 0.232, 192.0, 0.0, 0.0, 0.0, 0.0, 0.0, 0.0, 0.0, 0.0, 0.0, 1.695675250362656E9, 0.0, 2023-09-25 15:54:10.362
232.0, -187500.02235174447, 3521.830263356002, -16874.382421300703, -37092.42935090415, -16010.532201591994, -39210.704172933605, -187500.02235174447, -47351.634186701085, 11788.421784451222, -11707.530821267464, -54504.50533682172, -51982.088623295866, -42578.12858559234, -38935.19657077749, -31332.563618727163, -41948.479944286344, -0.042, 1.004, 0.232, 192.0, 127.0, 88.0, 15.5, 48.0, 3.5, 32.0, 0.0, 0.0, 0.0, 1.695675250362659E9, 0.0, 2023-09-25 15:54:10.362
234.0, -187500.02235174447, 3522.2772982451083, -16879.18804635859, -37095.49153989453, -16021.037521485989, -39201.94228910712, -187500.02235174447, -47363.01122462883, 11689.448260003122, -11692.130469337759, -54483.49469703373, -51960.18391372966, -42559.04019582751, -38911.59312863268, -31316.96210109736, -41995.77623555377, -0.042, 1.004, 0.232, 192.0, 0.0, 0.0, 0.0, 0.0, 0.0, 0.0, 0.0, 0.0, 0.0, 1.695675250362663E9, 0.0, 2023-09-25 15:54:10.362
236.0, -187500.02235174447, 3523.6854581457924, -16878.048107391372, -37096.27385095046, -16014.913143505233, -39205.54091996443, -187500.02235174447, -47355.56809372522, 11764.527769628497, -11694.164478083192, -54488.881467447456, -51964.49780040953, -42561.9459226067, -38916.108181012656, -31328.607359958576, -41966.71896776187, -0.042, 1.004, 0.232, 192.0, 0.0, 0.0, 0.0, 0.0, 0.0, 0.0, 0.0, 0.0, 0.0, 1.695675250362666E9, 0.0, 2023-09-25 15:54:10.362
238.0, -187500.02235174447, 3530.4356849712954, -16865.19585432957, -37088.808368302394, -16009.079338202399, -39200.24355652852, -187500.02235174447, -47357.06566060372, 11682.250998288513, -11689.470611747576, -54483.31588307809, -51964.92248355418, -42558.861381871866, -38904.775846573815, -31328.406194258478, -41992.69169481894, -0.042, 1.004, 0.232, 192.0, 0.0, 0.0, 0.0, 0.0, 0.0, 0.0, 0.0, 0.0, 0.0, 1.695675250362669E9, 0.0, 2023-09-25 15:54:10.362
240.0, -187500.02235174447, 3523.081961045499, -16876.639947490687, -37097.57025212887, -16017.595352839871, -39210.972393867065, -187500.02235174447, -47349.19784655546, 11761.979670760593, -11689.403556514211, -54486.89216219094, -51966.420050432695, -42555.26275101456, -38914.81177983425, -31337.212781573868, -41960.16990663647, -0.042, 1.004, 0.232, 192.0, 0.0, 0.0, 0.0, 0.0, 0.0, 0.0, 0.0, 0.0, 0.0, 1.695675250423679E9, 0.0, 2023-09-25 15:54:10.423
