%OpenBCI Raw EXG Data
%Number of channels = 16
%Sample Rate = 125 Hz
%Board = OpenBCI_GUI$BoardCytonSerialDaisy
Sample Index, EXG Channel 0, EXG Channel 1, EXG Channel 2, EXG Channel 3, EXG Channel 4, EXG Channel 5, EXG Channel 6, EXG Channel 7, EXG Channel 8, EXG Channel 9, EXG Channel 10, EXG Channel 11, EXG Channel 12, EXG Channel 13, EXG Channel 14, EXG Channel 15, Accel Channel 0, Accel Channel 1, Accel Channel 2, Other, Other, Other, Other, Other, Other, Other, Analog Channel 0, Analog Channel 1, Analog Channel 2, Timestamp, Other, Timestamp (Formatted)
0.0, -187500.02235174447, 3494.9858182651783, -16858.736200181986, -37121.956005329615, -16054.56513816895, -39254.69240602165, -187500.02235174447, -47379.57386727022, 0.0, 0.0, 0.0, 0.0, 0.0, 0.0, 0.0, 0.0, 0.0, 0.0, 0.0, 192.0, 0.0, 0.0, 0.0, 0.0, 0.0, 0.0, 0.0, 0.0, 0.0, 1.6956752635797E9, 0.0, 2023-09-25 15:54:23.579
224.0, -187500.02235174447, 3508.486271916184, -16850.5778134558, -37111.96477555809, -16047.144359009786, -39251.5631617979, -187500.02235174447, -47373.96357941194, 12285.345767181609, -11577.063688881837, -54462.68522294584, -51988.54827744344, -42552.93816959121, -38938.43757372351, -31377.40121810451, -41925.703516686386, -0.066, 0.988, 0.13, 192.0, 126.5, 120.0, 15.0, 112.0, 2.0, 8.0, 0.0, 0.0, 0.0, 1.695675263579708E9, 0.0, 2023-09-25 15:54:23.579
226.0, -187500.02235174447, 3506.116987003921, -16865.48642700749, -37128.84034262185, -16064.13168479582, -39264.28130439297, -187500.02235174447, -47391.263829620344, 12217.619981482028, -11566.379555032201, -54462.64051945693, -51990.91756235571, -42564.71753891916, -38936.76119288936, -31382.87739549606, -41945.86479018507, -0.066, 0.988, 0.13, 192.0, 0.0, 0.0, 0.0, 0.0, 0.0, 0.0, 0.0, 0.0, 0.0, 1.695675263579712E9, 0.0, 2023-09-25 15:54:23.579
228.0, -187500.02235174447, 3513.8059870965467, -16865.352316540757, -37127.186313532155, -16061.628289416825, -39261.42028110269, -187500.02235174447, -47386.12292839563, 12225.912478674947, -11574.515590013933, -54471.1565340944, -52000.84173689387, -42560.64952142829, -38949.32287327324, -31395.327317157666, -41931.4479150114, -0.066, 0.988, 0.13, 192.0, 0.0, 0.0, 0.0, 0.0, 0.0, 0.0, 0.0, 0.0, 0.0, 1.695675263579716E9, 0.0, 2023-09-25 15:54:23.579
230.0, -187500.02235174447, 3506.2287457261978, -16859.697325193563, -37123.02888906347, -16056.12976028082, -39262.24729564754, -187500.02235174447, -47383.12779463861, 12180.985472319779, -11562.646813708165, -54466.12739159196, -51998.494803726055, -42567.22093429815, -38938.102297556674, -31394.343840401634, -41945.84243844062, -0.066, 0.988, 0.13, 192.0, 0.0, 0.0, 0.0, 0.0, 0.0, 0.0, 0.0, 0.0, 0.0, 1.695675263579719E9, 0.0, 2023-09-25 15:54:23.579
232.0, -187500.02235174447, 3495.9469432767564, -16868.168636342125, -37133.44480197964, -16064.779885385024, -39261.643798547244, -187500.02235174447, -47390.48151856441, 12168.289681469165, -11565.351374787257, -54467.289682303635, -52000.953495616144, -42560.38130049483, -38945.50072497138, -31394.58970959064, -41940.34390930461, -0.066, 0.988, 0.13, 192.0, 0.0, 0.0, 0.0, 0.0, 0.0, 0.0, 0.0, 0.0, 0.0, 1.695675263579722E9, 0.0, 2023-09-25 15:54:23.579
234.0, -187500.02235174447, 3510.8108533395357, -16866.559310741344, -37130.85199962283, -16059.37076322684, -39272.8196707749, -187500.02235174447, -47390.54857379777, 12161.204178476833, -11559.137589828682, -54471.42475502787, -52004.59682996236, -42570.327826777444, -38942.61734993665, -31403.619814350586, -41947.228246596846, -0.066, 0.992, 0.114, 192.0, 126.5, 120.0, 15.5, 0.0, 1.5, 72.0, 0.0, 0.0, 0.0, 1.695675263579725E9, 0.0, 2023-09-25 15:54:23.579
236.0, -187500.02235174447, 3504.59706838096, -16878.048107391372, -37143.97247361809, -16071.217187788152, -39264.37071137079, -187500.02235174447, -47404.63017280462, 12140.55116660013, -11560.836322407285, -54474.3081300626, -52009.73773118707, -42563.66700692976, -38948.607617450674, -31404.335070173154, -41949.77634546475, -0.066, 0.992, 0.114, 192.0, 0.0, 0.0, 0.0, 0.0, 0.0, 0.0, 0.0, 0.0, 0.0, 1.695675263579728E9, 0.0, 2023-09-25 15:54:23.579
238.0, -187500.02235174447, 3508.821548083013, -16878.696307980576, -37145.0677090964, -16073.206493044674, -39275.211307431615, -187500.02235174447, -47406.48536759441, 12164.556940145128, -11572.794505690874, -54479.3596243095, -52023.26053658254, -42573.65823670128, -38953.68146344202, -31414.75098308933, -41940.45566802689, -0.066, 0.992, 0.114, 192.0, 0.0, 0.0, 0.0, 0.0, 0.0, 0.0, 0.0, 0.0, 0.0, 1.695675263579732E9, 0.0, 2023-09-25 15:54:23.579
0.0, -93750.01117587223, 1772.6721492614925, -8476.67556723065, -18567.57176727912, -8060.575492450655, -19608.78307924069, -93750.01117587223, -23686.903558600374, 6077.841648798186, -5783.558581299613, -27235.108880413638, -26010.926188340927, -21281.20765462013, -19477.131304398932, -15707.576657244761, -20969.266709001866, -0.05, 0.998, 0.136, 192.0, 127.0, 56.0, 15.5, 24.0, 2.0, 32.0, 0.0, 0.0, 0.0, 1.695675263745363E9, 0.0, 2023-09-25 15:54:23.745
2.0, -187500.02235174447, 3544.6513944448707, -16959.92254733116, -37140.93263637217, -16130.426958850261, -39208.8042746549, -187500.02235174447, -47376.7798992133, 11622.862413270763, -11418.679227671531, -54467.848475915016, -51933.54063433893, -42619.94869946822, -38969.573553749746, -31367.11941565507, -41847.13713492598, -0.05, 0.998, 0.136, 192.0, 0.0, 0.0, 0.0, 0.0, 0.0, 0.0, 0.0, 0.0, 0.0, 1.695675263745375E9, 0.0, 2023-09-25 15:54:23.745
4.0, -187500.02235174447, 3568.433650545317, -16944.633954123732, -37126.04637456493, -16107.09173763892, -39214.816893913376, -187500.02235174447, -47357.75856468184, 11700.780594441962, -11409.671474656043, -54467.96023463729, -51930.679611048654, -42619.34520236793, -38967.49484151541, -31368.326409855654, -41821.29851833564, -0.05, 0.998, 0.136, 192.0, 0.0, 0.0, 0.0, 0.0, 0.0, 0.0, 0.0, 0.0, 0.0, 1.695675263745379E9, 0.0, 2023-09-25 15:54:23.745
6.0, -187500.02235174447, 3545.634871200904, -16961.911852587684, -37148.04049110896, -16127.565935559982, -39210.52535897796, -187500.02235174447, -47370.432003787995, 11618.526174846433, -11397.355663461169, -54456.96317636528, -51920.42016034367, -42610.382152841354, -38947.91471337256, -31356.569392272162, -41859.54235309867, -0.05, 0.998, 0.136, 192.0, 0.0, 0.0, 0.0, 0.0, 0.0, 0.0, 0.0, 0.0, 0.0, 1.695675263745382E9, 0.0, 2023-09-25 15:54:23.745
8.0, -187500.02235174447, 3549.635833458404, -16962.940032832626, -37146.900552141735, -16123.564973302482, -39207.91020487669, -187500.02235174447, -47370.54376251027, 11704.803908443917, -11422.88135562913, -54480.857191188006, -51940.201454186616, -42630.163446684295, -38975.943800919515, -31383.54794782972, -41812.13430310897, -0.044, 1.0, 0.14400000000000002, 192.0, 127.0, 80.0, 15.5, 32.0, 2.0, 64.0, 0.0, 0.0, 0.0, 1.695675263745387E9, 0.0, 2023-09-25 15:54:23.745
10.0, -187500.02235174447, 3547.4230107573285, -16954.759294361986, -37144.71008118511, -16119.72047325617, -39209.31836477737, -187500.02235174447, -47370.633169488094, 11642.710762347075, -11402.988303063907, -54466.797943925616, -51926.72335228007, -42621.848597746924, -38957.81653616626, -31363.40902607549, -41839.58224530009, -0.044, 1.0, 0.14400000000000002, 192.0, 0.0, 0.0, 0.0, 0.0, 0.0, 0.0, 0.0, 0.0, 0.0, 1.69567526374539E9, 0.0, 2023-09-25 15:54:23.745
12.0, -187500.02235174447, 3553.145057337887, -16948.7019716146, -37134.40592699122, -16115.607752276392, -39211.37472526726, -187500.02235174447, -47371.638997988586, 11702.993417143038, -11405.692864142999, -54466.97675788126, -51925.739875524036, -42611.54444355303, -38961.77279493485, -31367.342933099622, -41817.49872177824, -0.044, 1.0, 0.14400000000000002, 192.0, 0.0, 0.0, 0.0, 0.0, 0.0, 0.0, 0.0, 0.0, 0.0, 1.695675263745394E9, 0.0, 2023-09-25 15:54:23.745
14.0, -187500.02235174447, 3559.8505806744793, -16947.4502739251, -37133.44480197964, -16114.825441220457, -39205.160940308684, -187500.02235174447, -47364.911122907535, 11637.435750655623, -11393.935846559507, -54455.82323739806, -51918.78848299843, -42614.40546684331, -38949.25581803988, -31357.44111030592, -41849.30525413815, -0.044, 1.0, 0.14400000000000002, 192.0, 0.0, 0.0, 0.0, 0.0, 0.0, 0.0, 0.0, 0.0, 0.0, 1.695675263745397E9, 0.0, 2023-09-25 15:54:23.745
16.0, -187500.02235174447, 3558.9118074073563, -16963.20825376609, -37150.43212776567, -16125.107243669898, -39216.33681253634, -187500.02235174447, -47379.596219014675, 11694.432699016656, -11408.330369988726, -54469.63661547144, -51932.758323283, -42616.08184767745, -38968.70183571599, -31365.64420052102, -41820.069172390606, -0.044, 1.0, 0.14400000000000002, 192.0, 0.0, 0.0, 0.0, 0.0, 0.0, 0.0, 0.0, 0.0, 0.0, 1.695675263806972E9, 0.0, 2023-09-25 15:54:23.806
18.0, -187500.02235174447, 3546.9759758682226, -16962.113018287782, -37156.15417434623, -16122.156813401798, -39221.388306783236, -187500.02235174447, -47381.42906206001, 11659.653384644198, -11406.16225077656, -54475.98451089675, -51939.03916347494, -42625.73780128215, -38960.47639375644, -31368.281706366746, -41831.49091380727, -0.052000000000000005, 1.002, 0.154, 192.0, 127.0, 48.0, 15.5, 40.0, 2.0, 104.0, 0.0, 0.0, 0.0, 1.695675263806982E9, 0.0, 2023-09-25 15:54:23.806
20.0, -187500.02235174447, 3562.9798248982224, -16948.612564636776, -37140.39619450524, -16104.633045748837, -39203.17163505216, -187500.02235174447, -47362.877114162104, 11699.88652466375, -11401.356625718669, -54470.64244397193, -51933.22770991656, -42610.605670285906, -38957.92829488854, -31361.196203374413, -41809.60855598552, -0.052000000000000005, 1.002, 0.154, 192.0, 0.0, 0.0, 0.0, 0.0, 0.0, 0.0, 0.0, 0.0, 0.0, 1.695675263806986E9, 0.0, 2023-09-25 15:54:23.806
22.0, -187500.02235174447, 3565.729089466225, -16950.847739082306, -37140.2173805496, -16106.599999260903, -39196.13083554874, -187500.02235174447, -47358.697337948965, 11635.893480288207, -11381.284759197802, -54458.17017056587, -51919.28022137645, -42599.16157712479, -38929.1392480301, -31349.617999746562, -41846.28776863668, -0.052000000000000005, 1.002, 0.154, 192.0, 0.0, 0.0, 0.0, 0.0, 0.0, 0.0, 0.0, 0.0, 0.0, 1.695675263806989E9, 0.0, 2023-09-25 15:54:23.806
24.0, -187500.02235174447, 3563.113935364954, -16952.434712938633, -37140.15032531623, -16103.157830614786, -39193.04629481391, -187500.02235174447, -47355.09870709166, 11661.553282922898, -11393.712329114955, -54468.09434510402, -51920.84484348832, -42597.37343756836, -38941.23154178042, -31359.788043473727, -41826.70764049383, -0.052000000000000005, 1.002, 0.154, 192.0, 0.0, 0.0, 0.0, 0.0, 0.0, 0.0, 0.0, 0.0, 0.0, 1.695675263806993E9, 0.0, 2023-09-25 15:54:23.806
26.0, -187500.02235174447, 3558.643586473893, -16952.747637361008, -37142.63136895077, -16102.375519558851, -39196.577870437846, -187500.02235174447, -47353.08705009068, 11636.049942499392, -11377.507314384857, -54459.13129557745, -51908.461977060084, -42584.40942578428, -38926.434686951005, -31349.953275913394, -41844.54433256917, -0.052000000000000005, 1.002, 0.154, 192.0, 0.0, 0.0, 0.0, 0.0, 0.0, 0.0, 0.0, 0.0, 0.0, 1.695675263806996E9, 0.0, 2023-09-25 15:54:23.806
28.0, -187500.02235174447, 3559.0012143851777, -16957.73207637454, -37151.728528944084, -16110.690368496225, -39205.876196131256, -187500.02235174447, -47360.731346694396, 11644.476550159045, -11385.576294133221, -54460.4053450114, -51902.382302568236, -42576.45220475819, -38937.27528301183, -31352.143746870013, -41834.530751053186, -0.046, 1.004, 0.162, 192.0, 127.0, 72.0, 15.5, 48.0, 2.5, 8.0, 0.0, 0.0, 0.0, 1.695675263806999E9, 0.0, 2023-09-25 15:54:23.806
30.0, -187500.02235174447, 3548.406487513362, -16966.225739267556, -37156.44474702415, -16119.698121511714, -39213.364030523786, -187500.02235174447, -47373.53889626729, 11656.747657865008, -11398.383843706113, -54469.59191198253, -51906.24915435901, -42588.32098106396, -38945.724242415934, -31369.91338371198, -41833.39081208596, -0.046, 1.004, 0.162, 192.0, 0.0, 0.0, 0.0, 0.0, 0.0, 0.0, 0.0, 0.0, 0.0, 1.695675263864891E9, 0.0, 2023-09-25 15:54:23.864
32.0, -187500.02235174447, 3562.890417920401, -16961.82244560986, -37149.292188798456, -16113.640798764325, -39205.27269903096, -187500.02235174447, -47367.05689037525, 11648.343401949813, -11396.573352405234, -54466.70853694779, -51897.86725018827, -42577.748605936606, -38939.8904371131, -31364.951296442905, -41836.05066967615, -0.046, 1.004, 0.162, 192.0, 0.0, 0.0, 0.0, 0.0, 0.0, 0.0, 0.0, 0.0, 0.0, 1.695675263864904E9, 0.0, 2023-09-25 15:54:23.864
34.0, -187500.02235174447, 3560.923464408334, -16956.726247874052, -37141.20085730563, -16110.71272024068, -39207.30670777639, -187500.02235174447, -47362.85476241765, 11660.458047444588, -11389.733718601909, -54463.713403190784, -51891.184078596125, -42576.98864662512, -38931.195608519985, -31366.135938899035, -41839.40343134444, -0.046, 1.004, 0.162, 192.0, 0.0, 0.0, 0.0, 0.0, 0.0, 0.0, 0.0, 0.0, 0.0, 1.695675263864908E9, 0.0, 2023-09-25 15:54:23.864
36.0, -187500.02235174447, 3559.984691141211, -16959.944899075617, -37144.75478467403, -16114.490165053627, -39196.98020183804, -187500.02235174447, -47362.89946590656, 11637.59221286681, -11391.566561647245, -54458.79601941062, -51884.67972095963, -42566.88565813132, -38926.74761137338, -31359.4527673069, -41840.00692844474, -0.046, 1.004, 0.162, 192.0, 0.0, 0.0, 0.0, 0.0, 0.0, 0.0, 0.0, 0.0, 0.0, 1.695675263864911E9, 0.0, 2023-09-25 15:54:23.864
38.0, -187500.02235174447, 3563.18099059832, -16958.201463008103, -37138.652758437725, -16110.176278373752, -39218.460228259595, -187500.02235174447, -47362.385375784084, 11690.632902459252, -11404.485869942411, -54472.89997016192, -51898.15782286618, -42582.95656239469, -38936.783544633814, -31376.5071483263, -41814.01184964322, -0.048, 1.006, 0.166, 192.0, 127.0, 64.0, 15.5, 56.0, 2.5, 24.0, 0.0, 0.0, 0.0, 1.695675263864914E9, 0.0, 2023-09-25 15:54:23.864
40.0, -187500.02235174447, 3567.047842389088, -16949.327820459344, -37130.78494438946, -16104.767156215568, -39192.53220469144, -187500.02235174447, -47354.07052684671, 11639.648573356697, -11389.666663368544, -54458.21487405478, -51887.96542739456, -42566.840954642415, -38922.92546307152, -31361.97851443035, -41838.66582377742, -0.048, 1.006, 0.166, 192.0, 0.0, 0.0, 0.0, 0.0, 0.0, 0.0, 0.0, 0.0, 0.0, 1.695675263864917E9, 0.0, 2023-09-25 15:54:23.864
42.0, -187500.02235174447, 3574.4462698037946, -16940.051846510392, -37120.905473340215, -16094.194781088208, -39198.00838208299, -187500.02235174447, -47345.73332616488, 11681.714556421586, -11388.906704057063, -54460.02536535566, -51888.323055305846, -42571.914800633764, -38919.01390779184, -31367.07471216616, -41825.21007361532, -0.048, 1.006, 0.166, 192.0, 0.0, 0.0, 0.0, 0.0, 0.0, 0.0, 0.0, 0.0, 0.0, 1.69567526386492E9, 0.0, 2023-09-25 15:54:23.864
44.0, -187500.02235174447, 3557.593054484493, -16949.953669304094, -37136.6634531812, -16110.355092329395, -39198.41071348319, -187500.02235174447, -47362.608893228644, 11628.271535428947, -11389.085518012706, -54457.991356610226, -51889.5971047398, -42561.67770167324, -38924.64654739458, -31365.57714528765, -41839.82811448909, -0.048, 1.006, 0.166, 192.0, 0.0, 0.0, 0.0, 0.0, 0.0, 0.0, 0.0, 0.0, 0.0, 1.695675263864923E9, 0.0, 2023-09-25 15:54:23.864
46.0, -187500.02235174447, 3551.066345103544, -16955.69806762911, -37140.57500846088, -16113.104356897398, -39217.119123592274, -187500.02235174447, -47366.76631769733, 11692.17517282667, -11401.669550141043, -54469.100173604515, -51902.40465431269, -42573.27825704554, -38939.21988477944, -31381.24571815082, -41819.46567529031, -0.048, 1.006, 0.166, 192.0, 0.0, 0.0, 0.0, 0.0, 0.0, 0.0, 0.0, 0.0, 0.0, 1.695675263924828E9, 0.0, 2023-09-25 15:54:23.924
48.0, -187500.02235174447, 3554.08383060501, -16963.40941946619, -37151.14738358824, -16119.362845344884, -39214.28045204645, -187500.02235174447, -47370.05202413226, 11630.73022731903, -11404.240000753403, -54473.6599294734, -51907.903183448696, -42576.02752161354, -38946.61831219415, -31385.000811219314, -41847.91944598192, -0.048, 1.0, 0.162, 192.0, 127.0, 64.0, 15.5, 32.0, 2.5, 8.0, 0.0, 0.0, 0.0, 1.695675263924837E9, 0.0, 2023-09-25 15:54:23.924
50.0, -187500.02235174447, 3561.1693335973423, -16955.87688158475, -37140.97733986108, -16109.371615573362, -39219.778981182455, -187500.02235174447, -47362.49713450637, 11697.651350218219, -11389.018462779339, -54469.9048364049, -51906.27150610346, -42575.44637625771, -38930.99444281989, -31384.665535052485, -41827.825227716596, -0.048, 1.0, 0.162, 192.0, 0.0, 0.0, 0.0, 0.0, 0.0, 0.0, 0.0, 0.0, 0.0, 1.695675263924841E9, 0.0, 2023-09-25 15:54:23.924
52.0, -187500.02235174447, 3529.921594848823, -16961.26365199848, -37150.677996954684, -16115.741862743123, -39218.52728349296, -187500.02235174447, -47368.219181086926, 11650.980907795538, -11418.701579415987, -54474.5092957627, -51916.46390157508, -42583.35889379489, -38949.32287327324, -31384.576128074663, -41841.21392264532, -0.048, 1.0, 0.162, 192.0, 0.0, 0.0, 0.0, 0.0, 0.0, 0.0, 0.0, 0.0, 0.0, 1.695675263924844E9, 0.0, 2023-09-25 15:54:23.924
54.0, -187500.02235174447, 3552.116877092943, -16954.111093772783, -37137.24459853704, -16104.52128702656, -39218.01319337049, -187500.02235174447, -47357.19977107046, 11723.489966808555, -11425.07182658575, -54480.67837723236, -51922.27535513346, -42583.76122519508, -38952.96620761946, -31383.72676178536, -41815.84469268855, -0.048, 1.0, 0.162, 192.0, 0.0, 0.0, 0.0, 0.0, 0.0, 0.0, 0.0, 0.0, 0.0, 1.695675263924847E9, 0.0, 2023-09-25 15:54:23.924
56.0, -187500.02235174447, 3544.8749118894234, -16947.83025358084, -37130.270854266986, -16106.465888794171, -39204.535091463935, -187500.02235174447, -47348.773163410806, 11646.421151926656, -11409.693826400498, -54467.53555149264, -51911.680628261645, -42580.49787050461, -38937.051765567274, -31372.886165724536, -41856.547219341664, -0.048, 1.0, 0.162, 192.0, 0.0, 0.0, 0.0, 0.0, 0.0, 0.0, 0.0, 0.0, 0.0, 1.69567526392485E9, 0.0, 2023-09-25 15:54:23.924
58.0, -187500.02235174447, 3538.728182164214, -16961.084838042836, -37134.7635549025, -16115.80891797649, -39210.45830374459, -187500.02235174447, -47357.646805959565, 11718.729045239574, -11417.204012537482, -54476.297435319124, -51916.754474253, -42590.533803765036, -38944.22667553743, -31382.564471073685, -41820.73972472426, -0.046, 1.008, 0.158, 192.0, 127.0, 72.0, 15.5, 64.0, 2.0, 120.0, 0.0, 0.0, 0.0, 1.695675263924854E9, 0.0, 2023-09-25 15:54:23.924
60.0, -187500.02235174447, 3553.927368393823, -16948.746675103506, -37123.341813485844, -16106.130612627341, -39206.88202463174, -187500.02235174447, -47351.075393089704, 11662.78262886794, -11405.312884487259, -54467.96023463729, -51913.66993351817, -42588.16451885278, -38937.56585568975, -31382.184491417946, -41845.08077443609, -0.046, 1.008, 0.158, 192.0, 0.0, 0.0, 0.0, 0.0, 0.0, 0.0, 0.0, 0.0, 0.0, 1.695675263985143E9, 0.0, 2023-09-25 15:54:23.985
62.0, -187500.02235174447, 3564.119763865443, -16944.74571284601, -37114.87050233728, -16102.867257936867, -39205.4068094977, -187500.02235174447, -47348.54964596625, 11717.32088533889, -11404.552925175778, -54465.00980436919, -51910.47363406106, -42579.80496642649, -38939.733974901916, -31381.78216001775, -41817.58812875606, -0.046, 1.008, 0.158, 192.0, 0.0, 0.0, 0.0, 0.0, 0.0, 0.0, 0.0, 0.0, 0.0, 1.69567526398516E9, 0.0, 2023-09-25 15:54:23.985
64.0, -187500.02235174447, 3550.3510892809736, -16953.619355394763, -37120.95017682912, -16112.165583630274, -39205.026829841954, -187500.02235174447, -47353.35527102414, 11658.200521254603, -11397.467422183445, -54457.29845253211, -51903.81281421338, -42583.671818217255, -38931.08384979771, -31378.78702626074, -41845.55016106965, -0.046, 1.008, 0.158, 192.0, 0.0, 0.0, 0.0, 0.0, 0.0, 0.0, 0.0, 0.0, 0.0, 1.695675263985164E9, 0.0, 2023-09-25 15:54:23.985
66.0, -187500.02235174447, 3556.184894583809, -16947.249108225, -37111.96477555809, -16106.75646147209, -39212.55936772339, -187500.02235174447, -47348.1249628216, 11710.883582935761, -11412.934829346517, -54467.692013703825, -51914.251078874004, -42588.2539258306, -38944.71841391545, -31386.006639719802, -41821.27616659119, -0.046, 1.008, 0.158, 192.0, 0.0, 0.0, 0.0, 0.0, 0.0, 0.0, 0.0, 0.0, 0.0, 1.695675263985167E9, 0.0, 2023-09-25 15:54:23.985
68.0, -187500.02235174447, 3564.5220952656387, -16935.73795983052, -37102.59939463132, -16101.61556024737, -39196.89079486022, -187500.02235174447, -47341.26297727382, 11660.838027100328, -11393.958198303962, -54450.72703966225, -51899.94596242261, -42584.40942578428, -38927.775791618325, -31370.852156979105, -41851.80864951714, -0.046, 1.018, 0.162, 192.0, 127.0, 72.0, 15.5, 104.0, 2.5, 8.0, 0.0, 0.0, 0.0, 1.69567526398517E9, 0.0, 2023-09-25 15:54:23.985
70.0, -187500.02235174447, 3545.6795746898147, -16951.227718738046, -37117.30684248291, -16114.356054586895, -39204.17746355265, -187500.02235174447, -47355.59044546967, 11695.304417050413, -11405.424643209535, -54458.7066124328, -51909.51250904948, -42582.17425133875, -38936.023585322335, -31377.088293682136, -41825.25477710424, -0.046, 1.018, 0.162, 192.0, 0.0, 0.0, 0.0, 0.0, 0.0, 0.0, 0.0, 0.0, 0.0, 1.695675263985173E9, 0.0, 2023-09-25 15:54:23.985
72.0, -187500.02235174447, 3558.9788626407226, -16944.566898890364, -37108.90258656771, -16103.224885848153, -39204.44568448611, -187500.02235174447, -47350.293082033764, 11679.07705057586, -11399.389672206602, -54461.88056014545, -51916.32979110835, -42595.40648405629, -38934.16839053254, -31382.07273269567, -41834.19547488636, -0.046, 1.018, 0.162, 192.0, 0.0, 0.0, 0.0, 0.0, 0.0, 0.0, 0.0, 0.0, 0.0, 1.695675263985176E9, 0.0, 2023-09-25 15:54:23.985
74.0, -187500.02235174447, 3530.547443693572, -16966.98569857904, -37132.75189790152, -16123.38615934684, -39210.63711770024, -187500.02235174447, -47374.85764919015, 11702.367568298288, -11411.839593868208, -54472.49763876172, -51922.588279555835, -42596.00998115659, -38945.76894590485, -31381.87156699557, -41820.00211715724, -0.046, 1.018, 0.162, 192.0, 0.0, 0.0, 0.0, 0.0, 0.0, 0.0, 0.0, 0.0, 0.0, 1.69567526398518E9, 0.0, 2023-09-25 15:54:23.985
76.0, -187500.02235174447, 3554.2626445606525, -16949.573689648354, -37112.992955803034, -16104.744804471113, -39221.96945213908, -187500.02235174447, -47363.4806112624, 11699.640655474741, -11409.939695589506, -54473.838743429034, -51926.18691041314, -42612.30440286451, -38947.08769882771, -31383.50324434081, -41835.022489431205, -0.046, 1.018, 0.162, 192.0, 0.0, 0.0, 0.0, 0.0, 0.0, 0.0, 0.0, 0.0, 0.0, 1.695675264045382E9, 0.0, 2023-09-25 15:54:24.045
78.0, -187500.02235174447, 3563.851542931979, -16951.29477397141, -37114.803447103914, -16109.28220859554, -39206.03265834244, -187500.02235174447, -47361.73717519488, 11685.98373961255, -11401.893067585597, -54462.81933341257, -51915.79334924142, -42593.64069624433, -38943.2431987814, -31373.467311080374, -41840.74453601176, -0.044, 1.022, 0.17, 192.0, 127.0, 80.0, 15.5, 120.0, 2.5, 40.0, 0.0, 0.0, 0.0, 1.695675264045396E9, 0.0, 2023-09-25 15:54:24.045
80.0, -187500.02235174447, 3544.7408014226917, -16954.69223912862, -37119.05027855042, -16112.858487708389, -39214.503969491, -187500.02235174447, -47363.54766649576, 11701.987588642549, -11401.535439674311, -54464.67452820236, -51919.146110909714, -42601.217937614674, -38942.41618423655, -31377.02123844877, -41837.682347021386, -0.044, 1.022, 0.17, 192.0, 0.0, 0.0, 0.0, 0.0, 0.0, 0.0, 0.0, 0.0, 0.0, 1.695675264045407E9, 0.0, 2023-09-25 15:54:24.045
82.0, -187500.02235174447, 3538.638775186393, -16953.284079227935, -37118.178560516666, -16110.064519651476, -39211.62059445627, -187500.02235174447, -47359.680814704996, 11687.682472191153, -11404.977608320429, -54473.235246328746, -51928.51149183649, -42604.52599579406, -38949.032300595325, -31380.329296628155, -41841.25862613424, -0.044, 1.022, 0.17, 192.0, 0.0, 0.0, 0.0, 0.0, 0.0, 0.0, 0.0, 0.0, 0.0, 1.695675264045412E9, 0.0, 2023-09-25 15:54:24.045
84.0, -187500.02235174447, 3533.6543361728595, -16958.760256619484, -37126.33694724285, -16111.204458618697, -39213.60989971279, -187500.02235174447, -47363.52531475131, 11704.043949132438, -11395.321654715735, -54469.32369104907, -51921.76126501099, -42605.1071411499, -38942.036204580814, -31373.64612503602, -41839.69400402236, -0.044, 1.022, 0.17, 192.0, 0.0, 0.0, 0.0, 0.0, 0.0, 0.0, 0.0, 0.0, 0.0, 1.695675264045418E9, 0.0, 2023-09-25 15:54:24.045
86.0, -187500.02235174447, 3545.612519456449, -16960.280175242446, -37132.55073220143, -16111.271513852063, -39210.078324088856, -187500.02235174447, -47355.411631514035, 11679.233512787046, -11406.676340899032, -54476.58800799704, -51931.64073606023, -42608.2587371181, -38956.69894894349, -31382.67622979596, -41838.53171331069, -0.044, 1.022, 0.17, 192.0, 0.0, 0.0, 0.0, 0.0, 0.0, 0.0, 0.0, 0.0, 0.0, 1.695675264045423E9, 0.0, 2023-09-25 15:54:24.045
88.0, -187500.02235174447, 3541.924481621323, -16951.250070482503, -37123.11829604129, -16100.453269535694, -39201.89758561821, -187500.02235174447, -47342.067640074216, 11704.803908443917, -11389.309035457258, -54462.43935375683, -51919.41433184318, -42599.698018991716, -38943.53377145932, -31369.220479633866, -41834.64250977546, -0.044, 1.014, 0.182, 192.0, 127.0, 80.0, 15.5, 88.0, 2.5, 88.0, 0.0, 0.0, 0.0, 1.695675264045429E9, 0.0, 2023-09-25 15:54:24.045
90.0, -187500.02235174447, 3520.578565666505, -16972.5065794595, -37148.241656809056, -16113.931371442244, -39218.84020791533, -187500.02235174447, -47361.983044383895, 11670.181056282647, -11404.821146109241, -54477.01269114169, -51927.08098019135, -42606.537652795036, -38950.93219887403, -31377.714142526886, -41836.02831793169, -0.044, 1.014, 0.182, 192.0, 0.0, 0.0, 0.0, 0.0, 0.0, 0.0, 0.0, 0.0, 0.0, 1.695675264105637E9, 0.0, 2023-09-25 15:54:24.105
92.0, -187500.02235174447, 3519.416274954829, -16978.87682662926, -37149.80627892092, -16116.926505199255, -39223.71288820659, -187500.02235174447, -47363.234742073386, 11729.502586067032, -11410.073806056238, -54487.11567963549, -51936.89339600723, -42615.94773721072, -38965.036149625324, -31381.290421639733, -41821.589091013564, -0.044, 1.014, 0.182, 192.0, 0.0, 0.0, 0.0, 0.0, 0.0, 0.0, 0.0, 0.0, 0.0, 1.695675264105657E9, 0.0, 2023-09-25 15:54:24.105
94.0, -187500.02235174447, 3510.542632406072, -16975.03232658295, -37153.15904058922, -16118.468775566671, -39225.94806265212, -187500.02235174447, -47362.675948462005, 11667.11886729227, -11408.196259521992, -54488.09915639152, -51938.592128585835, -42615.23248138815, -38966.846640926204, -31387.235985664844, -41855.94372224137, -0.044, 1.014, 0.182, 192.0, 0.0, 0.0, 0.0, 0.0, 0.0, 0.0, 0.0, 0.0, 0.0, 1.695675264105662E9, 0.0, 2023-09-25 15:54:24.105
96.0, -187500.02235174447, 3511.436702184284, -16982.698974931118, -37158.59051449186, -16125.219002392174, -39226.283338818954, -187500.02235174447, -47367.59333224218, 11727.401522088234, -11399.836707095708, -54486.40042381292, -51936.13343669575, -42609.21986212968, -38960.7446146899, -31387.39244787603, -41833.36846034151, -0.044, 1.014, 0.182, 192.0, 0.0, 0.0, 0.0, 0.0, 0.0, 0.0, 0.0, 0.0, 0.0, 1.695675264105667E9, 0.0, 2023-09-25 15:54:24.105
98.0, -187500.02235174447, 3513.1577865073427, -16978.809771395896, -37162.52442151599, -16115.339531342928, -39222.95292889511, -187500.02235174447, -47370.588465999186, 11670.762201638485, -11400.440204196002, -54493.73179599426, -51943.420105388184, -42617.53471106705, -38961.41516702356, -31386.856006009104, -41858.42476587591, -0.046, 1.006, 0.194, 192.0, 127.0, 72.0, 15.5, 56.0, 3.0, 8.0, 0.0, 0.0, 0.0, 1.695675264105673E9, 0.0, 2023-09-25 15:54:24.105
100.0, -187500.02235174447, 3511.4590539287396, -16986.02938485496, -37171.21925010911, -16122.46973782417, -39232.8100481999, -187500.02235174447, -47386.659370262554, 11730.4190075897, -11386.850343567176, -54489.14968838092, -51939.17327394167, -42607.47642606216, -38956.87776289914, -31378.943488471927, -41840.4763150783, -0.046, 1.006, 0.194, 192.0, 0.0, 0.0, 0.0, 0.0, 0.0, 0.0, 0.0, 0.0, 0.0, 1.695675264105677E9, 0.0, 2023-09-25 15:54:24.105
102.0, -187500.02235174447, 3504.1723852363093, -16999.17221059468, -37190.15117766275, -16137.646572309324, -39236.18516161265, -187500.02235174447, -47388.201640629966, 11667.051812058904, -11386.87269531163, -54505.108833922015, -51948.292785679434, -42620.462789590696, -38967.830117682235, -31397.02604973627, -41867.4325188914, -0.046, 1.006, 0.194, 192.0, 0.0, 0.0, 0.0, 0.0, 0.0, 0.0, 0.0, 0.0, 0.0, 1.695675264105682E9, 0.0, 2023-09-25 15:54:24.105
104.0, -187500.02235174447, 3494.7846525650803, -16987.102268588813, -37185.61377353832, -16119.251086622608, -39231.3571848103, -187500.02235174447, -47345.50980872033, 11730.754283756529, -11403.63650365311, -54508.4168921014, -51952.45021014813, -42618.51818782308, -38975.09443463021, -31390.432285121955, -41841.61625404552, -0.046, 1.006, 0.194, 192.0, 0.0, 0.0, 0.0, 0.0, 0.0, 0.0, 0.0, 0.0, 0.0, 1.695675264105686E9, 0.0, 2023-09-25 15:54:24.105
106.0, -187500.02235174447, 3505.0217515256113, -16971.009012580995, -37175.555488533435, -16098.732185212635, -39217.700268948116, -187500.02235174447, -47327.60606141163, 11659.653384644198, -11395.411061693558, -54497.28572336266, -51945.54352111144, -42604.07896090495, -38964.87968741413, -31359.475119051353, -41870.181783459404, -0.046, 1.006, 0.194, 192.0, 0.0, 0.0, 0.0, 0.0, 0.0, 0.0, 0.0, 0.0, 0.0, 1.695675264165899E9, 0.0, 2023-09-25 15:54:24.165
108.0, -187500.02235174447, 3493.9352862757787, -16983.011899353492, -37189.905308473746, -16110.556258029494, -39226.88683591924, -187500.02235174447, -47349.51077097783, 11716.493870794044, -11396.640407638599, -54496.77163324018, -51941.92253850967, -42596.72523697916, -38969.640608983114, -31353.797775959705, -41839.649300533456, -0.042, 0.98, 0.212, 192.0, 127.0, 88.0, 15.0, 80.0, 3.0, 80.0, 0.0, 0.0, 0.0, 1.695675264165913E9, 0.0, 2023-09-25 15:54:24.165
110.0, -187500.02235174447, 3507.189870737776, -16977.088687072835, -37185.83729098288, -16109.371615573362, -39218.884911404246, -187500.02235174447, -47347.63322444358, 11655.138332264225, -11385.464535410945, -54491.49662154873, -51939.46384661959, -42604.011905671585, -38960.43169026753, -31350.82499394715, -41866.44904213537, -0.042, 0.98, 0.212, 192.0, 0.0, 0.0, 0.0, 0.0, 0.0, 0.0, 0.0, 0.0, 0.0, 1.695675264165919E9, 0.0, 2023-09-25 15:54:24.165
112.0, -187500.02235174447, 3509.670914372315, -16990.902065146216, -37202.42228536872, -16121.888592468333, -39232.854751688814, -187500.02235174447, -47371.14725961057, 11714.906896937717, -11390.49367791339, -54500.482022819764, -51939.486198364044, -42596.97110616817, -38970.57938225024, -31356.994075416813, -41834.262530119726, -0.042, 0.98, 0.212, 192.0, 0.0, 0.0, 0.0, 0.0, 0.0, 0.0, 0.0, 0.0, 0.0, 1.695675264165924E9, 0.0, 2023-09-25 15:54:24.165
114.0, -187500.02235174447, 3514.8565190859463, -16988.063393600394, -37201.014125468035, -16124.973133203166, -39238.7109087361, -187500.02235174447, -47378.56803876973, 11665.576596924853, -11387.029157522817, -54505.44411008884, -51944.18006469966, -42613.667859276284, -38970.86995492816, -31361.419720818965, -41866.29257992418, -0.042, 0.98, 0.212, 192.0, 0.0, 0.0, 0.0, 0.0, 0.0, 0.0, 0.0, 0.0, 0.0, 1.69567526416593E9, 0.0, 2023-09-25 15:54:24.165
116.0, -187500.02235174447, 3515.4376644417844, -16993.986605881048, -37206.669116815225, -16131.298676884018, -39229.569045253884, -187500.02235174447, -47367.66038747554, 11703.485155521055, -11393.265294225848, -54510.763825269205, -51947.331660667856, -42608.81753072948, -38974.535641018825, -31360.190374873924, -41847.38300411499, -0.042, 0.98, 0.212, 192.0, 0.0, 0.0, 0.0, 0.0, 0.0, 0.0, 0.0, 0.0, 0.0, 1.695675264165935E9, 0.0, 2023-09-25 15:54:24.165
118.0, -187500.02235174447, 3512.666048129326, -16989.31509128989, -37199.65066905626, -16127.498880326615, -39221.29889980542, -187500.02235174447, -47347.297948276755, 11686.341367523833, -11397.02038729434, -54515.94942998284, -51953.38898341525, -42626.609519315905, -38975.42971079704, -31352.68018873694, -41850.266379149725, -0.042, 0.966, 0.226, 192.0, 127.0, 88.0, 15.0, 24.0, 3.5, 8.0, 0.0, 0.0, 0.0, 1.695675264165941E9, 0.0, 2023-09-25 15:54:24.165
120.0, -187500.02235174447, 3501.356065434941, -16985.962329621594, -37198.46602660013, -16127.767101260079, -39220.404830027204, -187500.02235174447, -47346.739154665374, 11710.011864902004, -11395.25459948237, -54507.23224964527, -51944.00125074402, -42611.72325750867, -38969.73001596094, -31346.06407237817, -41833.18964638587, -0.042, 0.966, 0.226, 192.0, 0.0, 0.0, 0.0, 0.0, 0.0, 0.0, 0.0, 0.0, 0.0, 1.695675264224804E9, 0.0, 2023-09-25 15:54:24.224
122.0, -187500.02235174447, 3513.090731273977, -16977.714535917585, -37195.001506209555, -16116.635932521336, -39217.00736487, -187500.02235174447, -47331.629375413584, 11688.688300691641, -11387.565599389745, -54503.25363913222, -51937.6086518298, -42618.27231863407, -38968.43361478253, -31334.619979217052, -41843.94083546887, -0.042, 0.966, 0.226, 192.0, 0.0, 0.0, 0.0, 0.0, 0.0, 0.0, 0.0, 0.0, 0.0, 1.695675264224821E9, 0.0, 2023-09-25 15:54:24.224
124.0, -187500.02235174447, 3518.857481343446, -16985.89527438823, -37201.46116035714, -16123.252048880107, -39217.99084162603, -187500.02235174447, -47343.81107614173, 11704.64744623273, -11394.82991633772, -54508.0145607012, -51941.810779787396, -42612.550272053515, -38977.28490558683, -31337.3468920406, -41823.064306147615, -0.042, 0.966, 0.226, 192.0, 0.0, 0.0, 0.0, 0.0, 0.0, 0.0, 0.0, 0.0, 0.0, 1.695675264224826E9, 0.0, 2023-09-25 15:54:24.224
126.0, -187500.02235174447, 3532.22382452772, -16970.673736414163, -37186.64195378327, -16103.09077538142, -39218.23671081504, -187500.02235174447, -47329.79653236825, 11700.244152575035, -11383.25171270987, -54504.10300542152, -51935.19466342863, -42617.445304089226, -38960.52109724535, -31334.53057223923, -41835.4248208314, -0.042, 0.966, 0.226, 192.0, 0.0, 0.0, 0.0, 0.0, 0.0, 0.0, 0.0, 0.0, 0.0, 1.695675264224831E9, 0.0, 2023-09-25 15:54:24.224
128.0, -187500.02235174447, 3541.8574263879573, -16970.427867225157, -37187.8265962394, -16098.061632878977, -39202.925765863154, -187500.02235174447, -47329.70712539043, 11667.007108569993, -11378.49079114089, -54497.620999529485, -51924.28701213444, -42599.116873635874, -38957.01187336587, -31322.23711278881, -41847.04772794816, -0.052000000000000005, 0.9580000000000001, 0.24, 192.0, 127.0, 48.0, 14.5, 120.0, 3.5, 64.0, 0.0, 0.0, 0.0, 1.695675264224835E9, 0.0, 2023-09-25 15:54:24.224
130.0, -187500.02235174447, 3523.998382568167, -16984.576521465366, -37202.35523013535, -16113.126708641854, -39214.23574855754, -187500.02235174447, -47344.79455289776, 11683.368585511278, -11385.509238899856, -54503.45480483232, -51930.14316918173, -42602.67080100427, -38954.86610589816, -31326.081612835125, -41837.43647783238, -0.052000000000000005, 0.9580000000000001, 0.24, 192.0, 0.0, 0.0, 0.0, 0.0, 0.0, 0.0, 0.0, 0.0, 0.0, 1.69567526422484E9, 0.0, 2023-09-25 15:54:24.224
132.0, -187500.02235174447, 3522.567870923027, -16974.898216116217, -37196.811997510435, -16106.04120564952, -39213.27462354596, -187500.02235174447, -47338.64782317255, 11665.621300413764, -11392.438279681002, -54507.612229301005, -51938.70388730811, -42608.03521967354, -38965.57259149225, -31328.741470425306, -41837.79410574366, -0.052000000000000005, 0.9580000000000001, 0.24, 192.0, 0.0, 0.0, 0.0, 0.0, 0.0, 0.0, 0.0, 0.0, 0.0, 1.695675264224845E9, 0.0, 2023-09-25 15:54:24.224
134.0, -187500.02235174447, 3505.9158213038236, -16987.638710455743, -37209.35132614986, -16124.928429714255, -39229.09965862032, -187500.02235174447, -47356.37275652561, 11683.860323889296, -11394.047605281783, -54508.88627873496, -51938.32390765237, -42612.99730694262, -38965.63964672561, -31327.78034541373, -41839.24696913326, -0.052000000000000005, 0.9580000000000001, 0.24, 192.0, 0.0, 0.0, 0.0, 0.0, 0.0, 0.0, 0.0, 0.0, 0.0, 1.695675264224849E9, 0.0, 2023-09-25 15:54:24.224
136.0, -187500.02235174447, 3516.734065620192, -16978.206274295604, -37198.26486090003, -16116.971208688166, -39214.79454216892, -187500.02235174447, -47340.61477668462, 11647.35992519378, -11405.849326354186, -54516.82114801659, -51948.71746882409, -42624.86608324839, -38972.05459738429, -31331.848362904595, -41852.54625708416, -0.052000000000000005, 0.9580000000000001, 0.24, 192.0, 0.0, 0.0, 0.0, 0.0, 0.0, 0.0, 0.0, 0.0, 0.0, 1.695675264285074E9, 0.0, 2023-09-25 15:54:24.285
138.0, -187500.02235174447, 3503.3900741803736, -16983.771858664975, -37202.39993362426, -16122.201516890707, -39217.63321371475, -187500.02235174447, -47342.335861007676, 11691.996358871027, -11402.608323408167, -54512.440206103354, -51946.52699786747, -42615.29953662152, -38962.08571935722, -31323.980548856325, -41837.525884810195, -0.056, 0.964, 0.25, 192.0, 127.0, 32.0, 15.0, 16.0, 3.5, 104.0, 0.0, 0.0, 0.0, 1.695675264285085E9, 0.0, 2023-09-25 15:54:24.285
140.0, -187500.02235174447, 3483.1840971927763, -16993.248998314026, -37213.84402678538, -16126.649514037314, -39227.73620220854, -187500.02235174447, -47351.09774483416, 11656.59119565382, -11423.551907962788, -54532.06503773511, -51967.98467254456, -42630.11874319539, -38982.42580681155, -31339.515011252763, -41840.543370311665, -0.056, 0.964, 0.25, 192.0, 0.0, 0.0, 0.0, 0.0, 0.0, 0.0, 0.0, 0.0, 0.0, 1.695675264285091E9, 0.0, 2023-09-25 15:54:24.285
142.0, -187500.02235174447, 3479.9654459912117, -16995.238303570546, -37208.61371858284, -16121.642723279325, -39226.79742894142, -187500.02235174447, -47345.53216046478, 11705.921495666684, -11433.341972034214, -54537.9211947824, -51972.47737318008, -42632.64449031884, -38984.70568474599, -31340.2973223087, -41824.96420442632, -0.056, 0.964, 0.25, 192.0, 0.0, 0.0, 0.0, 0.0, 0.0, 0.0, 0.0, 0.0, 0.0, 1.695675264285096E9, 0.0, 2023-09-25 15:54:24.285
144.0, -187500.02235174447, 3469.1472016748435, -16985.962329621594, -37198.73424753359, -16113.886667953333, -39208.26783278798, -187500.02235174447, -47333.75279113684, 11627.153948206182, -11428.40223650959, -54536.40127615944, -51971.40448944623, -42628.37530712787, -38975.742635219416, -31332.407156515976, -41861.598713588566, -0.056, 0.964, 0.25, 192.0, 0.0, 0.0, 0.0, 0.0, 0.0, 0.0, 0.0, 0.0, 0.0, 1.6956752642851E9, 0.0, 2023-09-25 15:54:24.285
146.0, -187500.02235174447, 3434.479646024662, -16994.83597217035, -37207.47377961562, -16121.463909323682, -39214.43691425764, -187500.02235174447, -47339.45248597294, 11677.512428463988, -11430.25743129938, -54542.05626750663, -51975.53956217046, -42630.05168796202, -38969.506498516384, -31327.02038610225, -41840.38690810048, -0.056, 0.964, 0.25, 192.0, 0.0, 0.0, 0.0, 0.0, 0.0, 0.0, 0.0, 0.0, 0.0, 1.695675264285105E9, 0.0, 2023-09-25 15:54:24.285
148.0, -187500.02235174447, 3407.478738722651, -17002.70378621862, -37216.12390471982, -16129.510537327593, -39221.63417597225, -187500.02235174447, -47352.84118090167, 11603.684616528108, -11450.418704798069, -54556.339032213575, -51995.47731822459, -42639.953510755724, -38981.19646086651, -31340.498488008798, -41872.86399279404, -0.062, 0.972, 0.246, 192.0, 127.0, 8.0, 15.0, 48.0, 3.5, 88.0, 0.0, 0.0, 0.0, 1.69567526428511E9, 0.0, 2023-09-25 15:54:24.285
150.0, -187500.02235174447, 3385.9093053232796, -17006.88356243176, -37219.47666638812, -16133.846775751923, -39234.55348426742, -187500.02235174447, -47360.172553083015, 11671.365698738779, -11463.427420071057, -54566.77729687421, -52005.87087939631, -42640.445249133736, -38989.086626659235, -31344.320636310655, -41841.79506800116, -0.062, 0.972, 0.246, 192.0, 0.0, 0.0, 0.0, 0.0, 0.0, 0.0, 0.0, 0.0, 0.0, 1.695675264345348E9, 0.0, 2023-09-25 15:54:24.345
152.0, -187500.02235174447, 3353.52162760754, -17020.875754460783, -37231.56896013844, -16149.314182914995, -39242.33189133786, -187500.02235174447, -47371.01314914384, 11604.399872350677, -11480.973539468472, -54578.5343144577, -52019.550147002956, -42652.93987428425, -39002.74354252143, -31356.21176436088, -41876.90965854045, -0.062, 0.972, 0.246, 192.0, 0.0, 0.0, 0.0, 0.0, 0.0, 0.0, 0.0, 0.0, 0.0, 1.695675264345364E9, 0.0, 2023-09-25 15:54:24.345
154.0, -187500.02235174447, 3341.7869617685037, -17033.79506275595, -37241.31432072095, -16159.77479932008, -39245.41643207269, -187500.02235174447, -47377.1822306135, 11679.099402320315, -11494.60810358621, -54592.6829686979, -52034.54816753247, -42659.176010987285, -39011.28190890335, -31362.49260455282, -41846.3771756145, -0.062, 0.972, 0.246, 192.0, 0.0, 0.0, 0.0, 0.0, 0.0, 0.0, 0.0, 0.0, 0.0, 1.695675264345369E9, 0.0, 2023-09-25 15:54:24.345
156.0, -187500.02235174447, 3357.455534631674, -17017.27712360348, -37225.51163739105, -16146.72138055818, -39246.57872278437, -187500.02235174447, -47368.77797469831, 11634.35120992079, -11493.46816461899, -54594.26994255423, -52037.364487333834, -42673.39172046086, -39011.21485366999, -31365.957124943394, -41875.72501608432, -0.062, 0.972, 0.246, 192.0, 0.0, 0.0, 0.0, 0.0, 0.0, 0.0, 0.0, 0.0, 0.0, 1.695675264345374E9, 0.0, 2023-09-25 15:54:24.345
158.0, -187500.02235174447, 3357.5449416094953, -17020.696940505142, -37222.91883503424, -16150.923508515778, -39247.29397860694, -187500.02235174447, -47375.50584977935, 11690.297626292424, -11482.381699369156, -54586.84916339507, -52023.953440660654, -42661.65705462183, -39005.62691755616, -31361.5538312857, -41857.84362052007, -0.064, 0.982, 0.23800000000000002, 192.0, 127.0, 0.0, 15.0, 88.0, 3.5, 56.0, 0.0, 0.0, 0.0, 1.695675264345379E9, 0.0, 2023-09-25 15:54:24.345
160.0, -187500.02235174447, 3369.547828381995, -17015.243114858047, -37215.60981459735, -16144.843834023934, -39233.346490066826, -187500.02235174447, -47365.08993686318, 11628.338590662312, -11464.299138104814, -54571.35940448754, -52012.30818179944, -42658.99719703164, -38987.72317024746, -31353.842479448616, -41895.14868201598, -0.064, 0.982, 0.23800000000000002, 192.0, 0.0, 0.0, 0.0, 0.0, 0.0, 0.0, 0.0, 0.0, 0.0, 1.695675264345384E9, 0.0, 2023-09-25 15:54:24.345
162.0, -187500.02235174447, 3368.452592903685, -17020.093443404847, -37227.54564613648, -16148.442464881238, -39237.23569360205, -187500.02235174447, -47371.415480544034, 11678.920588364672, -11470.356460852201, -54577.12615455701, -52016.66677196822, -42656.76202258611, -38998.519062819374, -31356.01059866078, -41867.6336845915, -0.064, 0.982, 0.23800000000000002, 192.0, 0.0, 0.0, 0.0, 0.0, 0.0, 0.0, 0.0, 0.0, 0.0, 1.695675264345388E9, 0.0, 2023-09-25 15:54:24.345
164.0, -187500.02235174447, 3359.7354125661154, -17025.904896963228, -37238.67681487522, -16155.170339962286, -39248.90330420772, -187500.02235174447, -47381.31730333773, 11655.563015408876, -11481.018242957383, -54585.37394826102, -52027.41796105122, -42667.557915158024, -39008.95732748, -31363.40902607549, -41877.58021087411, -0.064, 0.982, 0.23800000000000002, 192.0, 0.0, 0.0, 0.0, 0.0, 0.0, 0.0, 0.0, 0.0, 0.0, 1.695675264345393E9, 0.0, 2023-09-25 15:54:24.345
166.0, -187500.02235174447, 3370.441898160207, -17024.630847529275, -37234.31822470644, -16153.940994017245, -39249.73031875257, -187500.02235174447, -47379.99855041487, 11691.348158281822, -11487.075565704772, -54587.76558491774, -52029.85430119685, -42661.411185432815, -39015.30522290531, -31364.81718597617, -41861.55401009965, -0.064, 0.982, 0.23800000000000002, 192.0, 0.0, 0.0, 0.0, 0.0, 0.0, 0.0, 0.0, 0.0, 0.0, 1.695675264405584E9, 0.0, 2023-09-25 15:54:24.405
168.0, -187500.02235174447, 3389.0385495470227, -17020.674588760685, -37221.9353582782, -16145.20146193522, -39244.388251827746, -187500.02235174447, -47371.817811944224, 11671.298643505412, -11465.908463705597, -54580.545971458676, -52018.72313245811, -42666.68619712427, -39000.91069947609, -31361.620886519064, -41879.30129519717, -0.06, 0.99, 0.234, 192.0, 127.0, 16.0, 15.0, 120.0, 3.5, 40.0, 0.0, 0.0, 0.0, 1.695675264405597E9, 0.0, 2023-09-25 15:54:24.405
170.0, -187500.02235174447, 3392.1454420263103, -17022.865059717307, -37227.36683218084, -16152.935165516756, -39233.23473134455, -187500.02235174447, -47375.17057361252, 11680.686376176642, -11457.168931623572, -54568.721898641816, -52011.235298065585, -42657.45492666423, -38996.44035058503, -31353.52955502624, -41875.03211200621, -0.06, 0.99, 0.234, 192.0, 0.0, 0.0, 0.0, 0.0, 0.0, 0.0, 0.0, 0.0, 0.0, 1.695675264405602E9, 0.0, 2023-09-25 15:54:24.405
172.0, -187500.02235174447, 3419.3698667728745, -16999.932169906162, -37208.41255288274, -16131.142214672831, -39233.39119355574, -187500.02235174447, -47349.466067488924, 11671.343346994323, -11448.74232396392, -54559.781200859696, -52004.88740264028, -42659.935970298764, -38989.46660631497, -31345.147650855502, -41881.04473126468, -0.06, 0.99, 0.234, 192.0, 0.0, 0.0, 0.0, 0.0, 0.0, 0.0, 0.0, 0.0, 0.0, 1.695675264405609E9, 0.0, 2023-09-25 15:54:24.405
174.0, -187500.02235174447, 3415.905346382302, -17010.75041422253, -37221.287157688996, -16142.049865967021, -39224.94223415163, -187500.02235174447, -47369.15795435404, 11670.426925471655, -11439.913384904074, -54549.633508876985, -51991.923390856195, -42644.9155980248, -38985.800920224305, -31329.523781481243, -41870.673521837416, -0.06, 0.99, 0.234, 192.0, 0.0, 0.0, 0.0, 0.0, 0.0, 0.0, 0.0, 0.0, 0.0, 1.695675264405614E9, 0.0, 2023-09-25 15:54:24.405
176.0, -187500.02235174447, 3436.424247792274, -16994.590102981343, -37204.299831902965, -16121.039226179031, -39225.322213807376, -187500.02235174447, -47348.057907588234, 11674.651405173709, -11433.677248201044, -54549.432343176886, -51995.633780435775, -42653.07398475099, -38980.972943421955, -31330.216685559357, -41874.20509746136, -0.06, 0.99, 0.234, 192.0, 0.0, 0.0, 0.0, 0.0, 0.0, 0.0, 0.0, 0.0, 0.0, 1.695675264405619E9, 0.0, 2023-09-25 15:54:24.405
178.0, -187500.02235174447, 3435.5301780140617, -16995.953559393118, -37206.84793077087, -16124.682560525247, -39214.32515553536, -187500.02235174447, -47353.62349195761, 11640.363829179267, -11417.315771259759, -54530.23219468978, -51977.886495338265, -42627.14596118283, -38969.28298107183, -31315.173961540935, -41884.91158305545, -0.06, 0.99, 0.226, 192.0, 127.0, 16.0, 15.0, 120.0, 3.5, 8.0, 0.0, 0.0, 0.0, 1.695675264405624E9, 0.0, 2023-09-25 15:54:24.405
180.0, -187500.02235174447, 3451.0422886660444, -16994.4112890257, -37201.997602224066, -16125.911906470288, -39223.24350157303, -187500.02235174447, -47348.46023898843, 11671.991547583528, -11423.97659110744, -54534.00963950272, -51986.6707309092, -42639.97586250018, -38979.00598990989, -31324.2934732787, -41872.32755092711, -0.06, 0.99, 0.226, 192.0, 0.0, 0.0, 0.0, 0.0, 0.0, 0.0, 0.0, 0.0, 0.0, 1.69567526446628E9, 0.0, 2023-09-25 15:54:24.466
182.0, -187500.02235174447, 3436.2007303477208, -17010.16926886669, -37220.236625699596, -16146.43080788026, -39226.216283585585, -187500.02235174447, -47363.435907773484, 11654.467779930566, -11434.258393556882, -54538.27882269369, -51990.179954788684, -42643.0156997461, -38992.70760926099, -31334.552923983687, -41868.6842165809, -0.06, 0.99, 0.226, 192.0, 0.0, 0.0, 0.0, 0.0, 0.0, 0.0, 0.0, 0.0, 0.0, 1.695675264466299E9, 0.0, 2023-09-25 15:54:24.466
184.0, -187500.02235174447, 3454.484457312162, -16997.495829760534, -37205.059791214444, -16124.302580869507, -39229.010251642496, -187500.02235174447, -47346.69445117646, 11707.083786378358, -11424.088349829717, -54536.89301453746, -51986.31310299791, -42650.25766494962, -38981.97877192245, -31332.027176860236, -41852.18862917288, -0.06, 0.99, 0.226, 192.0, 0.0, 0.0, 0.0, 0.0, 0.0, 0.0, 0.0, 0.0, 0.0, 1.695675264466305E9, 0.0, 2023-09-25 15:54:24.466
186.0, -187500.02235174447, 3467.470820840695, -16993.584274480854, -37209.0831052164, -16124.280229125052, -39215.82272241387, -187500.02235174447, -47346.739154665374, 11640.654401857186, -11405.44699495399, -54525.22540393179, -51972.23150399107, -42629.29172865054, -38971.85343168419, -31317.252673775278, -41883.0340365212, -0.06, 0.99, 0.226, 192.0, 0.0, 0.0, 0.0, 0.0, 0.0, 0.0, 0.0, 0.0, 0.0, 1.69567526446631E9, 0.0, 2023-09-25 15:54:24.466
188.0, -187500.02235174447, 3467.5378760740614, -17000.22274258408, -37214.62633784131, -16133.422092607272, -39234.0617458894, -187500.02235174447, -47361.80423042825, 11699.350082796822, -11410.744358389898, -54529.94162201186, -51976.903018582234, -42631.213978673695, -38977.21785035347, -31331.200162315392, -41852.88153325099, -0.056, 0.992, 0.22, 192.0, 127.0, 32.0, 15.5, 0.0, 3.0, 112.0, 0.0, 0.0, 0.0, 1.695675264466316E9, 0.0, 2023-09-25 15:54:24.466
190.0, -187500.02235174447, 3476.5903325784607, -17000.580370495365, -37215.632166341806, -16137.490110098137, -39223.08703936184, -187500.02235174447, -47362.810058928735, 11646.532910648932, -11410.990227578906, -54532.713238324315, -51976.09835578184, -42633.024469974574, -38979.56478352127, -31335.804621673182, -41871.99227476028, -0.056, 0.992, 0.22, 192.0, 0.0, 0.0, 0.0, 0.0, 0.0, 0.0, 0.0, 0.0, 0.0, 1.695675264466321E9, 0.0, 2023-09-25 15:54:24.466
192.0, -187500.02235174447, 3484.0111117376223, -16997.1605535937, -37207.36202089334, -16125.978961703655, -39226.842132430334, -187500.02235174447, -47355.25516930284, 11708.491946279044, -11401.200163507481, -54521.246793418744, -51963.559027142415, -42624.66491754829, -38971.69696947301, -31334.86584840606, -41850.84752450556, -0.056, 0.992, 0.22, 192.0, 0.0, 0.0, 0.0, 0.0, 0.0, 0.0, 0.0, 0.0, 0.0, 1.695675264466327E9, 0.0, 2023-09-25 15:54:24.466
194.0, -187500.02235174447, 3475.3386348889635, -17004.693091475143, -37213.77697155201, -16135.456101352705, -39217.43204801465, -187500.02235174447, -47360.23960831638, 11637.458102400078, -11398.070919283738, -54515.27887764918, -51953.79131481544, -42618.18291165625, -38966.66782697056, -31335.357586784077, -41882.36348418755, -0.056, 0.992, 0.22, 192.0, 0.0, 0.0, 0.0, 0.0, 0.0, 0.0, 0.0, 0.0, 0.0, 1.695675264466332E9, 0.0, 2023-09-25 15:54:24.466
196.0, -187500.02235174447, 3477.1714779342983, -17003.664911230197, -37206.669116815225, -16127.90121172681, -39222.19296958363, -187500.02235174447, -47364.777012440805, 11707.50846952301, -11398.942637317496, -54518.69869455084, -51950.259739191504, -42614.919556965775, -38962.97978913543, -31342.241924076312, -41850.08756519408, -0.056, 0.992, 0.22, 192.0, 0.0, 0.0, 0.0, 0.0, 0.0, 0.0, 0.0, 0.0, 0.0, 1.695675264525176E9, 0.0, 2023-09-25 15:54:24.525
198.0, -187500.02235174447, 3478.1102512014213, -17002.79319319644, -37208.25609067155, -16127.52123207107, -39217.2085305701, -187500.02235174447, -47360.440774016475, 11638.799207067395, -11397.623884394632, -54517.87168000599, -51943.75538155501, -42608.16933014028, -38957.414204766064, -31337.72687169634, -41882.72111209883, -0.058, 0.996, 0.216, 192.0, 127.0, 24.0, 15.5, 16.0, 3.0, 96.0, 0.0, 0.0, 0.0, 1.695675264525188E9, 0.0, 2023-09-25 15:54:24.525
200.0, -187500.02235174447, 3488.54851586205, -16999.932169906162, -37204.07631445841, -16125.867202981379, -39218.39317302623, -187500.02235174447, -47359.814925171726, 11699.752414197019, -11404.59762866469, -54519.279839906674, -51942.23546293205, -42600.54738528102, -38960.23052456743, -31342.934828154426, -41858.13419319799, -0.058, 0.996, 0.216, 192.0, 0.0, 0.0, 0.0, 0.0, 0.0, 0.0, 0.0, 0.0, 0.0, 1.695675264525194E9, 0.0, 2023-09-25 15:54:24.525
202.0, -187500.02235174447, 3485.5980855939492, -17002.36851005179, -37210.49126511708, -16131.164566417287, -39224.36108879579, -187500.02235174447, -47372.823640444716, 11648.209291483081, -11406.855154854675, -54519.61511607351, -51941.83313153186, -42604.74951323861, -38959.76113793387, -31345.035892133226, -41870.15943171495, -0.058, 0.996, 0.216, 192.0, 0.0, 0.0, 0.0, 0.0, 0.0, 0.0, 0.0, 0.0, 0.0, 1.695675264525199E9, 0.0, 2023-09-25 15:54:24.525
204.0, -187500.02235174447, 3499.6573328563372, -16991.013823868492, -37195.202671909654, -16115.339531342928, -39225.67984171866, -187500.02235174447, -47346.18036105399, 11713.23051610357, -11408.911515344564, -54519.59276432905, -51941.6096140873, -42596.72523697916, -38963.58328623573, -31344.119470610556, -41841.19157090087, -0.058, 0.996, 0.216, 192.0, 0.0, 0.0, 0.0, 0.0, 0.0, 0.0, 0.0, 0.0, 0.0, 1.695675264525204E9, 0.0, 2023-09-25 15:54:24.525
206.0, -187500.02235174447, 3489.1743647067983, -16994.388937281245, -37200.70120104566, -16117.038263921531, -39213.6546032017, -187500.02235174447, -47347.14148606557, 11646.130579248736, -11399.054396039772, -54510.09327293555, -51935.731105295556, -42594.08773113343, -38946.26068428286, -31332.474211749344, -41873.132213727506, -0.058, 0.996, 0.216, 192.0, 0.0, 0.0, 0.0, 0.0, 0.0, 0.0, 0.0, 0.0, 0.0, 1.695675264525209E9, 0.0, 2023-09-25 15:54:24.525
208.0, -187500.02235174447, 3480.2560186691308, -17002.03323388496, -37207.6302418268, -16125.643685536825, -39217.700268948116, -187500.02235174447, -47358.74204143787, 11707.12848986727, -11408.486832199911, -54521.85029051904, -51945.47646587807, -42591.0031903986, -38957.1459838326, -31342.264275820766, -41837.59294004356, -0.054, 0.994, 0.218, 192.0, 127.0, 40.0, 15.5, 8.0, 3.0, 104.0, 0.0, 0.0, 0.0, 1.695675264525214E9, 0.0, 2023-09-25 15:54:24.525
210.0, -187500.02235174447, 3482.0218064811, -17003.441393785644, -37213.240529685085, -16130.359903616894, -39228.33969930884, -187500.02235174447, -47355.25516930284, 11681.625149443764, -11416.175832292538, -54531.55094761264, -51958.306367195415, -42610.53861505254, -38965.3490740477, -31358.379883573045, -41851.09339369457, -0.054, 0.994, 0.218, 192.0, 0.0, 0.0, 0.0, 0.0, 0.0, 0.0, 0.0, 0.0, 0.0, 1.695675264584963E9, 0.0, 2023-09-25 15:54:24.584
212.0, -187500.02235174447, 3486.648617583349, -17001.09446061784, -37213.55345410746, -16131.745711773125, -39221.388306783236, -187500.02235174447, -47352.528256479294, 11719.354894084323, -11417.516936959855, -54528.533462111176, -51958.52988463997, -42597.84282420192, -38971.69696947301, -31356.502337038797, -41845.639568047474, -0.054, 0.994, 0.218, 192.0, 0.0, 0.0, 0.0, 0.0, 0.0, 0.0, 0.0, 0.0, 0.0, 1.69567526458498E9, 0.0, 2023-09-25 15:54:24.584
214.0, -187500.02235174447, 3483.742890804159, -16995.998262882025, -37207.227910426605, -16122.648551779814, -39225.009289385, -187500.02235174447, -47348.99668085536, 11694.231533316557, -11415.326466003236, -54526.09712196555, -51958.52988463997, -42606.112969650385, -38968.29950431579, -31351.652008491998, -41861.35284439955, -0.054, 0.994, 0.218, 192.0, 0.0, 0.0, 0.0, 0.0, 0.0, 0.0, 0.0, 0.0, 0.0, 1.695675264584986E9, 0.0, 2023-09-25 15:54:24.584
216.0, -187500.02235174447, 3496.997475266156, -16990.209161068102, -37198.68954404468, -16114.557220286993, -39218.68374570415, -187500.02235174447, -47340.70418366244, 11719.287838850956, -11418.120434060149, -54522.7667120417, -51951.46673339209, -42593.9536206667, -38970.24410608341, -31340.565543242163, -41844.20905640234, -0.054, 0.994, 0.218, 192.0, 0.0, 0.0, 0.0, 0.0, 0.0, 0.0, 0.0, 0.0, 0.0, 1.695675264584992E9, 0.0, 2023-09-25 15:54:24.584
218.0, -187500.02235174447, 3498.40563516684, -16994.45599251461, -37198.86835800033, -16120.391025589828, -39218.23671081504, -187500.02235174447, -47340.83829412917, 11694.566809483387, -11404.664683898054, -54515.01065671571, -51943.353050154816, -42600.99442017012, -38960.31993154525, -31332.071880349147, -41860.592885088074, -0.052000000000000005, 1.0, 0.214, 192.0, 127.0, 48.0, 15.5, 32.0, 3.0, 88.0, 0.0, 0.0, 0.0, 1.695675264584998E9, 0.0, 2023-09-25 15:54:24.584
220.0, -187500.02235174447, 3485.1734024492985, -17006.101251375825, -37210.84889302837, -16138.786511276545, -39218.61669047078, -187500.02235174447, -47354.76343092483, 11714.437510304155, -11415.237059025414, -54529.002848744734, -51953.25487294851, -42604.928327194255, -38968.67948397154, -31343.96300839937, -41839.224617388805, -0.052000000000000005, 1.0, 0.214, 192.0, 0.0, 0.0, 0.0, 0.0, 0.0, 0.0, 0.0, 0.0, 0.0, 1.695675264585003E9, 0.0, 2023-09-25 15:54:24.585
222.0, -187500.02235174447, 3498.0703590000107, -16989.248036056524, -37195.60500330985, -16124.168470402774, -39223.198798084115, -187500.02235174447, -47350.62835820059, 11728.362647099812, -11410.006750822873, -54528.75697955573, -51957.63581486176, -42618.65229828982, -38972.83690844022, -31354.78125271574, -41839.85046623355, -0.052000000000000005, 1.0, 0.214, 192.0, 0.0, 0.0, 0.0, 0.0, 0.0, 0.0, 0.0, 0.0, 0.0, 1.695675264585009E9, 0.0, 2023-09-25 15:54:24.585
224.0, -187500.02235174447, 3495.477556643195, -16989.829181412362, -37196.27555564351, -16127.47652858216, -39217.16382708119, -187500.02235174447, -47352.394146012564, 11706.882620678261, -11402.965951319451, -54515.45769160482, -51946.52699786747, -42599.02746665805, -38964.90203915859, -31340.67730196444, -41850.15462042745, -0.052000000000000005, 1.0, 0.214, 192.0, 0.0, 0.0, 0.0, 0.0, 0.0, 0.0, 0.0, 0.0, 0.0, 1.695675264585014E9, 0.0, 2023-09-25 15:54:24.585
226.0, -187500.02235174447, 3513.381303951896, -16980.3073382744, -37181.25518336954, -16119.0052174336, -39218.102600348306, -187500.02235174447, -47336.45735221593, 11724.562850542408, -11390.806602335764, -54510.07092119109, -51942.59309084334, -42607.49877780661, -38951.62510295214, -31336.25165656229, -41845.371347114014, -0.052000000000000005, 1.0, 0.214, 192.0, 0.0, 0.0, 0.0, 0.0, 0.0, 0.0, 0.0, 0.0, 0.0, 1.695675264645614E9, 0.0, 2023-09-25 15:54:24.645
228.0, -187500.02235174447, 3498.2268212111976, -16998.568713494387, -37201.32704989041, -16139.05473221001, -39222.32708005036, -187500.02235174447, -47362.27361706181, 11707.083786378358, -11399.97081756244, -54519.23513641777, -51952.27139619248, -42605.12949289435, -38964.00796938038, -31340.230267075334, -41845.88543723648, -0.058, 0.996, 0.214, 192.0, 127.0, 24.0, 15.5, 16.0, 3.0, 88.0, 0.0, 0.0, 0.0, 1.695675264645635E9, 0.0, 2023-09-25 15:54:24.645
230.0, -187500.02235174447, 3495.2763909430973, -16996.467649515587, -37194.018029453524, -16136.506633342104, -39228.451458031115, -187500.02235174447, -47354.74107918037, 11756.794066046961, -11401.73660537441, -54527.3711713995, -51961.63677711925, -42619.50166457912, -38965.9972746369, -31349.238020090823, -41830.976823684796, -0.058, 0.996, 0.214, 192.0, 0.0, 0.0, 0.0, 0.0, 0.0, 0.0, 0.0, 0.0, 0.0, 1.695675264645641E9, 0.0, 2023-09-25 15:54:24.645
232.0, -187500.02235174447, 3495.5893153654715, -16998.2110855831, -37193.392180608775, -16136.596040319926, -39219.5554637379, -187500.02235174447, -47348.10261107715, 11723.288801108456, -11405.290532742803, -54531.86387203501, -51965.54833239893, -42620.75336226861, -38976.03320789733, -31353.127223626045, -41843.76202151323, -0.058, 0.996, 0.214, 192.0, 0.0, 0.0, 0.0, 0.0, 0.0, 0.0, 0.0, 0.0, 0.0, 1.695675264645646E9, 0.0, 2023-09-25 15:54:24.645
234.0, -187500.02235174447, 3516.1976237532645, -16981.916663875185, -37172.895630943254, -16122.827365735457, -39221.0083271275, -187500.02235174447, -47338.08902956117, 11775.99421453407, -11390.761898846853, -54521.20208992984, -51955.60180611632, -42614.62898428786, -38958.442385011, -31347.025197389747, -41825.94768118235, -0.058, 0.996, 0.214, 192.0, 0.0, 0.0, 0.0, 0.0, 0.0, 0.0, 0.0, 0.0, 0.0, 1.69567526464565E9, 0.0, 2023-09-25 15:54:24.645
236.0, -187500.02235174447, 3509.4921004166727, -16981.916663875185, -37173.87910769929, -16122.492089568626, -39204.19981529711, -187500.02235174447, -47340.03363132878, 11707.642579989742, -11379.5860266192, -54509.0650926906, -51947.73399206805, -42604.52599579406, -38947.31121627226, -31335.514048995265, -41856.61427457503, -0.058, 0.996, 0.214, 192.0, 0.0, 0.0, 0.0, 0.0, 0.0, 0.0, 0.0, 0.0, 0.0, 1.695675264645655E9, 0.0, 2023-09-25 15:54:24.645
238.0, -187500.02235174447, 3495.2316874541866, -16993.293701802933, -37185.88199447179, -16134.964362974688, -39218.77315268197, -187500.02235174447, -47355.59044546967, 11770.47333365361, -11392.572390147734, -54521.045627718646, -51961.301500952424, -42612.32675460896, -38958.97882687793, -31346.376996800544, -41825.05361140414, -0.058, 0.998, 0.214, 192.0, 127.0, 24.0, 15.5, 24.0, 3.0, 88.0, 0.0, 0.0, 0.0, 1.69567526464566E9, 0.0, 2023-09-25 15:54:24.645
240.0, -187500.02235174447, 3496.93042003279, -16994.232475070057, -37188.20657589514, -16138.473586854172, -39215.64390845822, -187500.02235174447, -47362.69830020646, 11719.757225484518, -11399.657893140065, -54525.89595626545, -51966.57651264388, -42624.97784197066, -38966.73488220393, -31353.39544455951, -41841.50449532324, -0.058, 0.998, 0.214, 192.0, 0.0, 0.0, 0.0, 0.0, 0.0, 0.0, 0.0, 0.0, 0.0, 1.695675264705519E9, 0.0, 2023-09-25 15:54:24.705
242.0, -187500.02235174447, 3513.247193485164, -16985.291777287934, -37177.4777385566, -16132.23745015114, -39216.850902658814, -187500.02235174447, -47348.415535499524, 11789.80759260745, -11394.986378548907, -54522.90082250844, -51965.28011146547, -42622.65326054731, -38960.699911200994, -31349.483889279833, -41815.91174792191, -0.058, 0.998, 0.214, 192.0, 0.0, 0.0, 0.0, 0.0, 0.0, 0.0, 0.0, 0.0, 0.0, 1.695675264705535E9, 0.0, 2023-09-25 15:54:24.705
244.0, -187500.02235174447, 3510.8555568284464, -16978.765067906985, -37175.980171678086, -16130.136386172342, -39204.19981529711, -187500.02235174447, -47338.73723015037, 11711.487080036055, -11382.58116037621, -54509.24390664625, -51958.95456778462, -42616.953565711214, -38947.40062325008, -31336.542229240207, -41853.70854779584, -0.058, 0.998, 0.214, 192.0, 0.0, 0.0, 0.0, 0.0, 0.0, 0.0, 0.0, 0.0, 0.0, 1.69567526470554E9, 0.0, 2023-09-25 15:54:24.705
246.0, -187500.02235174447, 3506.2287457261978, -16983.101306331315, -37178.66238101273, -16128.482357082648, -39214.392210768725, -187500.02235174447, -47343.2746342748, 11780.688080869686, -11399.769651862342, -54521.20208992984, -51966.844733577345, -42625.62604255987, -38961.66103621257, -31344.477098521842, -41820.49385553526, -0.058, 0.998, 0.214, 192.0, 0.0, 0.0, 0.0, 0.0, 0.0, 0.0, 0.0, 0.0, 0.0, 1.695675264705544E9, 0.0, 2023-09-25 15:54:24.705
248.0, -187500.02235174447, 3508.5533271495497, -16975.993451594528, -37178.438863568175, -16123.855545980401, -39206.077361831354, -187500.02235174447, -47337.23966327187, 11705.139184610747, -11390.516029657845, -54512.06022644761, -51961.54737014144, -42615.970088955175, -38955.08962334271, -31336.58693272912, -41852.56860882862, -0.06, 1.006, 0.21, 192.0, 127.0, 16.0, 15.5, 56.0, 3.0, 72.0, 0.0, 0.0, 0.0, 1.695675264705548E9, 0.0, 2023-09-25 15:54:24.705
250.0, -187500.02235174447, 3500.8866788013793, -16983.101306331315, -37184.384427593286, -16130.851641994912, -39209.027792099456, -187500.02235174447, -47349.15314306655, 11771.456810409643, -11398.696768128488, -54513.04370320365, -51962.4637916641, -42614.04783893202, -38964.72322520295, -31339.269142063757, -41818.61630900101, -0.06, 1.006, 0.21, 192.0, 0.0, 0.0, 0.0, 0.0, 0.0, 0.0, 0.0, 0.0, 0.0, 1.695675264705553E9, 0.0, 2023-09-25 15:54:24.705
252.0, -187500.02235174447, 3507.0781120154993, -16988.018690111483, -37192.85573874185, -16138.071255453975, -39219.5554637379, -187500.02235174447, -47362.98887288438, 11720.561888284908, -11402.183640263514, -54522.00675273022, -51971.24802723504, -42630.56577808449, -38970.33351306123, -31349.126261368547, -41840.610425545034, -0.06, 1.006, 0.21, 192.0, 0.0, 0.0, 0.0, 0.0, 0.0, 0.0, 0.0, 0.0, 0.0, 1.695675264705557E9, 0.0, 2023-09-25 15:54:24.705
254.0, -187500.02235174447, 3529.1616355373426, -16972.461875970588, -37178.23769786808, -16122.782662246545, -39212.157036323195, -187500.02235174447, -47351.09774483416, 11761.622042849309, -11392.01359653635, -54512.79783401464, -51965.011890532005, -42618.227615145166, -38959.157640833575, -31344.477098521842, -41834.91073070893, -0.06, 1.006, 0.21, 192.0, 0.0, 0.0, 0.0, 0.0, 0.0, 0.0, 0.0, 0.0, 0.0, 1.695675264705561E9, 0.0, 2023-09-25 15:54:24.705
0.0, -187500.02235174447, 3523.12666453441, -16959.721381631065, -37168.96172391912, -16110.75742372959, -39211.28531828944, -187500.02235174447, -47339.16191329502, 11692.801021671417, -11380.368337675136, -54501.44314783134, -51955.37828867177, -42610.89624296382, -38947.15475406108, -31333.16711582746, -41868.4830508808, -0.06, 1.006, 0.21, 192.0, 0.0, 0.0, 0.0, 0.0, 0.0, 0.0, 0.0, 0.0, 0.0, 1.69567526476585E9, 0.0, 2023-09-25 15:54:24.765
2.0, -187500.02235174447, 3504.440606169773, -16981.64844294172, -37190.26293638503, -16132.483319340148, -39213.25227180151, -187500.02235174447, -47356.81979141472, 11724.495795309043, -11380.815372564242, -54497.50924080721, -51947.3093089234, -42594.802986956005, -38949.76990816235, -31325.76868841275, -41846.24306514777, -0.056, 1.008, 0.21, 192.0, 127.0, 32.0, 15.5, 64.0, 3.0, 72.0, 0.0, 0.0, 0.0, 1.695675264765859E9, 0.0, 2023-09-25 15:54:24.765
4.0, -187500.02235174447, 3492.638885097371, -16996.534704748956, -37205.059791214444, -16140.127615943864, -39233.972338911575, -187500.02235174447, -47366.78866944178, 11707.687283478652, -11402.988303063907, -54522.990229486255, -51975.09252728135, -42624.776676270565, -38971.0487688838, -31349.97562765785, -41848.433536104385, -0.056, 1.008, 0.21, 192.0, 0.0, 0.0, 0.0, 0.0, 0.0, 0.0, 0.0, 0.0, 0.0, 1.695675264765863E9, 0.0, 2023-09-25 15:54:24.765
6.0, -187500.02235174447, 3502.1607282353316, -17002.346158307333, -37205.7303435481, -16142.698066556224, -39231.044260387935, -187500.02235174447, -47372.80128870026, 11752.390772389266, -11411.057282812273, -54532.288555179664, -51979.60757966132, -42623.54733032553, -38975.98850440842, -31359.363360329076, -41827.15467538294, -0.056, 1.008, 0.21, 192.0, 0.0, 0.0, 0.0, 0.0, 0.0, 0.0, 0.0, 0.0, 0.0, 1.695675264765866E9, 0.0, 2023-09-25 15:54:24.765
8.0, -187500.02235174447, 3524.1771965238095, -16984.867094143283, -37188.18422415069, -16121.732130257147, -39234.754649967515, -187500.02235174447, -47348.66140468853, 11732.162443657213, -11407.928038588529, -54528.98049700028, -51980.50164943954, -42632.130400196365, -38973.641571240616, -31355.317694582667, -41841.05746043414, -0.056, 1.008, 0.21, 192.0, 0.0, 0.0, 0.0, 0.0, 0.0, 0.0, 0.0, 0.0, 0.0, 1.695675264765869E9, 0.0, 2023-09-25 15:54:24.765
10.0, -187500.02235174447, 3506.251097470653, -16987.817524411385, -37189.03359043999, -16120.726301756658, -39210.99474561152, -187500.02235174447, -47346.47093373191, 11721.277144107478, -11388.549076145779, -54508.48394733477, -51958.03814626195, -42605.86710046138, -38956.5424867323, -31327.892104136004, -41852.32273963961, -0.056, 1.008, 0.21, 192.0, 0.0, 0.0, 0.0, 0.0, 0.0, 0.0, 0.0, 0.0, 0.0, 1.695675264765873E9, 0.0, 2023-09-25 15:54:24.765
12.0, -187500.02235174447, 3491.0742629854994, -16996.422946026676, -37200.16475917873, -16133.019761207077, -39230.48546677655, -187500.02235174447, -47358.697337948965, 11729.256716878024, -11402.474212941434, -54526.05241847663, -51971.24802723504, -42618.45113258972, -38967.74071070441, -31343.38186304353, -41840.72218426731, -0.056, 1.002, 0.21, 192.0, 127.0, 32.0, 15.5, 40.0, 3.0, 72.0, 0.0, 0.0, 0.0, 1.695675264765876E9, 0.0, 2023-09-25 15:54:24.765
14.0, -187500.02235174447, 3497.2209927107087, -16993.472515758578, -37197.95193647766, -16134.182051918753, -39226.73037370806, -187500.02235174447, -47358.80909667124, 11734.151748913735, -11407.88333509962, -54528.0193719887, -51975.04782379244, -42615.50070232162, -38974.200364852, -31345.751147955794, -41836.54240805416, -0.056, 1.002, 0.21, 192.0, 0.0, 0.0, 0.0, 0.0, 0.0, 0.0, 0.0, 0.0, 0.0, 1.695675264825128E9, 0.0, 2023-09-25 15:54:24.825
16.0, -187500.02235174447, 3509.961487050234, -16985.537646476943, -37189.50297707355, -16133.28798214054, -39237.07923139087, -187500.02235174447, -47364.50879150734, 11763.164313216725, -11400.998997807385, -54520.2186131738, -51969.90692256772, -42622.98853671415, -38972.367521806664, -31347.427528789944, -41828.54048353917, -0.056, 1.002, 0.21, 192.0, 0.0, 0.0, 0.0, 0.0, 0.0, 0.0, 0.0, 0.0, 0.0, 1.695675264825136E9, 0.0, 2023-09-25 15:54:24.825
18.0, -187500.02235174447, 3509.089769016477, -16992.82431516937, -37194.532119576, -16145.648496824326, -39233.61471100029, -187500.02235174447, -47369.13560260959, 11757.08463872488, -11400.104928029172, -54515.61415381601, -51963.76019284251, -42618.1605599118, -38964.90203915859, -31349.483889279833, -41833.30140510815, -0.056, 1.002, 0.21, 192.0, 0.0, 0.0, 0.0, 0.0, 0.0, 0.0, 0.0, 0.0, 0.0, 1.695675264825141E9, 0.0, 2023-09-25 15:54:24.825
20.0, -187500.02235174447, 3526.2335570136975, -16979.346213262823, -37178.72943624609, -16127.878859982357, -39233.279434833465, -187500.02235174447, -47359.7255181939, 11794.121479287325, -11391.566561647245, -54511.83670900306, -51959.33454744036, -42621.82624600247, -38959.4929170004, -31348.746281712807, -41826.350012582545, -0.056, 1.002, 0.21, 192.0, 0.0, 0.0, 0.0, 0.0, 0.0, 0.0, 0.0, 0.0, 0.0, 1.695675264825146E9, 0.0, 2023-09-25 15:54:24.825
22.0, -187500.02235174447, 3509.6485626278595, -17006.481231031565, -37209.50778836105, -16159.037191753054, -39245.39408032824, -187500.02235174447, -47387.62049527413, 11758.805723047939, -11393.153535503572, -54517.11172069451, -51957.814628817396, -42613.9584319542, -38966.3996060371, -31349.77446195775, -41846.24306514777, -0.044, 0.996, 0.214, 192.0, 127.0, 80.0, 15.5, 16.0, 3.0, 88.0, 0.0, 0.0, 0.0, 1.695675264825154E9, 0.0, 2023-09-25 15:54:24.825
24.0, -187500.02235174447, 3522.143187778376, -16985.93997787714, -37176.11428214482, -16128.303543127007, -39223.44466727313, -187500.02235174447, -47352.48355299039, 11819.893040644294, -11398.428547195024, -54524.55485159813, -51962.843771319844, -42632.66684206329, -38966.779585692835, -31356.278819594245, -41821.54438752466, -0.044, 0.996, 0.214, 192.0, 0.0, 0.0, 0.0, 0.0, 0.0, 0.0, 0.0, 0.0, 0.0, 1.695675264825159E9, 0.0, 2023-09-25 15:54:24.825
26.0, -187500.02235174447, 3511.5037574176504, -16988.73394593405, -37182.46217757013, -16133.176223418264, -39210.10067583331, -187500.02235174447, -47353.64584370206, 11754.648298579252, -11383.29641619878, -54508.75216826823, -51945.856445533806, -42617.82528374497, -38943.913751115055, -31333.39063327201, -41846.53363782569, -0.044, 0.996, 0.214, 192.0, 0.0, 0.0, 0.0, 0.0, 0.0, 0.0, 0.0, 0.0, 0.0, 1.695675264825164E9, 0.0, 2023-09-25 15:54:24.825
28.0, -187500.02235174447, 3495.8798880433906, -17002.167344351692, -37191.089950929876, -16136.14900543082, -39223.981109140055, -187500.02235174447, -47359.122021093615, 11824.788072680007, -11384.905741799563, -54520.330371896074, -51954.48421889356, -42632.21980717419, -38952.38506226362, -31343.06893862116, -41806.41225652841, -0.044, 0.996, 0.214, 192.0, 0.0, 0.0, 0.0, 0.0, 0.0, 0.0, 0.0, 0.0, 0.0, 1.695675264825167E9, 0.0, 2023-09-25 15:54:24.825
30.0, -187500.02235174447, 3500.663161356826, -16996.154725093213, -37185.50201481605, -16121.66507502378, -39213.90047239071, -187500.02235174447, -47330.55649167973, 11781.537447158988, -11392.997073292385, -54526.94648825485, -51961.726184097075, -42631.638661818346, -38962.89038215761, -31335.759918184274, -41819.04099214566, -0.044, 0.996, 0.214, 192.0, 0.0, 0.0, 0.0, 0.0, 0.0, 0.0, 0.0, 0.0, 0.0, 1.69567526488497E9, 0.0, 2023-09-25 15:54:24.884
32.0, -187500.02235174447, 3495.6116671099267, -17009.297550832933, -37195.44854109866, -16140.306429899507, -39223.33290855085, -187500.02235174447, -47359.099669349154, 11825.615087224853, -11386.49271565589, -54521.13503469647, -51953.79131481544, -42621.9603564692, -38953.27913204183, -31333.368281527553, -41806.25579431722, -0.032, 0.972, 0.22, 192.0, 127.5, 0.0, 15.0, 48.0, 3.0, 112.0, 0.0, 0.0, 0.0, 1.695675264884976E9, 0.0, 2023-09-25 15:54:24.884
34.0, -187500.02235174447, 3490.3590071629296, -17005.22953334207, -37197.84017775538, -16128.817633249479, -39222.75176319501, -187500.02235174447, -47354.785782669285, 11758.828074792395, -11389.957236046463, -54527.23706093277, -51960.407431174215, -42632.197455429734, -38959.649379211594, -31348.79098520172, -41836.29653886516, -0.032, 0.972, 0.22, 192.0, 0.0, 0.0, 0.0, 0.0, 0.0, 0.0, 0.0, 0.0, 0.0, 1.69567526488498E9, 0.0, 2023-09-25 15:54:24.884
36.0, -187500.02235174447, 3497.8244898110024, -16999.999225139527, -37194.085084686885, -16118.781699989046, -39217.253234059004, -187500.02235174447, -47319.87235783009, 11826.173880836235, -11392.482983169912, -54527.5723370996, -51963.3131579534, -42625.067248948486, -38959.85054491169, -31331.021348359747, -41800.779616925676, -0.032, 0.972, 0.22, 192.0, 0.0, 0.0, 0.0, 0.0, 0.0, 0.0, 0.0, 0.0, 0.0, 1.695675264884983E9, 0.0, 2023-09-25 15:54:24.884
38.0, -187500.02235174447, 3497.1092339884326, -16997.674643716175, -37198.421323111215, -16125.219002392174, -39214.43691425764, -187500.02235174447, -47328.634241656575, 11764.416010906221, -11387.476192411923, -54525.94065975436, -51965.05659402092, -42628.75528678361, -38958.531791988826, -31324.0923075786, -41815.151788610434, -0.032, 0.972, 0.22, 192.0, 0.0, 0.0, 0.0, 0.0, 0.0, 0.0, 0.0, 0.0, 0.0, 1.695675264884986E9, 0.0, 2023-09-25 15:54:24.884
40.0, -187500.02235174447, 3489.3755304068964, -16993.003129125016, -37193.50393933105, -16120.301618612006, -39211.55353922291, -187500.02235174447, -47326.91315733352, 11820.675351700229, -11378.043756251784, -54517.67051430589, -51957.43464916166, -42621.1109901799, -38954.195553564496, -31320.42662148793, -41786.51920396319, -0.032, 0.972, 0.22, 192.0, 0.0, 0.0, 0.0, 0.0, 0.0, 0.0, 0.0, 0.0, 0.0, 1.69567526488499E9, 0.0, 2023-09-25 15:54:24.884
42.0, -187500.02235174447, 3493.532954875583, -16991.617320968788, -37193.83921549788, -16112.702025497203, -39219.04137361543, -187500.02235174447, -47326.823750355696, 11754.402429390244, -11377.306148684758, -54519.436302117865, -51961.23444571906, -42624.9107867373, -38956.363672776664, -31321.901836621983, -41807.77571294019, -0.032, 0.96, 0.232, 192.0, 127.5, 0.0, 15.0, 0.0, 3.5, 32.0, 0.0, 0.0, 0.0, 1.695675264884993E9, 0.0, 2023-09-25 15:54:24.884
44.0, -187500.02235174447, 3499.053835756044, -16986.02938485496, -37186.485491572086, -16108.81282196198, -39209.54188222193, -187500.02235174447, -47324.65563114353, 11796.602522921863, -11368.074878224717, -54509.19920315733, -51950.88558803625, -42613.22082438717, -38952.161544819064, -31314.034022573713, -41797.829186657575, -0.032, 0.96, 0.232, 192.0, 0.0, 0.0, 0.0, 0.0, 0.0, 0.0, 0.0, 0.0, 0.0, 1.695675264945894E9, 0.0, 2023-09-25 15:54:24.945
46.0, -187500.02235174447, 3499.925553789801, -16985.02355635447, -37185.479663071594, -16114.914848198277, -39209.40777175519, -187500.02235174447, -47329.72947713488, 11725.32280985389, -11368.67837532501, -54509.98151421327, -51950.32679442487, -42622.3626878694, -38951.35688201868, -31317.632653431017, -41833.77079174171, -0.032, 0.96, 0.232, 192.0, 0.0, 0.0, 0.0, 0.0, 0.0, 0.0, 0.0, 0.0, 0.0, 1.695675264945908E9, 0.0, 2023-09-25 15:54:24.945
48.0, -187500.02235174447, 3501.289010201575, -16989.963291879092, -37189.36886660682, -16116.635932521336, -39209.653640944205, -187500.02235174447, -47332.23287251388, 11773.624929621808, -11365.973814245917, -54506.137014166954, -51947.77869555697, -42612.93025170926, -38953.65911169757, -31315.509237707764, -41803.484178004765, -0.032, 0.96, 0.232, 192.0, 0.0, 0.0, 0.0, 0.0, 0.0, 0.0, 0.0, 0.0, 0.0, 1.695675264945911E9, 0.0, 2023-09-25 15:54:24.945
50.0, -187500.02235174447, 3504.150033491854, -16988.532780233953, -37184.42913108219, -16117.127670899354, -39213.09580959032, -187500.02235174447, -47328.3213172342, 11746.914594997716, -11370.622977092622, -54515.88237474947, -51958.52988463997, -42633.22563567467, -38959.38115827813, -31319.82312438764, -41806.926346650886, -0.032, 0.96, 0.232, 192.0, 0.0, 0.0, 0.0, 0.0, 0.0, 0.0, 0.0, 0.0, 0.0, 1.695675264945915E9, 0.0, 2023-09-25 15:54:24.945
52.0, -187500.02235174447, 3512.9119173183344, -16987.30343428891, -37180.69638975816, -16120.86041222339, -39206.81496939838, -187500.02235174447, -47331.53996843576, 11778.698775613162, -11359.737677542887, -54509.40036885743, -51948.38219265726, -42615.72421976617, -38952.69798668599, -31315.263368518757, -41795.2140325563, -0.04, 0.966, 0.234, 192.0, 127.0, 96.0, 15.0, 24.0, 3.5, 40.0, 0.0, 0.0, 0.0, 1.695675264945918E9, 0.0, 2023-09-25 15:54:24.945
54.0, -187500.02235174447, 3513.9177458188233, -16993.02548086947, -37186.17256714971, -16131.18691816174, -39211.71000143409, -187500.02235174447, -47338.96074759492, 11749.641507821263, -11356.049639707762, -54511.657895047414, -51950.95264326962, -42630.43166761776, -38953.368539019655, -31324.76285991226, -41804.959393138815, -0.04, 0.966, 0.234, 192.0, 0.0, 0.0, 0.0, 0.0, 0.0, 0.0, 0.0, 0.0, 0.0, 1.695675264945922E9, 0.0, 2023-09-25 15:54:24.945
56.0, -187500.02235174447, 3510.319114961519, -16991.863190157794, -37185.68082877169, -16127.364769859883, -39215.06276310239, -187500.02235174447, -47340.07833481769, 11780.553970402952, -11363.828046778208, -54514.3177526376, -51955.08771599385, -42625.402525115314, -38961.683387957026, -31329.032043103227, -41784.28402951766, -0.04, 0.966, 0.234, 192.0, 0.0, 0.0, 0.0, 0.0, 0.0, 0.0, 0.0, 0.0, 0.0, 1.695675264945925E9, 0.0, 2023-09-25 15:54:24.945
58.0, -187500.02235174447, 3513.4707109297174, -16982.095477830826, -37176.44955831165, -16115.495993554116, -39220.71775444958, -187500.02235174447, -47328.03074455628, 11757.352859658344, -11351.758104772343, -54505.4664618333, -51949.768000813485, -42627.861217005404, -38948.78643140631, -31324.53934246771, -41807.93217515137, -0.04, 0.966, 0.234, 192.0, 0.0, 0.0, 0.0, 0.0, 0.0, 0.0, 0.0, 0.0, 0.0, 1.695675264945929E9, 0.0, 2023-09-25 15:54:24.945
60.0, -187500.02235174447, 3504.0829782584883, -16992.39963202472, -37190.70997127414, -16130.538717572537, -39214.16869332417, -187500.02235174447, -47338.491360961365, 11741.661935050719, -11357.10017169716, -54504.88531647746, -51944.82826528887, -42615.59010929944, -38961.05753911228, -31321.3430430106, -41817.90105317844, -0.04, 0.966, 0.234, 192.0, 0.0, 0.0, 0.0, 0.0, 0.0, 0.0, 0.0, 0.0, 0.0, 1.695675265005554E9, 0.0, 2023-09-25 15:54:25.005
62.0, -187500.02235174447, 3498.5620973780274, -17006.2130100981, -37204.6798115587, -16142.00516247811, -39235.40285055672, -187500.02235174447, -47356.37275652561, 11760.213882948623, -11371.360584659647, -54524.197223686846, -51963.38021318677, -42641.428725889775, -38977.5978300092, -31342.57720024314, -41807.01575362871, -0.04, 0.98, 0.234, 192.0, 127.0, 96.0, 15.0, 80.0, 3.5, 40.0, 0.0, 0.0, 0.0, 1.695675265005562E9, 0.0, 2023-09-25 15:54:25.005
64.0, -187500.02235174447, 3508.5533271495497, -17000.200390839625, -37196.744942277066, -16137.959496731699, -39221.56712073888, -187500.02235174447, -47352.93058787949, 11750.51322585502, -11369.72890731441, -54522.27497366369, -51963.1119922533, -42636.5113421096, -38972.21105959547, -31342.21957233186, -41813.43070428738, -0.04, 0.98, 0.234, 192.0, 0.0, 0.0, 0.0, 0.0, 0.0, 0.0, 0.0, 0.0, 0.0, 1.695675265005566E9, 0.0, 2023-09-25 15:54:25.005
66.0, -187500.02235174447, 3524.735990135192, -16982.564864464388, -37175.89076470027, -16116.278304610052, -39219.13078059325, -187500.02235174447, -47336.882035360584, 11771.99325227657, -11360.184712431994, -54518.20695617282, -51961.48031490807, -42638.88062702187, -38963.203306579984, -31336.81045017367, -41807.954526895825, -0.04, 0.98, 0.234, 192.0, 0.0, 0.0, 0.0, 0.0, 0.0, 0.0, 0.0, 0.0, 0.0, 1.695675265005569E9, 0.0, 2023-09-25 15:54:25.005
68.0, -187500.02235174447, 3517.605783653949, -16983.995376109528, -37182.909212459235, -16123.833194235945, -39206.211472298084, -187500.02235174447, -47347.029727343295, 11713.990475415048, -11345.119636669117, -54498.69388326334, -51941.810779787396, -42612.10323716441, -38945.70189067148, -31315.755106896773, -41833.5249225527, -0.04, 0.98, 0.234, 192.0, 0.0, 0.0, 0.0, 0.0, 0.0, 0.0, 0.0, 0.0, 0.0, 1.695675265005572E9, 0.0, 2023-09-25 15:54:25.005
70.0, -187500.02235174447, 3517.158748764843, -16988.152800578213, -37187.1783956502, -16128.325894871461, -39217.58851022584, -187500.02235174447, -47350.76246866733, 11759.968013759615, -11359.178883931505, -54509.17685141288, -51953.59014911534, -42628.844693761435, -38960.56580073426, -31329.076746592134, -41808.75918969622, -0.04, 0.98, 0.234, 192.0, 0.0, 0.0, 0.0, 0.0, 0.0, 0.0, 0.0, 0.0, 0.0, 1.695675265005576E9, 0.0, 2023-09-25 15:54:25.005
72.0, -187500.02235174447, 3505.669952114815, -16995.953559393118, -37193.90627073125, -16145.424979379772, -39223.17644633966, -187500.02235174447, -47365.179343841, 11721.187737129658, -11363.716288055932, -54512.440206103354, -51959.93804454065, -42635.8631415204, -38967.42778628204, -31332.317749538157, -41822.46080904732, -0.04, 0.982, 0.23, 192.0, 127.0, 96.0, 15.0, 88.0, 3.5, 24.0, 0.0, 0.0, 0.0, 1.69567526500558E9, 0.0, 2023-09-25 15:54:25.005
74.0, -187500.02235174447, 3514.6553533858482, -16982.095477830826, -37179.02000892401, -16131.768063517578, -39219.06372535988, -187500.02235174447, -47351.99181461237, 11761.286766682479, -11360.430581621002, -54507.902801978926, -51962.28497770846, -42629.44819086173, -38962.018664123854, -31337.458650762877, -41813.67657347638, -0.04, 0.982, 0.23, 192.0, 0.0, 0.0, 0.0, 0.0, 0.0, 0.0, 0.0, 0.0, 0.0, 1.695675265066023E9, 0.0, 2023-09-25 15:54:25.066
76.0, -187500.02235174447, 3508.8438998274687, -16991.192637824137, -37188.139520661774, -16138.42888336526, -39225.724545207566, -187500.02235174447, -47367.928608409005, 11704.111004365803, -11364.118619456127, -54509.35566536852, -51961.659128863714, -42630.454019362216, -38961.750443190394, -31332.92124663845, -41835.11189640903, -0.04, 0.982, 0.23, 192.0, 0.0, 0.0, 0.0, 0.0, 0.0, 0.0, 0.0, 0.0, 0.0, 1.695675265066036E9, 0.0, 2023-09-25 15:54:25.066
78.0, -187500.02235174447, 3524.959507579745, -16990.209161068102, -37179.757616491035, -16128.504708827104, -39222.41648702818, -187500.02235174447, -47352.79647741276, 11772.596749376864, -11365.951462501462, -54517.17877592788, -51961.70383235262, -42635.52786535357, -38966.62312348165, -31343.471270021353, -41813.36364905401, -0.04, 0.982, 0.23, 192.0, 0.0, 0.0, 0.0, 0.0, 0.0, 0.0, 0.0, 0.0, 0.0, 1.69567526506604E9, 0.0, 2023-09-25 15:54:25.066
80.0, -187500.02235174447, 3527.641716914382, -16993.74073669204, -37181.54575604746, -16128.392950104828, -39210.61476595578, -187500.02235174447, -47348.10261107715, 11697.07020486238, -11345.72313376941, -54499.31973210809, -51942.05664897641, -42618.987574456645, -38950.10518432918, -31325.81339190166, -41847.405355859446, -0.04, 0.982, 0.23, 192.0, 0.0, 0.0, 0.0, 0.0, 0.0, 0.0, 0.0, 0.0, 0.0, 1.695675265066043E9, 0.0, 2023-09-25 15:54:25.066
82.0, -187500.02235174447, 3530.346277993474, -16982.386050508743, -37169.98990416407, -16116.792394732523, -39216.11329509179, -187500.02235174447, -47340.57007319571, 11764.348955672856, -11351.601642561156, -54502.15840365391, -51947.532826367955, -42622.07211519148, -38956.27426579884, -31325.94750236839, -41817.342259567056, -0.04, 0.984, 0.22, 192.0, 127.0, 96.0, 15.0, 96.0, 3.0, 112.0, 0.0, 0.0, 0.0, 1.695675265066047E9, 0.0, 2023-09-25 15:54:25.066
84.0, -187500.02235174447, 3512.7778068516027, -16993.383108780756, -37184.83146248239, -16134.539679830037, -39214.749838680014, -187500.02235174447, -47359.63611121608, 11685.201428556613, -11343.376200601602, -54491.78719422665, -51940.268509419984, -42615.03131568805, -38945.523076715835, -31320.091345321103, -41851.49572509476, -0.04, 0.984, 0.22, 192.0, 0.0, 0.0, 0.0, 0.0, 0.0, 0.0, 0.0, 0.0, 0.0, 1.695675265066051E9, 0.0, 2023-09-25 15:54:25.066
86.0, -187500.02235174447, 3516.9799348092006, -17006.905914176215, -37192.85573874185, -16145.91671775779, -39230.66428073219, -187500.02235174447, -47372.1307363666, 11788.04180479548, -11370.645328837078, -54515.74826428274, -51964.83307657637, -42632.622138574385, -38970.847603183705, -31346.086424122626, -41797.337448279555, -0.04, 0.984, 0.22, 192.0, 0.0, 0.0, 0.0, 0.0, 0.0, 0.0, 0.0, 0.0, 0.0, 1.695675265066054E9, 0.0, 2023-09-25 15:54:25.066
88.0, -187500.02235174447, 3532.3355832499965, -16995.97591113757, -37183.62446828181, -16139.255897910107, -39220.49423700503, -187500.02235174447, -47364.151163596056, 11726.440397076654, -11358.977718231406, -54506.20406940032, -51960.3627276853, -42631.973937985174, -38962.82332692425, -31343.694787465905, -41834.5754545421, -0.04, 0.984, 0.22, 192.0, 0.0, 0.0, 0.0, 0.0, 0.0, 0.0, 0.0, 0.0, 0.0, 1.695675265066058E9, 0.0, 2023-09-25 15:54:25.066
90.0, -187500.02235174447, 3532.1120658054433, -16990.11975409028, -37178.72943624609, -16133.623258307369, -39217.409696270195, -187500.02235174447, -47353.75760242434, 11789.271150740524, -11351.400476861058, -54497.03985417364, -51946.72816356757, -42620.75336226861, -38959.917600145054, -31337.63746471852, -41816.291727577656, -0.04, 0.984, 0.22, 192.0, 0.0, 0.0, 0.0, 0.0, 0.0, 0.0, 0.0, 0.0, 0.0, 1.695675265125273E9, 0.0, 2023-09-25 15:54:25.125
92.0, -187500.02235174447, 3538.728182164214, -16984.509466232, -37175.86841295581, -16134.942011230232, -39211.17355956716, -187500.02235174447, -47348.37083201061, 11731.536594812465, -11343.15268315705, -54489.0602814031, -51939.352087897314, -42618.071152933975, -38950.37340526264, -31333.480040249833, -41847.47241109281, -0.04, 0.984, 0.214, 192.0, 127.0, 96.0, 15.0, 96.0, 3.0, 88.0, 0.0, 0.0, 0.0, 1.695675265125282E9, 0.0, 2023-09-25 15:54:25.125
94.0, -187500.02235174447, 3533.162597794843, -16995.75239369302, -37182.43982582567, -16138.920621743277, -39221.880045161255, -187500.02235174447, -47353.578788468694, 11799.86587761234, -11346.639555292077, -54492.32363609358, -51937.49689310753, -42611.365629597385, -38950.30635002928, -31331.021348359747, -41813.698925220844, -0.04, 0.984, 0.214, 192.0, 0.0, 0.0, 0.0, 0.0, 0.0, 0.0, 0.0, 0.0, 0.0, 1.695675265125286E9, 0.0, 2023-09-25 15:54:25.125
96.0, -187500.02235174447, 3534.8166268845353, -16994.74656519253, -37181.61281128083, -16136.037246708544, -39216.33681253634, -187500.02235174447, -47354.94224488047, 11752.323717155901, -11343.398552346058, -54492.77067098268, -51938.033334974454, -42621.26745239108, -38943.19849529249, -31335.514048995265, -41836.87768422099, -0.04, 0.984, 0.214, 192.0, 0.0, 0.0, 0.0, 0.0, 0.0, 0.0, 0.0, 0.0, 0.0, 1.695675265125289E9, 0.0, 2023-09-25 15:54:25.125
98.0, -187500.02235174447, 3532.961432094745, -17008.02350139898, -37195.470892843114, -16146.76608404709, -39223.39996378421, -187500.02235174447, -47373.67300673402, 11798.949456089671, -11350.193482660472, -54497.21866812929, -51934.30059365041, -42608.214033629185, -38948.674672684036, -31341.95135139839, -41816.09056187756, -0.04, 0.984, 0.214, 192.0, 0.0, 0.0, 0.0, 0.0, 0.0, 0.0, 0.0, 0.0, 0.0, 1.695675265125293E9, 0.0, 2023-09-25 15:54:25.125
100.0, -187500.02235174447, 3535.9118623628456, -16997.272312315978, -37188.58655555088, -16139.926450243765, -39222.08121086135, -187500.02235174447, -47359.0773176047, 11775.010737778037, -11353.836817006686, -54499.81147048611, -51935.52993959546, -42611.56679529748, -38951.22277155194, -31348.902743923994, -41832.027355674196, -0.04, 0.984, 0.214, 192.0, 0.0, 0.0, 0.0, 0.0, 0.0, 0.0, 0.0, 0.0, 0.0, 1.695675265125296E9, 0.0, 2023-09-25 15:54:25.125
102.0, -187500.02235174447, 3529.921594848823, -17004.044890885936, -37191.64874454126, -16140.14996768832, -39216.33681253634, -187500.02235174447, -47347.923797121504, 11805.09618581488, -11354.417962362524, -54494.22353437228, -51925.89633773522, -42594.311248577986, -38948.51821047285, -31344.477098521842, -41823.46663754781, -0.04, 0.992, 0.20400000000000001, 192.0, 127.0, 96.0, 15.5, 0.0, 3.0, 48.0, 0.0, 0.0, 0.0, 1.6956752651253E9, 0.0, 2023-09-25 15:54:25.125
104.0, -187500.02235174447, 3536.0012693406666, -16998.680472216663, -37183.244488626064, -16134.673790296769, -39218.81785617088, -187500.02235174447, -47344.302814519746, 11785.80663034995, -11351.065200694227, -54492.658912260405, -51920.88954697723, -42599.56390852498, -38940.9409691025, -31342.53249675423, -41837.816457488116, -0.04, 0.992, 0.20400000000000001, 192.0, 0.0, 0.0, 0.0, 0.0, 0.0, 0.0, 0.0, 0.0, 0.0, 1.69567526518588E9, 0.0, 2023-09-25 15:54:25.185
106.0, -187500.02235174447, 3541.8127228990465, -17006.481231031565, -37191.96166896363, -16143.547432845526, -39220.51658874948, -187500.02235174447, -47359.0773176047, 11801.788127635495, -11357.524854841811, -54492.033063415656, -51915.100445163305, -42585.974047896154, -38946.08187032722, -31340.565543242163, -41826.88645444947, -0.04, 0.992, 0.20400000000000001, 192.0, 0.0, 0.0, 0.0, 0.0, 0.0, 0.0, 0.0, 0.0, 0.0, 1.695675265185893E9, 0.0, 2023-09-25 15:54:25.185
108.0, -187500.02235174447, 3542.1479990658763, -16994.45599251461, -37176.78483447848, -16130.583421061448, -39222.84117017283, -187500.02235174447, -47353.08705009068, 11798.278903756012, -11358.754200786854, -54487.24979010222, -51914.206375385096, -42585.57171649596, -38937.67761441202, -31338.084499607623, -41838.442306332865, -0.04, 0.992, 0.20400000000000001, 192.0, 0.0, 0.0, 0.0, 0.0, 0.0, 0.0, 0.0, 0.0, 0.0, 1.695675265185897E9, 0.0, 2023-09-25 15:54:25.185
110.0, -187500.02235174447, 3536.113028062943, -17006.6153414983, -37190.5758608074, -16146.274345669073, -39230.30665282091, -187500.02235174447, -47367.23570433089, 11809.678293428218, -11378.40138416307, -54497.71040650731, -51925.8069307574, -42584.6999984622, -38952.18389656352, -31346.220534589356, -41825.14301838196, -0.04, 0.992, 0.20400000000000001, 192.0, 0.0, 0.0, 0.0, 0.0, 0.0, 0.0, 0.0, 0.0, 0.0, 1.6956752651859E9, 0.0, 2023-09-25 15:54:25.185
112.0, -187500.02235174447, 3552.9215398933343, -16983.83891389834, -37167.21828785161, -16116.770042988068, -39222.640004472734, -187500.02235174447, -47345.21923604241, 11830.018380882548, -11372.34406141568, -54494.29058960565, -51925.22578540156, -42592.18783285473, -38949.56874246225, -31350.266200335765, -41826.41706781591, -0.046, 1.004, 0.196, 192.0, 127.0, 72.0, 15.5, 48.0, 3.0, 16.0, 0.0, 0.0, 0.0, 1.695675265185903E9, 0.0, 2023-09-25 15:54:25.185
114.0, -187500.02235174447, 3537.856464130457, -16985.291777287934, -37168.13470937427, -16120.18985988973, -39208.58075721035, -187500.02235174447, -47343.40874474153, 11781.336281458889, -11357.904834497553, -54477.92911266436, -51906.450320059106, -42564.47166973015, -38932.13438178711, -31329.30026403669, -41853.03799546218, -0.046, 1.004, 0.196, 192.0, 0.0, 0.0, 0.0, 0.0, 0.0, 0.0, 0.0, 0.0, 0.0, 1.695675265185906E9, 0.0, 2023-09-25 15:54:25.185
116.0, -187500.02235174447, 3539.4881414756946, -16985.425887754667, -37165.81012795092, -16118.245258122119, -39221.83534167235, -187500.02235174447, -47343.02876508579, 11808.158374805258, -11362.397535133068, -54484.36641506749, -51913.021732928966, -42577.323922791955, -38937.051765567274, -31340.252618819788, -41837.883512721484, -0.046, 1.004, 0.196, 192.0, 0.0, 0.0, 0.0, 0.0, 0.0, 0.0, 0.0, 0.0, 0.0, 1.69567526518591E9, 0.0, 2023-09-25 15:54:25.185
118.0, -187500.02235174447, 3546.4842374902055, -16980.776724907962, -37165.25133433954, -16116.52417379906, -39213.31932703487, -187500.02235174447, -47341.53119820729, 11754.357725901333, -11363.872750267119, -54481.01365339919, -51911.79238698392, -42573.01003611208, -38937.58820743421, -31342.510145009775, -41858.33535889809, -0.046, 1.004, 0.196, 192.0, 0.0, 0.0, 0.0, 0.0, 0.0, 0.0, 0.0, 0.0, 0.0, 1.695675265185913E9, 0.0, 2023-09-25 15:54:25.185
120.0, -187500.02235174447, 3549.9040543918677, -16975.524064960966, -37164.69254072816, -16109.52807778455, -39218.08024860385, -187500.02235174447, -47339.832465628686, 11796.468412455131, -11362.263424666337, -54476.16332485239, -51911.680628261645, -42572.58535296743, -38933.162562032056, -31336.4975257513, -41837.95056795485, -0.046, 1.004, 0.196, 192.0, 0.0, 0.0, 0.0, 0.0, 0.0, 0.0, 0.0, 0.0, 0.0, 1.695675265245341E9, 0.0, 2023-09-25 15:54:25.245
122.0, -187500.02235174447, 3545.567815967538, -16982.6095679533, -37175.01904666651, -16121.821537234968, -39217.968489881576, -187500.02235174447, -47344.83925638667, 11752.144903200258, -11363.269253166825, -54477.280912075155, -51913.89345096272, -42572.71946343416, -38936.47062021144, -31339.53736299722, -41844.320815124614, -0.044, 1.0, 0.194, 192.0, 127.0, 80.0, 15.5, 32.0, 3.0, 8.0, 0.0, 0.0, 0.0, 1.695675265245349E9, 0.0, 2023-09-25 15:54:25.245
124.0, -187500.02235174447, 3552.7203741932362, -16985.291777287934, -37172.20272686514, -16119.564011044982, -39226.26098707449, -187500.02235174447, -47345.46510523142, 11808.940685861193, -11372.187599204493, -54487.428604057866, -51921.22482314406, -42584.83410892893, -38943.86904762615, -31351.562601514175, -41820.56091076862, -0.044, 1.0, 0.194, 192.0, 0.0, 0.0, 0.0, 0.0, 0.0, 0.0, 0.0, 0.0, 0.0, 1.695675265245353E9, 0.0, 2023-09-25 15:54:25.245
126.0, -187500.02235174447, 3541.5445019655826, -16990.387975023743, -37175.488433300074, -16126.269534381574, -39214.92865263565, -187500.02235174447, -47349.242550044364, 11747.831016520384, -11365.325613656714, -54481.10306037701, -51917.55913705339, -42582.93421065024, -38938.07994581222, -31345.371168300055, -41845.3266436251, -0.044, 1.0, 0.194, 192.0, 0.0, 0.0, 0.0, 0.0, 0.0, 0.0, 0.0, 0.0, 0.0, 1.695675265245357E9, 0.0, 2023-09-25 15:54:25.245
128.0, -187500.02235174447, 3531.0838855604993, -17001.340329806844, -37180.85285196934, -16135.8584327529, -39233.72646972257, -187500.02235174447, -47360.06079436074, 11826.442101769699, -11376.769706817831, -54493.03889191615, -51925.96339296859, -42593.66304798878, -38950.060480840264, -31357.284648094734, -41811.955489153326, -0.044, 1.0, 0.194, 192.0, 0.0, 0.0, 0.0, 0.0, 0.0, 0.0, 0.0, 0.0, 0.0, 1.695675265245362E9, 0.0, 2023-09-25 15:54:25.245
130.0, -187500.02235174447, 3530.636850671393, -16999.932169906162, -37178.640029268274, -16134.159700174298, -39219.3095945489, -187500.02235174447, -47360.1278495941, 11767.433496407688, -11377.730831829409, -54497.10690940701, -51932.020715715975, -42601.26264110359, -38948.98759710641, -31358.4022353175, -41835.98361444278, -0.044, 1.0, 0.194, 192.0, 0.0, 0.0, 0.0, 0.0, 0.0, 0.0, 0.0, 0.0, 0.0, 1.695675265245367E9, 0.0, 2023-09-25 15:54:25.245
132.0, -187500.02235174447, 3540.449266487273, -16991.4608587576, -37165.09487212836, -16120.547487801015, -39216.649736958716, -187500.02235174447, -47335.98796558237, 11836.656848985775, -11373.618110849633, -54495.29641810613, -51927.192738913625, -42595.65235324531, -38943.33260575922, -31351.54024976972, -41806.05462861712, -0.048, 1.0, 0.188, 192.0, 127.0, 64.0, 15.5, 32.0, 2.5, 112.0, 0.0, 0.0, 0.0, 1.695675265245372E9, 0.0, 2023-09-25 15:54:25.245
134.0, -187500.02235174447, 3527.217033769731, -17000.781536195464, -37176.2260408671, -16126.202479148207, -39216.4038677697, -187500.02235174447, -47346.26976803181, 11767.858179552339, -11376.032099250806, -54496.48106056226, -51930.32198313737, -42595.78646371204, -38942.12561155863, -31347.516935767766, -41831.15563764043, -0.048, 1.0, 0.188, 192.0, 0.0, 0.0, 0.0, 0.0, 0.0, 0.0, 0.0, 0.0, 0.0, 1.695675265305569E9, 0.0, 2023-09-25 15:54:25.305
136.0, -187500.02235174447, 3535.17425479582, -17000.178039095168, -37170.28047684199, -16125.733092514647, -39222.39413528373, -187500.02235174447, -47349.28725353328, 11840.948383921193, -11379.787192319298, -54501.15257515342, -51938.27920416346, -42597.21697535717, -38944.71841391545, -31350.288552080223, -41804.93704139436, -0.048, 1.0, 0.188, 192.0, 0.0, 0.0, 0.0, 0.0, 0.0, 0.0, 0.0, 0.0, 0.0, 1.695675265305585E9, 0.0, 2023-09-25 15:54:25.305
138.0, -187500.02235174447, 3550.149923580876, -16993.718384947584, -37162.85969768283, -16119.765176745079, -39213.25227180151, -187500.02235174447, -47328.142503278556, 11773.088487754881, -11373.998090505373, -54499.20797338581, -51938.860349519295, -42596.97110616817, -38945.76894590485, -31353.73072072634, -41841.57155055661, -0.048, 1.0, 0.188, 192.0, 0.0, 0.0, 0.0, 0.0, 0.0, 0.0, 0.0, 0.0, 0.0, 1.695675265305589E9, 0.0, 2023-09-25 15:54:25.305
140.0, -187500.02235174447, 3541.611557198949, -16992.869018658283, -37157.49527901355, -16122.425034335261, -39201.607012940294, -187500.02235174447, -47331.24939575785, 11843.63059325583, -11365.638538079089, -54488.97087442528, -51927.95269822511, -42585.214088584675, -38932.89434109859, -31338.93386589693, -41811.106122864025, -0.048, 1.0, 0.188, 192.0, 0.0, 0.0, 0.0, 0.0, 0.0, 0.0, 0.0, 0.0, 0.0, 1.695675265305592E9, 0.0, 2023-09-25 15:54:25.305
142.0, -187500.02235174447, 3513.046027785066, -17004.849553686327, -37173.40972106573, -16133.869127496378, -39222.4611905171, -187500.02235174447, -47357.155067581545, 11835.561613507463, -11389.264331968348, -54509.869755490996, -51950.058573491406, -42611.365629597385, -38954.59788496469, -31361.77734873025, -41807.08280886207, -0.044, 1.008, 0.188, 192.0, 127.0, 80.0, 15.5, 64.0, 2.5, 112.0, 0.0, 0.0, 0.0, 1.695675265305596E9, 0.0, 2023-09-25 15:54:25.305
144.0, -187500.02235174447, 3529.3628012374406, -16990.298568045924, -37157.16000284672, -16119.675769767258, -39212.26879504547, -187500.02235174447, -47348.7284599219, 11897.297131693022, -11378.624901607622, -54499.14091815244, -51945.454114133616, -42598.02163815757, -38946.35009126068, -31347.896915423506, -41797.695076190845, -0.044, 1.008, 0.188, 192.0, 0.0, 0.0, 0.0, 0.0, 0.0, 0.0, 0.0, 0.0, 0.0, 1.695675265305601E9, 0.0, 2023-09-25 15:54:25.305
146.0, -187500.02235174447, 3527.440551214284, -16991.259693057502, -37157.78585169147, -16119.631066278347, -39221.70123120561, -187500.02235174447, -47345.84508488716, 11867.05522144499, -11382.603512120666, -54497.464537318294, -51946.258776934, -42608.72812375166, -38947.691195928004, -31344.968836899858, -41822.97489916979, -0.044, 1.008, 0.188, 192.0, 0.0, 0.0, 0.0, 0.0, 0.0, 0.0, 0.0, 0.0, 0.0, 1.695675265305604E9, 0.0, 2023-09-25 15:54:25.305
148.0, -187500.02235174447, 3532.1120658054433, -16994.612454725797, -37159.283418569976, -16124.056711680498, -39222.260024817, -187500.02235174447, -47347.007375598834, 11919.69357963724, -11379.049584752272, -54494.42470007238, -51941.52020710948, -42592.14312936582, -38948.674672684036, -31344.186525843925, -41806.79223618415, -0.044, 1.008, 0.188, 192.0, 0.0, 0.0, 0.0, 0.0, 0.0, 0.0, 0.0, 0.0, 0.0, 1.695675265305607E9, 0.0, 2023-09-25 15:54:25.305
150.0, -187500.02235174447, 3543.0420688440886, -16981.223759797067, -37147.07936609738, -16109.863353951378, -39214.19104506863, -187500.02235174447, -47321.68284913097, 11895.64310260333, -11381.86590455364, -54495.76580473969, -51945.67763157817, -42601.9555451817, -38946.573608705236, -31345.92996191144, -41822.61727125851, -0.044, 1.008, 0.188, 192.0, 0.0, 0.0, 0.0, 0.0, 0.0, 0.0, 0.0, 0.0, 0.0, 1.695675265365999E9, 0.0, 2023-09-25 15:54:25.365
152.0, -187500.02235174447, 3523.2607750011416, -16995.819448926384, -37163.77611920549, -16123.922601213766, -39213.60989971279, -187500.02235174447, -47345.5768639537, 11909.2106114877, -11377.082631240206, -54486.82510695757, -51938.07803846336, -42586.17521359625, -38940.493934213395, -31333.837668161115, -41813.98949789876, -0.036000000000000004, 1.008, 0.186, 192.0, 127.0, 112.0, 15.5, 64.0, 2.5, 104.0, 0.0, 0.0, 0.0, 1.695675265366009E9, 0.0, 2023-09-25 15:54:25.366
154.0, -187500.02235174447, 3549.412316013851, -16977.89334987323, -37141.871409639294, -16109.595133017914, -39215.46509450258, -187500.02235174447, -47322.912195076016, 11914.463271434697, -11382.648215609577, -54496.436357073355, -51947.62223334578, -42607.588184784436, -38947.93706511701, -31347.002845645293, -41813.58716649857, -0.036000000000000004, 1.008, 0.186, 192.0, 0.0, 0.0, 0.0, 0.0, 0.0, 0.0, 0.0, 0.0, 0.0, 1.695675265366013E9, 0.0, 2023-09-25 15:54:25.366
156.0, -187500.02235174447, 3545.210188056253, -16981.31316677489, -37145.73826143006, -16116.166545887774, -39201.15997805118, -187500.02235174447, -47317.68188687347, 11907.623637631374, -11365.43737237899, -54479.11375512049, -51930.94783198212, -42584.051797873, -38934.66012891056, -31327.57917971363, -41818.12457062299, -0.036000000000000004, 1.008, 0.186, 192.0, 0.0, 0.0, 0.0, 0.0, 0.0, 0.0, 0.0, 0.0, 0.0, 1.695675265366016E9, 0.0, 2023-09-25 15:54:25.366
158.0, -187500.02235174447, 3540.359859509452, -16980.12852431876, -37147.68286319767, -16118.178202888752, -39215.018059613474, -187500.02235174447, -47330.93647133547, 11914.105643523413, -11372.388764904592, -54489.797888970126, -51942.68249782116, -42601.3073445925, -38942.75146040338, -31330.373147770544, -41807.351029795536, -0.036000000000000004, 1.008, 0.186, 192.0, 0.0, 0.0, 0.0, 0.0, 0.0, 0.0, 0.0, 0.0, 0.0, 1.695675265366019E9, 0.0, 2023-09-25 15:54:25.366
160.0, -187500.02235174447, 3538.5270164641165, -16988.26455930049, -37157.13765110227, -16127.47652858216, -39211.55353922291, -187500.02235174447, -47343.76637265282, 11896.246599703623, -11369.550093358766, -54481.99713015523, -51935.97697448456, -42591.40552179879, -38941.32094875824, -31326.618054702052, -41810.99436414175, -0.036000000000000004, 1.008, 0.186, 192.0, 0.0, 0.0, 0.0, 0.0, 0.0, 0.0, 0.0, 0.0, 0.0, 1.695675265366022E9, 0.0, 2023-09-25 15:54:25.366
162.0, -187500.02235174447, 3549.188798569298, -16986.856399399807, -37151.996749877544, -16121.463909323682, -39220.561292238395, -187500.02235174447, -47349.51077097783, 11920.11826278189, -11372.567578860233, -54489.55201978112, -51944.58239609985, -42606.3588388394, -38948.18293430602, -31339.58206648613, -41803.37241928249, -0.034, 1.006, 0.194, 192.0, 127.0, 120.0, 15.5, 56.0, 3.0, 8.0, 0.0, 0.0, 0.0, 1.695675265366026E9, 0.0, 2023-09-25 15:54:25.366
164.0, -187500.02235174447, 3549.8817026474126, -16985.805867410407, -37156.57885749088, -16121.083929667942, -39219.9577951381, -187500.02235174447, -47350.2260268004, 11881.002709985103, -11367.560788102244, -54483.20412435581, -51937.27337566297, -42591.83020494344, -38944.763117404356, -31331.088403593112, -41818.41514330091, -0.034, 1.006, 0.194, 192.0, 0.0, 0.0, 0.0, 0.0, 0.0, 0.0, 0.0, 0.0, 0.0, 1.695675265426265E9, 0.0, 2023-09-25 15:54:25.426
166.0, -187500.02235174447, 3545.7242781787254, -16978.78741965144, -37152.30967429992, -16116.166545887774, -39218.79550442642, -187500.02235174447, -47357.04330885927, 11908.115376009391, -11368.67837532501, -54488.30032209162, -51940.760247797996, -42598.848652702414, -38945.83600113821, -31333.860019905573, -41809.13916935196, -0.034, 1.006, 0.194, 192.0, 0.0, 0.0, 0.0, 0.0, 0.0, 0.0, 0.0, 0.0, 0.0, 1.695675265426278E9, 0.0, 2023-09-25 15:54:25.426
168.0, -187500.02235174447, 3539.644603686882, -16984.911797632194, -37160.937447659664, -16125.353112858906, -39206.54674846491, -187500.02235174447, -47355.18811406948, 11850.760799737072, -11354.663831551532, -54478.599664998015, -51930.679611048654, -42583.0012658836, -38932.51436144285, -31323.555865711674, -41827.98168992778, -0.034, 1.006, 0.194, 192.0, 0.0, 0.0, 0.0, 0.0, 0.0, 0.0, 0.0, 0.0, 0.0, 1.695675265426282E9, 0.0, 2023-09-25 15:54:25.426
170.0, -187500.02235174447, 3534.481350717706, -16986.185847066146, -37161.60799999333, -16119.675769767258, -39225.12104810728, -187500.02235174447, -47336.814980127216, 11920.386483715354, -11373.975738760917, -54496.2128396288, -51950.23738744705, -42602.693152748725, -38949.725204673436, -31342.53249675423, -41792.12949182147, -0.034, 1.006, 0.194, 192.0, 0.0, 0.0, 0.0, 0.0, 0.0, 0.0, 0.0, 0.0, 0.0, 1.695675265426285E9, 0.0, 2023-09-25 15:54:25.426
172.0, -187500.02235174447, 3533.162597794843, -16988.018690111483, -37168.64879949675, -16125.487223325637, -39211.82176015637, -187500.02235174447, -47346.64974768755, 11850.000840425593, -11369.795962547776, -54487.629769757965, -51943.509512366, -42598.088693390935, -38946.439498238506, -31333.748261183297, -41819.97976541278, -0.03, 1.0, 0.192, 192.0, 127.5, 8.0, 15.5, 32.0, 3.0, 0.0, 0.0, 0.0, 0.0, 1.695675265426288E9, 0.0, 2023-09-25 15:54:25.426
174.0, -187500.02235174447, 3541.7903711545914, -16980.709669674598, -37159.05990112542, -16114.490165053627, -39217.14147533673, -187500.02235174447, -47335.898558604546, 11913.680960378762, -11366.666718324032, -54488.54619128063, -51941.29668966492, -42595.74176022312, -38946.97594010543, -31330.52960998173, -41791.16836680989, -0.03, 1.0, 0.192, 192.0, 0.0, 0.0, 0.0, 0.0, 0.0, 0.0, 0.0, 0.0, 0.0, 1.695675265426291E9, 0.0, 2023-09-25 15:54:25.426
176.0, -187500.02235174447, 3538.8846443754014, -16981.13435281925, -37163.887877927766, -16120.346322100917, -39211.106504333795, -187500.02235174447, -47344.05694533073, 11834.309915817967, -11363.001032233362, -54480.566618510085, -51934.92644249516, -42588.231574086145, -38942.21501853645, -31330.551961726185, -41820.94089042436, -0.03, 1.0, 0.192, 192.0, 0.0, 0.0, 0.0, 0.0, 0.0, 0.0, 0.0, 0.0, 0.0, 1.695675265426294E9, 0.0, 2023-09-25 15:54:25.426
178.0, -187500.02235174447, 3546.7748101681245, -16980.88848363024, -37159.8198604369, -16120.256915123096, -39212.49231249002, -187500.02235174447, -47346.426230243, 11895.106660736403, -11360.497636854368, -54478.800830698114, -51929.98670697054, -42588.83507118643, -38937.18587603401, -31331.58014197113, -41794.00703835572, -0.03, 1.0, 0.192, 192.0, 0.0, 0.0, 0.0, 0.0, 0.0, 0.0, 0.0, 0.0, 0.0, 1.695675265426298E9, 0.0, 2023-09-25 15:54:25.426
180.0, -187500.02235174447, 3542.6173856994374, -16992.958425636105, -37172.694465243156, -16134.785549019045, -39226.12687660776, -187500.02235174447, -47357.356233281644, 11832.700590217184, -11368.00782299135, -54485.327540079066, -51937.98863148554, -42599.02746665805, -38944.71841391545, -31341.884296165026, -41813.56481475411, -0.03, 1.0, 0.192, 192.0, 0.0, 0.0, 0.0, 0.0, 0.0, 0.0, 0.0, 0.0, 0.0, 1.695675265485773E9, 0.0, 2023-09-25 15:54:25.485
182.0, -187500.02235174447, 3545.7913334120913, -16981.13435281925, -37158.232886580576, -16121.843888979423, -39215.71096369159, -187500.02235174447, -47352.86353264613, 11899.129974738356, -11373.484000382901, -54492.97183668278, -51944.02360248847, -42603.4084085713, -38950.283998284816, -31348.411005545975, -41783.501718461725, -0.032, 1.004, 0.196, 192.0, 127.5, 0.0, 15.5, 48.0, 3.0, 16.0, 0.0, 0.0, 0.0, 1.695675265485784E9, 0.0, 2023-09-25 15:54:25.485
184.0, -187500.02235174447, 3540.2704525316303, -16978.720364418074, -37162.99380814956, -16122.71560701318, -39214.14634157972, -187500.02235174447, -47360.35136703865, 11812.584020207409, -11363.001032233362, -54481.37128131048, -51934.94879423962, -42596.07703638996, -38941.76798364735, -31334.99995887279, -41819.93506192387, -0.032, 1.004, 0.196, 192.0, 0.0, 0.0, 0.0, 0.0, 0.0, 0.0, 0.0, 0.0, 0.0, 1.695675265485788E9, 0.0, 2023-09-25 15:54:25.485
186.0, -187500.02235174447, 3533.766094895136, -16983.682451687153, -37168.46998554111, -16131.43278735075, -39227.62444348627, -187500.02235174447, -47385.1841551285, 11878.029927972548, -11373.215779449438, -54490.3119790926, -51943.93419551065, -42598.58043176895, -38952.76504191936, -31344.566505499664, -41786.60861094101, -0.032, 1.004, 0.196, 192.0, 0.0, 0.0, 0.0, 0.0, 0.0, 0.0, 0.0, 0.0, 0.0, 1.695675265485791E9, 0.0, 2023-09-25 15:54:25.485
188.0, -187500.02235174447, 3538.370554252929, -16978.608605695797, -37163.44084303866, -16135.724322286169, -39229.25612083151, -187500.02235174447, -47371.30372182176, 11795.507287443554, -11369.997128247873, -54486.73569997975, -51941.34139315384, -42607.14114989533, -38948.89819012859, -31349.64035149102, -41830.7756579847, -0.032, 1.004, 0.196, 192.0, 0.0, 0.0, 0.0, 0.0, 0.0, 0.0, 0.0, 0.0, 0.0, 1.695675265485795E9, 0.0, 2023-09-25 15:54:25.485
190.0, -187500.02235174447, 3544.964318867245, -16975.099381816315, -37153.98605513407, -16124.86137448089, -39219.89073990473, -187500.02235174447, -47335.74209639336, 11844.479959545131, -11373.595759105177, -54486.7580517242, -51938.68153556366, -42597.37343756836, -38950.976902362934, -31346.15347935599, -41803.39477102694, -0.032, 1.004, 0.196, 192.0, 0.0, 0.0, 0.0, 0.0, 0.0, 0.0, 0.0, 0.0, 0.0, 1.695675265485798E9, 0.0, 2023-09-25 15:54:25.485
192.0, -187500.02235174447, 3548.808818913558, -16962.805922365897, -37140.172677060684, -16109.013987662076, -39212.40290551221, -187500.02235174447, -47329.058924801226, 11787.23714199509, -11360.452933365457, -54476.386842296946, -51927.72918078055, -42601.17323412577, -38931.396774220084, -31326.01455760176, -41820.11387587951, -0.036000000000000004, 1.004, 0.196, 192.0, 127.0, 112.0, 15.5, 48.0, 3.0, 16.0, 0.0, 0.0, 0.0, 1.695675265485801E9, 0.0, 2023-09-25 15:54:25.485
194.0, -187500.02235174447, 3551.8486561594796, -16969.511445702487, -37147.30288354193, -16115.943028443222, -39211.01709735597, -187500.02235174447, -47344.7274976644, 11818.86486039935, -11364.833875278697, -54475.515124263184, -51924.532881323445, -42588.16451885278, -38934.59307367719, -31325.746336668297, -41801.09254134805, -0.036000000000000004, 1.004, 0.196, 192.0, 0.0, 0.0, 0.0, 0.0, 0.0, 0.0, 0.0, 0.0, 0.0, 1.695675265545361E9, 0.0, 2023-09-25 15:54:25.545
196.0, -187500.02235174447, 3539.801065898069, -16976.664003928185, -37156.04241562395, -16120.882763967844, -39215.77801892495, -187500.02235174447, -47351.88005589009, 11787.147735017268, -11369.10305846966, -54480.29839757662, -51935.28407040645, -42600.27916434755, -38939.0410708238, -31335.4469937619, -41808.9156519074, -0.036000000000000004, 1.004, 0.196, 192.0, 0.0, 0.0, 0.0, 0.0, 0.0, 0.0, 0.0, 0.0, 0.0, 1.695675265545375E9, 0.0, 2023-09-25 15:54:25.545
198.0, -187500.02235174447, 3538.1917402972867, -16985.180018565658, -37165.11722387281, -16128.57176406047, -39225.07634461836, -187500.02235174447, -47372.80128870026, 11817.255534798567, -11379.004881263361, -54484.94756042332, -51940.08969546434, -42594.06537938898, -38948.33939651721, -31339.894990908506, -41797.046875601634, -0.036000000000000004, 1.004, 0.196, 192.0, 0.0, 0.0, 0.0, 0.0, 0.0, 0.0, 0.0, 0.0, 0.0, 1.695675265545378E9, 0.0, 2023-09-25 15:54:25.545
200.0, -187500.02235174447, 3531.4638652162394, -16993.763088436495, -37173.65559025474, -16143.279211912062, -39231.804219699414, -187500.02235174447, -47411.2909926523, 11801.296389257479, -11378.49079114089, -54487.94269418034, -51945.49881762252, -42609.9574696967, -38948.22763779493, -31356.34587482761, -41814.83886418806, -0.036000000000000004, 1.004, 0.196, 192.0, 0.0, 0.0, 0.0, 0.0, 0.0, 0.0, 0.0, 0.0, 0.0, 1.695675265545381E9, 0.0, 2023-09-25 15:54:25.545
202.0, -187500.02235174447, 3542.215054299242, -16989.024518611972, -37171.12984313129, -16147.23547068065, -39224.674013218166, -187500.02235174447, -47376.95871316895, 11817.72492143213, -11382.759974331853, -54491.22840061527, -51947.24225369004, -42606.18002488375, -38953.56970471975, -31365.845366221118, -41817.543425267155, -0.04, 1.004, 0.198, 192.0, 127.0, 96.0, 15.5, 48.0, 3.0, 24.0, 0.0, 0.0, 0.0, 1.695675265545385E9, 0.0, 2023-09-25 15:54:25.545
204.0, -187500.02235174447, 3528.0664000590327, -16988.59983546732, -37171.26395359802, -16128.929391971755, -39220.49423700503, -187500.02235174447, -47325.88497708857, 11812.829889396417, -11388.750241845875, -54493.910609949904, -51950.840884547346, -42609.756303996604, -38948.9428936175, -31353.44014804842, -41824.15954162592, -0.04, 1.004, 0.198, 192.0, 0.0, 0.0, 0.0, 0.0, 0.0, 0.0, 0.0, 0.0, 0.0, 1.695675265545388E9, 0.0, 2023-09-25 15:54:25.545
206.0, -187500.02235174447, 3537.342374007985, -16978.89917837372, -37168.8723169413, -16114.33370284244, -39213.565196223884, -187500.02235174447, -47324.45446544343, 11825.212755824658, -11393.555866903767, -54492.70361574932, -51947.555178112416, -42597.64165850182, -38950.73103317393, -31335.223476317344, -41804.042971616145, -0.04, 1.004, 0.198, 192.0, 0.0, 0.0, 0.0, 0.0, 0.0, 0.0, 0.0, 0.0, 0.0, 1.695675265545391E9, 0.0, 2023-09-25 15:54:25.545
208.0, -187500.02235174447, 3528.7816558816025, -16981.581387708353, -37172.58270652088, -16112.031473163543, -39213.67695494616, -187500.02235174447, -47327.918985834, 11825.726845947129, -11380.323634186225, -54481.036005143644, -51936.84869251832, -42591.2043560987, -38937.141172545096, -31320.80660114367, -41814.190663598856, -0.04, 1.004, 0.198, 192.0, 0.0, 0.0, 0.0, 0.0, 0.0, 0.0, 0.0, 0.0, 0.0, 1.695675265545394E9, 0.0, 2023-09-25 15:54:25.545
210.0, -187500.02235174447, 3518.633963898893, -16994.210123325603, -37185.703180516146, -16119.564011044982, -39217.677917203655, -187500.02235174447, -47347.40970699903, 11818.887212143805, -11395.478116926923, -54496.77163324018, -51949.96916651358, -42599.63096375835, -38957.72712918844, -31336.63163621803, -41807.753361195726, -0.04, 1.004, 0.198, 192.0, 0.0, 0.0, 0.0, 0.0, 0.0, 0.0, 0.0, 0.0, 0.0, 1.695675265584352E9, 0.0, 2023-09-25 15:54:25.584
212.0, -187500.02235174447, 3528.1111035479435, -16998.099326860825, -37186.91017471674, -16124.995484947622, -39229.30082432042, -187500.02235174447, -47351.43302100099, 11847.788017724517, -11391.611265136155, -54494.134127394456, -51947.3093089234, -42602.96137368219, -38950.41810875155, -31335.469345506353, -41803.215957071305, -0.038, 0.982, 0.20800000000000002, 192.0, 127.0, 104.0, 15.0, 88.0, 3.0, 64.0, 0.0, 0.0, 0.0, 1.695675265584362E9, 0.0, 2023-09-25 15:54:25.584
214.0, -187500.02235174447, 3516.1752720088093, -17000.781536195464, -37195.5826515654, -16137.57951707596, -39216.426219514164, -187500.02235174447, -47352.46120124593, 11818.730749932618, -11400.35079721818, -54498.55977279661, -51949.365669413295, -42603.63192601585, -38958.598847222194, -31342.912476409972, -41811.64256473095, -0.038, 0.982, 0.20800000000000002, 192.0, 0.0, 0.0, 0.0, 0.0, 0.0, 0.0, 0.0, 0.0, 0.0, 1.695675265584366E9, 0.0, 2023-09-25 15:54:25.584
216.0, -187500.02235174447, 3532.804969883558, -16995.730041948562, -37183.55741304844, -16125.107243669898, -39211.82176015637, -187500.02235174447, -47351.12009657861, 11873.403116870299, -11390.784250591309, -54495.58699078405, -51943.9118437662, -42607.49877780661, -38946.70771917197, -31341.3478542981, -41797.113930835, -0.038, 0.982, 0.20800000000000002, 192.0, 0.0, 0.0, 0.0, 0.0, 0.0, 0.0, 0.0, 0.0, 0.0, 1.695675265584369E9, 0.0, 2023-09-25 15:54:25.584
218.0, -187500.02235174447, 3519.3715714659184, -17005.117774619794, -37196.72259053261, -16137.467758353683, -39211.33002177835, -187500.02235174447, -47356.1268873366, 11819.133081332813, -11380.34598593068, -54490.35668258151, -51935.48523610655, -42600.748550981116, -38941.52211445834, -31335.20112457289, -41823.66780324791, -0.038, 0.982, 0.20800000000000002, 192.0, 0.0, 0.0, 0.0, 0.0, 0.0, 0.0, 0.0, 0.0, 0.0, 1.695675265638254E9, 0.0, 2023-09-25 15:54:25.638
220.0, -187500.02235174447, 3507.0334085265886, -17013.566734023898, -37202.93637549119, -16143.43567412325, -39225.54573125193, -187500.02235174447, -47366.587503741684, 11887.3059019215, -11401.758957118864, -54511.99317121425, -51956.60763461681, -42624.53080708156, -38960.074062356245, -31356.994075416813, -41796.868061646, -0.038, 0.982, 0.20800000000000002, 192.0, 0.0, 0.0, 0.0, 0.0, 0.0, 0.0, 0.0, 0.0, 0.0, 1.695675265638264E9, 0.0, 2023-09-25 15:54:25.638
222.0, -187500.02235174447, 3507.100463759955, -17010.616303755796, -37203.98690748059, -16137.981848476154, -39218.43787651514, -187500.02235174447, -47351.008337856336, 11825.212755824658, -11399.523782673334, -54506.5169938227, -51954.595977615834, -42621.222748902175, -38958.24121931091, -31348.00867414578, -41825.3218323376, -0.036000000000000004, 0.974, 0.218, 192.0, 127.0, 112.0, 15.0, 56.0, 3.0, 104.0, 0.0, 0.0, 0.0, 1.695675265638268E9, 0.0, 2023-09-25 15:54:25.638
224.0, -187500.02235174447, 3511.414350439829, -17002.45791702961, -37196.92375623271, -16128.661171038291, -39223.51172250649, -187500.02235174447, -47343.721669163904, 11898.884105549349, -11404.463518197957, -54507.612229301005, -51958.35107068432, -42620.68630703525, -38967.76306244887, -31345.661740977976, -41796.19750931233, -0.036000000000000004, 0.974, 0.218, 192.0, 0.0, 0.0, 0.0, 0.0, 0.0, 0.0, 0.0, 0.0, 0.0, 1.695675265638271E9, 0.0, 2023-09-25 15:54:25.638
226.0, -187500.02235174447, 3506.3628561929295, -17007.978797910073, -37205.350363892365, -16138.764159532091, -39224.20462658461, -187500.02235174447, -47357.020957114815, 11847.96683168016, -11405.469346698446, -54505.68997927785, -51958.90986429571, -42617.13237966685, -38967.51719325986, -31342.15251709849, -41814.548291510146, -0.036000000000000004, 0.974, 0.218, 192.0, 0.0, 0.0, 0.0, 0.0, 0.0, 0.0, 0.0, 0.0, 0.0, 1.695675265638274E9, 0.0, 2023-09-25 15:54:25.638
228.0, -187500.02235174447, 3531.3968099828735, -16984.487114487543, -37176.11428214482, -16116.300656354506, -39222.28237656145, -187500.02235174447, -47339.58659643967, 11917.816033102994, -11399.076747784227, -54496.68222626236, -51952.09258223684, -42613.82432148747, -38960.5434489898, -31334.01648211676, -41794.5658319671, -0.036000000000000004, 0.974, 0.218, 192.0, 0.0, 0.0, 0.0, 0.0, 0.0, 0.0, 0.0, 0.0, 0.0, 1.695675265638277E9, 0.0, 2023-09-25 15:54:25.638
230.0, -187500.02235174447, 3520.7797313666024, -16991.39380352423, -37179.15411939074, -16126.135423914842, -39207.552576965405, -187500.02235174447, -47348.68375643298, 11840.478997287632, -11383.229360965415, -54484.94756042332, -51941.18493094265, -42611.61149878639, -38946.75242266088, -31328.182676813925, -41830.194512628856, -0.036000000000000004, 0.974, 0.218, 192.0, 0.0, 0.0, 0.0, 0.0, 0.0, 0.0, 0.0, 0.0, 0.0, 1.69567526563828E9, 0.0, 2023-09-25 15:54:25.638
232.0, -187500.02235174447, 3526.2112052692423, -16978.161570806693, -37167.08417738488, -16116.233601121141, -39202.925765863154, -187500.02235174447, -47338.17843653899, 11898.481774149153, -11376.188561461993, -54477.79500219763, -51934.36764888378, -42604.12366439387, -38941.18683829151, -31321.544208710697, -41809.13916935196, -0.042, 0.984, 0.222, 192.0, 127.0, 88.0, 15.0, 96.0, 3.0, 120.0, 0.0, 0.0, 0.0, 1.695675265696346E9, 0.0, 2023-09-25 15:54:25.696
234.0, -187500.02235174447, 3519.796254610569, -16990.946768635127, -37180.47287231361, -16129.04115069403, -39215.77801892495, -187500.02235174447, -47354.18228556899, 11846.424561312744, -11398.406195450569, -54485.55105752362, -51948.71746882409, -42616.37242035537, -38954.955512875975, -31330.194333814903, -41821.96907066931, -0.042, 0.984, 0.222, 192.0, 0.0, 0.0, 0.0, 0.0, 0.0, 0.0, 0.0, 0.0, 0.0, 1.695675265696358E9, 0.0, 2023-09-25 15:54:25.696
236.0, -187500.02235174447, 3531.88854836089, -16986.342309277334, -37174.43790131067, -16124.459043080693, -39217.61086197029, -187500.02235174447, -47351.03068960079, 11901.007521272602, -11394.651102382077, -54482.935903422345, -51948.00221300152, -42611.231519130655, -38956.72130068795, -31332.407156515976, -41805.13820709446, -0.042, 0.984, 0.222, 192.0, 0.0, 0.0, 0.0, 0.0, 0.0, 0.0, 0.0, 0.0, 0.0, 1.695675265696362E9, 0.0, 2023-09-25 15:54:25.696
238.0, -187500.02235174447, 3522.210243011742, -16988.242207556035, -37179.71291300213, -16133.444444351728, -39220.91892014968, -187500.02235174447, -47358.2279513154, 11839.137892620312, -11397.243904738893, -54484.94756042332, -51949.25391069102, -42618.92051922328, -38955.581361720724, -31334.552923983687, -41833.055535919135, -0.042, 0.984, 0.222, 192.0, 0.0, 0.0, 0.0, 0.0, 0.0, 0.0, 0.0, 0.0, 0.0, 1.695675265696365E9, 0.0, 2023-09-25 15:54:25.696
240.0, -187500.02235174447, 3537.141208307887, -16980.955538863604, -37170.77221522, -16125.978961703655, -39213.632251457246, -187500.02235174447, -47353.13175357959, 11891.64214034583, -11401.4907361854, -54487.92034243588, -51949.14215196874, -42612.684382520245, -38959.33645478922, -31337.81627867416, -41809.3179833076, -0.042, 0.984, 0.222, 192.0, 0.0, 0.0, 0.0, 0.0, 0.0, 0.0, 0.0, 0.0, 0.0, 1.695675265696368E9, 0.0, 2023-09-25 15:54:25.696
242.0, -187500.02235174447, 3522.9478505787674, -16976.373431250267, -37169.207593108134, -16125.33076111445, -39208.06666708788, -187500.02235174447, -47351.52242797881, 11829.77251169354, -11383.519933643334, -54474.1069643625, -51934.680573306156, -42611.656202275306, -38941.00802433587, -31324.740508167808, -41834.5754545421, -0.044, 0.988, 0.226, 192.0, 127.0, 80.0, 15.0, 112.0, 3.5, 8.0, 0.0, 0.0, 0.0, 1.695675265696372E9, 0.0, 2023-09-25 15:54:25.696
244.0, -187500.02235174447, 3530.3909814823846, -16974.764105649487, -37167.93354367418, -16124.839022736434, -39203.3057455189, -187500.02235174447, -47351.768297167815, 11870.095058690913, -11391.946541302985, -54480.25369408771, -51937.966279741086, -42612.86319647589, -38949.81461165126, -31332.451860004887, -41805.80875942812, -0.044, 0.988, 0.226, 192.0, 0.0, 0.0, 0.0, 0.0, 0.0, 0.0, 0.0, 0.0, 0.0, 1.695675265696375E9, 0.0, 2023-09-25 15:54:25.696
