%OpenBCI Raw EXG Data
%Number of channels = 16
%Sample Rate = 125 Hz
%Board = OpenBCI_GUI$BoardCytonSerialDaisy
Sample Index, EXG Channel 0, EXG Channel 1, EXG Channel 2, EXG Channel 3, EXG Channel 4, EXG Channel 5, EXG Channel 6, EXG Channel 7, EXG Channel 8, EXG Channel 9, EXG Channel 10, EXG Channel 11, EXG Channel 12, EXG Channel 13, EXG Channel 14, EXG Channel 15, Accel Channel 0, Accel Channel 1, Accel Channel 2, Other, Other, Other, Other, Other, Other, Other, Analog Channel 0, Analog Channel 1, Analog Channel 2, Timestamp, Other, Timestamp (Formatted)
0.0, -187500.02235174447, 3757.305891192662, -16671.96502351344, -37303.13924588433, -15628.920868506537, -39352.72715720262, -187500.02235174447, -47239.696650468904, 0.0, 0.0, 0.0, 0.0, 0.0, 0.0, 0.0, 0.0, 0.0, 0.0, 0.0, 192.0, 0.0, 0.0, 0.0, 0.0, 0.0, 0.0, 0.0, 0.0, 0.0, 1.695675187519861E9, 0.0, 2023-09-25 15:53:07.519
210.0, -187500.02235174447, 3722.5712803091146, -16682.403288174068, -37316.706754768704, -15648.366886182654, -39359.45503228367, -187500.02235174447, -47266.29522637072, 11532.04727554885, -11703.641617732243, -54250.16483666478, -52439.002983451246, -42985.22090735685, -39250.44557457514, -32121.334328810495, -42900.03840923768, 0.0, 0.0, 0.0, 192.0, 0.0, 0.0, 0.0, 0.0, 0.0, 0.0, 0.0, 0.0, 0.0, 1.695675187519886E9, 0.0, 2023-09-25 15:53:07.519
212.0, -187500.02235174447, 3718.2797453736957, -16672.568520613735, -37304.972088929666, -15639.470891889441, -39358.87388692783, -187500.02235174447, -47256.147534388016, 11565.172560831614, -11709.02838814597, -54251.21536865418, -52441.95341371935, -42994.36277083907, -39251.27258911998, -32129.64917774787, -42889.84601376605, 0.008, 0.5, 0.089, 192.0, 0.0, 64.0, 15.5, 32.0, 2.5, 72.0, 0.0, 0.0, 0.0, 1.69567518751989E9, 0.0, 2023-09-25 15:53:07.519
214.0, -187500.02235174447, 3689.513050259716, -16683.766744585842, -37319.34426061443, -15656.592328142206, -39368.03810215451, -187500.02235174447, -47265.60232229261, 11540.831511119784, -11718.729045239574, -54254.054040200004, -52438.91357647343, -42992.395817327, -39259.54273456845, -32128.933921925298, -42892.21529867832, 0.008, 0.5, 0.089, 192.0, 0.0, 0.0, 0.0, 0.0, 0.0, 0.0, 0.0, 0.0, 0.0, 1.695675187519893E9, 0.0, 2023-09-25 15:53:07.519
216.0, -187500.02235174447, 3719.4196843409163, -16671.182712457503, -37304.92738544076, -15633.1900516975, -39357.085747371406, -187500.02235174447, -47252.370089575066, 11583.880970940707, -11712.045873647437, -54250.634223298344, -52438.48889332878, -42996.10620690659, -39252.792507742946, -32126.654043990857, -42882.24642065125, 0.008, 0.5, 0.089, 192.0, 0.0, 0.0, 0.0, 0.0, 0.0, 0.0, 0.0, 0.0, 0.0, 1.695675187519897E9, 0.0, 2023-09-25 15:53:07.519
218.0, -187500.02235174447, 3723.107722176042, -16681.26334920685, -37315.63387103485, -15638.018028499846, -39349.17322983423, -187500.02235174447, -47254.02411866476, 11510.790766571852, -11702.613437487298, -54244.59925229541, -52430.196396135856, -42977.4425002864, -39245.84111521734, -32114.092363606975, -42918.21037747984, 0.008, 0.5, 0.089, 192.0, 0.0, 0.0, 0.0, 0.0, 0.0, 0.0, 0.0, 0.0, 0.0, 1.6956751875199E9, 0.0, 2023-09-25 15:53:07.519
220.0, -187500.02235174447, 3728.0698094451204, -16680.235168961903, -37310.492969810126, -15633.99471449789, -39357.152802604774, -187500.02235174447, -47244.479923782346, 11580.371747061223, -11715.041007404448, -54259.77608678056, -52443.85331199805, -42993.2451836163, -39255.47471707758, -32126.005843401654, -42884.01220846322, 0.008, 0.5, 0.089, 192.0, 0.0, 0.0, 0.0, 0.0, 0.0, 0.0, 0.0, 0.0, 0.0, 1.695675187519903E9, 0.0, 2023-09-25 15:53:07.519
222.0, -187500.02235174447, 3726.013448955232, -16679.430506161512, -37311.05176342151, -15641.661362846062, -39353.57652349192, -187500.02235174447, -47254.64996750951, 11524.738255111964, -11717.566754527898, -54253.49524658862, -52448.234253911294, -42992.731093493836, -39253.50776356552, -32117.51218050864, -42902.49710112776, 0.011, 0.751, 0.1315, 192.0, 0.0, 56.0, 15.5, 40.0, 2.5, 56.0, 0.0, 0.0, 0.0, 1.695675187519906E9, 0.0, 2023-09-25 15:53:07.519
224.0, -187500.02235174447, 3720.2914023746735, -16685.77840158682, -37314.896263467825, -15647.85279606018, -39359.879715428324, -187500.02235174447, -47252.54890353071, 11582.070479639826, -11721.143033640747, -54256.289214645534, -52448.90480624495, -42996.620297029054, -39259.34156886835, -32127.950445169266, -42882.58169681808, 0.011, 0.751, 0.1315, 192.0, 0.0, 0.0, 0.0, 0.0, 0.0, 0.0, 0.0, 0.0, 0.0, 1.69567518751991E9, 0.0, 2023-09-25 15:53:07.519
226.0, -187500.02235174447, 3727.332201878095, -16687.432430676512, -37314.695097767726, -15647.606926871173, -39366.942866676196, -187500.02235174447, -47258.42741232245, 11533.65660114963, -11729.234365133569, -54263.24060717114, -52459.29836741667, -43007.952631467895, -39264.50482183752, -32134.34304408348, -42890.091882955065, 0.011, 0.751, 0.1315, 192.0, 0.0, 0.0, 0.0, 0.0, 0.0, 0.0, 0.0, 0.0, 0.0, 1.695675187519913E9, 0.0, 2023-09-25 15:53:07.519
0.0, -93750.01117587223, 1851.5291036998158, -8303.538954679841, -18604.96623575285, -7794.768547388143, -19649.038571004698, -93750.01117587223, -23630.264238150627, 5799.383616373971, -5866.036518339696, -27133.766071053276, -26231.96258925946, -21500.97000610471, -19633.12412895252, -16065.13751329631, -21435.010008217097, -0.024, 0.982, 0.232, 192.0, 127.5, 32.0, 15.0, 88.0, 3.5, 32.0, 0.0, 0.0, 0.0, 1.695675187686407E9, 0.0, 2023-09-25 15:53:07.686
2.0, -187500.02235174447, 3697.8726026860004, -16608.776641938286, -37222.22593095612, -15590.900551188059, -39291.997467517554, -187500.02235174447, -47258.04743266672, 8200.072729596226, -11696.734928695552, -54265.98987173914, -52367.09742153853, -42968.9935408823, -39405.63373632834, -31921.241512446584, -42838.90638815241, -0.024, 0.982, 0.232, 192.0, 0.0, 0.0, 0.0, 0.0, 0.0, 0.0, 0.0, 0.0, 0.0, 1.695675187686418E9, 0.0, 2023-09-25 15:53:07.686
4.0, -187500.02235174447, 3691.435300282872, -16607.03320587077, -37195.64970679876, -15590.967606421425, -39294.88084255229, -187500.02235174447, -47246.33511857213, 8232.90744220107, -11734.621135547297, -54274.63999684334, -52384.71059616931, -42973.82151768464, -39392.4462070997, -31927.56705612744, -42821.67319317737, -0.024, 0.982, 0.232, 192.0, 0.0, 0.0, 0.0, 0.0, 0.0, 0.0, 0.0, 0.0, 0.0, 1.695675187686422E9, 0.0, 2023-09-25 15:53:07.686
6.0, -187500.02235174447, 3695.1233381179977, -16605.826211670188, -37200.20946266764, -15587.972472664414, -39294.34440068536, -187500.02235174447, -47247.810333706184, 8165.963967557427, -11712.93994342565, -54264.335842649445, -52373.9594070863, -42962.0421483567, -39380.42096858275, -31923.789611314493, -42857.25717035022, -0.024, 0.982, 0.232, 192.0, 0.0, 0.0, 0.0, 0.0, 0.0, 0.0, 0.0, 0.0, 0.0, 1.695675187686425E9, 0.0, 2023-09-25 15:53:07.686
8.0, -187500.02235174447, 3697.7831957081794, -16609.402490783035, -37196.45436959915, -15589.492391287375, -39297.652458864744, -187500.02235174447, -47248.81616220667, 8213.081444869214, -11713.431681803666, -54273.298892176026, -52381.17902054537, -42966.55720073667, -39386.76886400805, -31938.251189977076, -42843.2649783212, -0.022, 0.972, 0.258, 192.0, 127.5, 40.0, 15.0, 48.0, 4.0, 8.0, 0.0, 0.0, 0.0, 1.695675187686428E9, 0.0, 2023-09-25 15:53:07.686
10.0, -187500.02235174447, 3696.755015463235, -16607.14496459305, -37197.77312252201, -15587.726603475405, -39291.371618672805, -187500.02235174447, -47257.08630765514, 8139.99124050036, -11709.341312568346, -54262.43594437074, -52372.75241288572, -42953.50378197477, -39359.20916309466, -31935.479573664616, -42880.994722961754, -0.022, 0.972, 0.258, 192.0, 0.0, 0.0, 0.0, 0.0, 0.0, 0.0, 0.0, 0.0, 0.0, 1.695675187686431E9, 0.0, 2023-09-25 15:53:07.686
12.0, -187500.02235174447, 3691.122375860498, -16619.43842404347, -37191.8275584969, -15606.211496139944, -39307.1295985138, -187500.02235174447, -47265.3564531036, 8217.10475887117, -11730.88839422326, -54276.11521197739, -52385.53761071416, -42964.63495071351, -39359.20916309466, -31958.546573942494, -42849.29994932413, -0.022, 0.972, 0.258, 192.0, 0.0, 0.0, 0.0, 0.0, 0.0, 0.0, 0.0, 0.0, 0.0, 1.695675187686435E9, 0.0, 2023-09-25 15:53:07.686
14.0, -187500.02235174447, 3690.2506578267407, -16610.788298939264, -37185.16673864922, -15593.94038843398, -39307.01783979152, -187500.02235174447, -47270.63146479505, 8179.129145041603, -11721.500661552032, -54266.83923802844, -52385.42585199188, -42958.801145410675, -39412.67453583176, -31947.683626137215, -42872.65752227992, -0.022, 0.972, 0.258, 192.0, 0.0, 0.0, 0.0, 0.0, 0.0, 0.0, 0.0, 0.0, 0.0, 1.695675187686438E9, 0.0, 2023-09-25 15:53:07.686
16.0, -187500.02235174447, 3695.5256695181934, -16617.359711809124, -37187.29015437247, -15598.2319233694, -39313.23162475009, -187500.02235174447, -47254.247636109314, 8280.963692779982, -11740.544347827954, -54274.08120323196, -52395.8194131636, -42958.06353784365, -39413.12157072086, -31955.819661118945, -42847.7129754678, -0.022, 0.972, 0.258, 192.0, 0.0, 0.0, 0.0, 0.0, 0.0, 0.0, 0.0, 0.0, 0.0, 1.695675187746699E9, 0.0, 2023-09-25 15:53:07.746
18.0, -187500.02235174447, 3702.7005794883466, -16612.464679773413, -37176.44955831165, -15590.162943621033, -39309.54358691497, -187500.02235174447, -47257.1533628885, 8272.537085120332, -11726.239231376558, -54267.621549084375, -52389.80679390512, -42959.292883788694, -39386.858270985875, -31955.104405296377, -42870.28823736766, -0.01, 0.976, 0.266, 192.0, 127.5, 88.0, 15.0, 64.0, 4.0, 40.0, 0.0, 0.0, 0.0, 1.695675187746707E9, 0.0, 2023-09-25 15:53:07.746
20.0, -187500.02235174447, 3695.1009863735426, -16621.71830197791, -37179.824671724404, -15603.015196682836, -39320.942976587176, -187500.02235174447, -47299.93460177596, 8394.242333679478, -11733.212975646613, -54269.230874685156, -52388.48804098226, -42955.962473864856, -39390.9486402212, -31958.881850109323, -42841.38743178695, -0.01, 0.976, 0.266, 192.0, 0.0, 0.0, 0.0, 0.0, 0.0, 0.0, 0.0, 0.0, 0.0, 1.695675187746711E9, 0.0, 2023-09-25 15:53:07.746
22.0, -187500.02235174447, 3688.7754426926904, -16617.51617402031, -37181.25518336954, -15604.51276356134, -39324.49690395557, -187500.02235174447, -47254.806429720695, 8406.491089640986, -11748.412161876222, -54280.138525979346, -52400.4685760103, -42969.731148449326, -39414.88735853283, -31972.829338649433, -42858.061833150605, -0.01, 0.976, 0.266, 192.0, 0.0, 0.0, 0.0, 0.0, 0.0, 0.0, 0.0, 0.0, 0.0, 1.695675187746714E9, 0.0, 2023-09-25 15:53:07.746
24.0, -187500.02235174447, 3710.8142627256234, -16597.354900521626, -37165.11722387281, -15584.977338907402, -39310.48236018209, -187500.02235174447, -47250.045508151714, 8528.799835300426, -11746.445208364155, -54268.26974967358, -52392.60076196203, -42951.44742148488, -39395.70956179018, -31953.22685876213, -42831.75382992671, -0.01, 0.976, 0.266, 192.0, 0.0, 0.0, 0.0, 0.0, 0.0, 0.0, 0.0, 0.0, 0.0, 1.695675187746717E9, 0.0, 2023-09-25 15:53:07.746
26.0, -187500.02235174447, 3706.9027074459445, -16595.27618828728, -37161.56329650441, -15589.89472268757, -39318.88661609729, -187500.02235174447, -47251.2525023523, 8533.44899814713, -11739.717333283108, -54258.30087164651, -52387.03517759266, -42948.809915639154, -39389.54048032052, -31948.55534417097, -42859.64880700693, -0.01, 0.976, 0.266, 192.0, 0.0, 0.0, 0.0, 0.0, 0.0, 0.0, 0.0, 0.0, 0.0, 1.695675187746721E9, 0.0, 2023-09-25 15:53:07.746
28.0, -187500.02235174447, 3701.247716098752, -16601.981711623874, -37173.85675595483, -15596.756708235349, -39312.203444505154, -187500.02235174447, -47258.96385418938, 8640.200929665676, -11736.56573731491, -54257.16093267929, -52383.4141949909, -42943.557255692154, -39404.27027991656, -31957.272524508542, -42844.091992866044, -0.01, 0.976, 0.266, 192.0, 0.0, 0.0, 15.0, 72.0, 4.0, 80.0, 0.0, 0.0, 0.0, 1.695675187746724E9, 0.0, 2023-09-25 15:53:07.746
30.0, -187500.02235174447, 3692.5528875056375, -16605.401528525537, -37180.00348568004, -15605.809164739749, -39322.97698533261, -187500.02235174447, -47277.247581153824, 8687.832497099937, -11747.652202564741, -54266.03457522805, -52399.03806436516, -42961.41629951195, -39403.75618979409, -31967.353161257884, -42840.22514107527, -0.01, 0.976, 0.266, 192.0, 0.0, 0.0, 0.0, 0.0, 0.0, 0.0, 0.0, 0.0, 0.0, 1.695675187806314E9, 0.0, 2023-09-25 15:53:07.806
32.0, -187500.02235174447, 3696.464442785316, -16620.86893568861, -37195.493244587575, -15618.728473034917, -39330.48717146959, -187500.02235174447, -47293.09496797263, 8788.683568082282, -11753.128379956292, -54274.41647939879, -52405.56477374611, -42960.23165705582, -39416.027297500055, -31988.14028360132, -42834.860722405996, -0.01, 0.976, 0.266, 192.0, 0.0, 0.0, 0.0, 0.0, 0.0, 0.0, 0.0, 0.0, 0.0, 1.695675187806325E9, 0.0, 2023-09-25 15:53:07.806
34.0, -187500.02235174447, 3709.763730736224, -16602.227580812883, -37174.9743431776, -15598.455440813952, -39327.223816779115, -187500.02235174447, -47255.67814775445, 8832.850615125968, -11752.61428983382, -54272.20365669771, -52415.75716921773, -42966.33368329211, -39401.11868394836, -31976.427969506738, -42843.5108475102, -0.01, 0.976, 0.266, 192.0, 0.0, 0.0, 0.0, 0.0, 0.0, 0.0, 0.0, 0.0, 0.0, 1.695675187806328E9, 0.0, 2023-09-25 15:53:07.806
36.0, -187500.02235174447, 3678.784212921168, -16615.258647830327, -37182.81980548141, -15618.482603845909, -39317.947842830166, -187500.02235174447, -47269.06684268318, 8932.941726796833, -11763.007851005537, -54261.966557737185, -52392.35489277302, -42957.39298550999, -39433.66282387529, -31967.397864746796, -42813.04541981762, -0.01, 0.976, 0.266, 192.0, 0.0, 0.0, 0.0, 0.0, 0.0, 0.0, 0.0, 0.0, 0.0, 1.695675187806332E9, 0.0, 2023-09-25 15:53:07.806
38.0, -187500.02235174447, 3690.2953613156515, -16607.23437157087, -37184.89851771576, -15614.302827632766, -39330.28600576949, -187500.02235174447, -47276.59938056462, 8996.554791516637, -11775.211903478135, -54271.398993897325, -52408.62696273649, -42970.491107760805, -39432.76875409708, -31982.887623654322, -42815.52646345216, 0.002, 0.978, 0.28200000000000003, 192.0, 0.0, 8.0, 15.0, 72.0, 4.0, 104.0, 0.0, 0.0, 0.0, 1.695675187806335E9, 0.0, 2023-09-25 15:53:07.806
40.0, -187500.02235174447, 3688.1942973368523, -16608.70958670492, -37174.81788096642, -15613.676978788017, -39327.20146503466, -187500.02235174447, -47278.94631373243, 9070.002623796776, -11775.10014475586, -54266.2580926726, -52398.94865738734, -42956.431860498415, -39431.07002151848, -31978.484329996627, -42819.214501287286, 0.002, 0.978, 0.28200000000000003, 192.0, 0.0, 0.0, 0.0, 0.0, 0.0, 0.0, 0.0, 0.0, 0.0, 1.695675187806338E9, 0.0, 2023-09-25 15:53:07.806
42.0, -187500.02235174447, 3696.106814874031, -16597.868990644096, -37165.988941906566, -15604.08808041669, -39329.39193599128, -187500.02235174447, -47268.440993838434, 9136.387304829039, -11765.08656323988, -54265.676947316766, -52398.456919009324, -42958.55527622167, -39428.83484707295, -31970.102425825888, -42824.936547867845, 0.002, 0.978, 0.28200000000000003, 192.0, 0.0, 0.0, 0.0, 0.0, 0.0, 0.0, 0.0, 0.0, 0.0, 1.695675187806341E9, 0.0, 2023-09-25 15:53:07.806
44.0, -187500.02235174447, 3705.4498440563493, -16602.33933953516, -37166.39127330676, -15611.508859575852, -39317.54551142997, -187500.02235174447, -47276.197049164424, 9164.729316798368, -11759.409220148233, -54256.98211872365, -52393.1148520845, -42941.903226602466, -39423.47042840367, -31970.013018848065, -42842.16974284288, 0.002, 0.978, 0.28200000000000003, 192.0, 0.0, 0.0, 0.0, 0.0, 0.0, 0.0, 0.0, 0.0, 0.0, 1.695675187806344E9, 0.0, 2023-09-25 15:53:07.806
46.0, -187500.02235174447, 3689.2895328151626, -16620.75717696633, -37182.39512233676, -15632.921830764037, -39330.174247047216, -187500.02235174447, -47289.339874904144, 9255.008012653352, -11772.552045887953, -54270.54962760802, -52400.6697417104, -42955.873066887034, -39437.86495183289, -31980.026600364043, -42819.482722220746, 0.002, 0.978, 0.28200000000000003, 192.0, 0.0, 0.0, 0.0, 0.0, 0.0, 0.0, 0.0, 0.0, 0.0, 1.695675187866569E9, 0.0, 2023-09-25 15:53:07.866
48.0, -187500.02235174447, 3701.560640521126, -16611.034168128273, -37174.5720117774, -15622.058882958758, -39324.25103476656, -187500.02235174447, -47285.76359579129, 9297.610437585168, -11779.95047330266, -54279.75854632361, -52414.66193373942, -42962.64564545699, -39445.95628332571, -31996.9021674278, -42825.562396712594, 0.002, 0.984, 0.28, 192.0, 0.0, 8.0, 15.0, 96.0, 4.0, 96.0, 0.0, 0.0, 0.0, 1.695675187866579E9, 0.0, 2023-09-25 15:53:07.866
50.0, -187500.02235174447, 3722.2583558867404, -16582.915673603497, -37146.20764806362, -15589.738260476382, -39315.39974396226, -187500.02235174447, -47257.57804603315, 9377.652034479623, -11761.934967271682, -54264.31349090499, -52397.98753237576, -42951.44742148488, -39425.727954593654, -31969.163652558764, -42823.17076005587, 0.002, 0.984, 0.28, 192.0, 0.0, 0.0, 0.0, 0.0, 0.0, 0.0, 0.0, 0.0, 0.0, 1.695675187866583E9, 0.0, 2023-09-25 15:53:07.866
52.0, -187500.02235174447, 3711.2612976147293, -16586.447249227436, -37153.047281866944, -15594.499182045363, -39304.76031360153, -187500.02235174447, -47255.67814775445, 9356.931967369554, -11735.805778003429, -54244.10751391739, -52373.914703597395, -42928.84980784057, -39403.73383804964, -31948.734158126616, -42855.22316160479, 0.002, 0.984, 0.28, 192.0, 0.0, 0.0, 0.0, 0.0, 0.0, 0.0, 0.0, 0.0, 0.0, 1.695675187866586E9, 0.0, 2023-09-25 15:53:07.866
54.0, -187500.02235174447, 3712.691809259869, -16591.766964407798, -37154.14251734525, -15596.756708235349, -39314.55037767296, -187500.02235174447, -47261.60136003511, 9464.242692499482, -11755.22944393509, -54265.02874672756, -52391.23730555026, -42946.77590689372, -39422.46459990318, -31965.60972519037, -42820.533254210146, 0.002, 0.984, 0.28, 192.0, 0.0, 0.0, 0.0, 0.0, 0.0, 0.0, 0.0, 0.0, 0.0, 1.695675187866589E9, 0.0, 2023-09-25 15:53:07.866
56.0, -187500.02235174447, 3703.147614377453, -16598.830115655677, -37165.20663085063, -15609.452499085965, -39311.80111310496, -187500.02235174447, -47275.68295904195, 9453.737372605488, -11757.174045702703, -54262.234778670645, -52389.717386927296, -42941.38913647999, -39416.07200098896, -31962.771053644545, -42848.65174873493, 0.002, 0.984, 0.28, 192.0, 0.0, 0.0, 0.0, 0.0, 0.0, 0.0, 0.0, 0.0, 0.0, 1.695675187866592E9, 0.0, 2023-09-25 15:53:07.866
58.0, -187500.02235174447, 3707.9755911797993, -16593.42099349749, -37162.010331393525, -15603.953969949958, -39315.93618582919, -187500.02235174447, -47268.68686302744, 9567.820676305375, -11766.807647562939, -54271.108421219404, -52399.015712620705, -42949.21224703935, -39420.4529429022, -31965.60972519037, -42813.268937262175, 0.002, 0.984, 0.28, 192.0, 0.0, 0.0, 15.5, 0.0, 4.0, 80.0, 0.0, 0.0, 0.0, 1.695675187866595E9, 0.0, 2023-09-25 15:53:07.866
60.0, -187500.02235174447, 3698.610210253026, -16600.99823486784, -37173.0744448989, -15615.487470088896, -39322.485246954595, -187500.02235174447, -47285.3612643911, 9554.27551916546, -11762.806685305439, -54269.94613050773, -52399.95448588783, -42945.8371336266, -39419.42476265726, -31960.871155365847, -42835.39716427293, 0.002, 0.984, 0.28, 192.0, 0.0, 0.0, 0.0, 0.0, 0.0, 0.0, 0.0, 0.0, 0.0, 1.695675187926844E9, 0.0, 2023-09-25 15:53:07.926
62.0, -187500.02235174447, 3702.521765532704, -16591.65520568552, -37159.23871508106, -15607.03851068479, -39323.75929638855, -187500.02235174447, -47276.487621842345, 9672.605654311856, -11774.921330800216, -54278.953883523216, -52406.45884352432, -42953.772002908234, -39426.934948794245, -31970.303591525986, -42806.6528209034, 0.002, 0.984, 0.28, 192.0, 0.0, 0.0, 0.0, 0.0, 0.0, 0.0, 0.0, 0.0, 0.0, 1.695675187926857E9, 0.0, 2023-09-25 15:53:07.926
64.0, -187500.02235174447, 3706.2545068567406, -16590.403507996023, -37158.1211278583, -15617.007388711858, -39310.61647064883, -187500.02235174447, -47283.01433122329, 9634.831206182385, -11760.37034515981, -54262.92768274876, -52392.734872428766, -42945.814781882145, -39407.31011716248, -31961.675818166237, -42848.40587954591, 0.002, 0.984, 0.28, 192.0, 0.0, 0.0, 0.0, 0.0, 0.0, 0.0, 0.0, 0.0, 0.0, 1.69567518792686E9, 0.0, 2023-09-25 15:53:07.926
66.0, -187500.02235174447, 3698.7443207197575, -16608.53077274928, -37175.39902632225, -15641.61665935715, -39319.53481668649, -187500.02235174447, -47307.78006407977, 9746.277004036547, -11762.449057394155, -54267.04040372853, -52395.95352363033, -42948.9887295948, -39409.74645730811, -31979.42310326375, -42817.56047219759, 0.002, 0.984, 0.28, 192.0, 0.0, 0.0, 0.0, 0.0, 0.0, 0.0, 0.0, 0.0, 0.0, 1.695675187926863E9, 0.0, 2023-09-25 15:53:07.926
68.0, -187500.02235174447, 3703.661704499925, -16605.669749459, -37176.538965289474, -15633.234755186411, -39328.22964527961, -187500.02235174447, -47296.827709296675, 9744.31005052448, -11775.055441266948, -54282.03842425805, -52414.3713610615, -42972.77098569524, -39418.48598939014, -32000.85842619639, -42834.503094494714, -0.008, 0.99, 0.274, 192.0, 127.5, 96.0, 15.0, 120.0, 4.0, 72.0, 0.0, 0.0, 0.0, 1.695675187926867E9, 0.0, 2023-09-25 15:53:07.926
70.0, -187500.02235174447, 3713.697637760358, -16592.504571974823, -37163.66436048321, -15611.218286897933, -39315.623261406814, -187500.02235174447, -47274.16304041899, 9819.94835376124, -11767.388792918777, -54272.00249099761, -52402.34612254454, -42952.095622074085, -39407.37717239585, -31977.14322532931, -42827.2611292912, -0.008, 0.99, 0.274, 192.0, 0.0, 0.0, 0.0, 0.0, 0.0, 0.0, 0.0, 0.0, 0.0, 1.69567518792687E9, 0.0, 2023-09-25 15:53:07.926
72.0, -187500.02235174447, 3699.4148730534166, -16603.613388969112, -37174.68377049968, -15615.599228811174, -39321.702935898655, -187500.02235174447, -47274.6100753081, 9797.171926161282, -11766.315909184923, -54267.93447350675, -52399.12747134298, -42948.809915639154, -39397.140073435316, -31962.90516411128, -42842.125039353974, -0.008, 0.99, 0.274, 192.0, 0.0, 0.0, 0.0, 0.0, 0.0, 0.0, 0.0, 0.0, 0.0, 1.695675187926873E9, 0.0, 2023-09-25 15:53:07.926
74.0, -187500.02235174447, 3698.610210253026, -16601.177048823483, -37170.68280824218, -15610.413624097542, -39326.329747000906, -187500.02235174447, -47279.0580724547, 9897.95594191026, -11781.693909370173, -54279.222104456676, -52413.81256745012, -42954.77783140872, -39403.97970723864, -31971.644696193303, -42811.10081805001, -0.008, 0.99, 0.274, 192.0, 0.0, 0.0, 0.0, 0.0, 0.0, 0.0, 0.0, 0.0, 0.0, 1.695675187926876E9, 0.0, 2023-09-25 15:53:07.926
76.0, -187500.02235174447, 3691.144727604953, -16606.317950048204, -37175.24256411107, -15617.074443945223, -39329.99543309158, -187500.02235174447, -47290.815090038195, 9881.885037646894, -11773.04378426597, -54277.59042711144, -52412.31500057161, -42957.30357853217, -39392.06622744396, -31970.102425825888, -42834.503094494714, -0.008, 0.99, 0.274, 192.0, 0.0, 0.0, 0.0, 0.0, 0.0, 0.0, 0.0, 0.0, 0.0, 1.695675187986389E9, 0.0, 2023-09-25 15:53:07.986
78.0, -187500.02235174447, 3692.73170146128, -16615.43746178597, -37189.346514862365, -15631.200746440978, -39339.83020065191, -187500.02235174447, -47326.667288144505, 9945.386343644423, -11786.253665239057, -54285.83822081545, -52418.439378552364, -42957.325930276624, -39401.00692522609, -31985.90510915579, -42828.021088602676, -0.006, 0.986, 0.274, 192.0, 127.5, 104.0, 15.0, 104.0, 4.0, 72.0, 0.0, 0.0, 0.0, 1.6956751879864E9, 0.0, 2023-09-25 15:53:07.986
80.0, -187500.02235174447, 3693.022274139199, -16611.347092550648, -37185.59142179387, -15629.166737695545, -39335.94099711669, -187500.02235174447, -47308.80824432472, 9934.545747583597, -11776.41889767872, -54280.69731959073, -52414.7736924617, -42961.12572683403, -39389.33931462042, -31989.637850479827, -42852.87622843698, -0.006, 0.986, 0.274, 192.0, 0.0, 0.0, 0.0, 0.0, 0.0, 0.0, 0.0, 0.0, 0.0, 1.695675187986404E9, 0.0, 2023-09-25 15:53:07.986
82.0, -187500.02235174447, 3694.564544506615, -16609.29073206076, -37182.30571535894, -15619.667246302039, -39316.38322071829, -187500.02235174447, -47273.894819485526, 10003.858507139506, -11775.10014475586, -54282.61956961389, -52413.87962268348, -42956.83419189861, -39385.248945385094, -31980.451283508693, -42834.27957705016, -0.006, 0.986, 0.274, 192.0, 0.0, 0.0, 0.0, 0.0, 0.0, 0.0, 0.0, 0.0, 0.0, 1.695675187986407E9, 0.0, 2023-09-25 15:53:07.986
84.0, -187500.02235174447, 3705.136919633975, -16604.865086658607, -37176.49426180056, -15616.716816033939, -39313.23162475009, -187500.02235174447, -47254.26998785377, 10016.978981134771, -11772.23912146558, -54284.675930103775, -52416.29361108466, -42964.72435769133, -39378.968105193155, -31980.98772537562, -42833.76548692769, -0.006, 0.986, 0.274, 192.0, 0.0, 0.0, 0.0, 0.0, 0.0, 0.0, 0.0, 0.0, 0.0, 1.69567518798641E9, 0.0, 2023-09-25 15:53:07.986
86.0, -187500.02235174447, 3690.9659136493106, -16611.7717756953, -37186.64195378327, -15623.154118437067, -39310.41530494873, -187500.02235174447, -47287.35056964762, 10049.880748972982, -11766.651185351753, -54275.60112185492, -52407.24115458026, -42948.76521215025, -39369.110985888365, -31963.732178656126, -42830.6585944484, -0.006, 0.986, 0.274, 192.0, 0.0, 0.0, 0.0, 0.0, 0.0, 0.0, 0.0, 0.0, 0.0, 1.695675187986414E9, 0.0, 2023-09-25 15:53:07.986
88.0, -187500.02235174447, 3686.272047313696, -16621.8747641891, -37192.140482919276, -15636.989848254902, -39329.615453435836, -187500.02235174447, -47284.511898101795, 10083.162496466935, -11778.072926768415, -54290.129755750866, -52422.26152685422, -42968.12182284854, -39373.246058612596, -31991.917728414268, -42828.289309536136, -0.008, 0.976, 0.27, 192.0, 127.5, 96.0, 15.0, 64.0, 4.0, 56.0, 0.0, 0.0, 0.0, 1.695675187986417E9, 0.0, 2023-09-25 15:53:07.986
90.0, -187500.02235174447, 3691.524707260693, -16609.223676827394, -37181.94808744766, -15611.531211320307, -39318.88661609729, -187500.02235174447, -47264.55179030321, 10102.832031587604, -11783.593807648875, -54286.776994082575, -52420.02635240869, -42957.638854699, -39369.245096355095, -31979.80308291949, -42832.267920049184, -0.008, 0.976, 0.27, 192.0, 0.0, 0.0, 0.0, 0.0, 0.0, 0.0, 0.0, 0.0, 0.0, 1.695675188045978E9, 0.0, 2023-09-25 15:53:08.045
92.0, -187500.02235174447, 3698.699617230847, -16606.63087447058, -37176.56131703393, -15605.675054273017, -39317.32199398542, -187500.02235174447, -47274.96770321938, 10130.235270289812, -11773.736688344085, -54272.717746820184, -52409.923363914895, -42955.046052342186, -39352.056604868965, -31958.144242542297, -42832.111457838, -0.008, 0.976, 0.27, 192.0, 0.0, 0.0, 0.0, 0.0, 0.0, 0.0, 0.0, 0.0, 0.0, 1.69567518804599E9, 0.0, 2023-09-25 15:53:08.045
94.0, -187500.02235174447, 3697.9396579193663, -16615.23629608587, -37181.83632872538, -15622.863545759148, -39322.77581963251, -187500.02235174447, -47290.658627827004, 10144.361572785565, -11784.309063471444, -54284.340653936946, -52417.56766051861, -42953.88376163051, -39361.17611660673, -31971.13060607083, -42830.90446363741, -0.008, 0.976, 0.27, 192.0, 0.0, 0.0, 0.0, 0.0, 0.0, 0.0, 0.0, 0.0, 0.0, 1.695675188045994E9, 0.0, 2023-09-25 15:53:08.045
96.0, -187500.02235174447, 3709.6072685250365, -16605.781508181277, -37163.55260176094, -15616.04626370028, -39320.04890680897, -187500.02235174447, -47280.22036316638, 10205.717111315384, -11776.597711634364, -54279.93736027925, -52408.872831925495, -42958.398814010485, -39347.20627632216, -31972.829338649433, -42813.537158195635, -0.008, 0.976, 0.27, 192.0, 0.0, 0.0, 0.0, 0.0, 0.0, 0.0, 0.0, 0.0, 0.0, 1.695675188045997E9, 0.0, 2023-09-25 15:53:08.045
98.0, -187500.02235174447, 3695.793890451657, -16620.66776998851, -37183.02097118151, -15631.156042952067, -39321.16649403173, -187500.02235174447, -47299.77813956477, 10192.194305919922, -11776.24008372308, -54275.89169453284, -52405.94475340185, -42955.381328509015, -39343.250017553575, -31971.465882237662, -42829.58571071455, -0.004, 0.974, 0.274, 192.0, 127.5, 112.0, 15.0, 56.0, 4.0, 72.0, 0.0, 0.0, 0.0, 1.695675188046E9, 0.0, 2023-09-25 15:53:08.046
100.0, -187500.02235174447, 3692.9775706502883, -16617.940857164962, -37184.31737235992, -15621.813013769748, -39337.572674461924, -187500.02235174447, -47296.3136191742, 10265.686841688972, -11792.154525775257, -54292.81196508551, -52427.245965867754, -42971.58634323911, -39353.57652349192, -31980.160710830776, -42809.11151279348, -0.004, 0.974, 0.274, 192.0, 0.0, 0.0, 0.0, 0.0, 0.0, 0.0, 0.0, 0.0, 0.0, 1.695675188046003E9, 0.0, 2023-09-25 15:53:08.046
102.0, -187500.02235174447, 3697.7831957081794, -16616.91267692002, -37185.434959582686, -15623.198821925978, -39327.82731387941, -187500.02235174447, -47288.04347372574, 10223.754969090816, -11783.124421015315, -54280.31733993499, -52420.00400066424, -42957.281226787716, -39343.652348953765, -31972.00232410459, -42847.35534755651, -0.004, 0.974, 0.274, 192.0, 0.0, 0.0, 0.0, 0.0, 0.0, 0.0, 0.0, 0.0, 0.0, 1.695675188046007E9, 0.0, 2023-09-25 15:53:08.046
104.0, -187500.02235174447, 3687.3449310475507, -16628.6249910146, -37196.811997510435, -15630.217269684945, -39330.084840069394, -187500.02235174447, -47301.49922388783, 10298.365092082631, -11790.276979241013, -54290.44268017324, -52429.39173333547, -42963.87499140203, -39344.94875013218, -31981.52416724255, -42824.645975189924, -0.004, 0.974, 0.274, 192.0, 0.0, 0.0, 0.0, 0.0, 0.0, 0.0, 0.0, 0.0, 0.0, 1.69567518804601E9, 0.0, 2023-09-25 15:53:08.046
106.0, -187500.02235174447, 3687.434338025372, -16629.00497067034, -37196.72259053261, -15623.42233937053, -39327.939072601686, -187500.02235174447, -47292.424415638976, 10269.956024879935, -11797.183668277701, -54298.75752911062, -52438.48889332878, -42966.75836643676, -39352.39188103579, -31986.866234167366, -42847.69062372335, -0.004, 0.974, 0.274, 192.0, 0.0, 0.0, 0.0, 0.0, 0.0, 0.0, 0.0, 0.0, 0.0, 1.695675188106409E9, 0.0, 2023-09-25 15:53:08.106
108.0, -187500.02235174447, 3677.6666256984026, -16638.10213066365, -37202.824616768914, -15623.243525414888, -39338.57850296242, -187500.02235174447, -47297.74413081934, 10366.649671393594, -11803.822136380928, -54304.92661058028, -52442.19928290836, -42967.831250170624, -39350.29081705699, -31983.066437609967, -42810.92200409437, -0.004, 0.98, 0.28200000000000003, 192.0, 127.5, 112.0, 15.0, 80.0, 4.0, 104.0, 0.0, 0.0, 0.0, 1.695675188106419E9, 0.0, 2023-09-25 15:53:08.106
110.0, -187500.02235174447, 3670.558770961615, -16636.470453318412, -37202.57874757991, -15618.66141780155, -39333.97404360462, -187500.02235174447, -47295.017217995795, 10322.61673481664, -11809.09714807238, -54301.88677333436, -52444.18858816488, -42962.6903489459, -39349.30734030096, -31980.56304223097, -42841.76741144269, -0.004, 0.98, 0.28200000000000003, 192.0, 0.0, 0.0, 0.0, 0.0, 0.0, 0.0, 0.0, 0.0, 0.0, 1.695675188106422E9, 0.0, 2023-09-25 15:53:08.106
112.0, -187500.02235174447, 3676.571390220093, -16640.53847080928, -37202.46698885763, -15623.645856815083, -39331.89533137027, -187500.02235174447, -47291.55269760522, 10410.079110870256, -11811.332322517912, -54303.049064046034, -52442.60161430855, -42963.293846046196, -39348.346215289384, -31985.681591711236, -42812.26310876168, -0.004, 0.98, 0.28200000000000003, 192.0, 0.0, 0.0, 0.0, 0.0, 0.0, 0.0, 0.0, 0.0, 0.0, 1.695675188106425E9, 0.0, 2023-09-25 15:53:08.106
114.0, -187500.02235174447, 3691.1894310938637, -16630.77075848231, -37194.576823064905, -15613.14053692109, -39324.34044174438, -187500.02235174447, -47288.445805125935, 10362.179322502532, -11807.040787582493, -54299.38337795537, -52438.3771346065, -42963.60677046857, -39337.6844331842, -31980.719504442157, -42843.08616436555, -0.004, 0.98, 0.28200000000000003, 192.0, 0.0, 0.0, 0.0, 0.0, 0.0, 0.0, 0.0, 0.0, 0.0, 1.695675188106428E9, 0.0, 2023-09-25 15:53:08.106
116.0, -187500.02235174447, 3694.341027062062, -16626.792147969263, -37192.45340734165, -15612.291170631788, -39317.29964224096, -187500.02235174447, -47281.717930044884, 10423.937192432546, -11796.244895010579, -54285.77116558208, -52428.05062866815, -42946.84296212709, -39328.92254935772, -31975.42214100625, -42836.33593754005, -0.004, 0.98, 0.28200000000000003, 192.0, 0.0, 0.0, 0.0, 0.0, 0.0, 0.0, 0.0, 0.0, 0.0, 1.695675188106432E9, 0.0, 2023-09-25 15:53:08.106
118.0, -187500.02235174447, 3685.9367711468662, -16636.403398085047, -37197.48254984409, -15624.808147526759, -39320.942976587176, -187500.02235174447, -47289.630447582065, 10377.445563965508, -11805.364406748344, -54291.02382552908, -52434.82320723811, -42957.70590993237, -39329.99543309158, -31983.021734121055, -42857.27952209467, -0.006, 0.972, 0.272, 192.0, 127.5, 104.0, 15.0, 48.0, 4.0, 64.0, 0.0, 0.0, 0.0, 1.695675188106435E9, 0.0, 2023-09-25 15:53:08.106
120.0, -187500.02235174447, 3695.793890451657, -16631.95540093844, -37184.94322120467, -15614.481641588407, -39312.695182883166, -187500.02235174447, -47278.8122032657, 10447.764152021904, -11807.66663642724, -54291.71672960719, -52430.263451369225, -42957.43768899891, -39326.7320784011, -31983.96050738818, -42831.95499562681, -0.006, 0.972, 0.272, 192.0, 0.0, 0.0, 0.0, 0.0, 0.0, 0.0, 0.0, 0.0, 0.0, 1.695675188166592E9, 0.0, 2023-09-25 15:53:08.166
122.0, -187500.02235174447, 3682.315788545107, -16645.72407552291, -37204.568052836425, -15633.435920886508, -39330.64363368078, -187500.02235174447, -47319.78295085227, 10420.986762164446, -11807.219601538134, -54293.68368311926, -52434.97966944929, -42968.05476761518, -39329.39193599128, -31990.017830135566, -42836.02301311767, -0.006, 0.972, 0.272, 192.0, 0.0, 0.0, 0.0, 0.0, 0.0, 0.0, 0.0, 0.0, 0.0, 1.695675188166604E9, 0.0, 2023-09-25 15:53:08.166
124.0, -187500.02235174447, 3684.0368728681656, -16642.61718304362, -37206.60206158186, -15630.530194107318, -39329.54839820247, -187500.02235174447, -47301.47687214338, 10492.624103143706, -11811.980523107115, -54299.83041284447, -52441.26050964124, -42966.87012515905, -39338.26557854004, -31999.874949440356, -42823.729553667254, -0.006, 0.972, 0.272, 192.0, 0.0, 0.0, 0.0, 0.0, 0.0, 0.0, 0.0, 0.0, 0.0, 1.695675188166608E9, 0.0, 2023-09-25 15:53:08.166
126.0, -187500.02235174447, 3684.2603903127183, -16636.470453318412, -37208.61371858284, -15623.154118437067, -39332.78940114849, -187500.02235174447, -47287.19410743644, 10467.232521442476, -11812.427557996221, -54297.327017465475, -52440.36643986302, -42964.88081990252, -39333.86228488234, -31985.681591711236, -42844.18139984386, -0.006, 0.972, 0.272, 192.0, 0.0, 0.0, 0.0, 0.0, 0.0, 0.0, 0.0, 0.0, 0.0, 1.695675188166611E9, 0.0, 2023-09-25 15:53:08.166
128.0, -187500.02235174447, 3693.089329372565, -16644.740598766875, -37212.79349479598, -15636.453406387975, -39327.62614817931, -187500.02235174447, -47313.90444206053, 10536.299411809376, -11810.550011461975, -54298.82458434399, -52440.32173637411, -42962.22096231234, -39341.46187799715, -31994.734048215636, -42819.88505362094, -0.01, 0.976, 0.27, 192.0, 127.5, 88.0, 15.0, 64.0, 4.0, 56.0, 0.0, 0.0, 0.0, 1.695675188166614E9, 0.0, 2023-09-25 15:53:08.166
130.0, -187500.02235174447, 3705.11456788952, -16621.070101388705, -37192.8780904863, -15608.245504885377, -39319.892444597775, -187500.02235174447, -47291.97738074987, 10520.697894179571, -11786.432479194698, -54285.12296499288, -52431.67161126991, -42957.86237214356, -39319.24424400857, -31983.28995505452, -42844.29315856614, -0.01, 0.976, 0.27, 192.0, 0.0, 0.0, 0.0, 0.0, 0.0, 0.0, 0.0, 0.0, 0.0, 1.695675188166617E9, 0.0, 2023-09-25 15:53:08.166
132.0, -187500.02235174447, 3692.664646227914, -16628.37912182559, -37200.097703945365, -15616.985036967402, -39318.216063763626, -187500.02235174447, -47282.16496493399, 10554.426676562629, -11795.931970588204, -54285.94997953773, -52428.296497857154, -42943.423145225424, -39323.1334475438, -31969.07424558094, -42834.48074275026, -0.01, 0.976, 0.27, 192.0, 0.0, 0.0, 0.0, 0.0, 0.0, 0.0, 0.0, 0.0, 0.0, 1.695675188166621E9, 0.0, 2023-09-25 15:53:08.166
134.0, -187500.02235174447, 3711.1495388924527, -16610.81065068372, -37183.64682002626, -15597.069632657724, -39307.68839212518, -187500.02235174447, -47267.47986882686, 10540.166263600144, -11787.728880373106, -54276.20461895521, -52418.52878553019, -42939.511589945745, -39306.123770013306, -31962.234611777618, -42850.171667357885, -0.01, 0.976, 0.27, 192.0, 0.0, 0.0, 0.0, 0.0, 0.0, 0.0, 0.0, 0.0, 0.0, 1.695675188166624E9, 0.0, 2023-09-25 15:53:08.166
136.0, -187500.02235174447, 3695.68213172938, -16633.832947472685, -37206.467951115126, -15618.415548612542, -39314.88565383979, -187500.02235174447, -47286.344741147135, 10557.086534152812, -11796.960150833149, -54280.630264357365, -52414.75134071724, -42927.5310549177, -39314.21510150613, -31969.99066710361, -42833.16198982739, -0.01, 0.976, 0.27, 192.0, 0.0, 0.0, 0.0, 0.0, 0.0, 0.0, 0.0, 0.0, 0.0, 1.695675188226957E9, 0.0, 2023-09-25 15:53:08.226
138.0, -187500.02235174447, 3696.39738755195, -16635.39756958456, -37207.74200054908, -15613.878144488115, -39319.15483703075, -187500.02235174447, -47286.612962080595, 10573.157438416176, -11801.139927046292, -54283.312473692, -52411.28682032667, -42932.42608695341, -39305.65438337975, -31977.970239874154, -42829.31748978108, -0.008, 0.978, 0.27, 192.0, 127.5, 96.0, 15.0, 72.0, 4.0, 56.0, 0.0, 0.0, 0.0, 1.695675188226968E9, 0.0, 2023-09-25 15:53:08.226
140.0, -187500.02235174447, 3686.9649513918107, -16651.736694781386, -37224.12582923482, -15629.032627228813, -39326.44150572318, -187500.02235174447, -47306.2154419679, 10586.054394966888, -11821.211793567158, -54293.46016567471, -52412.359704060524, -42928.69334562938, -39321.144142287274, -31993.929385415246, -42825.94237636833, -0.008, 0.978, 0.27, 192.0, 0.0, 0.0, 0.0, 0.0, 0.0, 0.0, 0.0, 0.0, 0.0, 1.695675188226972E9, 0.0, 2023-09-25 15:53:08.226
142.0, -187500.02235174447, 3690.6753409713915, -16647.400456357056, -37217.39795415377, -15617.990865467891, -39330.21895053613, -187500.02235174447, -47295.03956974025, 10627.96391582059, -11817.479052243121, -54295.583581397965, -52412.13618661597, -42931.68847938639, -39314.05863929494, -31995.04697263801, -42818.029858831156, -0.008, 0.978, 0.27, 192.0, 0.0, 0.0, 0.0, 0.0, 0.0, 0.0, 0.0, 0.0, 0.0, 1.695675188226975E9, 0.0, 2023-09-25 15:53:08.226
144.0, -187500.02235174447, 3690.787099693668, -16650.708514536444, -37217.88969253179, -15623.467042859442, -39327.60379643486, -187500.02235174447, -47309.25527921382, 10610.171927234165, -11817.501403987575, -54291.739081351654, -52410.86213718202, -42919.61853738053, -39308.15777875874, -31989.682553968738, -42833.29610029413, -0.008, 0.978, 0.27, 192.0, 0.0, 0.0, 0.0, 0.0, 0.0, 0.0, 0.0, 0.0, 0.0, 1.695675188226978E9, 0.0, 2023-09-25 15:53:08.226
146.0, -187500.02235174447, 3694.2069165953303, -16655.29062214978, -37217.04032624249, -15626.819804527737, -39341.59598846388, -187500.02235174447, -47329.14833177905, 10663.749058693536, -11826.285639558511, -54302.17734601228, -52415.511300028724, -42926.50287467276, -39307.48722642508, -32007.161618132788, -42819.52742570966, -0.008, 0.978, 0.27, 192.0, 0.0, 0.0, 0.0, 0.0, 0.0, 0.0, 0.0, 0.0, 0.0, 1.695675188226982E9, 0.0, 2023-09-25 15:53:08.226
148.0, -187500.02235174447, 3698.565506764115, -16653.72600003791, -37213.32993666291, -15624.1375951931, -39337.75148841757, -187500.02235174447, -47314.12795950508, 10637.731628147558, -11827.894965159294, -54303.1161192794, -52418.68524774138, -42922.43485718189, -39312.31520322743, -32011.67667051276, -42839.822809675075, -0.006, 0.984, 0.276, 192.0, 127.5, 104.0, 15.0, 96.0, 4.0, 80.0, 0.0, 0.0, 0.0, 1.695675188226985E9, 0.0, 2023-09-25 15:53:08.226
150.0, -187500.02235174447, 3702.7005794883466, -16636.515156807323, -37193.235718397584, -15596.46613555743, -39319.44540970867, -187500.02235174447, -47242.66943248146, 10695.577942797892, -11819.110729588358, -54295.47182267569, -52407.397616791444, -42915.14818848946, -39298.65828736524, -31996.00809764959, -42822.03082108865, -0.006, 0.984, 0.276, 192.0, 0.0, 0.0, 0.0, 0.0, 0.0, 0.0, 0.0, 0.0, 0.0, 1.695675188286259E9, 0.0, 2023-09-25 15:53:08.286
152.0, -187500.02235174447, 3699.1913556088634, -16640.985505698383, -37195.1803201652, -15602.076423415712, -39317.8807875968, -187500.02235174447, -47258.31565360018, 10651.34384052084, -11819.222488310634, -54289.10157550593, -52404.80481443463, -42904.844034295566, -39294.74673208556, -31981.792388176014, -42835.26305380619, -0.006, 0.984, 0.276, 192.0, 0.0, 0.0, 0.0, 0.0, 0.0, 0.0, 0.0, 0.0, 0.0, 1.695675188286271E9, 0.0, 2023-09-25 15:53:08.286
154.0, -187500.02235174447, 3704.198146366852, -16637.565688796723, -37187.89365147277, -15597.360205335643, -39315.35504047335, -187500.02235174447, -47257.22041812187, 10716.230954674596, -11813.656903941262, -54289.25803771711, -52398.9710091318, -42904.084074984086, -39284.84490929185, -31982.775864932046, -42812.26310876168, -0.006, 0.984, 0.276, 192.0, 0.0, 0.0, 0.0, 0.0, 0.0, 0.0, 0.0, 0.0, 0.0, 1.695675188286275E9, 0.0, 2023-09-25 15:53:08.286
156.0, -187500.02235174447, 3687.657855469925, -16658.598680329167, -37208.59136683838, -15619.041397457291, -39324.67571791121, -187500.02235174447, -47283.30490390121, 10668.889959918257, -11819.647171455284, -54299.27161923309, -52406.637657479965, -42908.889700041975, -39291.662191350726, -31990.554272002493, -42833.49726599423, -0.006, 0.984, 0.276, 192.0, 0.0, 0.0, 0.0, 0.0, 0.0, 0.0, 0.0, 0.0, 0.0, 1.695675188286278E9, 0.0, 2023-09-25 15:53:08.286
158.0, -187500.02235174447, 3688.0601868701206, -16664.879520521106, -37210.55832035045, -15620.226039913421, -39330.174247047216, -187500.02235174447, -47287.01529348079, 10759.772152873535, -11832.477072772632, -54318.9188026093, -52421.90389894294, -42926.30170897266, -39304.49209266807, -32007.161618132788, -42798.40502719939, -0.006, 0.972, 0.28, 192.0, 127.5, 104.0, 15.0, 48.0, 4.0, 96.0, 0.0, 0.0, 0.0, 1.695675188286281E9, 0.0, 2023-09-25 15:53:08.286
160.0, -187500.02235174447, 3694.765710206713, -16656.564671583732, -37199.56126207844, -15612.268818887333, -39322.50759869905, -187500.02235174447, -47277.44874685392, 10703.78103301299, -11819.20013656618, -54308.74875888214, -52416.38301806248, -42922.09958101506, -39288.4211884047, -31997.170388361264, -42834.592501472536, -0.006, 0.972, 0.28, 192.0, 0.0, 0.0, 0.0, 0.0, 0.0, 0.0, 0.0, 0.0, 0.0, 1.695675188286284E9, 0.0, 2023-09-25 15:53:08.286
162.0, -187500.02235174447, 3700.554812020637, -16655.134159938592, -37191.96166896363, -15608.446670585476, -39323.781648133, -187500.02235174447, -47274.11833693008, 10767.572911688438, -11819.24484005509, -54308.70405539323, -52411.108006371025, -42922.72542985981, -39289.24820294955, -32003.04889715301, -42816.10760880799, -0.006, 0.972, 0.28, 192.0, 0.0, 0.0, 0.0, 0.0, 0.0, 0.0, 0.0, 0.0, 0.0, 1.695675188286288E9, 0.0, 2023-09-25 15:53:08.286
164.0, -187500.02235174447, 3701.1583091209304, -16647.71338077943, -37187.75954100604, -15602.255237371355, -39321.16649403173, -187500.02235174447, -47271.57023806217, 10706.060910947432, -11813.880421385817, -54302.445566945746, -52412.18089010488, -42916.55634839015, -39284.39787440275, -31988.922594657255, -42842.99675738773, -0.006, 0.972, 0.28, 192.0, 0.0, 0.0, 0.0, 0.0, 0.0, 0.0, 0.0, 0.0, 0.0, 1.695675188286291E9, 0.0, 2023-09-25 15:53:08.286
166.0, -187500.02235174447, 3696.2185735963076, -16656.564671583732, -37194.91209923173, -15610.503031075363, -39323.26755801053, -187500.02235174447, -47280.84621201113, 10771.953853601677, -11820.474186000132, -54302.69143613475, -52415.444244795355, -42914.25411871125, -39290.29873493895, -31991.157769102785, -42818.856873376, -0.006, 0.972, 0.28, 192.0, 0.0, 0.0, 0.0, 0.0, 0.0, 0.0, 0.0, 0.0, 0.0, 1.695675188346033E9, 0.0, 2023-09-25 15:53:08.346
168.0, -187500.02235174447, 3674.20210530783, -16668.05346823376, -37206.35619239285, -15626.529231849818, -39337.19269480618, -187500.02235174447, -47290.0104272378, 10739.230899719108, -11834.86870942935, -54315.7672066411, -52432.52097755921, -42930.25796774125, -39300.98286878859, -32006.647528010315, -42832.04440260463, -0.002, 0.978, 0.278, 192.0, 127.5, 120.0, 15.0, 72.0, 4.0, 88.0, 0.0, 0.0, 0.0, 1.695675188346042E9, 0.0, 2023-09-25 15:53:08.346
170.0, -187500.02235174447, 3689.49069851526, -16660.54328209678, -37190.84408174087, -15615.465118344442, -39324.47455221111, -187500.02235174447, -47286.747072547325, 10812.566973276971, -11834.019343140048, -54317.73416015317, -52434.51028281573, -42931.263796241736, -39298.90415655424, -32008.502722800105, -42809.33503023804, -0.002, 0.978, 0.278, 192.0, 0.0, 0.0, 0.0, 0.0, 0.0, 0.0, 0.0, 0.0, 0.0, 1.695675188346046E9, 0.0, 2023-09-25 15:53:08.346
172.0, -187500.02235174447, 3694.9668759068104, -16653.4801308489, -37190.106474173845, -15611.553563064763, -39325.703898156156, -187500.02235174447, -47301.07454074318, 10755.346507471384, -11816.517927231542, -54304.72544488018, -52422.73091348779, -42925.13941826099, -39282.54267961296, -32000.52315002956, -42845.8130771891, -0.002, 0.978, 0.278, 192.0, 0.0, 0.0, 0.0, 0.0, 0.0, 0.0, 0.0, 0.0, 0.0, 1.695675188346049E9, 0.0, 2023-09-25 15:53:08.346
174.0, -187500.02235174447, 3691.882335171978, -16652.027267459307, -37189.25710788454, -15606.077385673212, -39324.1839795332, -187500.02235174447, -47287.97641849237, 10801.547563260505, -11822.06115985646, -54305.35129372493, -52423.692038499365, -42920.289089714184, -39293.45033090715, -32007.273376855064, -42830.68094619286, -0.002, 0.978, 0.278, 192.0, 0.0, 0.0, 0.0, 0.0, 0.0, 0.0, 0.0, 0.0, 0.0, 1.695675188346052E9, 0.0, 2023-09-25 15:53:08.346
176.0, -187500.02235174447, 3686.8084891806234, -16645.701723778453, -37183.06567467042, -15594.298016345265, -39320.92062484272, -187500.02235174447, -47242.06593538117, 10779.352281016385, -11827.023247125537, -54304.01018905761, -52430.24109962477, -42923.999479293765, -39292.51155764003, -31986.55330974499, -42839.17460908587, -0.002, 0.978, 0.278, 192.0, 0.0, 0.0, 0.0, 0.0, 0.0, 0.0, 0.0, 0.0, 0.0, 1.695675188346056E9, 0.0, 2023-09-25 15:53:08.346
178.0, -187500.02235174447, 3688.6860357148694, -16647.71338077943, -37184.74205550457, -15606.211496139944, -39310.594118904366, -187500.02235174447, -47249.844342451615, 10821.57472629246, -11824.72101744664, -54301.4173867008, -52423.37911407699, -42918.29978445766, -39290.58930761687, -31979.400751519293, -42818.27572802016, -0.002, 0.978, 0.278, 192.0, 0.0, 0.0, 15.0, 72.0, 4.0, 104.0, 0.0, 0.0, 0.0, 1.695675188346059E9, 0.0, 2023-09-25 15:53:08.346
180.0, -187500.02235174447, 3689.11071885952, -16652.742523281875, -37188.31833461742, -15608.223153140922, -39318.64074690828, -187500.02235174447, -47268.105717671606, 10806.062615640476, -11816.674389442729, -54301.238572745155, -52418.88641344147, -42924.96060430534, -39284.44257789166, -31985.301612055497, -42831.73147818226, -0.002, 0.978, 0.278, 192.0, 0.0, 0.0, 0.0, 0.0, 0.0, 0.0, 0.0, 0.0, 0.0, 1.695675188406369E9, 0.0, 2023-09-25 15:53:08.406
182.0, -187500.02235174447, 3676.7055006868245, -16674.580177614713, -37208.25609067155, -15625.881031260615, -39332.09649707037, -187500.02235174447, -47292.78204355026, 10843.52413934757, -11833.192328595202, -54319.142320053856, -52433.88443397098, -42933.58837766509, -39303.41920893422, -32000.56785351847, -42812.73249539525, -0.002, 0.978, 0.278, 192.0, 0.0, 0.0, 0.0, 0.0, 0.0, 0.0, 0.0, 0.0, 0.0, 1.695675188406382E9, 0.0, 2023-09-25 15:53:08.406
184.0, -187500.02235174447, 3672.950407618333, -16667.561729855744, -37200.79060802348, -15613.85579274366, -39334.66694768274, -187500.02235174447, -47269.67033978347, 10849.603813839414, -11836.43333154122, -54323.836186389475, -52439.964108462824, -42943.60195918107, -39300.06644726592, -32000.165522118274, -42814.945318096325, -0.002, 0.978, 0.278, 192.0, 0.0, 0.0, 0.0, 0.0, 0.0, 0.0, 0.0, 0.0, 0.0, 1.695675188406386E9, 0.0, 2023-09-25 15:53:08.406
186.0, -187500.02235174447, 3678.6501024544364, -16663.62782283161, -37193.258070142045, -15614.481641588407, -39327.42498247921, -187500.02235174447, -47272.73252877385, 10847.905081260811, -11837.081532130425, -54321.71277066622, -52438.95827996234, -42940.986805079796, -39299.418246676716, -31991.38128654734, -42817.13578905294, -0.002, 0.978, 0.278, 192.0, 0.0, 0.0, 0.0, 0.0, 0.0, 0.0, 0.0, 0.0, 0.0, 1.695675188406389E9, 0.0, 2023-09-25 15:53:08.406
188.0, -187500.02235174447, 3687.4566897698273, -16656.29645065027, -37183.93739270418, -15613.185240410001, -39319.9818515756, -187500.02235174447, -47251.74424073032, 10844.529967848059, -11826.844433169894, -54316.214241530215, -52432.96801244831, -42939.01985156773, -39286.744807570554, -31995.941042416223, -42827.439943246834, -0.002, 0.978, 0.278, 192.0, 0.0, 0.0, 15.0, 72.0, 4.0, 112.0, 0.0, 0.0, 0.0, 1.695675188406392E9, 0.0, 2023-09-25 15:53:08.406
190.0, -187500.02235174447, 3675.6996721863356, -16669.97571825692, -37202.198767924165, -15621.90242074757, -39330.82244763642, -187500.02235174447, -47265.60232229261, 10841.244261413129, -11831.694761716695, -54318.13649155337, -52434.62204153801, -42937.96931957833, -39296.132540241786, -31990.353106302395, -42815.9064431079, -0.002, 0.978, 0.278, 192.0, 0.0, 0.0, 0.0, 0.0, 0.0, 0.0, 0.0, 0.0, 0.0, 1.695675188406395E9, 0.0, 2023-09-25 15:53:08.406
192.0, -187500.02235174447, 3683.7686519347017, -16662.95727049795, -37190.173529407206, -15614.056958443756, -39328.54256970198, -187500.02235174447, -47261.40019433501, 10882.371471210894, -11830.778340194029, -54320.50577646563, -52438.84652124006, -42949.34635750608, -39297.8759763093, -31988.14028360132, -42801.95895456779, -0.002, 0.978, 0.278, 192.0, 0.0, 0.0, 0.0, 0.0, 0.0, 0.0, 0.0, 0.0, 0.0, 1.695675188406399E9, 0.0, 2023-09-25 15:53:08.406
194.0, -187500.02235174447, 3678.7171576878022, -16661.213834430437, -37190.35234336285, -15616.1356706781, -39324.653366166756, -187500.02235174447, -47266.31757811518, 10851.615470840392, -11833.05821812847, -54318.56117469802, -52438.48889332878, -42943.7360696478, -39295.66315360822, -31987.156806845287, -42821.226158288264, -0.002, 0.978, 0.278, 192.0, 0.0, 0.0, 0.0, 0.0, 0.0, 0.0, 0.0, 0.0, 0.0, 1.695675188406402E9, 0.0, 2023-09-25 15:53:08.406
196.0, -187500.02235174447, 3676.9960733647436, -16663.672526320523, -37193.61569805333, -15615.308656133255, -39327.49203771258, -187500.02235174447, -47282.88022075656, 10895.111965550419, -11839.026133898036, -54316.8177386305, -52435.11377991603, -42945.92654060442, -39296.400761175246, -31983.71463819917, -42805.82580635855, -0.002, 0.978, 0.278, 192.0, 0.0, 0.0, 0.0, 0.0, 0.0, 0.0, 0.0, 0.0, 0.0, 1.695675188466625E9, 0.0, 2023-09-25 15:53:08.466
198.0, -187500.02235174447, 3665.596683692537, -16673.574349114224, -37208.41255288274, -15633.659438331062, -39331.20242729216, -187500.02235174447, -47304.40495066702, 10860.042078500042, -11850.425523570244, -54317.64475317535, -52443.4286288534, -42948.89932261698, -39305.25205197955, -31991.358934802884, -42821.606137944, -0.002, 0.97, 0.28600000000000003, 192.0, 127.5, 120.0, 15.0, 40.0, 4.0, 120.0, 0.0, 0.0, 0.0, 1.695675188466635E9, 0.0, 2023-09-25 15:53:08.466
200.0, -187500.02235174447, 3678.0019018652324, -16656.40820937255, -37192.58751780838, -15611.106528175656, -39330.82244763642, -187500.02235174447, -47271.74905201782, 10933.132282868897, -11851.118427648358, -54323.478558478186, -52454.13511444749, -42957.01300585425, -39305.408514190734, -31989.302574312995, -42794.448768430804, -0.002, 0.97, 0.28600000000000003, 192.0, 0.0, 0.0, 0.0, 0.0, 0.0, 0.0, 0.0, 0.0, 0.0, 1.695675188466639E9, 0.0, 2023-09-25 15:53:08.466
202.0, -187500.02235174447, 3681.242904811252, -16650.797921514266, -37191.24641314107, -15611.106528175656, -39321.76999113202, -187500.02235174447, -47263.68007226945, 10872.357889694917, -11842.53535777752, -54312.05681706152, -52441.595785808066, -42950.10631681756, -39299.17237748771, -31970.884736881824, -42822.768428655676, -0.002, 0.97, 0.28600000000000003, 192.0, 0.0, 0.0, 0.0, 0.0, 0.0, 0.0, 0.0, 0.0, 0.0, 1.695675188466642E9, 0.0, 2023-09-25 15:53:08.466
204.0, -187500.02235174447, 3670.1117360725093, -16660.945613496973, -37203.383410380295, -15622.416510870042, -39330.800095891966, -187500.02235174447, -47262.4060228355, 10939.055495149552, -11851.274889859546, -54319.09761656495, -52444.00977420924, -42955.42603199793, -39305.140293257275, -31972.695228182703, -42792.83944283002, -0.002, 0.97, 0.28600000000000003, 192.0, 0.0, 0.0, 0.0, 0.0, 0.0, 0.0, 0.0, 0.0, 0.0, 1.695675188466646E9, 0.0, 2023-09-25 15:53:08.466
206.0, -187500.02235174447, 3684.595666479548, -16649.479168591402, -37190.88878522978, -15612.1347084206, -39320.29477599797, -187500.02235174447, -47264.820011236676, 10890.44045095926, -11844.748180478595, -54319.142320053856, -52446.04378295467, -42958.62233145504, -39301.63106937779, -31981.05478060899, -42816.50994020819, -0.002, 0.97, 0.28600000000000003, 192.0, 0.0, 0.0, 0.0, 0.0, 0.0, 0.0, 0.0, 0.0, 0.0, 1.695675188466649E9, 0.0, 2023-09-25 15:53:08.466
208.0, -187500.02235174447, 3689.468346770805, -16636.761025996333, -37173.45442455464, -15596.264969857333, -39308.224833992106, -187500.02235174447, -47257.06395591068, 10940.396599816871, -11834.86870942935, -54303.205526257225, -52428.0729804126, -42944.11604930354, -39287.75063607105, -31961.251135021586, -42804.06001854659, -0.008, 0.962, 0.292, 192.0, 127.5, 96.0, 15.0, 8.0, 4.5, 16.0, 0.0, 0.0, 0.0, 1.695675188466652E9, 0.0, 2023-09-25 15:53:08.466
210.0, -187500.02235174447, 3681.5111257447156, -16636.939839951974, -37184.07150317091, -15595.884990201592, -39312.09168578288, -187500.02235174447, -47262.94246470243, 10866.568787880991, -11828.789034937507, -54295.851802331425, -52422.015657665215, -42937.276415500215, -39282.006237746034, -31952.913934339755, -42832.17851307136, -0.008, 0.962, 0.292, 192.0, 0.0, 0.0, 0.0, 0.0, 0.0, 0.0, 0.0, 0.0, 0.0, 1.69567518852694E9, 0.0, 2023-09-25 15:53:08.526
212.0, -187500.02235174447, 3674.0456430966433, -16650.462645347434, -37195.895575987764, -15612.022949698325, -39317.232587007595, -187500.02235174447, -47264.68590076994, 10944.039934163087, -11838.132064119824, -54300.5680204115, -52430.397561835955, -42940.15979053495, -39293.338572184875, -31951.639884905802, -42786.200974726795, -0.008, 0.962, 0.292, 192.0, 0.0, 0.0, 0.0, 0.0, 0.0, 0.0, 0.0, 0.0, 0.0, 1.695675188526951E9, 0.0, 2023-09-25 15:53:08.526
214.0, -187500.02235174447, 3671.274026784185, -16657.525796595313, -37202.26582315753, -15620.985999224902, -39329.682508669204, -187500.02235174447, -47280.24271491083, 10912.993361114664, -11847.944479935704, -54320.684590421275, -52447.8319225111, -42964.43378501342, -39307.55428165845, -31972.963449116167, -42789.86666081747, -0.008, 0.962, 0.292, 192.0, 0.0, 0.0, 0.0, 0.0, 0.0, 0.0, 0.0, 0.0, 0.0, 1.695675188526955E9, 0.0, 2023-09-25 15:53:08.526
216.0, -187500.02235174447, 3686.696730458347, -16652.92133723752, -37191.02289569651, -15617.812051512248, -39325.79330513398, -187500.02235174447, -47288.423453381474, 10972.583111832513, -11839.808444953973, -54314.82843337399, -52439.24885264026, -42952.90028487448, -39303.598022889855, -31973.56694621646, -42777.7967188116, -0.008, 0.962, 0.292, 192.0, 0.0, 0.0, 0.0, 0.0, 0.0, 0.0, 0.0, 0.0, 0.0, 1.695675188526958E9, 0.0, 2023-09-25 15:53:08.526
218.0, -187500.02235174447, 3683.1875065788636, -16659.20217742946, -37197.571956821914, -15623.131766692612, -39325.010994078046, -187500.02235174447, -47279.661569555, 10919.83299491799, -11829.973677393637, -54310.02280831609, -52436.00784969424, -42956.16363956495, -39293.58444137388, -31977.836129407424, -42804.462349946785, -0.014, 0.962, 0.298, 192.0, 127.5, 72.0, 15.0, 8.0, 4.5, 40.0, 0.0, 0.0, 0.0, 1.695675188526961E9, 0.0, 2023-09-25 15:53:08.526
220.0, -187500.02235174447, 3703.594649266559, -16638.30329636375, -37172.15802337623, -15590.252350598856, -39317.12082828532, -187500.02235174447, -47249.24084535132, 10975.064155467053, -11832.097093116892, -54312.68266590627, -52438.10891367304, -42950.2404272843, -39294.27734545199, -31970.057722336976, -42785.48571890422, -0.014, 0.962, 0.298, 192.0, 0.0, 0.0, 0.0, 0.0, 0.0, 0.0, 0.0, 0.0, 0.0, 1.695675188526964E9, 0.0, 2023-09-25 15:53:08.526
222.0, -187500.02235174447, 3697.2244020967964, -16637.92331670801, -37168.559392518924, -15600.37769083711, -39310.05767703744, -187500.02235174447, -47258.650929767005, 10916.502584994148, -11816.38381676481, -54297.483479676666, -52420.22751810879, -42941.07621205762, -39278.96640050011, -31952.46689945065, -42816.28642276364, -0.014, 0.962, 0.298, 192.0, 0.0, 0.0, 0.0, 0.0, 0.0, 0.0, 0.0, 0.0, 0.0, 1.695675188526968E9, 0.0, 2023-09-25 15:53:08.526
224.0, -187500.02235174447, 3691.569410749604, -16644.181805155495, -37180.83050022489, -15612.984074709902, -39311.577595660405, -187500.02235174447, -47286.88118301406, 10947.370344086927, -11817.926087132226, -54297.77405235459, -52419.04287565266, -42938.97514807882, -39281.17922320119, -31967.733140913624, -42803.79179761312, -0.014, 0.962, 0.298, 192.0, 0.0, 0.0, 0.0, 0.0, 0.0, 0.0, 0.0, 0.0, 0.0, 1.695675188526971E9, 0.0, 2023-09-25 15:53:08.526
226.0, -187500.02235174447, 3689.6695124709026, -16639.979677197894, -37175.354322833344, -15603.976321694414, -39310.83998809338, -187500.02235174447, -47257.39923207751, 10933.132282868897, -11817.85903189886, -54301.2162210007, -52424.98843967777, -42948.56404645015, -39281.91683076821, -31961.47465246614, -42800.66255338938, -0.014, 0.962, 0.298, 192.0, 0.0, 0.0, 0.0, 0.0, 0.0, 0.0, 0.0, 0.0, 0.0, 1.695675188586306E9, 0.0, 2023-09-25 15:53:08.586
228.0, -187500.02235174447, 3691.6364659829696, -16642.57247955471, -37176.91894494521, -15604.065728672234, -39310.035325292985, -187500.02235174447, -47249.19614186241, 10963.195379161285, -11827.827909925927, -54305.64186640285, -52427.670649012405, -42946.239465026796, -39287.63887734877, -31959.015960576056, -42778.80254731209, -0.006, 0.964, 0.298, 192.0, 127.5, 104.0, 15.0, 16.0, 4.5, 40.0, 0.0, 0.0, 0.0, 1.695675188586316E9, 0.0, 2023-09-25 15:53:08.586
230.0, -187500.02235174447, 3706.1650998789196, -16630.23431661538, -37167.33004657389, -15588.866542442625, -39308.135427014284, -187500.02235174447, -47241.238920836324, 10940.754227728155, -11818.507232488064, -54300.3668547114, -52421.81449196512, -42947.289997016196, -39276.77592954349, -31948.264771493054, -42792.347704452004, -0.006, 0.964, 0.298, 192.0, 0.0, 0.0, 0.0, 0.0, 0.0, 0.0, 0.0, 0.0, 0.0, 1.69567518858632E9, 0.0, 2023-09-25 15:53:08.586
232.0, -187500.02235174447, 3685.4897362577603, -16649.322706380215, -37187.938354961676, -15605.89857171757, -39316.4279242072, -187500.02235174447, -47266.31757811518, 10938.429646304805, -11833.505253017576, -54305.932439080774, -52431.023410680704, -42941.88087485801, -39289.2258512051, -31960.08884430991, -42791.163061995874, -0.006, 0.964, 0.298, 192.0, 0.0, 0.0, 0.0, 0.0, 0.0, 0.0, 0.0, 0.0, 0.0, 1.695675188586323E9, 0.0, 2023-09-25 15:53:08.586
234.0, -187500.02235174447, 3684.953294390833, -16644.092398177672, -37185.05497992694, -15604.289246116788, -39320.47358995362, -187500.02235174447, -47267.77044150477, 10944.866948707933, -11835.338096062911, -54309.17344202679, -52436.29842237216, -42950.910979617955, -39289.35996167183, -31964.536841456516, -42790.71602710677, -0.006, 0.964, 0.298, 192.0, 0.0, 0.0, 0.0, 0.0, 0.0, 0.0, 0.0, 0.0, 0.0, 1.695675188586326E9, 0.0, 2023-09-25 15:53:08.586
236.0, -187500.02235174447, 3678.1583640764197, -16657.05640996175, -37199.91888998972, -15618.639066057094, -39318.216063763626, -187500.02235174447, -47277.58285732065, 10936.68621023729, -11836.67920073023, -54309.53106993808, -52436.36547760552, -42946.708851660354, -39292.33274368438, -31970.08007408143, -42791.63244862943, -0.006, 0.964, 0.298, 192.0, 0.0, 0.0, 0.0, 0.0, 0.0, 0.0, 0.0, 0.0, 0.0, 1.695675188586329E9, 0.0, 2023-09-25 15:53:08.586
238.0, -187500.02235174447, 3702.3205998326066, -16635.598735284657, -37175.354322833344, -15593.51570528933, -39317.12082828532, -187500.02235174447, -47265.31174961469, 10954.768771501635, -11824.765720935551, -54306.6700466478, -52434.95731770484, -42953.48143023031, -39283.41439764672, -31968.64956243629, -42795.923983564855, -0.004, 0.964, 0.31, 192.0, 127.5, 112.0, 15.0, 16.0, 4.5, 88.0, 0.0, 0.0, 0.0, 1.695675188586332E9, 0.0, 2023-09-25 15:53:08.586
240.0, -187500.02235174447, 3701.2924195876626, -16645.92524122301, -37185.52436656051, -15606.792641495782, -39315.60090966236, -187500.02235174447, -47282.12026144508, 10916.346122782961, -11815.91443013125, -54298.2657907326, -52422.440340809866, -42937.72345038932, -39280.26280167852, -31958.56892568695, -42811.12316979446, -0.004, 0.964, 0.31, 192.0, 0.0, 0.0, 0.0, 0.0, 0.0, 0.0, 0.0, 0.0, 0.0, 1.695675188647027E9, 0.0, 2023-09-25 15:53:08.647
242.0, -187500.02235174447, 3700.0630736426206, -16633.229450372393, -37173.186203621175, -15589.447687798463, -39316.964366074135, -187500.02235174447, -47263.38949959153, 10937.937907926787, -11804.559743947953, -54294.2648284751, -52421.61332626502, -42942.819648125136, -39271.791490529955, -31956.84784136389, -42805.37877146945, -0.004, 0.964, 0.31, 192.0, 0.0, 0.0, 0.0, 0.0, 0.0, 0.0, 0.0, 0.0, 0.0, 1.695675188647045E9, 0.0, 2023-09-25 15:53:08.647
244.0, -187500.02235174447, 3691.5917624940594, -16648.38393311309, -37186.77606425, -15610.748900264372, -39311.845816593865, -187500.02235174447, -47275.571200319675, 10897.995340585154, -11818.730749932618, -54300.970351811695, -52428.296497857154, -42937.79050562269, -39281.33568541237, -31961.18407978822, -42812.59838492851, -0.004, 0.964, 0.31, 192.0, 0.0, 0.0, 0.0, 0.0, 0.0, 0.0, 0.0, 0.0, 0.0, 1.695675188647048E9, 0.0, 2023-09-25 15:53:08.647
246.0, -187500.02235174447, 3688.909553159422, -16656.58702332819, -37193.235718397584, -15610.100699675168, -39320.384182975795, -187500.02235174447, -47265.37880484806, 10956.668669780334, -11822.172918578735, -54307.20648851473, -52435.717277016316, -42950.12866856202, -39287.23654594857, -31966.637905435313, -42782.51293689167, -0.004, 0.964, 0.31, 192.0, 0.0, 0.0, 0.0, 0.0, 0.0, 0.0, 0.0, 0.0, 0.0, 1.695675188647051E9, 0.0, 2023-09-25 15:53:08.647
248.0, -187500.02235174447, 3681.2876083001624, -16656.67643030601, -37199.762427778536, -15615.889801489093, -39330.107191813855, -187500.02235174447, -47280.041549210735, 10938.11672188243, -11840.546052520998, -54320.70694216573, -52450.62589056801, -42962.4891832458, -39305.564976401925, -31974.32690552794, -42780.50127989069, -0.004, 0.964, 0.31, 192.0, 0.0, 0.0, 15.0, 24.0, 4.5, 80.0, 0.0, 0.0, 0.0, 1.695675188647054E9, 0.0, 2023-09-25 15:53:08.647
250.0, -187500.02235174447, 3702.3429515770617, -16640.806691742742, -37180.13759614678, -15596.71200474644, -39317.29964224096, -187500.02235174447, -47259.72381350086, 10981.769678803645, -11818.104901087869, -54298.869287832895, -52430.1740443914, -42946.507685960256, -39280.86629877881, -31959.28418150952, -42779.31663743456, -0.004, 0.964, 0.31, 192.0, 0.0, 0.0, 0.0, 0.0, 0.0, 0.0, 0.0, 0.0, 0.0, 1.695675188647057E9, 0.0, 2023-09-25 15:53:08.647
252.0, -187500.02235174447, 3689.7142159598134, -16658.710439051443, -37198.33191613339, -15622.37180738113, -39322.552302187956, -187500.02235174447, -47289.138709204046, 10924.325695553505, -11818.127252832324, -54301.93147682327, -52432.69979151485, -42950.10631681756, -39283.01206624652, -31964.447434478694, -42803.92590807985, -0.004, 0.964, 0.31, 192.0, 0.0, 0.0, 0.0, 0.0, 0.0, 0.0, 0.0, 0.0, 0.0, 1.695675188647061E9, 0.0, 2023-09-25 15:53:08.647
254.0, -187500.02235174447, 3696.0621113851207, -16656.095284950174, -37192.07342768591, -15619.600191068674, -39325.63684292279, -187500.02235174447, -47276.487621842345, 10983.714280571257, -11817.143776076291, -54307.966447826206, -52441.77459976371, -42958.62233145504, -39283.10147322434, -31979.42310326375, -42788.860832316976, -0.004, 0.964, 0.31, 192.0, 0.0, 0.0, 0.0, 0.0, 0.0, 0.0, 0.0, 0.0, 0.0, 1.695675188647064E9, 0.0, 2023-09-25 15:53:08.647
0.0, -187500.02235174447, 3690.831803182579, -16656.609375072643, -37198.19780566666, -15618.169679423534, -39324.1839795332, -187500.02235174447, -47292.3126569167, 10914.982666371186, -11822.284677301011, -54307.87704084838, -52441.57343406361, -42959.04701459969, -39283.190880202164, -31972.13643457132, -42820.19797804332, -0.004, 0.964, 0.31, 192.0, 0.0, 0.0, 0.0, 0.0, 0.0, 0.0, 0.0, 0.0, 0.0, 1.695675188706313E9, 0.0, 2023-09-25 15:53:08.706
2.0, -187500.02235174447, 3683.947465890344, -16661.415000130535, -37204.05396271395, -15618.169679423534, -39326.15093304526, -187500.02235174447, -47280.26506665529, 10987.044690495097, -11826.129177347324, -54311.02863681658, -52443.31687013112, -42958.4882209883, -39289.06938899391, -31974.61747820586, -42790.38075093994, -0.006, 0.964, 0.298, 192.0, 127.5, 104.0, 15.0, 16.0, 4.5, 40.0, 0.0, 0.0, 0.0, 1.695675188706324E9, 0.0, 2023-09-25 15:53:08.706
4.0, -187500.02235174447, 3689.49069851526, -16657.01170647284, -37199.65066905626, -15619.846060257682, -39333.12467731532, -187500.02235174447, -47290.949200504925, 10928.594878744469, -11822.642305212297, -54309.59812517144, -52442.981593964294, -42962.936218134906, -39288.01885700451, -31970.549460714992, -42818.14161755343, -0.006, 0.964, 0.298, 192.0, 0.0, 0.0, 0.0, 0.0, 0.0, 0.0, 0.0, 0.0, 0.0, 1.695675188706328E9, 0.0, 2023-09-25 15:53:08.706
6.0, -187500.02235174447, 3681.019387366699, -16665.840645532688, -37204.97038423662, -15637.258069188365, -39328.8331423799, -187500.02235174447, -47300.82867155417, 10980.115649713953, -11824.072816857437, -54312.81677637301, -52443.830960253596, -42961.617465212046, -39290.65636285023, -31983.826396921446, -42803.47887319075, -0.006, 0.964, 0.298, 192.0, 0.0, 0.0, 0.0, 0.0, 0.0, 0.0, 0.0, 0.0, 0.0, 1.695675188706331E9, 0.0, 2023-09-25 15:53:08.706
8.0, -187500.02235174447, 3671.4528407398275, -16659.336287896193, -37200.880015001305, -15625.881031260615, -39326.91089235674, -187500.02235174447, -47298.83936629765, 10923.878660664399, -11825.81625292495, -54317.689456664266, -52453.553969091656, -42972.45806127287, -39290.43284540568, -31989.347277801906, -42826.90350137991, -0.006, 0.964, 0.298, 192.0, 0.0, 0.0, 0.0, 0.0, 0.0, 0.0, 0.0, 0.0, 0.0, 1.695675188706334E9, 0.0, 2023-09-25 15:53:08.706
10.0, -187500.02235174447, 3675.3196925305956, -16652.47430234841, -37189.7264945181, -15619.600191068674, -39320.33947948688, -187500.02235174447, -47274.520668330275, 10974.438306622304, -11828.274944815033, -54318.11413980892, -52451.67642255741, -42969.239410071306, -39288.55529887143, -31973.030504349532, -42800.66255338938, -0.006, 0.964, 0.298, 192.0, 0.0, 0.0, 0.0, 0.0, 0.0, 0.0, 0.0, 0.0, 0.0, 1.695675188706337E9, 0.0, 2023-09-25 15:53:08.706
12.0, -187500.02235174447, 3675.1632303194083, -16645.880537734098, -37186.79841599446, -15603.70810076095, -39313.07516253891, -187500.02235174447, -47257.28747335523, 10910.86994539141, -11816.428520253721, -54309.709883893716, -52443.0262974532, -42960.343415778094, -39273.78079578648, -31957.339579741907, -42825.42828624586, -0.002, 0.964, 0.298, 192.0, 127.5, 120.0, 15.0, 16.0, 4.5, 40.0, 0.0, 0.0, 0.0, 1.69567518870634E9, 0.0, 2023-09-25 15:53:08.706
14.0, -187500.02235174447, 3646.016555549688, -16647.825139501707, -37188.40774159524, -15611.575914809218, -39306.7272671136, -187500.02235174447, -47259.03090942275, 10946.006887675154, -11820.451834255677, -54319.58935494297, -52445.28382364319, -42959.82932565562, -39273.35611264183, -31956.020826819044, -42804.104722035496, -0.002, 0.964, 0.298, 192.0, 0.0, 0.0, 0.0, 0.0, 0.0, 0.0, 0.0, 0.0, 0.0, 1.695675188766534E9, 0.0, 2023-09-25 15:53:08.766
16.0, -187500.02235174447, 3621.6755058378585, -16648.227470901904, -37191.06759918542, -15606.882048473604, -39305.140293257275, -187500.02235174447, -47242.33415631463, 10887.937055580265, -11820.541241233497, -54321.75747415513, -52452.52578884671, -42965.68548270291, -39259.699196779635, -31955.14910878529, -42827.77521941367, -0.002, 0.964, 0.298, 192.0, 0.0, 0.0, 0.0, 0.0, 0.0, 0.0, 0.0, 0.0, 0.0, 1.695675188766546E9, 0.0, 2023-09-25 15:53:08.766
18.0, -187500.02235174447, 3563.9409499098006, -16680.078706750715, -37225.42223041323, -15632.027760985824, -39322.30643299895, -187500.02235174447, -47279.773328277275, 10913.149823325852, -11860.550863808498, -54346.92553841181, -52478.02912927022, -42969.88761066051, -39283.52615636899, -31965.98970484611, -42806.272841247664, -0.002, 0.964, 0.298, 192.0, 0.0, 0.0, 0.0, 0.0, 0.0, 0.0, 0.0, 0.0, 0.0, 1.69567518876655E9, 0.0, 2023-09-25 15:53:08.766
20.0, -187500.02235174447, 3535.17425479582, -16685.286663208804, -37232.86536131684, -15639.739112822905, -39334.82340989392, -187500.02235174447, -47292.33500866115, 10886.864171846411, -11887.775288555062, -54372.540637557584, -52506.70641740637, -42994.45217781689, -39298.41241817622, -31991.783617947534, -42822.05317283311, -0.002, 0.964, 0.298, 192.0, 0.0, 0.0, 0.0, 0.0, 0.0, 0.0, 0.0, 0.0, 0.0, 1.695675188766553E9, 0.0, 2023-09-25 15:53:08.766
22.0, -187500.02235174447, 3506.2958009595636, -16702.989244817407, -37248.64569290229, -15652.032572273323, -39334.39872674927, -187500.02235174447, -47299.97930526487, 10897.861230118422, -11898.97351252717, -54386.465774353244, -52518.66460068996, -42996.03915167322, -39309.141255514776, -31996.321022071963, -42818.54394895362, -0.004, 0.964, 0.302, 192.0, 127.5, 112.0, 15.0, 16.0, 4.5, 56.0, 0.0, 0.0, 0.0, 1.695675188766556E9, 0.0, 2023-09-25 15:53:08.766
24.0, -187500.02235174447, 3506.2958009595636, -16689.44408767749, -37239.72734686462, -15634.262935431354, -39342.42300300873, -187500.02235174447, -47292.35736040561, 10895.53664869507, -11898.660588104796, -54395.78645179111, -52524.45370250389, -43010.836006502635, -39306.21317699113, -31999.80789420699, -42819.86270187649, -0.004, 0.964, 0.302, 192.0, 0.0, 0.0, 0.0, 0.0, 0.0, 0.0, 0.0, 0.0, 0.0, 1.695675188766559E9, 0.0, 2023-09-25 15:53:08.766
26.0, -187500.02235174447, 3497.8244898110024, -16702.810430861766, -37252.62430341534, -15649.059790260768, -39339.74079367409, -187500.02235174447, -47300.739264576354, 10875.82241008549, -11901.856887561904, -54389.885591254904, -52521.74914142479, -42991.72526499334, -39306.79432234697, -31988.00617313459, -42831.217388059784, -0.004, 0.964, 0.302, 192.0, 0.0, 0.0, 0.0, 0.0, 0.0, 0.0, 0.0, 0.0, 0.0, 1.695675188766563E9, 0.0, 2023-09-25 15:53:08.766
28.0, -187500.02235174447, 3499.7914433230694, -16695.412003447058, -37246.29875973448, -15637.57099361074, -39342.0877268419, -187500.02235174447, -47294.8160522957, 10878.281101975574, -11897.543000882031, -54389.751480788174, -52525.97362112685, -43000.688314519924, -39300.20055773265, -31991.001306891598, -42837.34176604054, -0.004, 0.964, 0.302, 192.0, 0.0, 0.0, 0.0, 0.0, 0.0, 0.0, 0.0, 0.0, 0.0, 1.695675188766566E9, 0.0, 2023-09-25 15:53:08.766
30.0, -187500.02235174447, 3498.830318311491, -16695.121430769137, -37250.634998158814, -15638.442711644497, -39340.00901460755, -187500.02235174447, -47298.45938664191, 10863.461895401704, -11908.003617287115, -54393.77479479013, -52529.9969351288, -42997.044980173705, -39312.426961949706, -31991.26952782506, -42840.85098992002, -0.004, 0.964, 0.302, 192.0, 0.0, 0.0, 0.0, 0.0, 0.0, 0.0, 0.0, 0.0, 0.0, 1.695675188826932E9, 0.0, 2023-09-25 15:53:08.826
32.0, -187500.02235174447, 3503.993571280667, -16691.612206889655, -37246.43287020122, -15636.945144765992, -39344.21114256515, -187500.02235174447, -47296.35832266311, 10899.649369674848, -11901.543963139531, -54387.09162319799, -52524.83368215963, -43000.196576141905, -39309.36477295933, -31984.988687633122, -42825.18241705685, -0.006, 0.966, 0.296, 192.0, 127.5, 104.0, 15.0, 24.0, 4.5, 32.0, 0.0, 0.0, 0.0, 1.695675188826943E9, 0.0, 2023-09-25 15:53:08.826
34.0, -187500.02235174447, 3515.057684786044, -16689.354680699667, -37244.80119285598, -15635.581688354217, -39337.997357606575, -187500.02235174447, -47312.16100599301, 10870.68150886077, -11887.462364132687, -54382.01777720664, -52516.20590879988, -42997.8496429741, -39303.195691489665, -31980.764207931068, -42837.56528348509, -0.006, 0.966, 0.296, 192.0, 0.0, 0.0, 0.0, 0.0, 0.0, 0.0, 0.0, 0.0, 0.0, 1.695675188826946E9, 0.0, 2023-09-25 15:53:08.826
36.0, -187500.02235174447, 3536.761228652147, -16675.474247392922, -37232.2395124721, -15630.798415040783, -39333.83993313789, -187500.02235174447, -47279.08042419916, 10911.16051806933, -11890.144573467323, -54379.31321612754, -52514.373065754546, -42994.63099177254, -39305.92260431321, -31984.228728321643, -42827.57405371357, -0.006, 0.966, 0.296, 192.0, 0.0, 0.0, 0.0, 0.0, 0.0, 0.0, 0.0, 0.0, 0.0, 1.69567518882695E9, 0.0, 2023-09-25 15:53:08.826
38.0, -187500.02235174447, 3536.448304229773, -16686.180732987017, -37248.60098941338, -15646.824615815238, -39326.195636534176, -187500.02235174447, -47284.377787635065, 10858.298642432528, -11879.773364040062, -54369.4337450783, -52504.44889121639, -42983.25395384478, -39298.09949375385, -31976.8973561403, -42849.8140394466, -0.006, 0.966, 0.296, 192.0, 0.0, 0.0, 0.0, 0.0, 0.0, 0.0, 0.0, 0.0, 0.0, 1.695675188826953E9, 0.0, 2023-09-25 15:53:08.826
40.0, -187500.02235174447, 3552.1615805818537, -16672.166189213538, -37238.408593941764, -15627.311542905754, -39327.872017368325, -187500.02235174447, -47273.51483982979, 10927.343181054972, -11871.190294169224, -54369.36668984493, -52505.99116158381, -42990.38416032602, -39296.959554786634, -31971.51058572657, -42821.583786199546, -0.006, 0.966, 0.296, 192.0, 0.0, 0.0, 0.0, 0.0, 0.0, 0.0, 0.0, 0.0, 0.0, 1.695675188826956E9, 0.0, 2023-09-25 15:53:08.826
42.0, -187500.02235174447, 3562.9351214093117, -16667.53937811129, -37238.72151836414, -15626.66334231655, -39330.82244763642, -187500.02235174447, -47285.428319624465, 10862.791343068046, -11872.82197151446, -54362.772925230616, -52499.35269348058, -42982.94102942241, -39299.53000539899, -31967.621382191348, -42853.68089123737, -0.016, 0.968, 0.28800000000000003, 192.0, 127.5, 64.0, 15.0, 32.0, 4.5, 0.0, 0.0, 0.0, 0.0, 1.69567518882696E9, 0.0, 2023-09-25 15:53:08.826
44.0, -187500.02235174447, 3566.9137319223564, -16672.38970665809, -37239.950864309176, -15630.686656318505, -39335.9857006056, -187500.02235174447, -47297.54296511924, 10908.411253501326, -11865.848227244405, -54355.75447747165, -52489.115594520044, -42977.39779679749, -39292.690371595665, -31966.23557403512, -42844.9637108998, -0.016, 0.968, 0.28800000000000003, 192.0, 0.0, 0.0, 0.0, 0.0, 0.0, 0.0, 0.0, 0.0, 0.0, 1.695675188887098E9, 0.0, 2023-09-25 15:53:08.887
46.0, -187500.02235174447, 3571.8534674469793, -16681.01748001784, -37246.92460857923, -15638.398008155586, -39337.371508761826, -187500.02235174447, -47309.970535036395, 10862.321956434484, -11870.16211392428, -54363.42112581982, -52497.452795201876, -42989.87007020356, -39303.598022889855, -31977.99259161861, -42860.07349015158, -0.016, 0.968, 0.28800000000000003, 192.0, 0.0, 0.0, 0.0, 0.0, 0.0, 0.0, 0.0, 0.0, 0.0, 1.69567518888711E9, 0.0, 2023-09-25 15:53:08.887
48.0, -187500.02235174447, 3592.171203156853, -16670.7356775684, -37236.08401251841, -15632.251278430376, -39331.850627881366, -187500.02235174447, -47293.51965111728, 10928.058436877542, -11860.170884152758, -54358.19081761728, -52491.931914321416, -42985.869107946055, -39296.87014780881, -31970.50475722608, -42839.21931257479, -0.016, 0.968, 0.28800000000000003, 192.0, 0.0, 0.0, 0.0, 0.0, 0.0, 0.0, 0.0, 0.0, 0.0, 1.695675188887114E9, 0.0, 2023-09-25 15:53:08.887
50.0, -187500.02235174447, 3601.8048050170905, -16670.422753146024, -37240.4873061761, -15642.71189483546, -39332.52118021502, -187500.02235174447, -47312.45157867093, 10868.781610582068, -11849.844378214406, -54355.5309600271, -52488.646207886486, -42984.148023623, -39291.68454309518, -31976.360914273373, -42861.1687256299, -0.016, 0.968, 0.28800000000000003, 192.0, 0.0, 0.0, 0.0, 0.0, 0.0, 0.0, 0.0, 0.0, 0.0, 1.695675188887117E9, 0.0, 2023-09-25 15:53:08.887
52.0, -187500.02235174447, 3606.051636463599, -16667.025287988818, -37236.240474729595, -15643.04717100229, -39332.69999417067, -187500.02235174447, -47292.44676738343, 10934.294573580573, -11842.311840332966, -54349.80891344654, -52478.789088581696, -42978.4930322758, -39290.812825061425, -31980.42893176424, -42834.234873561254, -0.016, 0.978, 0.28800000000000003, 192.0, 127.5, 64.0, 15.0, 72.0, 4.5, 0.0, 0.0, 0.0, 0.0, 1.695675188887121E9, 0.0, 2023-09-25 15:53:08.887
54.0, -187500.02235174447, 3611.0360754771327, -16662.309069908748, -37234.34057645089, -15637.682752333016, -39336.29862502797, -187500.02235174447, -47305.701351845426, 10878.974006053688, -11841.328363576933, -54343.43866627678, -52469.15548672146, -42974.08973861811, -39286.81186280392, -31979.154882330287, -42856.09487963854, -0.016, 0.978, 0.28800000000000003, 192.0, 0.0, 0.0, 0.0, 0.0, 0.0, 0.0, 0.0, 0.0, 0.0, 1.695675188887124E9, 0.0, 2023-09-25 15:53:08.887
56.0, -187500.02235174447, 3619.596793603515, -16652.809578515244, -37223.99171876809, -15625.009313226858, -39328.05083132396, -187500.02235174447, -47313.03272402677, 10925.219765331718, -11834.980468151625, -54334.94500338376, -52453.41985862492, -42956.65537794297, -39279.10051096684, -31974.684533439224, -42844.091992866044, -0.016, 0.978, 0.28800000000000003, 192.0, 0.0, 0.0, 0.0, 0.0, 0.0, 0.0, 0.0, 0.0, 0.0, 1.695675188887127E9, 0.0, 2023-09-25 15:53:08.887
58.0, -187500.02235174447, 3614.4782441232496, -16664.611299587643, -37232.686547361205, -15634.195880197989, -39325.92741560071, -187500.02235174447, -47285.22715392437, 10875.375375196383, -11838.601450753386, -54333.2239190607, -52446.08848644358, -42954.889590130995, -39274.36194114231, -31972.56111771597, -42854.217333104294, -0.016, 0.978, 0.28800000000000003, 192.0, 0.0, 0.0, 0.0, 0.0, 0.0, 0.0, 0.0, 0.0, 0.0, 1.69567518888713E9, 0.0, 2023-09-25 15:53:08.887
60.0, -187500.02235174447, 3634.1030757550093, -16657.972831484418, -37215.92273901973, -15623.981132981913, -39317.54551142997, -187500.02235174447, -47259.008557678295, 10941.603594017459, -11837.886194930816, -54332.776884171595, -52435.06907642711, -42947.98290109431, -39270.24922016254, -31969.610687447872, -42814.96766984078, -0.016, 0.978, 0.28800000000000003, 192.0, 0.0, 0.0, 0.0, 0.0, 0.0, 0.0, 0.0, 0.0, 0.0, 1.695675188945997E9, 0.0, 2023-09-25 15:53:08.945
62.0, -187500.02235174447, 3640.316860713585, -16655.62589831661, -37211.631204084304, -15612.201763653966, -39319.601871919855, -187500.02235174447, -47269.46917408337, 10892.58621842697, -11838.802616453484, -54326.02665734609, -52425.3237158446, -42946.19476153788, -39259.9674177131, -31960.379416987827, -42833.00552761621, -0.014, 0.986, 0.28600000000000003, 192.0, 127.5, 72.0, 15.0, 104.0, 4.0, 120.0, 0.0, 0.0, 0.0, 1.695675188946008E9, 0.0, 2023-09-25 15:53:08.946
64.0, -187500.02235174447, 3632.627860620959, -16676.234206704405, -37226.60687286936, -15634.106473220167, -39325.52508420051, -187500.02235174447, -47299.35345642012, 10934.205166602751, -11843.027096155536, -54327.07718933549, -52425.21195712232, -42934.415392209936, -39263.07431019239, -31970.303591525986, -42811.74901863921, -0.014, 0.986, 0.28600000000000003, 192.0, 0.0, 0.0, 0.0, 0.0, 0.0, 0.0, 0.0, 0.0, 0.0, 1.695675188946012E9, 0.0, 2023-09-25 15:53:08.946
66.0, -187500.02235174447, 3637.366430445484, -16673.4849421364, -37220.01310825504, -15632.743016808394, -39333.951691860166, -187500.02235174447, -47301.365113421096, 10924.504509509148, -11850.872558459349, -54340.86821566441, -52443.6297945535, -42951.7379941628, -39275.27836266498, -31994.62228949336, -42816.197015785816, -0.014, 0.986, 0.28600000000000003, 192.0, 0.0, 0.0, 0.0, 0.0, 0.0, 0.0, 0.0, 0.0, 0.0, 1.695675188946015E9, 0.0, 2023-09-25 15:53:08.946
68.0, -187500.02235174447, 3648.4528956953163, -16672.568520613735, -37216.883864031304, -15636.363999410154, -39323.26755801053, -187500.02235174447, -47306.97540127938, 10944.241099863184, -11837.126235619335, -54328.32888702499, -52430.64343102496, -42933.78954336519, -39264.97420847109, -31987.402676034293, -42816.197015785816, -0.014, 0.986, 0.28600000000000003, 192.0, 0.0, 0.0, 0.0, 0.0, 0.0, 0.0, 0.0, 0.0, 0.0, 1.695675188946018E9, 0.0, 2023-09-25 15:53:08.946
70.0, -187500.02235174447, 3656.655985910414, -16666.175921699516, -37208.4349046272, -15630.507842362864, -39335.7845349055, -187500.02235174447, -47306.70718034592, 10944.509320796647, -11836.500386774587, -54329.357067269935, -52437.41600959492, -42943.26668301424, -39270.182164929174, -32002.020716908064, -42818.20867278679, -0.014, 0.986, 0.28600000000000003, 192.0, 0.0, 0.0, 0.0, 0.0, 0.0, 0.0, 0.0, 0.0, 0.0, 1.695675188946022E9, 0.0, 2023-09-25 15:53:08.946
72.0, -187500.02235174447, 3654.666680653892, -16670.10982872365, -37215.833332041904, -15631.848947030181, -39327.581444690404, -187500.02235174447, -47308.294154202245, 10969.185646675307, -11837.81913969745, -54328.97708761419, -52434.666745026916, -42936.24823525527, -39277.26766792151, -31999.114990128877, -42801.735437123236, -0.006, 0.99, 0.28200000000000003, 192.0, 127.5, 104.0, 15.0, 120.0, 4.0, 104.0, 0.0, 0.0, 0.0, 1.695675188946025E9, 0.0, 2023-09-25 15:53:08.946
74.0, -187500.02235174447, 3681.82405016709, -16640.516119064825, -37185.85964272734, -15602.344644349176, -39315.980889318096, -187500.02235174447, -47271.92786597346, 10979.758021802667, -11823.491671501599, -54317.33182875298, -52423.91555594392, -42936.47175269983, -39261.174411913686, -31990.08488536893, -42796.86275683198, -0.006, 0.99, 0.28200000000000003, 192.0, 0.0, 0.0, 0.0, 0.0, 0.0, 0.0, 0.0, 0.0, 0.0, 1.695675189006403E9, 0.0, 2023-09-25 15:53:09.006
76.0, -187500.02235174447, 3665.887256370456, -16659.313936151735, -37207.54083484898, -15621.90242074757, -39304.44738917916, -187500.02235174447, -47294.369017406585, 10940.530710283603, -11808.024264338526, -54300.14333726685, -52405.587125490565, -42912.75655183275, -39248.43391757416, -31970.50475722608, -42812.93366109535, -0.006, 0.99, 0.28200000000000003, 192.0, 0.0, 0.0, 0.0, 0.0, 0.0, 0.0, 0.0, 0.0, 0.0, 1.695675189006416E9, 0.0, 2023-09-25 15:53:09.006
78.0, -187500.02235174447, 3667.2283610377744, -16657.86107276214, -37202.93637549119, -15620.315446891243, -39319.22189226412, -187500.02235174447, -47283.23784866784, 10990.8444870525, -11828.051427370481, -54325.579622456986, -52431.4257420809, -42942.90905510295, -39270.09275795135, -31996.47748428315, -42773.3934251539, -0.006, 0.99, 0.28200000000000003, 192.0, 0.0, 0.0, 0.0, 0.0, 0.0, 0.0, 0.0, 0.0, 0.0, 1.695675189006419E9, 0.0, 2023-09-25 15:53:09.006
80.0, -187500.02235174447, 3668.435355238361, -16661.459703619446, -37204.299831902965, -15622.99765622588, -39311.555243915944, -187500.02235174447, -47291.39623539403, 10971.286710654105, -11822.999933123581, -54322.159805555326, -52428.38590483498, -42932.22492125332, -39265.354188126825, -31991.224824336154, -42777.84142230051, -0.006, 0.99, 0.28200000000000003, 192.0, 0.0, 0.0, 0.0, 0.0, 0.0, 0.0, 0.0, 0.0, 0.0, 1.695675189006423E9, 0.0, 2023-09-25 15:53:09.006
82.0, -187500.02235174447, 3678.113660587509, -16659.44804661847, -37198.66719230023, -15618.884935246104, -39316.65144165176, -187500.02235174447, -47282.25437191181, 11008.301199472095, -11816.786148165005, -54324.12675906739, -52428.0729804126, -42939.511589945745, -39260.8167840024, -31997.1033331279, -42766.50908786167, -0.006, 0.986, 0.276, 192.0, 127.5, 104.0, 15.0, 104.0, 4.0, 80.0, 0.0, 0.0, 0.0, 1.695675189006426E9, 0.0, 2023-09-25 15:53:09.006
84.0, -187500.02235174447, 3681.309960044618, -16651.20025291446, -37191.60404105235, -15602.523458304819, -39309.56593865943, -187500.02235174447, -47264.44003158093, 10959.194416903785, -11806.996084093582, -54316.3707037414, -52418.305268085634, -42931.39790670847, -39252.4125280872, -31984.161673088274, -42794.22525098625, -0.006, 0.986, 0.276, 192.0, 0.0, 0.0, 0.0, 0.0, 0.0, 0.0, 0.0, 0.0, 0.0, 1.695675189006429E9, 0.0, 2023-09-25 15:53:09.006
86.0, -187500.02235174447, 3690.854154927034, -16644.338267366682, -37177.90242170125, -15589.313577331732, -39314.68448813969, -187500.02235174447, -47263.94829320291, 11000.723958101746, -11804.112709058847, -54312.45914846172, -52414.125491872495, -42929.85563634105, -39249.61856003029, -31979.75837943058, -42785.82099507106, -0.006, 0.986, 0.276, 192.0, 0.0, 0.0, 0.0, 0.0, 0.0, 0.0, 0.0, 0.0, 0.0, 1.695675189006433E9, 0.0, 2023-09-25 15:53:09.006
88.0, -187500.02235174447, 3687.9037246589337, -16656.6317268171, -37190.59821255186, -15605.160964150546, -39309.85651133734, -187500.02235174447, -47271.43612759544, 10932.97582065771, -11797.608351422352, -54304.79250011355, -52409.34221855905, -42922.83718858209, -39247.048109417934, -31973.164614816265, -42818.163969297886, -0.006, 0.986, 0.276, 192.0, 0.0, 0.0, 0.0, 0.0, 0.0, 0.0, 0.0, 0.0, 0.0, 1.695675189006436E9, 0.0, 2023-09-25 15:53:09.006
90.0, -187500.02235174447, 3684.9979978797437, -16662.174959442014, -37189.0782939289, -15612.894667732082, -39323.20050277716, -187500.02235174447, -47283.30490390121, 11008.61412389447, -11808.985389350104, -54316.59422118595, -52423.17794837689, -42936.53880793319, -39258.805127001426, -31989.749609202103, -42779.11547173446, -0.006, 0.986, 0.276, 192.0, 0.0, 0.0, 0.0, 0.0, 0.0, 0.0, 0.0, 0.0, 0.0, 1.695675189068079E9, 0.0, 2023-09-25 15:53:09.068
92.0, -187500.02235174447, 3674.0456430966433, -16669.662793834545, -37198.08604694439, -15624.741092293394, -39325.05569756695, -187500.02235174447, -47294.77134880678, 10955.439323835293, -11812.71813067414, -54321.15397705483, -52427.20126237885, -42941.16561903544, -39264.48247009307, -31994.443475537715, -42804.93173658034, -0.004, 0.986, 0.276, 192.0, 127.5, 112.0, 15.0, 104.0, 4.0, 80.0, 0.0, 0.0, 0.0, 1.695675189068094E9, 0.0, 2023-09-25 15:53:09.068
94.0, -187500.02235174447, 3672.01163435121, -16674.848398548176, -37200.16475917873, -15633.681790075516, -39332.29766277047, -187500.02235174447, -47306.77423557929, 11031.167034049873, -11815.065063841947, -54328.932384125284, -52431.96218394783, -42949.16754355044, -39267.54465908345, -32007.742763488623, -42782.42352991385, -0.004, 0.986, 0.276, 192.0, 0.0, 0.0, 0.0, 0.0, 0.0, 0.0, 0.0, 0.0, 0.0, 1.695675189068097E9, 0.0, 2023-09-25 15:53:09.068
96.0, -187500.02235174447, 3683.366320534506, -16664.34307865418, -37192.49811083056, -15623.265877159343, -39335.85159013887, -187500.02235174447, -47295.37484590708, 10973.879513010921, -11813.947476619182, -54323.478558478186, -52430.73283800278, -42947.9381976054, -39266.15885092722, -32005.48523729864, -42818.47689372026, -0.004, 0.986, 0.276, 192.0, 0.0, 0.0, 0.0, 0.0, 0.0, 0.0, 0.0, 0.0, 0.0, 1.695675189068101E9, 0.0, 2023-09-25 15:53:09.068
98.0, -187500.02235174447, 3683.1875065788636, -16668.746372311874, -37197.84017775538, -15624.830499271215, -39328.60962493534, -187500.02235174447, -47297.78883430825, 11039.571289965068, -11808.851278883372, -54321.98099159968, -52428.028276923695, -42942.104392302565, -39267.43290036117, -32000.701963985204, -42797.1533295099, -0.004, 0.986, 0.276, 192.0, 0.0, 0.0, 0.0, 0.0, 0.0, 0.0, 0.0, 0.0, 0.0, 1.695675189068104E9, 0.0, 2023-09-25 15:53:09.068
100.0, -187500.02235174447, 3693.983399150777, -16661.01266873034, -37189.43592184018, -15616.716816033939, -39327.67085166823, -187500.02235174447, -47296.827709296675, 10987.804649806578, -11809.454775983666, -54319.99168634316, -52433.99619269326, -42947.44645922738, -39266.62823756078, -31998.422086050763, -42824.66832693438, -0.004, 0.986, 0.276, 192.0, 0.0, 0.0, 0.0, 0.0, 0.0, 0.0, 0.0, 0.0, 0.0, 1.695675189068116E9, 0.0, 2023-09-25 15:53:09.068
102.0, -187500.02235174447, 3684.8415356685564, -16662.57729084221, -37189.45827358464, -15620.158984680056, -39320.026555064505, -187500.02235174447, -47295.33014241817, 11042.655830699901, -11805.677331170718, -54312.146224039345, -52430.196396135856, -42941.322081246624, -39265.4659468491, -31994.17525460425, -42805.66934414737, -0.006, 0.988, 0.262, 192.0, 127.5, 104.0, 15.0, 112.0, 4.0, 24.0, 0.0, 0.0, 0.0, 1.695675189068119E9, 0.0, 2023-09-25 15:53:09.068
104.0, -187500.02235174447, 3689.5801054930816, -16648.450988346456, -37179.31058160193, -15614.101661932667, -39320.026555064505, -187500.02235174447, -47289.8092615377, 10999.315798201062, -11809.365369005844, -54315.007247329624, -52431.29163161417, -42951.91680811844, -39265.55535382692, -31997.840940694925, -42813.62656517346, -0.006, 0.988, 0.262, 192.0, 0.0, 0.0, 0.0, 0.0, 0.0, 0.0, 0.0, 0.0, 0.0, 1.695675189126805E9, 0.0, 2023-09-25 15:53:09.126
106.0, -187500.02235174447, 3690.0718438710983, -16649.657982547044, -37181.67986651419, -15615.934504978002, -39310.99645030456, -187500.02235174447, -47289.8092615377, 11044.309859789593, -11805.140889303791, -54305.88773559186, -52421.27805009819, -42937.634043411505, -39257.262856634006, -31985.32396379995, -42791.40893118488, -0.006, 0.988, 0.262, 192.0, 0.0, 0.0, 0.0, 0.0, 0.0, 0.0, 0.0, 0.0, 0.0, 1.695675189126817E9, 0.0, 2023-09-25 15:53:09.126
108.0, -187500.02235174447, 3690.7423962047574, -16646.551090067755, -37178.148290890254, -15611.754728764861, -39314.863302095335, -187500.02235174447, -47282.36613063409, 11006.401301193393, -11814.282752786012, -54313.8673083624, -52433.392695592964, -42954.30844477516, -39262.64962704774, -31995.114027871376, -42798.717951621766, -0.006, 0.988, 0.262, 192.0, 0.0, 0.0, 0.0, 0.0, 0.0, 0.0, 0.0, 0.0, 0.0, 1.69567518912682E9, 0.0, 2023-09-25 15:53:09.126
110.0, -187500.02235174447, 3683.6792449568807, -16655.76000878334, -37187.73718926158, -15622.081234703212, -39310.14708401526, -187500.02235174447, -47290.59157259364, 11038.61016495349, -11810.661770184252, -54305.55245942503, -52424.250832110745, -42940.696232401875, -39258.447499090136, -31981.457112009182, -42787.16209973837, -0.006, 0.988, 0.262, 192.0, 0.0, 0.0, 0.0, 0.0, 0.0, 0.0, 0.0, 0.0, 0.0, 1.695675189126824E9, 0.0, 2023-09-25 15:53:09.126
112.0, -187500.02235174447, 3693.2904950726625, -16644.4276743445, -37180.56227929143, -15613.475813087918, -39319.825389364414, -187500.02235174447, -47288.1105289591, 11018.359484476983, -11824.497500002088, -54320.192852043256, -52441.48402708579, -42963.27149430174, -39270.87506900729, -31996.09750462741, -42792.5488701521, -0.006, 0.984, 0.262, 192.0, 127.5, 104.0, 15.0, 96.0, 4.0, 24.0, 0.0, 0.0, 0.0, 1.695675189126827E9, 0.0, 2023-09-25 15:53:09.126
114.0, -187500.02235174447, 3686.629675224981, -16644.092398177672, -37182.46217757013, -15612.201763653966, -39310.14708401526, -187500.02235174447, -47281.40500562251, 11038.431350997847, -11821.032979611515, -54308.21231701521, -52429.637602524475, -42943.26668301424, -39266.136499182765, -31984.161673088274, -42785.575125882046, -0.006, 0.984, 0.262, 192.0, 0.0, 0.0, 0.0, 0.0, 0.0, 0.0, 0.0, 0.0, 0.0, 1.69567518912683E9, 0.0, 2023-09-25 15:53:09.126
116.0, -187500.02235174447, 3675.543209975149, -16653.77070352682, -37197.728419033105, -15615.152193922067, -39325.36862198933, -187500.02235174447, -47299.4652151424, 11021.309914745083, -11830.308953560467, -54316.50481420813, -52438.91357647343, -42956.90124713197, -39274.49605160905, -31988.52026325706, -42790.49250966222, -0.006, 0.984, 0.262, 192.0, 0.0, 0.0, 0.0, 0.0, 0.0, 0.0, 0.0, 0.0, 0.0, 1.695675189126833E9, 0.0, 2023-09-25 15:53:09.126
118.0, -187500.02235174447, 3686.272047313696, -16651.42377035901, -37193.36982886432, -15613.744034021383, -39318.66309865274, -187500.02235174447, -47283.684883556954, 11043.460493500292, -11831.068912871948, -54318.85174737594, -52441.036992196685, -42949.94985460638, -39278.74288305556, -31990.017830135566, -42782.20001246929, -0.006, 0.984, 0.262, 192.0, 0.0, 0.0, 0.0, 0.0, 0.0, 0.0, 0.0, 0.0, 0.0, 1.695675189126836E9, 0.0, 2023-09-25 15:53:09.126
120.0, -187500.02235174447, 3683.4110240234168, -16646.573441812212, -37185.23379388259, -15607.46319382944, -39320.250072509065, -187500.02235174447, -47273.53719157424, 11043.885176644942, -11823.066988356948, -54317.91297410882, -52440.70171602985, -42955.090755831094, -39271.61267657431, -31982.999382376598, -42781.82003281356, -0.006, 0.984, 0.262, 192.0, 0.0, 0.0, 0.0, 0.0, 0.0, 0.0, 0.0, 0.0, 0.0, 1.695675189187072E9, 0.0, 2023-09-25 15:53:09.187
122.0, -187500.02235174447, 3675.0067681082214, -16655.91647099453, -37190.93348871869, -15618.393196868086, -39313.745714872566, -187500.02235174447, -47289.339874904144, 11056.402153539915, -11831.694761716695, -54324.596145700954, -52440.58995730757, -42957.39298550999, -39281.089816223364, -31984.94398414421, -42767.17964019533, -0.006, 0.98, 0.264, 192.0, 127.5, 104.0, 15.0, 80.0, 4.0, 32.0, 0.0, 0.0, 0.0, 1.695675189187082E9, 0.0, 2023-09-25 15:53:09.187
124.0, -187500.02235174447, 3690.0718438710983, -16641.231374887393, -37175.354322833344, -15608.267856629833, -39306.36963920232, -187500.02235174447, -47275.571200319675, 11061.051316386618, -11818.350770276878, -54314.29199150706, -52432.61038453703, -42960.1869535669, -39265.44359510465, -31975.690361939713, -42772.991093753706, -0.006, 0.98, 0.264, 192.0, 0.0, 0.0, 0.0, 0.0, 0.0, 0.0, 0.0, 0.0, 0.0, 1.695675189187086E9, 0.0, 2023-09-25 15:53:09.187
126.0, -187500.02235174447, 3683.6121897235143, -16642.86305223263, -37174.19203212167, -15612.291170631788, -39300.22290947711, -187500.02235174447, -47281.717930044884, 11035.61503119648, -11814.439214997199, -54309.68753214926, -52429.81641648012, -42951.44742148488, -39264.6165805598, -31972.76228341607, -42781.864736302465, -0.006, 0.98, 0.264, 192.0, 0.0, 0.0, 0.0, 0.0, 0.0, 0.0, 0.0, 0.0, 0.0, 1.695675189187089E9, 0.0, 2023-09-25 15:53:09.187
128.0, -187500.02235174447, 3680.706462944325, -16640.896098720565, -37169.16288961922, -15606.859696729149, -39306.257880480036, -187500.02235174447, -47274.72183403037, 11055.530435506158, -11813.72395917463, -54310.02280831609, -52429.145864146456, -42954.10727907506, -39262.090833436356, -31973.097559582897, -42778.75784382318, -0.006, 0.98, 0.264, 192.0, 0.0, 0.0, 0.0, 0.0, 0.0, 0.0, 0.0, 0.0, 0.0, 1.695675189187092E9, 0.0, 2023-09-25 15:53:09.187
130.0, -187500.02235174447, 3681.600532722537, -16641.857223732142, -37173.812052465924, -15615.353359622164, -39305.81084559093, -187500.02235174447, -47298.302924430725, 11026.875499114454, -11817.613162709853, -54308.79346237105, -52428.69882925735, -42949.92750286192, -39267.85758350582, -31968.873079880846, -42788.27968696114, -0.006, 0.98, 0.264, 192.0, 0.0, 0.0, 0.0, 0.0, 0.0, 0.0, 0.0, 0.0, 0.0, 1.695675189187095E9, 0.0, 2023-09-25 15:53:09.187
132.0, -187500.02235174447, 3679.790041421657, -16640.53847080928, -37175.30961934443, -15611.754728764861, -39315.33268872889, -187500.02235174447, -47294.726645317874, 11071.556636280613, -11812.516964974042, -54307.050026303536, -52429.65995426893, -42952.45324998537, -39263.63310380377, -31966.9955333466, -42769.61598034096, -0.006, 0.976, 0.264, 192.0, 127.5, 104.0, 15.0, 64.0, 4.0, 32.0, 0.0, 0.0, 0.0, 1.695675189187099E9, 0.0, 2023-09-25 15:53:09.187
134.0, -187500.02235174447, 3668.368300004995, -16656.117636694627, -37193.74980852006, -15625.65751381606, -39325.30156675596, -187500.02235174447, -47289.40693013751, 11036.151473063406, -11831.404189038776, -54320.975163099196, -52444.322698631615, -42961.59511346759, -39284.53198486948, -31975.802120661992, -42780.613038612966, -0.006, 0.976, 0.264, 192.0, 0.0, 0.0, 0.0, 0.0, 0.0, 0.0, 0.0, 0.0, 0.0, 1.695675189246461E9, 0.0, 2023-09-25 15:53:09.246
136.0, -187500.02235174447, 3676.481983242272, -16647.422808101514, -37183.110378159334, -15613.542868321285, -39324.40749697775, -187500.02235174447, -47271.100851428615, 11104.01136922972, -11828.945497148694, -54318.62822993138, -52442.288689886176, -42963.293846046196, -39279.7710633005, -31973.365780516364, -42755.243808656196, -0.006, 0.976, 0.264, 192.0, 0.0, 0.0, 0.0, 0.0, 0.0, 0.0, 0.0, 0.0, 0.0, 1.695675189246474E9, 0.0, 2023-09-25 15:53:09.246
138.0, -187500.02235174447, 3690.787099693668, -16632.33538059418, -37170.74986347555, -15602.098775160168, -39308.76127585903, -187500.02235174447, -47261.26608386828, 11047.550862735614, -11816.741444676096, -54304.524279180085, -52428.095332157056, -42951.71564241834, -39265.8682782493, -31959.574754187437, -42784.54694563711, -0.006, 0.976, 0.264, 192.0, 0.0, 0.0, 0.0, 0.0, 0.0, 0.0, 0.0, 0.0, 0.0, 1.695675189246478E9, 0.0, 2023-09-25 15:53:09.246
140.0, -187500.02235174447, 3687.0990618585424, -16634.86112771763, -37170.25812509753, -15603.328121105209, -39308.425999692205, -187500.02235174447, -47263.545961802716, 11099.071633705096, -11813.031055096515, -54304.83720360246, -52425.167253633415, -42951.7379941628, -39263.00725495902, -31962.480480966628, -42766.75495705068, -0.006, 0.976, 0.264, 192.0, 0.0, 0.0, 0.0, 0.0, 0.0, 0.0, 0.0, 0.0, 0.0, 1.695675189246481E9, 0.0, 2023-09-25 15:53:09.246
142.0, -187500.02235174447, 3674.5820849635707, -16643.801825499755, -37183.31154385943, -15609.296036874777, -39312.87399683881, -187500.02235174447, -47274.29715088572, 11034.162167806884, -11819.758930177562, -54305.10542453593, -52427.693000756866, -42955.15781106446, -39266.62823756078, -31957.38428323082, -42789.03964627262, -0.006, 0.98, 0.274, 192.0, 127.5, 104.0, 15.0, 80.0, 4.0, 72.0, 0.0, 0.0, 0.0, 1.695675189246484E9, 0.0, 2023-09-25 15:53:09.246
144.0, -187500.02235174447, 3683.925114145889, -16639.599697542155, -37178.79649147946, -15605.965626950936, -39316.78555211849, -187500.02235174447, -47277.98518872085, 11094.087194691563, -11825.413921524754, -54308.48053794868, -52430.64343102496, -42955.89541863149, -39273.132595197276, -31963.55336470048, -42761.815221526056, -0.006, 0.98, 0.274, 192.0, 0.0, 0.0, 0.0, 0.0, 0.0, 0.0, 0.0, 0.0, 0.0, 1.695675189246487E9, 0.0, 2023-09-25 15:53:09.246
146.0, -187500.02235174447, 3688.574276992593, -16632.313028849727, -37172.895630943254, -15598.433089069498, -39300.06644726592, -187500.02235174447, -47275.19122066393, 11012.838603596521, -11813.187517307702, -54299.80806110002, -52419.780483219685, -42948.56404645015, -39259.65449329073, -31958.83714662041, -42796.03574228713, -0.006, 0.98, 0.274, 192.0, 0.0, 0.0, 0.0, 0.0, 0.0, 0.0, 0.0, 0.0, 0.0, 1.695675189246491E9, 0.0, 2023-09-25 15:53:09.246
148.0, -187500.02235174447, 3679.8794483994784, -16640.851395231653, -37180.13759614678, -15605.004501939358, -39305.58732814638, -187500.02235174447, -47270.36324386159, 11063.241787343239, -11818.663694699251, -54301.64090414535, -52419.86989019751, -42944.1831045369, -39264.37071137079, -31955.439681463205, -42776.701483333294, -0.006, 0.98, 0.274, 192.0, 0.0, 0.0, 0.0, 0.0, 0.0, 0.0, 0.0, 0.0, 0.0, 1.695675189246494E9, 0.0, 2023-09-25 15:53:09.246
150.0, -187500.02235174447, 3682.4275472673835, -16644.67354353351, -37180.808148480435, -15609.698368274972, -39308.20248224765, -187500.02235174447, -47284.13191844606, 11010.066987284063, -11821.971752878637, -54307.98879957066, -52426.50835830073, -42955.98482560931, -39266.18120267167, -31955.774957630034, -42791.028951529144, -0.006, 0.98, 0.274, 192.0, 0.0, 0.0, 0.0, 0.0, 0.0, 0.0, 0.0, 0.0, 0.0, 1.69567518930631E9, 0.0, 2023-09-25 15:53:09.306
152.0, -187500.02235174447, 3667.362471504506, -16661.4820553639, -37194.59917480936, -15627.110377205656, -39316.38322071829, -187500.02235174447, -47304.82963381167, 11071.936615936353, -11831.91827916125, -54319.27643052059, -52431.13516940298, -42963.07032860164, -39274.56310684241, -31979.154882330287, -42768.7442623072, -0.004, 0.974, 0.28400000000000003, 192.0, 127.5, 112.0, 15.0, 56.0, 4.0, 112.0, 0.0, 0.0, 0.0, 1.695675189306321E9, 0.0, 2023-09-25 15:53:09.306
154.0, -187500.02235174447, 3658.0864975555537, -16660.945613496973, -37195.98498296559, -15621.56714458074, -39320.49594169807, -187500.02235174447, -47282.902572501014, 11038.118426575475, -11837.662677486263, -54325.35610501243, -52438.84652124006, -42974.44736652939, -39281.00040924554, -31980.272469553052, -42783.25054445869, -0.004, 0.974, 0.28400000000000003, 192.0, 0.0, 0.0, 0.0, 0.0, 0.0, 0.0, 0.0, 0.0, 0.0, 1.695675189306325E9, 0.0, 2023-09-25 15:53:09.306
156.0, -187500.02235174447, 3660.7687068901905, -16660.05154371876, -37198.89070974478, -15616.247429400377, -39318.95367133065, -187500.02235174447, -47281.87439225607, 11089.10275567803, -11839.651982742786, -54324.90907012333, -52435.82903573859, -42965.730186191824, -39280.598077845345, -31976.070341595456, -42769.303055918586, -0.004, 0.974, 0.28400000000000003, 192.0, 0.0, 0.0, 0.0, 0.0, 0.0, 0.0, 0.0, 0.0, 0.0, 1.695675189306328E9, 0.0, 2023-09-25 15:53:09.306
158.0, -187500.02235174447, 3661.1263348014754, -16650.663811047532, -37189.9276602182, -15608.17844965201, -39316.51733118502, -187500.02235174447, -47265.579970548155, 11050.166016836885, -11834.53343326252, -54322.22686078869, -52436.074904927606, -42973.59800024009, -39273.98196148658, -31967.531975213526, -42789.50903290618, -0.004, 0.974, 0.28400000000000003, 192.0, 0.0, 0.0, 0.0, 0.0, 0.0, 0.0, 0.0, 0.0, 0.0, 1.695675189306331E9, 0.0, 2023-09-25 15:53:09.306
160.0, -187500.02235174447, 3661.528666201671, -16664.72305830992, -37202.35523013535, -15622.260048658854, -39320.87592135381, -187500.02235174447, -47294.793700551236, 11083.850095731032, -11833.527604762032, -54321.735122410675, -52434.309117115634, -42964.5902472246, -39278.072330721894, -31970.236536292618, -42777.30498043358, -0.004, 0.974, 0.28400000000000003, 192.0, 0.0, 0.0, 0.0, 0.0, 0.0, 0.0, 0.0, 0.0, 0.0, 1.695675189306335E9, 0.0, 2023-09-25 15:53:09.306
162.0, -187500.02235174447, 3668.4130034939058, -16658.710439051443, -37197.75077077756, -15617.275609645321, -39317.657270152245, -187500.02235174447, -47274.99005496384, 11056.223339584272, -11830.532471005019, -54323.92559336729, -52439.829997996094, -42974.961456651865, -39276.59711558785, -31980.026600364043, -42790.93954455132, -0.002, 0.966, 0.28600000000000003, 192.0, 127.5, 120.0, 15.0, 24.0, 4.0, 120.0, 0.0, 0.0, 0.0, 1.695675189306338E9, 0.0, 2023-09-25 15:53:09.306
164.0, -187500.02235174447, 3666.468401726294, -16656.855244261653, -37198.06369519993, -15621.991827725391, -39311.86816833832, -187500.02235174447, -47289.608095837604, 11083.067784675097, -11832.119444861346, -54322.09275032196, -52439.829997996094, -42968.524154248735, -39277.89351676626, -31976.13739682882, -42778.579029867535, -0.002, 0.966, 0.28600000000000003, 192.0, 0.0, 0.0, 0.0, 0.0, 0.0, 0.0, 0.0, 0.0, 0.0, 1.695675189366524E9, 0.0, 2023-09-25 15:53:09.366
166.0, -187500.02235174447, 3674.760898919213, -16640.002028942352, -37185.36790434932, -15605.987978695392, -39307.9789648031, -187500.02235174447, -47266.94342695993, 11061.610109998002, -11814.327456274923, -54310.894526349846, -52433.86208222653, -42972.100433361586, -39262.47081309209, -31966.593201946405, -42785.932753793335, -0.002, 0.966, 0.28600000000000003, 192.0, 0.0, 0.0, 0.0, 0.0, 0.0, 0.0, 0.0, 0.0, 0.0, 1.695675189366536E9, 0.0, 2023-09-25 15:53:09.366
168.0, -187500.02235174447, 3666.669567426392, -16637.833909730187, -37188.4747968286, -15603.03754842729, -39304.670906623716, -187500.02235174447, -47271.92786597346, 11065.029926899664, -11819.222488310634, -54311.20745077222, -52435.73962876078, -42955.806011653665, -39267.90228699473, -31953.785652373514, -42776.23209669973, -0.002, 0.966, 0.28600000000000003, 192.0, 0.0, 0.0, 0.0, 0.0, 0.0, 0.0, 0.0, 0.0, 0.0, 1.69567518936654E9, 0.0, 2023-09-25 15:53:09.366
170.0, -187500.02235174447, 3659.24878826723, -16645.34409586717, -37197.54960507746, -15612.715853776439, -39315.26563349553, -187500.02235174447, -47270.87733398406, 11058.816141941088, -11819.043674354993, -54308.3687792264, -52437.326602617104, -42960.83515415611, -39263.38723461476, -31949.337655226907, -42780.07659674604, -0.002, 0.966, 0.28600000000000003, 192.0, 0.0, 0.0, 0.0, 0.0, 0.0, 0.0, 0.0, 0.0, 0.0, 1.695675189366543E9, 0.0, 2023-09-25 15:53:09.366
172.0, -187500.02235174447, 3664.501448214227, -16644.695895277964, -37199.49420684507, -15614.727510777417, -39315.37739221781, -187500.02235174447, -47273.13486017405, 11066.929825178364, -11827.090302358904, -54320.30461076553, -52446.71433528833, -42968.30063680418, -39279.10051096684, -31953.986818073612, -42766.12910820593, -0.002, 0.962, 0.294, 192.0, 127.5, 120.0, 15.0, 8.0, 4.5, 24.0, 0.0, 0.0, 0.0, 1.695675189366546E9, 0.0, 2023-09-25 15:53:09.366
174.0, -187500.02235174447, 3672.5480762181373, -16637.275116118803, -37195.627355054305, -15604.110432161146, -39313.253976494554, -187500.02235174447, -47271.4584793399, 11075.512895049204, -11815.042712097493, -54311.56507868351, -52439.40531485144, -42968.72531994883, -39267.90228699473, -31947.99655055959, -42768.029006484634, -0.002, 0.962, 0.294, 192.0, 0.0, 0.0, 0.0, 0.0, 0.0, 0.0, 0.0, 0.0, 0.0, 1.69567518936655E9, 0.0, 2023-09-25 15:53:09.366
176.0, -187500.02235174447, 3665.3284627590733, -16659.224529173916, -37217.55441636496, -15628.809109784259, -39322.7311161436, -187500.02235174447, -47305.85781405662, 11059.933729163853, -11826.799729680984, -54319.634058431875, -52445.88732074348, -42971.20636358337, -39279.72635981159, -31957.496041953094, -42770.17477395234, -0.002, 0.962, 0.294, 192.0, 0.0, 0.0, 0.0, 0.0, 0.0, 0.0, 0.0, 0.0, 0.0, 1.695675189366553E9, 0.0, 2023-09-25 15:53:09.366
178.0, -187500.02235174447, 3677.1972390648416, -16645.25468888935, -37199.605965567345, -15611.173583409023, -39324.60866267785, -187500.02235174447, -47293.09496797263, 11092.924903979887, -11823.312857545956, -54321.33279101048, -52450.44707661236, -42978.738901464814, -39276.59711558785, -31964.581544945428, -42766.79966053959, -0.002, 0.962, 0.294, 192.0, 0.0, 0.0, 0.0, 0.0, 0.0, 0.0, 0.0, 0.0, 0.0, 1.695675189366556E9, 0.0, 2023-09-25 15:53:09.366
180.0, -187500.02235174447, 3673.308035529618, -16643.19832839946, -37202.198767924165, -15609.452499085965, -39312.73988637208, -187500.02235174447, -47269.491525827834, 11033.022228839664, -11813.142813818791, -54309.57577342699, -52435.158483404935, -42962.735052434815, -39267.83523176137, -31948.51064068206, -42799.52261442216, -0.002, 0.962, 0.294, 192.0, 0.0, 0.0, 0.0, 0.0, 0.0, 0.0, 0.0, 0.0, 0.0, 1.695675189426971E9, 0.0, 2023-09-25 15:53:09.426
182.0, -187500.02235174447, 3678.448936754339, -16646.551090067755, -37201.72938129061, -15607.75376650736, -39323.42402022172, -187500.02235174447, -47272.39725260702, 11081.659624774413, -11826.442101769699, -54320.01403808762, -52444.948547476364, -42971.72045370584, -39277.71470281061, -31953.763300629056, -42774.533364121125, -0.006, 0.964, 0.3, 192.0, 127.5, 104.0, 15.0, 16.0, 4.5, 48.0, 0.0, 0.0, 0.0, 1.695675189426988E9, 0.0, 2023-09-25 15:53:09.426
184.0, -187500.02235174447, 3675.140878574953, -16662.666697820034, -37221.153047222266, -15626.842156272192, -39328.74373540208, -187500.02235174447, -47310.84225307015, 11024.103882801995, -11821.971752878637, -54320.528128210084, -52449.351841134056, -42969.90996240496, -39279.68165632268, -31959.775919887536, -42801.020181300664, -0.006, 0.964, 0.3, 192.0, 0.0, 0.0, 0.0, 0.0, 0.0, 0.0, 0.0, 0.0, 0.0, 1.695675189426992E9, 0.0, 2023-09-25 15:53:09.426
186.0, -187500.02235174447, 3668.278893027174, -16645.813482500733, -37203.33870689139, -15602.411699582542, -39321.501770198556, -187500.02235174447, -47250.98428141884, 11083.023081186186, -11825.168052335746, -54332.08398009348, -52461.9805767513, -42982.225773599836, -39285.51546162552, -31968.001361847088, -42779.361340923475, -0.006, 0.964, 0.3, 192.0, 0.0, 0.0, 0.0, 0.0, 0.0, 0.0, 0.0, 0.0, 0.0, 1.695675189426995E9, 0.0, 2023-09-25 15:53:09.426
188.0, -187500.02235174447, 3664.2332272807635, -16646.90871797904, -37208.72547730512, -15613.453461343464, -39307.68839212518, -187500.02235174447, -47262.696595513415, 11006.691873871312, -11811.868764384839, -54310.08986354946, -52439.002983451246, -42961.192782067395, -39267.90228699473, -31935.16664924224, -42811.34668723902, -0.006, 0.964, 0.3, 192.0, 0.0, 0.0, 0.0, 0.0, 0.0, 0.0, 0.0, 0.0, 0.0, 1.695675189426999E9, 0.0, 2023-09-25 15:53:09.426
190.0, -187500.02235174447, 3673.0845180850647, -16644.29356387777, -37201.908195246244, -15614.727510777417, -39316.02559280701, -187500.02235174447, -47266.406985092995, 11088.7674795112, -11827.962020392659, -54326.58545095748, -52449.50830334525, -42975.96728515235, -39281.40274064574, -31961.65346642178, -42766.71025356177, -0.006, 0.964, 0.3, 192.0, 0.0, 0.0, 0.0, 0.0, 0.0, 0.0, 0.0, 0.0, 0.0, 1.695675189427002E9, 0.0, 2023-09-25 15:53:09.427
192.0, -187500.02235174447, 3678.739509432258, -16634.838775973174, -37196.14144517678, -15617.432071856509, -39306.50374966905, -187500.02235174447, -47272.35254911811, 11021.399321722904, -11809.164203305747, -54308.03350305957, -52431.47044556981, -42967.42891877043, -39264.23660090406, -31947.817736603945, -42794.09114051952, -0.004, 0.97, 0.292, 192.0, 127.5, 112.0, 15.0, 40.0, 4.5, 16.0, 0.0, 0.0, 0.0, 1.695675189427005E9, 0.0, 2023-09-25 15:53:09.427
194.0, -187500.02235174447, 3680.8852768999673, -16640.739636509377, -37198.421323111215, -15623.847022515181, -39309.320069470414, -187500.02235174447, -47286.322389402674, 11086.57700855458, -11804.403281736766, -54304.03254080207, -52423.87085245501, -42965.90900014746, -39261.75555726952, -31949.42706220473, -42762.79869828209, -0.004, 0.97, 0.292, 192.0, 0.0, 0.0, 0.0, 0.0, 0.0, 0.0, 0.0, 0.0, 0.0, 1.695675189487307E9, 0.0, 2023-09-25 15:53:09.487
196.0, -187500.02235174447, 3678.3595297765173, -16635.419921329012, -37200.50003534556, -15620.158984680056, -39321.12179054282, -187500.02235174447, -47285.83065102466, 11030.384722993938, -11814.48391848611, -54311.07334030549, -52435.583166549586, -42978.2918665757, -39272.12676669678, -31959.21712627615, -42783.94344853681, -0.004, 0.97, 0.292, 192.0, 0.0, 0.0, 0.0, 0.0, 0.0, 0.0, 0.0, 0.0, 0.0, 1.695675189487321E9, 0.0, 2023-09-25 15:53:09.487
198.0, -187500.02235174447, 3680.058262355121, -16641.20902314294, -37208.278442416005, -15626.350417894177, -39330.88950286979, -187500.02235174447, -47291.79856679423, 11073.255368859216, -11809.81240389495, -54302.289104734555, -52430.24109962477, -42965.68548270291, -39271.63502831877, -31950.477594194126, -42772.70052107579, -0.004, 0.97, 0.292, 192.0, 0.0, 0.0, 0.0, 0.0, 0.0, 0.0, 0.0, 0.0, 0.0, 1.695675189487324E9, 0.0, 2023-09-25 15:53:09.487
200.0, -187500.02235174447, 3676.6831489423694, -16642.125444665606, -37213.4863988741, -15621.85771725866, -39331.425944736715, -187500.02235174447, -47297.20768895241, 11029.46830147127, -11822.083511600913, -54315.856613618926, -52441.68519278589, -42980.43763404342, -39287.34830467085, -31965.117986812355, -42784.99398052621, -0.004, 0.97, 0.292, 192.0, 0.0, 0.0, 0.0, 0.0, 0.0, 0.0, 0.0, 0.0, 0.0, 1.695675189487327E9, 0.0, 2023-09-25 15:53:09.487
202.0, -187500.02235174447, 3677.510163487216, -16636.313991107225, -37209.30662266095, -15618.437900356997, -39323.5804824329, -187500.02235174447, -47295.82188079618, 11078.105697406017, -11814.595677208386, -54308.01115131511, -52432.72214325931, -42965.55137223618, -39278.25114467754, -31948.57769591543, -42769.95125650779, -0.008, 0.964, 0.294, 192.0, 127.5, 96.0, 15.0, 16.0, 4.5, 24.0, 0.0, 0.0, 0.0, 1.695675189487331E9, 0.0, 2023-09-25 15:53:09.487
204.0, -187500.02235174447, 3681.041739111154, -16632.20127012745, -37207.33966914888, -15618.057920701256, -39323.35696498835, -187500.02235174447, -47293.5643546062, 11029.021266582164, -11809.611238194853, -54310.98393332767, -52434.91261421593, -42975.11791886305, -39275.859508020825, -31959.23947802061, -42789.41962592836, -0.008, 0.964, 0.294, 192.0, 0.0, 0.0, 0.0, 0.0, 0.0, 0.0, 0.0, 0.0, 0.0, 1.695675189487334E9, 0.0, 2023-09-25 15:53:09.487
206.0, -187500.02235174447, 3682.651064711936, -16642.460720832434, -37216.14625646428, -15626.126900449623, -39323.02168882152, -187500.02235174447, -47304.47200590039, 11062.6606419874, -11810.840584139894, -54307.20648851473, -52431.40339033645, -42966.82542167013, -39276.35124639884, -31952.13162328382, -42779.09311999001, -0.008, 0.964, 0.294, 192.0, 0.0, 0.0, 0.0, 0.0, 0.0, 0.0, 0.0, 0.0, 0.0, 1.695675189487337E9, 0.0, 2023-09-25 15:53:09.487
208.0, -187500.02235174447, 3696.755015463235, -16629.8766887041, -37202.26582315753, -15613.699330532472, -39320.518293442525, -187500.02235174447, -47268.06101418269, 11028.551879948602, -11807.890153871795, -54307.27354374809, -52433.03506768168, -42979.83413694312, -39271.99265623005, -31952.936286084212, -42788.57025963906, -0.008, 0.964, 0.294, 192.0, 0.0, 0.0, 0.0, 0.0, 0.0, 0.0, 0.0, 0.0, 0.0, 1.69567518948734E9, 0.0, 2023-09-25 15:53:09.487
210.0, -187500.02235174447, 3694.3857305509728, -16636.738674251876, -37209.328974405405, -15619.80135676877, -39318.9313195862, -187500.02235174447, -47274.16304041899, 11046.455627257303, -11809.119499816836, -54301.529145423076, -52424.49670129975, -42968.16652633745, -39271.43386261867, -31947.214239503654, -42781.104776990986, -0.008, 0.964, 0.294, 192.0, 0.0, 0.0, 0.0, 0.0, 0.0, 0.0, 0.0, 0.0, 0.0, 1.69567518954648E9, 0.0, 2023-09-25 15:53:09.546
212.0, -187500.02235174447, 3694.497489273249, -16628.28971484777, -37203.8304452694, -15607.776118251815, -39325.39097373378, -187500.02235174447, -47277.85107825412, 11023.142757790418, -11814.729787675118, -54306.80415711453, -52436.74545726126, -42973.37448279554, -39271.88089750778, -31953.115100039853, -42788.36909393896, -0.006, 0.972, 0.294, 192.0, 127.5, 104.0, 15.0, 48.0, 4.5, 24.0, 0.0, 0.0, 0.0, 1.69567518954649E9, 0.0, 2023-09-25 15:53:09.546
214.0, -187500.02235174447, 3691.122375860498, -16639.35382835315, -37215.632166341806, -15616.023911955825, -39319.31129924194, -187500.02235174447, -47285.27185741328, 11020.169975777862, -11810.2370870396, -54297.394072698844, -52426.12837864499, -42954.86723838654, -39263.92367648169, -31938.385300443806, -42790.246640473204, -0.006, 0.972, 0.294, 192.0, 0.0, 0.0, 0.0, 0.0, 0.0, 0.0, 0.0, 0.0, 0.0, 1.695675189546493E9, 0.0, 2023-09-25 15:53:09.546
216.0, -187500.02235174447, 3690.340064804562, -16644.561784811234, -37219.16374196574, -15614.146365421579, -39331.31418601444, -187500.02235174447, -47297.945296519436, 11018.13596703243, -11820.764758678051, -54311.14039553886, -52441.50637883024, -42974.78264269622, -39273.266705664006, -31955.193812274196, -42792.88414631893, -0.006, 0.972, 0.294, 192.0, 0.0, 0.0, 0.0, 0.0, 0.0, 0.0, 0.0, 0.0, 0.0, 1.695675189546497E9, 0.0, 2023-09-25 15:53:09.546
218.0, -187500.02235174447, 3679.655930954925, -16660.09624720767, -37232.66419561675, -15634.464101131452, -39329.50369471356, -187500.02235174447, -47302.013314010306, 11023.433330468337, -11825.52568024703, -54316.99655258615, -52441.796951508164, -42973.03920662871, -39278.228792933085, -31961.72052165515, -42786.73741659372, -0.006, 0.972, 0.294, 192.0, 0.0, 0.0, 0.0, 0.0, 0.0, 0.0, 0.0, 0.0, 0.0, 1.6956751895465E9, 0.0, 2023-09-25 15:53:09.546
220.0, -187500.02235174447, 3696.084463129576, -16638.14683415256, -37211.69825931767, -15619.779005024315, -39331.291834269985, -187500.02235174447, -47292.33500866115, 11036.017362596675, -11823.37991277932, -54312.25798276162, -52439.65118404045, -42982.8963259335, -39269.33279863987, -31967.442568235707, -42786.67036136036, -0.006, 0.972, 0.294, 192.0, 0.0, 0.0, 0.0, 0.0, 0.0, 0.0, 0.0, 0.0, 0.0, 1.695675189546503E9, 0.0, 2023-09-25 15:53:09.546
222.0, -187500.02235174447, 3676.213762308808, -16650.172072669517, -37228.52912289252, -15625.836327771704, -39333.63876743779, -187500.02235174447, -47302.616811110594, 11003.517926158658, -11828.409055281765, -54308.32407573749, -52436.678402027894, -42968.85943041556, -39272.707912052625, -31959.865326865358, -42806.6528209034, -0.01, 0.974, 0.292, 192.0, 127.5, 88.0, 15.0, 56.0, 4.5, 16.0, 0.0, 0.0, 0.0, 1.695675189546506E9, 0.0, 2023-09-25 15:53:09.546
224.0, -187500.02235174447, 3679.9688553772994, -16654.30714539375, -37229.9372827932, -15623.221173670432, -39333.21408429314, -187500.02235174447, -47310.238755969855, 11048.646098213923, -11829.906622160272, -54316.25894501912, -52442.46750384182, -42980.50468927678, -39275.837156276364, -31961.787576888513, -42786.02216077115, -0.01, 0.974, 0.292, 192.0, 0.0, 0.0, 0.0, 0.0, 0.0, 0.0, 0.0, 0.0, 0.0, 1.69567518960671E9, 0.0, 2023-09-25 15:53:09.606
226.0, -187500.02235174447, 3683.5227827456933, -16658.799846029266, -37233.02182352803, -15632.810072041759, -39328.74373540208, -187500.02235174447, -47300.71691283189, 11019.499423444204, -11827.000895381081, -54314.98489558517, -52438.48889332878, -42973.776814195735, -39274.49605160905, -31961.362893743863, -42801.35545746749, -0.01, 0.974, 0.292, 192.0, 0.0, 0.0, 0.0, 0.0, 0.0, 0.0, 0.0, 0.0, 0.0, 1.695675189606722E9, 0.0, 2023-09-25 15:53:09.606
228.0, -187500.02235174447, 3700.4430532983606, -16639.979677197894, -37216.526236120015, -15609.832478741704, -39327.06735456793, -187500.02235174447, -47283.327255645665, 11050.456589514803, -11812.539316718498, -54306.759453625615, -52429.88347171348, -42970.44640427189, -39264.12484218179, -31957.89837335329, -42789.41962592836, -0.01, 0.974, 0.292, 192.0, 0.0, 0.0, 0.0, 0.0, 0.0, 0.0, 0.0, 0.0, 0.0, 1.695675189606726E9, 0.0, 2023-09-25 15:53:09.606
230.0, -187500.02235174447, 3695.6150764960144, -16644.382970855593, -37222.09182048939, -15614.638103799594, -39321.16649403173, -187500.02235174447, -47286.43414812496, 10992.118536486452, -11805.118537559336, -54297.483479676666, -52421.65802975393, -42951.626235440526, -39260.21328690211, -31946.767204614545, -42810.76554188318, -0.01, 0.974, 0.292, 192.0, 0.0, 0.0, 0.0, 0.0, 0.0, 0.0, 0.0, 0.0, 0.0, 1.695675189606729E9, 0.0, 2023-09-25 15:53:09.606
232.0, -187500.02235174447, 3697.045588141154, -16640.694933020466, -37215.29689017498, -15607.105565918157, -39319.892444597775, -187500.02235174447, -47278.231057909856, 11035.637382940935, -11796.58017117741, -54298.28814247705, -52415.4218930509, -42952.810877896656, -39254.89357172175, -31946.32016972544, -42793.77821609715, -0.01, 0.982, 0.28800000000000003, 192.0, 127.5, 88.0, 15.0, 88.0, 4.5, 0.0, 0.0, 0.0, 0.0, 1.695675189606732E9, 0.0, 2023-09-25 15:53:09.606
234.0, -187500.02235174447, 3699.63839049797, -16646.461683089936, -37220.90717803326, -15611.844135742682, -39315.35504047335, -187500.02235174447, -47277.98518872085, 10978.640434579902, -11796.311950243944, -54302.69143613475, -52416.04774189565, -42939.62334866802, -39253.19483914314, -31949.628227904825, -42813.62656517346, -0.01, 0.982, 0.28800000000000003, 192.0, 0.0, 0.0, 0.0, 0.0, 0.0, 0.0, 0.0, 0.0, 0.0, 1.695675189606735E9, 0.0, 2023-09-25 15:53:09.606
236.0, -187500.02235174447, 3696.1962218518524, -16647.981601712894, -37222.56120712295, -15604.937446705992, -39317.05377305195, -187500.02235174447, -47277.13582243155, 11032.888118372932, -11792.735671131095, -54303.272581490586, -52405.67653246839, -42933.633081154, -39247.22692337357, -31948.823565104434, -42794.6499341309, -0.01, 0.982, 0.28800000000000003, 192.0, 0.0, 0.0, 0.0, 0.0, 0.0, 0.0, 0.0, 0.0, 0.0, 1.695675189606739E9, 0.0, 2023-09-25 15:53:09.606
238.0, -187500.02235174447, 3685.8026606801345, -16658.218700673428, -37236.01695728504, -15620.740130035894, -39322.30643299895, -187500.02235174447, -47299.10758723111, 10974.952396744777, -11808.04661608298, -54310.29102924956, -52409.23045983678, -42936.650566655466, -39255.362958355305, -31956.42315821924, -42808.440960459826, -0.01, 0.982, 0.28800000000000003, 192.0, 0.0, 0.0, 0.0, 0.0, 0.0, 0.0, 0.0, 0.0, 0.0, 1.695675189606742E9, 0.0, 2023-09-25 15:53:09.606
240.0, -187500.02235174447, 3678.381881520973, -16666.377087399615, -37236.57575089642, -15620.360150380153, -39331.917683114734, -187500.02235174447, -47299.08523548666, 11043.929880133854, -11822.217622067647, -54323.7244276672, -52415.37718956199, -42942.43966846939, -39262.60492355882, -31976.606783462383, -42779.763672323665, -0.01, 0.982, 0.28800000000000003, 192.0, 0.0, 0.0, 0.0, 0.0, 0.0, 0.0, 0.0, 0.0, 0.0, 1.695675189667598E9, 0.0, 2023-09-25 15:53:09.667
242.0, -187500.02235174447, 3672.0563378401207, -16668.6346135896, -37240.06262303145, -15618.348493379175, -39329.66015692474, -187500.02235174447, -47295.441901140446, 10989.07869924053, -11825.592735480397, -54320.10344506543, -52416.51712852921, -42939.35512773456, -39258.0675194344, -31966.526146713037, -42800.14846326691, -0.004, 0.984, 0.29, 192.0, 127.5, 112.0, 15.0, 96.0, 4.5, 8.0, 0.0, 0.0, 0.0, 1.695675189667608E9, 0.0, 2023-09-25 15:53:09.667
