%OpenBCI Raw EXG Data
%Number of channels = 16
%Sample Rate = 125 Hz
%Board = OpenBCI_GUI$BoardCytonSerialDaisy
Sample Index, EXG Channel 0, EXG Channel 1, EXG Channel 2, EXG Channel 3, EXG Channel 4, EXG Channel 5, EXG Channel 6, EXG Channel 7, EXG Channel 8, EXG Channel 9, EXG Channel 10, EXG Channel 11, EXG Channel 12, EXG Channel 13, EXG Channel 14, EXG Channel 15, Accel Channel 0, Accel Channel 1, Accel Channel 2, Other, Other, Other, Other, Other, Other, Other, Analog Channel 0, Analog Channel 1, Analog Channel 2, Timestamp, Other, Timestamp (Formatted)
12.0, -187500.02235174447, 3816.940345399421, -16836.071531304304, -37212.12294246232, -15776.397678422652, -39256.74876651153, -187500.02235174447, -47460.129554287145, 11736.476330337087, -12013.61560983844, -54471.64827247242, -52193.08909095396, -42848.830562690564, -39145.72765180202, -31566.20640351849, -42123.2929376713, 0.0, 0.0, 0.0, 192.0, 0.0, 0.0, 0.0, 0.0, 0.0, 0.0, 0.0, 0.0, 0.0, 1.69567523296757E9, 0.0, 2023-09-25 15:53:52.967
14.0, -187500.02235174447, 3813.207604075385, -16837.837319116275, -37209.954823250155, -15784.60076863775, -39254.468888577096, -187500.02235174447, -47457.67086239706, 11798.949456089671, -12020.455243641763, -54474.3081300626, -52193.6702363098, -42844.583731244056, -39150.13094545972, -31568.978019830945, -42084.82558546372, 0.0, 0.0, 0.0, 192.0, 0.0, 0.0, 0.0, 0.0, 0.0, 0.0, 0.0, 0.0, 0.0, 1.695675232967577E9, 0.0, 2023-09-25 15:53:52.967
16.0, -187500.02235174447, 3832.430104306949, -16831.824699857796, -37198.711895789136, -15781.27035871391, -39250.98201644207, -187500.02235174447, -47448.05961228128, 11777.581188390397, -12013.928534260815, -54471.603568983504, -52197.246515422645, -42851.26690283619, -39145.03474772391, -31569.96149658698, -42082.143376129075, -0.025, 0.501, 0.114, 192.0, 127.0, 56.0, 15.5, 40.0, 3.5, 16.0, 0.0, 0.0, 0.0, 1.695675232967581E9, 0.0, 2023-09-25 15:53:52.967
18.0, -187500.02235174447, 3822.371819302061, -16845.66042967563, -37209.194863938676, -15795.575475165306, -39248.54567629644, -187500.02235174447, -47448.886626826126, 11849.978488681138, -12015.068473228035, -54470.19540908282, -52193.334960142965, -42840.09103060854, -39143.91716050114, -31568.396874475107, -42039.56330294172, -0.025, 0.501, 0.114, 192.0, 0.0, 0.0, 0.0, 0.0, 0.0, 0.0, 0.0, 0.0, 0.0, 1.695675232967584E9, 0.0, 2023-09-25 15:53:52.967
20.0, -187500.02235174447, 3810.748912185301, -16853.5282437239, -37212.12294246232, -15799.88936184518, -39259.54273456845, -187500.02235174447, -47456.06153679628, 11888.915227522282, -12022.109272731457, -54481.59479875503, -52202.923858514296, -42860.319359340596, -39152.522582116435, -31580.913851370082, -42004.78398856926, -0.025, 0.501, 0.114, 192.0, 0.0, 0.0, 0.0, 0.0, 0.0, 0.0, 0.0, 0.0, 0.0, 1.695675232967587E9, 0.0, 2023-09-25 15:53:52.967
22.0, -187500.02235174447, 3820.0248861342534, -16841.61476392922, -37197.48254984409, -15779.973957535502, -39245.32702509487, -187500.02235174447, -47444.86331282417, 11969.627376750395, -12027.160766978355, -54479.806659198606, -52197.31357065601, -42851.73628946976, -39152.097898971784, -31574.834176878237, -41971.144613164026, -0.025, 0.501, 0.114, 192.0, 0.0, 0.0, 0.0, 0.0, 0.0, 0.0, 0.0, 0.0, 0.0, 1.69567523296759E9, 0.0, 2023-09-25 15:53:52.967
24.0, -187500.02235174447, 3826.8645199375774, -16839.424292972602, -37193.459235842136, -15774.386021421675, -39240.879027948264, -187500.02235174447, -47439.923577299545, 11990.392147349376, -12008.56411559154, -54465.523894491664, -52183.00845420462, -42845.29898706663, -39129.388526605195, -31561.445481949508, -41978.78890976774, -0.025, 0.501, 0.114, 192.0, 0.0, 0.0, 0.0, 0.0, 0.0, 0.0, 0.0, 0.0, 0.0, 1.695675232967593E9, 0.0, 2023-09-25 15:53:52.967
26.0, -187500.02235174447, 3822.617688491069, -16854.779941413395, -37210.84889302837, -15789.026414039901, -39248.88095246327, -187500.02235174447, -47464.06346131128, 12036.772017094137, -12015.269638928134, -54471.51416200569, -52190.58569557497, -42839.17460908587, -39145.325320401826, -31570.877918109647, -41972.23984864233, -0.0285, 0.7525, 0.17200000000000001, 192.0, 127.5, 0.0, 15.5, 48.0, 3.5, 24.0, 0.0, 0.0, 0.0, 1.695675232967597E9, 0.0, 2023-09-25 15:53:52.967
28.0, -187500.02235174447, 3820.203700089896, -16855.070514091316, -37212.83819828489, -15791.306291974342, -39267.63406606127, -187500.02235174447, -47464.06346131128, 12079.10622109249, -12012.207449937756, -54474.196371340324, -52193.826698520985, -42852.80917320361, -39139.536218587906, -31580.802092647806, -41976.665494044486, -0.0285, 0.7525, 0.17200000000000001, 192.0, 0.0, 0.0, 0.0, 0.0, 0.0, 0.0, 0.0, 0.0, 0.0, 1.6956752329676E9, 0.0, 2023-09-25 15:53:52.967
0.0, -93750.01117587223, 1837.9615948154444, -8354.880911693683, -18570.835121969598, -7935.562185712121, -19618.707253778848, -93750.01117587223, -23680.39920096388, 6027.259651095826, -6009.244145064848, -27238.193421148473, -26100.333166162156, -21424.43763308974, -19574.96488987981, -15792.423879197107, -21003.26371231839, -0.024, 1.01, 0.186, 192.0, 127.5, 32.0, 15.5, 72.0, 2.5, 104.0, 0.0, 0.0, 0.0, 1.69567523311174E9, 0.0, 2023-09-25 15:53:53.111
2.0, -187500.02235174447, 3674.850305897034, -16721.78706190432, -37153.44961326714, -15891.822086789858, -39233.43589704465, -187500.02235174447, -47374.12004162312, 12595.833849410279, -11964.1735511033, -54474.285778318146, -52066.39940338128, -42706.78522667709, -39068.23415377548, -31495.619594528627, -42205.055618888815, -0.024, 1.01, 0.186, 192.0, 0.0, 0.0, 0.0, 0.0, 0.0, 0.0, 0.0, 0.0, 0.0, 1.69567523311176E9, 0.0, 2023-09-25 15:53:53.111
4.0, -187500.02235174447, 3682.718119945302, -16712.779308888832, -37143.14545907325, -15881.0485459624, -39231.603053999315, -187500.02235174447, -47363.50296300685, 12644.091265689287, -11957.378620788888, -54472.11765910598, -52065.751202792075, -42711.43438952379, -39060.746319382946, -31502.973318454424, -42195.265554817386, -0.024, 1.01, 0.186, 192.0, 0.0, 0.0, 0.0, 0.0, 0.0, 0.0, 0.0, 0.0, 0.0, 1.695675233111763E9, 0.0, 2023-09-25 15:53:53.111
6.0, -187500.02235174447, 3677.7113291873134, -16720.244791536905, -37153.36020628932, -15890.838610033825, -39228.42910628666, -187500.02235174447, -47375.14822186807, 12596.571456977303, -11957.400972533344, -54472.229417828254, -52063.69484230219, -42711.0320581236, -39061.19335427205, -31495.016097428335, -42210.151816624624, -0.024, 1.01, 0.186, 192.0, 0.0, 0.0, 0.0, 0.0, 0.0, 0.0, 0.0, 0.0, 0.0, 1.695675233111766E9, 0.0, 2023-09-25 15:53:53.111
8.0, -187500.02235174447, 3674.9173611304, -16721.92117237105, -37156.467098768604, -15893.274950179453, -39238.35328082482, -187500.02235174447, -47376.869306191125, 12681.306920207373, -11963.614757491918, -54483.27117958918, -52073.529609862526, -42720.9338809173, -39069.66466542061, -31507.398963856576, -42176.043054585825, -0.024, 1.014, 0.16, 192.0, 127.5, 32.0, 15.5, 88.0, 2.5, 0.0, 0.0, 0.0, 0.0, 1.695675233111769E9, 0.0, 2023-09-25 15:53:53.111
10.0, -187500.02235174447, 3686.0932333580536, -16707.414890219556, -37142.81018290641, -15881.294415151408, -39227.02094638598, -187500.02235174447, -47363.83823917368, 12617.269172342918, -11956.328088799488, -54475.045737629625, -52069.08161271592, -42714.49657851417, -39062.17683102809, -31496.044277673278, -42208.83306370176, -0.024, 1.014, 0.16, 192.0, 0.0, 0.0, 0.0, 0.0, 0.0, 0.0, 0.0, 0.0, 0.0, 1.695675233111774E9, 0.0, 2023-09-25 15:53:53.111
12.0, -187500.02235174447, 3675.4538029973273, -16715.103890312184, -37147.816973664405, -15886.547075098406, -39237.28039709096, -187500.02235174447, -47368.487402020386, 12681.597492885292, -11946.180396816779, -54465.948577636314, -52058.44218235519, -42704.43829350928, -39054.13020302418, -31487.03652465779, -42186.101339590714, -0.024, 1.014, 0.16, 192.0, 0.0, 0.0, 0.0, 0.0, 0.0, 0.0, 0.0, 0.0, 0.0, 1.695675233111777E9, 0.0, 2023-09-25 15:53:53.111
14.0, -187500.02235174447, 3680.6170559665034, -16716.534401957324, -37153.69548245615, -15887.642310576715, -39244.947045439134, -187500.02235174447, -47373.740061967386, 12624.086454401786, -11963.972385403204, -54478.197333597825, -52076.41298489726, -42718.20696809375, -39072.838613133266, -31501.632213787107, -42204.54152876634, -0.024, 1.014, 0.16, 192.0, 0.0, 0.0, 0.0, 0.0, 0.0, 0.0, 0.0, 0.0, 0.0, 1.69567523311178E9, 0.0, 2023-09-25 15:53:53.111
16.0, -187500.02235174447, 3692.9552189058327, -16704.88914309611, -37140.64206369425, -15874.81240925937, -39231.13366736575, -187500.02235174447, -47362.27361706181, 12685.687862120612, -11950.740152685661, -54467.06616485908, -52062.331385890415, -42707.0310958661, -39061.03689206087, -31489.450513058964, -42192.1586623381, -0.024, 1.014, 0.16, 192.0, 0.0, 0.0, 0.0, 0.0, 0.0, 0.0, 0.0, 0.0, 0.0, 1.695675233170551E9, 0.0, 2023-09-25 15:53:53.170
18.0, -187500.02235174447, 3676.6831489423694, -16719.797756647797, -37159.126956358785, -15890.928017011645, -39244.05297566092, -187500.02235174447, -47380.9820271709, 12615.63749499768, -11952.483588753175, -54468.96606313778, -52067.651101070776, -42710.562671490035, -39064.859040362724, -31490.456341559453, -42215.71740099399, -0.028, 1.014, 0.148, 192.0, 127.5, 16.0, 15.5, 88.0, 2.0, 80.0, 0.0, 0.0, 0.0, 1.695675233170561E9, 0.0, 2023-09-25 15:53:53.170
20.0, -187500.02235174447, 3668.72592791628, -16714.634503678622, -37155.03658712347, -15883.842514019314, -39236.699251735125, -187500.02235174447, -47375.86347769064, 12692.728661624034, -11957.2221585777, -54470.06129861609, -52069.528647605024, -42711.0320581236, -39070.13405205418, -31493.339716594186, -42186.30250529081, -0.028, 1.014, 0.148, 192.0, 0.0, 0.0, 0.0, 0.0, 0.0, 0.0, 0.0, 0.0, 0.0, 1.695675233170565E9, 0.0, 2023-09-25 15:53:53.170
22.0, -187500.02235174447, 3671.9669308622997, -16719.01544559186, -37159.50693601453, -15890.480982122539, -39244.67882450567, -187500.02235174447, -47378.72450098092, 12640.760855765446, -11973.538932030075, -54479.381976053955, -52082.71617683365, -42722.230282095705, -39079.16415681412, -31500.112295164145, -42207.82723520127, -0.028, 1.014, 0.148, 192.0, 0.0, 0.0, 0.0, 0.0, 0.0, 0.0, 0.0, 0.0, 0.0, 1.695675233170568E9, 0.0, 2023-09-25 15:53:53.170
24.0, -187500.02235174447, 3678.53834373216, -16717.383768246626, -37151.05797661042, -15887.396441387707, -39239.02383315848, -187500.02235174447, -47375.52820152381, 12701.736414639523, -11963.726516214194, -54472.07295561707, -52072.3896708953, -42713.35663954695, -39069.79877588735, -31496.446609073475, -42192.046903615825, -0.028, 1.014, 0.148, 192.0, 0.0, 0.0, 0.0, 0.0, 0.0, 0.0, 0.0, 0.0, 0.0, 1.695675233170571E9, 0.0, 2023-09-25 15:53:53.170
26.0, -187500.02235174447, 3660.0981545565314, -16725.27393403935, -37163.35143606084, -15892.67145307916, -39249.05976641891, -187500.02235174447, -47383.507774294354, 12657.614071084747, -11971.75079247365, -54481.818316199584, -52083.96787452315, -42727.92997693181, -39077.8230521468, -31500.89460622008, -42211.80584571431, -0.028, 1.014, 0.148, 192.0, 0.0, 0.0, 0.0, 0.0, 0.0, 0.0, 0.0, 0.0, 0.0, 1.695675233170574E9, 0.0, 2023-09-25 15:53:53.170
28.0, -187500.02235174447, 3667.8765616269784, -16714.92507635654, -37150.812107421414, -15880.936787240124, -39247.450440818124, -187500.02235174447, -47377.226934102415, 12717.829670647345, -11987.397013592365, -54487.71917673579, -52088.30411294748, -42731.43920081129, -39086.71904644001, -31498.078286418713, -42189.29763904782, -0.024, 1.016, 0.146, 192.0, 127.5, 32.0, 15.5, 96.0, 2.0, 72.0, 0.0, 0.0, 0.0, 1.695675233170578E9, 0.0, 2023-09-25 15:53:53.170
30.0, -187500.02235174447, 3677.532515231671, -16706.78904137481, -37141.670243939196, -15881.495580851506, -39241.34841458183, -187500.02235174447, -47373.53889626729, 12661.995012997988, -11975.505885542141, -54475.62688298546, -52077.53057212002, -42726.1865408643, -39069.64231367616, -31487.2823938468, -42220.65713651862, -0.024, 1.016, 0.146, 192.0, 0.0, 0.0, 0.0, 0.0, 0.0, 0.0, 0.0, 0.0, 0.0, 1.695675233230904E9, 0.0, 2023-09-25 15:53:53.230
32.0, -187500.02235174447, 3688.239000825763, -16710.655893165578, -37141.647892194735, -15884.401307630696, -39235.13462962325, -187500.02235174447, -47370.454355532456, 12702.161097784174, -11988.581656048496, -54477.16915335288, -52084.794889068, -42723.2361105962, -39079.56648821432, -31492.28918460479, -42197.18780484054, -0.024, 1.016, 0.146, 192.0, 0.0, 0.0, 0.0, 0.0, 0.0, 0.0, 0.0, 0.0, 0.0, 1.695675233230917E9, 0.0, 2023-09-25 15:53:53.230
34.0, -187500.02235174447, 3684.327445546084, -16700.888180838607, -37130.24850252253, -15875.147685426198, -39232.72064122208, -187500.02235174447, -47360.172553083015, 12677.283606205418, -11971.817847707016, -54470.73185094975, -52082.537362878014, -42728.62288100993, -39065.06020606282, -31481.493292032876, -42201.747560709424, -0.024, 1.016, 0.146, 192.0, 0.0, 0.0, 0.0, 0.0, 0.0, 0.0, 0.0, 0.0, 0.0, 1.69567523323092E9, 0.0, 2023-09-25 15:53:53.230
36.0, -187500.02235174447, 3686.0932333580536, -16701.849305850184, -37135.67997642517, -15872.778400513937, -39223.33290855085, -187500.02235174447, -47361.60306472815, 12696.819030859355, -11974.880036697394, -54470.5083335052, -52084.52666813453, -42720.68801172829, -39065.73075839648, -31470.451530271952, -42184.715531434485, -0.024, 1.016, 0.146, 192.0, 0.0, 0.0, 0.0, 0.0, 0.0, 0.0, 0.0, 0.0, 0.0, 1.695675233230923E9, 0.0, 2023-09-25 15:53:53.230
38.0, -187500.02235174447, 3675.207933808319, -16707.660759408565, -37140.329139271875, -15872.085496435822, -39230.95485341011, -187500.02235174447, -47366.60985548614, 12684.771440597946, -11975.304719842045, -54476.8115254416, -52101.31282822047, -42731.37214557793, -39063.9202670956, -31473.401960540054, -42193.27624956086, -0.018000000000000002, 1.008, 0.14400000000000002, 192.0, 127.5, 56.0, 15.5, 64.0, 2.0, 64.0, 0.0, 0.0, 0.0, 1.695675233230927E9, 0.0, 2023-09-25 15:53:53.230
40.0, -187500.02235174447, 3666.0660703260983, -16716.422643235044, -37148.442822509154, -15888.625787332749, -39236.632196501756, -187500.02235174447, -47381.630227760106, 12687.364242954762, -11985.161839146835, -54481.50539177721, -52090.65104611529, -42729.51695078814, -39080.19233705907, -31481.716809477428, -42191.1081303487, -0.018000000000000002, 1.008, 0.14400000000000002, 192.0, 0.0, 0.0, 0.0, 0.0, 0.0, 0.0, 0.0, 0.0, 0.0, 1.69567523323093E9, 0.0, 2023-09-25 15:53:53.230
42.0, -187500.02235174447, 3651.380974218962, -16713.40515773358, -37145.69355794115, -15889.698671066604, -39246.265798361994, -187500.02235174447, -47381.071434148726, 12712.778176400445, -11998.61758930893, -54483.07001388908, -52086.8959530468, -42743.86677072845, -39081.48873823747, -31493.250309616367, -42178.81467089828, -0.018000000000000002, 1.008, 0.14400000000000002, 192.0, 0.0, 0.0, 0.0, 0.0, 0.0, 0.0, 0.0, 0.0, 0.0, 1.695675233230933E9, 0.0, 2023-09-25 15:53:53.230
44.0, -187500.02235174447, 3666.5131052152046, -16721.027102592838, -37153.15904058922, -15901.232171205542, -39247.22692337357, -187500.02235174447, -47392.113195909646, 12702.429318717637, -12010.508717359153, -54487.04862440212, -52084.97370302364, -42742.70448001677, -39085.26618305042, -31496.960699195948, -42181.988618610936, -0.018000000000000002, 1.008, 0.14400000000000002, 192.0, 0.0, 0.0, 0.0, 0.0, 0.0, 0.0, 0.0, 0.0, 0.0, 1.695675233230936E9, 0.0, 2023-09-25 15:53:53.230
46.0, -187500.02235174447, 3671.3187302730958, -16718.993093847406, -37146.006482363526, -15896.650063592204, -39255.228847888575, -187500.02235174447, -47390.10153890867, 12728.893784152722, -11993.923722973315, -54484.23230460076, -52088.37116818085, -42752.18161966582, -39081.01935160391, -31499.352335852665, -42188.135348336145, -0.018000000000000002, 1.008, 0.14400000000000002, 192.0, 0.0, 0.0, 0.0, 0.0, 0.0, 0.0, 0.0, 0.0, 0.0, 1.695675233292868E9, 0.0, 2023-09-25 15:53:53.292
48.0, -187500.02235174447, 3654.241997509241, -16712.578143188734, -37143.59249396235, -15892.492639123517, -39247.450440818124, -187500.02235174447, -47390.45916681995, 12686.783097598924, -12006.887734757393, -54478.86788593148, -52089.26523795906, -42744.22439863973, -39085.1767760726, -31492.110370649145, -42211.269403847386, -0.018000000000000002, 1.002, 0.136, 192.0, 127.5, 56.0, 15.5, 40.0, 2.0, 32.0, 0.0, 0.0, 0.0, 1.695675233292879E9, 0.0, 2023-09-25 15:53:53.292
50.0, -187500.02235174447, 3642.1720555033753, -16713.2933990113, -37144.33010152938, -15892.313825167874, -39251.1161269088, -187500.02235174447, -47389.27452436382, 12720.668342193168, -12002.126813188412, -54474.889275418434, -52086.71713909115, -42744.60437829547, -39081.46638649302, -31487.975297924913, -42203.40158979912, -0.018000000000000002, 1.002, 0.136, 192.0, 0.0, 0.0, 0.0, 0.0, 0.0, 0.0, 0.0, 0.0, 0.0, 1.695675233292883E9, 0.0, 2023-09-25 15:53:53.292
52.0, -187500.02235174447, 3649.5481311736266, -16707.54900068629, -37139.12214507129, -15888.37991814374, -39248.031586173965, -187500.02235174447, -47385.09474815068, 12671.248635202484, -12011.112214459446, -54480.94659816583, -52096.104871762385, -42746.16900040734, -39089.98240113049, -31487.930594436002, -42221.21593013, -0.018000000000000002, 1.002, 0.136, 192.0, 0.0, 0.0, 0.0, 0.0, 0.0, 0.0, 0.0, 0.0, 0.0, 1.695675233292886E9, 0.0, 2023-09-25 15:53:53.292
54.0, -187500.02235174447, 3657.952387088822, -16718.233134535927, -37143.63719745126, -15901.9027235392, -39257.598132800835, -187500.02235174447, -47396.89646922308, 12728.558507985892, -12004.876077756415, -54481.460688288294, -52095.21080198417, -42745.05141318458, -39088.44013076307, -31489.674030503516, -42196.42784552906, -0.018000000000000002, 1.002, 0.136, 192.0, 0.0, 0.0, 0.0, 0.0, 0.0, 0.0, 0.0, 0.0, 0.0, 1.69567523329289E9, 0.0, 2023-09-25 15:53:53.292
56.0, -187500.02235174447, 3662.3109772576067, -16700.53055292732, -37122.91713034119, -15881.562636084873, -39249.283283863464, -187500.02235174447, -47380.37853007061, 12668.611129356757, -12000.428080609809, -54483.89702843392, -52100.10583401988, -42750.12525917593, -39086.27201155091, -31496.08898116219, -42224.59104354275, -0.018000000000000002, 1.002, 0.136, 192.0, 0.0, 0.0, 0.0, 0.0, 0.0, 0.0, 0.0, 0.0, 0.0, 1.695675233292893E9, 0.0, 2023-09-25 15:53:53.292
58.0, -187500.02235174447, 3658.265311511196, -16696.82016334774, -37116.993918060536, -15883.820162274858, -39251.741975753546, -187500.02235174447, -47382.18902137149, 12707.65962692018, -11987.642882781372, -54474.37518529597, -52091.634522871325, -42740.82693348252, -39075.58787770127, -31481.31447807723, -42218.42196207309, -0.018000000000000002, 1.016, 0.13, 192.0, 127.5, 56.0, 15.5, 96.0, 2.0, 8.0, 0.0, 0.0, 0.0, 1.695675233292897E9, 0.0, 2023-09-25 15:53:53.292
60.0, -187500.02235174447, 3649.414020706895, -16707.660759408565, -37132.707194412615, -15904.830802062846, -39250.02089143049, -187500.02235174447, -47401.32211462523, 12640.067951687332, -11992.314397372533, -54476.0068626412, -52097.6471421298, -42741.586892794, -39080.54996497035, -31487.841187458183, -42236.61628205971, -0.018000000000000002, 1.016, 0.13, 192.0, 0.0, 0.0, 0.0, 0.0, 0.0, 0.0, 0.0, 0.0, 0.0, 1.695675233351382E9, 0.0, 2023-09-25 15:53:53.351
62.0, -187500.02235174447, 3661.081631312565, -16693.713270868455, -37118.91616808369, -15889.206932688587, -39258.581609556866, -187500.02235174447, -47381.496117293376, 12719.886031137232, -12006.731272546205, -54484.99226391224, -52107.7501306236, -42753.9921109667, -39096.799683189354, -31501.319289364732, -42198.30539206331, -0.018000000000000002, 1.016, 0.13, 192.0, 0.0, 0.0, 0.0, 0.0, 0.0, 0.0, 0.0, 0.0, 0.0, 1.695675233351393E9, 0.0, 2023-09-25 15:53:53.351
64.0, -187500.02235174447, 3657.080669055065, -16684.12437249713, -37112.68003138066, -15879.52862733944, -39241.52722853747, -187500.02235174447, -47371.32607356621, 12629.36146609324, -11979.126868143901, -54458.86307464398, -52084.30315068998, -42734.52374154612, -39065.127261296184, -31467.635210470584, -42235.56575007031, -0.018000000000000002, 1.016, 0.13, 192.0, 0.0, 0.0, 0.0, 0.0, 0.0, 0.0, 0.0, 0.0, 0.0, 1.695675233351397E9, 0.0, 2023-09-25 15:53:53.351
66.0, -187500.02235174447, 3658.6452911669367, -16692.34981445668, -37123.766496630495, -15886.85999952078, -39248.34451059634, -187500.02235174447, -47378.52333528082, 12694.203876758085, -11993.18611540629, -54473.995205640225, -52097.133052007324, -42740.84928522698, -39077.39836900215, -31477.179405353, -42199.311220563795, -0.018000000000000002, 1.016, 0.13, 192.0, 0.0, 0.0, 0.0, 0.0, 0.0, 0.0, 0.0, 0.0, 0.0, 1.695675233351401E9, 0.0, 2023-09-25 15:53:53.351
68.0, -187500.02235174447, 3667.049547082132, -16679.83283756171, -37115.29518548193, -15885.630653575738, -39235.447554045626, -187500.02235174447, -47365.3805095411, 12628.355637592751, -11983.999548435158, -54463.82516191306, -52087.16417398026, -42741.89981721638, -39066.960104341524, -31470.786806438784, -42216.76793298339, -0.01, 1.022, 0.132, 192.0, 127.5, 88.0, 15.5, 120.0, 2.0, 16.0, 0.0, 0.0, 0.0, 1.695675233351404E9, 0.0, 2023-09-25 15:53:53.351
70.0, -187500.02235174447, 3658.8017533781235, -16692.59568364569, -37129.287377510955, -15889.788078044425, -39248.70213850762, -187500.02235174447, -47392.85080347667, 12703.725719896045, -11992.336749116988, -54468.94371139332, -52090.20401122618, -42739.46347707075, -39077.666589935616, -31482.208547855444, -42182.323894777765, -0.01, 1.022, 0.132, 192.0, 0.0, 0.0, 0.0, 0.0, 0.0, 0.0, 0.0, 0.0, 0.0, 1.695675233351407E9, 0.0, 2023-09-25 15:53:53.351
72.0, -187500.02235174447, 3670.625826194981, -16695.344948213693, -37134.78590664696, -15895.644235091715, -39249.976187941575, -187500.02235174447, -47373.89652417857, 12643.376009866717, -11984.670100768817, -54468.8543044155, -52090.76280483756, -42745.252578884676, -39071.38574974367, -31485.22603335691, -42211.135293380656, -0.01, 1.022, 0.132, 192.0, 0.0, 0.0, 0.0, 0.0, 0.0, 0.0, 0.0, 0.0, 0.0, 1.695675233351411E9, 0.0, 2023-09-25 15:53:53.351
74.0, -187500.02235174447, 3663.5179714581936, -16692.01453828985, -37133.467153724094, -15886.234150676031, -39253.44070833215, -187500.02235174447, -47360.61958797212, 12711.861754877777, -11988.55930430404, -54470.86596141648, -52092.88622056082, -42742.01157593865, -39079.36532251422, -31483.907280434047, -42181.67569418856, -0.01, 1.022, 0.132, 192.0, 0.0, 0.0, 0.0, 0.0, 0.0, 0.0, 0.0, 0.0, 0.0, 1.695675233351414E9, 0.0, 2023-09-25 15:53:53.351
76.0, -187500.02235174447, 3649.414020706895, -16694.62969239112, -37145.291226540954, -15889.184580944131, -39256.74876651153, -187500.02235174447, -47372.1307363666, 12662.039716486897, -11992.984949706191, -54466.41796426987, -52090.76280483756, -42741.966872449746, -39077.89010738017, -31479.794559454273, -42204.96621191099, -0.01, 1.022, 0.132, 192.0, 0.0, 0.0, 0.0, 0.0, 0.0, 0.0, 0.0, 0.0, 0.0, 1.695675233410705E9, 0.0, 2023-09-25 15:53:53.410
78.0, -187500.02235174447, 3664.702613914325, -16689.198218488484, -37146.609979463814, -15883.931920997135, -39256.43584208916, -187500.02235174447, -47371.52723926631, 12713.918115367665, -11992.359100861442, -54465.85917065849, -52086.56067687997, -42737.049488669574, -39077.800700402346, -31479.481635031898, -42179.23935404293, -0.016, 1.016, 0.138, 192.0, 127.5, 64.0, 15.5, 96.0, 2.0, 40.0, 0.0, 0.0, 0.0, 1.695675233410714E9, 0.0, 2023-09-25 15:53:53.410
80.0, -187500.02235174447, 3675.140878574953, -16680.503389895366, -37143.86071489581, -15874.47713309254, -39258.805127001426, -187500.02235174447, -47355.9257216365, 12653.814274527345, -11980.691490255773, -54458.14781882141, -52085.53249663502, -42734.70255550177, -39069.10587180923, -31468.931611648994, -42212.49874979243, -0.016, 1.016, 0.138, 192.0, 0.0, 0.0, 0.0, 0.0, 0.0, 0.0, 0.0, 0.0, 0.0, 1.695675233410718E9, 0.0, 2023-09-25 15:53:53.410
82.0, -187500.02235174447, 3661.7521836462242, -16687.521837654334, -37152.287322555465, -15880.646214562204, -39238.28622559145, -187500.02235174447, -47370.70022472146, 12663.470228132037, -11980.557379789041, -54460.33828977803, -52082.87263904484, -42724.64427049688, -39069.21763053151, -31467.18817558148, -42199.601793241716, -0.016, 1.016, 0.138, 192.0, 0.0, 0.0, 0.0, 0.0, 0.0, 0.0, 0.0, 0.0, 0.0, 1.695675233410722E9, 0.0, 2023-09-25 15:53:53.410
84.0, -187500.02235174447, 3638.953404301811, -16704.531515184823, -37169.78873846397, -15891.598569345304, -39252.09960366483, -187500.02235174447, -47385.63119001761, 12645.186501167596, -11993.744909017672, -54479.516086520685, -52098.51886016356, -42748.448878341784, -39080.7734824149, -31478.766379209326, -42194.48324376145, -0.016, 1.016, 0.138, 192.0, 0.0, 0.0, 0.0, 0.0, 0.0, 0.0, 0.0, 0.0, 0.0, 1.695675233410725E9, 0.0, 2023-09-25 15:53:53.410
86.0, -187500.02235174447, 3648.7434683732354, -16705.44793670749, -37173.54383153246, -15890.749203056002, -39245.97522568407, -187500.02235174447, -47391.196774386975, 12659.26810017444, -11997.56705731953, -54481.43833654384, -52098.6976741192, -42740.17873289332, -39086.674342951104, -31484.108446134145, -42182.65917094459, -0.016, 1.016, 0.138, 192.0, 0.0, 0.0, 0.0, 0.0, 0.0, 0.0, 0.0, 0.0, 0.0, 1.695675233410729E9, 0.0, 2023-09-25 15:53:53.410
88.0, -187500.02235174447, 3636.2488432227187, -16709.02421582034, -37172.82857570989, -15888.424621632652, -39253.82068798789, -187500.02235174447, -47372.9801026559, 12661.324460664327, -12003.870249255926, -54492.07776690457, -52109.98530506913, -42753.03098595512, -39083.36628477172, -31485.360143823644, -42178.144118564625, -0.024, 1.012, 0.152, 192.0, 127.5, 32.0, 15.5, 80.0, 2.0, 96.0, 0.0, 0.0, 0.0, 1.695675233410734E9, 0.0, 2023-09-25 15:53:53.410
90.0, -187500.02235174447, 3630.929128042356, -16702.78807911731, -37170.034607652975, -15880.601511073293, -39249.775022241476, -187500.02235174447, -47356.61862571462, 12649.746257036479, -12005.211353923245, -54489.12733663647, -52107.19133701221, -42747.398346352384, -39087.63546796268, -31472.686704717486, -42182.83798490024, -0.024, 1.012, 0.152, 192.0, 0.0, 0.0, 0.0, 0.0, 0.0, 0.0, 0.0, 0.0, 0.0, 1.695675233470659E9, 0.0, 2023-09-25 15:53:53.470
92.0, -187500.02235174447, 3631.599680376015, -16707.280779752826, -37170.01225590852, -15882.993147730012, -39253.57481879888, -187500.02235174447, -47367.74979445336, 12668.029984000921, -12006.23953416819, -54494.06707216109, -52113.18160452624, -42754.57325632254, -39087.76957842941, -31470.250364571857, -42180.848679643714, -0.024, 1.012, 0.152, 192.0, 0.0, 0.0, 0.0, 0.0, 0.0, 0.0, 0.0, 0.0, 0.0, 1.69567523347067E9, 0.0, 2023-09-25 15:53:53.470
94.0, -187500.02235174447, 3622.435465149339, -16715.081538567727, -37176.024875167, -15893.945502513112, -39255.295903121936, -187500.02235174447, -47376.84695444667, 12638.928012720111, -12004.585505078496, -54494.625865772476, -52109.42651145774, -42751.19814290979, -39088.97657263, -31471.591469239174, -42194.23737457245, -0.024, 1.012, 0.152, 192.0, 0.0, 0.0, 0.0, 0.0, 0.0, 0.0, 0.0, 0.0, 0.0, 1.695675233470674E9, 0.0, 2023-09-25 15:53:53.470
96.0, -187500.02235174447, 3619.865014536979, -16717.40611999108, -37175.22021236661, -15897.991168259523, -39265.62240906029, -187500.02235174447, -47382.52429753832, 12676.098963749286, -12010.218144681234, -54502.06899667609, -52113.561584181974, -42764.49743086069, -39094.13982559917, -31484.980164167904, -42175.73013016345, -0.024, 1.012, 0.152, 192.0, 0.0, 0.0, 0.0, 0.0, 0.0, 0.0, 0.0, 0.0, 0.0, 1.695675233470678E9, 0.0, 2023-09-25 15:53:53.470
98.0, -187500.02235174447, 3611.8854417664343, -16733.231155065438, -37187.26780262802, -15918.264200480486, -39265.93533348267, -187500.02235174447, -47409.48050135142, 12633.36242835074, -12010.531069103608, -54502.9630664543, -52114.16508128227, -42760.7423377922, -39093.89395641017, -31487.03652465779, -42190.661095459596, -0.02, 1.002, 0.17, 192.0, 127.5, 48.0, 15.5, 40.0, 2.5, 40.0, 0.0, 0.0, 0.0, 1.695675233470681E9, 0.0, 2023-09-25 15:53:53.470
100.0, -187500.02235174447, 3604.866994007468, -16758.30981234429, -37202.10936094634, -15945.376866504774, -39293.78560707398, -187500.02235174447, -47498.55220300582, 12681.686899863113, -12017.303647673565, -54517.826976517084, -52126.05620933249, -42778.78019556763, -39100.42066579112, -31515.534998838306, -42179.55227846531, -0.02, 1.002, 0.17, 192.0, 0.0, 0.0, 0.0, 0.0, 0.0, 0.0, 0.0, 0.0, 0.0, 1.695675233470684E9, 0.0, 2023-09-25 15:53:53.470
102.0, -187500.02235174447, 3602.1624329283754, -16750.196129107015, -37200.231814412095, -15922.063997037889, -39289.628182605295, -187500.02235174447, -47476.31221727279, 12597.957265133533, -12027.764264078649, -54529.82986328958, -52138.03674436054, -42784.61400087047, -39109.71899148452, -31541.77594682884, -42243.94765424105, -0.02, 1.002, 0.17, 192.0, 0.0, 0.0, 0.0, 0.0, 0.0, 0.0, 0.0, 0.0, 0.0, 1.695675233470688E9, 0.0, 2023-09-25 15:53:53.470
104.0, -187500.02235174447, 3602.0059707171886, -16744.69759997101, -37191.782855007994, -15891.911493767679, -39260.66032179121, -187500.02235174447, -47332.43403821398, 12663.98431825451, -12014.04029298309, -54517.13407243897, -52124.37982849835, -42768.63250358492, -39092.7763691874, -31486.61184151314, -42207.559014267805, -0.02, 1.002, 0.17, 192.0, 0.0, 0.0, 0.0, 0.0, 0.0, 0.0, 0.0, 0.0, 0.0, 1.695675233470691E9, 0.0, 2023-09-25 15:53:53.470
106.0, -187500.02235174447, 3605.7834155301352, -16739.84727142421, -37173.02974140999, -15851.790112470402, -39244.85763846131, -187500.02235174447, -47275.72766253086, 12618.096186887764, -12011.201621437267, -54513.40133111493, -52121.2505842746, -42765.726776805735, -39088.48483425198, -31448.88209687258, -42198.327743807764, -0.02, 1.002, 0.17, 192.0, 0.0, 0.0, 0.0, 0.0, 0.0, 0.0, 0.0, 0.0, 0.0, 1.695675233530832E9, 0.0, 2023-09-25 15:53:53.530
108.0, -187500.02235174447, 3615.5511278571043, -16763.853044969208, -37168.33587507437, -15852.818292715347, -39241.41546981519, -187500.02235174447, -47304.47200590039, 12656.094152461787, -11990.481554327198, -54496.54811579563, -52095.52372640654, -42744.06793642854, -39063.339121739766, -31415.577997634173, -42170.14219404962, -0.014, 0.966, 0.194, 192.0, 127.5, 72.0, 15.0, 24.0, 3.0, 8.0, 0.0, 0.0, 0.0, 1.695675233530841E9, 0.0, 2023-09-25 15:53:53.530
110.0, -187500.02235174447, 3621.854319793501, -16767.071696170773, -37184.63029678229, -15869.313880123364, -39238.97912966956, -187500.02235174447, -47340.860645873625, 12566.284843240363, -11988.492249070674, -54501.666665275894, -52101.51399392057, -42751.01932895414, -39057.28179899237, -31426.239779739357, -42184.80493841231, -0.014, 0.966, 0.194, 192.0, 0.0, 0.0, 0.0, 0.0, 0.0, 0.0, 0.0, 0.0, 0.0, 1.695675233530845E9, 0.0, 2023-09-25 15:53:53.530
112.0, -187500.02235174447, 3635.5559391446045, -16770.804437494808, -37195.917927732226, -15884.825990775347, -39257.016987445, -187500.02235174447, -47369.98496889889, 12642.481940088504, -11997.835278252993, -54525.18070044288, -52116.579069683445, -42767.00082623969, -39077.01838934641, -31454.201812052946, -42131.96541451996, -0.014, 0.966, 0.194, 192.0, 0.0, 0.0, 0.0, 0.0, 0.0, 0.0, 0.0, 0.0, 0.0, 1.695675233530849E9, 0.0, 2023-09-25 15:53:53.530
114.0, -187500.02235174447, 3628.2245669632634, -16763.003678679906, -37210.69243081718, -15885.116563453266, -39256.77111825599, -187500.02235174447, -47384.02186441683, 12554.661936123603, -11994.191943906779, -54522.63260157497, -52116.33320049444, -42764.98916923871, -39077.107796324235, -31454.80530915324, -42172.42207198407, -0.014, 0.966, 0.194, 192.0, 0.0, 0.0, 0.0, 0.0, 0.0, 0.0, 0.0, 0.0, 0.0, 1.695675233530852E9, 0.0, 2023-09-25 15:53:53.530
116.0, -187500.02235174447, 3605.515194596672, -16772.011431695395, -37221.55537862246, -15888.201104188098, -39264.28130439297, -187500.02235174447, -47393.99074244389, 12604.707491959036, -11996.807098008048, -54531.103912723534, -52126.436188988235, -42764.85505877198, -39088.37307552971, -31461.242611556365, -42153.803068852794, -0.014, 0.966, 0.194, 192.0, 0.0, 0.0, 0.0, 0.0, 0.0, 0.0, 0.0, 0.0, 0.0, 1.695675233530856E9, 0.0, 2023-09-25 15:53:53.530
118.0, -187500.02235174447, 3617.6745435803587, -16779.052231198817, -37229.42319267073, -15898.371147915263, -39276.97709524359, -187500.02235174447, -47405.65835304956, 12549.72220059898, -12006.150127190367, -54539.59757561655, -52143.08823860744, -42779.67426534585, -39100.19714834656, -31474.18427159599, -42167.504688203895, -0.008, 0.93, 0.228, 192.0, 127.5, 96.0, 14.5, 8.0, 3.5, 16.0, 0.0, 0.0, 0.0, 1.695675233530859E9, 0.0, 2023-09-25 15:53:53.530
120.0, -187500.02235174447, 3604.1964416738087, -16765.75294324791, -37204.18807318069, -15887.552903598895, -39276.10537720983, -187500.02235174447, -47393.43194883251, 12621.672466000613, -12008.631170824907, -54542.16802622891, -52140.29427055053, -42781.104776990986, -39109.540177528885, -31478.744027464872, -42137.70981284497, -0.008, 0.93, 0.228, 192.0, 0.0, 0.0, 0.0, 0.0, 0.0, 0.0, 0.0, 0.0, 0.0, 1.695675233591209E9, 0.0, 2023-09-25 15:53:53.591
122.0, -187500.02235174447, 3592.528831068138, -16760.008544922894, -37194.30860213144, -15890.726851311549, -39270.316275395904, -187500.02235174447, -47394.214259888446, 12549.096351754231, -12000.942170732282, -54522.69965680834, -52116.4002557278, -42775.56154436607, -39091.79289243137, -31461.84610865666, -42176.26657203038, -0.008, 0.93, 0.228, 192.0, 0.0, 0.0, 0.0, 0.0, 0.0, 0.0, 0.0, 0.0, 0.0, 1.695675233591221E9, 0.0, 2023-09-25 15:53:53.591
124.0, -187500.02235174447, 3603.3247236400516, -16749.972611662462, -37182.57393629241, -15887.932883254634, -39271.41151087422, -187500.02235174447, -47388.22399237442, 12606.249762326452, -12013.302685416065, -54531.394485401455, -52125.095084320914, -42774.89099203241, -39103.862834437234, -31467.098768603657, -42155.47944968694, -0.008, 0.93, 0.228, 192.0, 0.0, 0.0, 0.0, 0.0, 0.0, 0.0, 0.0, 0.0, 0.0, 1.695675233591224E9, 0.0, 2023-09-25 15:53:53.591
126.0, -187500.02235174447, 3613.2265464337524, -16744.78700694883, -37180.65168626925, -15890.659796078182, -39272.59615333035, -187500.02235174447, -47389.028655174814, 12554.39371519014, -12003.154993433356, -54525.13599695397, -52131.890014635326, -42777.70731183378, -39096.41970353362, -31462.40490226804, -42188.85060415872, -0.008, 0.93, 0.228, 192.0, 0.0, 0.0, 0.0, 0.0, 0.0, 0.0, 0.0, 0.0, 0.0, 1.695675233591227E9, 0.0, 2023-09-25 15:53:53.591
128.0, -187500.02235174447, 3602.47535735075, -16742.663591225577, -37186.84311948337, -15899.220514204564, -39276.08302546538, -187500.02235174447, -47398.10346342367, 12592.369329019706, -12006.016016723635, -54531.01450574571, -52141.21069207319, -42778.154346722884, -39108.44494205057, -31470.920916905514, -42177.74178716443, -0.008, 0.964, 0.23600000000000002, 192.0, 127.5, 96.0, 15.0, 16.0, 3.5, 48.0, 0.0, 0.0, 0.0, 1.695675233591231E9, 0.0, 2023-09-25 15:53:53.591
130.0, -187500.02235174447, 3621.407284904395, -16713.271047266848, -37166.25716284003, -15882.81433377437, -39266.49412709405, -187500.02235174447, -47380.222067859424, 12559.311098970307, -11996.091842185479, -54521.537366096665, -52131.01829660157, -42784.7481113372, -39093.73749419898, -31468.506928504343, -42205.52500552237, -0.008, 0.964, 0.23600000000000002, 192.0, 0.0, 0.0, 0.0, 0.0, 0.0, 0.0, 0.0, 0.0, 0.0, 1.695675233591234E9, 0.0, 2023-09-25 15:53:53.591
132.0, -187500.02235174447, 3619.462683136783, -16710.342968743204, -37169.38640706377, -15889.341043155318, -39263.141365425756, -187500.02235174447, -47388.17928888551, 12566.038974051355, -11986.167667647323, -54506.67345603388, -52123.26224127558, -42765.39150063891, -39087.2778400514, -31454.715902175416, -42208.22956660147, -0.008, 0.964, 0.23600000000000002, 192.0, 0.0, 0.0, 0.0, 0.0, 0.0, 0.0, 0.0, 0.0, 0.0, 1.695675233591237E9, 0.0, 2023-09-25 15:53:53.591
134.0, -187500.02235174447, 3632.7172675987804, -16704.084480295718, -37165.18427910618, -15887.754069298991, -39264.169545670695, -187500.02235174447, -47390.2356493754, 12555.53365415736, -11983.239589123677, -54510.94263922485, -52132.18058731325, -42779.71896883476, -39087.61311621823, -31457.196945809956, -42211.67173524758, -0.008, 0.964, 0.23600000000000002, 192.0, 0.0, 0.0, 0.0, 0.0, 0.0, 0.0, 0.0, 0.0, 0.0, 1.69567523359124E9, 0.0, 2023-09-25 15:53:53.591
136.0, -187500.02235174447, 3638.1934449903306, -16696.373128458636, -37163.463194783115, -15893.029080990444, -39255.7652897555, -187500.02235174447, -47390.30270460877, 12556.360668702206, -11983.776030990604, -54508.28278163467, -52130.23598554564, -42767.85019252899, -39088.50718599644, -31453.821832397203, -42212.78932247035, -0.008, 0.964, 0.23600000000000002, 192.0, 0.0, 0.0, 0.0, 0.0, 0.0, 0.0, 0.0, 0.0, 0.0, 1.6956752336514E9, 0.0, 2023-09-25 15:53:53.651
138.0, -187500.02235174447, 3666.736622659758, -16673.149665969573, -37148.42047076469, -15882.009670973977, -39247.405737329216, -187500.02235174447, -47379.75268122586, 12570.643433409148, -11955.813998677017, -54493.4635750608, -52125.43036048775, -42764.78800353861, -39072.92802011109, -31447.02690208279, -42206.9108136786, -0.018000000000000002, 1.006, 0.22, 192.0, 127.5, 56.0, 15.5, 56.0, 3.0, 112.0, 0.0, 0.0, 0.0, 1.695675233651408E9, 0.0, 2023-09-25 15:53:53.651
140.0, -187500.02235174447, 3621.340229671029, -16691.947483056483, -37167.84413669636, -15904.182601473643, -39256.078214177876, -187500.02235174447, -47403.780806515315, 12560.093410026242, -11969.895597683859, -54497.68805476285, -52128.604308200396, -42760.9435034923, -39089.53536624138, -31453.643018441562, -42207.000220656424, -0.018000000000000002, 1.006, 0.22, 192.0, 0.0, 0.0, 0.0, 0.0, 0.0, 0.0, 0.0, 0.0, 0.0, 1.695675233651412E9, 0.0, 2023-09-25 15:53:53.651
142.0, -187500.02235174447, 3631.7337908427467, -16679.475209650423, -37157.40587203573, -15887.105868709788, -39264.951856726635, -187500.02235174447, -47394.2366116329, 12583.093355070754, -11981.339690844976, -54495.877563461974, -52120.17770054075, -42773.86281178747, -39091.03293311989, -31457.71103593243, -42212.76697072589, -0.018000000000000002, 1.006, 0.22, 192.0, 0.0, 0.0, 0.0, 0.0, 0.0, 0.0, 0.0, 0.0, 0.0, 1.695675233651415E9, 0.0, 2023-09-25 15:53:53.651
144.0, -187500.02235174447, 3642.7532008592134, -16688.39355568809, -37168.46998554111, -15894.392537402218, -39252.077251920375, -187500.02235174447, -47399.19869890198, 12538.948659771522, -11976.1764378758, -54488.43443255835, -52110.767616125064, -42756.11552668995, -39084.5285754834, -31452.257210285334, -42231.14010466816, -0.018000000000000002, 1.006, 0.22, 192.0, 0.0, 0.0, 0.0, 0.0, 0.0, 0.0, 0.0, 0.0, 0.0, 1.695675233651418E9, 0.0, 2023-09-25 15:53:53.651
146.0, -187500.02235174447, 3637.701706612314, -16701.804602361277, -37179.26587811302, -15904.339063684829, -39260.63797004676, -187500.02235174447, -47409.14522518459, 12586.423764994594, -11978.523371043608, -54499.856173975015, -52123.23988953113, -42766.196163439294, -39088.01544761842, -31466.51762324782, -42205.748522966926, -0.018000000000000002, 1.006, 0.22, 192.0, 0.0, 0.0, 0.0, 0.0, 0.0, 0.0, 0.0, 0.0, 0.0, 1.695675233651421E9, 0.0, 2023-09-25 15:53:53.651
148.0, -187500.02235174447, 3640.249805480219, -16709.135974542616, -37184.18326189319, -15909.614075376283, -39256.50289732253, -187500.02235174447, -47410.8886612521, 12538.81454930479, -11973.963615174725, -54501.57725829807, -52120.02123832956, -42761.32348314804, -39083.321581282806, -31471.859690172638, -42220.47832256297, -0.026000000000000002, 1.016, 0.2, 192.0, 127.5, 24.0, 15.5, 96.0, 3.0, 32.0, 0.0, 0.0, 0.0, 1.695675233651425E9, 0.0, 2023-09-25 15:53:53.651
150.0, -187500.02235174447, 3651.693898641336, -16705.202067518483, -37178.55062229045, -15892.872618779258, -39260.95089446913, -187500.02235174447, -47397.29880062328, 12599.074852356298, -11977.428135565298, -54506.293476378145, -52119.3506859959, -42760.9435034923, -39079.43237774758, -31467.99283838187, -42191.80103442682, -0.026000000000000002, 1.016, 0.2, 192.0, 0.0, 0.0, 0.0, 0.0, 0.0, 0.0, 0.0, 0.0, 0.0, 1.695675233710737E9, 0.0, 2023-09-25 15:53:53.710
152.0, -187500.02235174447, 3637.5899478900374, -16709.314788498257, -37183.02097118151, -15893.699633324104, -39263.25312414803, -187500.02235174447, -47404.71957978244, 12545.542424385838, -11991.599141549963, -54508.4168921014, -52122.16700579727, -42752.11456443245, -39087.523709240406, -31459.99091386687, -42209.168339868585, -0.026000000000000002, 1.016, 0.2, 192.0, 0.0, 0.0, 0.0, 0.0, 0.0, 0.0, 0.0, 0.0, 0.0, 1.695675233710749E9, 0.0, 2023-09-25 15:53:53.710
154.0, -187500.02235174447, 3647.469418939283, -16709.314788498257, -37173.87910769929, -15887.642310576715, -39261.55439156943, -187500.02235174447, -47396.158861656055, 12598.672520956103, -11986.502943814152, -54501.51020306471, -52107.16898526776, -42733.60732002346, -39074.47029047851, -31455.364102764623, -42195.265554817386, -0.026000000000000002, 1.016, 0.2, 192.0, 0.0, 0.0, 0.0, 0.0, 0.0, 0.0, 0.0, 0.0, 0.0, 1.695675233710753E9, 0.0, 2023-09-25 15:53:53.710
156.0, -187500.02235174447, 3633.3878199324395, -16722.457614237977, -37183.73622700408, -15896.806525803391, -39263.85662124832, -187500.02235174447, -47404.67487629353, 12519.502642095405, -12006.820679524028, -54504.28181937717, -52103.011560799074, -42727.08061064251, -39082.18164231558, -31461.309666789733, -42231.967119213004, -0.026000000000000002, 1.016, 0.2, 192.0, 0.0, 0.0, 0.0, 0.0, 0.0, 0.0, 0.0, 0.0, 0.0, 1.695675233710757E9, 0.0, 2023-09-25 15:53:53.710
158.0, -187500.02235174447, 3634.416000177384, -16728.827861407743, -37181.12107290281, -15900.651025849704, -39269.39985387324, -187500.02235174447, -47403.37847511512, 12590.380023763184, -12014.979066250215, -54513.4683863483, -52108.197165512705, -42728.86875019893, -39091.9270028981, -31474.407789040542, -42205.97204041148, -0.018000000000000002, 1.016, 0.19, 192.0, 127.5, 56.0, 15.5, 96.0, 2.5, 120.0, 0.0, 0.0, 0.0, 1.695675233710762E9, 0.0, 2023-09-25 15:53:53.710
160.0, -187500.02235174447, 3649.3022619846183, -16711.907590855073, -37159.909267414725, -15879.014537216966, -39252.12195540928, -187500.02235174447, -47377.204582357954, 12523.235383419442, -12005.792499279083, -54508.05926419012, -52099.30117121949, -42728.824046710026, -39078.11362482472, -31465.1765185805, -42230.558959312315, -0.018000000000000002, 1.016, 0.19, 192.0, 0.0, 0.0, 0.0, 0.0, 0.0, 0.0, 0.0, 0.0, 0.0, 1.695675233710765E9, 0.0, 2023-09-25 15:53:53.710
162.0, -187500.02235174447, 3658.6452911669367, -16722.390559004612, -37158.366997047306, -15882.52376109645, -39252.59134204285, -187500.02235174447, -47381.67493124902, 12587.854276639733, -12002.350330632966, -54507.187546156354, -52093.48971766111, -42720.486846028194, -39070.71519741001, -31459.812099911225, -42200.652325231116, -0.018000000000000002, 1.016, 0.19, 192.0, 0.0, 0.0, 0.0, 0.0, 0.0, 0.0, 0.0, 0.0, 0.0, 1.695675233710768E9, 0.0, 2023-09-25 15:53:53.710
164.0, -187500.02235174447, 3650.889235840945, -16728.961971874473, -37162.30090407144, -15888.894008266212, -39250.736147253054, -187500.02235174447, -47383.70893999445, 12523.637714819637, -11998.371720119922, -54505.82408974458, -52093.087386260915, -42725.515988530635, -39064.970799085, -31460.214431311422, -42222.512331308404, -0.018000000000000002, 1.016, 0.19, 192.0, 0.0, 0.0, 0.0, 0.0, 0.0, 0.0, 0.0, 0.0, 0.0, 1.695675233710771E9, 0.0, 2023-09-25 15:53:53.710
166.0, -187500.02235174447, 3656.588930677048, -16716.40029149059, -37143.10075558433, -15876.935824982624, -39243.24831286053, -187500.02235174447, -47371.057852632744, 12609.02137863891, -11997.56705731953, -54504.10300542152, -52091.36630193786, -42723.39257280738, -39065.73075839648, -31469.110425604635, -42182.480356988955, -0.018000000000000002, 1.016, 0.19, 192.0, 0.0, 0.0, 0.0, 0.0, 0.0, 0.0, 0.0, 0.0, 0.0, 1.695675233771568E9, 0.0, 2023-09-25 15:53:53.771
168.0, -187500.02235174447, 3662.109811557509, -16713.203992033483, -37140.93263637217, -15874.85711274828, -39243.695347749635, -187500.02235174447, -47371.057852632744, 12537.495796381927, -11986.033557180592, -54493.776499483174, -52082.44795590019, -42720.620956494924, -39051.62680764518, -31468.059893615235, -42214.84568296024, -0.008, 1.01, 0.184, 192.0, 127.5, 96.0, 15.5, 72.0, 2.5, 96.0, 0.0, 0.0, 0.0, 1.695675233771578E9, 0.0, 2023-09-25 15:53:53.771
170.0, -187500.02235174447, 3675.3867477639615, -16712.10875655517, -37137.69163342615, -15872.353717369286, -39240.18612387015, -187500.02235174447, -47367.45922177544, 12579.852352124733, -11984.737156002184, -54489.61907501448, -52079.318711676446, -42709.243918567176, -39052.02913904538, -31470.160957594035, -42199.668848475085, -0.008, 1.01, 0.184, 192.0, 0.0, 0.0, 0.0, 0.0, 0.0, 0.0, 0.0, 0.0, 0.0, 1.695675233771581E9, 0.0, 2023-09-25 15:53:53.771
172.0, -187500.02235174447, 3667.362471504506, -16712.756957144375, -37137.02108109249, -15878.209874416576, -39245.05880416141, -187500.02235174447, -47371.03550088829, 12527.10223521021, -11983.351347845954, -54489.0602814031, -52083.49848788959, -42717.69287797128, -39053.99609255744, -31475.860652430136, -42215.046848660335, -0.008, 1.01, 0.184, 192.0, 0.0, 0.0, 0.0, 0.0, 0.0, 0.0, 0.0, 0.0, 0.0, 1.695675233771586E9, 0.0, 2023-09-25 15:53:53.771
174.0, -187500.02235174447, 3662.243922024241, -16725.430396250536, -37143.68190094017, -15890.592740844815, -39249.01506293, -187500.02235174447, -47377.04812014677, 12579.24885502444, -11991.308568872044, -54499.565601297094, -52093.46736591666, -42721.671488484324, -39067.384787486175, -31490.724562492916, -42189.72232219247, -0.008, 1.01, 0.184, 192.0, 0.0, 0.0, 0.0, 0.0, 0.0, 0.0, 0.0, 0.0, 0.0, 1.69567523377159E9, 0.0, 2023-09-25 15:53:53.771
176.0, -187500.02235174447, 3682.405195522928, -16715.7967943903, -37134.54003745795, -15881.13795294022, -39250.758498997515, -187500.02235174447, -47370.789631699285, 12543.687229596047, -11978.858647210438, -54491.11664189299, -52085.73366233512, -42726.47711354221, -39052.1185460232, -31482.767341466828, -42206.03909564485, -0.008, 1.01, 0.184, 192.0, 0.0, 0.0, 0.0, 0.0, 0.0, 0.0, 0.0, 0.0, 0.0, 1.695675233771593E9, 0.0, 2023-09-25 15:53:53.771
178.0, -187500.02235174447, 3665.4849249702606, -16731.286553297825, -37146.58762771936, -15899.600493860306, -39257.2181531451, -187500.02235174447, -47387.151108640566, 12571.112820042708, -11986.190019391779, -54493.083595405056, -52086.225400713134, -42718.49754077167, -39061.8192031168, -31488.735257236396, -42193.790339683335, -0.002, 1.016, 0.176, 192.0, 127.5, 120.0, 15.5, 96.0, 2.5, 64.0, 0.0, 0.0, 0.0, 1.695675233771596E9, 0.0, 2023-09-25 15:53:53.771
180.0, -187500.02235174447, 3671.8775238844783, -16721.720006670952, -37134.42827873567, -15883.887217508223, -39263.23077240357, -187500.02235174447, -47375.14822186807, 12567.894168841145, -11989.721595015717, -54503.54421181014, -52097.60243864089, -42736.60245378047, -39064.83668861827, -31499.397039341577, -42195.131444350656, -0.002, 1.016, 0.176, 192.0, 0.0, 0.0, 0.0, 0.0, 0.0, 0.0, 0.0, 0.0, 0.0, 1.695675233771599E9, 0.0, 2023-09-25 15:53:53.771
182.0, -187500.02235174447, 3660.500485956727, -16725.83272765073, -37145.20181956313, -15878.791019772414, -39253.08308042087, -187500.02235174447, -47371.974274155415, 12565.033145550866, -11976.109382642435, -54488.16621162489, -52081.86681054435, -42713.848377924965, -39057.61707515921, -31476.330039063698, -42203.222775843475, -0.002, 1.016, 0.176, 192.0, 0.0, 0.0, 0.0, 0.0, 0.0, 0.0, 0.0, 0.0, 0.0, 1.695675233831847E9, 0.0, 2023-09-25 15:53:53.831
184.0, -187500.02235174447, 3663.7191371582912, -16725.989189861917, -37145.11241258531, -15873.963042970068, -39268.662246306216, -187500.02235174447, -47364.66525371853, 12583.450982982038, -11996.13654567439, -54509.93681072436, -52105.73847362262, -42737.764744492146, -39076.817223646314, -31487.550614780263, -42185.83311865725, -0.002, 1.016, 0.176, 192.0, 0.0, 0.0, 0.0, 0.0, 0.0, 0.0, 0.0, 0.0, 0.0, 1.695675233831857E9, 0.0, 2023-09-25 15:53:53.831
186.0, -187500.02235174447, 3663.495619713738, -16729.185489319025, -37150.29801729894, -15887.441144876617, -39252.59134204285, -187500.02235174447, -47365.08993686318, 12563.669689139091, -11983.37369959041, -54498.246848374234, -52092.21566822716, -42721.73854371769, -39064.7696333849, -31477.313515819733, -42202.86514793219, -0.002, 1.016, 0.176, 192.0, 0.0, 0.0, 0.0, 0.0, 0.0, 0.0, 0.0, 0.0, 0.0, 1.695675233831861E9, 0.0, 2023-09-25 15:53:53.831
188.0, -187500.02235174447, 3671.609302951015, -16720.647122937098, -37145.24652305204, -15881.13795294022, -39265.95768522712, -187500.02235174447, -47362.89946590656, 12596.951436633044, -11983.843086223971, -54504.59474379954, -52098.42945318574, -42733.58496827901, -39066.73658689697, -31483.124969378114, -42188.560031480796, -0.004, 1.016, 0.176, 192.0, 127.5, 112.0, 15.5, 96.0, 2.5, 64.0, 0.0, 0.0, 0.0, 1.695675233831866E9, 0.0, 2023-09-25 15:53:53.831
190.0, -187500.02235174447, 3675.3867477639615, -16713.06988156675, -37143.70425268463, -15882.724926796547, -39254.804164743924, -187500.02235174447, -47361.46895426142, 12570.799895620334, -11983.820734479516, -54501.44314783134, -52092.72975834963, -42725.44893329727, -39069.30703750933, -31482.096789133167, -42204.74269446644, -0.004, 1.016, 0.176, 192.0, 0.0, 0.0, 0.0, 0.0, 0.0, 0.0, 0.0, 0.0, 0.0, 1.695675233831869E9, 0.0, 2023-09-25 15:53:53.831
192.0, -187500.02235174447, 3668.8376866385565, -16719.775404903343, -37152.51084000002, -15894.124316468755, -39258.0675194344, -187500.02235174447, -47373.024806144815, 12606.406224537639, -11986.32412985851, -54501.97958969827, -52091.008674026576, -42727.12531413142, -39068.278857264384, -31486.164806624034, -42195.332610050755, -0.004, 1.016, 0.176, 192.0, 0.0, 0.0, 0.0, 0.0, 0.0, 0.0, 0.0, 0.0, 0.0, 1.695675233831872E9, 0.0, 2023-09-25 15:53:53.831
194.0, -187500.02235174447, 3649.9504625738223, -16717.428471735533, -37156.15417434623, -15888.223455932553, -39264.57187707089, -187500.02235174447, -47377.53985852478, 12579.382965491173, -11995.175420662812, -54506.584049056066, -52101.42458694275, -42734.546093290584, -39076.41489224612, -31494.122027650123, -42206.0614473893, -0.004, 1.016, 0.176, 192.0, 0.0, 0.0, 0.0, 0.0, 0.0, 0.0, 0.0, 0.0, 0.0, 1.695675233831875E9, 0.0, 2023-09-25 15:53:53.831
196.0, -187500.02235174447, 3659.494657456238, -16703.235114006417, -37142.5196102285, -15864.441199832107, -39262.00142645853, -187500.02235174447, -47360.865457161126, 12617.44798629856, -11985.966501947225, -54495.43052857286, -52093.10973800537, -42719.97275590572, -39063.942618840054, -31472.776111695304, -42198.21598508549, -0.004, 1.016, 0.176, 192.0, 0.0, 0.0, 0.0, 0.0, 0.0, 0.0, 0.0, 0.0, 0.0, 1.695675233892075E9, 0.0, 2023-09-25 15:53:53.892
198.0, -187500.02235174447, 3654.0631835535987, -16720.892992126108, -37162.21149709362, -15880.847380262303, -39257.24050488955, -187500.02235174447, -47371.19196309948, 12555.488950668449, -11994.817792751526, -54500.10204316402, -52097.04364502951, -42717.201139593264, -39071.54221195486, -31467.255230814844, -42222.512331308404, -0.006, 1.01, 0.186, 192.0, 127.5, 104.0, 15.5, 72.0, 2.5, 104.0, 0.0, 0.0, 0.0, 1.695675233892085E9, 0.0, 2023-09-25 15:53:53.892
200.0, -187500.02235174447, 3647.201198005819, -16726.413873006568, -37165.09487212836, -15885.630653575738, -39275.45717662063, -187500.02235174447, -47406.97710597242, 12631.484881816494, -12014.152051705367, -54521.82793877458, -52118.680133662245, -42737.31770960304, -39087.45665400704, -31484.80135021226, -42185.408435512596, -0.006, 1.01, 0.186, 192.0, 0.0, 0.0, 0.0, 0.0, 0.0, 0.0, 0.0, 0.0, 0.0, 1.695675233892089E9, 0.0, 2023-09-25 15:53:53.892
202.0, -187500.02235174447, 3664.456744725316, -16721.764710159863, -37161.093909870855, -15883.686051808127, -39260.97324621359, -187500.02235174447, -47385.45237606196, 12560.115761770698, -12003.199696922267, -54512.84253750355, -52104.50912767758, -42731.84153221149, -39076.459595735025, -31484.734294978894, -42219.07016266229, -0.006, 1.01, 0.186, 192.0, 0.0, 0.0, 0.0, 0.0, 0.0, 0.0, 0.0, 0.0, 0.0, 1.695675233892092E9, 0.0, 2023-09-25 15:53:53.892
204.0, -187500.02235174447, 3653.8843695979563, -16717.40611999108, -37156.82472667989, -15875.214740659565, -39255.47471707758, -187500.02235174447, -47343.83342788618, 12632.982448694998, -12006.530106846109, -54515.27887764918, -52109.247697502105, -42736.82597122502, -39078.44890099155, -31476.710018719437, -42179.99931335441, -0.006, 1.01, 0.186, 192.0, 0.0, 0.0, 0.0, 0.0, 0.0, 0.0, 0.0, 0.0, 0.0, 1.695675233892096E9, 0.0, 2023-09-25 15:53:53.892
206.0, -187500.02235174447, 3649.212855006797, -16706.11848904115, -37147.526400986484, -15866.89989172219, -39247.36103384031, -187500.02235174447, -47326.77904686678, 12577.572474190292, -12009.502888858664, -54508.394540356945, -52109.20299401319, -42738.34588984798, -39075.54317421236, -31459.298009788756, -42192.337476293746, -0.006, 1.01, 0.186, 192.0, 0.0, 0.0, 0.0, 0.0, 0.0, 0.0, 0.0, 0.0, 0.0, 1.695675233892099E9, 0.0, 2023-09-25 15:53:53.892
208.0, -187500.02235174447, 3658.466477211294, -16707.951332086486, -37146.43116550818, -15873.180731914132, -39247.472792562585, -187500.02235174447, -47340.45831447343, 12639.553861564858, -12004.965484734235, -54501.331389109066, -52097.06599677396, -42732.04269791159, -39067.720063653, -31453.55361146374, -42169.38223473814, -0.006, 0.996, 0.196, 192.0, 127.5, 104.0, 15.5, 16.0, 3.0, 16.0, 0.0, 0.0, 0.0, 1.695675233892103E9, 0.0, 2023-09-25 15:53:53.892
210.0, -187500.02235174447, 3672.793945407146, -16707.25842800837, -37145.9170753857, -15873.270138891952, -39252.90426646522, -187500.02235174447, -47356.238646058875, 12568.072982796786, -11999.645769553874, -54498.671531518885, -52095.948409551194, -42736.20012238027, -39063.56263918432, -31459.78974816677, -42199.62414498617, -0.006, 0.996, 0.196, 192.0, 0.0, 0.0, 0.0, 0.0, 0.0, 0.0, 0.0, 0.0, 0.0, 1.695675233892106E9, 0.0, 2023-09-25 15:53:53.892
212.0, -187500.02235174447, 3660.522837701182, -16717.808451391276, -37156.131822601776, -15886.994109987512, -39259.274513634984, -187500.02235174447, -47373.69535847847, 12631.551937049859, -11994.817792751526, -54502.69484552084, -52095.27785721754, -42734.613148523946, -39068.05533981983, -31468.216355826422, -42175.39485399662, -0.006, 0.996, 0.196, 192.0, 0.0, 0.0, 0.0, 0.0, 0.0, 0.0, 0.0, 0.0, 0.0, 1.695675233952392E9, 0.0, 2023-09-25 15:53:53.952
214.0, -187500.02235174447, 3648.207026506308, -16722.055282837784, -37164.46902328361, -15892.939674012623, -39267.41054861672, -187500.02235174447, -47380.512640537345, 12573.236235765962, -12003.959656233747, -54511.7696537697, -52103.16802301026, -42749.83468649801, -39075.05143583434, -31473.960754151438, -42197.008990884904, -0.006, 0.996, 0.196, 192.0, 0.0, 0.0, 0.0, 0.0, 0.0, 0.0, 0.0, 0.0, 0.0, 1.695675233952402E9, 0.0, 2023-09-25 15:53:53.952
216.0, -187500.02235174447, 3664.702613914325, -16712.891067611108, -37151.77323243299, -15879.930958739635, -39267.49995559454, -187500.02235174447, -47370.90139042156, 12642.392533110684, -12006.775976035116, -54509.847403746535, -52099.25646773058, -42746.39251785189, -39079.99117135897, -31472.597297739663, -42172.17620279505, -0.006, 0.996, 0.196, 192.0, 0.0, 0.0, 0.0, 0.0, 0.0, 0.0, 0.0, 0.0, 0.0, 1.695675233952405E9, 0.0, 2023-09-25 15:53:53.952
218.0, -187500.02235174447, 3657.952387088822, -16722.7481869159, -37162.770290705004, -15891.173886200653, -39274.98778998706, -187500.02235174447, -47377.40574805805, 12577.371308490196, -12001.210391665745, -54504.17006065489, -52100.3964066978, -42742.68212827231, -39075.78904340137, -31466.092940103168, -42200.361752553195, -0.004, 0.988, 0.20400000000000001, 192.0, 127.5, 112.0, 15.0, 112.0, 3.0, 48.0, 0.0, 0.0, 0.0, 1.695675233952408E9, 0.0, 2023-09-25 15:53:53.952
220.0, -187500.02235174447, 3666.5801604485705, -16717.696692669, -37156.0200638795, -15887.105868709788, -39266.38236837177, -187500.02235174447, -47392.604934287665, 12633.250669628462, -11997.18707766379, -54508.48394733477, -52104.46442418867, -42743.12916316142, -39079.83470914778, -31476.821777441717, -42176.84771738621, -0.004, 0.988, 0.20400000000000001, 192.0, 0.0, 0.0, 0.0, 0.0, 0.0, 0.0, 0.0, 0.0, 0.0, 1.695675233952413E9, 0.0, 2023-09-25 15:53:53.952
222.0, -187500.02235174447, 3663.5179714581936, -16717.808451391276, -37161.04920638195, -15886.837647776325, -39269.19868817314, -187500.02235174447, -47381.89844869357, 12582.892189370656, -11990.70507177175, -54503.23128738777, -52098.630618885836, -42747.15247716338, -39071.27399102139, -31472.95492565095, -42199.42297928607, -0.004, 0.988, 0.20400000000000001, 192.0, 0.0, 0.0, 0.0, 0.0, 0.0, 0.0, 0.0, 0.0, 0.0, 1.695675233952416E9, 0.0, 2023-09-25 15:53:53.952
224.0, -187500.02235174447, 3652.0068230637103, -16716.087367068216, -37156.0200638795, -15885.518894853461, -39268.90811549522, -187500.02235174447, -47374.768242212325, 12628.489748059483, -12001.56801957703, -54509.4674240908, -52103.011560799074, -42741.56454104955, -39083.41098826063, -31470.60799248314, -42176.333627263746, -0.004, 0.988, 0.20400000000000001, 192.0, 0.0, 0.0, 0.0, 0.0, 0.0, 0.0, 0.0, 0.0, 0.0, 1.695675233952419E9, 0.0, 2023-09-25 15:53:53.952
226.0, -187500.02235174447, 3640.1603985023976, -16720.11068107017, -37158.14347960275, -15892.604397845793, -39263.56604857041, -187500.02235174447, -47378.0315969028, 12589.932988874078, -11995.51069682964, -54504.88531647746, -52099.9940752976, -42746.213703896254, -39071.9221916106, -31471.4797105169, -42190.28111580385, -0.004, 0.988, 0.20400000000000001, 192.0, 0.0, 0.0, 0.0, 0.0, 0.0, 0.0, 0.0, 0.0, 0.0, 1.695675234011256E9, 0.0, 2023-09-25 15:53:54.011
228.0, -187500.02235174447, 3647.9835090617553, -16725.005713105886, -37160.468061026106, -15888.156400699187, -39260.883839235765, -187500.02235174447, -47366.94513165297, 12621.672466000613, -12011.961580748748, -54515.591802071554, -52112.01931381456, -42749.499410331184, -39087.97074412951, -31480.487463532387, -42167.929371348546, 0.002, 0.984, 0.214, 192.0, 0.0, 8.0, 15.0, 96.0, 3.0, 88.0, 0.0, 0.0, 0.0, 1.69567523401127E9, 0.0, 2023-09-25 15:53:54.011
230.0, -187500.02235174447, 3626.570537873571, -16733.477024254444, -37167.93354367418, -15895.33131066934, -39268.662246306216, -187500.02235174447, -47368.822678187214, 12611.25655308444, -12010.084034214502, -54522.297325408144, -52120.26710751857, -42756.27198890114, -39087.54606098486, -31477.80525419775, -42165.71654864747, 0.002, 0.984, 0.214, 192.0, 0.0, 0.0, 0.0, 0.0, 0.0, 0.0, 0.0, 0.0, 0.0, 1.695675234011273E9, 0.0, 2023-09-25 15:53:54.011
232.0, -187500.02235174447, 3619.596793603515, -16744.11645461517, -37180.383465335784, -15904.607284618294, -39273.132595197276, -187500.02235174447, -47390.61562903114, 12627.752140492457, -12024.769130321638, -54526.499453365745, -52126.19031979923, -42754.77442202264, -39097.716104712024, -31486.65654500205, -42160.82151661176, 0.002, 0.984, 0.214, 192.0, 0.0, 0.0, 0.0, 0.0, 0.0, 0.0, 0.0, 0.0, 0.0, 1.695675234011277E9, 0.0, 2023-09-25 15:53:54.011
234.0, -187500.02235174447, 3640.4733229247718, -16739.534347001834, -37176.44955831165, -15897.72294732606, -39283.63791509127, -187500.02235174447, -47390.90620170906, 12639.9338412206, -12021.66223784235, -54524.197223686846, -52128.09021807793, -42761.32348314804, -39095.346819799764, -31484.533129278796, -42162.49789744591, 0.002, 0.984, 0.214, 192.0, 0.0, 0.0, 0.0, 0.0, 0.0, 0.0, 0.0, 0.0, 0.0, 1.69567523401128E9, 0.0, 2023-09-25 15:53:54.011
236.0, -187500.02235174447, 3622.6142791049815, -16751.492530285424, -37191.55933756344, -15913.726796356059, -39286.476586637094, -187500.02235174447, -47408.00528621737, 12624.131157890697, -12024.210336710255, -54524.64425857595, -52131.42062800177, -42756.27198890114, -39103.32639257031, -31494.14437939458, -42173.33849350673, 0.002, 0.984, 0.214, 192.0, 0.0, 0.0, 0.0, 0.0, 0.0, 0.0, 0.0, 0.0, 0.0, 1.695675234011284E9, 0.0, 2023-09-25 15:53:54.011
238.0, -187500.02235174447, 3625.7435233287247, -16741.344838302713, -37179.1764711352, -15901.679206094648, -39294.9255460412, -187500.02235174447, -47394.19190814399, 12670.041641001897, -12028.85949955696, -54539.03878200517, -52142.41768627378, -42774.55571586558, -39114.59167177578, -31501.632213787107, -42151.52319091835, 0.002, 0.984, 0.214, 192.0, 0.0, 0.0, 15.0, 88.0, 3.0, 112.0, 0.0, 0.0, 0.0, 1.695675234011287E9, 0.0, 2023-09-25 15:53:54.011
240.0, -187500.02235174447, 3629.900947797412, -16731.152442831095, -37168.89466868576, -15895.778345558447, -39277.0217987325, -187500.02235174447, -47391.75556799836, 12628.959134693043, -12012.1850981933, -54525.11364520951, -52125.63152618784, -42754.46149760026, -39099.54894775736, -31490.054010159256, -42175.618371441175, 0.002, 0.984, 0.214, 192.0, 0.0, 0.0, 0.0, 0.0, 0.0, 0.0, 0.0, 0.0, 0.0, 1.69567523401129E9, 0.0, 2023-09-25 15:53:54.011
242.0, -187500.02235174447, 3641.05446828061, -16723.955181116486, -37156.914133657716, -15884.133086697233, -39272.79731903045, -187500.02235174447, -47371.683701477494, 12657.569367595837, -12000.1822114208, -54514.943601482344, -52113.40512197079, -42748.78415450861, -39085.19912781705, -31471.122082605612, -42168.01877832637, 0.002, 0.984, 0.214, 192.0, 0.0, 0.0, 0.0, 0.0, 0.0, 0.0, 0.0, 0.0, 0.0, 1.695675234071609E9, 0.0, 2023-09-25 15:53:54.071
244.0, -187500.02235174447, 3641.859131081001, -16737.16506208957, -37173.275610599, -15907.28949395293, -39277.84881327734, -187500.02235174447, -47389.43098657501, 12619.079663643797, -12008.206487680256, -54525.247755676246, -52126.011505843584, -42758.21659066875, -39099.54894775736, -31481.493292032876, -42174.38902549613, 0.002, 0.984, 0.214, 192.0, 0.0, 0.0, 0.0, 0.0, 0.0, 0.0, 0.0, 0.0, 0.0, 1.695675234071618E9, 0.0, 2023-09-25 15:53:54.071
246.0, -187500.02235174447, 3642.0379450366436, -16723.083463082727, -37160.31159881492, -15886.43531637613, -39281.46979587911, -187500.02235174447, -47376.04229164628, 12673.953196281576, -12004.496098100675, -54523.75018879774, -52126.90557562179, -42765.81618378356, -39094.855081421745, -31482.253251344355, -42155.03241479783, 0.002, 0.984, 0.214, 192.0, 0.0, 0.0, 0.0, 0.0, 0.0, 0.0, 0.0, 0.0, 0.0, 1.695675234071621E9, 0.0, 2023-09-25 15:53:54.071
248.0, -187500.02235174447, 3634.6395176219366, -16725.855079395187, -37164.245505839055, -15895.66658683617, -39272.66320856371, -187500.02235174447, -47376.7798992133, 12620.286657844385, -12007.245362668678, -54515.54709858264, -52118.747188895606, -42767.537268106615, -39096.64322097817, -31472.306725061742, -42174.12080456267, -0.004, 0.988, 0.216, 192.0, 127.5, 112.0, 15.0, 112.0, 3.0, 96.0, 0.0, 0.0, 0.0, 1.695675234071625E9, 0.0, 2023-09-25 15:53:54.071
250.0, -187500.02235174447, 3637.344078701029, -16723.441090994012, -37155.59538073485, -15885.80946753138, -39276.39594988775, -187500.02235174447, -47368.397995042564, 12688.12420226624, -12019.851746541472, -54524.15252019793, -52126.05620933249, -42776.634428099926, -39105.40510480465, -31484.644888001072, -42142.98482453643, -0.004, 0.988, 0.216, 192.0, 0.0, 0.0, 0.0, 0.0, 0.0, 0.0, 0.0, 0.0, 0.0, 1.695675234071629E9, 0.0, 2023-09-25 15:53:54.071
252.0, -187500.02235174447, 3620.468511637272, -16735.846309166707, -37172.761520476524, -15900.516915382972, -39275.92656325419, -187500.02235174447, -47385.13945163959, 12615.816308953323, -12010.03933072559, -54512.306095636624, -52114.12037779336, -42764.251561671685, -39093.55868024334, -31467.523451748308, -42172.53383070634, -0.004, 0.988, 0.216, 192.0, 0.0, 0.0, 0.0, 0.0, 0.0, 0.0, 0.0, 0.0, 0.0, 1.695675234071632E9, 0.0, 2023-09-25 15:53:54.071
254.0, -187500.02235174447, 3635.310069955596, -16739.735512701933, -37173.58853502137, -15902.483868895039, -39288.95763027163, -187500.02235174447, -47398.125815168125, 12709.246600776507, -12029.66416235735, -54534.255508691735, -52134.326354780955, -42783.22819271424, -39110.724819985015, -31488.08705664719, -42127.517417373354, -0.004, 0.988, 0.216, 192.0, 0.0, 0.0, 0.0, 0.0, 0.0, 0.0, 0.0, 0.0, 0.0, 1.695675234071635E9, 0.0, 2023-09-25 15:53:54.071
0.0, -187500.02235174447, 3618.7474273142134, -16749.056190139796, -37184.160910148734, -15914.464403923084, -39290.83517680588, -187500.02235174447, -47410.843957763194, 12651.154416937163, -12032.301668203077, -54535.90953778142, -52137.4555990047, -42786.80447182709, -39110.791875218376, -31492.71386774944, -42159.05572879979, -0.004, 0.988, 0.216, 192.0, 0.0, 0.0, 0.0, 0.0, 0.0, 0.0, 0.0, 0.0, 0.0, 1.695675234131878E9, 0.0, 2023-09-25 15:53:54.131
2.0, -187500.02235174447, 3630.8397210645344, -16751.93956517453, -37179.08706415738, -15912.229229477553, -39292.37744717329, -187500.02235174447, -47408.36291412865, 12726.926830640654, -12039.118950261945, -54538.63645060497, -52140.83071241745, -42790.33604745103, -39114.16698863113, -31500.022888186326, -42140.3473186907, -0.002, 0.982, 0.21, 192.0, 127.5, 120.0, 15.0, 88.0, 3.0, 72.0, 0.0, 0.0, 0.0, 1.695675234131891E9, 0.0, 2023-09-25 15:53:54.131
4.0, -187500.02235174447, 3631.085590253543, -16742.373018547656, -37168.69350298566, -15906.52953464145, -39286.45423489264, -187500.02235174447, -47382.36783532713, 12669.773420068434, -12038.962488050758, -54538.45763664933, -52142.08241010695, -42795.09696902001, -39112.08827639679, -31497.00540268486, -42166.63297017014, -0.002, 0.982, 0.21, 192.0, 0.0, 0.0, 0.0, 0.0, 0.0, 0.0, 0.0, 0.0, 0.0, 1.695675234131894E9, 0.0, 2023-09-25 15:53:54.131
6.0, -187500.02235174447, 3647.3353084725513, -16715.506221712378, -37142.5196102285, -15884.736583797525, -39268.97517072859, -187500.02235174447, -47361.51365775033, 12718.053188091897, -12020.790519808594, -54516.709389294316, -52122.36817149737, -42772.47700363124, -39095.36917154422, -31469.64686747156, -42156.90996133208, -0.002, 0.982, 0.21, 192.0, 0.0, 0.0, 0.0, 0.0, 0.0, 0.0, 0.0, 0.0, 0.0, 1.695675234131898E9, 0.0, 2023-09-25 15:53:54.131
8.0, -187500.02235174447, 3632.113770498487, -16721.31767527076, -37159.79750869245, -15897.074746736855, -39281.82742379039, -187500.02235174447, -47382.85957370515, 12635.955230707554, -12025.126758232924, -54512.66372354791, -52123.32929650895, -42772.991093753706, -39097.716104712024, -31470.85386167215, -42186.30250529081, -0.002, 0.982, 0.21, 192.0, 0.0, 0.0, 0.0, 0.0, 0.0, 0.0, 0.0, 0.0, 0.0, 1.695675234131901E9, 0.0, 2023-09-25 15:53:54.131
10.0, -187500.02235174447, 3634.125427499465, -16718.68016942503, -37156.623560979795, -15895.510124624983, -39275.30071440944, -187500.02235174447, -47380.7361579819, 12699.881219849733, -12032.43577866981, -54515.05536020463, -52129.81130240099, -42771.60528559748, -39105.49451178247, -31470.60799248314, -42153.62425489715, -0.002, 0.982, 0.21, 192.0, 0.0, 0.0, 0.0, 0.0, 0.0, 0.0, 0.0, 0.0, 0.0, 1.695675234131905E9, 0.0, 2023-09-25 15:53:54.131
12.0, -187500.02235174447, 3608.152700442398, -16728.13495732963, -37165.921886673204, -15905.769575329969, -39288.46589189362, -187500.02235174447, -47395.15303315557, 12663.671393832135, -12039.81185434006, -54527.14765395495, -52139.80253217251, -42791.00659978469, -39111.75300022996, -31480.71098097694, -42159.59217066672, -0.002, 0.992, 0.202, 192.0, 127.5, 120.0, 15.5, 0.0, 3.0, 40.0, 0.0, 0.0, 0.0, 1.69567523413191E9, 0.0, 2023-09-25 15:53:54.131
14.0, -187500.02235174447, 3610.5219853546605, -16728.045550351806, -37162.25620058253, -15901.656854350193, -39276.619467332304, -187500.02235174447, -47387.70990225195, 12709.380711243239, -12045.019810798147, -54527.393523143954, -52141.72478219566, -42785.642181115414, -39112.15533163015, -31475.458321029942, -42147.00813853838, -0.002, 0.992, 0.202, 192.0, 0.0, 0.0, 0.0, 0.0, 0.0, 0.0, 0.0, 0.0, 0.0, 1.695675234131914E9, 0.0, 2023-09-25 15:53:54.131
16.0, -187500.02235174447, 3615.372313901462, -16715.483869967924, -37149.22513356509, -15888.692842566115, -39278.25114467754, -187500.02235174447, -47380.3338265817, 12660.765667052945, -12041.734104363217, -54526.3206394101, -52147.692697965234, -42792.101835263, -39105.136883871186, -31475.771245452317, -42169.337531249235, -0.002, 0.992, 0.202, 192.0, 0.0, 0.0, 0.0, 0.0, 0.0, 0.0, 0.0, 0.0, 0.0, 1.695675234191383E9, 0.0, 2023-09-25 15:53:54.191
18.0, -187500.02235174447, 3612.086607466532, -16716.40029149059, -37146.63233120827, -15896.001863003, -39269.31044689542, -187500.02235174447, -47380.82556495972, 12664.40900139916, -12042.538767163607, -54521.537366096665, -52136.98621237114, -42777.03675950012, -39100.84534893577, -31470.339771549676, -42176.28892377483, -0.002, 0.992, 0.202, 192.0, 0.0, 0.0, 0.0, 0.0, 0.0, 0.0, 0.0, 0.0, 0.0, 1.695675234191394E9, 0.0, 2023-09-25 15:53:54.191
20.0, -187500.02235174447, 3594.5628398135714, -16719.820108392254, -37154.25427606753, -15900.494563638516, -39274.317237653406, -187500.02235174447, -47382.99368417188, 12608.641398983169, -12031.966392036247, -54523.973706242294, -52139.33314553895, -42784.63635261492, -39090.49649125296, -31472.731408206393, -42203.513348521396, -0.002, 0.992, 0.202, 192.0, 0.0, 0.0, 0.0, 0.0, 0.0, 0.0, 0.0, 0.0, 0.0, 1.695675234191398E9, 0.0, 2023-09-25 15:53:54.191
22.0, -187500.02235174447, 3549.211150313753, -16724.670436939054, -37160.26689532601, -15901.9027235392, -39282.87795577979, -187500.02235174447, -47387.508736551856, 12626.701608503057, -12073.585340212028, -54547.688907109376, -52169.75386974262, -42792.43711142983, -39119.4867038115, -31480.08513213219, -42180.82632789926, -0.002, 0.992, 0.202, 192.0, 0.0, 0.0, 15.5, 32.0, 3.0, 40.0, 0.0, 0.0, 0.0, 1.695675234191401E9, 0.0, 2023-09-25 15:53:54.191
24.0, -187500.02235174447, 3518.276335987608, -16727.08442534023, -37159.52928775898, -15906.104851496799, -39288.6223541048, -187500.02235174447, -47389.945076697484, 12595.878552899188, -12074.278244290143, -54551.578110644594, -52174.76066050061, -42802.47304469026, -39110.41189556264, -31479.66044898754, -42196.3607902957, -0.002, 0.992, 0.202, 192.0, 0.0, 0.0, 0.0, 0.0, 0.0, 0.0, 0.0, 0.0, 0.0, 1.695675234191405E9, 0.0, 2023-09-25 15:53:54.191
26.0, -187500.02235174447, 3492.840050797469, -16736.449806267003, -37169.36405531932, -15915.112604512287, -39281.380388901285, -187500.02235174447, -47396.583544800706, 12565.994270562443, -12084.761212439682, -54555.48966592427, -52180.77327975909, -42793.50999516368, -39111.5294827854, -31483.102617633656, -42210.04005790235, -0.002, 0.992, 0.202, 192.0, 0.0, 0.0, 0.0, 0.0, 0.0, 0.0, 0.0, 0.0, 0.0, 1.695675234191408E9, 0.0, 2023-09-25 15:53:54.191
28.0, -187500.02235174447, 3472.187038920765, -16747.04453313882, -37179.44469206866, -15926.444938951128, -39302.16751124472, -187500.02235174447, -47404.02667570433, 12600.617122723714, -12111.315084852587, -54580.41186099194, -52205.00257074864, -42816.15231229691, -39130.10378242777, -31494.859635217148, -42180.580458710254, -0.002, 0.992, 0.202, 192.0, 0.0, 0.0, 0.0, 0.0, 0.0, 0.0, 0.0, 0.0, 0.0, 1.695675234191411E9, 0.0, 2023-09-25 15:53:54.191
30.0, -187500.02235174447, 3455.155009645821, -16750.93373667404, -37184.33972410437, -15924.455633694606, -39293.94206928516, -187500.02235174447, -47407.0888646947, 12582.534561459372, -12119.428768089863, -54587.27384653972, -52208.780015561584, -42815.86173961899, -39134.641186552195, -31493.85380671666, -42188.269458802875, -0.002, 0.992, 0.202, 192.0, 0.0, 0.0, 0.0, 0.0, 0.0, 0.0, 0.0, 0.0, 0.0, 1.695675234251718E9, 0.0, 2023-09-25 15:53:54.251
32.0, -187500.02235174447, 3459.871227725891, -16744.56348950428, -37176.80718622293, -15922.935715071646, -39298.7253425986, -187500.02235174447, -47402.48440533691, 12616.017474653421, -12121.30631462411, -54590.738366930294, -52214.77028307561, -42825.629451945955, -39133.657709796156, -31498.055934674256, -42172.66794117307, 0.008, 1.006, 0.2, 192.0, 0.0, 32.0, 15.5, 56.0, 3.0, 32.0, 0.0, 0.0, 0.0, 1.695675234251734E9, 0.0, 2023-09-25 15:53:54.251
34.0, -187500.02235174447, 3478.0655477125106, -16739.288477812825, -37176.98600017858, -15920.275857481463, -39286.02955174799, -187500.02235174447, -47392.582582543204, 12569.525846186381, -12109.526945296162, -54577.05909932365, -52199.95107650174, -42809.44678896032, -39125.27580562542, -31486.14245487958, -42190.88461290415, 0.008, 1.006, 0.2, 192.0, 0.0, 0.0, 0.0, 0.0, 0.0, 0.0, 0.0, 0.0, 0.0, 1.695675234251737E9, 0.0, 2023-09-25 15:53:54.251
36.0, -187500.02235174447, 3486.5145071166166, -16728.000846862895, -37166.9724186626, -15907.513011397483, -39285.44840639215, -187500.02235174447, -47390.25800111986, 12614.005817652444, -12093.031357888147, -54569.59361667557, -52191.99385547565, -42809.491492449226, -39117.095067154776, -31477.84995768666, -42170.56687719427, 0.008, 1.006, 0.2, 192.0, 0.0, 0.0, 0.0, 0.0, 0.0, 0.0, 0.0, 0.0, 0.0, 1.69567523425174E9, 0.0, 2023-09-25 15:53:54.251
38.0, -187500.02235174447, 3476.411518622818, -16744.250565081904, -37184.98792469358, -15923.338046471841, -39282.78854880197, -187500.02235174447, -47387.776957485316, 12568.475314196983, -12100.318026580577, -54570.75590738725, -52192.30677989803, -42806.92104183687, -39124.918177714135, -31478.744027464872, -42174.32197026277, 0.008, 1.006, 0.2, 192.0, 0.0, 0.0, 0.0, 0.0, 0.0, 0.0, 0.0, 0.0, 0.0, 1.695675234251744E9, 0.0, 2023-09-25 15:53:54.251
40.0, -187500.02235174447, 3500.5290508900944, -16741.166024347072, -37183.51270955953, -15922.443976693628, -39286.141310470266, -187500.02235174447, -47386.81583247374, 12640.02324819842, -12104.117823137978, -54581.730613914806, -52201.381588146876, -42820.24268153223, -39128.7850295049, -31495.37372533962, -42137.53099888933, 0.008, 1.006, 0.2, 192.0, 0.0, 0.0, 0.0, 0.0, 0.0, 0.0, 0.0, 0.0, 0.0, 1.695675234251747E9, 0.0, 2023-09-25 15:53:54.251
42.0, -187500.02235174447, 3512.1072545179436, -16735.846309166707, -37185.88199447179, -15922.667494138183, -39275.30071440944, -187500.02235174447, -47392.94021045449, 12580.321738758295, -12084.694157206317, -54562.95514857235, -52184.23780014966, -42808.23979475973, -39116.75979098795, -31482.342658322177, -42166.09652830321, 0.002, 1.01, 0.202, 192.0, 0.0, 8.0, 15.5, 72.0, 3.0, 40.0, 0.0, 0.0, 0.0, 1.69567523425175E9, 0.0, 2023-09-25 15:53:54.251
44.0, -187500.02235174447, 3490.9848560076784, -16763.83069322475, -37214.1345994633, -15954.116398586799, -39292.08687449538, -187500.02235174447, -47428.613594605165, 12665.191312455096, -12093.098413121512, -54573.99691033327, -52193.536125843064, -42820.51090246569, -39133.36713711824, -31507.197798156478, -42133.06064999827, 0.002, 1.01, 0.202, 192.0, 0.0, 0.0, 0.0, 0.0, 0.0, 0.0, 0.0, 0.0, 0.0, 1.695675234251753E9, 0.0, 2023-09-25 15:53:54.251
46.0, -187500.02235174447, 3516.3987894533625, -16746.508091271888, -37204.45629411415, -15924.880316839257, -39294.366752429814, -187500.02235174447, -47413.995553731394, 12625.762835235935, -12091.802011943104, -54574.443945222374, -52196.30774215553, -42826.72468742427, -39137.03282320891, -31506.750763267373, -42152.73018511894, 0.002, 1.01, 0.202, 192.0, 0.0, 0.0, 0.0, 0.0, 0.0, 0.0, 0.0, 0.0, 0.0, 1.695675234312601E9, 0.0, 2023-09-25 15:53:54.312
48.0, -187500.02235174447, 3527.708772147748, -16748.162120361583, -37207.67494531572, -15929.305962241408, -39302.16751124472, -187500.02235174447, -47414.621402576144, 12709.738339154523, -12095.691215478328, -54575.8297533786, -52201.35923640242, -42819.683887920844, -39138.77625927643, -31496.848940473672, -42126.22101619495, 0.002, 1.01, 0.202, 192.0, 0.0, 0.0, 0.0, 0.0, 0.0, 0.0, 0.0, 0.0, 0.0, 1.695675234312611E9, 0.0, 2023-09-25 15:53:54.312
50.0, -187500.02235174447, 3543.600862455471, -16728.716102685466, -37196.2308521546, -15911.357511443795, -39285.80603430343, -187500.02235174447, -47389.78861448629, 12633.764759750935, -12074.747630923704, -54557.50132292525, -52184.99775946114, -42807.9045185929, -39118.6820410111, -31477.917012920025, -42168.59992368221, 0.002, 1.01, 0.202, 192.0, 0.0, 0.0, 0.0, 0.0, 0.0, 0.0, 0.0, 0.0, 0.0, 1.695675234312615E9, 0.0, 2023-09-25 15:53:54.312
52.0, -187500.02235174447, 3560.118801607943, -16724.759843916876, -37193.90627073125, -15901.343929927818, -39281.82742379039, -187500.02235174447, -47383.61953301663, 12710.23007753254, -12076.088735591024, -54557.36721245852, -52186.58473331747, -42801.66838188987, -39130.237892894496, -31472.194966339466, -42135.31817618825, -0.006, 1.002, 0.21, 192.0, 127.5, 104.0, 15.5, 40.0, 3.0, 72.0, 0.0, 0.0, 0.0, 1.695675234312619E9, 0.0, 2023-09-25 15:53:54.312
54.0, -187500.02235174447, 3551.535731737105, -16725.720968928454, -37201.639974312784, -15908.362377686784, -39266.762348027514, -187500.02235174447, -47387.55344004076, 12634.859995229244, -12065.605767441484, -54546.057229764134, -52175.006529689614, -42796.77334985416, -39107.34970657226, -31459.856803400136, -42165.58243818074, -0.006, 1.002, 0.21, 192.0, 0.0, 0.0, 0.0, 0.0, 0.0, 0.0, 0.0, 0.0, 0.0, 1.695675234312622E9, 0.0, 2023-09-25 15:53:54.312
56.0, -187500.02235174447, 3543.7573246666584, -16739.132015601637, -37212.346459906876, -15923.181584260654, -39279.838118533866, -187500.02235174447, -47395.9353442115, 12721.003618359999, -12084.045956617112, -54557.747192114264, -52181.71205302621, -42810.16204478288, -39122.50418931296, -31469.691570960473, -42120.90130101458, -0.006, 1.002, 0.21, 192.0, 0.0, 0.0, 0.0, 0.0, 0.0, 0.0, 0.0, 0.0, 0.0, 1.695675234312625E9, 0.0, 2023-09-25 15:53:54.312
58.0, -187500.02235174447, 3548.3170805355408, -16739.623753979653, -37217.9343960207, -15921.684017382147, -39292.1762814732, -187500.02235174447, -47402.39499835909, 12686.693690621101, -12084.761212439682, -54563.71510788383, -52189.624570563385, -42821.606137944, -39129.12030567173, -31479.124007120612, -42131.54073137531, -0.006, 1.002, 0.21, 192.0, 0.0, 0.0, 0.0, 0.0, 0.0, 0.0, 0.0, 0.0, 0.0, 1.695675234312628E9, 0.0, 2023-09-25 15:53:54.312
60.0, -187500.02235174447, 3564.5891504990045, -16730.861870153174, -37206.400895881765, -15919.29238072543, -39286.65540059273, -187500.02235174447, -47399.95865821346, 12749.770313473979, -12082.77190718316, -54559.55768341514, -52185.22127690569, -42811.011411072184, -39132.49541908448, -31474.430140784996, -42119.04610622479, -0.006, 1.002, 0.21, 192.0, 0.0, 0.0, 0.0, 0.0, 0.0, 0.0, 0.0, 0.0, 0.0, 1.695675234372185E9, 0.0, 2023-09-25 15:53:54.372
62.0, -187500.02235174447, 3570.7135284797587, -16723.7987189053, -37205.57388133692, -15912.229229477553, -39284.15200521374, -187500.02235174447, -47397.87994597911, 12688.615940644258, -12067.259796531176, -54545.05140126365, -52173.88894246685, -42810.58672792753, -39117.1844741326, -31464.215393568924, -42160.374481722654, -0.018000000000000002, 1.006, 0.212, 192.0, 127.5, 56.0, 15.5, 56.0, 3.0, 80.0, 0.0, 0.0, 0.0, 1.695675234372197E9, 0.0, 2023-09-25 15:53:54.372
64.0, -187500.02235174447, 3582.2246768742416, -16718.724872913943, -37198.73424753359, -15904.204953218097, -39272.774967285986, -187500.02235174447, -47387.17346038502, 12727.552679485403, -12070.947834366303, -54543.687944851874, -52174.693605267246, -42801.42251270086, -39119.77727648941, -31459.007437110835, -42147.589283894216, -0.018000000000000002, 1.006, 0.212, 192.0, 0.0, 0.0, 0.0, 0.0, 0.0, 0.0, 0.0, 0.0, 0.0, 1.6956752343722E9, 0.0, 2023-09-25 15:53:54.372
66.0, -187500.02235174447, 3596.798014259102, -16718.03196883583, -37197.370791121815, -15902.9532555286, -39275.27836266498, -187500.02235174447, -47386.61466677364, 12686.716042365557, -12062.811799384572, -54537.98825001577, -52172.145506399334, -42804.52940518015, -39110.434247307094, -31458.98508536638, -42168.286999259835, -0.018000000000000002, 1.006, 0.212, 192.0, 0.0, 0.0, 0.0, 0.0, 0.0, 0.0, 0.0, 0.0, 0.0, 1.695675234372204E9, 0.0, 2023-09-25 15:53:54.372
68.0, -187500.02235174447, 3583.252857119186, -16727.106777084682, -37206.15502669275, -15911.91630505518, -39266.36001662732, -187500.02235174447, -47399.06458843525, 12699.590647171814, -12052.552348679585, -54533.78612205817, -52156.67809923626, -42792.101835263, -39106.34387807177, -31456.973428365403, -42163.593132924216, -0.018000000000000002, 1.006, 0.212, 192.0, 0.0, 0.0, 0.0, 0.0, 0.0, 0.0, 0.0, 0.0, 0.0, 1.695675234372207E9, 0.0, 2023-09-25 15:53:54.372
70.0, -187500.02235174447, 3601.223659661253, -16717.83080313573, -37196.119093432324, -15902.841496806324, -39274.47369986459, -187500.02235174447, -47394.37072209963, 12696.282588992428, -12049.37840096693, -54537.78708431567, -52160.88022719386, -42808.19509127082, -39110.657764751646, -31461.80140516775, -42159.72628113345, -0.018000000000000002, 1.006, 0.212, 192.0, 0.0, 0.0, 0.0, 0.0, 0.0, 0.0, 0.0, 0.0, 0.0, 1.695675234372211E9, 0.0, 2023-09-25 15:53:54.372
72.0, -187500.02235174447, 3603.9505724848, -16714.92507635654, -37197.75077077756, -15906.9542177861, -39269.95864748462, -187500.02235174447, -47398.17051865703, 12702.8987053512, -12041.2423659852, -54526.3206394101, -52152.4089160453, -42793.28647771913, -39111.618889763224, -31458.69451268846, -42154.8983043311, -0.018000000000000002, 1.012, 0.2, 192.0, 127.5, 56.0, 15.5, 80.0, 3.0, 32.0, 0.0, 0.0, 0.0, 1.695675234372215E9, 0.0, 2023-09-25 15:53:54.372
74.0, -187500.02235174447, 3608.3538661424955, -16718.143727558105, -37202.57874757991, -15912.966837044578, -39275.65834232073, -187500.02235174447, -47406.507719338864, 12704.239810018518, -12038.336639206009, -54524.197223686846, -52155.22523584667, -42797.667419632366, -39109.45077055106, -31462.963695879425, -42157.31229273228, -0.018000000000000002, 1.012, 0.2, 192.0, 0.0, 0.0, 0.0, 0.0, 0.0, 0.0, 0.0, 0.0, 0.0, 1.695675234372218E9, 0.0, 2023-09-25 15:53:54.372
76.0, -187500.02235174447, 3596.1051101809876, -16729.252544552393, -37217.66617508724, -15928.858927352301, -39280.66513307871, -187500.02235174447, -47419.56113810076, 12703.41279547367, -12045.332735220521, -54529.82986328958, -52159.919102182284, -42797.28743997663, -39120.69369801208, -31469.959791893936, -42153.15486826359, -0.018000000000000002, 1.012, 0.2, 192.0, 0.0, 0.0, 0.0, 0.0, 0.0, 0.0, 0.0, 0.0, 0.0, 1.695675234432538E9, 0.0, 2023-09-25 15:53:54.432
78.0, -187500.02235174447, 3619.6638488368812, -16710.63354142112, -37194.62152655381, -15907.937694542134, -39280.57572610089, -187500.02235174447, -47400.1374721691, 12736.403970289704, -12042.605822396974, -54536.423627903896, -52164.881189451364, -42807.23396625924, -39121.78893349039, -31478.140530364577, -42145.80114433779, -0.018000000000000002, 1.012, 0.2, 192.0, 0.0, 0.0, 0.0, 0.0, 0.0, 0.0, 0.0, 0.0, 0.0, 1.695675234432551E9, 0.0, 2023-09-25 15:53:54.432
80.0, -187500.02235174447, 3624.5141773836826, -16711.43820422151, -37197.661363799736, -15908.518839897972, -39267.09762419434, -187500.02235174447, -47399.62338204663, 12685.710213865068, -12025.774958822127, -54517.13407243897, -52145.41282003079, -42773.75105306519, -39099.34778205726, -31458.381588266086, -42178.121766820164, -0.018000000000000002, 1.012, 0.2, 192.0, 0.0, 0.0, 0.0, 0.0, 0.0, 0.0, 0.0, 0.0, 0.0, 1.695675234432554E9, 0.0, 2023-09-25 15:53:54.432
82.0, -187500.02235174447, 3624.0671424945767, -16705.425584963035, -37188.96653520662, -15897.47707813705, -39275.72539755409, -187500.02235174447, -47386.32409409572, 12718.790795658922, -12027.47369140073, -54517.17877592788, -52141.23304381765, -42771.22530594174, -39093.55868024334, -31455.60997195363, -42165.78360388084, -0.018000000000000002, 1.016, 0.192, 192.0, 127.5, 56.0, 15.5, 96.0, 3.0, 0.0, 0.0, 0.0, 0.0, 1.695675234432557E9, 0.0, 2023-09-25 15:53:54.432
84.0, -187500.02235174447, 3609.1585289428867, -16728.179660818536, -37209.50778836105, -15918.800642347414, -39279.413435389215, -187500.02235174447, -47400.40569310256, 12685.285530720417, -12034.04510427059, -54526.499453365745, -52143.781142685555, -42763.87158201594, -39104.51103502644, -31459.879155144594, -42173.20438304, -0.018000000000000002, 1.016, 0.192, 192.0, 0.0, 0.0, 0.0, 0.0, 0.0, 0.0, 0.0, 0.0, 0.0, 1.69567523443256E9, 0.0, 2023-09-25 15:53:54.432
86.0, -187500.02235174447, 3603.7494067847024, -16737.679152212044, -37208.83723602739, -15923.270991238474, -39284.55433661394, -187500.02235174447, -47403.512585581855, 12766.511770071003, -12045.042162542602, -54544.13497974098, -52152.83359918995, -42783.60817236998, -39118.413820077636, -31480.442760043476, -42136.90515004458, -0.018000000000000002, 1.016, 0.192, 192.0, 0.0, 0.0, 0.0, 0.0, 0.0, 0.0, 0.0, 0.0, 0.0, 1.695675234432564E9, 0.0, 2023-09-25 15:53:54.432
88.0, -187500.02235174447, 3609.7173225542692, -16731.5994777202, -37197.03551495499, -15916.319598712875, -39275.14425219825, -187500.02235174447, -47398.57285005723, 12716.667379935669, -12031.854633313971, -54531.30507842363, -52136.47212224867, -42768.856021029475, -39095.79385468887, -31474.966582651927, -42167.72820564845, -0.018000000000000002, 1.016, 0.192, 192.0, 0.0, 0.0, 0.0, 0.0, 0.0, 0.0, 0.0, 0.0, 0.0, 1.695675234432567E9, 0.0, 2023-09-25 15:53:54.432
90.0, -187500.02235174447, 3620.2002907038086, -16727.173832318047, -37187.580727050394, -15914.039720778434, -39270.96447598511, -187500.02235174447, -47396.784710500804, 12771.138581173253, -12033.419255425842, -54523.5713748421, -52123.284593020035, -42762.46342211526, -39092.03876162037, -31479.74985596536, -42157.6028654102, -0.018000000000000002, 1.016, 0.192, 192.0, 0.0, 0.0, 0.0, 0.0, 0.0, 0.0, 0.0, 0.0, 0.0, 1.695675234492426E9, 0.0, 2023-09-25 15:53:54.492
92.0, -187500.02235174447, 3612.3548283999958, -16732.60530622069, -37193.682753286696, -15926.668456395682, -39280.50867086752, -187500.02235174447, -47423.69621082499, 12717.337932269327, -12042.181139252323, -54525.2701074207, -52126.03385758804, -42765.54796285009, -39096.7773314449, -31488.534091536298, -42175.5066127189, -0.01, 1.018, 0.188, 192.0, 127.5, 88.0, 15.5, 104.0, 2.5, 112.0, 0.0, 0.0, 0.0, 1.695675234492439E9, 0.0, 2023-09-25 15:53:54.492
94.0, -187500.02235174447, 3609.9408399988224, -16725.005713105886, -37187.84894798386, -15915.470232423573, -39291.05869425043, -187500.02235174447, -47437.688402854015, 12792.015110494509, -12049.065476544558, -54529.31577316711, -52125.98915409913, -42764.72094830524, -39095.21270933303, -31492.64681251607, -42150.383251951134, -0.01, 1.018, 0.188, 192.0, 0.0, 0.0, 0.0, 0.0, 0.0, 0.0, 0.0, 0.0, 0.0, 1.695675234492442E9, 0.0, 2023-09-25 15:53:54.492
96.0, -187500.02235174447, 3618.7474273142134, -16716.065015323762, -37184.13855840427, -15911.715139355081, -39280.173394700694, -187500.02235174447, -47404.11608268214, 12726.99388587402, -12040.929441562825, -54523.50431960873, -52121.92113660826, -42754.193276666796, -39092.329334298294, -31486.880062446602, -42176.3559790082, -0.01, 1.018, 0.188, 192.0, 0.0, 0.0, 0.0, 0.0, 0.0, 0.0, 0.0, 0.0, 0.0, 1.695675234492446E9, 0.0, 2023-09-25 15:53:54.492
98.0, -187500.02235174447, 3619.9544215148, -16715.997960090393, -37180.89755545826, -15900.740432827526, -39282.833252290875, -187500.02235174447, -47381.02673065981, 12802.565133877413, -12042.38230495242, -54524.197223686846, -52123.41870348677, -42749.38765160891, -39094.74332269947, -31482.253251344355, -42145.46586817096, -0.01, 1.018, 0.188, 192.0, 0.0, 0.0, 0.0, 0.0, 0.0, 0.0, 0.0, 0.0, 0.0, 1.695675234492449E9, 0.0, 2023-09-25 15:53:54.492
100.0, -187500.02235174447, 3630.549148386616, -16711.751128643886, -37179.66820951321, -15899.734604327037, -39269.95864748462, -187500.02235174447, -47368.219181086926, 12736.403970289704, -12031.921688547336, -54517.40229337243, -52116.802587128, -42745.69961377378, -39086.182604573085, -31468.350466293155, -42168.86814461567, -0.01, 1.018, 0.188, 192.0, 0.0, 0.0, 0.0, 0.0, 0.0, 0.0, 0.0, 0.0, 0.0, 1.695675234492452E9, 0.0, 2023-09-25 15:53:54.492
102.0, -187500.02235174447, 3632.1361222429423, -16717.942561858006, -37187.29015437247, -15901.545095627916, -39277.33472315487, -187500.02235174447, -47383.440719060985, 12815.283276472483, -12034.2909734596, -54523.72783705328, -52121.71997090817, -42748.58298880851, -39093.08929360977, -31476.486501274885, -42132.16658022006, -0.014, 1.008, 0.194, 192.0, 127.5, 72.0, 15.5, 64.0, 3.0, 8.0, 0.0, 0.0, 0.0, 1.695675234492455E9, 0.0, 2023-09-25 15:53:54.492
104.0, -187500.02235174447, 3626.436427406839, -16705.962026829962, -37184.83146248239, -15891.397403645207, -39273.04318821945, -187500.02235174447, -47378.6350940031, 12748.943298929133, -12024.43385415481, -54512.52961308118, -52115.528537694045, -42745.18552365131, -39086.89786039566, -31470.18330933849, -42168.711682404486, -0.014, 1.008, 0.194, 192.0, 0.0, 0.0, 0.0, 0.0, 0.0, 0.0, 0.0, 0.0, 0.0, 1.695675234492459E9, 0.0, 2023-09-25 15:53:54.492
106.0, -187500.02235174447, 3610.9019650104005, -16725.340989272714, -37197.21432891063, -15909.34585444282, -39282.02858949049, -187500.02235174447, -47398.10346342367, 12809.382415936281, -12036.302630460577, -54519.19043292886, -52117.897822606305, -42742.68212827231, -39092.910479654136, -31475.771245452317, -42148.32689146124, -0.014, 1.008, 0.194, 192.0, 0.0, 0.0, 0.0, 0.0, 0.0, 0.0, 0.0, 0.0, 0.0, 1.695675234553269E9, 0.0, 2023-09-25 15:53:54.553
108.0, -187500.02235174447, 3620.088531981532, -16726.63739045112, -37193.0792561864, -15910.508145154494, -39292.22098496211, -187500.02235174447, -47420.835187534714, 12770.803305006422, -12046.785598610115, -54530.00867724523, -52128.73841866713, -42758.90949474687, -39102.92406117011, -31494.367896839132, -42169.337531249235, -0.014, 1.008, 0.194, 192.0, 0.0, 0.0, 0.0, 0.0, 0.0, 0.0, 0.0, 0.0, 0.0, 1.695675234553281E9, 0.0, 2023-09-25 15:53:54.553
110.0, -187500.02235174447, 3622.3013546826073, -16737.209765578482, -37196.07438994341, -15924.455633694606, -39285.78368255898, -187500.02235174447, -47416.72246655494, 12811.170555492707, -12037.733142105717, -54525.717142309804, -52123.46340697568, -42751.8910469879, -39099.54894775736, -31493.160902638545, -42171.550353950304, -0.014, 1.008, 0.194, 192.0, 0.0, 0.0, 0.0, 0.0, 0.0, 0.0, 0.0, 0.0, 0.0, 1.695675234553284E9, 0.0, 2023-09-25 15:53:54.553
112.0, -187500.02235174447, 3641.4120961918948, -16725.765672417365, -37184.719703760114, -15902.90855203969, -39284.44257789166, -187500.02235174447, -47379.462108547945, 12772.032650951463, -12033.508662403663, -54528.33229641108, -52125.43036048775, -42762.35166339298, -39091.88229940919, -31491.484521804396, -42193.030380371856, -0.008, 0.998, 0.20800000000000002, 192.0, 127.5, 96.0, 15.5, 24.0, 3.0, 64.0, 0.0, 0.0, 0.0, 1.695675234553288E9, 0.0, 2023-09-25 15:53:54.553
114.0, -187500.02235174447, 3639.3557357020068, -16714.478041467435, -37180.33876184688, -15885.004804730988, -39272.30558065243, -187500.02235174447, -47348.7284599219, 12790.003453493531, -12029.641810612895, -54520.73270329627, -52123.39635174231, -42746.86190448546, -39091.278802308894, -31478.587565253685, -42190.0575983593, -0.008, 0.998, 0.20800000000000002, 192.0, 0.0, 0.0, 0.0, 0.0, 0.0, 0.0, 0.0, 0.0, 0.0, 1.695675234553291E9, 0.0, 2023-09-25 15:53:54.553
116.0, -187500.02235174447, 3624.827101806057, -16718.657817680578, -37182.95391594814, -15888.849304777303, -39266.0694439494, -187500.02235174447, -47359.256131560345, 12737.700371468112, -12018.04125524059, -54511.07674969158, -52112.108720792385, -42738.681166014816, -39078.851232391746, -31456.816966154216, -42211.04588640283, -0.008, 0.998, 0.20800000000000002, 192.0, 0.0, 0.0, 0.0, 0.0, 0.0, 0.0, 0.0, 0.0, 0.0, 1.695675234553294E9, 0.0, 2023-09-25 15:53:54.553
118.0, -187500.02235174447, 3620.9602500152887, -16730.459538752977, -37187.22309913911, -15891.442107134118, -39265.8682782493, -187500.02235174447, -47335.764448137816, 12767.942281716143, -12041.644697385394, -54528.51111036672, -52123.82103488696, -42745.67726202933, -39096.84438667827, -31466.405864525543, -42179.93225812105, -0.008, 0.998, 0.20800000000000002, 192.0, 0.0, 0.0, 0.0, 0.0, 0.0, 0.0, 0.0, 0.0, 0.0, 1.695675234553298E9, 0.0, 2023-09-25 15:53:54.553
120.0, -187500.02235174447, 3628.3810291744508, -16733.924059143552, -37184.92086946021, -15894.571351357861, -39276.19478418765, -187500.02235174447, -47362.34067229518, 12767.227025893573, -12034.805063582071, -54525.717142309804, -52121.69761916371, -42755.0426429561, -39084.64033420567, -31461.957867378936, -42172.48912721743, -0.008, 0.998, 0.20800000000000002, 192.0, 0.0, 0.0, 0.0, 0.0, 0.0, 0.0, 0.0, 0.0, 0.0, 1.695675234612098E9, 0.0, 2023-09-25 15:53:54.612
122.0, -187500.02235174447, 3625.341191928529, -16742.104797614193, -37192.81103525293, -15902.9532555286, -39274.9207347537, -187500.02235174447, -47365.44756477446, 12764.455409581115, -12040.638868884906, -54530.14278771196, -52122.41287498628, -42752.06986094354, -39094.095122110266, -31475.011286140834, -42177.093586575225, -0.006, 0.978, 0.216, 192.0, 127.5, 104.0, 15.0, 72.0, 3.0, 96.0, 0.0, 0.0, 0.0, 1.695675234612112E9, 0.0, 2023-09-25 15:53:54.612
124.0, -187500.02235174447, 3637.277023467663, -16740.853099924698, -37194.17449166471, -15903.66851135117, -39283.66026683572, -187500.02235174447, -47370.297893321265, 12766.936453215654, -12036.034409527114, -54531.662706334915, -52126.63735468833, -42761.03291047012, -39091.725837198, -31474.98893439638, -42181.139252321635, -0.006, 0.978, 0.216, 192.0, 0.0, 0.0, 0.0, 0.0, 0.0, 0.0, 0.0, 0.0, 0.0, 1.695675234612116E9, 0.0, 2023-09-25 15:53:54.612
126.0, -187500.02235174447, 3619.596793603515, -16733.946410888006, -37189.25710788454, -15898.572313615361, -39280.24044993406, -187500.02235174447, -47376.69049223548, 12747.155159372707, -12046.092694532, -54537.98825001577, -52137.0085641156, -42757.07665170153, -39101.87352918071, -31479.302821076253, -42183.64264770063, -0.006, 0.978, 0.216, 192.0, 0.0, 0.0, 0.0, 0.0, 0.0, 0.0, 0.0, 0.0, 0.0, 1.695675234612119E9, 0.0, 2023-09-25 15:53:54.612
128.0, -187500.02235174447, 3618.0768749805543, -16732.337085287225, -37182.57393629241, -15893.029080990444, -39283.50380462454, -187500.02235174447, -47364.79936418526, 12753.458351309104, -12039.901261317882, -54531.14861621244, -52132.06882859097, -42757.52368659063, -39095.413875033126, -31476.17357685251, -42185.341380279235, -0.006, 0.978, 0.216, 192.0, 0.0, 0.0, 0.0, 0.0, 0.0, 0.0, 0.0, 0.0, 0.0, 1.695675234612122E9, 0.0, 2023-09-25 15:53:54.612
130.0, -187500.02235174447, 3617.115749968976, -16740.473120268958, -37187.42426483921, -15902.886200295236, -39285.76133081452, -187500.02235174447, -47386.659370262554, 12716.734435169034, -12045.600956153985, -54536.870662793, -52137.8579304049, -42758.41775636885, -39108.89197693968, -31482.99085891138, -42196.96428739599, -0.006, 0.978, 0.216, 192.0, 0.0, 0.0, 0.0, 0.0, 0.0, 0.0, 0.0, 0.0, 0.0, 1.695675234612125E9, 0.0, 2023-09-25 15:53:54.612
132.0, -187500.02235174447, 3622.413113404884, -16735.13105334414, -37173.11914838781, -15905.993092774523, -39289.270554694005, -187500.02235174447, -47381.965503926935, 12757.392258333239, -12035.542671149096, -54531.70740982383, -52130.16893031227, -42760.094137203, -39089.42360751911, -31484.08609438969, -42178.144118564625, -0.002, 0.976, 0.222, 192.0, 127.5, 120.0, 15.0, 64.0, 3.0, 120.0, 0.0, 0.0, 0.0, 1.695675234612129E9, 0.0, 2023-09-25 15:53:54.612
134.0, -187500.02235174447, 3619.9544215148, -16735.73455044443, -37181.97043919211, -15902.685034595137, -39292.265688451014, -187500.02235174447, -47386.41350107354, 12700.507068694482, -12043.164616008356, -54532.37796215749, -52136.2039013152, -42760.27295115864, -39096.86673842272, -31484.89075719008, -42192.22571757147, -0.002, 0.976, 0.222, 192.0, 0.0, 0.0, 0.0, 0.0, 0.0, 0.0, 0.0, 0.0, 0.0, 1.695675234612132E9, 0.0, 2023-09-25 15:53:54.612
136.0, -187500.02235174447, 3619.2615174366856, -16737.54504174531, -37184.33972410437, -15906.57423813036, -39304.648554879255, -187500.02235174447, -47382.07726264921, 12759.180397889662, -12063.236482529222, -54543.59853787405, -52153.72766896817, -42769.347759407494, -39116.49157005448, -31488.981126425402, -42163.70489164649, -0.002, 0.976, 0.222, 192.0, 0.0, 0.0, 0.0, 0.0, 0.0, 0.0, 0.0, 0.0, 0.0, 1.695675234672342E9, 0.0, 2023-09-25 15:53:54.672
138.0, -187500.02235174447, 3610.2984679101073, -16743.51295751488, -37188.81007299544, -15919.560601658894, -39298.7253425986, -187500.02235174447, -47381.697282993475, 12707.212592031074, -12073.071250089557, -54546.481912908785, -52161.48372429416, -42772.566410609055, -39114.59167177578, -31491.84214971568, -42181.16160406609, -0.002, 0.976, 0.222, 192.0, 0.0, 0.0, 0.0, 0.0, 0.0, 0.0, 0.0, 0.0, 0.0, 1.695675234672352E9, 0.0, 2023-09-25 15:53:54.672
140.0, -187500.02235174447, 3621.988430260233, -16720.043625836806, -37156.15417434623, -15889.631615833237, -39291.41632216171, -187500.02235174447, -47362.69830020646, 12771.317395128894, -12059.548444694095, -54540.670459350404, -52147.87151192087, -42777.64025660041, -39108.199072861564, -31488.623498514116, -42156.597036909705, -0.002, 0.976, 0.222, 192.0, 0.0, 0.0, 0.0, 0.0, 0.0, 0.0, 0.0, 0.0, 0.0, 1.695675234672355E9, 0.0, 2023-09-25 15:53:54.672
142.0, -187500.02235174447, 3624.2236047057636, -16726.16800381756, -37163.73141571658, -15899.511086882483, -39287.72828432659, -187500.02235174447, -47376.176402113015, 12683.519742908447, -12049.356049222477, -54531.84152029056, -52137.43324726025, -42767.91724776236, -39095.10095061075, -31475.79359719677, -42189.610563470196, -0.002, 0.976, 0.222, 192.0, 0.0, 0.0, 15.0, 72.0, 3.5, 8.0, 0.0, 0.0, 0.0, 1.695675234672358E9, 0.0, 2023-09-25 15:53:54.672
144.0, -187500.02235174447, 3624.6482878504144, -16723.999884605397, -37161.02685463749, -15904.093194495821, -39281.73801681257, -187500.02235174447, -47376.444623046475, 12736.76159820099, -12044.684534631317, -54528.77933130018, -52135.242776303625, -42768.47604137374, -39094.989191888475, -31481.56034726624, -42169.15871729359, -0.002, 0.976, 0.222, 192.0, 0.0, 0.0, 0.0, 0.0, 0.0, 0.0, 0.0, 0.0, 0.0, 1.695675234672362E9, 0.0, 2023-09-25 15:53:54.672
146.0, -187500.02235174447, 3624.8047500616017, -16728.53728872982, -37174.90728794423, -15911.24575272152, -39290.522252383504, -187500.02235174447, -47395.75653025586, 12666.152437466675, -12042.225842741233, -54532.95910751333, -52144.07171536347, -42773.058148987075, -39101.627659991704, -31490.389286326088, -42193.857394916704, -0.002, 0.976, 0.222, 192.0, 0.0, 0.0, 0.0, 0.0, 0.0, 0.0, 0.0, 0.0, 0.0, 1.695675234672369E9, 0.0, 2023-09-25 15:53:54.672
148.0, -187500.02235174447, 3635.824160078068, -16716.78027114633, -37162.278552326985, -15903.556752628894, -39297.943031542665, -187500.02235174447, -47396.96352445645, 12734.9064034112, -12048.23846199971, -54537.56356687112, -52153.75002071262, -42776.768538566655, -39105.338049571285, -31494.47965556141, -42168.37640623765, -0.002, 0.976, 0.222, 192.0, 0.0, 0.0, 0.0, 0.0, 0.0, 0.0, 0.0, 0.0, 0.0, 1.695675234672373E9, 0.0, 2023-09-25 15:53:54.672
150.0, -187500.02235174447, 3613.651229578403, -16724.245753794403, -37166.190107606664, -15914.57616264536, -39291.14810122825, -187500.02235174447, -47397.05293143427, 12649.478036103015, -12041.734104363217, -54527.326467910585, -52140.1601600838, -42770.13007046343, -39102.99111640348, -31484.399018812066, -42206.664944489596, -0.002, 0.976, 0.222, 192.0, 0.0, 0.0, 0.0, 0.0, 0.0, 0.0, 0.0, 0.0, 0.0, 1.695675234732532E9, 0.0, 2023-09-25 15:53:54.732
152.0, -187500.02235174447, 3613.539470856127, -16731.152442831095, -37169.18524136367, -15922.309866226897, -39309.051848536954, -187500.02235174447, -47404.987800715906, 12736.828653434355, -12065.33754650802, -54549.074715265604, -52156.432230047256, -42787.92205904985, -39130.05907893885, -31503.733277765907, -42155.702967131496, 0.002, 0.986, 0.224, 192.0, 0.0, 8.0, 15.0, 104.0, 3.5, 0.0, 0.0, 0.0, 0.0, 1.695675234732543E9, 0.0, 2023-09-25 15:53:54.732
154.0, -187500.02235174447, 3640.2945089691293, -16707.7948698753, -37146.38646201926, -15908.742357342526, -39283.86143253582, -187500.02235174447, -47393.96839069944, 12668.029984000921, -12033.598069381485, -54524.24192717575, -52137.50030249361, -42780.43422465733, -39100.48772102448, -31482.74498972237, -42190.54933673732, 0.002, 0.986, 0.224, 192.0, 0.0, 0.0, 0.0, 0.0, 0.0, 0.0, 0.0, 0.0, 0.0, 1.695675234732546E9, 0.0, 2023-09-25 15:53:54.732
156.0, -187500.02235174447, 3651.023346307677, -16697.602474403677, -37136.30582526992, -15901.567447372372, -39277.91586851071, -187500.02235174447, -47383.574829527715, 12712.37584500025, -12028.591278623495, -54518.43047361737, -52128.537252967035, -42766.777308795135, -39099.90657566865, -31477.42527454201, -42170.58922893873, 0.002, 0.986, 0.224, 192.0, 0.0, 0.0, 0.0, 0.0, 0.0, 0.0, 0.0, 0.0, 0.0, 1.69567523473255E9, 0.0, 2023-09-25 15:53:54.732
158.0, -187500.02235174447, 3644.496636926727, -16702.050471550283, -37142.05022359493, -15912.542153899927, -39283.99554300255, -187500.02235174447, -47390.637980775595, 12644.31478313384, -12025.216165210744, -54515.25652590472, -52126.436188988235, -42772.007616997675, -39090.56354648633, -31479.839262943184, -42194.080912361256, 0.002, 0.986, 0.224, 192.0, 0.0, 0.0, 0.0, 0.0, 0.0, 0.0, 0.0, 0.0, 0.0, 1.695675234732553E9, 0.0, 2023-09-25 15:53:54.732
160.0, -187500.02235174447, 3644.34017471554, -16699.72589012693, -37140.195028805145, -15908.80941257589, -39285.068426736405, -187500.02235174447, -47394.907163966556, 12692.885123835222, -12028.032485012112, -54517.044665461144, -52129.587784956435, -42770.264180930164, -39100.21950009102, -31481.046257143767, -42166.36474923667, 0.002, 0.986, 0.224, 192.0, 0.0, 0.0, 0.0, 0.0, 0.0, 0.0, 0.0, 0.0, 0.0, 1.695675234732556E9, 0.0, 2023-09-25 15:53:54.732
162.0, -187500.02235174447, 3640.026288035666, -16697.423660448036, -37141.11145032781, -15900.695729338615, -39290.49990063905, -187500.02235174447, -47391.46499532044, 12648.338097135795, -12020.969333764237, -54513.89306949295, -52130.906537879295, -42771.0464919861, -39097.11260761173, -31474.072512873714, -42185.0061041124, 0.004, 0.998, 0.226, 192.0, 0.0, 16.0, 15.5, 24.0, 3.5, 8.0, 0.0, 0.0, 0.0, 1.695675234732559E9, 0.0, 2023-09-25 15:53:54.732
164.0, -187500.02235174447, 3634.2595379661966, -16714.12041355615, -37152.60024697784, -15918.554773158405, -39291.505729139535, -187500.02235174447, -47399.42221634653, 12659.826893785823, -12030.737046091206, -54521.179738185376, -52133.007601858095, -42768.40898614037, -39105.80743620484, -31479.90631817655, -42183.35207502271, 0.004, 0.998, 0.226, 192.0, 0.0, 0.0, 0.0, 0.0, 0.0, 0.0, 0.0, 0.0, 0.0, 1.695675234732562E9, 0.0, 2023-09-25 15:53:54.732
166.0, -187500.02235174447, 3614.8358720345345, -16716.757919401876, -37158.1211278583, -15917.0572062799, -39297.54070014247, -187500.02235174447, -47398.52814656832, 12637.02811444141, -12040.013020040158, -54536.37892441499, -52144.65286071931, -42790.49250966222, -39113.33997408629, -31493.674992761018, -42187.844775658225, 0.004, 0.998, 0.226, 192.0, 0.0, 0.0, 0.0, 0.0, 0.0, 0.0, 0.0, 0.0, 0.0, 1.695675234791871E9, 0.0, 2023-09-25 15:53:54.791
168.0, -187500.02235174447, 3636.9193955563783, -16699.837648849207, -37144.15128757373, -15896.158325214188, -39286.342476170365, -187500.02235174447, -47386.659370262554, 12643.577175566814, -12040.23653748471, -54531.685058079376, -52139.288442050034, -42774.22043969875, -39112.624718263716, -31476.41944604152, -42186.816595413286, 0.004, 0.998, 0.226, 192.0, 0.0, 0.0, 0.0, 0.0, 0.0, 0.0, 0.0, 0.0, 0.0, 1.695675234791879E9, 0.0, 2023-09-25 15:53:54.791
170.0, -187500.02235174447, 3640.048639780121, -16702.78807911731, -37151.19208707716, -15905.81427881888, -39283.70497032464, -187500.02235174447, -47389.60980053065, 12615.481032786493, -12019.672932585829, -54512.574316570084, -52126.52559596606, -42769.23600068522, -39090.42943601959, -31461.08614934518, -42201.8593194317, 0.004, 0.998, 0.226, 192.0, 0.0, 0.0, 0.0, 0.0, 0.0, 0.0, 0.0, 0.0, 0.0, 1.695675234791882E9, 0.0, 2023-09-25 15:53:54.791
172.0, -187500.02235174447, 3630.9961832757217, -16723.128166571638, -37177.813014723426, -15923.092177282833, -39299.70881935464, -187500.02235174447, -47424.29970792529, 12625.293448602373, -12048.081999788523, -54536.71420058182, -52151.045459633526, -42783.764634581166, -39121.65482302366, -31489.696382247974, -42185.09551109022, 0.002, 0.994, 0.228, 192.0, 0.0, 8.0, 15.5, 8.0, 3.5, 16.0, 0.0, 0.0, 0.0, 1.695675234791885E9, 0.0, 2023-09-25 15:53:54.791
174.0, -187500.02235174447, 3628.3810291744508, -16715.3944629901, -37166.81595645141, -15912.408043433195, -39298.568880387415, -187500.02235174447, -47390.146242397575, 12643.621879055725, -12049.333697478021, -54537.02712500419, -52157.03572714755, -42792.32535270755, -39119.821979978326, -31489.025829914313, -42182.83798490024, 0.002, 0.994, 0.228, 192.0, 0.0, 0.0, 0.0, 0.0, 0.0, 0.0, 0.0, 0.0, 0.0, 1.695675234791888E9, 0.0, 2023-09-25 15:53:54.791
176.0, -187500.02235174447, 3623.8436250500235, -16713.203992033483, -37165.0725203839, -15912.81037483339, -39286.9236215262, -187500.02235174447, -47394.66129477755, 12607.344997804761, -12044.393961953398, -54527.72879931078, -52141.389506028834, -42778.288457189614, -39116.15629388765, -31485.069571145723, -42201.52404326487, 0.002, 0.994, 0.228, 192.0, 0.0, 0.0, 0.0, 0.0, 0.0, 0.0, 0.0, 0.0, 0.0, 1.695675234791892E9, 0.0, 2023-09-25 15:53:54.791
178.0, -187500.02235174447, 3636.8970438119227, -16701.53638142781, -37150.610941721316, -15897.879409537247, -39279.72635981159, -187500.02235174447, -47375.43879454599, 12620.487823544481, -12030.491176902196, -54515.34593288254, -52128.537252967035, -42774.265143187666, -39098.6772297236, -31470.362123294133, -42199.802958941815, 0.002, 0.994, 0.228, 192.0, 0.0, 0.0, 0.0, 0.0, 0.0, 0.0, 0.0, 0.0, 0.0, 1.695675234791895E9, 0.0, 2023-09-25 15:53:54.791
180.0, -187500.02235174447, 3627.24109020723, -16712.287570510813, -37164.49137502806, -15913.615037633783, -39284.643743591754, -187500.02235174447, -47386.74877724037, 12582.713375415013, -12041.465883429753, -54524.71131380932, -52135.01925885907, -42779.45074790129, -39110.27778509591, -31472.08320761719, -42202.10518862071, 0.002, 0.994, 0.228, 192.0, 0.0, 0.0, 0.0, 0.0, 0.0, 0.0, 0.0, 0.0, 0.0, 1.695675234851693E9, 0.0, 2023-09-25 15:53:54.851
182.0, -187500.02235174447, 3645.860093338501, -16698.92122732654, -37148.91220914271, -15901.254522949997, -39289.002333760545, -187500.02235174447, -47384.066567905735, 12626.522794547414, -12037.643735127895, -54521.29149690765, -52132.00177335761, -42782.95997178078, -39108.02025890592, -31470.27271631631, -42185.65430470161, 0.002, 0.996, 0.228, 192.0, 0.0, 8.0, 15.5, 16.0, 3.5, 16.0, 0.0, 0.0, 0.0, 1.695675234851707E9, 0.0, 2023-09-25 15:53:54.851
184.0, -187500.02235174447, 3645.793038105135, -16704.844439607197, -37151.77323243299, -15909.636427120737, -39290.67871459469, -187500.02235174447, -47389.63215227511, 12558.417029192095, -12030.2900112021, -54515.68120904937, -52126.927927366254, -42775.80741355508, -39099.0795611238, -31470.205661082946, -42213.303412592824, 0.002, 0.996, 0.228, 192.0, 0.0, 0.0, 0.0, 0.0, 0.0, 0.0, 0.0, 0.0, 0.0, 1.69567523485171E9, 0.0, 2023-09-25 15:53:54.851
186.0, -187500.02235174447, 3636.2488432227187, -16708.420718720045, -37149.761575432014, -15913.43622367814, -39281.581554601384, -187500.02235174447, -47386.56996328473, 12604.34986404775, -12034.961525793258, -54521.64912481894, -52131.77825591305, -42780.7471490797, -39099.59365124627, -31478.408751298044, -42194.39383678363, 0.002, 0.996, 0.228, 192.0, 0.0, 0.0, 0.0, 0.0, 0.0, 0.0, 0.0, 0.0, 0.0, 1.695675234851714E9, 0.0, 2023-09-25 15:53:54.851
188.0, -187500.02235174447, 3629.588023375037, -16715.72973915693, -37156.55650574643, -15915.984322546044, -39279.88282202278, -187500.02235174447, -47392.69434126549, 12531.885508523645, -12044.505720675674, -54522.297325408144, -52135.42159025927, -42781.61886711346, -39098.431360534596, -31480.88979493258, -42221.93118595257, 0.002, 0.996, 0.228, 192.0, 0.0, 0.0, 0.0, 0.0, 0.0, 0.0, 0.0, 0.0, 0.0, 1.695675234851717E9, 0.0, 2023-09-25 15:53:54.851
190.0, -187500.02235174447, 3623.463645394283, -16716.623808935143, -37158.63521798077, -15912.475098666562, -39292.06452275092, -187500.02235174447, -47397.27644887882, 12599.432480267584, -12050.495988189698, -54533.473197635794, -52146.88803516484, -42789.17375673935, -39110.098971140265, -31482.588527511183, -42186.54837447982, 0.002, 0.996, 0.228, 192.0, 0.0, 0.0, 0.0, 0.0, 0.0, 0.0, 0.0, 0.0, 0.0, 1.69567523485172E9, 0.0, 2023-09-25 15:53:54.851
192.0, -187500.02235174447, 3631.3985146759173, -16711.169983288048, -37154.92482840119, -15911.67043586617, -39281.31333366792, -187500.02235174447, -47382.30078009376, 12517.178060672053, -12041.778807852126, -54528.55581385563, -52140.56249148399, -42789.12905325044, -39105.002773404456, -31471.88204191709, -42217.50554055042, 0.002, 0.992, 0.224, 192.0, 0.0, 8.0, 15.5, 0.0, 3.5, 0.0, 0.0, 0.0, 0.0, 1.695675234851724E9, 0.0, 2023-09-25 15:53:54.851
194.0, -187500.02235174447, 3621.474340137761, -16715.238000778914, -37159.03754938097, -15915.38082544575, -39285.38135115878, -187500.02235174447, -47386.52525979582, 12576.052555567332, -12042.538767163607, -54530.79098830116, -52142.5070932516, -42779.294285690106, -39105.49451178247, -31471.300896561253, -42191.711627448996, 0.002, 0.992, 0.224, 192.0, 0.0, 0.0, 0.0, 0.0, 0.0, 0.0, 0.0, 0.0, 0.0, 1.695675234851727E9, 0.0, 2023-09-25 15:53:54.851
196.0, -187500.02235174447, 3623.106017482998, -16723.441090994012, -37166.771252962506, -15925.77438661747, -39283.21323194662, -187500.02235174447, -47397.72348376793, 12517.111005438686, -12044.170444508845, -54535.48485463677, -52148.05032587652, -42793.1523672524, -39108.71316298404, -31477.961716408936, -42209.816540457796, 0.002, 0.992, 0.224, 192.0, 0.0, 0.0, 0.0, 0.0, 0.0, 0.0, 0.0, 0.0, 0.0, 1.69567523491189E9, 0.0, 2023-09-25 15:53:54.911
198.0, -187500.02235174447, 3626.1011512400096, -16720.11068107017, -37164.15609886123, -15918.510069669495, -39287.28124943748, -187500.02235174447, -47397.90229772357, 12585.507343471927, -12048.461979444264, -54541.676287850896, -52155.29229108003, -42795.20872774228, -39115.0834101538, -31488.847015958672, -42182.122729077666, 0.002, 0.992, 0.224, 192.0, 0.0, 0.0, 0.0, 0.0, 0.0, 0.0, 0.0, 0.0, 0.0, 1.695675234911899E9, 0.0, 2023-09-25 15:53:54.911
200.0, -187500.02235174447, 3616.8028255466015, -16718.59076244721, -37164.513726772515, -15924.075654038867, -39278.69817956664, -187500.02235174447, -47387.642847018586, 12498.223781373952, -12031.586412380508, -54525.60538358753, -52140.920119395276, -42789.10670150599, -39098.431360534596, -31476.17357685251, -42223.160531897614, 0.002, 0.992, 0.224, 192.0, 0.0, 0.0, 0.0, 0.0, 0.0, 0.0, 0.0, 0.0, 0.0, 1.695675234911902E9, 0.0, 2023-09-25 15:53:54.911
202.0, -187500.02235174447, 3628.403380918906, -16717.339064757714, -37163.1726221052, -15916.587819646338, -39284.68844708067, -187500.02235174447, -47385.69824525098, 12556.517130913393, -12042.829339841526, -54535.574261614594, -52145.32341305297, -42791.96772479627, -39111.12715138521, -31485.02486765681, -42197.567784496285, 0.002, 0.988, 0.228, 192.0, 0.0, 8.0, 15.0, 112.0, 3.5, 16.0, 0.0, 0.0, 0.0, 1.695675234911906E9, 0.0, 2023-09-25 15:53:54.911
204.0, -187500.02235174447, 3622.122540726965, -16720.73652991492, -37176.29309610046, -15923.67332263867, -39286.476586637094, -187500.02235174447, -47396.42708258952, 12491.004167914889, -12036.973182794236, -54528.376999899985, -52141.948299640215, -42790.8501375735, -39104.68984898208, -31476.195928596968, -42221.23828187445, 0.002, 0.988, 0.228, 192.0, 0.0, 0.0, 0.0, 0.0, 0.0, 0.0, 0.0, 0.0, 0.0, 1.695675234911909E9, 0.0, 2023-09-25 15:53:54.911
206.0, -187500.02235174447, 3638.953404301811, -16707.839573364206, -37166.07834888439, -15908.183563731143, -39275.81480453191, -187500.02235174447, -47393.09667266568, 12543.575470873771, -12040.86238632946, -54530.09808422305, -52143.82584617446, -42786.4468439158, -39109.048439150865, -31474.877175674104, -42193.96915363898, 0.002, 0.988, 0.228, 192.0, 0.0, 0.0, 0.0, 0.0, 0.0, 0.0, 0.0, 0.0, 0.0, 1.695675234911912E9, 0.0, 2023-09-25 15:53:54.911
208.0, -187500.02235174447, 3652.275043997174, -16703.43627970651, -37160.44570928165, -15906.306017196897, -39274.49605160905, -187500.02235174447, -47380.66910274853, 12484.61156900067, -12025.707903588762, -54519.39159862895, -52134.818093158974, -42785.26220145967, -39092.66461046512, -31462.583716223686, -42217.48318880596, 0.002, 0.988, 0.228, 192.0, 0.0, 0.0, 0.0, 0.0, 0.0, 0.0, 0.0, 0.0, 0.0, 1.695675234911915E9, 0.0, 2023-09-25 15:53:54.911
210.0, -187500.02235174447, 3642.7755526036685, -16714.142765300603, -37172.627410009794, -15916.051377779411, -39277.84881327734, -187500.02235174447, -47395.4883093224, 12517.468633349972, -12028.14424373439, -54520.84446201855, -52136.449770504216, -42777.684960089326, -39097.1796628451, -31465.042408113768, -42197.277211818364, 0.002, 0.988, 0.228, 192.0, 0.0, 0.0, 0.0, 0.0, 0.0, 0.0, 0.0, 0.0, 0.0, 1.695675234973747E9, 0.0, 2023-09-25 15:53:54.973
212.0, -187500.02235174447, 3627.9116425408893, -16715.238000778914, -37169.967552419614, -15923.785081360948, -39287.25889769303, -187500.02235174447, -47399.15399541307, 12496.122717395154, -12032.055799014068, -54527.99702024425, -52146.12807585336, -42793.10766376348, -39104.37692455971, -31480.55451876575, -42200.58526999775, -0.006, 0.984, 0.228, 192.0, 127.5, 104.0, 15.0, 96.0, 3.5, 16.0, 0.0, 0.0, 0.0, 1.69567523497376E9, 0.0, 2023-09-25 15:53:54.973
214.0, -187500.02235174447, 3626.2576134511964, -16720.69182642601, -37172.0239129095, -15934.1115872993, -39283.3696941578, -187500.02235174447, -47407.13356818361, 12516.552211827304, -12032.815758325549, -54523.973706242294, -52134.326354780955, -42785.5974776265, -39104.48868328198, -31478.31934432022, -42192.24806931592, -0.006, 0.984, 0.228, 192.0, 0.0, 0.0, 0.0, 0.0, 0.0, 0.0, 0.0, 0.0, 0.0, 1.695675234973764E9, 0.0, 2023-09-25 15:53:54.973
216.0, -187500.02235174447, 3635.24301472223, -16709.515954198356, -37161.25037208204, -15923.29334298293, -39290.43284540568, -187500.02235174447, -47406.15009142758, 12529.33740965574, -12043.365781708453, -54534.99311625876, -52150.061982877494, -42803.79179761312, -39115.55279678736, -31488.71290549194, -42183.26266804489, -0.006, 0.984, 0.228, 192.0, 0.0, 0.0, 0.0, 0.0, 0.0, 0.0, 0.0, 0.0, 0.0, 1.695675234973769E9, 0.0, 2023-09-25 15:53:54.973
218.0, -187500.02235174447, 3641.0991717695206, -16702.58691341721, -37154.58955223436, -15911.357511443795, -39278.89934526674, -187500.02235174447, -47392.04614067628, 12509.33259836824, -12027.831319312016, -54518.76574978421, -52133.007601858095, -42776.65677984438, -39094.720970955015, -31468.59633548216, -42207.53666252335, -0.006, 0.984, 0.228, 192.0, 0.0, 0.0, 0.0, 0.0, 0.0, 0.0, 0.0, 0.0, 0.0, 1.695675234973774E9, 0.0, 2023-09-25 15:53:54.973
220.0, -187500.02235174447, 3649.369317217984, -16701.64814015009, -37154.41073827872, -15908.250618964508, -39281.31333366792, -187500.02235174447, -47392.873155221125, 12508.930266968044, -12032.391075180898, -54524.26427892021, -52138.059096105, -42786.335085193525, -39096.5761657448, -31465.444739513965, -42203.26747933239, -0.006, 0.984, 0.228, 192.0, 0.0, 0.0, 0.0, 0.0, 0.0, 0.0, 0.0, 0.0, 0.0, 1.695675234973779E9, 0.0, 2023-09-25 15:53:54.973
222.0, -187500.02235174447, 3637.411133934395, -16724.02223634985, -37170.86162219782, -15934.893898355234, -39277.62529583279, -187500.02235174447, -47410.687495552, 12491.18298187053, -12028.211298967755, -54525.2701074207, -52136.76269492658, -42782.624695613944, -39098.274898323405, -31468.37281803761, -42208.27427009038, -0.01, 0.99, 0.228, 192.0, 127.5, 88.0, 15.0, 120.0, 3.5, 16.0, 0.0, 0.0, 0.0, 1.695675234973785E9, 0.0, 2023-09-25 15:53:54.973
224.0, -187500.02235174447, 3639.378087446462, -16714.92507635654, -37158.94814240315, -15921.080520281856, -39281.53685111247, -187500.02235174447, -47399.62338204663, 12530.14207245613, -12029.708865846262, -54534.99311625876, -52143.08823860744, -42804.26118424669, -39100.91240416913, -31488.71290549194, -42187.91183089159, -0.01, 0.99, 0.228, 192.0, 0.0, 0.0, 0.0, 0.0, 0.0, 0.0, 0.0, 0.0, 0.0, 1.695675234973791E9, 0.0, 2023-09-25 15:53:54.973
226.0, -187500.02235174447, 3613.3606569004846, -16718.03196883583, -37162.50206977154, -15921.236982493041, -39278.69817956664, -187500.02235174447, -47411.98389673042, 12494.602798772192, -12045.399790453886, -54530.72393306779, -52146.37394504237, -42788.77142533915, -39106.947375172065, -31472.977277395403, -42204.765046210894, -0.01, 0.99, 0.228, 192.0, 0.0, 0.0, 0.0, 0.0, 0.0, 0.0, 0.0, 0.0, 0.0, 1.695675235032453E9, 0.0, 2023-09-25 15:53:55.032
228.0, -187500.02235174447, 3633.3878199324395, -16706.565523930254, -37148.42047076469, -15903.489697395527, -39276.66417082121, -187500.02235174447, -47386.52525979582, 12535.461787636494, -12047.85848234397, -54530.36630515651, -52143.37881128536, -42795.94633530931, -39101.76177045843, -31469.691570960473, -42192.24806931592, -0.01, 0.99, 0.228, 192.0, 0.0, 0.0, 0.0, 0.0, 0.0, 0.0, 0.0, 0.0, 0.0, 1.695675235032474E9, 0.0, 2023-09-25 15:53:55.032
230.0, -187500.02235174447, 3630.9738315312666, -16710.275913509835, -37153.471965011595, -15913.547982400416, -39265.17537417119, -187500.02235174447, -47385.34061733969, 12476.319071807751, -12041.890566574404, -54526.61121208802, -52137.79087517153, -42781.95414328029, -39091.23409881999, -31458.962733621924, -42213.88455794866, -0.01, 0.99, 0.228, 192.0, 0.0, 0.0, 0.0, 0.0, 0.0, 0.0, 0.0, 0.0, 0.0, 1.695675235032477E9, 0.0, 2023-09-25 15:53:55.032
232.0, -187500.02235174447, 3638.1710932458755, -16706.230247763426, -37144.19599106264, -15904.495525896016, -39269.265743406504, -187500.02235174447, -47370.96844565492, 12531.930212012556, -12042.270546230144, -54530.902747023436, -52141.72478219566, -42788.793777083614, -39092.329334298294, -31461.756701678838, -42181.49688023292, -0.004, 0.998, 0.224, 192.0, 127.5, 112.0, 15.5, 24.0, 3.5, 0.0, 0.0, 0.0, 0.0, 1.695675235032481E9, 0.0, 2023-09-25 15:53:55.032
234.0, -187500.02235174447, 3637.1876164898417, -16706.72198614144, -37148.77809867598, -15900.114583982777, -39264.10249043733, -187500.02235174447, -47369.537934009786, 12461.924548378534, -12028.770092579138, -54516.642334060954, -52130.638316945835, -42778.35551242298, -39083.9250783831, -31453.46420448592, -42211.470569547484, -0.004, 0.998, 0.224, 192.0, 0.0, 0.0, 0.0, 0.0, 0.0, 0.0, 0.0, 0.0, 0.0, 1.695675235032484E9, 0.0, 2023-09-25 15:53:55.032
236.0, -187500.02235174447, 3620.2002907038086, -16729.699579441498, -37171.93450593168, -15920.409967948195, -39281.53685111247, -187500.02235174447, -47388.894544708084, 12522.922458997067, -12047.545557921596, -54529.002848744734, -52144.45169501921, -42785.21749797076, -39100.82299719131, -31457.286352787778, -42184.06733084528, -0.004, 0.998, 0.224, 192.0, 0.0, 0.0, 0.0, 0.0, 0.0, 0.0, 0.0, 0.0, 0.0, 1.695675235032487E9, 0.0, 2023-09-25 15:53:55.032
238.0, -187500.02235174447, 3631.3314594425515, -16727.598515462698, -37164.871354683804, -15913.0562440224, -39281.26863017901, -187500.02235174447, -47398.59520180168, 12467.020746114344, -12060.621328427951, -54535.28368893667, -52156.18636085825, -42796.415721942874, -39111.574186274316, -31476.151225108057, -42207.89429043463, -0.004, 0.998, 0.224, 192.0, 0.0, 0.0, 0.0, 0.0, 0.0, 0.0, 0.0, 0.0, 0.0, 1.69567523503249E9, 0.0, 2023-09-25 15:53:55.032
240.0, -187500.02235174447, 3629.1186367414757, -16731.577125975746, -37165.564258761915, -15916.29724696842, -39282.81090054642, -187500.02235174447, -47392.180251143014, 12526.096406709721, -12057.872063859948, -54533.36143891352, -52153.57120675698, -42791.36422769597, -39110.54600602937, -31478.118178620123, -42193.45506351651, -0.004, 0.998, 0.224, 192.0, 0.0, 0.0, 0.0, 0.0, 0.0, 0.0, 0.0, 0.0, 0.0, 1.695675235091788E9, 0.0, 2023-09-25 15:53:55.091
242.0, -187500.02235174447, 3619.3956279034173, -16725.63156195063, -37165.11722387281, -15912.475098666562, -39275.501880109536, -187500.02235174447, -47381.11613763763, 12453.27442327433, -12044.48336893122, -54526.99119174376, -52147.22331133167, -42788.52555615015, -39098.699581468056, -31475.99476289687, -42222.668793519595, -0.004, 0.998, 0.224, 192.0, 0.0, 0.0, 15.5, 16.0, 3.5, 0.0, 0.0, 0.0, 0.0, 1.695675235091809E9, 0.0, 2023-09-25 15:53:55.091
