%OpenBCI Raw EXG Data
%Number of channels = 16
%Sample Rate = 125 Hz
%Board = OpenBCI_GUI$BoardCytonSerialDaisy
Sample Index, EXG Channel 0, EXG Channel 1, EXG Channel 2, EXG Channel 3, EXG Channel 4, EXG Channel 5, EXG Channel 6, EXG Channel 7, EXG Channel 8, EXG Channel 9, EXG Channel 10, EXG Channel 11, EXG Channel 12, EXG Channel 13, EXG Channel 14, EXG Channel 15, Accel Channel 0, Accel Channel 1, Accel Channel 2, Other, Other, Other, Other, Other, Other, Other, Analog Channel 0, Analog Channel 1, Analog Channel 2, Timestamp, Other, Timestamp (Formatted)
208.0, -187500.02235174447, 3833.5923950186248, -16761.953146690506, -37223.36586992334, -15576.170751592012, -39403.35385839389, -187500.02235174447, -47195.462548191856, 10959.26147213715, -11439.667515715066, -54100.16227962521, -52429.79406473566, -43049.92920755497, -39265.376539871286, -32299.522435608204, -43150.1320779481, 0.0, 0.0, 0.0, 192.0, 0.0, 0.0, 0.0, 0.0, 0.0, 0.0, 0.0, 0.0, 0.0, 1.695675172309253E9, 0.0, 2023-09-25 15:52:52.309
210.0, -187500.02235174447, 3826.909223426488, -16763.584824035745, -37225.37752692432, -15580.015251638324, -39414.90971027729, -187500.02235174447, -47204.58205992962, 10906.01961684461, -11451.446885043011, -54107.113672150816, -52438.84652124006, -43063.94375132844, -39278.04997897744, -32310.16186596893, -43158.178705952014, 0.0, 0.0, 0.0, 192.0, 0.0, 0.0, 0.0, 0.0, 0.0, 0.0, 0.0, 0.0, 0.0, 1.695675172309265E9, 0.0, 2023-09-25 15:52:52.309
212.0, -187500.02235174447, 3834.419409563471, -16761.64022226813, -37217.39795415377, -15576.595434736662, -39406.41604738427, -187500.02235174447, -47199.03882730471, 10984.630702093924, -11444.02610588385, -54103.93972443816, -52426.5754135341, -43061.26154199381, -39271.500917852034, -32304.261005432727, -43138.330356875704, 0.0, 0.0, 0.0, 192.0, 0.0, 0.0, 0.0, 0.0, 0.0, 0.0, 0.0, 0.0, 0.0, 1.695675172309275E9, 0.0, 2023-09-25 15:52:52.309
214.0, -187500.02235174447, 3834.732333985846, -16771.09501017273, -37227.36683218084, -15587.32427207521, -39413.85917828789, -187500.02235174447, -47212.00283908878, 10937.245003848673, -11454.956108922495, -54114.377989098786, -52441.88635848599, -43072.973856088385, -39280.12869121179, -32316.286243949682, -43144.32062438973, 0.042, 1.008, 0.122, 192.0, 0.5, 40.0, 15.5, 64.0, 1.5, 104.0, 0.0, 0.0, 0.0, 1.695675172309281E9, 0.0, 2023-09-25 15:52:52.309
216.0, -187500.02235174447, 3849.730354515357, -16762.355478090703, -37217.95674776516, -15574.650832969051, -39411.04285848652, -187500.02235174447, -47202.391588973, 10996.27596095514, -11441.79093143832, -54108.790052984965, -52432.83390198158, -43061.574466416176, -39276.01597023201, -32312.039412503174, -43139.1350196761, 0.042, 1.008, 0.122, 192.0, 0.0, 0.0, 0.0, 0.0, 0.0, 0.0, 0.0, 0.0, 0.0, 1.695675172309286E9, 0.0, 2023-09-25 15:52:52.309
218.0, -187500.02235174447, 3836.431066564449, -16766.423495581566, -37222.829428056415, -15577.355394048143, -39408.49475961862, -187500.02235174447, -47207.554841942176, 10935.590974758981, -11435.957126135485, -54109.50530880753, -52431.157521147434, -43068.27998975277, -39263.52134508149, -32310.027755502197, -43159.00572049686, 0.042, 1.008, 0.122, 192.0, 0.0, 0.0, 0.0, 0.0, 0.0, 0.0, 0.0, 0.0, 0.0, 1.695675172309292E9, 0.0, 2023-09-25 15:52:52.309
220.0, -187500.02235174447, 3856.8605609965994, -16774.447771841023, -37232.15010549428, -15582.831571439692, -39407.31011716248, -187500.02235174447, -47217.1437403135, 10969.900902497877, -11429.273954543347, -54104.90084944974, -52424.42964606639, -43055.38303320206, -39262.44846134764, -32308.82076130161, -43160.97267400893, 0.042, 1.008, 0.122, 192.0, 0.0, 0.0, 0.0, 0.0, 0.0, 0.0, 0.0, 0.0, 0.0, 1.695675172309296E9, 0.0, 2023-09-25 15:52:52.309
222.0, -187500.02235174447, 3813.0511418641977, -16767.585786293243, -37228.10443974786, -15575.634309725085, -39422.41989641427, -187500.02235174447, -47217.76958915825, 10954.567605801536, -11455.716068233976, -54122.87165199181, -52456.39264063748, -43077.600667190636, -39284.666095336215, -32327.21624698833, -43147.15929593555, 0.042, 1.008, 0.122, 192.0, 0.0, 0.0, 0.0, 0.0, 0.0, 0.0, 0.0, 0.0, 0.0, 1.695675172309301E9, 0.0, 2023-09-25 15:52:52.309
224.0, -187500.02235174447, 3817.0968076106083, -16754.97940242045, -37214.000488996564, -15566.693611942961, -39408.8523875299, -187500.02235174447, -47199.68702789391, 10971.644338565391, -11451.446885043011, -54109.12532915179, -52432.923308959405, -43056.59002740264, -39273.71374055311, -32312.06176424763, -43155.16122045055, 0.044, 1.006, 0.12, 192.0, 0.5, 48.0, 15.5, 56.0, 1.5, 96.0, 0.0, 0.0, 0.0, 1.695675172309306E9, 0.0, 2023-09-25 15:52:52.309
0.0, -93750.01117587223, 1821.6448213630704, -8403.89828728417, -18662.164349813982, -7788.755928129665, -19735.89744995802, -93750.01117587223, -23601.43048780328, 5482.167659064253, -5722.985353825731, -27051.466947968835, -26213.81297276175, -21528.999093651666, -19632.766501041235, -16150.8117497935, -21578.955242509277, 0.044, 1.03, 0.094, 192.0, 0.5, 48.0, 16.0, 24.0, 1.0, 120.0, 0.0, 0.0, 0.0, 1.695675172432393E9, 0.0, 2023-09-25 15:52:52.432
2.0, -187500.02235174447, 3632.270232709674, -16810.724653091987, -37329.53665608605, -15584.75382146285, -39436.769716354574, -187500.02235174447, -47215.48971122381, 11453.391486810624, -11599.169564148136, -54181.43322246471, -52468.775507065715, -42960.36576752255, -39363.83597419691, -32253.299028074627, -43143.87358950062, 0.044, 1.03, 0.094, 192.0, 0.0, 0.0, 0.0, 0.0, 0.0, 0.0, 0.0, 0.0, 0.0, 1.69567517249063E9, 0.0, 2023-09-25 15:52:52.490
4.0, -187500.02235174447, 3629.2303954637523, -16830.058912045828, -37351.82134530799, -15588.665376742529, -39424.6550708598, -187500.02235174447, -47177.201172971865, 11464.477952060457, -11599.571895548332, -54203.20382156418, -52479.4372891709, -42975.654360729975, -39377.716407503656, -32259.19988861083, -43043.268387707285, 0.044, 1.03, 0.094, 192.0, 0.0, 0.0, 0.0, 0.0, 0.0, 0.0, 0.0, 0.0, 0.0, 1.695675172490638E9, 0.0, 2023-09-25 15:52:52.490
6.0, -187500.02235174447, 3627.218738462775, -16827.734330622476, -37354.86118255391, -15580.37287954961, -39447.118574037384, -187500.02235174447, -47158.7833355407, 11446.976536151951, -11585.602055263766, -54195.51482147155, -52470.96597802234, -42960.768098922745, -39375.615343524856, -32254.081339130564, -43115.50922578684, 0.044, 1.03, 0.094, 192.0, 0.0, 0.0, 0.0, 0.0, 0.0, 0.0, 0.0, 0.0, 0.0, 1.695675172490644E9, 0.0, 2023-09-25 15:52:52.490
8.0, -187500.02235174447, 3643.9378433153447, -16855.048162346862, -37380.99037182217, -15594.476830300908, -39418.79891381251, -187500.02235174447, -47179.99514102878, 11466.310795105792, -11592.844020467284, -54203.44969075319, -52457.91255926044, -42971.675750216935, -39375.615343524856, -32242.14550759143, -43050.21978023288, 0.04, 0.99, 0.094, 192.0, 0.5, 32.0, 15.0, 120.0, 1.0, 120.0, 0.0, 0.0, 0.0, 1.695675172490651E9, 0.0, 2023-09-25 15:52:52.490
10.0, -187500.02235174447, 3640.361564202495, -16872.795447444376, -37385.1254445464, -15595.437955312485, -39467.07868183597, -187500.02235174447, -47191.886269079005, 11452.966803665973, -11581.846962195274, -54208.545888488996, -52458.516056360735, -42965.70783444737, -39384.46663432916, -32254.48367053076, -43078.27121952429, 0.04, 0.99, 0.094, 192.0, 0.0, 0.0, 0.0, 0.0, 0.0, 0.0, 0.0, 0.0, 0.0, 1.695675172490657E9, 0.0, 2023-09-25 15:52:52.490
12.0, -187500.02235174447, 3638.953404301811, -16893.984901188007, -37383.94080209026, -15585.536132518786, -39416.13905622233, -187500.02235174447, -47187.30416146567, 11490.741251795442, -11583.545694773877, -54222.314563073465, -52461.55589360665, -42975.00616014077, -39378.409311581774, -32247.24170532724, -43048.923379054475, 0.04, 0.99, 0.094, 192.0, 0.0, 0.0, 0.0, 0.0, 0.0, 0.0, 0.0, 0.0, 0.0, 1.695675172490663E9, 0.0, 2023-09-25 15:52:52.490
14.0, -187500.02235174447, 3664.6355586809586, -16887.4358400626, -37364.450080925235, -15573.108562601634, -39459.65790267681, -187500.02235174447, -47184.01845503074, 11441.120379104661, -11559.38345901769, -54190.32921675792, -52449.01656496723, -42954.73312791981, -39354.157668847765, -32231.75194641971, -43058.62403614808, 0.04, 0.99, 0.094, 192.0, 0.0, 0.0, 0.0, 0.0, 0.0, 0.0, 0.0, 0.0, 0.0, 1.695675172490669E9, 0.0, 2023-09-25 15:52:52.490
16.0, -187500.02235174447, 3655.2031225208193, -16896.644758778188, -37364.9194675588, -15577.690670214972, -39419.4024109128, -187500.02235174447, -47186.47714692082, 11451.670402487565, -11551.85092113625, -54186.4400132227, -52440.70171602985, -42957.68355818791, -39350.17905833472, -32231.304911530606, -43155.49649661738, 0.04, 0.99, 0.094, 192.0, 0.0, 0.0, 0.0, 0.0, 0.0, 0.0, 0.0, 0.0, 0.0, 1.695675172551145E9, 0.0, 2023-09-25 15:52:52.551
18.0, -187500.02235174447, 3651.313918985596, -16898.701119268077, -37369.38981644986, -15585.26791158532, -39426.085582504944, -187500.02235174447, -47196.89305983699, 11377.753183573865, -11554.019040348416, -54185.5906469334, -52443.07100094212, -42956.65537794297, -39354.9399799037, -32233.8083069096, -43135.31287137423, 0.03, 0.968, 0.116, 192.0, 0.0, 120.0, 15.0, 32.0, 1.5, 80.0, 0.0, 0.0, 0.0, 1.695675172551156E9, 0.0, 2023-09-25 15:52:52.551
20.0, -187500.02235174447, 3633.477226910261, -16917.43188112162, -37386.22068002471, -15605.60799903965, -39435.22744598716, -187500.02235174447, -47217.479016480334, 11443.042629127816, -11567.608900977242, -54201.706254685676, -52459.208960438846, -42967.92065714844, -39372.039064412005, -32249.499231517224, -43097.650181967045, 0.03, 0.968, 0.116, 192.0, 0.0, 0.0, 0.0, 0.0, 0.0, 0.0, 0.0, 0.0, 0.0, 1.695675172551162E9, 0.0, 2023-09-25 15:52:52.551
22.0, -187500.02235174447, 3637.6122996344925, -16915.241410165003, -37386.22068002471, -15611.955894464958, -39450.09135604994, -187500.02235174447, -47231.89589165401, 11414.655913669576, -11584.193895363082, -54221.84517643991, -52472.95528327886, -42986.87493644654, -39388.51230007557, -32272.946211450842, -43078.29357126875, 0.03, 0.968, 0.116, 192.0, 0.0, 0.0, 0.0, 0.0, 0.0, 0.0, 0.0, 0.0, 0.0, 1.695675172551168E9, 0.0, 2023-09-25 15:52:52.551
24.0, -187500.02235174447, 3671.8775238844783, -16891.280340108915, -37357.610447121915, -15590.94525467697, -39428.29840520601, -187500.02235174447, -47217.1437403135, 11484.639225559144, -11562.311537541334, -54212.1445193463, -52468.95432102136, -42980.68350323242, -39378.409311581774, -32265.167804380395, -43069.30816999771, 0.03, 0.968, 0.116, 192.0, 0.0, 0.0, 0.0, 0.0, 0.0, 0.0, 0.0, 0.0, 0.0, 1.695675172551174E9, 0.0, 2023-09-25 15:52:52.551
26.0, -187500.02235174447, 3671.609302951015, -16889.559255785854, -37356.135231987864, -15601.42822282651, -39427.270224961074, -187500.02235174447, -47228.029039863235, 11417.852213126685, -11554.197854304059, -54201.16981281875, -52460.41595463944, -42975.60965724107, -39372.195526623196, -32258.596391510535, -43090.60938246363, 0.03, 0.968, 0.116, 192.0, 0.0, 0.0, 0.0, 0.0, 0.0, 0.0, 0.0, 0.0, 0.0, 1.69567517255118E9, 0.0, 2023-09-25 15:52:52.551
28.0, -187500.02235174447, 3693.692826472858, -16880.23857834799, -37341.09250796944, -15593.225132611411, -39423.87275980387, -187500.02235174447, -47224.050429350194, 11477.978405711461, -11540.406827975134, -54192.00559759207, -52449.485951600785, -42967.16069783696, -39362.00313115158, -32256.875307187478, -43073.42089097749, 0.03, 0.982, 0.138, 192.0, 0.0, 120.0, 15.0, 88.0, 2.0, 40.0, 0.0, 0.0, 0.0, 1.695675172551186E9, 0.0, 2023-09-25 15:52:52.551
30.0, -187500.02235174447, 3671.184619806364, -16884.06072664985, -37346.92631327228, -15607.552600807263, -39427.09141100543, -187500.02235174447, -47237.126199856546, 11413.515974702355, -11537.054066306839, -54184.83068762192, -52449.44124811188, -42967.7418431928, -39360.729081717625, -32254.95305716432, -43094.498585998845, 0.03, 0.982, 0.138, 192.0, 0.0, 0.0, 0.0, 0.0, 0.0, 0.0, 0.0, 0.0, 0.0, 1.695675172551192E9, 0.0, 2023-09-25 15:52:52.551
32.0, -187500.02235174447, 3674.7161954303024, -16876.327023068312, -37334.14111544384, -15595.639121012584, -39432.724050608165, -187500.02235174447, -47229.41484801946, 11492.551743096321, -11555.293089782368, -54202.01917910805, -52464.23810294129, -42978.0459973867, -39381.91853546126, -32271.359237594515, -43061.08272803816, 0.03, 0.982, 0.138, 192.0, 0.0, 0.0, 0.0, 0.0, 0.0, 0.0, 0.0, 0.0, 0.0, 1.695675172611431E9, 0.0, 2023-09-25 15:52:52.611
34.0, -187500.02235174447, 3681.600532722537, -16872.99661314447, -37333.001176476624, -15594.633292512095, -39425.81736157148, -187500.02235174447, -47228.58783347462, 11418.50041371589, -11533.254269749435, -54183.78015563252, -52452.74930629126, -42964.9925786248, -39359.27621832803, -32249.208658839307, -43098.61130697862, 0.03, 0.982, 0.138, 192.0, 0.0, 0.0, 0.0, 0.0, 0.0, 0.0, 0.0, 0.0, 0.0, 1.695675172611439E9, 0.0, 2023-09-25 15:52:52.611
36.0, -187500.02235174447, 3678.8065646656237, -16884.97714817252, -37342.00892949211, -15610.190106652988, -39433.95339655321, -187500.02235174447, -47240.613071991575, 11489.757775039408, -11552.56617695882, -54195.53717321601, -52468.775507065715, -42970.6922734609, -39376.55411679198, -32264.944286935843, -43069.10700429762, 0.03, 0.982, 0.138, 192.0, 0.0, 0.0, 0.0, 0.0, 0.0, 0.0, 0.0, 0.0, 0.0, 1.695675172611445E9, 0.0, 2023-09-25 15:52:52.611
38.0, -187500.02235174447, 3676.6160937090035, -16873.309537566845, -37326.00508046211, -15596.197914623966, -39439.51898092258, -187500.02235174447, -47226.26325205127, 11458.957071179995, -11545.368915244213, -54196.945333116695, -52468.797858810176, -42980.88466893252, -39377.20231738118, -32263.781996224167, -43083.52387947129, 0.032, 0.998, 0.128, 192.0, 0.5, 0.0, 15.5, 24.0, 2.0, 0.0, 0.0, 0.0, 0.0, 1.695675172611451E9, 0.0, 2023-09-25 15:52:52.611
40.0, -187500.02235174447, 3675.6549686974254, -16850.019019844418, -37298.62419350436, -15574.740239946872, -39415.736724822134, -187500.02235174447, -47205.185557029916, 11478.93953072304, -11527.398112702145, -54177.54401892949, -52444.948547476364, -42959.00231111077, -39363.76891896354, -32244.850068670523, -43090.63173420808, 0.032, 0.998, 0.128, 192.0, 0.0, 0.0, 0.0, 0.0, 0.0, 0.0, 0.0, 0.0, 0.0, 1.695675172611457E9, 0.0, 2023-09-25 15:52:52.611
42.0, -187500.02235174447, 3655.314881243096, -16873.980089900506, -37321.758249015606, -15604.266894372333, -39435.249797731616, -187500.02235174447, -47229.72777244184, 11445.657783229088, -11541.5244151979, -54182.86373410985, -52453.822190025116, -42968.255933315275, -39364.417119552745, -32253.299028074627, -43095.19149007696, 0.032, 0.998, 0.128, 192.0, 0.0, 0.0, 0.0, 0.0, 0.0, 0.0, 0.0, 0.0, 0.0, 1.695675172611463E9, 0.0, 2023-09-25 15:52:52.611
44.0, -187500.02235174447, 3691.2341345827745, -16860.926671138604, -37306.022620919066, -15592.37576632211, -39424.87858830435, -187500.02235174447, -47218.99893510329, 11471.652862030609, -11545.234804777481, -54184.27189401053, -52461.55589360665, -42970.84873567209, -39370.63090451132, -32263.089092146052, -43086.96604811741, 0.032, 0.998, 0.128, 192.0, 0.0, 0.0, 0.0, 0.0, 0.0, 0.0, 0.0, 0.0, 0.0, 1.695675172611469E9, 0.0, 2023-09-25 15:52:52.611
46.0, -187500.02235174447, 3713.8093964826344, -16864.36883978472, -37308.28014710905, -15599.908304203547, -39436.32268146547, -187500.02235174447, -47229.39249627501, 11466.243739872425, -11538.842205863262, -54188.18344929021, -52468.82021055463, -42982.27047708875, -39371.25675335607, -32261.032731656163, -43082.920382371, 0.032, 0.998, 0.128, 192.0, 0.0, 0.0, 0.0, 0.0, 0.0, 0.0, 0.0, 0.0, 0.0, 1.695675172671572E9, 0.0, 2023-09-25 15:52:52.671
48.0, -187500.02235174447, 3692.888163672467, -16852.075380334303, -37296.009039403085, -15592.487525044386, -39431.42764942976, -187500.02235174447, -47224.6986299394, 11475.27384463237, -11541.747932642453, -54183.95896958816, -52464.95335876386, -42967.78654668171, -39375.01184642456, -32259.401054310925, -43083.52387947129, 0.042, 1.012, 0.124, 192.0, 0.5, 40.0, 15.5, 80.0, 1.5, 112.0, 0.0, 0.0, 0.0, 1.695675172671583E9, 0.0, 2023-09-25 15:52:52.671
50.0, -187500.02235174447, 3676.3255210310845, -16848.297935521357, -37289.88466142234, -15592.643987255573, -39442.42470770177, -187500.02235174447, -47223.692801438905, 11476.860818488696, -11537.612859918221, -54175.621768906334, -52457.01848948222, -42969.239410071306, -39364.12654687483, -32257.09882463203, -43084.26148703832, 0.042, 1.012, 0.124, 192.0, 0.0, 0.0, 0.0, 0.0, 0.0, 0.0, 0.0, 0.0, 0.0, 1.695675172671587E9, 0.0, 2023-09-25 15:52:52.671
52.0, -187500.02235174447, 3671.7210616732914, -16845.727484909, -37288.47650152165, -15589.581798265195, -39423.2022074702, -187500.02235174447, -47222.41875200495, 11456.40897231209, -11535.958830828527, -54161.80839083295, -52446.51316958823, -42957.03535759871, -39360.97495090663, -32242.078452358062, -43094.54328948776, 0.042, 1.012, 0.124, 192.0, 0.0, 0.0, 0.0, 0.0, 0.0, 0.0, 0.0, 0.0, 0.0, 1.69567517267159E9, 0.0, 2023-09-25 15:52:52.671
54.0, -187500.02235174447, 3695.995056151755, -16857.23863330348, -37299.160635371285, -15606.502068817863, -39437.88730357734, -187500.02235174447, -47236.63446147853, 11494.921028008584, -11548.587566445776, -54176.76170787355, -52457.71139356034, -42979.230639842826, -39372.77667197903, -32258.395225810436, -43069.822260120185, 0.042, 1.012, 0.124, 192.0, 0.0, 0.0, 0.0, 0.0, 0.0, 0.0, 0.0, 0.0, 0.0, 1.695675172671593E9, 0.0, 2023-09-25 15:52:52.671
56.0, -187500.02235174447, 3715.4857773167823, -16857.931537381595, -37299.451208049206, -15606.725586262417, -39437.17204775477, -187500.02235174447, -47240.21074059138, 11475.340899865736, -11538.909261096629, -54176.96287357365, -52459.6336435835, -42975.90022991899, -39369.870945199844, -32261.077435145075, -43084.39559750505, 0.042, 1.012, 0.124, 192.0, 0.0, 0.0, 0.0, 0.0, 0.0, 0.0, 0.0, 0.0, 0.0, 1.695675172671597E9, 0.0, 2023-09-25 15:52:52.671
58.0, -187500.02235174447, 3694.0057508952323, -16834.395150470158, -37274.73017868164, -15585.245559840867, -39427.806666828, -187500.02235174447, -47222.91049038297, 11508.913220037606, -11526.235821990469, -54171.44199269319, -52446.64728005497, -42975.76611945226, -39361.51139277356, -32260.786862467157, -43080.37228350309, 0.052000000000000005, 1.018, 0.124, 192.0, 0.5, 80.0, 15.5, 104.0, 1.5, 112.0, 0.0, 0.0, 0.0, 1.6956751726716E9, 0.0, 2023-09-25 15:52:52.671
60.0, -187500.02235174447, 3694.4751375287938, -16842.218261029513, -37286.35308579839, -15600.310635603742, -39427.85137031691, -187500.02235174447, -47249.33025232914, 11457.325393834757, -11533.746008127453, -54159.10382975386, -52438.175968906406, -42964.27732280223, -39358.203334594175, -32244.13481284795, -43097.53842324477, 0.052000000000000005, 1.018, 0.124, 192.0, 0.0, 0.0, 0.0, 0.0, 0.0, 0.0, 0.0, 0.0, 0.0, 1.695675172671603E9, 0.0, 2023-09-25 15:52:52.671
62.0, -187500.02235174447, 3707.8414807130675, -16844.00640058594, -37281.77097818506, -15596.644949513073, -39435.450963431715, -187500.02235174447, -47249.151438373505, 11512.154222983627, -11547.514682711922, -54168.7374316141, -52449.061268456135, -42977.21898284185, -39366.451128298184, -32259.356350822018, -43073.130318299576, 0.052000000000000005, 1.018, 0.124, 192.0, 0.0, 0.0, 0.0, 0.0, 0.0, 0.0, 0.0, 0.0, 0.0, 1.695675172732428E9, 0.0, 2023-09-25 15:52:52.732
64.0, -187500.02235174447, 3699.7501492202464, -16845.816891886818, -37285.70488520919, -15604.266894372333, -39422.7551725811, -187500.02235174447, -47221.390571760014, 11450.686925731532, -11542.642002420665, -54160.310823954445, -52439.47237008481, -42969.015892626754, -39350.514334501546, -32251.600295496024, -43098.67836221199, 0.052000000000000005, 1.018, 0.124, 192.0, 0.0, 0.0, 0.0, 0.0, 0.0, 0.0, 0.0, 0.0, 0.0, 1.695675172732441E9, 0.0, 2023-09-25 15:52:52.732
66.0, -187500.02235174447, 3717.6538965289474, -16849.795502399862, -37289.37057129986, -15600.623560026117, -39429.0583645175, -187500.02235174447, -47201.65398140597, 11530.99674355945, -11560.992784618473, -54178.19221951869, -52450.961166734836, -42985.42207305695, -39364.10419513038, -32260.362179322507, -43057.41704194749, 0.052000000000000005, 1.018, 0.124, 192.0, 0.0, 0.0, 0.0, 0.0, 0.0, 0.0, 0.0, 0.0, 0.0, 1.695675172732445E9, 0.0, 2023-09-25 15:52:52.732
68.0, -187500.02235174447, 3686.7414339472575, -16866.179331085605, -37310.73883899913, -15613.721682276928, -39429.55010289551, -187500.02235174447, -47222.68697293842, 11462.488646803933, -11554.555482215344, -54175.24178925059, -52453.5316173472, -42980.638799743516, -39359.320921816936, -32246.77231869368, -43087.07780683968, 0.054, 1.016, 0.124, 192.0, 0.5, 88.0, 15.5, 96.0, 1.5, 112.0, 0.0, 0.0, 0.0, 1.695675172732448E9, 0.0, 2023-09-25 15:52:52.732
70.0, -187500.02235174447, 3699.3254660755956, -16853.640002446176, -37297.93128942625, -15592.956911677948, -39429.594806384426, -187500.02235174447, -47221.01059210427, 11542.194967531559, -11560.121066584716, -54187.289379512, -52465.31098667515, -42994.63099177254, -39368.86511669935, -32259.848089200033, -43054.019576790284, 0.054, 1.016, 0.124, 192.0, 0.0, 0.0, 0.0, 0.0, 0.0, 0.0, 0.0, 0.0, 0.0, 1.695675172732451E9, 0.0, 2023-09-25 15:52:52.732
72.0, -187500.02235174447, 3695.2574485847294, -16866.04522061887, -37317.265548380085, -15612.559391565252, -39431.89703606332, -187500.02235174447, -47244.12229587106, 11463.31566134878, -11559.450514251055, -54178.01340556305, -52456.75026854876, -42985.06444514566, -39360.8408404399, -32251.354426307014, -43091.25758305283, 0.054, 1.016, 0.124, 192.0, 0.0, 0.0, 0.0, 0.0, 0.0, 0.0, 0.0, 0.0, 0.0, 1.695675172732455E9, 0.0, 2023-09-25 15:52:52.732
74.0, -187500.02235174447, 3713.8764517160002, -16859.786732171386, -37312.57168204447, -15602.210533882444, -39426.711431349686, -187500.02235174447, -47207.97952508683, 11543.446665221056, -11563.317366041823, -54185.277722511026, -52466.47327738682, -42991.70291324889, -39366.42877655372, -32260.51864153369, -43061.59681816064, 0.054, 1.016, 0.124, 192.0, 0.0, 0.0, 0.0, 0.0, 0.0, 0.0, 0.0, 0.0, 0.0, 1.69567517273246E9, 0.0, 2023-09-25 15:52:52.732
76.0, -187500.02235174447, 3718.123283162509, -16857.171578070116, -37322.96524321619, -15598.477792558408, -39429.9077308068, -187500.02235174447, -47217.411961246966, 11482.426402858067, -11561.551578229855, -54181.567332931445, -52465.7356698198, -42985.712645734864, -39362.83014569642, -32246.8617256715, -43086.273144039296, 0.054, 1.016, 0.124, 192.0, 0.0, 0.0, 0.0, 0.0, 0.0, 0.0, 0.0, 0.0, 0.0, 1.695675172790821E9, 0.0, 2023-09-25 15:52:52.790
78.0, -187500.02235174447, 3732.40604786945, -16860.90431939415, -37325.22276940617, -15600.400042581565, -39429.572454639965, -187500.02235174447, -47228.63253696353, 11545.48067396649, -11549.61574669072, -54183.10960329886, -52467.99319600978, -42986.51730853526, -39363.18777360771, -32250.013321639697, -43065.75424262932, 0.05, 1.012, 0.13, 192.0, 0.5, 72.0, 15.5, 80.0, 2.0, 8.0, 0.0, 0.0, 0.0, 1.695675172790839E9, 0.0, 2023-09-25 15:52:52.790
80.0, -187500.02235174447, 3679.745337932746, -16854.10938907974, -37323.88166473886, -15599.193048380977, -39428.05253601701, -187500.02235174447, -47222.17288281595, 11480.392394112634, -11541.56911868681, -54176.71700438464, -52465.24393144178, -42983.52217477825, -39354.96233164815, -32241.65376921341, -43097.158443589025, 0.05, 1.012, 0.13, 192.0, 0.0, 0.0, 0.0, 0.0, 0.0, 0.0, 0.0, 0.0, 0.0, 1.695675172790843E9, 0.0, 2023-09-25 15:52:52.790
82.0, -187500.02235174447, 3691.9270386608887, -16852.65652569014, -37326.206246162204, -15601.1823536375, -39433.059326774994, -187500.02235174447, -47221.882310138026, 11538.037543062872, -11559.629328206698, -54177.70048114067, -52462.561722107144, -42979.07417763164, -39358.56096250546, -32245.297103559627, -43073.398539233036, 0.05, 1.012, 0.13, 192.0, 0.0, 0.0, 0.0, 0.0, 0.0, 0.0, 0.0, 0.0, 0.0, 1.695675172790846E9, 0.0, 2023-09-25 15:52:52.790
84.0, -187500.02235174447, 3702.7676347217125, -16853.5282437239, -37332.53178984306, -15600.89178095958, -39438.04376578853, -187500.02235174447, -47229.146627086004, 11491.32239715128, -11555.76247641593, -54174.25831249456, -52464.64043434148, -42982.18107011093, -39356.97398864913, -32240.022091868177, -43091.88343189758, 0.05, 1.012, 0.13, 192.0, 0.0, 0.0, 0.0, 0.0, 0.0, 0.0, 0.0, 0.0, 0.0, 1.69567517279085E9, 0.0, 2023-09-25 15:52:52.790
86.0, -187500.02235174447, 3699.504280031238, -16857.171578070116, -37339.080850968465, -15605.295074617277, -39430.31006220699, -187500.02235174447, -47232.924071898946, 11539.579813430288, -11555.315441526824, -54175.30884448396, -52456.59380633757, -42977.062520630665, -39358.896238672285, -32240.938513390844, -43079.58997244716, 0.05, 1.012, 0.13, 192.0, 0.0, 0.0, 0.0, 0.0, 0.0, 0.0, 0.0, 0.0, 0.0, 1.695675172790853E9, 0.0, 2023-09-25 15:52:52.790
88.0, -187500.02235174447, 3725.342896621573, -16864.905281651652, -37344.2664556821, -15614.079310188212, -39437.79789659952, -187500.02235174447, -47244.032888893234, 11500.128984466672, -11555.270738037914, -54180.24858000858, -52465.40039365297, -42990.51827079276, -39359.61149449486, -32252.15908910741, -43101.494682013355, 0.042, 1.004, 0.134, 192.0, 0.5, 40.0, 15.5, 48.0, 2.0, 24.0, 0.0, 0.0, 0.0, 1.695675172790856E9, 0.0, 2023-09-25 15:52:52.790
90.0, -187500.02235174447, 3687.1214136029976, -16874.47182827852, -37346.74749931663, -15619.71194979095, -39429.863027317886, -187500.02235174447, -47236.0980196116, 11533.14251102716, -11555.494255482467, -54187.982283590114, -52469.200190210366, -42988.12663413604, -39362.83014569642, -32261.122138633986, -43093.023370864794, 0.042, 1.004, 0.134, 192.0, 0.0, 0.0, 0.0, 0.0, 0.0, 0.0, 0.0, 0.0, 0.0, 1.695675172790859E9, 0.0, 2023-09-25 15:52:52.790
92.0, -187500.02235174447, 3685.9367711468662, -16862.111313594738, -37332.375327631875, -15609.050167685768, -39426.19734122722, -187500.02235174447, -47225.81621716216, 11506.94626652554, -11549.99572634646, -54182.617864920845, -52465.512152375246, -42995.167433639464, -39352.12366010233, -32257.76937696569, -43101.8746616691, 0.042, 1.004, 0.134, 192.0, 0.0, 0.0, 0.0, 0.0, 0.0, 0.0, 0.0, 0.0, 0.0, 1.695675172851011E9, 0.0, 2023-09-25 15:52:52.851
94.0, -187500.02235174447, 3690.6753409713915, -16866.961642141538, -37345.384042904865, -15606.859696729149, -39430.220655229175, -187500.02235174447, -47239.4507812799, 11517.004551530428, -11552.677935681098, -54185.411832977756, -52465.60155935306, -42982.60575325558, -39361.33257881791, -32251.62264724048, -43091.95048713094, 0.042, 1.004, 0.134, 192.0, 0.0, 0.0, 0.0, 0.0, 0.0, 0.0, 0.0, 0.0, 0.0, 1.695675172851024E9, 0.0, 2023-09-25 15:52:52.851
96.0, -187500.02235174447, 3727.1533879224526, -16850.778979155897, -37332.88941775435, -15592.308711088743, -39422.06226850299, -187500.02235174447, -47210.86290012156, 11510.880173549673, -11538.059894807328, -54181.790850376, -52470.96597802234, -42984.259782345274, -39346.58042747741, -32237.406937766904, -43091.011713863816, 0.042, 1.004, 0.134, 192.0, 0.0, 0.0, 0.0, 0.0, 0.0, 0.0, 0.0, 0.0, 0.0, 1.695675172851028E9, 0.0, 2023-09-25 15:52:52.851
98.0, -187500.02235174447, 3728.0698094451204, -16861.619575216722, -37342.858295781414, -15603.886914716591, -39422.88928304783, -187500.02235174447, -47215.26619377926, 11498.60906584371, -11543.71488615452, -54179.24275150809, -52469.11078323255, -42967.7418431928, -39355.49877351508, -32237.071661600075, -43090.22940280788, 0.028, 1.002, 0.14400000000000002, 192.0, 0.0, 112.0, 15.5, 40.0, 2.0, 64.0, 0.0, 0.0, 0.0, 1.695675172851031E9, 0.0, 2023-09-25 15:52:52.851
100.0, -187500.02235174447, 3707.9308876908885, -16850.153130311148, -37328.53082758556, -15593.381594822598, -39417.904844034296, -187500.02235174447, -47196.60248715908, 11508.242667703948, -11531.354371470736, -54176.180562517715, -52459.4324778834, -42968.188878081906, -39342.55711347546, -32232.735423175745, -43080.416986992, 0.028, 1.002, 0.14400000000000002, 192.0, 0.0, 0.0, 0.0, 0.0, 0.0, 0.0, 0.0, 0.0, 0.0, 1.69567517285104E9, 0.0, 2023-09-25 15:52:52.851
102.0, -187500.02235174447, 3705.852175456545, -16858.646793204163, -37340.7125283137, -15605.160964150546, -39419.84944580191, -187500.02235174447, -47214.66269667896, 11483.32047263628, -11540.898566353151, -54178.72866138562, -52451.13998069048, -42958.801145410675, -39341.32776753042, -32235.417632510384, -43085.28966728326, 0.028, 1.002, 0.14400000000000002, 192.0, 0.0, 0.0, 0.0, 0.0, 0.0, 0.0, 0.0, 0.0, 0.0, 1.695675172851045E9, 0.0, 2023-09-25 15:52:52.851
104.0, -187500.02235174447, 3710.948373192355, -16856.545729225367, -37337.270359667586, -15595.862638457136, -39421.95050978071, -187500.02235174447, -47204.91733609645, 11518.703284109031, -11549.705153668541, -54186.462364967156, -52454.35863189204, -42965.55137223618, -39344.36760477634, -32239.887981401444, -43066.08951879615, 0.028, 1.002, 0.14400000000000002, 192.0, 0.0, 0.0, 0.0, 0.0, 0.0, 0.0, 0.0, 0.0, 0.0, 1.695675172851049E9, 0.0, 2023-09-25 15:52:52.851
106.0, -187500.02235174447, 3710.434283069883, -16859.00442111545, -37342.21009519221, -15599.640083270084, -39421.257605702594, -187500.02235174447, -47212.89690886699, 11487.32143489378, -11536.85290060674, -54183.42252772123, -52442.065172441624, -42954.15198256397, -39340.992491363584, -32231.461373741793, -43077.91359161301, 0.028, 1.002, 0.14400000000000002, 192.0, 0.0, 0.0, 0.0, 0.0, 0.0, 0.0, 0.0, 0.0, 0.0, 1.695675172911389E9, 0.0, 2023-09-25 15:52:52.911
108.0, -187500.02235174447, 3716.335143606084, -16845.258098275437, -37327.52499908507, -15588.352452320154, -39425.41503017128, -187500.02235174447, -47204.112673296055, 11529.052141791839, -11538.70809539653, -54174.34771947238, -52427.64829726795, -42950.66511042895, -39330.084840069394, -32226.56634170608, -43061.70857688291, 0.032, 1.002, 0.148, 192.0, 0.5, 0.0, 15.5, 40.0, 2.0, 80.0, 0.0, 0.0, 0.0, 1.695675172911402E9, 0.0, 2023-09-25 15:52:52.911
110.0, -187500.02235174447, 3712.334181348584, -16851.829511145297, -37328.68728979675, -15597.874295458114, -39416.20611145569, -187500.02235174447, -47220.98824035982, 11483.879266247663, -11545.257156521935, -54168.91624556974, -52417.76882621871, -42942.864351614044, -39328.18494179069, -32228.28742602914, -43072.16919328799, 0.032, 1.002, 0.148, 192.0, 0.0, 0.0, 0.0, 0.0, 0.0, 0.0, 0.0, 0.0, 0.0, 1.695675172911405E9, 0.0, 2023-09-25 15:52:52.911
112.0, -187500.02235174447, 3716.201033139352, -16848.610859943732, -37310.492969810126, -15597.449612313463, -39415.42380039976, -187500.02235174447, -47212.89690886699, 11535.511795939421, -11543.245499520957, -54172.00078630457, -52417.90293668544, -42949.77104065073, -39318.03724980799, -32234.367100520984, -43052.6114168896, 0.032, 1.002, 0.148, 192.0, 0.0, 0.0, 0.0, 0.0, 0.0, 0.0, 0.0, 0.0, 0.0, 1.695675172911408E9, 0.0, 2023-09-25 15:52:52.911
114.0, -187500.02235174447, 3720.40316109695, -16843.827586630297, -37299.38415281584, -15590.118240132124, -39401.76688453757, -187500.02235174447, -47209.499443709785, 11464.097972404716, -11539.155130285637, -54163.95415830066, -52412.784387205174, -42940.51741844624, -39308.94008981468, -32239.530353490158, -43079.746434658344, 0.032, 1.002, 0.148, 192.0, 0.0, 0.0, 0.0, 0.0, 0.0, 0.0, 0.0, 0.0, 0.0, 1.695675172911411E9, 0.0, 2023-09-25 15:52:52.911
116.0, -187500.02235174447, 3727.958050722844, -16838.70903715003, -37295.98668765863, -15575.544902747262, -39405.92430900625, -187500.02235174447, -47203.75504538477, 11523.687723122564, -11538.886909352173, -54164.80352458996, -52417.65706749643, -42931.464961941834, -39305.900252568754, -32223.61591143798, -43051.918512811484, 0.032, 1.002, 0.148, 192.0, 0.0, 0.0, 0.0, 0.0, 0.0, 0.0, 0.0, 0.0, 0.0, 1.695675172911415E9, 0.0, 2023-09-25 15:52:52.911
118.0, -187500.02235174447, 3710.8589662145337, -16850.600165200256, -37307.207263375196, -15592.174600622011, -39413.076867231954, -187500.02235174447, -47214.41682748996, 11457.325393834757, -11546.307688511335, -54170.41381244824, -52420.09340764206, -42937.07524980012, -39312.65047939426, -32230.209676052295, -43073.51029795531, 0.036000000000000004, 1.006, 0.146, 192.0, 0.5, 16.0, 15.5, 56.0, 2.0, 72.0, 0.0, 0.0, 0.0, 1.695675172911418E9, 0.0, 2023-09-25 15:52:52.911
120.0, -187500.02235174447, 3735.9376234933884, -16844.90047036415, -37294.28795508003, -15587.547789519764, -39416.25081494461, -187500.02235174447, -47215.646173434994, 11535.4223889616, -11552.990860103471, -54178.92982708572, -52425.05549491114, -42939.95862483486, -39318.79720911947, -32235.887019143942, -43039.60270161661, 0.036000000000000004, 1.006, 0.146, 192.0, 0.0, 0.0, 0.0, 0.0, 0.0, 0.0, 0.0, 0.0, 0.0, 1.695675172911421E9, 0.0, 2023-09-25 15:52:52.911
122.0, -187500.02235174447, 3708.690847002369, -16837.345580738256, -37281.99449562961, -15591.414641310532, -39408.0030212406, -187500.02235174447, -47204.35854248507, 11474.379774854156, -11549.839264135273, -54166.614015890846, -52415.8242244511, -42938.326947489615, -39307.48722642508, -32233.18245806485, -43065.32955948467, 0.036000000000000004, 1.006, 0.146, 192.0, 0.0, 0.0, 0.0, 0.0, 0.0, 0.0, 0.0, 0.0, 0.0, 1.695675172971702E9, 0.0, 2023-09-25 15:52:52.971
124.0, -187500.02235174447, 3716.335143606084, -16835.71390339302, -37278.03823686102, -15582.920978417515, -39412.33925966493, -187500.02235174447, -47209.90177510998, 11548.609918190232, -11556.18715956058, -54171.24082699309, -52417.90293668544, -42939.42218296792, -39314.930357328696, -32235.439984254837, -43037.07695449316, 0.036000000000000004, 1.006, 0.146, 192.0, 0.0, 0.0, 0.0, 0.0, 0.0, 0.0, 0.0, 0.0, 0.0, 1.695675172971712E9, 0.0, 2023-09-25 15:52:52.971
126.0, -187500.02235174447, 3720.2243471413076, -16819.464185174013, -37264.694245421204, -15574.2261498244, -39410.66287883078, -187500.02235174447, -47193.80851910216, 11489.914237250596, -11549.638098435176, -54162.836571077896, -52413.499643027746, -42942.26085451375, -39310.325897970906, -32227.929798117853, -43059.339291970646, 0.036000000000000004, 1.006, 0.146, 192.0, 0.0, 0.0, 0.0, 0.0, 0.0, 0.0, 0.0, 0.0, 0.0, 1.695675172971716E9, 0.0, 2023-09-25 15:52:52.971
128.0, -187500.02235174447, 3760.0328040162094, -16831.936458580072, -37275.78071067104, -15585.044394140768, -39412.093390475915, -187500.02235174447, -47208.13598729801, 11540.160958786126, -11549.660450179632, -54163.328309455916, -52409.81160519262, -42936.31529048864, -39312.40461020525, -32230.299083030117, -43040.07208825018, 0.034, 1.012, 0.148, 192.0, 0.5, 8.0, 15.5, 80.0, 2.0, 80.0, 0.0, 0.0, 0.0, 1.695675172971719E9, 0.0, 2023-09-25 15:52:52.971
130.0, -187500.02235174447, 3742.821960785623, -16829.880098090183, -37270.37158851285, -15578.137705104078, -39403.53267234954, -187500.02235174447, -47197.697722637386, 11483.789859269842, -11533.097807538248, -54159.394402431775, -52414.550175017146, -42938.84103761209, -39298.16654898722, -32226.633396939447, -43061.641521649544, 0.034, 1.012, 0.148, 192.0, 0.0, 0.0, 0.0, 0.0, 0.0, 0.0, 0.0, 0.0, 0.0, 1.695675172971722E9, 0.0, 2023-09-25 15:52:52.971
132.0, -187500.02235174447, 3715.7987017391565, -16842.844109874262, -37279.42404501725, -15586.430202296997, -39410.97580325315, -187500.02235174447, -47201.050484305684, 11544.452493721545, -11544.005458832438, -54175.24178925059, -52421.05453265364, -42945.16658129294, -39315.73502012909, -32235.350577277015, -43033.835951547146, 0.034, 1.012, 0.148, 192.0, 0.0, 0.0, 0.0, 0.0, 0.0, 0.0, 0.0, 0.0, 0.0, 1.695675172971726E9, 0.0, 2023-09-25 15:52:52.971
134.0, -187500.02235174447, 3709.11553014702, -16832.31643823581, -37270.88567863532, -15576.79660043676, -39417.45780914519, -187500.02235174447, -47200.11171103856, 11503.682911835065, -11550.174540302103, -54172.67133863823, -52418.70759948583, -42951.91680811844, -39313.879825339296, -32227.86274288449, -43049.92920755497, 0.034, 1.012, 0.148, 192.0, 0.0, 0.0, 0.0, 0.0, 0.0, 0.0, 0.0, 0.0, 0.0, 1.695675172971729E9, 0.0, 2023-09-25 15:52:52.971
136.0, -187500.02235174447, 3716.2904401171736, -16844.565194197323, -37280.13930083982, -15591.951083177459, -39412.6521840873, -187500.02235174447, -47210.23705127681, 11536.227051761993, -11554.644889193165, -54173.96773981664, -52419.80283496414, -42944.69719465938, -39312.15874101624, -32236.937551133342, -43044.4083266745, 0.034, 1.012, 0.148, 192.0, 0.0, 0.0, 0.0, 0.0, 0.0, 0.0, 0.0, 0.0, 0.0, 1.695675173031927E9, 0.0, 2023-09-25 15:52:53.031
138.0, -187500.02235174447, 3727.1533879224526, -16840.94421159556, -37283.2014898302, -15580.059955127235, -39416.228463200154, -187500.02235174447, -47197.67537089293, 11505.158126969114, -11552.163845558625, -54175.86763809534, -52429.95052694685, -42946.865313871545, -39311.04115379348, -32237.630455211456, -43060.6133414046, 0.038, 1.01, 0.146, 192.0, 0.5, 24.0, 15.5, 72.0, 2.0, 72.0, 0.0, 0.0, 0.0, 1.695675173031939E9, 0.0, 2023-09-25 15:52:53.031
140.0, -187500.02235174447, 3753.8637225465445, -16842.553537196345, -37282.888565407826, -15578.249463826354, -39411.86987303136, -187500.02235174447, -47206.5937169306, 11525.833490590274, -11557.28239503889, -54174.14655377228, -52430.5763757916, -42940.76328763524, -39315.73502012909, -32228.868571384977, -43059.71927162639, 0.038, 1.01, 0.146, 192.0, 0.0, 0.0, 0.0, 0.0, 0.0, 0.0, 0.0, 0.0, 0.0, 1.695675173031942E9, 0.0, 2023-09-25 15:52:53.031
142.0, -187500.02235174447, 3712.4682918153158, -16841.257136017935, -37280.049893862, -15578.920016160015, -39419.04478300152, -187500.02235174447, -47216.987278102315, 11493.289350663346, -11543.513720454423, -54172.64898689378, -52429.79406473566, -42947.71468016085, -39304.1791682457, -32229.919103374377, -43075.54430670074, 0.038, 1.01, 0.146, 192.0, 0.0, 0.0, 0.0, 0.0, 0.0, 0.0, 0.0, 0.0, 0.0, 1.695675173031946E9, 0.0, 2023-09-25 15:52:53.031
144.0, -187500.02235174447, 3712.535347048682, -16840.273659261904, -37278.90995489478, -15580.551693505251, -39407.6006898404, -187500.02235174447, -47190.969847556335, 11498.877286777173, -11556.85771189424, -54174.54888517247, -52426.10602690054, -42944.40662198146, -39316.76320037404, -32230.209676052295, -43070.64927466503, 0.038, 1.01, 0.146, 192.0, 0.0, 0.0, 0.0, 0.0, 0.0, 0.0, 0.0, 0.0, 0.0, 1.695675173031949E9, 0.0, 2023-09-25 15:52:53.031
146.0, -187500.02235174447, 3709.920192947411, -16838.95490633904, -37276.786539171524, -15584.55265576275, -39418.19541671222, -187500.02235174447, -47202.8386238621, 11513.830603817774, -11551.359182758235, -54173.49835318308, -52430.59872753605, -42951.69329067389, -39319.959499831144, -32231.081394086053, -43058.10994602561, 0.038, 1.01, 0.146, 192.0, 0.0, 0.0, 0.0, 0.0, 0.0, 0.0, 0.0, 0.0, 0.0, 1.695675173031952E9, 0.0, 2023-09-25 15:52:53.031
148.0, -187500.02235174447, 3725.0299721991987, -16850.66722043362, -37286.55425149849, -15588.106583131146, -39410.68523057523, -187500.02235174447, -47198.99412381579, 11506.99097001445, -11553.326136270302, -54177.34285322939, -52428.49766355725, -42945.99359583778, -39310.68352588219, -32231.707242930803, -43066.24598100734, 0.032, 1.006, 0.154, 192.0, 0.5, 0.0, 15.5, 56.0, 2.0, 104.0, 0.0, 0.0, 0.0, 1.695675173031955E9, 0.0, 2023-09-25 15:52:53.031
150.0, -187500.02235174447, 3727.2874983891847, -16854.66818269112, -37292.4998155236, -15587.681899986495, -39429.639509873334, -187500.02235174447, -47220.72001942635, 11543.871348365707, -11576.594302248277, -54198.554658717476, -52453.01752722473, -42962.60094196808, -39327.73790690159, -32247.107594860507, -43048.99043428784, 0.032, 1.006, 0.154, 192.0, 0.0, 0.0, 0.0, 0.0, 0.0, 0.0, 0.0, 0.0, 0.0, 1.695675173031958E9, 0.0, 2023-09-25 15:52:53.031
152.0, -187500.02235174447, 3714.21172788283, -16841.99474358496, -37280.47457700665, -15588.888894187081, -39422.64341385882, -187500.02235174447, -47214.72975191233, 11514.344693940246, -11569.24057832248, -54183.377824232324, -52439.74059101827, -42953.570837208135, -39330.88950286979, -32244.268923314685, -43069.4646322089, 0.032, 1.006, 0.154, 192.0, 0.0, 0.0, 0.0, 0.0, 0.0, 0.0, 0.0, 0.0, 0.0, 1.695675173090907E9, 0.0, 2023-09-25 15:52:53.090
154.0, -187500.02235174447, 3732.8977862474667, -16829.09778703425, -37261.92262910875, -15574.98610913588, -39421.48112314715, -187500.02235174447, -47214.90856586797, 11538.126950040692, -11553.795522903863, -54162.52364665552, -52419.93694543087, -42952.07327032963, -39312.35990671634, -32236.311702288593, -43070.179888031475, 0.032, 1.006, 0.154, 192.0, 0.0, 0.0, 0.0, 0.0, 0.0, 0.0, 0.0, 0.0, 0.0, 1.695675173090919E9, 0.0, 2023-09-25 15:52:53.090
156.0, -187500.02235174447, 3714.725818005302, -16860.14436008267, -37299.47355979366, -15612.492336331885, -39431.91938780778, -187500.02235174447, -47241.373031303054, 11488.081394205261, -11568.52532249991, -54175.44295495069, -52430.822244980605, -42955.090755831094, -39322.485246954595, -32247.532278005157, -43089.15651907403, 0.032, 1.006, 0.154, 192.0, 0.0, 0.0, 0.0, 0.0, 0.0, 0.0, 0.0, 0.0, 0.0, 1.695675173090922E9, 0.0, 2023-09-25 15:52:53.090
158.0, -187500.02235174447, 3715.172852894408, -16835.24451675946, -37273.165556569766, -15585.536132518786, -39442.40235595732, -187500.02235174447, -47212.27106002224, 11565.664299209631, -11586.853752953262, -54190.15040280228, -52455.90090225946, -42973.486241517814, -39336.90212212827, -32253.09786237453, -43051.940864555945, 0.042, 1.0, 0.16, 192.0, 0.5, 40.0, 15.5, 32.0, 2.5, 0.0, 0.0, 0.0, 0.0, 1.695675173090925E9, 0.0, 2023-09-25 15:52:53.090
160.0, -187500.02235174447, 3700.3983498094503, -16843.17938604109, -37279.66991420626, -15591.66051049954, -39434.62394888687, -187500.02235174447, -47205.09615005209, 11509.047330504338, -11574.023851635917, -54179.332158485915, -52448.301309144656, -42958.6893866884, -39331.76122090354, -32232.511905731193, -43071.5656961877, 0.042, 1.0, 0.16, 192.0, 0.0, 0.0, 0.0, 0.0, 0.0, 0.0, 0.0, 0.0, 0.0, 1.695675173090929E9, 0.0, 2023-09-25 15:52:53.090
162.0, -187500.02235174447, 3748.45460038836, -16811.462260659013, -37244.622378900334, -15557.775265905293, -39421.79404756952, -187500.02235174447, -47183.996103286285, 11573.845037680274, -11568.167694588625, -54176.06880379544, -52445.5296928322, -42956.94595062089, -39319.043078308474, -32222.632434681946, -43046.35292844212, 0.042, 1.0, 0.16, 192.0, 0.0, 0.0, 0.0, 0.0, 0.0, 0.0, 0.0, 0.0, 0.0, 1.695675173090932E9, 0.0, 2023-09-25 15:52:53.090
164.0, -187500.02235174447, 3734.9764984818103, -16813.80919382682, -37252.08786154841, -15570.135780589078, -39413.61330909888, -187500.02235174447, -47188.891135321996, 11473.262187631391, -11556.500083982955, -54159.37205068732, -52427.737704245774, -42937.05289805566, -39302.36867694482, -32205.46629494027, -43091.14582433055, 0.042, 1.0, 0.16, 192.0, 0.0, 0.0, 0.0, 0.0, 0.0, 0.0, 0.0, 0.0, 0.0, 1.695675173090935E9, 0.0, 2023-09-25 15:52:53.090
166.0, -187500.02235174447, 3712.758864493235, -16831.265906246415, -37267.39880650029, -15586.094926130168, -39434.42278318677, -187500.02235174447, -47212.53928095571, 11536.070589550805, -11567.76536318843, -54172.87250433833, -52448.0777917001, -42951.87210462953, -39326.530912701004, -32223.61591143798, -43057.37233845858, 0.042, 1.0, 0.16, 192.0, 0.0, 0.0, 0.0, 0.0, 0.0, 0.0, 0.0, 0.0, 0.0, 1.695675173151922E9, 0.0, 2023-09-25 15:52:53.151
168.0, -187500.02235174447, 3711.328352848095, -16833.657542903133, -37268.22582104514, -15590.922902932514, -39437.484972177146, -187500.02235174447, -47207.93482159792, 11481.912312735596, -11578.874180182718, -54182.01436782055, -52455.76679179273, -42967.38421528151, -39334.644595938276, -32233.942417376333, -43071.52099269879, 0.04, 1.006, 0.164, 192.0, 0.5, 32.0, 15.5, 56.0, 2.5, 16.0, 0.0, 0.0, 0.0, 1.695675173151936E9, 0.0, 2023-09-25 15:52:53.151
170.0, -187500.02235174447, 3711.238945870274, -16838.61963017221, -37269.36576001236, -15590.408812810043, -39435.76388785409, -187500.02235174447, -47210.63938267701, 11550.800389146852, -11575.163790603137, -54180.583856175406, -52452.05640221315, -42964.52319199123, -39332.342366259385, -32230.74611791922, -43050.24213197734, 0.04, 1.006, 0.164, 192.0, 0.0, 0.0, 0.0, 0.0, 0.0, 0.0, 0.0, 0.0, 0.0, 1.69567517315194E9, 0.0, 2023-09-25 15:52:53.151
172.0, -187500.02235174447, 3727.823940256112, -16830.729464379485, -37259.77686164103, -15584.08326912919, -39432.098201763416, -187500.02235174447, -47211.756969899776, 11485.89092324864, -11566.468962010022, -54179.24275150809, -52449.7318207898, -42966.40073852548, -39322.060563809944, -32229.114440573987, -43071.67745490998, 0.04, 1.006, 0.164, 192.0, 0.0, 0.0, 0.0, 0.0, 0.0, 0.0, 0.0, 0.0, 0.0, 1.695675173151943E9, 0.0, 2023-09-25 15:52:53.151
174.0, -187500.02235174447, 3724.78410301019, -16842.24061277397, -37270.97508561314, -15592.554580277752, -39435.585073898445, -187500.02235174447, -47212.40517048898, 11539.803330874842, -11570.827552178807, -54183.40017597678, -52448.927157989405, -42964.88081990252, -39328.699031913166, -32235.61879821048, -43053.17021050098, 0.04, 1.006, 0.164, 192.0, 0.0, 0.0, 0.0, 0.0, 0.0, 0.0, 0.0, 0.0, 0.0, 1.695675173151947E9, 0.0, 2023-09-25 15:52:53.151
176.0, -187500.02235174447, 3739.916234006433, -16828.337827722768, -37260.2462482746, -15581.26694932782, -39428.94660579522, -187500.02235174447, -47221.63644094902, 11471.809324241796, -11559.964604373528, -54175.264140995045, -52446.557873077145, -42962.06450010115, -39321.568825431925, -32231.595484208523, -43079.34410325815, 0.04, 1.006, 0.164, 192.0, 0.0, 0.0, 0.0, 0.0, 0.0, 0.0, 0.0, 0.0, 0.0, 1.69567517315195E9, 0.0, 2023-09-25 15:52:53.151
178.0, -187500.02235174447, 3737.9716322388213, -16828.516641678412, -37261.78851864201, -15586.743126719372, -39425.66089936029, -187500.02235174447, -47195.08256853611, 11516.736330596965, -11551.448589736056, -54169.318576969934, -52439.87470148501, -42956.40950875396, -39311.287022982484, -32224.152353304908, -43059.47340243738, 0.038, 1.004, 0.16, 192.0, 0.5, 24.0, 15.5, 48.0, 2.5, 0.0, 0.0, 0.0, 0.0, 1.695675173151953E9, 0.0, 2023-09-25 15:52:53.151
180.0, -187500.02235174447, 3725.991097210777, -16835.33392373728, -37274.26079204807, -15595.03562391229, -39432.47818141916, -187500.02235174447, -47213.00866758927, 11484.728632536964, -11556.589490960776, -54180.7403183866, -52451.27409115721, -42974.51442176276, -39323.9828138331, -32234.94824587682, -43059.13812627055, 0.038, 1.004, 0.16, 192.0, 0.0, 0.0, 0.0, 0.0, 0.0, 0.0, 0.0, 0.0, 0.0, 1.695675173151956E9, 0.0, 2023-09-25 15:52:53.151
182.0, -187500.02235174447, 3749.3263184221173, -16829.23189750098, -37262.9955128426, -15586.564312763729, -39424.69977434871, -187500.02235174447, -47203.79974887369, 11543.111389054226, -11559.294052039868, -54179.44391720819, -52450.29061440118, -42967.49597400379, -39329.324880757915, -32231.684891186345, -43036.47345739287, 0.038, 1.004, 0.16, 192.0, 0.0, 0.0, 0.0, 0.0, 0.0, 0.0, 0.0, 0.0, 0.0, 1.695675173211241E9, 0.0, 2023-09-25 15:52:53.211
184.0, -187500.02235174447, 3760.4798389053153, -16811.886943803664, -37241.82841084342, -15573.041507368269, -39419.313003934985, -187500.02235174447, -47194.23320224681, 11487.500248849423, -11537.679915151586, -54161.87544606632, -52436.99132645027, -42960.23165705582, -39306.16847350222, -32223.95118760481, -43063.58612341715, 0.038, 1.004, 0.16, 192.0, 0.0, 0.0, 0.0, 0.0, 0.0, 0.0, 0.0, 0.0, 0.0, 1.695675173211251E9, 0.0, 2023-09-25 15:52:53.211
186.0, -187500.02235174447, 3754.891902791489, -16818.637170629165, -37246.90225683478, -15582.630405739596, -39414.77559981056, -187500.02235174447, -47204.55970818517, 11504.241705446448, -11535.824720361796, -54151.347774427864, -52423.401465821444, -42943.37844173652, -39301.92164205571, -32217.290367757127, -43054.22074249038, 0.038, 1.004, 0.16, 192.0, 0.0, 0.0, 0.0, 0.0, 0.0, 0.0, 0.0, 0.0, 0.0, 1.695675173211254E9, 0.0, 2023-09-25 15:52:53.211
188.0, -187500.02235174447, 3739.3797921395058, -16822.928705564584, -37250.433832458715, -15582.205722594945, -39428.99130928413, -187500.02235174447, -47208.6947809094, 11497.759699554408, -11541.703229153542, -54164.7364693566, -52432.85625372604, -42963.96439837985, -39305.699086868655, -32230.09791733002, -43046.621149375576, 0.04, 1.006, 0.152, 192.0, 0.5, 32.0, 15.5, 56.0, 2.0, 96.0, 0.0, 0.0, 0.0, 1.695675173211257E9, 0.0, 2023-09-25 15:52:53.211
190.0, -187500.02235174447, 3738.1727979389193, -16833.679894647586, -37259.93332385222, -15592.286359344287, -39428.96895753968, -187500.02235174447, -47217.479016480334, 11501.961827512006, -11540.831511119784, -54166.77047810203, -52433.482102570786, -42955.247218042285, -39311.421133449214, -32233.38362376495, -43051.27031222228, 0.04, 1.006, 0.152, 192.0, 0.0, 0.0, 0.0, 0.0, 0.0, 0.0, 0.0, 0.0, 0.0, 1.695675173211261E9, 0.0, 2023-09-25 15:52:53.211
192.0, -187500.02235174447, 3749.371021911028, -16822.86165033122, -37249.60681791387, -15583.613882495629, -39430.66769011828, -187500.02235174447, -47209.11946405405, 11500.307798422313, -11538.261060507424, -54169.85501883686, -52438.3771346065, -42967.51832574825, -39306.43669443568, -32235.61879821048, -43050.48800116635, 0.04, 1.006, 0.152, 192.0, 0.0, 0.0, 0.0, 0.0, 0.0, 0.0, 0.0, 0.0, 0.0, 1.695675173211264E9, 0.0, 2023-09-25 15:52:53.211
194.0, -187500.02235174447, 3747.2252544433186, -16828.114310278215, -37249.60681791387, -15585.334966818687, -39431.33824245194, -187500.02235174447, -47212.807501889176, 11505.42634790258, -11537.501101195945, -54168.67037638073, -52428.05062866815, -42960.54458147819, -39311.46583693813, -32232.824830153568, -43044.54243714124, 0.04, 1.006, 0.152, 192.0, 0.0, 0.0, 0.0, 0.0, 0.0, 0.0, 0.0, 0.0, 0.0, 1.695675173211267E9, 0.0, 2023-09-25 15:52:53.211
196.0, -187500.02235174447, 3737.7704665387237, -16828.18136551158, -37245.98583531211, -15583.926806918003, -39433.12638200836, -187500.02235174447, -47212.53928095571, 11501.470089133989, -11531.868461593207, -54162.50129491107, -52424.51905304421, -42959.292883788694, -39297.98773503157, -32225.13583006094, -43051.67264362248, 0.04, 1.006, 0.152, 192.0, 0.0, 0.0, 0.0, 0.0, 0.0, 0.0, 0.0, 0.0, 0.0, 1.695675173271063E9, 0.0, 2023-09-25 15:52:53.271
198.0, -187500.02235174447, 3748.6781178329134, -16827.6225719002, -37244.287102733506, -15581.646928983562, -39429.013661028584, -187500.02235174447, -47212.20400478888, 11486.337958137747, -11545.927708855595, -54168.424507191725, -52431.91748045892, -42958.86820064404, -39309.78945610398, -32234.635321454447, -43055.204219246414, 0.046, 1.01, 0.132, 192.0, 0.5, 56.0, 15.5, 72.0, 2.0, 16.0, 0.0, 0.0, 0.0, 1.695675173271074E9, 0.0, 2023-09-25 15:52:53.271
200.0, -187500.02235174447, 3748.141675965986, -16827.84608934475, -37244.980006811624, -15580.998728394357, -39429.32658545096, -187500.02235174447, -47208.672429164944, 11504.353464168724, -11533.969525572005, -54166.09992576837, -52436.56664330562, -42958.93525587741, -39300.08879901037, -32231.483725486247, -43048.789268587745, 0.046, 1.01, 0.132, 192.0, 0.0, 0.0, 0.0, 0.0, 0.0, 0.0, 0.0, 0.0, 0.0, 1.695675173271078E9, 0.0, 2023-09-25 15:52:53.271
202.0, -187500.02235174447, 3740.720896806824, -16828.449586445044, -37248.064547546455, -15586.966644163926, -39427.13611449434, -187500.02235174447, -47217.97075485835, 11474.849161487718, -11541.747932642453, -54171.53139967101, -52442.10987593054, -42955.381328509015, -39309.185959003684, -32239.105670345507, -43056.23239949136, 0.046, 1.01, 0.132, 192.0, 0.0, 0.0, 0.0, 0.0, 0.0, 0.0, 0.0, 0.0, 0.0, 1.695675173271081E9, 0.0, 2023-09-25 15:52:53.271
204.0, -187500.02235174447, 3729.6791350459025, -16830.10361553474, -37248.15395452428, -15594.61094076764, -39439.34016696694, -187500.02235174447, -47224.318650283654, 11513.092996250749, -11535.914127339618, -54173.453649694166, -52441.1263991745, -42963.763232679754, -39309.85651133734, -32245.52062100418, -43042.95546328491, 0.046, 1.01, 0.132, 192.0, 0.0, 0.0, 0.0, 0.0, 0.0, 0.0, 0.0, 0.0, 0.0, 1.695675173271084E9, 0.0, 2023-09-25 15:52:53.271
206.0, -187500.02235174447, 3738.1727979389193, -16827.4214062001, -37249.875038847335, -15593.426298311508, -39439.720146622676, -187500.02235174447, -47224.65392645048, 11472.256359130903, -11541.591470431265, -54178.6392544078, -52448.32366088911, -42969.731148449326, -39319.31129924194, -32251.28737107365, -43059.45105069292, 0.046, 1.01, 0.132, 192.0, 0.0, 0.0, 0.0, 0.0, 0.0, 0.0, 0.0, 0.0, 0.0, 1.695675173271087E9, 0.0, 2023-09-25 15:52:53.271
208.0, -187500.02235174447, 3750.6003678560696, -16812.356330437226, -37230.22785547112, -15577.623614981607, -39426.33145169395, -187500.02235174447, -47195.70841738086, 11527.733388868975, -11525.095883023248, -54165.697594368175, -52432.76684674822, -42961.28218904522, -39299.887633310274, -32231.282559786152, -43040.00503301681, 0.044, 1.016, 0.122, 192.0, 0.5, 48.0, 15.5, 96.0, 1.5, 104.0, 0.0, 0.0, 0.0, 1.695675173271091E9, 0.0, 2023-09-25 15:52:53.271
210.0, -187500.02235174447, 3739.35744039505, -16816.200830483536, -37238.60975964186, -15586.899588930559, -39424.0068702706, -187500.02235174447, -47205.587888430106, 11471.675213775065, -11526.749912112942, -54162.255425722054, -52437.03602993918, -42957.415337254446, -39296.64663036426, -32223.19122829333, -43057.50644892531, 0.044, 1.016, 0.122, 192.0, 0.0, 0.0, 0.0, 0.0, 0.0, 0.0, 0.0, 0.0, 0.0, 1.695675173271094E9, 0.0, 2023-09-25 15:52:53.271
212.0, -187500.02235174447, 3746.9793852543103, -16808.623589113187, -37234.38527993981, -15577.265987070321, -39425.169160982274, -187500.02235174447, -47204.20208027388, 11532.002572059939, -11534.550670927843, -54167.97747230261, -52443.00394570875, -42962.26566580125, -39302.748656600554, -32234.05417609861, -43035.33351842565, 0.044, 1.016, 0.122, 192.0, 0.0, 0.0, 0.0, 0.0, 0.0, 0.0, 0.0, 0.0, 0.0, 1.695675173331366E9, 0.0, 2023-09-25 15:52:53.331
214.0, -187500.02235174447, 3759.138734237997, -16804.019129755394, -37234.60879738436, -15575.477847513897, -39411.266375931074, -187500.02235174447, -47191.618048145545, 11452.519768776867, -11524.067702778304, -54157.516855897535, -52436.05255318315, -42953.34731976358, -39291.70689483963, -32222.833600382044, -43074.53847820026, 0.044, 1.016, 0.122, 192.0, 0.0, 0.0, 0.0, 0.0, 0.0, 0.0, 0.0, 0.0, 0.0, 1.695675173331376E9, 0.0, 2023-09-25 15:52:53.331
216.0, -187500.02235174447, 3754.2884056911953, -16812.892772304152, -37240.8896375763, -15584.79852495176, -39420.698812091214, -187500.02235174447, -47202.61510641755, 11528.80627260283, -11533.276621493891, -54169.83266709241, -52443.205111408846, -42958.599979710576, -39297.83127282039, -32228.555646962603, -43040.00503301681, 0.044, 1.016, 0.122, 192.0, 0.0, 0.0, 0.0, 0.0, 0.0, 0.0, 0.0, 0.0, 0.0, 1.695675173331379E9, 0.0, 2023-09-25 15:52:53.331
218.0, -187500.02235174447, 3747.6722893324245, -16807.953036779527, -37235.122887506834, -15588.285397086787, -39420.788219069036, -187500.02235174447, -47210.50527221028, 11467.629548028654, -11524.604144645233, -54159.66262336524, -52434.93496596038, -42962.60094196808, -39284.71079882512, -32225.85108588351, -43067.63178916357, 0.032, 1.018, 0.11800000000000001, 192.0, 0.5, 0.0, 15.5, 104.0, 1.5, 88.0, 0.0, 0.0, 0.0, 1.695675173331382E9, 0.0, 2023-09-25 15:52:53.331
220.0, -187500.02235174447, 3741.614966585036, -16817.81015608432, -37241.82841084342, -15599.729490247904, -39434.15456225331, -187500.02235174447, -47251.56542677467, 11542.776112887397, -11532.94134532706, -54163.037736777995, -52436.209015394335, -42958.62233145504, -39296.53487164198, -32244.984179137253, -43043.246035962824, 0.032, 1.018, 0.11800000000000001, 192.0, 0.0, 0.0, 0.0, 0.0, 0.0, 0.0, 0.0, 0.0, 0.0, 1.695675173331385E9, 0.0, 2023-09-25 15:52:53.331
222.0, -187500.02235174447, 3751.270920189729, -16814.926781049584, -37245.58350391191, -15594.186257622989, -39430.198303484714, -187500.02235174447, -47220.31768802615, 11473.731574264953, -11534.28244999438, -54156.35456518586, -52439.002983451246, -42957.52709597672, -39292.690371595665, -32234.411804009895, -43081.80279514823, 0.032, 1.018, 0.11800000000000001, 192.0, 0.0, 0.0, 0.0, 0.0, 0.0, 0.0, 0.0, 0.0, 0.0, 1.695675173331388E9, 0.0, 2023-09-25 15:52:53.331
224.0, -187500.02235174447, 3749.7062980778574, -16816.826679328286, -37252.691358648706, -15583.636234240084, -39431.874684318864, -187500.02235174447, -47201.72103663934, 11535.534147683877, -11550.532168213389, -54171.12906827081, -52454.35863189204, -42962.0421483567, -39308.76127585903, -32235.32822553256, -43057.57350415868, 0.032, 1.018, 0.11800000000000001, 192.0, 0.0, 0.0, 0.0, 0.0, 0.0, 0.0, 0.0, 0.0, 0.0, 1.695675173331392E9, 0.0, 2023-09-25 15:52:53.331
226.0, -187500.02235174447, 3740.1397514509863, -16807.550705379334, -37247.148126023785, -15582.898626673059, -39426.89024530533, -187500.02235174447, -47178.676388105916, 11484.996853470428, -11544.921880355107, -54162.6354053778, -52449.66476555643, -42961.77392742323, -39299.84292982137, -32216.463353212283, -43071.34217874315, 0.032, 1.018, 0.11800000000000001, 192.0, 0.0, 0.0, 0.0, 0.0, 0.0, 0.0, 0.0, 0.0, 0.0, 1.695675173391584E9, 0.0, 2023-09-25 15:52:53.391
228.0, -187500.02235174447, 3750.421553900427, -16815.195001983047, -37258.16753604025, -15583.949158662459, -39430.37711744036, -187500.02235174447, -47203.419769217944, 11541.814987875818, -11550.129836813192, -54167.39632694678, -52446.1778934214, -42954.01787209724, -39305.900252568754, -32220.129039302952, -43046.04000401974, 0.028, 1.016, 0.122, 192.0, 0.0, 112.0, 15.5, 96.0, 1.5, 104.0, 0.0, 0.0, 0.0, 1.695675173391596E9, 0.0, 2023-09-25 15:52:53.391
230.0, -187500.02235174447, 3746.487646876293, -16795.436059884556, -37239.99556779809, -15570.739277689372, -39420.40823941329, -187500.02235174447, -47193.76381561325, 11496.619760587188, -11541.300897753346, -54161.830742577404, -52443.249814897754, -42961.751575678776, -39294.27734545199, -32213.490571199727, -43064.27902749527, 0.028, 1.016, 0.122, 192.0, 0.0, 0.0, 0.0, 0.0, 0.0, 0.0, 0.0, 0.0, 0.0, 1.6956751733916E9, 0.0, 2023-09-25 15:52:53.391
232.0, -187500.02235174447, 3723.666515787425, -16814.815022327308, -37256.80407962848, -15597.583722780195, -39423.984518526144, -187500.02235174447, -47213.16512980046, 11532.874290093696, -11549.57104320181, -54161.428411177214, -52440.09821892956, -42957.772965165736, -39298.32301119841, -32216.642167167924, -43047.02348077577, 0.028, 1.016, 0.122, 192.0, 0.0, 0.0, 0.0, 0.0, 0.0, 0.0, 0.0, 0.0, 0.0, 1.695675173391604E9, 0.0, 2023-09-25 15:52:53.391
234.0, -187500.02235174447, 3732.182530424897, -16811.57401938129, -37251.93139933722, -15593.716870989427, -39433.506361664105, -187500.02235174447, -47212.44987397789, 11520.267906220903, -11554.488426981978, -54173.47600143862, -52453.41985862492, -42977.53190726422, -39305.900252568754, -32232.66836794238, -43044.4083266745, 0.028, 1.016, 0.122, 192.0, 0.0, 0.0, 0.0, 0.0, 0.0, 0.0, 0.0, 0.0, 0.0, 1.695675173391607E9, 0.0, 2023-09-25 15:52:53.391
236.0, -187500.02235174447, 3742.0620014741426, -16802.07452798778, -37243.14716376628, -15584.865580185126, -39423.33631793694, -187500.02235174447, -47204.6938186519, 11534.818891861307, -11551.917976369617, -54167.91041706925, -52446.84844575506, -42963.65147395748, -39294.56791812991, -32223.57120794907, -43045.660024364, 0.028, 1.016, 0.122, 192.0, 0.0, 0.0, 0.0, 0.0, 0.0, 0.0, 0.0, 0.0, 0.0, 1.69567517339161E9, 0.0, 2023-09-25 15:52:53.391
238.0, -187500.02235174447, 3737.457542116349, -16816.692568861552, -37255.8429546169, -15604.266894372333, -39433.99810004212, -187500.02235174447, -47227.760818929775, 11507.929743281573, -11549.302822268346, -54162.59070188889, -52447.451942855354, -42968.21122982636, -39292.131577984284, -32225.962844605787, -43059.071071037186, 0.036000000000000004, 1.018, 0.122, 192.0, 0.5, 16.0, 15.5, 104.0, 1.5, 104.0, 0.0, 0.0, 0.0, 1.695675173391613E9, 0.0, 2023-09-25 15:52:53.391
240.0, -187500.02235174447, 3728.293326889673, -16829.835394601276, -37268.73991116761, -15607.820821740726, -39440.23423674515, -187500.02235174447, -47239.74135395782, 11527.778092357887, -11567.206569577047, -54178.52749568552, -52458.96309124984, -42974.469718273846, -39311.06350553793, -32244.559495992602, -43048.006957531805, 0.036000000000000004, 1.018, 0.122, 192.0, 0.0, 0.0, 0.0, 0.0, 0.0, 0.0, 0.0, 0.0, 0.0, 1.695675173391616E9, 0.0, 2023-09-25 15:52:53.391
242.0, -187500.02235174447, 3742.4866846187933, -16816.93843805056, -37257.9440185957, -15596.734356490893, -39445.732765881156, -187500.02235174447, -47227.269080551756, 11540.607993675232, -11564.166732331125, -54176.71700438464, -52462.42761164041, -42983.38806431151, -39313.745714872566, -32241.65376921341, -43044.743602841336, 0.036000000000000004, 1.018, 0.122, 192.0, 0.0, 0.0, 0.0, 0.0, 0.0, 0.0, 0.0, 0.0, 0.0, 1.695675173452812E9, 0.0, 2023-09-25 15:52:53.452
244.0, -187500.02235174447, 3726.8181117556232, -16827.19788875555, -37271.064492590966, -15604.557467050252, -39439.54133266704, -187500.02235174447, -47236.52270275625, 11522.99481904445, -11560.612804962731, -54167.441030435686, -52454.06805921413, -42969.39587228249, -39308.44835143666, -32234.322397032072, -43060.99332106034, 0.036000000000000004, 1.018, 0.122, 192.0, 0.0, 0.0, 0.0, 0.0, 0.0, 0.0, 0.0, 0.0, 0.0, 1.695675173452822E9, 0.0, 2023-09-25 15:52:53.452
246.0, -187500.02235174447, 3712.7141610043245, -16816.178478739082, -37257.96637034015, -15588.263045342333, -39426.644376116325, -187500.02235174447, -47184.21962073084, 11540.76445588642, -11553.370839759213, -54171.352585715365, -52453.196341180366, -42980.16941310995, -39299.753522843544, -32233.18245806485, -43056.16534425799, 0.036000000000000004, 1.018, 0.122, 192.0, 0.0, 0.0, 0.0, 0.0, 0.0, 0.0, 0.0, 0.0, 0.0, 1.695675173452826E9, 0.0, 2023-09-25 15:52:53.452
248.0, -187500.02235174447, 3726.952222222355, -16819.017150284904, -37262.77199539805, -15589.268873842822, -39423.492780148124, -187500.02235174447, -47193.31678072415, 11517.809214330819, -11550.28629902438, -54173.63246364981, -52455.94560574837, -42974.26855257375, -39300.938165299674, -32224.442925982825, -43059.80867860421, 0.034, 1.016, 0.13, 192.0, 0.5, 8.0, 15.5, 96.0, 2.0, 8.0, 0.0, 0.0, 0.0, 1.69567517345283E9, 0.0, 2023-09-25 15:52:53.452
250.0, -187500.02235174447, 3734.2165391703297, -16823.353388709234, -37271.8468036469, -15588.37480406461, -39428.05253601701, -187500.02235174447, -47198.54708892669, 11554.510778726433, -11536.51762443991, -54171.352585715365, -52455.85619877055, -42971.675750216935, -39294.0761797519, -32223.28063527115, -43037.43458240445, 0.034, 1.016, 0.13, 192.0, 0.0, 0.0, 0.0, 0.0, 0.0, 0.0, 0.0, 0.0, 0.0, 1.695675173452834E9, 0.0, 2023-09-25 15:52:53.452
252.0, -187500.02235174447, 3742.240815429785, -16803.482687888467, -37257.65344591778, -15568.995841621858, -39423.76100108159, -187500.02235174447, -47186.87947832102, 11517.965676542006, -11528.783920858374, -54167.19516124668, -52458.98544299429, -42959.9410843779, -39290.54460412796, -32215.032841567143, -43048.8116203322, 0.034, 1.016, 0.13, 192.0, 0.0, 0.0, 0.0, 0.0, 0.0, 0.0, 0.0, 0.0, 0.0, 1.695675173452838E9, 0.0, 2023-09-25 15:52:53.452
254.0, -187500.02235174447, 3738.306908405651, -16812.60219962623, -37271.623286202346, -15575.857827169637, -39431.539408152035, -187500.02235174447, -47198.457681948865, 11543.826644876795, -11539.266889007913, -54164.7364693566, -52446.982556221796, -42953.012043596755, -39291.95276402864, -32210.540140931626, -43041.793172573234, 0.034, 1.016, 0.13, 192.0, 0.0, 0.0, 0.0, 0.0, 0.0, 0.0, 0.0, 0.0, 0.0, 1.695675173452841E9, 0.0, 2023-09-25 15:52:53.452
0.0, -187500.02235174447, 3718.7491320072572, -16825.789728854863, -37285.391960786816, -15589.045356398268, -39427.359631938896, -187500.02235174447, -47204.58205992962, 11479.028937700861, -11552.208549047537, -54172.134896771306, -52446.31200388813, -42945.47950571532, -39292.93624078468, -32216.888036356933, -43068.503507197325, 0.034, 1.016, 0.13, 192.0, 0.0, 0.0, 0.0, 0.0, 0.0, 0.0, 0.0, 0.0, 0.0, 1.695675173452845E9, 0.0, 2023-09-25 15:52:53.452
2.0, -187500.02235174447, 3744.1630654529413, -16827.734330622476, -37289.459978277686, -15585.849056941159, -39431.964091296686, -187500.02235174447, -47210.25940302127, 11545.748894899953, -11556.4777322385, -54184.11543179935, -52448.97186147831, -42947.759383649754, -39294.858490807834, -32227.371004506473, -43031.64548059052, 0.026000000000000002, 1.01, 0.146, 192.0, 0.0, 104.0, 15.5, 72.0, 2.0, 72.0, 0.0, 0.0, 0.0, 1.695675173511728E9, 0.0, 2023-09-25 15:52:53.511
4.0, -187500.02235174447, 3724.8511582435563, -16829.120138778704, -37291.06930387847, -15584.84322844067, -39430.08654476244, -187500.02235174447, -47198.457681948865, 11492.305873907313, -11554.42137174861, -54184.96479808865, -52444.43445735389, -42944.831305126114, -39291.34926692835, -32223.928835860355, -43053.08080352316, 0.026000000000000002, 1.01, 0.146, 192.0, 0.0, 0.0, 0.0, 0.0, 0.0, 0.0, 0.0, 0.0, 0.0, 1.695675173511742E9, 0.0, 2023-09-25 15:52:53.511
6.0, -187500.02235174447, 3702.9240969329, -16838.507871449932, -37298.400676059806, -15598.410737325043, -39443.18466701325, -187500.02235174447, -47213.5451094562, 11552.85674963674, -11562.736220685985, -54182.08142305392, -52426.351896089545, -42943.5349039477, -39287.035380248475, -32227.192190550828, -43031.42196314597, 0.026000000000000002, 1.01, 0.146, 192.0, 0.0, 0.0, 0.0, 0.0, 0.0, 0.0, 0.0, 0.0, 0.0, 1.695675173511746E9, 0.0, 2023-09-25 15:52:53.511
8.0, -187500.02235174447, 3716.469254072816, -16829.701284134542, -37295.249080091606, -15587.123106375111, -39436.70266112121, -187500.02235174447, -47204.80557737417, 11500.397205400135, -11575.454363281056, -54184.51776319955, -52426.15073038945, -42947.558217949656, -39296.02078151951, -32228.734460918244, -43045.95059704192, 0.026000000000000002, 1.01, 0.146, 192.0, 0.0, 0.0, 0.0, 0.0, 0.0, 0.0, 0.0, 0.0, 0.0, 1.695675173511749E9, 0.0, 2023-09-25 15:52:53.511
10.0, -187500.02235174447, 3733.8812630035, -16830.46124344602, -37292.38805680133, -15589.224170353911, -39442.7599838686, -187500.02235174447, -47202.70451339537, 11575.119087114226, -11572.168656846126, -54185.36712948885, -52423.37911407699, -42942.6855376584, -39293.13740648478, -32229.919103374377, -43011.88653849203, 0.026000000000000002, 1.01, 0.146, 192.0, 0.0, 0.0, 0.0, 0.0, 0.0, 0.0, 0.0, 0.0, 0.0, 1.695675173511752E9, 0.0, 2023-09-25 15:52:53.511
12.0, -187500.02235174447, 3734.5071118482488, -16826.437929444066, -37291.56104225648, -15584.664414485029, -39434.37807969786, -187500.02235174447, -47185.180745742415, 11508.510888637411, -11562.780924174896, -54182.193181776194, -52421.56862277611, -42940.87504635752, -39284.15200521374, -32227.192190550828, -43035.914663781485, 0.03, 1.006, 0.148, 192.0, 0.0, 120.0, 15.5, 56.0, 2.0, 80.0, 0.0, 0.0, 0.0, 1.695675173511756E9, 0.0, 2023-09-25 15:52:53.511
14.0, -187500.02235174447, 3733.50128334776, -16829.18719401207, -37289.48233002214, -15584.910283674037, -39427.694908105725, -187500.02235174447, -47187.86295507705, 11567.675956210609, -11561.439819507577, -54179.55567593047, -52415.95833491783, -42933.11899103153, -39281.69331332366, -32223.861780626987, -43017.51917809477, 0.03, 1.006, 0.148, 192.0, 0.0, 0.0, 0.0, 0.0, 0.0, 0.0, 0.0, 0.0, 0.0, 1.695675173511759E9, 0.0, 2023-09-25 15:52:53.511
16.0, -187500.02235174447, 3746.9346817653995, -16814.971484538495, -37276.8982978938, -15572.147437590056, -39426.286748205035, -187500.02235174447, -47178.02818751671, 11509.42731016008, -11567.76536318843, -54178.2369230076, -52416.71829422931, -42935.57768292161, -39277.96057199962, -32222.38656549294, -43039.960329527894, 0.03, 1.006, 0.148, 192.0, 0.0, 0.0, 0.0, 0.0, 0.0, 0.0, 0.0, 0.0, 0.0, 1.695675173571922E9, 0.0, 2023-09-25 15:52:53.571
18.0, -187500.02235174447, 3741.726725307313, -16822.95105730904, -37282.82151017446, -15575.366088791621, -39424.409201670795, -187500.02235174447, -47189.87461207803, 11557.28239503889, -11557.23769154998, -54177.47696369612, -52415.04191339516, -42924.491217671784, -39275.568935342904, -32222.408917237393, -43029.03032648925, 0.03, 1.006, 0.148, 192.0, 0.0, 0.0, 0.0, 0.0, 0.0, 0.0, 0.0, 0.0, 0.0, 1.695675173571933E9, 0.0, 2023-09-25 15:52:53.571
20.0, -187500.02235174447, 3715.575184294604, -16831.37766496869, -37292.9021469238, -15587.816010453227, -39434.15456225331, -187500.02235174447, -47198.68119939342, 11509.94140028255, -11560.054011351349, -54180.06976605294, -52415.444244795355, -42932.29197648668, -39271.07623470738, -32225.448754483314, -43044.36362318559, 0.03, 1.006, 0.148, 192.0, 0.0, 0.0, 0.0, 0.0, 0.0, 0.0, 0.0, 0.0, 0.0, 1.695675173571937E9, 0.0, 2023-09-25 15:52:53.571
22.0, -187500.02235174447, 3727.7792367672014, -16827.309647477825, -37288.14122535482, -15582.026908639302, -39430.980614540655, -187500.02235174447, -47188.0864725216, 11574.560293502844, -11579.075345882815, -54195.78304240502, -52426.553061789644, -42941.23267426881, -39290.54460412796, -32236.222295310774, -43014.255823404295, 0.034, 1.004, 0.148, 192.0, 0.5, 8.0, 15.5, 48.0, 2.0, 80.0, 0.0, 0.0, 0.0, 1.69567517357194E9, 0.0, 2023-09-25 15:52:53.571
24.0, -187500.02235174447, 3736.6081758270475, -16813.876249060184, -37278.887603150324, -15572.41565852352, -39427.6055011279, -187500.02235174447, -47189.20405974437, 11524.067702778304, -11562.020964863415, -54180.56150443095, -52419.914593686415, -42932.06845904213, -39277.75940629952, -32222.967710848778, -43046.04000401974, 0.034, 1.004, 0.148, 192.0, 0.0, 0.0, 0.0, 0.0, 0.0, 0.0, 0.0, 0.0, 0.0, 1.695675173571944E9, 0.0, 2023-09-25 15:52:53.571
26.0, -187500.02235174447, 3732.0707717026203, -16810.881115303175, -37270.68451293522, -15568.146475332556, -39419.96120452419, -187500.02235174447, -47179.034016017205, 11546.061819322327, -11558.936424128584, -54177.20874276266, -52414.05843663913, -42916.5787001346, -39275.993618487555, -32221.93953060383, -43045.660024364, 0.034, 1.004, 0.148, 192.0, 0.0, 0.0, 0.0, 0.0, 0.0, 0.0, 0.0, 0.0, 0.0, 1.695675173571947E9, 0.0, 2023-09-25 15:52:53.571
28.0, -187500.02235174447, 3728.9638792233327, -16817.13960375066, -37270.639809446315, -15570.381649778086, -39421.14584698032, -187500.02235174447, -47184.37608294202, 11509.449661904533, -11552.56617695882, -54178.16986777424, -52412.42675929389, -42927.68751712889, -39263.45428984812, -32212.66355665488, -43048.94573079893, 0.034, 1.004, 0.148, 192.0, 0.0, 0.0, 0.0, 0.0, 0.0, 0.0, 0.0, 0.0, 0.0, 1.695675173571951E9, 0.0, 2023-09-25 15:52:53.571
30.0, -187500.02235174447, 3744.3418794085837, -16817.117252006203, -37268.44933848969, -15575.790771936272, -39427.11376274988, -187500.02235174447, -47191.126309767526, 11532.159034271126, -11565.217264320525, -54190.41862373574, -52421.63567800947, -42933.230749753806, -39278.787586544466, -32225.828734139057, -43031.84664629062, 0.034, 1.004, 0.148, 192.0, 0.0, 0.0, 0.0, 0.0, 0.0, 0.0, 0.0, 0.0, 0.0, 1.695675173571955E9, 0.0, 2023-09-25 15:52:53.571
32.0, -187500.02235174447, 3753.528446379715, -16820.6711793746, -37270.25982979057, -15573.823818424204, -39431.539408152035, -187500.02235174447, -47189.69579812238, 11515.506984651922, -11556.522435727411, -54179.958007330664, -52419.780483219685, -42934.05776429865, -39269.89159225125, -32219.145562546917, -43034.2606346918, 0.032, 1.004, 0.152, 192.0, 0.5, 0.0, 15.5, 48.0, 2.0, 96.0, 0.0, 0.0, 0.0, 1.695675173632251E9, 0.0, 2023-09-25 15:52:53.632
34.0, -187500.02235174447, 3753.2602254462513, -16828.360179467225, -37277.12181533835, -15583.70328947345, -39432.05349827451, -187500.02235174447, -47203.57623142913, 11525.162938256615, -11563.250310808458, -54184.29424575499, -52425.10019840005, -42933.856598598555, -39278.20644118863, -32225.13583006094, -43025.007012487295, 0.032, 1.004, 0.152, 192.0, 0.0, 0.0, 0.0, 0.0, 0.0, 0.0, 0.0, 0.0, 0.0, 1.695675173632263E9, 0.0, 2023-09-25 15:52:53.632
36.0, -187500.02235174447, 3727.3769053670057, -16818.61481888471, -37263.934286109725, -15572.952100390447, -39436.97088205467, -187500.02235174447, -47184.621952131034, 11525.5205661679, -11557.349450272257, -54185.56829518894, -52428.162387390425, -42939.82451436812, -39275.14425219825, -32231.640187697434, -43030.03615498974, 0.032, 1.004, 0.152, 192.0, 0.0, 0.0, 0.0, 0.0, 0.0, 0.0, 0.0, 0.0, 0.0, 1.695675173632266E9, 0.0, 2023-09-25 15:52:53.632
38.0, -187500.02235174447, 3718.883242473989, -16831.109444035228, -37277.971181627654, -15585.849056941159, -39434.22161748667, -187500.02235174447, -47192.0874347791, 11524.42533068959, -11568.52532249991, -54192.07265282544, -52432.163349647926, -42934.6836131434, -39289.06938899391, -32229.226199296263, -43023.88942526453, 0.032, 1.004, 0.152, 192.0, 0.0, 0.0, 0.0, 0.0, 0.0, 0.0, 0.0, 0.0, 0.0, 1.695675173632269E9, 0.0, 2023-09-25 15:52:53.632
40.0, -187500.02235174447, 3738.5527775946593, -16807.885981546162, -37256.82643137294, -15571.990975378869, -39431.606463385404, -187500.02235174447, -47182.56559164114, 11550.845092635762, -11552.499121725456, -54185.23301902211, -52425.5248815447, -42941.120915546526, -39277.22296443259, -32228.108612073498, -43022.05658221919, 0.032, 1.004, 0.152, 192.0, 0.0, 0.0, 0.0, 0.0, 0.0, 0.0, 0.0, 0.0, 0.0, 1.695675173632272E9, 0.0, 2023-09-25 15:52:53.632
42.0, -187500.02235174447, 3745.571225353626, -16809.69647284704, -37263.442547731705, -15575.254330069343, -39426.309099949496, -187500.02235174447, -47188.66761787744, 11504.197001957536, -11542.083208809283, -54167.97747230261, -52407.263506324714, -42921.51843565922, -39266.80705151642, -32213.691736899822, -43047.33640519815, 0.03, 1.002, 0.148, 192.0, 0.0, 120.0, 15.5, 40.0, 2.0, 80.0, 0.0, 0.0, 0.0, 1.695675173632275E9, 0.0, 2023-09-25 15:52:53.632
44.0, -187500.02235174447, 3738.4857223612935, -16807.193077468048, -37256.60291392838, -15571.655699212039, -39440.72597512317, -187500.02235174447, -47190.94749581188, 11557.438857250077, -11561.037488107382, -54184.04837656598, -52426.95539318984, -42937.07524980012, -39280.64278133426, -32223.79472539362, -43020.38020138505, 0.03, 1.002, 0.148, 192.0, 0.0, 0.0, 0.0, 0.0, 0.0, 0.0, 0.0, 0.0, 0.0, 1.695675173632278E9, 0.0, 2023-09-25 15:52:53.632
46.0, -187500.02235174447, 3729.947355979366, -16822.66048463112, -37273.32201878095, -15592.46517329993, -39435.18274249825, -187500.02235174447, -47208.91829835395, 11506.521583380889, -11552.700287425552, -54170.6373298928, -52417.03121865168, -42926.234653739295, -39276.53006035448, -32217.960920090787, -43042.59783537362, 0.03, 1.002, 0.148, 192.0, 0.0, 0.0, 0.0, 0.0, 0.0, 0.0, 0.0, 0.0, 0.0, 1.695675173692468E9, 0.0, 2023-09-25 15:52:53.692
48.0, -187500.02235174447, 3737.5469490941705, -16829.99185681246, -37275.601896715394, -15596.04145241278, -39447.76677462659, -187500.02235174447, -47212.13694955551, 11579.924712172116, -11568.927653900106, -54193.167888303746, -52444.00977420924, -42951.78269765171, -39293.49503439606, -32242.972522136275, -43007.61735530107, 0.03, 1.002, 0.148, 192.0, 0.0, 0.0, 0.0, 0.0, 0.0, 0.0, 0.0, 0.0, 0.0, 1.695675173692481E9, 0.0, 2023-09-25 15:52:53.692
50.0, -187500.02235174447, 3729.6791350459025, -16821.766414852907, -37269.388111756816, -15585.89376043007, -39435.719184365174, -187500.02235174447, -47199.17293777144, 11533.254269749435, -11570.24640682297, -54197.45942323917, -52441.50637883024, -42955.247218042285, -39291.3269151839, -32244.872420414977, -43027.599814844114, 0.03, 1.002, 0.148, 192.0, 0.0, 0.0, 0.0, 0.0, 0.0, 0.0, 0.0, 0.0, 0.0, 1.695675173692484E9, 0.0, 2023-09-25 15:52:53.692
52.0, -187500.02235174447, 3737.949280494366, -16814.70326360503, -37255.977065083636, -15573.421487024008, -39428.8571988174, -187500.02235174447, -47184.130213753015, 11582.405755806656, -11553.661412437132, -54183.33312074341, -52427.871814712504, -42940.80799112416, -39276.03832197646, -32227.683928928847, -43018.03326821724, 0.032, 1.01, 0.14200000000000002, 192.0, 0.5, 0.0, 15.5, 72.0, 2.0, 56.0, 0.0, 0.0, 0.0, 1.695675173692488E9, 0.0, 2023-09-25 15:52:53.692
54.0, -187500.02235174447, 3738.530425850204, -16815.28440896087, -37256.62526567284, -15579.121181860111, -39433.349899452915, -187500.02235174447, -47207.86776636455, 11504.264057190903, -11544.09486581026, -54181.52262944253, -52424.876680955495, -42937.58933992259, -39271.1209381963, -32218.27384451316, -43053.17021050098, 0.032, 1.01, 0.14200000000000002, 192.0, 0.0, 0.0, 0.0, 0.0, 0.0, 0.0, 0.0, 0.0, 0.0, 1.695675173692491E9, 0.0, 2023-09-25 15:52:53.692
56.0, -187500.02235174447, 3748.655766088458, -16814.792670582854, -37251.059681303464, -15578.920016160015, -39431.964091296686, -187500.02235174447, -47194.21085050236, 11568.726488200009, -11557.28239503889, -54192.96672260365, -52433.92913745989, -42944.9877673373, -39276.91004001022, -32233.830658654057, -43029.27619567826, 0.032, 1.01, 0.14200000000000002, 192.0, 0.0, 0.0, 0.0, 0.0, 0.0, 0.0, 0.0, 0.0, 0.0, 1.695675173692494E9, 0.0, 2023-09-25 15:52:53.692
58.0, -187500.02235174447, 3738.9998124837653, -16816.312589205812, -37260.80504188598, -15583.03273713979, -39430.42182092927, -187500.02235174447, -47193.227373746326, 11510.097862493738, -11563.630290464198, -54187.04351032299, -52437.751285761755, -42944.45132547037, -39276.70887431013, -32225.6052166945, -43044.6094923746, 0.032, 1.01, 0.14200000000000002, 192.0, 0.0, 0.0, 0.0, 0.0, 0.0, 0.0, 0.0, 0.0, 0.0, 1.695675173692498E9, 0.0, 2023-09-25 15:52:53.692
60.0, -187500.02235174447, 3745.3253561646175, -16814.099766504736, -37259.79921338549, -15587.346623819665, -39442.33530072395, -187500.02235174447, -47204.470301207344, 11590.787659977397, -11575.454363281056, -54192.452632481174, -52441.68519278589, -42952.7885261522, -39286.67775233719, -32233.584789465047, -43008.734942523835, 0.032, 1.01, 0.14200000000000002, 192.0, 0.0, 0.0, 0.0, 0.0, 0.0, 0.0, 0.0, 0.0, 0.0, 1.695675173692501E9, 0.0, 2023-09-25 15:52:53.692
62.0, -187500.02235174447, 3739.8044752841565, -16809.13767923566, -37260.55917269697, -15583.926806918003, -39436.68030937676, -187500.02235174447, -47213.88038562303, 11531.823758104296, -11570.536979500888, -54185.56829518894, -52440.053515440646, -42954.26374128625, -39288.30942968243, -32232.28838828664, -43035.60173935911, 0.026000000000000002, 1.01, 0.14, 192.0, 0.0, 104.0, 15.5, 72.0, 2.0, 48.0, 0.0, 0.0, 0.0, 1.695675173752749E9, 0.0, 2023-09-25 15:52:53.752
64.0, -187500.02235174447, 3745.9959084982765, -16794.98902499545, -37249.07037604694, -15575.433144024986, -39430.37711744036, -187500.02235174447, -47204.336190740614, 11594.095718156781, -11562.378592774701, -54177.1863910182, -52438.91357647343, -42943.713717903345, -39278.31819991091, -32223.39239399343, -43020.201387429406, 0.026000000000000002, 1.01, 0.14, 192.0, 0.0, 0.0, 0.0, 0.0, 0.0, 0.0, 0.0, 0.0, 0.0, 1.695675173752762E9, 0.0, 2023-09-25 15:52:53.752
66.0, -187500.02235174447, 3741.1679316959303, -16801.739251820953, -37263.28608552052, -15589.782963965294, -39440.6589198898, -187500.02235174447, -47216.2943740242, 11534.19304301656, -11563.71969744202, -54176.62759740682, -52442.73572477529, -42948.40758423896, -39285.984848259075, -32228.399184751415, -43047.00112903132, 0.026000000000000002, 1.01, 0.14, 192.0, 0.0, 0.0, 0.0, 0.0, 0.0, 0.0, 0.0, 0.0, 0.0, 1.695675173752766E9, 0.0, 2023-09-25 15:52:53.752
68.0, -187500.02235174447, 3744.0289549862096, -16795.883094773664, -37247.41634695725, -15582.719812717416, -39425.99617552712, -187500.02235174447, -47199.68702789391, 11588.306616342858, -11560.881025896195, -54174.81710610594, -52438.868872984516, -42946.284168515704, -39286.65540059273, -32229.583827207545, -43032.22662594636, 0.026000000000000002, 1.01, 0.14, 192.0, 0.0, 0.0, 0.0, 0.0, 0.0, 0.0, 0.0, 0.0, 0.0, 1.69567517375277E9, 0.0, 2023-09-25 15:52:53.752
70.0, -187500.02235174447, 3737.2116729273407, -16805.00260651143, -37255.93236159472, -15587.525437775308, -39432.90286456381, -187500.02235174447, -47210.46056872136, 11554.935461871084, -11566.066630609826, -54184.1377835438, -52444.099181187055, -42957.86237214356, -39284.77785405849, -32223.928835860355, -43031.600777101616, 0.026000000000000002, 1.01, 0.14, 192.0, 0.0, 0.0, 0.0, 0.0, 0.0, 0.0, 0.0, 0.0, 0.0, 1.695675173752773E9, 0.0, 2023-09-25 15:52:53.752
72.0, -187500.02235174447, 3743.984251497299, -16804.577923366778, -37256.938190095214, -15590.475868043408, -39437.395565199324, -187500.02235174447, -47222.55286247169, 11602.209401394059, -11564.345546286768, -54180.025062564026, -52440.52290207421, -42948.184066794405, -39284.97901975859, -32227.259245784197, -43015.06048620468, 0.02, 1.014, 0.138, 192.0, 0.0, 80.0, 15.5, 88.0, 2.0, 40.0, 0.0, 0.0, 0.0, 1.695675173752776E9, 0.0, 2023-09-25 15:52:53.752
74.0, -187500.02235174447, 3756.3224144366286, -16799.66053958661, -37250.21031501416, -15583.65858598454, -39441.35182396792, -187500.02235174447, -47215.62382169054, 11575.342604558778, -11566.156037587649, -54181.410870720254, -52449.26243415623, -42959.69521518889, -39289.18114771618, -32234.702376687812, -43022.45891361939, 0.02, 1.014, 0.138, 192.0, 0.0, 0.0, 0.0, 0.0, 0.0, 0.0, 0.0, 0.0, 0.0, 1.69567517375278E9, 0.0, 2023-09-25 15:52:53.752
76.0, -187500.02235174447, 3756.7470975812794, -16798.386490152658, -37249.450355702684, -15580.149362105056, -39428.812495328486, -187500.02235174447, -47209.790016387706, 11581.981072662005, -11549.146360057159, -54166.748126357576, -52436.633698538986, -42939.31042424565, -39276.686522565666, -32217.916216601876, -43029.09738172262, 0.02, 1.014, 0.138, 192.0, 0.0, 0.0, 0.0, 0.0, 0.0, 0.0, 0.0, 0.0, 0.0, 1.695675173812221E9, 0.0, 2023-09-25 15:52:53.812
78.0, -187500.02235174447, 3755.0930684915866, -16802.94624602154, -37249.89739059179, -15582.205722594945, -39433.640472130835, -187500.02235174447, -47209.05240882068, 11574.29207256938, -11554.66724093762, -54177.54401892949, -52448.61423356703, -42951.55918020716, -39282.140348212764, -32223.39239399343, -43025.40934388749, 0.02, 1.014, 0.138, 192.0, 0.0, 0.0, 0.0, 0.0, 0.0, 0.0, 0.0, 0.0, 0.0, 1.695675173812264E9, 0.0, 2023-09-25 15:52:53.812
80.0, -187500.02235174447, 3739.558606095148, -16802.7674320659, -37247.908085335264, -15583.390365051077, -39433.30519596401, -187500.02235174447, -47216.65200193549, 11588.708947743053, -11557.014174105427, -54178.16986777424, -52438.80181775115, -42946.35122374907, -39283.3696941578, -32223.101821315508, -43023.91177700899, 0.02, 1.014, 0.138, 192.0, 0.0, 0.0, 0.0, 0.0, 0.0, 0.0, 0.0, 0.0, 0.0, 1.695675173812268E9, 0.0, 2023-09-25 15:52:53.812
82.0, -187500.02235174447, 3746.2194259428297, -16806.835449556762, -37251.66317840376, -15594.99092042338, -39441.731803623654, -187500.02235174447, -47221.457626993375, 11592.195819878081, -11557.19298806107, -54182.036719565, -52442.288689886176, -42956.18599130941, -39283.459101135624, -32222.967710848778, -43022.54832059721, 0.016, 1.014, 0.138, 192.0, 0.0, 64.0, 15.5, 88.0, 2.0, 40.0, 0.0, 0.0, 0.0, 1.695675173812272E9, 0.0, 2023-09-25 15:52:53.812
84.0, -187500.02235174447, 3745.9959084982765, -16807.08131874577, -37251.32790223693, -15599.573028036719, -39444.59282691393, -187500.02235174447, -47225.3468305286, 11604.243410139492, -11563.093848597271, -54183.78015563252, -52439.45001834036, -42956.52126747624, -39288.1753192157, -32236.915199388888, -43018.63676531753, 0.016, 1.014, 0.138, 192.0, 0.0, 0.0, 0.0, 0.0, 0.0, 0.0, 0.0, 0.0, 0.0, 1.695675173812275E9, 0.0, 2023-09-25 15:52:53.812
86.0, -187500.02235174447, 3759.0716790046313, -16790.78689703785, -37237.33571020791, -15589.358280820643, -39443.72110888018, -187500.02235174447, -47218.86482463656, 11621.63306732572, -11549.056953079338, -54176.67230089573, -52438.35478286204, -42960.209305311364, -39279.79341504496, -32227.259245784197, -43014.23347165984, 0.016, 1.014, 0.138, 192.0, 0.0, 0.0, 0.0, 0.0, 0.0, 0.0, 0.0, 0.0, 0.0, 1.695675173812278E9, 0.0, 2023-09-25 15:52:53.812
88.0, -187500.02235174447, 3758.5799406266146, -16793.022071483385, -37239.4367741867, -15584.440897040475, -39429.997137784616, -187500.02235174447, -47215.042676334706, 11590.608846021754, -11542.28437450938, -54171.26317873754, -52427.55889029013, -42944.1831045369, -39272.551449841434, -32209.42255370886, -43026.39282064352, 0.016, 1.014, 0.138, 192.0, 0.0, 0.0, 0.0, 0.0, 0.0, 0.0, 0.0, 0.0, 0.0, 1.695675173812282E9, 0.0, 2023-09-25 15:52:53.812
90.0, -187500.02235174447, 3741.0338212291986, -16803.303873932826, -37252.93722783771, -15592.666339000029, -39455.96986484169, -187500.02235174447, -47230.420676519956, 11632.92069827565, -11552.789694403375, -54182.036719565, -52445.10500968755, -42955.56014246466, -39283.10147322434, -32220.91135035889, -43001.671791275956, 0.016, 1.014, 0.138, 192.0, 0.0, 0.0, 0.0, 0.0, 0.0, 0.0, 0.0, 0.0, 0.0, 1.695675173812285E9, 0.0, 2023-09-25 15:52:53.812
92.0, -187500.02235174447, 3745.0571352311536, -16793.558513350312, -37245.78466961201, -15585.647891241062, -39439.921312322775, -187500.02235174447, -47215.646173434994, 11599.191915892592, -11558.847017150763, -54183.2884172545, -52446.7813905217, -42954.10727907506, -39289.51642388301, -32221.492495714727, -43018.21208217288, 0.026000000000000002, 1.014, 0.14200000000000002, 192.0, 0.0, 104.0, 15.5, 88.0, 2.0, 56.0, 0.0, 0.0, 0.0, 1.695675173872059E9, 0.0, 2023-09-25 15:52:53.872
94.0, -187500.02235174447, 3761.3292051946173, -16783.74609753443, -37235.30170146247, -15571.745106189861, -39441.24006524564, -187500.02235174447, -47214.86386237906, 11634.261802942969, -11553.974336859506, -54172.78309736051, -52440.76877126322, -42950.620406940034, -39278.45231037764, -32217.022146823663, -43010.5007303358, 0.026000000000000002, 1.014, 0.14200000000000002, 192.0, 0.0, 0.0, 0.0, 0.0, 0.0, 0.0, 0.0, 0.0, 0.0, 1.695675173872087E9, 0.0, 2023-09-25 15:52:53.872
96.0, -187500.02235174447, 3731.467274602327, -16792.731498805464, -37247.41634695725, -15579.724678960405, -39444.0116815581, -187500.02235174447, -47224.743333428305, 11573.599168491266, -11556.164807816125, -54172.91720782724, -52442.26633814172, -42948.608749939056, -39281.69331332366, -32211.83654211003, -43033.32186142467, 0.026000000000000002, 1.014, 0.14200000000000002, 192.0, 0.0, 0.0, 0.0, 0.0, 0.0, 0.0, 0.0, 0.0, 0.0, 1.695675173872092E9, 0.0, 2023-09-25 15:52:53.872
98.0, -187500.02235174447, 3738.9104055059443, -16797.42536514108, -37248.64569290229, -15583.077440628702, -39448.75025138262, -187500.02235174447, -47227.42554276295, 11624.471738871543, -11559.76343867343, -54176.71700438464, -52443.07100094212, -42950.82157264013, -39282.65443833524, -32216.441001467825, -43010.7018960359, 0.026000000000000002, 1.014, 0.14200000000000002, 192.0, 0.0, 0.0, 0.0, 0.0, 0.0, 0.0, 0.0, 0.0, 0.0, 1.695675173872097E9, 0.0, 2023-09-25 15:52:53.872
100.0, -187500.02235174447, 3735.378829882006, -16813.362158937714, -37259.68745466322, -15597.60607452465, -39454.62876017437, -187500.02235174447, -47233.482865510334, 11578.740069715986, -11574.269720824925, -54193.90549587077, -52453.263396413735, -42963.897343146484, -39298.278307709494, -32230.52260047467, -43021.81071303019, 0.026000000000000002, 1.014, 0.14200000000000002, 192.0, 0.0, 0.0, 0.0, 0.0, 0.0, 0.0, 0.0, 0.0, 0.0, 1.695675173872102E9, 0.0, 2023-09-25 15:52:53.872
102.0, -187500.02235174447, 3735.6694025599245, -16814.41269092711, -37253.63013191582, -15594.387423323087, -39452.773565384574, -187500.02235174447, -47225.81621716216, 11644.141273992214, -11574.627348736209, -54195.42541449374, -52455.364460392535, -42970.84873567209, -39290.522252383504, -32236.33405403305, -42997.29084936272, 0.034, 1.012, 0.14200000000000002, 192.0, 0.5, 8.0, 15.5, 80.0, 2.0, 56.0, 0.0, 0.0, 0.0, 1.695675173872108E9, 0.0, 2023-09-25 15:52:53.872
104.0, -187500.02235174447, 3742.889016018989, -16806.61193211221, -37248.01984405754, -15594.94621693447, -39447.65501590431, -187500.02235174447, -47227.98433637433, 11582.67397674012, -11566.491313754477, -54189.23398127961, -52453.62102432502, -42966.26662805875, -39285.850737792345, -32233.540085976136, -43022.10128570811, 0.034, 1.012, 0.14200000000000002, 192.0, 0.0, 0.0, 0.0, 0.0, 0.0, 0.0, 0.0, 0.0, 0.0, 1.695675173872112E9, 0.0, 2023-09-25 15:52:53.872
106.0, -187500.02235174447, 3752.9249492794215, -16804.93555127806, -37246.723442879134, -15592.129897133102, -39443.78816411355, -187500.02235174447, -47217.79194090271, 11643.560128636376, -11558.422334006113, -54178.95217883017, -52442.981593964294, -42959.5387529777, -39279.99458074506, -32229.606178952003, -43001.381218598035, 0.034, 1.012, 0.14200000000000002, 192.0, 0.0, 0.0, 0.0, 0.0, 0.0, 0.0, 0.0, 0.0, 0.0, 1.695675173932266E9, 0.0, 2023-09-25 15:52:53.932
108.0, -187500.02235174447, 3738.530425850204, -16805.47199314499, -37248.53393418001, -15588.106583131146, -39449.55491418301, -187500.02235174447, -47227.000859618296, 11593.402814078667, -11569.441744022579, -54190.68684466921, -52457.95726274935, -42970.40170078298, -39292.06452275092, -32227.840391140035, -43011.48420709184, 0.034, 1.012, 0.14200000000000002, 192.0, 0.0, 0.0, 0.0, 0.0, 0.0, 0.0, 0.0, 0.0, 0.0, 1.695675173932283E9, 0.0, 2023-09-25 15:52:53.932
110.0, -187500.02235174447, 3734.5071118482488, -16805.337882678257, -37244.10828877787, -15589.402984309554, -39440.32364372297, -187500.02235174447, -47219.73654267032, 11648.321050205357, -11566.625424221209, -54183.40017597678, -52449.776524278706, -42962.82445941263, -39285.64957209225, -32222.028937581654, -42998.453140074394, 0.034, 1.012, 0.14200000000000002, 192.0, 0.0, 0.0, 0.0, 0.0, 0.0, 0.0, 0.0, 0.0, 0.0, 1.695675173932289E9, 0.0, 2023-09-25 15:52:53.932
112.0, -187500.02235174447, 3741.212635184841, -16800.28638843136, -37240.97904455412, -15587.480734286397, -39439.67544313377, -187500.02235174447, -47207.0407518197, 11588.708947743053, -11571.565159745833, -54186.10473705587, -52445.932024232396, -42970.893439161, -39283.52615636899, -32223.124173059965, -43019.73200079585, 0.032, 1.01, 0.146, 192.0, 0.5, 0.0, 15.5, 72.0, 2.0, 72.0, 0.0, 0.0, 0.0, 1.695675173932295E9, 0.0, 2023-09-25 15:52:53.932
114.0, -187500.02235174447, 3747.404068398961, -16796.620702340686, -37238.87798057532, -15585.08909762968, -39441.9106175793, -187500.02235174447, -47208.98535358731, 11637.3463436778, -11568.458267266544, -54177.8345916074, -52438.46654158432, -42960.633988456015, -39280.26280167852, -32213.490571199727, -43002.38704709853, 0.032, 1.01, 0.146, 192.0, 0.0, 0.0, 0.0, 0.0, 0.0, 0.0, 0.0, 0.0, 0.0, 1.6956751739323E9, 0.0, 2023-09-25 15:52:53.932
116.0, -187500.02235174447, 3747.493475376782, -16801.202809954026, -37239.99556779809, -15590.431164554497, -39433.03697503054, -187500.02235174447, -47216.853167635585, 11579.790601705385, -11561.685688696587, -54171.88902758229, -52435.784332249685, -42960.96926462284, -39273.333760897374, -32211.143638031917, -43021.296622907714, 0.032, 1.01, 0.146, 192.0, 0.0, 0.0, 0.0, 0.0, 0.0, 0.0, 0.0, 0.0, 0.0, 1.695675173932306E9, 0.0, 2023-09-25 15:52:53.932
118.0, -187500.02235174447, 3758.848161560078, -16795.70428081802, -37231.74777409408, -15591.481696543897, -39431.874684318864, -187500.02235174447, -47216.76376065776, 11637.25693669998, -11557.751781672452, -54177.655777651766, -52438.60065205106, -42963.02562511273, -39280.06163597842, -32222.006585837196, -42993.87103246105, 0.032, 1.01, 0.146, 192.0, 0.0, 0.0, 0.0, 0.0, 0.0, 0.0, 0.0, 0.0, 0.0, 1.695675173932311E9, 0.0, 2023-09-25 15:52:53.932
120.0, -187500.02235174447, 3767.654748875469, -16791.83742902725, -37232.86536131684, -15589.715908731927, -39433.148733752816, -187500.02235174447, -47218.328382769636, 11591.34645358878, -11545.771246644408, -54170.793792103985, -52434.68909677138, -42964.41143326896, -39269.422205617695, -32216.5527601901, -43006.27625063375, 0.032, 1.01, 0.146, 192.0, 0.0, 0.0, 0.0, 0.0, 0.0, 0.0, 0.0, 0.0, 0.0, 1.695675173932317E9, 0.0, 2023-09-25 15:52:53.932
122.0, -187500.02235174447, 3748.9016352774665, -16804.443812900045, -37250.21031501416, -15599.885952459092, -39440.14482976733, -187500.02235174447, -47234.24282482181, 11627.243355184002, -11554.555482215344, -54172.112545026845, -52437.125436917006, -42959.11406983305, -39279.88282202278, -32220.7548881477, -42995.592116784115, 0.03, 1.014, 0.14400000000000002, 192.0, 0.0, 120.0, 15.5, 88.0, 2.0, 64.0, 0.0, 0.0, 0.0, 1.695675173992442E9, 0.0, 2023-09-25 15:52:53.992
124.0, -187500.02235174447, 3740.564434595637, -16812.065757759305, -37261.36383549736, -15602.054071671257, -39458.51796370959, -187500.02235174447, -47236.433295778435, 11612.82648001033, -11571.788677190385, -54189.97158884664, -52462.94170176288, -42980.37057881005, -39297.40658967574, -32230.366138263482, -43000.91183196448, 0.03, 1.014, 0.14400000000000002, 192.0, 0.0, 0.0, 0.0, 0.0, 0.0, 0.0, 0.0, 0.0, 0.0, 1.695675173992454E9, 0.0, 2023-09-25 15:52:53.992
126.0, -187500.02235174447, 3748.9686905108324, -16806.43311815657, -37253.11604179336, -15596.846115213171, -39444.90575133631, -187500.02235174447, -47229.10192359709, 11627.91390751766, -11571.431049279101, -54186.10473705587, -52456.414992381935, -42975.67671247444, -39295.52904314149, -32229.494420229727, -43007.90792797899, 0.03, 1.014, 0.14400000000000002, 192.0, 0.0, 0.0, 0.0, 0.0, 0.0, 0.0, 0.0, 0.0, 0.0, 1.695675173992459E9, 0.0, 2023-09-25 15:52:53.992
128.0, -187500.02235174447, 3745.6159288425365, -16799.437022142058, -37243.81771609995, -15587.078402886202, -39445.84452460343, -187500.02235174447, -47218.75306591429, 11607.529116574422, -11562.24448230797, -54181.075594553426, -52451.922291746414, -42973.016854884256, -39289.44936864965, -32226.56634170608, -43016.53570133873, 0.03, 1.014, 0.14400000000000002, 192.0, 0.0, 0.0, 0.0, 0.0, 0.0, 0.0, 0.0, 0.0, 0.0, 1.695675173992464E9, 0.0, 2023-09-25 15:52:53.992
130.0, -187500.02235174447, 3744.4536381308603, -16792.999719738928, -37241.15785850977, -15587.03369939729, -39425.34797493792, -187500.02235174447, -47213.09807456709, 11595.34741584628, -11552.990860103471, -54167.32927171341, -52436.544291561164, -42956.364805265046, -39278.497013866545, -32211.501265943203, -43023.42003863097, 0.03, 1.014, 0.14400000000000002, 192.0, 0.0, 0.0, 0.0, 0.0, 0.0, 0.0, 0.0, 0.0, 0.0, 1.695675173992468E9, 0.0, 2023-09-25 15:52:53.992
132.0, -187500.02235174447, 3738.9104055059443, -16791.815077282798, -37242.45425968817, -15590.408812810043, -39442.26824549058, -187500.02235174447, -47218.90952812547, 11613.184107921614, -11570.33581380079, -54177.90164684077, -52450.64824231246, -42974.26855257375, -39288.6223541048, -32222.76654514868, -43004.823387244156, 0.028, 1.012, 0.14, 192.0, 0.0, 112.0, 15.5, 80.0, 2.0, 48.0, 0.0, 0.0, 0.0, 1.695675173992473E9, 0.0, 2023-09-25 15:52:53.992
134.0, -187500.02235174447, 3736.138789193486, -16796.57599885178, -37247.03636730151, -15601.718795504428, -39441.9106175793, -187500.02235174447, -47232.47703700984, 11602.321160116335, -11562.982089874995, -54174.571236916934, -52445.127361432, -42964.63495071351, -39289.06938899391, -32217.08920205703, -43010.00899195779, 0.028, 1.012, 0.14, 192.0, 0.0, 0.0, 0.0, 0.0, 0.0, 0.0, 0.0, 0.0, 0.0, 1.695675173992478E9, 0.0, 2023-09-25 15:52:53.992
136.0, -187500.02235174447, 3746.6664608319356, -16785.198960924026, -37238.16272475275, -15593.51570528933, -39452.6618066623, -187500.02235174447, -47227.38083927403, 11622.370674892745, -11558.534092728389, -54172.62663514932, -52442.40044860845, -42970.066424616154, -39285.984848259075, -32217.737402646235, -43004.06342793268, 0.028, 1.012, 0.14, 192.0, 0.0, 0.0, 0.0, 0.0, 0.0, 0.0, 0.0, 0.0, 0.0, 1.695675174052571E9, 0.0, 2023-09-25 15:52:54.052
138.0, -187500.02235174447, 3749.728649822313, -16793.46910637249, -37246.36581496785, -15602.94814144947, -39449.73372813866, -187500.02235174447, -47236.61210973407, 11599.81776473734, -11569.888778911683, -54177.499315440575, -52450.111800445535, -42967.87595365953, -39295.35022918585, -32225.493457972225, -43012.33357338114, 0.028, 1.012, 0.14, 192.0, 0.0, 0.0, 0.0, 0.0, 0.0, 0.0, 0.0, 0.0, 0.0, 1.695675174052598E9, 0.0, 2023-09-25 15:52:54.052
140.0, -187500.02235174447, 3751.494437634282, -16782.270882400382, -37232.86536131684, -15588.061879642235, -39444.8610478474, -187500.02235174447, -47216.24967053529, 11633.188919209113, -11559.696383440065, -54176.62759740682, -52448.010736466735, -42977.71072121987, -39291.14810122825, -32219.972577091765, -42999.32485810815, 0.028, 1.012, 0.14, 192.0, 0.0, 0.0, 0.0, 0.0, 0.0, 0.0, 0.0, 0.0, 0.0, 1.695675174052621E9, 0.0, 2023-09-25 15:52:54.052
142.0, -187500.02235174447, 3744.9006730199667, -16791.45744937151, -37241.51548642105, -15598.701310002962, -39439.31781522248, -187500.02235174447, -47227.760818929775, 11573.86738942473, -11552.365011258724, -54166.390498446286, -52434.62204153801, -42962.06450010115, -39281.358037156824, -32210.070754298064, -43026.32576541016, 0.028, 1.014, 0.13, 192.0, 0.0, 112.0, 15.5, 88.0, 2.0, 8.0, 0.0, 0.0, 0.0, 1.695675174052626E9, 0.0, 2023-09-25 15:52:54.052
144.0, -187500.02235174447, 3750.6003678560696, -16798.5653041083, -37247.86338184636, -15614.638103799594, -39452.23712351765, -187500.02235174447, -47269.44682233892, 11628.584459851321, -11551.828569391797, -54174.2359607501, -52439.29355612917, -42973.06155837316, -39281.223926690094, -32223.81707713808, -43004.666925032965, 0.028, 1.014, 0.13, 192.0, 0.0, 0.0, 0.0, 0.0, 0.0, 0.0, 0.0, 0.0, 0.0, 1.69567517405263E9, 0.0, 2023-09-25 15:52:54.052
146.0, -187500.02235174447, 3755.562455125148, -16799.6158360977, -37250.500887692084, -15607.530249062807, -39451.03012931706, -187500.02235174447, -47251.49837154131, 11582.428107551112, -11561.484522996489, -54186.4400132227, -52452.74930629126, -42980.12470962104, -39296.84779606436, -32250.14743210643, -43025.007012487295, 0.028, 1.014, 0.13, 192.0, 0.0, 0.0, 0.0, 0.0, 0.0, 0.0, 0.0, 0.0, 0.0, 1.695675174052634E9, 0.0, 2023-09-25 15:52:54.052
148.0, -187500.02235174447, 3750.175684711419, -16789.825772026274, -37241.51548642105, -15594.968568678925, -39436.300329721016, -187500.02235174447, -47198.591792415595, 11634.641782598708, -11553.482598481489, -54176.82876310692, -52447.2284254108, -42971.22871532783, -39284.040246491466, -32220.84429512552, -43008.08674193463, 0.028, 1.014, 0.13, 192.0, 0.0, 0.0, 0.0, 0.0, 0.0, 0.0, 0.0, 0.0, 0.0, 1.695675174052638E9, 0.0, 2023-09-25 15:52:54.052
150.0, -187500.02235174447, 3743.581920097103, -16797.648882585632, -37256.6923209062, -15602.456403071452, -39433.59576864192, -187500.02235174447, -47203.844452362595, 11575.275549325414, -11549.213415290526, -54176.29232123999, -52448.2789574002, -42968.97118913784, -39280.15104295624, -32223.057117826596, -43023.71061130889, 0.028, 1.014, 0.13, 192.0, 0.0, 0.0, 0.0, 0.0, 0.0, 0.0, 0.0, 0.0, 0.0, 1.695675174052643E9, 0.0, 2023-09-25 15:52:54.052
152.0, -187500.02235174447, 3740.631489829003, -16790.831600526762, -37253.98775982711, -15593.448650055963, -39435.875646576365, -187500.02235174447, -47195.77547261423, 11659.54162592192, -11560.769267173919, -54185.478888211124, -52453.79983828066, -42976.23550608582, -39287.72828432659, -32218.586768935536, -42979.431805542925, 0.026000000000000002, 1.01, 0.12, 192.0, 0.0, 104.0, 15.5, 72.0, 1.5, 96.0, 0.0, 0.0, 0.0, 1.695675174112052E9, 0.0, 2023-09-25 15:52:54.112
154.0, -187500.02235174447, 3734.4177048704273, -16795.167838951093, -37260.0450825745, -15604.356301350153, -39432.41112618579, -187500.02235174447, -47219.06599033666, 11590.877066955218, -11546.66531642262, -54176.35937647336, -52439.51707357372, -42962.22096231234, -39274.96543824261, -32217.893864857422, -43005.784512255734, 0.026000000000000002, 1.01, 0.12, 192.0, 0.0, 0.0, 0.0, 0.0, 0.0, 0.0, 0.0, 0.0, 0.0, 1.695675174112063E9, 0.0, 2023-09-25 15:52:54.112
156.0, -187500.02235174447, 3746.2194259428297, -16801.403975654124, -37269.34340826791, -15607.597304296174, -39441.5082861791, -187500.02235174447, -47236.433295778435, 11655.339497964324, -11552.253252536448, -54184.83068762192, -52436.834864239085, -42959.225828555325, -39280.15104295624, -32229.583827207545, -42978.02364564224, 0.026000000000000002, 1.01, 0.12, 192.0, 0.0, 0.0, 0.0, 0.0, 0.0, 0.0, 0.0, 0.0, 0.0, 1.695675174112069E9, 0.0, 2023-09-25 15:52:54.112
158.0, -187500.02235174447, 3745.4147631424385, -16800.64401634264, -37277.59120197192, -15610.972417708925, -39442.871742590876, -187500.02235174447, -47221.9940688603, 11581.824610450818, -11558.198816561558, -54188.58578069041, -52439.85234974055, -42956.45421224287, -39276.32889465438, -32235.10470808801, -43010.053695446695, 0.026000000000000002, 1.01, 0.12, 192.0, 0.0, 0.0, 0.0, 0.0, 0.0, 0.0, 0.0, 0.0, 0.0, 1.695675174112074E9, 0.0, 2023-09-25 15:52:54.112
160.0, -187500.02235174447, 3752.0308795012093, -16792.70914706101, -37270.75156816859, -15599.32715884771, -39432.165256996785, -187500.02235174447, -47203.0397895622, 11644.811826325873, -11566.223092821014, -54185.14361204429, -52431.8280734811, -42947.893494116484, -39274.183127186676, -32226.007548094698, -42983.209250355874, 0.026000000000000002, 1.01, 0.12, 192.0, 0.0, 0.0, 0.0, 0.0, 0.0, 0.0, 0.0, 0.0, 0.0, 1.695675174112079E9, 0.0, 2023-09-25 15:52:54.112
162.0, -187500.02235174447, 3733.16600718093, -16779.02987945436, -37261.7438151531, -15573.756763190839, -39429.19247498423, -187500.02235174447, -47185.40426318697, 11589.804183221362, -11568.748839944463, -54177.32050148494, -52419.55696577513, -42941.38913647999, -39268.90811549522, -32208.595539164013, -42993.89338420551, 0.024, 1.012, 0.134, 192.0, 0.0, 96.0, 15.5, 80.0, 2.0, 24.0, 0.0, 0.0, 0.0, 1.695675174112084E9, 0.0, 2023-09-25 15:52:54.112
164.0, -187500.02235174447, 3737.4128386274388, -16787.32237664728, -37264.001341343086, -15586.832533697194, -39428.454867417204, -187500.02235174447, -47188.399396943976, 11640.45323615709, -11555.829531649297, -54170.659681637255, -52397.13816608646, -42921.25021472576, -39259.29686537944, -32193.75398084569, -42973.37448279554, 0.024, 1.012, 0.134, 192.0, 0.0, 0.0, 0.0, 0.0, 0.0, 0.0, 0.0, 0.0, 0.0, 1.695675174112089E9, 0.0, 2023-09-25 15:52:54.112
166.0, -187500.02235174447, 3753.5507981241703, -16782.13677193365, -37259.01690232955, -15585.826705196705, -39433.059326774994, -187500.02235174447, -47190.075777778125, 11594.766270490441, -11560.411639262635, -54179.06393755245, -52402.144956844444, -42935.801200366164, -39258.73807176806, -32211.389507220927, -42983.79039571171, 0.024, 1.012, 0.134, 192.0, 0.0, 0.0, 0.0, 0.0, 0.0, 0.0, 0.0, 0.0, 0.0, 1.695675174171869E9, 0.0, 2023-09-25 15:52:54.171
168.0, -187500.02235174447, 3754.243702202285, -16783.142600434137, -37266.12475706634, -15586.474905785908, -39420.8552743024, -187500.02235174447, -47192.42271094593, 11613.474680599533, -11551.716810669519, -54165.541132156985, -52385.49290722524, -42912.533034388194, -39246.17639138417, -32198.33608845903, -42988.03722715822, 0.024, 1.012, 0.134, 192.0, 0.0, 0.0, 0.0, 0.0, 0.0, 0.0, 0.0, 0.0, 0.0, 1.695675174171898E9, 0.0, 2023-09-25 15:52:54.171
170.0, -187500.02235174447, 3761.776240083723, -16761.193187379027, -37250.47853594763, -15562.849111896649, -39416.89901553381, -187500.02235174447, -47180.57628638462, 11570.514627756433, -11562.467999752522, -54170.14559151478, -52395.14886082993, -42920.73612460329, -39250.84790597533, -32203.633451894937, -42997.71553250737, 0.024, 1.012, 0.134, 192.0, 0.0, 0.0, 0.0, 0.0, 0.0, 0.0, 0.0, 0.0, 0.0, 1.695675174171904E9, 0.0, 2023-09-25 15:52:54.171
172.0, -187500.02235174447, 3757.0376702591984, -16776.682946286553, -37266.102405321886, -15578.629443482096, -39413.926233521255, -187500.02235174447, -47190.85808883406, 11580.684671483597, -11554.175502559603, -54162.881274566804, -52383.12362231298, -42906.83333955209, -39247.09281290684, -32192.18935873382, -42991.814671971166, 0.02, 0.996, 0.146, 192.0, 0.0, 80.0, 15.5, 16.0, 2.0, 72.0, 0.0, 0.0, 0.0, 1.695675174171909E9, 0.0, 2023-09-25 15:52:54.171
174.0, -187500.02235174447, 3742.531388107704, -16790.921007504585, -37283.782635186035, -15595.728527990404, -39425.77265808257, -187500.02235174447, -47202.235126761814, 11563.406773019646, -11566.558368987844, -54177.87929509632, -52402.25671556673, -42924.53592116069, -39257.307560122914, -32211.456562454292, -42991.524099293245, 0.02, 0.996, 0.146, 192.0, 0.0, 0.0, 0.0, 0.0, 0.0, 0.0, 0.0, 0.0, 0.0, 1.695675174171915E9, 0.0, 2023-09-25 15:52:54.171
176.0, -187500.02235174447, 3760.0998592495753, -16784.28253940136, -37276.83124266043, -15582.853923184148, -39415.35674516639, -187500.02235174447, -47200.08935929411, 11583.031604651405, -11568.458267266544, -54183.511934699054, -52411.2197650933, -42925.51939791672, -39258.96158921261, -32209.19903626431, -42984.86327944556, 0.02, 0.996, 0.146, 192.0, 0.0, 0.0, 0.0, 0.0, 0.0, 0.0, 0.0, 0.0, 0.0, 1.695675174171921E9, 0.0, 2023-09-25 15:52:54.171
178.0, -187500.02235174447, 3741.860835774045, -16791.27863541587, -37275.467786248664, -15587.816010453227, -39423.82805631495, -187500.02235174447, -47192.06508303465, 11579.4329737941, -11570.5816829898, -54190.932713858216, -52413.43258779438, -42926.12289501702, -39260.548563068936, -32210.316623487073, -42981.644628244, 0.02, 0.996, 0.146, 192.0, 0.0, 0.0, 0.0, 0.0, 0.0, 0.0, 0.0, 0.0, 0.0, 1.695675174171926E9, 0.0, 2023-09-25 15:52:54.171
180.0, -187500.02235174447, 3733.858911259045, -16792.195056938537, -37275.69130369322, -15592.107545388646, -39426.1079342494, -187500.02235174447, -47197.965943570845, 11590.00534892146, -11578.538904015888, -54195.80539414947, -52415.24307909526, -42928.73804911829, -39269.489260851056, -32213.311757244082, -42976.03434038572, 0.02, 0.996, 0.146, 192.0, 0.0, 0.0, 0.0, 0.0, 0.0, 0.0, 0.0, 0.0, 0.0, 1.695675174171931E9, 0.0, 2023-09-25 15:52:54.171
182.0, -187500.02235174447, 3740.8773590180112, -16783.008489967408, -37265.14128031031, -15579.434106282486, -39418.73185857914, -187500.02235174447, -47199.374103471535, 11600.108337415259, -11573.822685935818, -54191.2903417695, -52412.73968371626, -42936.091773044085, -39262.068481691895, -32208.32731823055, -42976.36961655255, 0.024, 0.988, 0.164, 192.0, 0.0, 96.0, 15.0, 112.0, 2.5, 16.0, 0.0, 0.0, 0.0, 1.695675174232199E9, 0.0, 2023-09-25 15:52:54.232
184.0, -187500.02235174447, 3745.3924113979833, -16785.60129232422, -37265.72242566615, -15588.106583131146, -39411.534596864534, -187500.02235174447, -47205.520833196744, 11570.514627756433, -11572.325119057312, -54185.00950157756, -52407.621134236, -42925.65350838345, -39259.31921712389, -32206.114495529473, -42995.994448184305, 0.024, 0.988, 0.164, 192.0, 0.0, 0.0, 0.0, 0.0, 0.0, 0.0, 0.0, 0.0, 0.0, 1.695675174232211E9, 0.0, 2023-09-25 15:52:54.232
186.0, -187500.02235174447, 3756.7694493257345, -16785.243664412938, -37259.6427511743, -15588.508914531341, -39416.429628900245, -187500.02235174447, -47205.61024017457, 11606.031549695916, -11574.493238269477, -54192.94437085919, -52414.50547152823, -42933.00723230925, -39259.989769457556, -32210.450733953803, -42975.05086362969, 0.024, 0.988, 0.164, 192.0, 0.0, 0.0, 0.0, 0.0, 0.0, 0.0, 0.0, 0.0, 0.0, 1.695675174232216E9, 0.0, 2023-09-25 15:52:54.232
188.0, -187500.02235174447, 3751.5838446121033, -16784.84133301274, -37256.245286017096, -15588.03952789778, -39405.83490202843, -187500.02235174447, -47199.68702789391, 11555.226034549003, -11561.551578229855, -54184.89774285528, -52406.95058190234, -42927.352240962064, -39251.54081005345, -32208.684946141835, -43002.38704709853, 0.024, 0.988, 0.164, 192.0, 0.0, 0.0, 0.0, 0.0, 0.0, 0.0, 0.0, 0.0, 0.0, 1.695675174232221E9, 0.0, 2023-09-25 15:52:54.232
190.0, -187500.02235174447, 3757.1494289814746, -16780.99683296643, -37240.84493408739, -15579.03177488229, -39398.14590193581, -187500.02235174447, -47181.15743174046, 11602.544677560887, -11568.614729477731, -54188.45167022368, -52409.1187011145, -42925.675860127914, -39251.47375482008, -32208.103800785997, -42977.2413345863, 0.024, 0.988, 0.164, 192.0, 0.0, 0.0, 0.0, 0.0, 0.0, 0.0, 0.0, 0.0, 0.0, 1.695675174232226E9, 0.0, 2023-09-25 15:52:54.232
192.0, -187500.02235174447, 3754.7130888358465, -16784.774277779376, -37249.0927277914, -15590.386461065587, -39399.308192647484, -187500.02235174447, -47187.95236205487, 11550.062781579827, -11574.739107458487, -54186.08238531141, -52410.52686101519, -42923.82066533812, -39257.955760712124, -32207.18737926333, -42996.84381447361, 0.028, 0.994, 0.182, 192.0, 0.0, 112.0, 15.5, 8.0, 2.5, 88.0, 0.0, 0.0, 0.0, 1.695675174232232E9, 0.0, 2023-09-25 15:52:54.232
194.0, -187500.02235174447, 3753.4837428908045, -16773.598405551722, -37235.52521890703, -15569.778152677794, -39393.98847746712, -187500.02235174447, -47184.71135910885, 11601.717663016041, -11559.003479361949, -54178.86277185235, -52407.822299936095, -42936.00236606626, -39249.640911774746, -32200.683021626835, -42976.637837486014, 0.028, 0.994, 0.182, 192.0, 0.0, 0.0, 0.0, 0.0, 0.0, 0.0, 0.0, 0.0, 0.0, 1.695675174232237E9, 0.0, 2023-09-25 15:52:54.232
196.0, -187500.02235174447, 3756.612987114547, -16778.828713754265, -37250.67970164773, -15580.171713849511, -39406.170178195265, -187500.02235174447, -47193.51794642424, 11533.969525572005, -11556.634194449687, -54176.9852253181, -52404.73775920126, -42923.708906615844, -39261.88966773626, -32192.14465524491, -43008.33261112364, 0.028, 0.994, 0.182, 192.0, 0.0, 0.0, 0.0, 0.0, 0.0, 0.0, 0.0, 0.0, 0.0, 1.695675174292444E9, 0.0, 2023-09-25 15:52:54.292
198.0, -187500.02235174447, 3727.756885022746, -16793.759679050407, -37256.111175550366, -15602.65756877155, -39410.39465789731, -187500.02235174447, -47213.58981294511, 11605.562163062354, -11578.918883671628, -54193.07848132592, -52416.51712852921, -42942.238502769294, -39210.19008281113, -32220.129039302952, -42979.27534333174, 0.028, 0.994, 0.182, 192.0, 0.0, 0.0, 0.0, 0.0, 0.0, 0.0, 0.0, 0.0, 0.0, 1.69567517429246E9, 0.0, 2023-09-25 15:52:54.292
200.0, -187500.02235174447, 3759.541065638193, -16768.74807700492, -37235.681681118214, -15581.758687705838, -39405.47727411715, -187500.02235174447, -47197.47420519283, 11538.931612841085, -11575.342604558778, -54181.50027769808, -52414.23725059477, -42937.65639515596, -39277.602944088336, -32209.333146731038, -43009.74077102432, 0.028, 0.994, 0.182, 192.0, 0.0, 0.0, 0.0, 0.0, 0.0, 0.0, 0.0, 0.0, 0.0, 1.695675174292466E9, 0.0, 2023-09-25 15:52:54.292
202.0, -187500.02235174447, 3756.143600480986, -16772.637280540144, -37244.287102733506, -15583.368013306621, -39399.84463451441, -187500.02235174447, -47207.621897175544, 11599.527192059422, -11562.088020096782, -54179.958007330664, -52410.616267993006, -42929.20743575185, -39263.00725495902, -32198.201977992296, -42980.25882008777, 0.026000000000000002, 1.004, 0.178, 192.0, 0.0, 104.0, 15.5, 48.0, 2.5, 72.0, 0.0, 0.0, 0.0, 1.695675174292472E9, 0.0, 2023-09-25 15:52:54.292
204.0, -187500.02235174447, 3752.679080090413, -16772.234949139947, -37244.42121320024, -15578.160056848534, -39397.85532925789, -187500.02235174447, -47204.58205992962, 11540.943269842062, -11569.106467855749, -54182.684920154206, -52423.46852105481, -42942.59613068058, -39265.04126370445, -32200.303041971096, -42995.01097142827, 0.026000000000000002, 1.004, 0.178, 192.0, 0.0, 0.0, 0.0, 0.0, 0.0, 0.0, 0.0, 0.0, 0.0, 1.695675174292477E9, 0.0, 2023-09-25 15:52:54.292
206.0, -187500.02235174447, 3743.0678299746314, -16786.02597546887, -37252.8925243488, -15592.196952366467, -39398.16825368026, -187500.02235174447, -47211.466397221855, 11605.62921829572, -11571.945139401572, -54186.86469636735, -52421.97095417631, -42936.11412478854, -39266.98586547207, -32203.298175728105, -42970.31229380516, 0.026000000000000002, 1.004, 0.178, 192.0, 0.0, 0.0, 0.0, 0.0, 0.0, 0.0, 0.0, 0.0, 0.0, 1.695675174292481E9, 0.0, 2023-09-25 15:52:54.292
208.0, -187500.02235174447, 3756.635338859003, -16772.190245651036, -37236.68750961871, -15573.600300979651, -39389.65223904279, -187500.02235174447, -47175.256571204256, 11552.700287425552, -11572.213360335036, -54195.0901383269, -52435.493759571764, -42946.97707259382, -39284.88961278077, -32210.60719616499, -42993.781625483236, 0.026000000000000002, 1.004, 0.178, 192.0, 0.0, 0.0, 0.0, 0.0, 0.0, 0.0, 0.0, 0.0, 0.0, 1.695675174292487E9, 0.0, 2023-09-25 15:52:54.292
210.0, -187500.02235174447, 3738.731591550302, -16772.525521817868, -37234.80996308446, -15571.454533511942, -39382.58908779491, -187500.02235174447, -47175.81536481564, 11598.051976925371, -11570.358165545245, -54183.46723121015, -52418.03704715217, -42936.60586316656, -39280.86629877881, -32189.820073821556, -42978.2918665757, 0.026000000000000002, 1.004, 0.178, 192.0, 0.0, 0.0, 0.0, 0.0, 0.0, 0.0, 0.0, 0.0, 0.0, 1.695675174292493E9, 0.0, 2023-09-25 15:52:54.292
212.0, -187500.02235174447, 3743.8724927750222, -16773.486646829446, -37241.26961723204, -15574.717888202416, -39391.50743383258, -187500.02235174447, -47190.47810917832, 11522.301914966336, -11565.418430020623, -54177.164039273746, -52417.187680862866, -42937.32111898913, -39297.33953444237, -32185.640297608414, -43007.818521001165, 0.032, 1.0, 0.178, 192.0, 0.5, 0.0, 15.5, 32.0, 2.5, 72.0, 0.0, 0.0, 0.0, 1.695675174352763E9, 0.0, 2023-09-25 15:52:54.352
214.0, -187500.02235174447, 3736.8316932716007, -16779.208693410004, -37242.253093988074, -15586.005519152346, -39390.47925358763, -187500.02235174447, -47199.441158704896, 11571.073421367815, -11577.466020282034, -54186.663530667254, -52424.83197746659, -42945.524209204224, -39325.2345115226, -32197.21850123626, -42981.823442199646, 0.032, 1.0, 0.178, 192.0, 0.0, 0.0, 0.0, 0.0, 0.0, 0.0, 0.0, 0.0, 0.0, 1.695675174352781E9, 0.0, 2023-09-25 15:52:54.352
216.0, -187500.02235174447, 3743.0231264857207, -16778.873417243172, -37244.287102733506, -15586.184333107989, -39397.38594262433, -187500.02235174447, -47208.27009776475, 11534.3718569722, -11580.081174383304, -54186.77528938953, -52429.79406473566, -42951.38036625151, -39325.703898156156, -32200.392448948915, -42990.205346370385, 0.032, 1.0, 0.178, 192.0, 0.0, 0.0, 0.0, 0.0, 0.0, 0.0, 0.0, 0.0, 0.0, 1.695675174352791E9, 0.0, 2023-09-25 15:52:54.352
218.0, -187500.02235174447, 3772.6838913779134, -16772.88314972915, -37235.43581192921, -15585.737298218883, -39383.75137850659, -187500.02235174447, -47198.50238543778, 11573.286244068891, -11580.639967994686, -54187.19997253418, -52433.70562001534, -42951.58153195161, -39341.841857652886, -32207.790876363622, -42979.3423985651, 0.032, 1.0, 0.178, 192.0, 0.0, 0.0, 0.0, 0.0, 0.0, 0.0, 0.0, 0.0, 0.0, 1.695675174352799E9, 0.0, 2023-09-25 15:52:54.352
220.0, -187500.02235174447, 3766.5148099082485, -16768.725725260465, -37235.74873635158, -15573.89087365757, -39383.61726803986, -187500.02235174447, -47194.03203654671, 11521.005513787928, -11568.637081222187, -54176.314672984445, -52428.922346701904, -42943.780773136714, -39319.55716843095, -32202.38175420544, -43003.50463432129, 0.032, 1.0, 0.178, 192.0, 0.0, 0.0, 0.0, 0.0, 0.0, 0.0, 0.0, 0.0, 0.0, 1.695675174352806E9, 0.0, 2023-09-25 15:52:54.352
222.0, -187500.02235174447, 3744.4759898753155, -16781.689737044544, -37247.75162312408, -15585.782001707794, -39385.36070410737, -187500.02235174447, -47215.377952501534, 11541.56911868681, -11579.790601705385, -54189.63631267981, -52437.550120061656, -42945.54656094868, -39331.984738348096, -32199.341916959518, -42990.27240160375, 0.026000000000000002, 1.008, 0.17, 192.0, 0.0, 104.0, 15.5, 64.0, 2.5, 40.0, 0.0, 0.0, 0.0, 1.695675174352811E9, 0.0, 2023-09-25 15:52:54.352
224.0, -187500.02235174447, 3721.9677832088214, -16783.83550451225, -37250.65734990327, -15597.002577424359, -39393.31792513346, -187500.02235174447, -47221.63644094902, 11532.650772649142, -11591.704081500064, -54193.83844063741, -52438.28772762868, -42964.50084024678, -39333.817581393436, -32212.350632232505, -42990.38416032602, 0.026000000000000002, 1.008, 0.17, 192.0, 0.0, 0.0, 0.0, 0.0, 0.0, 0.0, 0.0, 0.0, 0.0, 1.695675174352815E9, 0.0, 2023-09-25 15:52:54.352
226.0, -187500.02235174447, 3727.1533879224526, -16790.205751682013, -37254.25598076057, -15601.60703678215, -39396.022486212554, -187500.02235174447, -47232.14176084301, 11556.14245607167, -11602.142346160692, -54200.923943629736, -52446.93785273288, -42969.46292751586, -39358.35979680536, -32220.7548881477, -42979.431805542925, 0.026000000000000002, 1.008, 0.17, 192.0, 0.0, 0.0, 0.0, 0.0, 0.0, 0.0, 0.0, 0.0, 0.0, 1.695675174413025E9, 0.0, 2023-09-25 15:52:54.413
228.0, -187500.02235174447, 3738.239853172285, -16777.197036409027, -37249.00332081358, -15591.436993054986, -39401.543367093014, -187500.02235174447, -47214.99797284579, 11562.400944519157, -11602.567029305343, -54201.08040584093, -52452.74930629126, -42972.14513685049, -39334.577540704915, -32213.37881247745, -42980.23646834332, 0.026000000000000002, 1.008, 0.17, 192.0, 0.0, 0.0, 0.0, 0.0, 0.0, 0.0, 0.0, 0.0, 0.0, 1.695675174413041E9, 0.0, 2023-09-25 15:52:54.413
230.0, -187500.02235174447, 3739.268033417229, -16772.145542162125, -37234.54174215099, -15594.387423323087, -39380.68918951621, -187500.02235174447, -47218.21662404736, 11542.127912298192, -11587.993691920483, -54190.17275454674, -52441.28286138569, -42956.52126747624, -39325.21215977814, -32204.61692865097, -42996.53089005124, 0.026000000000000002, 1.008, 0.17, 192.0, 0.0, 0.0, 0.0, 0.0, 0.0, 0.0, 0.0, 0.0, 0.0, 1.695675174413047E9, 0.0, 2023-09-25 15:52:54.413
232.0, -187500.02235174447, 3744.632452086503, -16774.98421370795, -37235.8381433294, -15593.381594822598, -39384.17606165124, -187500.02235174447, -47210.549975699185, 11559.696383440065, -11589.111279143248, -54194.01725459305, -52443.74155327577, -42965.8419449141, -39336.2315697946, -32210.920120587365, -42986.07027364615, 0.03, 1.004, 0.17400000000000002, 192.0, 0.0, 120.0, 15.5, 48.0, 2.5, 56.0, 0.0, 0.0, 0.0, 1.695675174413052E9, 0.0, 2023-09-25 15:52:54.413
234.0, -187500.02235174447, 3758.3117196931507, -16770.491513072433, -37229.825524070926, -15586.251388341356, -39379.14691914879, -187500.02235174447, -47206.012571574756, 11532.114330782215, -11583.277473840413, -54184.51776319955, -52436.14196016097, -42952.34149126309, -39326.9332441012, -32194.37982969044, -42997.38025634054, 0.03, 1.004, 0.17400000000000002, 192.0, 0.0, 0.0, 0.0, 0.0, 0.0, 0.0, 0.0, 0.0, 0.0, 1.695675174413057E9, 0.0, 2023-09-25 15:52:54.413
236.0, -187500.02235174447, 3737.3234316496173, -16775.56535906379, -37229.244378715084, -15593.381594822598, -39381.695018016704, -187500.02235174447, -47215.91439436846, 11559.808142162341, -11581.422279050623, -54190.91036211376, -52440.14292241847, -42958.532924477215, -39324.3851452333, -32202.113533271975, -42987.70195099139, 0.03, 1.004, 0.17400000000000002, 192.0, 0.0, 0.0, 0.0, 0.0, 0.0, 0.0, 0.0, 0.0, 0.0, 1.695675174413062E9, 0.0, 2023-09-25 15:52:54.413
238.0, -187500.02235174447, 3736.5634723381368, -16783.03084171186, -37241.493134676595, -15599.058937914246, -39385.405407596285, -187500.02235174447, -47226.911452640474, 11515.70815035202, -11584.23859885199, -54189.591609190895, -52434.264413626726, -42955.82836339812, -39322.37348823232, -32204.058135039588, -43004.957497710886, 0.03, 1.004, 0.17400000000000002, 192.0, 0.0, 0.0, 0.0, 0.0, 0.0, 0.0, 0.0, 0.0, 0.0, 1.695675174413068E9, 0.0, 2023-09-25 15:52:54.413
240.0, -187500.02235174447, 3759.4516586603713, -16769.17276014957, -37228.32795719242, -15583.077440628702, -39390.18868090972, -187500.02235174447, -47215.377952501534, 11562.646813708165, -11587.457250053556, -54190.15040280228, -52438.69005902887, -42960.5892849671, -39333.61641569334, -32210.89776884291, -42994.02749467224, 0.03, 1.004, 0.17400000000000002, 192.0, 0.0, 0.0, 0.0, 0.0, 0.0, 0.0, 0.0, 0.0, 0.0, 1.695675174413073E9, 0.0, 2023-09-25 15:52:54.413
242.0, -187500.02235174447, 3746.4205916429273, -16766.7587717484, -37223.05294550097, -15588.151286620056, -39375.88356445832, -187500.02235174447, -47217.97075485835, 11496.396243142635, -11564.859636409241, -54173.34189097189, -52415.06426513961, -42954.84488664209, -39312.73988637208, -32197.732591358734, -43026.25871017679, 0.024, 1.01, 0.168, 192.0, 0.0, 96.0, 15.5, 72.0, 2.5, 32.0, 0.0, 0.0, 0.0, 1.695675174471747E9, 0.0, 2023-09-25 15:52:54.471
