%OpenBCI Raw EXG Data
%Number of channels = 16
%Sample Rate = 125 Hz
%Board = OpenBCI_GUI$BoardCytonSerialDaisy
Sample Index, EXG Channel 0, EXG Channel 1, EXG Channel 2, EXG Channel 3, EXG Channel 4, EXG Channel 5, EXG Channel 6, EXG Channel 7, EXG Channel 8, EXG Channel 9, EXG Channel 10, EXG Channel 11, EXG Channel 12, EXG Channel 13, EXG Channel 14, EXG Channel 15, Accel Channel 0, Accel Channel 1, Accel Channel 2, Other, Other, Other, Other, Other, Other, Other, Analog Channel 0, Analog Channel 1, Analog Channel 2, Timestamp, Other, Timestamp (Formatted)
0.0, -37786.629830197075, -13378.077850112659, -86933.8690559708, -81144.2978554127, -21872.858330352108, -54914.6598475766, -157223.33278934154, -72081.49249333054, 0.0, 0.0, 0.0, 0.0, 0.0, 0.0, 0.0, 0.0, 0.0, 0.0, 0.0, 192.0, 0.0, 0.0, 0.0, 0.0, 0.0, 0.0, 0.0, 0.0, 0.0, 1.695415812248295E9, 0.0, 2023-09-22 15:50:12.248
254.0, -37777.28680101476, -13370.299443042213, -86932.23737862556, -81151.6515793385, -21869.013830305797, -54921.99121975795, -157140.3854656679, -72087.6168713113, -7217.154767174097, -187500.02235174447, -85607.58359522624, -79089.05495274723, -56154.198188090115, -52286.22881009922, -83090.91128002541, -84082.25585010718, 0.0, 0.0, 0.0, 192.0, 0.0, 0.0, 0.0, 0.0, 0.0, 0.0, 0.0, 0.0, 0.0, 1.695415812248304E9, 0.0, 2023-09-22 15:50:12.248
0.0, -37735.891370283534, -13335.07309378065, -86875.12867154225, -81102.00835490327, -21817.04602444721, -54874.27024534586, -157227.9148969549, -72043.96391439009, -7106.044245486766, -187500.02235174447, -85588.91988860606, -79076.42621712998, -56155.76281020198, -52286.9887694107, -83076.47205310727, -84074.20922210327, -0.028, 0.932, 0.392, 192.0, 127.5, 16.0, 14.5, 16.0, 6.0, 32.0, 0.0, 0.0, 0.0, 1.695415812248308E9, 0.0, 2023-09-22 15:50:12.248
2.0, -37746.82137332218, -13344.460826451877, -86892.92066012867, -81119.71093651187, -21836.961428756887, -54887.83775423023, -157138.17264296685, -72051.54115576042, -7165.455182248972, -187500.02235174447, -85555.41462366756, -79048.62064702758, -56118.122472539246, -52260.792524909084, -83039.1446398669, -84039.11698330844, -0.028, 0.932, 0.392, 192.0, 0.0, 0.0, 0.0, 0.0, 0.0, 0.0, 0.0, 0.0, 0.0, 1.695415812248311E9, 0.0, 2023-09-22 15:50:12.248
4.0, -37706.07414318015, -13296.516334595244, -86848.23952296253, -81070.69356092138, -21796.393012570505, -54841.59199495221, -157249.12670244297, -72002.00969004747, -7050.030773881766, -187500.02235174447, -85553.11239398866, -79039.12115563407, -56115.70848413807, -52246.95679509125, -83038.20586659979, -84034.04313731709, -0.028, 0.932, 0.392, 192.0, 0.0, 0.0, 0.0, 0.0, 0.0, 0.0, 0.0, 0.0, 0.0, 1.695415812248315E9, 0.0, 2023-09-22 15:50:12.248
6.0, -37736.42781215046, -13327.473500665845, -86887.33272401485, -81107.75275322828, -21830.680588564945, -54873.175009867555, -157158.46802693224, -72041.21464982208, -7150.434809975006, -187500.02235174447, -85541.75770780537, -79016.45648675639, -56104.130280510224, -52241.34650723297, -83019.4974564907, -84014.03832602958, -0.028, 0.932, 0.392, 192.0, 0.0, 0.0, 0.0, 0.0, 0.0, 0.0, 0.0, 0.0, 0.0, 1.695415812248318E9, 0.0, 2023-09-22 15:50:12.248
8.0, -37728.671756824464, -13317.63873310551, -86876.11214829829, -81102.88007293703, -21819.63882680402, -54870.872780188656, -157275.30059520015, -72039.62767596575, -7070.862599714113, -187500.02235174447, -85562.43307142652, -79026.8053444392, -56129.45480697809, -52263.184161565805, -83044.01732015816, -84038.58054144151, -0.028, 0.932, 0.392, 192.0, 0.0, 0.0, 0.0, 0.0, 0.0, 0.0, 0.0, 0.0, 0.0, 1.695415812248321E9, 0.0, 2023-09-22 15:50:12.248
10.0, -37739.53470462975, -13335.318962969657, -86888.04797983741, -81106.67986949443, -21828.020730974764, -54882.78625998334, -157182.96553885526, -72035.76082417498, -7170.305510795773, -187500.02235174447, -85559.23677196942, -79020.81507692517, -56119.91061209567, -52264.34645227748, -83036.88711367693, -84034.31135825055, -0.03, 0.93, 0.396, 192.0, 127.5, 8.0, 14.5, 8.0, 6.0, 48.0, 0.0, 0.0, 0.0, 1.695415812248324E9, 0.0, 2023-09-22 15:50:12.248
12.0, -37741.59106511963, -13332.480291423833, -86886.14808155871, -81109.4961892958, -21833.742777555322, -54873.57734126775, -157289.15867676242, -72039.001827121, -7079.222152140397, -187500.02235174447, -85572.75957736488, -79033.64497824252, -56131.73468491253, -52274.382385537916, -83043.19030561332, -84042.51444846565, -0.03, 0.93, 0.396, 192.0, 0.0, 0.0, 0.0, 0.0, 0.0, 0.0, 0.0, 0.0, 0.0, 1.695415812248327E9, 0.0, 2023-09-22 15:50:12.248
0.0, -19095.78819224694, -7112.414492656529, -43655.16974391577, -40743.25153151173, -12190.574370691105, -27732.949284666694, -78303.34643165427, -36375.07246435553, -3595.389854358418, -93750.01117587223, -42802.204823756794, -39532.65870006785, -28082.46351271433, -26150.065797575215, -41534.615043951875, -42033.86360810562, -0.028999999999999998, 0.929, 0.389, 192.0, 127.5, 16.0, 14.5, 0.0, 5.5, 120.0, 0.0, 0.0, 0.0, 1.695415812393855E9, 0.0, 2023-09-22 15:50:12.393
2.0, -38196.80669269642, -14222.81732831208, -87284.99260961922, -81456.26115277543, -24364.92137490766, -55447.21251096875, -156646.81424460583, -72729.1119371786, -4052.4383249805364, -187500.02235174447, -85904.66063078173, -79474.0637509899, -57949.78087541829, -55630.38505677999, -83391.40813248255, -84423.00819432834, -0.028999999999999998, 0.929, 0.389, 192.0, 0.0, 0.0, 0.0, 0.0, 0.0, 0.0, 0.0, 0.0, 0.0, 1.695415812393883E9, 0.0, 2023-09-22 15:50:12.393
4.0, -38206.28383234547, -14230.327514449064, -87295.60968823549, -81477.04827511887, -24370.44225578812, -55463.32811872102, -156544.1526823226, -72747.55212635423, -4115.514947833413, -187500.02235174447, -85896.83752022237, -79461.21149792809, -57939.76729390232, -55627.79225442318, -83370.86687932812, -84407.42902844299, -0.028999999999999998, 0.929, 0.389, 192.0, 0.0, 0.0, 0.0, 0.0, 0.0, 0.0, 0.0, 0.0, 0.0, 1.695415812393887E9, 0.0, 2023-09-22 15:50:12.393
6.0, -38163.4578899691, -14186.272226127652, -87238.00924277416, -81434.64701588715, -24324.218848254546, -55411.53912681808, -156645.13786377167, -72687.31417504718, -4006.773711058344, -187500.02235174447, -85901.66549702472, -79463.29021016243, -57944.215291048924, -55638.07405687262, -83383.56267017874, -84424.50576120685, -0.028999999999999998, 0.929, 0.389, 192.0, 0.0, 0.0, 0.0, 0.0, 0.0, 0.0, 0.0, 0.0, 0.0, 1.69541581239389E9, 0.0, 2023-09-22 15:50:12.393
8.0, -38188.53654724795, -14220.313932933084, -87267.49119371071, -81463.79369065686, -24344.715397920063, -55436.79659805258, -156544.8008829118, -72717.01964342828, -4087.5305637753686, -187500.02235174447, -85856.40321450273, -79426.05220389989, -57887.531267110266, -55597.75150987524, -83337.20515217843, -84382.97622000889, -0.026000000000000002, 0.926, 0.374, 192.0, 127.5, 24.0, 14.0, 120.0, 5.5, 88.0, 0.0, 0.0, 0.0, 1.695415812393893E9, 0.0, 2023-09-22 15:50:12.393
10.0, -38149.465697940075, -14180.460772569273, -87232.26484444915, -81418.57611162378, -24318.027415040426, -55399.804460979045, -156649.00471556245, -72683.80495116771, -3973.514315308847, -187500.02235174447, -85866.10387159632, -79446.21347739857, -57910.57591564368, -55612.458957726834, -83355.24300995386, -84399.56121439472, -0.026000000000000002, 0.926, 0.374, 192.0, 0.0, 0.0, 0.0, 0.0, 0.0, 0.0, 0.0, 0.0, 0.0, 1.695415812393897E9, 0.0, 2023-09-22 15:50:12.393
12.0, -38152.751404375005, -14182.897112714902, -87240.4455829198, -81420.23014071348, -24310.29371145889, -55403.69366451427, -156566.92910992255, -72687.20241632492, -4084.222505595983, -187500.02235174447, -85834.52085668097, -79409.8918926587, -57893.521534624284, -55582.395861434445, -83317.8708932246, -84363.28433314376, -0.026000000000000002, 0.926, 0.374, 192.0, 0.0, 0.0, 0.0, 0.0, 0.0, 0.0, 0.0, 0.0, 0.0, 1.6954158123939E9, 0.0, 2023-09-22 15:50:12.393
14.0, -38152.28201774145, -14166.736801473715, -87235.52819913962, -81414.0163557549, -24313.71352836055, -55395.51292604362, -156678.6431287102, -72685.48133200184, -4008.092463981207, -187500.02235174447, -85846.47903996457, -79415.70334621708, -57890.57110435619, -55591.78359410568, -83326.34220437316, -84368.44758611293, -0.026000000000000002, 0.926, 0.374, 192.0, 0.0, 0.0, 0.0, 0.0, 0.0, 0.0, 0.0, 0.0, 0.0, 1.695415812393903E9, 0.0, 2023-09-22 15:50:12.393
16.0, -38213.70461150463, -14232.920316805878, -87289.5523654881, -81474.56723148433, -24366.21777608607, -55459.68478437481, -156559.68714471904, -72741.2265826734, -4100.583982537268, -187500.02235174447, -85868.62961871977, -79444.11241341977, -57914.24160173436, -55602.55713493314, -83352.98548376387, -84393.3697811806, -0.026000000000000002, 0.926, 0.374, 192.0, 0.0, 0.0, 0.0, 0.0, 0.0, 0.0, 0.0, 0.0, 0.0, 1.695415812454144E9, 0.0, 2023-09-22 15:50:12.454
18.0, -38172.35388426231, -14197.0010634662, -87256.62824590543, -81450.58380968378, -24345.58711595382, -55429.59933633797, -156651.93279408608, -72712.10225964812, -4028.7231241134555, -187500.02235174447, -85897.50807255604, -79480.56810862638, -57954.497093498365, -55650.18870236739, -83391.74340864937, -84434.78756365628, -0.026000000000000002, 0.936, 0.374, 192.0, 127.5, 24.0, 14.5, 32.0, 5.5, 88.0, 0.0, 0.0, 0.0, 1.695415812454155E9, 0.0, 2023-09-22 15:50:12.454
20.0, -38175.63959069724, -14206.724072304258, -87260.13746978492, -81447.00753057093, -24343.62016244175, -55433.10856021745, -156588.74441251092, -72723.30048362023, -4111.357523364726, -187500.02235174447, -85835.39257471473, -79420.8442474418, -57899.44474690494, -55603.80883262263, -83341.78725979177, -84382.99857175334, -0.026000000000000002, 0.936, 0.374, 192.0, 0.0, 0.0, 0.0, 0.0, 0.0, 0.0, 0.0, 0.0, 0.0, 1.695415812454159E9, 0.0, 2023-09-22 15:50:12.454
22.0, -38188.35773329231, -14204.377139136452, -87274.26377228067, -81455.9705800975, -24359.333438793834, -55439.21058645375, -156663.4215907361, -72720.59592254114, -4038.51318818488, -187500.02235174447, -85871.28947630996, -79452.04728270142, -57934.31346825522, -55635.749475449265, -83379.2264317544, -84416.99557506986, -0.026000000000000002, 0.936, 0.374, 192.0, 0.0, 0.0, 0.0, 0.0, 0.0, 0.0, 0.0, 0.0, 0.0, 1.695415812454163E9, 0.0, 2023-09-22 15:50:12.454
24.0, -38188.35773329231, -14206.09822345951, -87270.26281002317, -81456.1270423087, -24356.651229459196, -55437.02011549713, -156600.79200277233, -72718.87483821808, -4097.611200524712, -187500.02235174447, -85867.4226245192, -79444.53709656443, -57929.21727051941, -55633.06726611463, -83363.66961761352, -84403.80804584123, -0.026000000000000002, 0.936, 0.374, 192.0, 0.0, 0.0, 0.0, 0.0, 0.0, 0.0, 0.0, 0.0, 0.0, 1.695415812454166E9, 0.0, 2023-09-22 15:50:12.454
26.0, -38198.86305318631, -14208.869839771967, -87291.56402248908, -81483.32911531081, -24390.02238393097, -55456.60024363998, -156656.15727378815, -72746.99333274286, -4046.0457260663184, -187500.02235174447, -85876.22921183458, -79456.27176240347, -57956.9781371329, -55647.908824432954, -83382.04275155578, -84423.4775809619, -0.026000000000000002, 0.936, 0.374, 192.0, 0.0, 0.0, 0.0, 0.0, 0.0, 0.0, 0.0, 0.0, 0.0, 1.69541581245417E9, 0.0, 2023-09-22 15:50:12.454
28.0, -38209.92716669168, -14231.892136560935, -87287.6524672094, -81486.45835953455, -24375.44904654611, -55457.69547911829, -156598.9144562381, -72731.2130011574, -4088.156412620117, -187500.02235174447, -85886.8239387064, -79474.44373064562, -57957.782799933295, -55671.73578402231, -83391.74340864937, -84435.18989505648, -0.026000000000000002, 0.9380000000000001, 0.366, 192.0, 127.5, 24.0, 14.5, 40.0, 5.5, 56.0, 0.0, 0.0, 0.0, 1.695415812454173E9, 0.0, 2023-09-22 15:50:12.454
30.0, -38200.18180610917, -14215.709473575293, -87283.96442937427, -81482.25623157695, -24383.518026294474, -55458.83541808551, -156639.7734451024, -72755.12936772458, -4067.324586787771, -187500.02235174447, -85890.15434863024, -79477.57297486937, -57957.782799933295, -55656.42483907042, -83390.60346968216, -84437.31331077973, -0.026000000000000002, 0.9380000000000001, 0.366, 192.0, 0.0, 0.0, 0.0, 0.0, 0.0, 0.0, 0.0, 0.0, 0.0, 1.695415812513571E9, 0.0, 2023-09-22 15:50:12.513
32.0, -38219.20314064064, -14240.698723876325, -87290.66995271087, -81492.1357026262, -24388.39070658573, -55473.36405198146, -156607.3187121533, -72738.3208558942, -4080.512116016402, -187500.02235174447, -85879.71608396962, -79458.59634382682, -57943.54473871527, -55647.908824432954, -83383.76383587884, -84428.39496474207, -0.026000000000000002, 0.9380000000000001, 0.366, 192.0, 0.0, 0.0, 0.0, 0.0, 0.0, 0.0, 0.0, 0.0, 0.0, 1.695415812513587E9, 0.0, 2023-09-22 15:50:12.513
34.0, -38223.159399409225, -14236.809520341101, -87299.96827840428, -81510.30767086837, -24413.49171560904, -55479.421374728845, -156605.19529643003, -72764.2265277179, -4082.7249387174775, -187500.02235174447, -85918.40695362174, -79491.90044306523, -57982.257960111856, -55692.25468543228, -83419.12429560714, -84461.76611921383, -0.026000000000000002, 0.9380000000000001, 0.366, 192.0, 0.0, 0.0, 0.0, 0.0, 0.0, 0.0, 0.0, 0.0, 0.0, 1.69541581251359E9, 0.0, 2023-09-22 15:50:12.513
36.0, -38202.05935264342, -14221.81149981159, -87262.23853376371, -81481.54097575438, -24365.72603770805, -55443.52447313362, -156619.18748845905, -72728.6649022895, -4080.892095672142, -187500.02235174447, -85890.1767003747, -79469.07931197635, -57962.09668661317, -55662.68332751791, -83386.55780393575, -84431.65831943254, -0.026000000000000002, 0.9380000000000001, 0.366, 192.0, 0.0, 0.0, 0.0, 0.0, 0.0, 0.0, 0.0, 0.0, 0.0, 1.695415812513594E9, 0.0, 2023-09-22 15:50:12.513
38.0, -38187.75423619202, -14209.38392989444, -87265.23366752073, -81468.62166745921, -24374.912604679183, -55441.64692659938, -156621.64618034914, -72734.34224538115, -4102.819156982799, -187500.02235174447, -85868.02612161948, -79456.47292810357, -57930.35720948663, -55645.42778079841, -83364.07194901371, -84413.93338607949, -0.03, 0.9440000000000001, 0.368, 192.0, 127.5, 8.0, 14.5, 64.0, 5.5, 64.0, 0.0, 0.0, 0.0, 1.695415812513597E9, 0.0, 2023-09-22 15:50:12.513
40.0, -38221.617129041806, -14247.448950701828, -87304.48333078425, -81497.94715618457, -24416.151573199222, -55467.329080978525, -156622.38378791616, -72757.81157705923, -4044.5705109322685, -187500.02235174447, -85887.76271197353, -79476.36598066878, -57957.46987551092, -55665.49964731928, -83395.90083311807, -84434.31817702272, -0.03, 0.9440000000000001, 0.368, 192.0, 0.0, 0.0, 0.0, 0.0, 0.0, 0.0, 0.0, 0.0, 0.0, 1.695415812513601E9, 0.0, 2023-09-22 15:50:12.513
42.0, -38228.814390756415, -14243.693857633336, -87317.89437745743, -81502.41750507565, -24420.44310813464, -55479.846057873496, -156568.15845586758, -72774.10599876715, -4073.873647913176, -187500.02235174447, -85906.53817731598, -79492.03455353195, -57978.36875657663, -55688.56664759715, -83412.46347575945, -84450.70200570846, -0.03, 0.9440000000000001, 0.368, 192.0, 0.0, 0.0, 0.0, 0.0, 0.0, 0.0, 0.0, 0.0, 0.0, 1.695415812513604E9, 0.0, 2023-09-22 15:50:12.513
44.0, -38199.4665502866, -14209.316874661074, -87281.59514446202, -81452.84133587377, -24393.822180488372, -55427.16299619234, -156619.79098555935, -72732.48705059136, -4006.12551046914, -187500.02235174447, -85894.35647658784, -79478.48939639205, -57977.16176237605, -55672.45103984488, -83407.81431291274, -84442.05188060425, -0.03, 0.9440000000000001, 0.368, 192.0, 0.0, 0.0, 0.0, 0.0, 0.0, 0.0, 0.0, 0.0, 0.0, 1.695415812513607E9, 0.0, 2023-09-22 15:50:12.513
46.0, -38185.60846872431, -14197.626912310949, -87274.66610368087, -81447.99100732697, -24389.418886830677, -55421.44094961178, -156564.6045284992, -72723.1663731535, -4061.714298929489, -187500.02235174447, -85860.62769420477, -79446.52640182096, -57948.43977075098, -55626.361742778034, -83377.0806642867, -84394.68853410346, -0.03, 0.9440000000000001, 0.368, 192.0, 0.0, 0.0, 0.0, 0.0, 0.0, 0.0, 0.0, 0.0, 0.0, 1.695415812574042E9, 0.0, 2023-09-22 15:50:12.574
48.0, -38177.09245408684, -14193.201266908798, -87264.0490250646, -81443.83358285828, -24382.758066982995, -55414.10957743044, -156629.93867754206, -72702.49100953234, -3962.427850059015, -187500.02235174447, -85857.1184703253, -79449.47683208906, -57946.6292794501, -55629.33452479059, -83378.7793968653, -84394.10738874762, -0.03, 0.934, 0.366, 192.0, 127.5, 8.0, 14.5, 24.0, 5.5, 56.0, 0.0, 0.0, 0.0, 1.695415812574068E9, 0.0, 2023-09-22 15:50:12.574
50.0, -38181.45104425562, -14199.99619722321, -87278.57765896055, -81467.54878372536, -24387.809561229893, -55444.6867638453, -156555.82029292826, -72731.79414651325, -4056.7075081715, -187500.02235174447, -85859.82303140439, -79447.1522506657, -57956.64286096607, -55624.59595496607, -83367.13413800408, -84395.91788004851, -0.03, 0.934, 0.366, 192.0, 0.0, 0.0, 0.0, 0.0, 0.0, 0.0, 0.0, 0.0, 0.0, 1.695415812574071E9, 0.0, 2023-09-22 15:50:12.574
52.0, -38185.78728267995, -14205.181801936842, -87274.93432461433, -81466.74412092497, -24387.16136064069, -55443.412714411344, -156639.28170672437, -72728.8660679896, -3980.845687490188, -187500.02235174447, -85881.75009271504, -79459.66922756068, -57960.576767990206, -55658.2353303713, -83379.33819047669, -84418.78371462629, -0.03, 0.934, 0.366, 192.0, 0.0, 0.0, 0.0, 0.0, 0.0, 0.0, 0.0, 0.0, 0.0, 1.695415812574075E9, 0.0, 2023-09-22 15:50:12.574
54.0, -38188.73771294805, -14213.116671218477, -87274.37553100295, -81475.12602509571, -24392.592834543328, -55438.9870690092, -156554.99327838342, -72729.78248951228, -4096.560668535312, -187500.02235174447, -85877.74913045754, -79452.74018677953, -57951.79253241927, -55658.97293793833, -83374.48786192988, -84412.86050234563, -0.03, 0.934, 0.366, 192.0, 0.0, 0.0, 0.0, 0.0, 0.0, 0.0, 0.0, 0.0, 0.0, 1.695415812574078E9, 0.0, 2023-09-22 15:50:12.574
56.0, -38182.50157624502, -14205.42767112585, -87252.87315283694, -81463.9278011236, -24380.76876172647, -55426.17951943631, -156649.89878534066, -72712.59399802613, -4001.7222168114445, -187500.02235174447, -85872.7199879551, -79453.38838736873, -57947.59040446168, -55655.19549312538, -83366.48593741488, -84407.94311856545, -0.03, 0.934, 0.366, 192.0, 0.0, 0.0, 0.0, 0.0, 0.0, 0.0, 0.0, 0.0, 0.0, 1.695415812574081E9, 0.0, 2023-09-22 15:50:12.574
58.0, -38175.43842499715, -14204.108918202988, -87251.24147549171, -81456.03763533088, -24379.15943612569, -55425.08428395799, -156564.53747326584, -72717.39962308403, -4093.923162689586, -187500.02235174447, -85852.87163887879, -79438.7479947505, -57925.99861931785, -55635.57066149362, -83343.418937137, -84388.45239740043, -0.026000000000000002, 0.936, 0.364, 192.0, 127.5, 24.0, 14.5, 32.0, 5.5, 48.0, 0.0, 0.0, 0.0, 1.695415812574084E9, 0.0, 2023-09-22 15:50:12.574
60.0, -38209.12250389129, -14226.259496958197, -87286.93721138683, -81479.66342922013, -24406.897950994728, -55449.91707204784, -156647.99888706196, -72732.79997501374, -3986.3218648817383, -187500.02235174447, -85878.46438628012, -79459.11043394929, -57955.10059059866, -55650.278109345214, -83367.55882114873, -84407.25021448734, -0.026000000000000002, 0.936, 0.364, 192.0, 0.0, 0.0, 0.0, 0.0, 0.0, 0.0, 0.0, 0.0, 0.0, 1.695415812634329E9, 0.0, 2023-09-22 15:50:12.634
62.0, -38220.9689284526, -14239.067046531089, -87299.52124351516, -81487.1289118682, -24425.9639890151, -55454.83445582801, -156535.48020547393, -72738.03028321627, -4087.418805053092, -187500.02235174447, -85901.24081388007, -79478.0647132474, -57982.21325662295, -55673.769792767744, -83384.38968472359, -84414.69334539096, -0.026000000000000002, 0.936, 0.364, 192.0, 0.0, 0.0, 0.0, 0.0, 0.0, 0.0, 0.0, 0.0, 0.0, 1.695415812634342E9, 0.0, 2023-09-22 15:50:12.634
64.0, -38192.58221299436, -14210.47916537275, -87273.32499901355, -81460.23976328848, -24395.029174688956, -55434.24849918467, -156629.15636648613, -72731.43651860196, -3996.4695568644474, -187500.02235174447, -85893.30594459844, -79479.42816965916, -57985.49896305788, -55666.30431011967, -83393.91152786155, -84421.5329791943, -0.026000000000000002, 0.936, 0.364, 192.0, 0.0, 0.0, 0.0, 0.0, 0.0, 0.0, 0.0, 0.0, 0.0, 1.695415812634346E9, 0.0, 2023-09-22 15:50:12.634
66.0, -38192.02341938298, -14219.129290476954, -87275.67193218136, -81455.30002776385, -24396.482038078553, -55440.81991205453, -156542.43159799953, -72736.71153029341, -4075.684139214056, -187500.02235174447, -85858.6607406927, -79448.69452103312, -57959.0792011117, -55647.61825175503, -83365.74832984786, -84398.19775798294, -0.026000000000000002, 0.936, 0.364, 192.0, 0.0, 0.0, 0.0, 0.0, 0.0, 0.0, 0.0, 0.0, 0.0, 1.69541581263435E9, 0.0, 2023-09-22 15:50:12.634
68.0, -38189.43061702617, -14210.300351417107, -87279.98581886123, -81461.6255714447, -24419.88431452326, -55447.36897317994, -156627.99407577445, -72738.79024252776, -3981.873867735132, -187500.02235174447, -85866.68501695216, -79454.59538156932, -57962.76723894683, -55665.34318510809, -83386.89308010259, -84410.89354883356, -0.028, 0.9380000000000001, 0.364, 192.0, 127.5, 16.0, 14.5, 40.0, 5.5, 48.0, 0.0, 0.0, 0.0, 1.695415812634354E9, 0.0, 2023-09-22 15:50:12.634
70.0, -38193.90096591723, -14216.67059858687, -87277.39301650441, -81460.01624584392, -24405.02040446048, -55448.464208658246, -156553.62982197164, -72737.5161930938, -4058.0486128388184, -187500.02235174447, -85854.79388890194, -79444.33593086433, -57957.20165457745, -55645.51718777623, -83375.35957996364, -84398.42127542749, -0.028, 0.9380000000000001, 0.364, 192.0, 0.0, 0.0, 0.0, 0.0, 0.0, 0.0, 0.0, 0.0, 0.0, 1.695415812634366E9, 0.0, 2023-09-22 15:50:12.634
72.0, -38224.522855821, -14233.970848795278, -87308.99838316422, -81494.99672591648, -24444.180660746177, -55467.70906063427, -156605.79879353032, -72758.45977764843, -4002.705693567478, -187500.02235174447, -85893.55181378745, -79478.48939639205, -57993.634998039604, -55687.85139177459, -83409.3342315357, -84431.56891245472, -0.028, 0.9380000000000001, 0.364, 192.0, 0.0, 0.0, 0.0, 0.0, 0.0, 0.0, 0.0, 0.0, 0.0, 1.695415812634369E9, 0.0, 2023-09-22 15:50:12.634
74.0, -38228.23324540058, -14251.405209470417, -87307.67963024136, -81504.63032777671, -24436.08932925336, -55472.224113014236, -156535.3460950072, -72764.38298992909, -4065.2458745534273, -187500.02235174447, -85896.9716306891, -79486.80424532942, -58012.36575989315, -55695.652150589485, -83403.76864716633, -84428.86435137563, -0.028, 0.9380000000000001, 0.364, 192.0, 0.0, 0.0, 0.0, 0.0, 0.0, 0.0, 0.0, 0.0, 0.0, 1.695415812634373E9, 0.0, 2023-09-22 15:50:12.634
76.0, -38234.44703035916, -14261.284680519662, -87319.83897922504, -81522.7352407855, -24463.447864466652, -55488.92086612235, -156574.99808967093, -72770.21679523191, -4025.6609351230786, -187500.02235174447, -85904.83944473737, -79496.14727451174, -58005.324960389735, -55701.240086703314, -83414.5868914827, -84447.10337485115, -0.028, 0.9380000000000001, 0.364, 192.0, 0.0, 0.0, 0.0, 0.0, 0.0, 0.0, 0.0, 0.0, 0.0, 1.695415812693834E9, 0.0, 2023-09-22 15:50:12.693
78.0, -38230.71428903512, -14263.586910198559, -87311.56883377658, -81530.60305483379, -24432.17777397368, -55487.199781799296, -156516.36946396466, -72770.44031267647, -4039.1837405185393, -187500.02235174447, -85909.46625583962, -79497.6671931347, -58015.83028028373, -55718.74150261182, -83413.51400774885, -84453.29480806527, -0.028, 0.9400000000000001, 0.368, 192.0, 127.5, 16.0, 14.5, 48.0, 5.5, 64.0, 0.0, 0.0, 0.0, 1.695415812693844E9, 0.0, 2023-09-22 15:50:12.693
80.0, -38181.920430889186, -14202.700758302302, -87267.15591754389, -81476.80240592986, -24408.887256251248, -55444.79852256758, -156547.1478160796, -72725.75917551032, -4001.901030767087, -187500.02235174447, -85897.93275570069, -79485.66430636219, -58000.67579754303, -55704.3469791826, -83401.01938259833, -84449.22679057441, -0.028, 0.9400000000000001, 0.368, 192.0, 0.0, 0.0, 0.0, 0.0, 0.0, 0.0, 0.0, 0.0, 0.0, 1.695415812693848E9, 0.0, 2023-09-22 15:50:12.693
82.0, -38175.483128486056, -14203.080737958044, -87246.68171962282, -81459.725673166, -24385.172055384166, -55422.73735079019, -156533.53560370632, -72714.51624804929, -3981.4268328460257, -187500.02235174447, -85846.27787426447, -79434.41175632617, -57949.64676495156, -55654.77080998073, -83346.99521624985, -84392.9227462915, -0.028, 0.9400000000000001, 0.368, 192.0, 0.0, 0.0, 0.0, 0.0, 0.0, 0.0, 0.0, 0.0, 0.0, 1.695415812693852E9, 0.0, 2023-09-22 15:50:12.693
84.0, -38156.35003523231, -14179.611406279972, -87237.3386904405, -81441.88898109067, -24383.2051018721, -55401.43613832428, -156543.77270266684, -72696.76896295178, -3977.068242677241, -187500.02235174447, -85833.89500783622, -79430.43314581313, -57941.153102058546, -55640.19747259587, -83338.94858824594, -84381.21043219691, -0.028, 0.9400000000000001, 0.368, 192.0, 0.0, 0.0, 0.0, 0.0, 0.0, 0.0, 0.0, 0.0, 0.0, 1.695415812693856E9, 0.0, 2023-09-22 15:50:12.693
86.0, -38169.93989586114, -14200.599694323504, -87253.65546389288, -81456.3282080088, -24392.2575583765, -55411.80734775154, -156553.92039464955, -72715.23150387187, -3946.759277195845, -187500.02235174447, -85831.14574326822, -79427.84034345631, -57951.23373880789, -55627.6804957009, -83348.8727627841, -84378.30470541773, -0.028, 0.9400000000000001, 0.368, 192.0, 0.0, 0.0, 0.0, 0.0, 0.0, 0.0, 0.0, 0.0, 0.0, 1.695415812693861E9, 0.0, 2023-09-22 15:50:12.693
88.0, -38170.230468539055, -14191.882513985935, -87269.23462977824, -81473.1814233281, -24415.637483076753, -55427.78884503709, -156536.12840606313, -72725.5133063213, -4001.7445685559, -187500.02235174447, -85843.05922306291, -79439.93263720664, -57962.96840464693, -55638.20816733935, -83358.37225417761, -84395.22497597038, -0.03, 0.9460000000000001, 0.364, 192.0, 127.5, 8.0, 14.5, 72.0, 5.5, 48.0, 0.0, 0.0, 0.0, 1.695415812693865E9, 0.0, 2023-09-22 15:50:12.693
90.0, -38176.93599187565, -14202.09726120201, -87270.66514142336, -81467.61583895872, -24408.887256251248, -55420.16690017783, -156565.96798491097, -72714.35978583811, -3963.724251237423, -187500.02235174447, -85859.82303140439, -79449.23096290004, -57989.14229740409, -55661.09635366158, -83379.13702477659, -84409.01600229931, -0.03, 0.9460000000000001, 0.364, 192.0, 0.0, 0.0, 0.0, 0.0, 0.0, 0.0, 0.0, 0.0, 0.0, 1.695415812753564E9, 0.0, 2023-09-22 15:50:12.753
92.0, -38197.11961711879, -14217.139985220432, -87293.32981030105, -81488.44766479108, -24436.670474609196, -55441.02107775463, -156520.7951093668, -72737.29267564925, -4030.2430427364166, -187500.02235174447, -85862.84051690585, -79456.6517420592, -57991.66804452754, -55670.59584505509, -83380.96986782193, -84407.98782205438, -0.03, 0.9460000000000001, 0.364, 192.0, 0.0, 0.0, 0.0, 0.0, 0.0, 0.0, 0.0, 0.0, 0.0, 1.695415812753577E9, 0.0, 2023-09-22 15:50:12.753
94.0, -38206.77557072348, -14229.679313859859, -87286.11019684198, -81484.31259206684, -24430.523744883987, -55433.89087127339, -156575.78040072686, -72723.59105629814, -3977.381167099615, -187500.02235174447, -85863.8686971508, -79465.43597763014, -58002.82156501074, -55673.434516600915, -83383.69678064546, -84410.8711970891, -0.03, 0.9460000000000001, 0.364, 192.0, 0.0, 0.0, 0.0, 0.0, 0.0, 0.0, 0.0, 0.0, 0.0, 1.695415812753582E9, 0.0, 2023-09-22 15:50:12.753
96.0, -38194.25859382851, -14221.118595733476, -87277.79534790461, -81481.07158912082, -24423.97468375858, -55426.715961303235, -156512.56966740725, -72721.69115801944, -4065.5364472313463, -187500.02235174447, -85871.35653154332, -79477.17064346917, -57999.40174810908, -55686.24206617381, -83392.27985051631, -84418.80606637074, -0.03, 0.9460000000000001, 0.364, 192.0, 0.0, 0.0, 0.0, 0.0, 0.0, 0.0, 0.0, 0.0, 0.0, 1.695415812753585E9, 0.0, 2023-09-22 15:50:12.753
98.0, -38227.272120389, -14251.20404377032, -87299.96827840428, -81510.86646447974, -24437.653951365228, -55450.43116217032, -156575.62393851567, -72744.24406817486, -3977.135297910607, -187500.02235174447, -85856.89495288074, -79460.38448338324, -57988.1364689036, -55663.286824618204, -83369.90575431654, -84402.19872024044, -0.028, 0.9400000000000001, 0.368, 192.0, 127.5, 16.0, 14.5, 48.0, 5.5, 64.0, 0.0, 0.0, 0.0, 1.695415812753601E9, 0.0, 2023-09-22 15:50:12.753
100.0, -38245.51114386453, -14273.39932601444, -87317.02265942367, -81531.18420018961, -24462.822015621903, -55472.55938918107, -156476.1363239451, -72766.41699867451, -4071.414956023092, -187500.02235174447, -85909.64506979527, -79502.98690831506, -58028.63782985662, -55717.534508411234, -83405.13210357811, -84448.75740394085, -0.028, 0.9400000000000001, 0.368, 192.0, 0.0, 0.0, 0.0, 0.0, 0.0, 0.0, 0.0, 0.0, 0.0, 1.695415812753604E9, 0.0, 2023-09-22 15:50:12.753
102.0, -38233.99999547005, -14256.099075806032, -87297.57664174755, -81511.78288600242, -24437.855117065326, -55455.28149071711, -156567.13027562265, -72745.96515249791, -3993.0497399627857, -187500.02235174447, -85890.44492130815, -79481.43982666013, -58009.035349969316, -55695.40628140048, -83386.22252776891, -84428.26085427533, -0.028, 0.9400000000000001, 0.368, 192.0, 0.0, 0.0, 0.0, 0.0, 0.0, 0.0, 0.0, 0.0, 0.0, 1.695415812753607E9, 0.0, 2023-09-22 15:50:12.753
104.0, -38222.84647498685, -14252.835721115556, -87288.23361256524, -81508.67599352312, -24443.26423922351, -55455.50500816167, -156470.05664945324, -72751.12840546708, -4094.8172324677985, -187500.02235174447, -85905.19707264866, -79502.85279784832, -58027.85551880068, -55718.27211597826, -83404.14862682208, -84446.07519460621, -0.028, 0.9400000000000001, 0.368, 192.0, 0.0, 0.0, 0.0, 0.0, 0.0, 0.0, 0.0, 0.0, 0.0, 1.69541581275361E9, 0.0, 2023-09-22 15:50:12.753
106.0, -38206.48499804557, -14232.272116216674, -87273.68262692483, -81492.71684798204, -24443.68892236816, -55440.86461554344, -156580.72013625148, -72746.09926296465, -3991.418062617548, -187500.02235174447, -85862.14761282774, -79465.32421890786, -57996.76424226335, -55678.173086425435, -83376.54422241978, -84416.41442971402, -0.028, 0.9400000000000001, 0.368, 192.0, 0.0, 0.0, 0.0, 0.0, 0.0, 0.0, 0.0, 0.0, 0.0, 1.695415812813823E9, 0.0, 2023-09-22 15:50:12.813
108.0, -38227.4732860891, -14258.781285140669, -87303.4104470504, -81524.03164196393, -24458.306963241932, -55467.41848795635, -156481.07605946972, -72761.5219666388, -4076.645264225634, -187500.02235174447, -85874.35166530033, -79472.11914922227, -58005.168498178544, -55694.48985987781, -83382.91446958954, -84426.98680484138, -0.032, 0.9420000000000001, 0.366, 192.0, 127.5, 0.0, 14.5, 56.0, 5.5, 56.0, 0.0, 0.0, 0.0, 1.695415812813833E9, 0.0, 2023-09-22 15:50:12.813
110.0, -38230.73664077957, -14260.770590397191, -87312.19468262132, -81517.50493258298, -24473.75201866055, -55467.91022633437, -156570.32657507976, -72766.99814403035, -3984.7572427698665, -187500.02235174447, -85897.50807255604, -79495.07439077788, -58022.06641698676, -55715.81342408818, -83412.75404843737, -84451.21609583094, -0.032, 0.9420000000000001, 0.366, 192.0, 0.0, 0.0, 0.0, 0.0, 0.0, 0.0, 0.0, 0.0, 0.0, 1.695415812813837E9, 0.0, 2023-09-22 15:50:12.813
112.0, -38224.03111744298, -14266.11265732201, -87304.39392380642, -81515.15799941517, -24459.715123142618, -55460.891778575395, -156471.62127156512, -72760.9184695385, -4088.446985298036, -187500.02235174447, -85887.33802882888, -79483.45148366112, -58022.13347222012, -55703.65407510449, -83402.20402505447, -84437.5815317132, -0.032, 0.9420000000000001, 0.366, 192.0, 0.0, 0.0, 0.0, 0.0, 0.0, 0.0, 0.0, 0.0, 0.0, 1.695415812813841E9, 0.0, 2023-09-22 15:50:12.813
114.0, -38208.18373062417, -14250.511139692206, -87287.69717069832, -81501.72460099752, -24454.775387617992, -55450.25234821467, -156556.13321735064, -72744.13230945257, -3994.4802516079253, -187500.02235174447, -85878.55379325793, -79486.84894881833, -58025.665047844064, -55707.00683677279, -83401.77934190982, -84437.49212473538, -0.032, 0.9420000000000001, 0.366, 192.0, 0.0, 0.0, 0.0, 0.0, 0.0, 0.0, 0.0, 0.0, 0.0, 1.695415812813844E9, 0.0, 2023-09-22 15:50:12.813
116.0, -38215.98448943907, -14272.68407019187, -87294.55915624609, -81510.19591214608, -24459.69277139816, -55460.35533670847, -156454.0751521677, -72763.51127189533, -4051.544255202324, -187500.02235174447, -85872.31765655491, -79485.48549240656, -58027.20731821148, -55708.70556935139, -83395.16322555105, -84433.22294154442, -0.032, 0.9420000000000001, 0.366, 192.0, 0.0, 0.0, 0.0, 0.0, 0.0, 0.0, 0.0, 0.0, 0.0, 1.695415812813849E9, 0.0, 2023-09-22 15:50:12.813
118.0, -38197.11961711879, -14241.704552376814, -87274.88962112542, -81489.78876945839, -24436.581067631374, -55441.40105741037, -156539.83879564272, -72735.415129115, -3951.2519778313613, -187500.02235174447, -85864.98628437356, -79476.56714636888, -58020.74766406389, -55698.49082213531, -83384.8367196127, -84424.88574086258, -0.028, 0.9380000000000001, 0.372, 192.0, 127.5, 16.0, 14.5, 40.0, 5.5, 80.0, 0.0, 0.0, 0.0, 1.695415812813853E9, 0.0, 2023-09-22 15:50:12.813
120.0, -38211.4694370591, -14266.358526511018, -87289.10533059899, -81502.90924345366, -24453.903669584237, -55444.127970233916, -156458.65725978106, -72738.09733844965, -3994.8602312636654, -187500.02235174447, -85864.4721942511, -79467.73820730904, -58013.95273374948, -55690.891229020504, -83373.45968168494, -84414.2239587574, -0.028, 0.9380000000000001, 0.372, 192.0, 0.0, 0.0, 0.0, 0.0, 0.0, 0.0, 0.0, 0.0, 0.0, 1.695415812874046E9, 0.0, 2023-09-22 15:50:12.874
122.0, -38179.01470410999, -14225.991276024733, -87259.0422343066, -81472.10853959425, -24438.07863450988, -55412.41084485184, -156525.26545825787, -72709.84473345813, -3930.040172343275, -187500.02235174447, -85867.266162308, -79463.1560996957, -58005.83905051221, -55692.299388921194, -83374.28669622978, -84407.674897632, -0.028, 0.9380000000000001, 0.372, 192.0, 0.0, 0.0, 0.0, 0.0, 0.0, 0.0, 0.0, 0.0, 0.0, 1.695415812874058E9, 0.0, 2023-09-22 15:50:12.874
124.0, -38171.54922146192, -14231.914488305389, -87241.65257712037, -81464.978333113, -24417.269160421987, -55404.92301045931, -156484.47352462693, -72699.65233798651, -3967.300530350272, -187500.02235174447, -85833.89500783622, -79433.4953348035, -57977.94407343198, -55659.46467631635, -83343.64245458155, -84379.89167927405, -0.028, 0.9380000000000001, 0.372, 192.0, 0.0, 0.0, 0.0, 0.0, 0.0, 0.0, 0.0, 0.0, 0.0, 1.695415812874062E9, 0.0, 2023-09-22 15:50:12.874
126.0, -38190.570555993385, -14247.158378023909, -87267.848821622, -81500.24938586347, -24451.377922460786, -55449.224167969725, -156522.3820832231, -72750.79312930026, -3946.5581114957467, -187500.02235174447, -85850.90468536672, -79459.06573046038, -58002.933323733014, -55685.32564465114, -83369.52577466081, -84412.70404013444, -0.028, 0.9380000000000001, 0.372, 192.0, 0.0, 0.0, 0.0, 0.0, 0.0, 0.0, 0.0, 0.0, 0.0, 1.695415812874066E9, 0.0, 2023-09-22 15:50:12.874
128.0, -38204.138064877756, -14267.744334667246, -87277.39301650441, -81519.06955469484, -24452.13788177227, -55468.71488913475, -156487.37925140612, -72771.91552781052, -3976.397690343582, -187500.02235174447, -85847.03783357595, -79460.58564908334, -58011.35993139267, -55701.44125240341, -83370.37514095011, -84425.01985132931, -0.032, 0.934, 0.37, 192.0, 127.5, 0.0, 14.5, 24.0, 5.5, 72.0, 0.0, 0.0, 0.0, 1.695415812874069E9, 0.0, 2023-09-22 15:50:12.874
130.0, -38194.146835106236, -14246.264308245696, -87280.76812991717, -81515.64973779318, -24463.917251100214, -55454.90151106138, -156506.17706849304, -72752.08953047867, -3985.1148706811514, -187500.02235174447, -85870.6189239763, -79483.45148366112, -58038.58435613923, -55734.99122083083, -83401.46641748743, -84457.36282555615, -0.032, 0.934, 0.37, 192.0, 0.0, 0.0, 0.0, 0.0, 0.0, 0.0, 0.0, 0.0, 0.0, 1.695415812874073E9, 0.0, 2023-09-22 15:50:12.874
132.0, -38179.61820121029, -14233.881441817457, -87256.36002497197, -81479.68578096459, -24439.12916649928, -55427.408865381345, -156522.5385454343, -72728.35197786713, -3993.8544027631765, -187500.02235174447, -85836.24194100403, -79438.56918079486, -58004.18502142251, -55680.832944015616, -83362.95436179095, -84405.99851679784, -0.032, 0.934, 0.37, 192.0, 0.0, 0.0, 0.0, 0.0, 0.0, 0.0, 0.0, 0.0, 0.0, 1.695415812874076E9, 0.0, 2023-09-22 15:50:12.874
134.0, -38184.98261987956, -14236.876575574468, -87271.42510073485, -81484.7819787004, -24460.519785943008, -55435.36608640743, -156521.71153088947, -72729.55897206771, -4014.84269080671, -187500.02235174447, -85848.58010394337, -79445.00648319798, -58011.2928761593, -55680.5423713377, -83369.61518163863, -84410.89354883356, -0.032, 0.934, 0.37, 192.0, 0.0, 0.0, 0.0, 0.0, 0.0, 0.0, 0.0, 0.0, 0.0, 1.69541581287408E9, 0.0, 2023-09-22 15:50:12.874
136.0, -38228.94850122315, -14291.63834948997, -87307.74668547472, -81511.49231332449, -24499.65769048425, -55465.04920304409, -156517.10707153167, -72760.2255654604, -3972.486135063903, -187500.02235174447, -85870.73068269857, -79471.71681782209, -58030.984763024426, -55700.43542390293, -83390.64817317107, -84422.09177280567, -0.032, 0.934, 0.37, 192.0, 0.0, 0.0, 0.0, 0.0, 0.0, 0.0, 0.0, 0.0, 0.0, 1.695415812934321E9, 0.0, 2023-09-22 15:50:12.934
138.0, -38241.08549846238, -14296.555733270137, -87327.88560722895, -81539.9460840161, -24519.863667471847, -55485.47869747624, -156465.56394881773, -72785.97477507291, -4018.798949575299, -187500.02235174447, -85907.27578488301, -79515.28036776547, -58073.65424318961, -55741.78615114524, -83426.0980398772, -84457.22871508941, -0.034, 0.9380000000000001, 0.37, 192.0, 127.0, 120.0, 14.5, 40.0, 5.5, 72.0, 0.0, 0.0, 0.0, 1.695415812934332E9, 0.0, 2023-09-22 15:50:12.934
140.0, -38215.35864059432, -14275.209817315319, -87292.03340912264, -81515.67208953763, -24478.781161162995, -55454.29801396108, -156515.22952499744, -72764.29358295126, -3974.7883647428, -187500.02235174447, -85880.9677816591, -79493.84504483284, -58055.28110924734, -55711.07485426365, -83399.85709188666, -84436.5309997238, -0.034, 0.9380000000000001, 0.37, 192.0, 0.0, 0.0, 0.0, 0.0, 0.0, 0.0, 0.0, 0.0, 0.0, 1.695415812934336E9, 0.0, 2023-09-22 15:50:12.934
142.0, -38237.88919900527, -14302.054262406144, -87328.08677292905, -81547.72449108654, -24509.80538246696, -55487.17743005484, -156453.13637890058, -72791.49565595337, -4046.783333633344, -187500.02235174447, -85890.04258990796, -79499.14240826874, -58060.91374885008, -55723.971810814364, -83401.66758318753, -84440.59901721467, -0.034, 0.9380000000000001, 0.37, 192.0, 0.0, 0.0, 0.0, 0.0, 0.0, 0.0, 0.0, 0.0, 0.0, 1.69541581293434E9, 0.0, 2023-09-22 15:50:12.934
144.0, -38236.1234111933, -14302.747166484258, -87312.93229018836, -81540.7954503054, -24497.064888127436, -55481.90241836339, -156511.16150750656, -72784.81248436123, -3980.6668735345456, -187500.02235174447, -85918.36225013284, -79520.37656550128, -58073.766001911885, -55744.22249129087, -83428.60143525618, -84471.69029375199, -0.034, 0.9380000000000001, 0.37, 192.0, 0.0, 0.0, 0.0, 0.0, 0.0, 0.0, 0.0, 0.0, 0.0, 1.695415812934343E9, 0.0, 2023-09-22 15:50:12.934
146.0, -38244.37120489731, -14312.984265444788, -87321.89533971493, -81552.999502778, -24500.529408518007, -55499.73911043872, -156441.49112003937, -72792.56853968723, -4072.219618823483, -187500.02235174447, -85900.99494469106, -79501.265823992, -58051.77188536786, -55729.96207832838, -83405.57913846722, -84454.4347470325, -0.034, 0.9380000000000001, 0.37, 192.0, 0.0, 0.0, 0.0, 0.0, 0.0, 0.0, 0.0, 0.0, 0.0, 1.695415812934347E9, 0.0, 2023-09-22 15:50:12.934
148.0, -38250.495582878066, -14319.510974825738, -87321.00126993672, -81558.56508714738, -24506.56437952094, -55498.84504066051, -156517.62116165416, -72787.85232160716, -3989.294646894294, -187500.02235174447, -85924.28546241349, -79527.73028942708, -58081.05267060432, -55763.17677058897, -83430.65779574607, -84483.00027644639, -0.032, 0.9420000000000001, 0.368, 192.0, 127.5, 0.0, 14.5, 56.0, 5.5, 64.0, 0.0, 0.0, 0.0, 1.69541581293435E9, 0.0, 2023-09-22 15:50:12.934
150.0, -38245.08646071988, -14324.003675461254, -87326.4103920949, -81569.13746227472, -24514.476897058117, -55499.135613338425, -156422.08980585216, -72782.15262677106, -4092.1350231331617, -187500.02235174447, -85919.21161642214, -79526.52329522649, -58075.46473449049, -55766.37307004608, -83423.2370165869, -84475.60184903168, -0.032, 0.9420000000000001, 0.368, 192.0, 0.0, 0.0, 0.0, 0.0, 0.0, 0.0, 0.0, 0.0, 0.0, 1.695415812993778E9, 0.0, 2023-09-22 15:50:12.993
152.0, -38214.95630919413, -14289.872561678001, -87295.94496440233, -81529.41841237765, -24489.442943268175, -55466.54676992259, -156516.3918157091, -72758.68329509298, -3980.912742723554, -187500.02235174447, -85903.65480228125, -79513.78280088697, -58068.088658820234, -55748.06699133718, -83415.0339263718, -84465.27534309332, -0.032, 0.9420000000000001, 0.368, 192.0, 0.0, 0.0, 0.0, 0.0, 0.0, 0.0, 0.0, 0.0, 0.0, 1.695415812993795E9, 0.0, 2023-09-22 15:50:12.993
154.0, -38210.03892541396, -14290.744279711758, -87291.98870563373, -81524.5904355753, -24493.019222381023, -55469.78777286861, -156416.7700906718, -72762.84071956167, -4045.2634150103827, -187500.02235174447, -85879.11258686932, -79494.7614663555, -58045.11106552018, -55726.83283410464, -83396.07964707371, -84441.51543873733, -0.032, 0.9420000000000001, 0.368, 192.0, 0.0, 0.0, 0.0, 0.0, 0.0, 0.0, 0.0, 0.0, 0.0, 1.695415812993799E9, 0.0, 2023-09-22 15:50:12.993
156.0, -38189.944707148636, -14265.620918943992, -87272.36387400197, -81492.56038577085, -24471.740361659573, -55445.98316502371, -156509.21690573895, -72746.5239461093, -3917.3443814926604, -187500.02235174447, -85877.48090952408, -79488.43592267465, -58049.983745811434, -55714.4499676764, -83387.04954231376, -84438.6320637026, -0.032, 0.9420000000000001, 0.368, 192.0, 0.0, 0.0, 0.0, 0.0, 0.0, 0.0, 0.0, 0.0, 0.0, 1.695415812993802E9, 0.0, 2023-09-22 15:50:12.993
158.0, -38200.13710262026, -14281.513009251716, -87290.51349049968, -81484.62551648922, -24489.398239779264, -55458.030755285115, -156406.75650915582, -72758.88446079308, -3993.8544027631765, -187500.02235174447, -85849.13889755475, -79461.502070606, -58015.96439075046, -55683.02341497224, -83364.8766118141, -84410.37945871109, -0.03, 0.9460000000000001, 0.372, 192.0, 127.5, 8.0, 14.5, 72.0, 5.5, 80.0, 0.0, 0.0, 0.0, 1.695415812993806E9, 0.0, 2023-09-22 15:50:12.993
160.0, -38147.81166885039, -14225.857165558002, -87240.42323117534, -81421.10185874724, -24437.02810252048, -55396.809327222036, -156515.76596686436, -72688.8564454146, -3876.038357739253, -187500.02235174447, -85851.3070167669, -79460.2056694276, -58025.55328912179, -55686.89026676301, -83371.35861770614, -84408.85954008813, -0.03, 0.9460000000000001, 0.372, 192.0, 0.0, 0.0, 0.0, 0.0, 0.0, 0.0, 0.0, 0.0, 0.0, 1.695415812993809E9, 0.0, 2023-09-22 15:50:12.993
162.0, -38159.23341026705, -14249.952346080821, -87258.93047558433, -81433.68589087557, -24440.962009544615, -55411.98616170719, -156442.56400377324, -72706.7601927233, -3963.768954726333, -187500.02235174447, -85808.10109473481, -79424.28641608793, -57985.744832246884, -55638.81166443964, -83316.4627333239, -84351.10263241561, -0.03, 0.9460000000000001, 0.372, 192.0, 0.0, 0.0, 0.0, 0.0, 0.0, 0.0, 0.0, 0.0, 0.0, 1.695415812993813E9, 0.0, 2023-09-22 15:50:12.993
164.0, -38163.41318648019, -14253.34981123803, -87269.63696117842, -81447.81219337133, -24456.585878918875, -55416.076530942504, -156540.3081822763, -72707.09546889013, -3885.560200877214, -187500.02235174447, -85847.10488880932, -79462.21732642858, -58001.748681276884, -55670.573493310636, -83345.49764937135, -84383.08797873116, -0.03, 0.9460000000000001, 0.372, 192.0, 0.0, 0.0, 0.0, 0.0, 0.0, 0.0, 0.0, 0.0, 0.0, 1.695415812993816E9, 0.0, 2023-09-22 15:50:12.993
166.0, -38176.734826175554, -14271.052392846632, -87281.57279271756, -81457.91518186513, -24464.587803433875, -55436.6848393303, -156464.15578891704, -72724.75334700983, -3973.0449286752855, -187500.02235174447, -85849.07184232138, -79461.23384967254, -57987.17534389202, -55680.0953364486, -83344.38006214859, -84379.17642345148, -0.03, 0.9460000000000001, 0.372, 192.0, 0.0, 0.0, 0.0, 0.0, 0.0, 0.0, 0.0, 0.0, 0.0, 1.695415813053536E9, 0.0, 2023-09-22 15:50:13.053
168.0, -38171.12453831727, -14257.909567106912, -87276.32013277056, -81459.30099002135, -24476.523634973008, -55443.34565917798, -156537.31304851928, -72734.94574248145, -3911.622334912102, -187500.02235174447, -85867.37792103027, -79471.9626870111, -58006.26373365686, -55700.904810536485, -83368.11761476012, -84406.64671738705, -0.036000000000000004, 0.9380000000000001, 0.368, 192.0, 127.0, 112.0, 14.5, 40.0, 5.5, 64.0, 0.0, 0.0, 0.0, 1.695415813053546E9, 0.0, 2023-09-22 15:50:13.053
170.0, -38183.52975648997, -14279.076669106087, -87284.65733345239, -81469.60514421525, -24491.65576596925, -55457.471961673735, -156465.2733761398, -72741.76302454031, -3967.16641988354, -187500.02235174447, -85856.38086275826, -79455.89178274773, -57998.66414054205, -55695.45098488939, -83359.69100710047, -84399.82943532818, -0.036000000000000004, 0.9380000000000001, 0.368, 192.0, 0.0, 0.0, 0.0, 0.0, 0.0, 0.0, 0.0, 0.0, 0.0, 1.695415813053549E9, 0.0, 2023-09-22 15:50:13.053
172.0, -38178.344151776335, -14263.452799731827, -87285.55140323061, -81470.40980701565, -24498.31658581693, -55456.220263984236, -156526.40539722508, -72761.2760974498, -3925.7933408967665, -187500.02235174447, -85878.21851709111, -79473.6614195897, -58013.14807094909, -55711.03015077474, -83380.90281258855, -84420.99653732736, -0.036000000000000004, 0.9380000000000001, 0.368, 192.0, 0.0, 0.0, 0.0, 0.0, 0.0, 0.0, 0.0, 0.0, 0.0, 1.695415813053553E9, 0.0, 2023-09-22 15:50:13.053
174.0, -38215.22453012759, -14307.083404908588, -87322.36472634849, -81502.01517367545, -24506.877303943314, -55488.20561029978, -156468.31321338573, -72759.48795789338, -3972.3967280860816, -187500.02235174447, -85893.10477889834, -79488.54768139693, -58025.26271644387, -55717.91448806698, -83380.65694339955, -84425.62334842961, -0.036000000000000004, 0.9380000000000001, 0.368, 192.0, 0.0, 0.0, 0.0, 0.0, 0.0, 0.0, 0.0, 0.0, 0.0, 1.695415813053556E9, 0.0, 2023-09-22 15:50:13.053
176.0, -38221.483018575076, -14309.698559009857, -87330.99249970824, -81511.60407204677, -24524.557533807463, -55502.33191279554, -156483.66886182653, -72778.5316441693, -3956.482286033903, -187500.02235174447, -85940.5351806325, -79534.10053659684, -58075.46473449049, -55759.86871240959, -83427.8414759447, -84467.66697975004, -0.036000000000000004, 0.9380000000000001, 0.368, 192.0, 0.0, 0.0, 0.0, 0.0, 0.0, 0.0, 0.0, 0.0, 0.0, 1.695415813053559E9, 0.0, 2023-09-22 15:50:13.053
178.0, -38218.37612609579, -14322.617867305025, -87308.28312734165, -81488.47001653553, -24499.635338739794, -55483.914075364366, -156464.20049240597, -72760.35967592713, -3976.129469410118, -187500.02235174447, -85906.60523254934, -79499.05300129093, -58036.88562356063, -55740.71326741139, -83388.81533012574, -84436.82157240172, -0.032, 0.936, 0.372, 192.0, 127.5, 0.0, 14.5, 32.0, 5.5, 80.0, 0.0, 0.0, 0.0, 1.695415813053562E9, 0.0, 2023-09-22 15:50:13.053
180.0, -38208.13902713526, -14314.280666623195, -87309.53482503115, -81481.76449319893, -24517.51673430404, -55481.70125266329, -156473.16354193253, -72766.99814403035, -3973.938998453498, -187500.02235174447, -85916.99879372107, -79515.81680963241, -58040.685420118025, -55753.45376175091, -83409.17776932452, -84447.23748531789, -0.032, 0.936, 0.372, 192.0, 0.0, 0.0, 0.0, 0.0, 0.0, 0.0, 0.0, 0.0, 0.0, 1.695415813113794E9, 0.0, 2023-09-22 15:50:13.113
182.0, -38211.73765799256, -14325.83651850659, -87306.07030464057, -81477.65177221916, -24508.285463844, -55473.475810703734, -156484.69704207146, -72761.90194629454, -3956.3705273116266, -187500.02235174447, -85883.73939797157, -79486.35721044031, -58021.52997511983, -55724.12827302555, -83385.70843764645, -84416.90616809204, -0.032, 0.936, 0.372, 192.0, 0.0, 0.0, 0.0, 0.0, 0.0, 0.0, 0.0, 0.0, 0.0, 1.695415813113833E9, 0.0, 2023-09-22 15:50:13.113
184.0, -38214.37516383829, -14321.030893448698, -87318.98961293574, -81486.23484209, -24532.961789722656, -55483.04235733061, -156468.1343994301, -72777.99520230237, -3980.421004345537, -187500.02235174447, -85913.86954949732, -79515.14625729875, -58046.31805972077, -55742.54611045672, -83416.8891211616, -84445.69521495048, -0.032, 0.936, 0.372, 192.0, 0.0, 0.0, 0.0, 0.0, 0.0, 0.0, 0.0, 0.0, 0.0, 1.695415813113837E9, 0.0, 2023-09-22 15:50:13.113
186.0, -38212.5199690485, -14319.958009714845, -87309.53482503115, -81484.73727521149, -24521.048309927977, -55472.91701709235, -156498.64453061158, -72764.78532132928, -3939.8302364146994, -187500.02235174447, -85903.00660169203, -79509.44656246265, -58035.85744331568, -55743.79780814622, -83404.30508903327, -84436.93333112399, -0.032, 0.936, 0.372, 192.0, 0.0, 0.0, 0.0, 0.0, 0.0, 0.0, 0.0, 0.0, 0.0, 1.69541581311384E9, 0.0, 2023-09-22 15:50:13.113
188.0, -38189.85530017082, -14292.867695435012, -87295.56498474658, -81486.77128395693, -24519.126059904822, -55465.719755377744, -156474.5940535777, -72758.39272241507, -3987.260638148861, -187500.02235174447, -85892.0765986534, -79503.92568158219, -58027.967277522956, -55748.424619248464, -83398.42658024152, -84431.05482233225, -0.028, 0.936, 0.376, 192.0, 127.5, 16.0, 14.5, 32.0, 5.5, 96.0, 0.0, 0.0, 0.0, 1.695415813113843E9, 0.0, 2023-09-22 15:50:13.113
190.0, -38191.75519844952, -14291.481887278784, -87281.84101365102, -81480.93747865409, -24503.435135297197, -55464.37865071042, -156531.32278100523, -72753.65415259053, -3902.3463609631494, -187500.02235174447, -85875.46925252311, -79487.31833545188, -58021.30645767528, -55740.467398222376, -83387.72009464742, -84426.27154901881, -0.028, 0.936, 0.376, 192.0, 0.0, 0.0, 0.0, 0.0, 0.0, 0.0, 0.0, 0.0, 0.0, 1.695415813113846E9, 0.0, 2023-09-22 15:50:13.113
192.0, -38186.30137280242, -14288.464401777317, -87284.94790613031, -81492.02394390393, -24519.640150027295, -55476.24742701619, -156467.5309023298, -72767.8251585752, -3932.163588066529, -187500.02235174447, -85875.78217694547, -79486.58072788487, -58010.19764068099, -55749.341040771134, -83386.04371381328, -84429.84782813166, -0.028, 0.936, 0.376, 192.0, 0.0, 0.0, 0.0, 0.0, 0.0, 0.0, 0.0, 0.0, 0.0, 1.695415813113849E9, 0.0, 2023-09-22 15:50:13.113
194.0, -38175.6619424417, -14276.997956871744, -87269.41344373387, -81474.2319553175, -24501.89286492978, -55457.24844422918, -156537.58126945273, -72746.3227804092, -3826.685705981935, -187500.02235174447, -85856.269104036, -79465.95006775261, -57996.585428307706, -55734.32066849717, -83372.72207411792, -84416.79440936976, -0.028, 0.936, 0.376, 192.0, 0.0, 0.0, 0.0, 0.0, 0.0, 0.0, 0.0, 0.0, 0.0, 1.695415813113852E9, 0.0, 2023-09-22 15:50:13.113
196.0, -38183.41799776769, -14281.289491807163, -87274.08495832502, -81470.25334480446, -24504.396260308775, -55457.51666516265, -156457.427913836, -72756.38106541408, -3903.776872608289, -187500.02235174447, -85878.15146185773, -79481.48453014906, -58015.89733551709, -55737.36050574309, -83383.182690523, -84425.53394145178, -0.028, 0.936, 0.376, 192.0, 0.0, 0.0, 0.0, 0.0, 0.0, 0.0, 0.0, 0.0, 0.0, 1.695415813174142E9, 0.0, 2023-09-22 15:50:13.174
198.0, -38163.949628347116, -14259.138913051953, -87246.94994055628, -81429.21554198451, -24472.097989570855, -55414.91424023083, -156558.97188889646, -72699.67468973096, -3808.13375808403, -187500.02235174447, -85849.22830453257, -79451.30967513438, -57982.50382930086, -55701.50830763678, -83347.6210650946, -84388.29593518925, -0.034, 0.9420000000000001, 0.378, 192.0, 127.0, 120.0, 14.5, 56.0, 5.5, 104.0, 0.0, 0.0, 0.0, 1.695415813174152E9, 0.0, 2023-09-22 15:50:13.174
200.0, -38161.580343434856, -14264.033945087665, -87256.65059764989, -81443.54301018036, -24488.817094423426, -55421.99974322316, -156481.97012924793, -72713.68923350445, -3909.2083465109285, -187500.02235174447, -85845.74143239754, -79447.06284368788, -57986.728309002916, -55694.959246511375, -83354.50540238684, -84379.7128653184, -0.034, 0.9420000000000001, 0.378, 192.0, 0.0, 0.0, 0.0, 0.0, 0.0, 0.0, 0.0, 0.0, 0.0, 1.695415813174156E9, 0.0, 2023-09-22 15:50:13.174
202.0, -38156.41709046568, -14254.221529271786, -87243.32895795452, -81434.44585018705, -24484.860835654836, -55419.228126910704, -156592.54420906832, -72711.34230033663, -3824.070551880664, -187500.02235174447, -85833.85030434732, -79435.21641912656, -57982.14620138958, -55690.26538017576, -83351.2196959519, -84381.03161824126, -0.034, 0.9420000000000001, 0.378, 192.0, 0.0, 0.0, 0.0, 0.0, 0.0, 0.0, 0.0, 0.0, 0.0, 1.695415813174159E9, 0.0, 2023-09-22 15:50:13.174
204.0, -38157.19940152161, -14258.602471185026, -87253.47664993723, -81449.73444339448, -24482.580957720395, -55426.82772002551, -156510.91563831756, -72720.30534986322, -3931.5600909662357, -187500.02235174447, -85824.9543100541, -79429.2932068459, -57982.77205023433, -55693.66284533297, -83346.1234982161, -84379.89167927405, -0.034, 0.9420000000000001, 0.378, 192.0, 0.0, 0.0, 0.0, 0.0, 0.0, 0.0, 0.0, 0.0, 0.0, 1.695415813174163E9, 0.0, 2023-09-22 15:50:13.174
206.0, -38140.100317013304, -14240.274040731674, -87243.41836493235, -81430.06490827381, -24482.871530398315, -55414.422501852816, -156625.58008737327, -72716.61731202809, -3836.431066564449, -187500.02235174447, -85830.43048744566, -79430.18727662413, -57993.09855617268, -55699.83192680263, -83354.08071924219, -84389.1229497341, -0.034, 0.9420000000000001, 0.378, 192.0, 0.0, 0.0, 0.0, 0.0, 0.0, 0.0, 0.0, 0.0, 0.0, 1.695415813174166E9, 0.0, 2023-09-22 15:50:13.174
208.0, -38173.40441625171, -14276.997956871744, -87279.60583920548, -81459.50215572145, -24517.539086048495, -55452.62163312693, -156530.9428013495, -72750.56961185571, -3927.894404875565, -187500.02235174447, -85834.74437412553, -79422.47592478704, -57991.91391371655, -55707.72209259535, -83358.03697801077, -84390.66522010151, -0.03, 0.9440000000000001, 0.368, 192.0, 127.5, 8.0, 14.5, 64.0, 5.5, 64.0, 0.0, 0.0, 0.0, 1.695415813174169E9, 0.0, 2023-09-22 15:50:13.174
210.0, -38165.08956731434, -14258.82598862958, -87261.65738840788, -81439.40793745613, -24499.94826316217, -55433.62265033992, -156640.8239770918, -72733.73874828086, -3840.610842777591, -187500.02235174447, -85854.77153715749, -79436.42341332715, -58005.190849923, -55715.12052001006, -83373.5267369183, -84401.10348476213, -0.03, 0.9440000000000001, 0.368, 192.0, 0.0, 0.0, 0.0, 0.0, 0.0, 0.0, 0.0, 0.0, 0.0, 1.695415813234445E9, 0.0, 2023-09-22 15:50:13.234
212.0, -38194.92914616217, -14294.20880010233, -87285.7525689307, -81467.59348721427, -24525.27278963003, -55461.674089631335, -156554.5015400054, -72755.75521656933, -3929.816654898722, -187500.02235174447, -85854.19039180165, -79440.98316919604, -58013.46099537147, -55716.95336305539, -83367.67057987102, -84392.16278698001, -0.03, 0.9440000000000001, 0.368, 192.0, 0.0, 0.0, 0.0, 0.0, 0.0, 0.0, 0.0, 0.0, 0.0, 1.695415813234463E9, 0.0, 2023-09-22 15:50:13.234
214.0, -38181.071064599884, -14270.091267835054, -87274.21906879176, -81464.0842633348, -24526.636246041806, -55460.28828147511, -156644.78023586038, -72752.91654502352, -3859.498066842326, -187500.02235174447, -85874.57518274488, -79462.44084387313, -58037.71263810547, -55733.65011616351, -83394.80559763976, -84418.58254892619, -0.03, 0.9440000000000001, 0.368, 192.0, 0.0, 0.0, 0.0, 0.0, 0.0, 0.0, 0.0, 0.0, 0.0, 1.695415813234467E9, 0.0, 2023-09-22 15:50:13.234
216.0, -38193.90096591723, -14289.693747722358, -87286.02078986417, -81483.57498449982, -24545.18819393971, -55476.09096480501, -156565.02921164385, -72778.06225753573, -3930.3307450211937, -187500.02235174447, -85863.6675314507, -79448.56041056638, -58030.87300430215, -55736.86876736507, -83385.26140275734, -84416.48148494739, -0.03, 0.9440000000000001, 0.368, 192.0, 0.0, 0.0, 0.0, 0.0, 0.0, 0.0, 0.0, 0.0, 0.0, 1.695415813234471E9, 0.0, 2023-09-22 15:50:13.234
218.0, -38179.43938725464, -14269.264253290208, -87279.0023421052, -81481.69743796557, -24544.517641606053, -55470.41362171336, -156636.39833168965, -72774.17305400051, -3869.981034991865, -187500.02235174447, -85865.47802275157, -79448.94039022212, -58034.15871073708, -55744.22249129087, -83392.77158889432, -84429.78077289829, -0.034, 0.9460000000000001, 0.37, 192.0, 127.0, 120.0, 14.5, 72.0, 5.5, 72.0, 0.0, 0.0, 0.0, 1.695415813234474E9, 0.0, 2023-09-22 15:50:13.234
220.0, -38193.297468816934, -14291.481887278784, -87290.58054573304, -81490.74989446998, -24544.115310205856, -55469.78777286861, -156576.89798794963, -72762.01370501683, -3927.7379426643784, -187500.02235174447, -85861.3653017718, -79448.67216928866, -58037.84674857221, -55741.92026161197, -83387.67539115851, -84427.05386007475, -0.034, 0.9460000000000001, 0.37, 192.0, 0.0, 0.0, 0.0, 0.0, 0.0, 0.0, 0.0, 0.0, 0.0, 1.695415813234478E9, 0.0, 2023-09-22 15:50:13.234
222.0, -38204.205120111124, -14304.982340929788, -87315.74860998972, -81508.07249642283, -24575.29599372101, -55485.724566665245, -156619.3663024147, -72785.39362971707, -3893.3162562032053, -187500.02235174447, -85886.35455207284, -79484.32320169488, -58058.63387091564, -55768.18356134696, -83419.70544096296, -84449.91969465253, -0.034, 0.9460000000000001, 0.37, 192.0, 0.0, 0.0, 0.0, 0.0, 0.0, 0.0, 0.0, 0.0, 0.0, 1.695415813234481E9, 0.0, 2023-09-22 15:50:13.234
224.0, -38206.77557072348, -14318.818070747624, -87307.0090779077, -81506.15024639967, -24549.256211430577, -55471.01711881365, -156588.3644328552, -72771.46849292141, -3929.9954688543644, -187500.02235174447, -85874.73164495607, -79480.72457083757, -58053.67178364656, -55743.59664244612, -83406.47320824543, -84437.15684856854, -0.034, 0.9460000000000001, 0.37, 192.0, 0.0, 0.0, 0.0, 0.0, 0.0, 0.0, 0.0, 0.0, 0.0, 1.695415813234487E9, 0.0, 2023-09-22 15:50:13.234
226.0, -38219.717230763104, -14322.640219049481, -87334.07704044308, -81530.51364785596, -24593.445610218718, -55493.771194669156, -156605.35175864122, -72795.45191472195, -3914.9527448359427, -187500.02235174447, -85895.78698823297, -79506.98787057256, -58074.794182156824, -55768.25061658033, -83420.93478690801, -84453.11599410964, -0.034, 0.9460000000000001, 0.37, 192.0, 0.0, 0.0, 0.0, 0.0, 0.0, 0.0, 0.0, 0.0, 0.0, 1.695415813293874E9, 0.0, 2023-09-22 15:50:13.293
228.0, -38200.24886134254, -14305.518782796715, -87306.58439476305, -81497.67893525111, -24559.783883069027, -55471.374746724934, -156596.88044749267, -72771.91552781052, -3906.72730287639, -187500.02235174447, -85891.74132248656, -79498.18128325716, -58074.34714726772, -55766.17190434598, -83422.16413285305, -84447.70687195145, -0.028, 0.9400000000000001, 0.374, 192.0, 127.5, 16.0, 14.5, 48.0, 5.5, 88.0, 0.0, 0.0, 0.0, 1.695415813293883E9, 0.0, 2023-09-22 15:50:13.293
230.0, -38166.318913259376, -14262.670488675893, -87278.93528687183, -81459.6809696771, -24537.320379891444, -55443.435066155806, -156612.68313082255, -72739.1702221835, -3885.135517732563, -187500.02235174447, -85862.99697911704, -79462.12791945075, -58043.412332941574, -55736.98052608735, -83386.11076904665, -84415.0733250467, -0.028, 0.9400000000000001, 0.374, 192.0, 0.0, 0.0, 0.0, 0.0, 0.0, 0.0, 0.0, 0.0, 0.0, 1.695415813293887E9, 0.0, 2023-09-22 15:50:13.293
232.0, -38173.583230207354, -14277.556750483127, -87276.74481591521, -81455.25532427494, -24527.552667564472, -55442.00455451066, -156623.50137513893, -72741.20423092892, -3829.166749616474, -187500.02235174447, -85859.018368604, -79456.31646589238, -58036.975030538444, -55721.15549101299, -83369.79399559427, -84397.43779867147, -0.028, 0.9400000000000001, 0.374, 192.0, 0.0, 0.0, 0.0, 0.0, 0.0, 0.0, 0.0, 0.0, 0.0, 1.69541581329389E9, 0.0, 2023-09-22 15:50:13.293
234.0, -38149.823325851365, -14254.266232760696, -87263.4008244754, -81447.74513813797, -24527.977350709123, -55427.20769968125, -156603.1165841957, -72723.32283536468, -3847.405773092005, -187500.02235174447, -85868.9201913977, -79462.73141655105, -58046.27335623185, -55728.82213936116, -83376.81244335324, -84401.23759522887, -0.028, 0.9400000000000001, 0.374, 192.0, 0.0, 0.0, 0.0, 0.0, 0.0, 0.0, 0.0, 0.0, 0.0, 1.695415813293893E9, 0.0, 2023-09-22 15:50:13.293
236.0, -38094.88273798022, -14201.247894912709, -87200.21244290024, -81386.92604147508, -24467.35941974633, -55373.20588507723, -156672.71991642952, -72671.48913997282, -3791.9734468428433, -187500.02235174447, -85799.02628648595, -79391.47405522753, -57974.61366350814, -55664.42676358543, -83308.32669834218, -84338.71976598738, -0.028, 0.9400000000000001, 0.374, 192.0, 0.0, 0.0, 0.0, 0.0, 0.0, 0.0, 0.0, 0.0, 0.0, 1.695415813293896E9, 0.0, 2023-09-22 15:50:13.293
238.0, -38124.56585461686, -14225.924220791367, -87234.45531540576, -81428.9249693066, -24507.883132443803, -55411.15914716234, -156631.88327930967, -72707.14017237905, -3852.9937092058312, -187500.02235174447, -85803.36252491028, -79397.77724716393, -57984.00139617937, -55677.614292814054, -83321.60363454862, -84355.19300165093, -0.034, 0.9380000000000001, 0.376, 192.0, 127.0, 120.0, 14.5, 40.0, 5.5, 96.0, 0.0, 0.0, 0.0, 1.695415813293899E9, 0.0, 2023-09-22 15:50:13.293
240.0, -38127.78450581843, -14228.606430126005, -87229.44852464779, -81427.0697745168, -24502.630472496807, -55411.71794077372, -156696.50217252996, -72711.05172765872, -3792.08520556512, -187500.02235174447, -85805.70945807808, -79406.42737226812, -58002.32982663272, -55686.53263885172, -83331.66191955352, -84367.08412970116, -0.034, 0.9380000000000001, 0.376, 192.0, 0.0, 0.0, 0.0, 0.0, 0.0, 0.0, 0.0, 0.0, 0.0, 1.695415813353528E9, 0.0, 2023-09-22 15:50:13.353
242.0, -38133.10422099879, -14234.10495926201, -87242.07726026502, -81438.89384733366, -24517.203809881667, -55424.36902813543, -156633.80552933284, -72715.20915212741, -3874.5631426052028, -187500.02235174447, -85811.6550221032, -79413.244654327, -58003.69328304449, -55690.80182204269, -83333.56181783222, -84373.85670827112, -0.034, 0.9380000000000001, 0.376, 192.0, 0.0, 0.0, 0.0, 0.0, 0.0, 0.0, 0.0, 0.0, 0.0, 1.695415813353538E9, 0.0, 2023-09-22 15:50:13.353
244.0, -38140.25677922449, -14240.855186087512, -87244.98298704422, -81448.28158000488, -24527.440908842196, -55422.55853683455, -156709.95792269206, -72709.0624224022, -3802.456414992382, -187500.02235174447, -85824.4625716761, -79429.18144812364, -58019.42891114103, -55703.54231638221, -83347.08462322768, -84383.49031013135, -0.034, 0.9380000000000001, 0.376, 192.0, 0.0, 0.0, 0.0, 0.0, 0.0, 0.0, 0.0, 0.0, 0.0, 1.695415813353541E9, 0.0, 2023-09-22 15:50:13.353
246.0, -38151.298540985415, -14251.338154237052, -87260.02571106264, -81462.18436505609, -24539.935533992713, -55438.27181318663, -156623.05434024983, -72728.4637365894, -3900.1558900065293, -187500.02235174447, -85837.73950788254, -79446.97343671006, -58029.12956823463, -55724.19532825892, -83360.40626292305, -84395.60495562613, -0.034, 0.9380000000000001, 0.376, 192.0, 0.0, 0.0, 0.0, 0.0, 0.0, 0.0, 0.0, 0.0, 0.0, 1.695415813353545E9, 0.0, 2023-09-22 15:50:13.353
248.0, -38144.19068624863, -14244.587927411549, -87244.08891726601, -81450.74027189497, -24520.020129683035, -55422.26796415663, -156723.97246646555, -72724.2169051429, -3807.664371450469, -187500.02235174447, -85824.55197865391, -79439.3514918508, -58026.156786222076, -55727.7045521384, -83353.41016690852, -84387.93830727796, -0.028, 0.9420000000000001, 0.374, 192.0, 127.5, 16.0, 14.5, 56.0, 5.5, 88.0, 0.0, 0.0, 0.0, 1.695415813353549E9, 0.0, 2023-09-22 15:50:13.353
250.0, -38127.06924999586, -14241.078703532065, -87236.95871078476, -81441.73251887948, -24516.399147081276, -55414.15428091935, -156647.3730382172, -72707.40839331251, -3897.853660327633, -187500.02235174447, -85812.5043883925, -79431.997767925, -58012.76809129335, -55710.11372925207, -83343.06130922573, -84376.7177315614, -0.028, 0.9420000000000001, 0.374, 192.0, 0.0, 0.0, 0.0, 0.0, 0.0, 0.0, 0.0, 0.0, 0.0, 1.695415813353552E9, 0.0, 2023-09-22 15:50:13.353
252.0, -38141.12849725825, -14247.761875124203, -87241.45141142028, -81450.09207130577, -24526.055100685968, -55425.330153147006, -156750.12400747824, -72717.66784401749, -3791.459356720371, -187500.02235174447, -85810.85035930281, -79419.72666021904, -58021.57467860874, -55700.21190645837, -83340.49085861337, -84369.1628419355, -0.028, 0.9420000000000001, 0.374, 192.0, 0.0, 0.0, 0.0, 0.0, 0.0, 0.0, 0.0, 0.0, 0.0, 1.695415813353555E9, 0.0, 2023-09-22 15:50:13.353
254.0, -38146.55997116089, -14260.323555508085, -87245.85470507797, -81437.97742581098, -24529.1396414208, -55425.7324845472, -156652.8268638643, -72724.19455339844, -3891.10343350213, -187500.02235174447, -85827.79298159994, -79433.60709352579, -58032.661143858575, -55720.060255534685, -83351.53262037429, -84383.51266187581, -0.028, 0.9420000000000001, 0.374, 192.0, 0.0, 0.0, 0.0, 0.0, 0.0, 0.0, 0.0, 0.0, 0.0, 1.695415813353558E9, 0.0, 2023-09-22 15:50:13.353
0.0, -38139.69798561311, -14245.884328589957, -87239.75267884167, -81420.23014071348, -24527.105632675368, -55408.65575178334, -156763.06566751786, -72705.97788166736, -3796.4661474783597, -187500.02235174447, -85819.008746029, -79423.28058758743, -58029.55425137928, -55702.24591520381, -83341.7202045584, -84369.8110425247, -0.028, 0.9420000000000001, 0.374, 192.0, 0.0, 0.0, 0.0, 0.0, 0.0, 0.0, 0.0, 0.0, 0.0, 1.695415813413775E9, 0.0, 2023-09-22 15:50:13.413
2.0, -38142.73782285903, -14246.264308245696, -87241.7419840982, -81423.73936459296, -24525.47395533013, -55410.93562971779, -156683.15818109014, -72705.12851537806, -3888.488279400859, -187500.02235174447, -85819.6569466182, -79418.67612822964, -58026.983800766924, -55692.724072065845, -83337.20515217843, -84358.18813540795, -0.034, 0.9420000000000001, 0.37, 192.0, 127.0, 120.0, 14.5, 56.0, 5.5, 72.0, 0.0, 0.0, 0.0, 1.695415813413785E9, 0.0, 2023-09-22 15:50:13.413
4.0, -38166.005988837, -14262.625785186981, -87270.68749316782, -81469.02399885941, -24557.168728967754, -55447.324269691024, -156770.44174318813, -72752.00012350084, -3792.174612542941, -187500.02235174447, -85838.74533638303, -79436.4010615827, -58040.95364105149, -55717.98154330034, -83355.55593437624, -84383.93734502046, -0.034, 0.9420000000000001, 0.37, 192.0, 0.0, 0.0, 0.0, 0.0, 0.0, 0.0, 0.0, 0.0, 0.0, 1.695415813413789E9, 0.0, 2023-09-22 15:50:13.413
6.0, -38176.15368081971, -14289.559637255627, -87277.3036095266, -81489.52054852493, -24559.560365624475, -55466.23384550022, -156670.9317768731, -72753.98942875737, -3874.2725699272837, -187500.02235174447, -85866.5732582299, -79461.47971886155, -58071.41906874408, -55754.593700718135, -83383.8308911122, -84425.1316100516, -0.034, 0.9420000000000001, 0.37, 192.0, 0.0, 0.0, 0.0, 0.0, 0.0, 0.0, 0.0, 0.0, 0.0, 1.695415813413793E9, 0.0, 2023-09-22 15:50:13.413
8.0, -38151.924389830165, -14256.970793839788, -87248.6933766238, -81468.44285350357, -24552.966601010157, -55437.40009515287, -156758.52826339344, -72739.50549835032, -3808.3125720396724, -187500.02235174447, -85831.74924036852, -79426.11925913325, -58048.5532341663, -55724.84352884812, -83358.95339953345, -84401.41640918452, -0.034, 0.9420000000000001, 0.37, 192.0, 0.0, 0.0, 0.0, 0.0, 0.0, 0.0, 0.0, 0.0, 0.0, 1.695415813413797E9, 0.0, 2023-09-22 15:50:13.413
10.0, -38150.717395629574, -14260.211796785808, -87240.15501024187, -81465.24655404646, -24535.62164731284, -55427.274754914615, -156680.05128861085, -72733.89521049205, -3842.9577759453987, -187500.02235174447, -85821.93682455264, -79424.241712599, -58039.27726021734, -55726.40815095999, -83351.91260003002, -84398.71184810542, -0.034, 0.9420000000000001, 0.37, 192.0, 0.0, 0.0, 0.0, 0.0, 0.0, 0.0, 0.0, 0.0, 0.0, 1.69541581341381E9, 0.0, 2023-09-22 15:50:13.413
12.0, -38105.0974851963, -14212.714339818282, -87206.85091100346, -81417.32441393429, -24509.403051066765, -55381.47603052569, -156755.62253661425, -72682.28503254474, -3763.36321394005, -187500.02235174447, -85808.07874299034, -79415.41277353917, -58011.85166977068, -55707.58798212862, -83336.91457950052, -84374.50490886033, -0.032, 0.9400000000000001, 0.37, 192.0, 127.5, 0.0, 14.5, 48.0, 5.5, 72.0, 0.0, 0.0, 0.0, 1.695415813413813E9, 0.0, 2023-09-22 15:50:13.413
14.0, -38116.340412657315, -14232.786206339146, -87216.50686460816, -81424.968710538, -24506.027937654013, -55388.80740270703, -156719.8373937413, -72680.85452089961, -3776.3048739796727, -187500.02235174447, -85776.47337633054, -79388.94830810408, -57997.09951843018, -55678.798935270184, -83303.78929421774, -84337.19984736442, -0.032, 0.9400000000000001, 0.37, 192.0, 0.0, 0.0, 0.0, 0.0, 0.0, 0.0, 0.0, 0.0, 0.0, 1.695415813474061E9, 0.0, 2023-09-22 15:50:13.474
16.0, -38106.66210730816, -14214.949514263812, -87211.36596338343, -81427.56151289481, -24524.557533807463, -55394.95413243224, -156757.6565453597, -72700.12172462008, -3722.794797753668, -187500.02235174447, -85803.42958014365, -79422.47592478704, -58019.27244892984, -55706.291580950216, -83333.60652132113, -84369.8110425247, -0.032, 0.9400000000000001, 0.37, 192.0, 0.0, 0.0, 0.0, 0.0, 0.0, 0.0, 0.0, 0.0, 0.0, 1.695415813474074E9, 0.0, 2023-09-22 15:50:13.474
18.0, -38100.604784560775, -14213.273133429664, -87200.2347946447, -81422.17474248109, -24513.247551113076, -55387.04161489506, -156745.38543765372, -72675.24423304132, -3736.0046787267543, -187500.02235174447, -85749.87480042873, -79378.44298821008, -57984.493134557386, -55669.724127021334, -83291.11585511158, -84328.03563213773, -0.032, 0.9400000000000001, 0.37, 192.0, 0.0, 0.0, 0.0, 0.0, 0.0, 0.0, 0.0, 0.0, 0.0, 1.695415813474078E9, 0.0, 2023-09-22 15:50:13.474
20.0, -38110.30544165438, -14220.33628467754, -87215.94807099678, -81446.29227474837, -24534.012321712056, -55407.135833160384, -156770.37468795475, -72700.03231764225, -3742.8443125300782, -187500.02235174447, -85782.91067873368, -79414.40694503867, -58012.23164942642, -55708.43734841792, -83320.53075081477, -84363.97723722187, -0.032, 0.9400000000000001, 0.37, 192.0, 0.0, 0.0, 0.0, 0.0, 0.0, 0.0, 0.0, 0.0, 0.0, 1.695415813474081E9, 0.0, 2023-09-22 15:50:13.474
22.0, -38124.81172380588, -14234.708456362303, -87220.32901291002, -81436.39045195466, -24524.356368107365, -55409.57217330601, -156780.0529933039, -72700.36759380909, -3760.5468941386816, -187500.02235174447, -85783.8941554897, -79408.26021531346, -58028.615478112166, -55692.791127299206, -83320.08371592566, -84367.17353667898, -0.03, 0.9380000000000001, 0.37, 192.0, 127.5, 8.0, 14.5, 40.0, 5.5, 72.0, 0.0, 0.0, 0.0, 1.695415813474085E9, 0.0, 2023-09-22 15:50:13.474
24.0, -38131.427840164644, -14231.199232482819, -87240.4455829198, -81437.01630079941, -24547.646885829796, -55420.010437966645, -156780.27651074846, -72729.67073078999, -3788.620685174547, -187500.02235174447, -85800.83677778683, -79411.32240430385, -58034.80691132628, -55708.41499667347, -83333.40535562103, -84377.99178099535, -0.03, 0.9380000000000001, 0.37, 192.0, 0.0, 0.0, 0.0, 0.0, 0.0, 0.0, 0.0, 0.0, 0.0, 1.695415813474089E9, 0.0, 2023-09-22 15:50:13.474
26.0, -38143.676596126155, -14247.851282102023, -87240.46793466425, -81428.03089952838, -24542.126004949332, -55399.20096387875, -156818.18506934465, -72699.22765484186, -3770.046385532187, -187500.02235174447, -85798.57925159685, -79397.53137797491, -58034.85161481519, -55680.96705448235, -83329.73966953036, -84359.0151499528, -0.03, 0.9380000000000001, 0.37, 192.0, 0.0, 0.0, 0.0, 0.0, 0.0, 0.0, 0.0, 0.0, 0.0, 1.695415813474092E9, 0.0, 2023-09-22 15:50:13.474
28.0, -38166.47537547057, -14265.375049754985, -87264.0490250646, -81452.59546668475, -24575.988897799125, -55421.35154263396, -156775.67205139066, -72728.0167017003, -3817.4767872663488, -187500.02235174447, -85842.32161549588, -79444.87237273126, -58057.98567032644, -55712.997104286806, -83365.97184729241, -84384.56319386521, -0.03, 0.9380000000000001, 0.37, 192.0, 0.0, 0.0, 0.0, 0.0, 0.0, 0.0, 0.0, 0.0, 0.0, 1.695415813474095E9, 0.0, 2023-09-22 15:50:13.474
30.0, -38148.3034072284, -14253.573328682582, -87230.342594426, -81430.04255652936, -24546.708112562672, -55398.9774464342, -156842.16849114522, -72705.08381188916, -3779.6129321590583, -187500.02235174447, -85814.76191458249, -79429.71788999056, -58046.988612054425, -55697.7979180572, -83345.87762902709, -84364.58073432217, -0.03, 0.9380000000000001, 0.37, 192.0, 0.0, 0.0, 0.0, 0.0, 0.0, 0.0, 0.0, 0.0, 0.0, 1.695415813534352E9, 0.0, 2023-09-22 15:50:13.534
32.0, -38130.48906689752, -14239.804654098112, -87225.44756239028, -81442.2242572575, -24553.1454149658, -55408.70045527226, -156803.0529383484, -72718.18193413997, -3838.66624100998, -187500.02235174447, -85800.45679813108, -79423.01236665397, -58033.711675847975, -55710.761929841276, -83335.90875100002, -84363.15022267702, -0.028, 0.936, 0.374, 192.0, 127.5, 16.0, 14.5, 32.0, 5.5, 88.0, 0.0, 0.0, 0.0, 1.695415813534366E9, 0.0, 2023-09-22 15:50:13.534
34.0, -38110.23838642101, -14221.319761433573, -87194.64685853086, -81428.3661756952, -24528.357330364863, -55392.22721960869, -156885.4861718996, -72678.9546226209, -3754.0872399910977, -187500.02235174447, -85775.84752748579, -79403.23107281102, -58022.82637629824, -55713.44413917591, -83312.2159018774, -84355.17064990647, -0.028, 0.936, 0.374, 192.0, 0.0, 0.0, 0.0, 0.0, 0.0, 0.0, 0.0, 0.0, 0.0, 1.695415813534369E9, 0.0, 2023-09-22 15:50:13.534
36.0, -38136.27816871145, -14245.392590211939, -87234.3882601724, -81470.09688259327, -24563.203699970687, -55423.31849614603, -156811.4571942636, -72717.60078878413, -3826.0598571371866, -187500.02235174447, -85797.5510713519, -79418.89964567419, -58038.2490799724, -55730.29735449521, -83328.2197509074, -84375.62249608309, -0.028, 0.936, 0.374, 192.0, 0.0, 0.0, 0.0, 0.0, 0.0, 0.0, 0.0, 0.0, 0.0, 1.695415813534374E9, 0.0, 2023-09-22 15:50:13.534
38.0, -38145.196514749114, -14251.941651337345, -87236.06464100655, -81458.2281062875, -24559.38155166883, -55423.51966184613, -156896.41617493823, -72720.64062603004, -3737.368135138528, -187500.02235174447, -85810.64919360272, -79426.43218355563, -58063.68536516254, -55727.34692422712, -83340.53556210228, -84385.39020841006, -0.028, 0.936, 0.374, 192.0, 0.0, 0.0, 0.0, 0.0, 0.0, 0.0, 0.0, 0.0, 0.0, 1.695415813534378E9, 0.0, 2023-09-22 15:50:13.534
40.0, -38147.61050315029, -14261.284680519662, -87249.83331559102, -81467.30291453635, -24583.946118825213, -55436.506025374656, -156813.5582582424, -72735.8174605152, -3829.256156594295, -187500.02235174447, -85803.29546967692, -79415.61393923927, -58055.70579239199, -55734.56653768618, -83333.29359689876, -84378.50587111781, -0.028, 0.936, 0.374, 192.0, 0.0, 0.0, 0.0, 0.0, 0.0, 0.0, 0.0, 0.0, 0.0, 1.695415813534384E9, 0.0, 2023-09-22 15:50:13.534
42.0, -38148.482221184044, -14256.34494499504, -87243.15014399888, -81459.43510048809, -24589.131723538845, -55432.59447009498, -156904.57456166443, -72731.12359417959, -3732.8977862474667, -187500.02235174447, -85814.27017620447, -79424.86756144375, -58080.51622873738, -55734.54418594172, -83354.66186459802, -84392.00632476882, -0.026000000000000002, 0.936, 0.374, 192.0, 127.5, 24.0, 14.5, 32.0, 5.5, 88.0, 0.0, 0.0, 0.0, 1.695415813534387E9, 0.0, 2023-09-22 15:50:13.534
44.0, -38186.659000713706, -14295.59460825856, -87278.82352814956, -81494.37087707173, -24628.716662969193, -55466.52441817814, -156799.09667957982, -72769.76976034281, -3839.560310788192, -187500.02235174447, -85834.11852528078, -79444.78296575343, -58101.54922026983, -55763.28852931125, -83369.36931244962, -84407.65254588754, -0.026000000000000002, 0.936, 0.374, 192.0, 0.0, 0.0, 0.0, 0.0, 0.0, 0.0, 0.0, 0.0, 0.0, 1.695415813593738E9, 0.0, 2023-09-22 15:50:13.593
46.0, -38176.377198264265, -14284.77636394219, -87265.3007227541, -81471.59444947177, -24616.691424452238, -55449.60414762547, -156897.3325964609, -72764.53945214028, -3756.7470975812794, -187500.02235174447, -85844.64619691923, -79454.08129144684, -58108.88059245117, -55769.345852058636, -83383.94264983448, -84421.1306477941, -0.026000000000000002, 0.936, 0.374, 192.0, 0.0, 0.0, 0.0, 0.0, 0.0, 0.0, 0.0, 0.0, 0.0, 1.695415813593751E9, 0.0, 2023-09-22 15:50:13.593
48.0, -38177.293619786935, -14292.577122757093, -87256.65059764989, -81463.95015286806, -24598.787677143537, -55432.61682183944, -156795.8556766338, -72723.94868420943, -3840.9014154555102, -187500.02235174447, -85831.92805432416, -79436.13284064924, -58088.54050499684, -55737.13698829854, -83356.8746872991, -84390.95579277942, -0.026000000000000002, 0.936, 0.374, 192.0, 0.0, 0.0, 0.0, 0.0, 0.0, 0.0, 0.0, 0.0, 0.0, 1.695415813593755E9, 0.0, 2023-09-22 15:50:13.593
50.0, -38180.69108494414, -14287.123297109998, -87252.91785632585, -81445.95699858153, -24594.54084569703, -55416.32240013152, -156886.3355381889, -72726.1168034216, -3730.9755362243104, -187500.02235174447, -85838.6112259163, -79443.77713725295, -58092.25089457642, -55733.29248825223, -83350.70560582944, -84381.3668944081, -0.026000000000000002, 0.936, 0.374, 192.0, 0.0, 0.0, 0.0, 0.0, 0.0, 0.0, 0.0, 0.0, 0.0, 1.695415813593758E9, 0.0, 2023-09-22 15:50:13.593
52.0, -38180.735788433056, -14297.44980304835, -87231.52723688213, -81431.09308851876, -24571.33973495242, -55397.45752781124, -156804.5505052269, -72712.2140183704, -3814.235784320329, -187500.02235174447, -85834.54320842543, -79437.004558683, -58072.89428387813, -55713.555897898186, -83333.02537596528, -84357.62934179656, -0.032, 0.9380000000000001, 0.376, 192.0, 127.5, 0.0, 14.5, 40.0, 5.5, 96.0, 0.0, 0.0, 0.0, 1.695415813593762E9, 0.0, 2023-09-22 15:50:13.593
54.0, -38173.113843573796, -14281.624767973992, -87209.01903021563, -81416.63150985618, -24564.96948778266, -55387.91333292882, -156910.00603556706, -72690.1081431041, -3731.109646691042, -187500.02235174447, -85820.03692627394, -79423.90643643218, -58064.735897151935, -55703.22939195984, -83322.45300083792, -84351.2590946268, -0.032, 0.9380000000000001, 0.376, 192.0, 0.0, 0.0, 0.0, 0.0, 0.0, 0.0, 0.0, 0.0, 0.0, 1.695415813593766E9, 0.0, 2023-09-22 15:50:13.593
56.0, -38179.77466342147, -14298.366224571017, -87203.2299284017, -81423.5158471484, -24548.563307352462, -55394.73061498769, -156860.18399717618, -72676.96531736437, -3811.553574985692, -187500.02235174447, -85784.8999839902, -79389.08241857082, -58032.41527466956, -55677.97192072534, -83293.88747142405, -84330.20375134991, -0.032, 0.9380000000000001, 0.376, 192.0, 0.0, 0.0, 0.0, 0.0, 0.0, 0.0, 0.0, 0.0, 0.0, 1.695415813593777E9, 0.0, 2023-09-22 15:50:13.593
58.0, -38216.49857956154, -14333.793739532679, -87229.40382115888, -81447.99100732697, -24583.990822314125, -55423.96669673523, -156942.30430630498, -72713.13043989307, -3756.143600480986, -187500.02235174447, -85819.36637394028, -79417.96087240707, -58065.18293204105, -55722.20602300239, -83326.49866658433, -84370.39218788054, -0.032, 0.9380000000000001, 0.376, 192.0, 0.0, 0.0, 0.0, 0.0, 0.0, 0.0, 0.0, 0.0, 0.0, 1.69541581359378E9, 0.0, 2023-09-22 15:50:13.593
60.0, -38256.68701609218, -14382.98992907881, -87249.00630104617, -81473.36023728373, -24604.710889424194, -55432.035676483596, -156885.75439283304, -72722.71933826439, -3835.492293297326, -187500.02235174447, -85821.8027140859, -79428.51089578998, -58075.241217045936, -55727.34692422712, -83326.47631483988, -84373.43202512647, -0.032, 0.9380000000000001, 0.376, 192.0, 0.0, 0.0, 0.0, 0.0, 0.0, 0.0, 0.0, 0.0, 0.0, 1.695415813653553E9, 0.0, 2023-09-22 15:50:13.653
62.0, -38272.534402911, -14396.244513540807, -87237.27163520714, -81464.55364996835, -24595.054935819502, -55412.522603574114, -156946.3052685625, -72701.23931184284, -3809.072531351153, -187500.02235174447, -85854.70448192413, -79468.52051836497, -58104.56670577129, -55759.7122501984, -83350.88441978508, -84389.3688189231, -0.032, 0.9420000000000001, 0.374, 192.0, 127.5, 0.0, 14.5, 56.0, 5.5, 88.0, 0.0, 0.0, 0.0, 1.695415813653562E9, 0.0, 2023-09-22 15:50:13.653
64.0, -38302.41868524774, -14430.66620000198, -87248.73808011271, -81479.10463560876, -24595.032584075045, -55420.30101064456, -156909.80486986696, -72701.84280894314, -3851.6079010496023, -187500.02235174447, -85832.263330491, -79450.08032918934, -58087.51232475189, -55727.63749690503, -83311.88062571056, -84357.40582435201, -0.032, 0.9420000000000001, 0.374, 192.0, 0.0, 0.0, 0.0, 0.0, 0.0, 0.0, 0.0, 0.0, 0.0, 1.695415813653565E9, 0.0, 2023-09-22 15:50:13.653
66.0, -38299.26708927954, -14418.238630084828, -87236.75754508466, -81452.70722540704, -24595.837246875435, -55401.70435925775, -156954.01662039955, -72692.94681464993, -3843.0918864121304, -187500.02235174447, -85873.27878156648, -79490.51463490899, -58124.303296125334, -55766.328366557165, -83348.0680999837, -84389.23470845637, -0.032, 0.9420000000000001, 0.374, 192.0, 0.0, 0.0, 0.0, 0.0, 0.0, 0.0, 0.0, 0.0, 0.0, 1.695415813653568E9, 0.0, 2023-09-22 15:50:13.653
68.0, -38316.81320867696, -14442.602031541113, -87233.02480376064, -81449.44387071657, -24589.48935145013, -55394.30593184304, -156959.73866698012, -72689.95168089292, -3866.4047558790157, -187500.02235174447, -85830.63165314576, -79449.23096290004, -58071.12849606616, -55719.85908983459, -83300.97297441638, -84334.83056245215, -0.032, 0.9420000000000001, 0.374, 192.0, 0.0, 0.0, 0.0, 0.0, 0.0, 0.0, 0.0, 0.0, 0.0, 1.695415813653572E9, 0.0, 2023-09-22 15:50:13.653
70.0, -38341.15425838879, -14461.221034672384, -87263.42317621985, -81471.86267040523, -24626.950875157225, -55423.54201359058, -156952.98844015462, -72730.43069010148, -3870.5398286032473, -187500.02235174447, -85892.36717133131, -79508.91012059571, -58111.093415152245, -55759.332270542654, -83345.74351856035, -84386.23957469936, -0.032, 0.9420000000000001, 0.374, 192.0, 0.0, 0.0, 0.0, 0.0, 0.0, 0.0, 0.0, 0.0, 0.0, 1.695415813653575E9, 0.0, 2023-09-22 15:50:13.653
72.0, -38322.06586862396, -14449.888700233543, -87248.40280394588, -81451.81315562883, -24605.359090013397, -55406.17470814881, -156970.48985606313, -72716.99729168383, -3866.047127967731, -187500.02235174447, -85861.34295002735, -79483.20561447211, -58100.49868828043, -55734.54418594172, -83323.83880899416, -84358.83633599716, -0.032, 0.934, 0.374, 192.0, 127.5, 0.0, 14.5, 24.0, 5.5, 88.0, 0.0, 0.0, 0.0, 1.695415813653578E9, 0.0, 2023-09-22 15:50:13.653
74.0, -38336.616854264365, -14463.545616095736, -87288.59124047653, -81495.98020267251, -24653.035360936567, -55447.614842368945, -156940.80673942648, -72754.65998109103, -3885.4707938993924, -187500.02235174447, -85883.76174971602, -79505.8702833498, -58122.98454320247, -55773.03388989376, -83362.41791992402, -84390.48640614586, -0.032, 0.934, 0.374, 192.0, 0.0, 0.0, 0.0, 0.0, 0.0, 0.0, 0.0, 0.0, 0.0, 1.695415813713826E9, 0.0, 2023-09-22 15:50:13.713
76.0, -38335.02988040804, -14466.920729508487, -87292.56985098957, -81505.09971441027, -24661.439616851763, -55463.97631931023, -156957.5928995124, -72752.62597234559, -3843.0471829232197, -187500.02235174447, -85897.41866557821, -79517.22496953308, -58142.92229925661, -55788.925980201486, -83378.86880384313, -84409.75360986634, -0.032, 0.934, 0.374, 192.0, 0.0, 0.0, 0.0, 0.0, 0.0, 0.0, 0.0, 0.0, 0.0, 1.695415813713843E9, 0.0, 2023-09-22 15:50:13.713
78.0, -38315.91913889875, -14440.702133262414, -87290.44643526632, -81524.05399370838, -24671.095570456455, -55469.22897925723, -156906.89914308776, -72769.34507719816, -3901.0052562958313, -187500.02235174447, -85903.18541564768, -79527.64088244925, -58146.31976441381, -55811.81416652372, -83393.66565867253, -84428.01498508632, -0.032, 0.934, 0.374, 192.0, 0.0, 0.0, 0.0, 0.0, 0.0, 0.0, 0.0, 0.0, 0.0, 1.695415813713846E9, 0.0, 2023-09-22 15:50:13.713
80.0, -38276.848289590875, -14404.402900266994, -87258.1928680173, -81488.5817752578, -24627.241447835142, -55440.127007976414, -156968.56760603996, -72727.48025983338, -3831.6030897621026, -187500.02235174447, -85870.14953734273, -79495.25320473353, -58130.33826712827, -55788.32248310119, -83359.3780826781, -84404.99268829737, -0.032, 0.934, 0.374, 192.0, 0.0, 0.0, 0.0, 0.0, 0.0, 0.0, 0.0, 0.0, 0.0, 1.69541581371385E9, 0.0, 2023-09-22 15:50:13.713
82.0, -38266.52178365252, -14390.522466960248, -87269.9498856008, -81496.02490616142, -24654.823500492992, -55449.20181622527, -156901.2888552295, -72745.49576586435, -3892.5339451472696, -187500.02235174447, -85870.90949665422, -79491.00637328702, -58121.30816236832, -55786.243770866844, -83361.2779809568, -84401.93049930698, -0.03, 0.9400000000000001, 0.376, 192.0, 127.5, 8.0, 14.5, 48.0, 5.5, 96.0, 0.0, 0.0, 0.0, 1.695415813713853E9, 0.0, 2023-09-22 15:50:13.713
84.0, -38269.89689706527, -14392.578827450137, -87277.16949905986, -81503.44568532058, -24658.44448309475, -55462.992842554195, -156963.67257400425, -72753.36357991262, -3796.4884992228153, -187500.02235174447, -85857.52080172549, -79475.18133821266, -58121.17405190159, -55776.386651562054, -83358.19344022196, -84398.01894402731, -0.03, 0.9400000000000001, 0.376, 192.0, 0.0, 0.0, 0.0, 0.0, 0.0, 0.0, 0.0, 0.0, 0.0, 1.695415813713856E9, 0.0, 2023-09-22 15:50:13.713
86.0, -38259.74920508256, -14383.571074434647, -87281.48338573973, -81503.31157485385, -24663.987715719668, -55462.83638034301, -156866.80011353496, -72756.38106541408, -3841.661374766991, -187500.02235174447, -85876.69859846814, -79498.29304197944, -58135.769741030905, -55806.91913448801, -83373.16910900702, -84418.85076985965, -0.03, 0.9400000000000001, 0.376, 192.0, 0.0, 0.0, 0.0, 0.0, 0.0, 0.0, 0.0, 0.0, 0.0, 1.695415813713864E9, 0.0, 2023-09-22 15:50:13.713
88.0, -38231.16132392422, -14352.256280452762, -87261.45622270778, -81474.56723148433, -24642.59709627594, -55425.665429313834, -156956.02827740053, -72726.22856214388, -3717.6986000178576, -187500.02235174447, -85845.67437716418, -79468.94520150962, -58116.904868710626, -55775.783154461766, -83351.13028897409, -84393.54859513624, -0.03, 0.9400000000000001, 0.376, 192.0, 0.0, 0.0, 0.0, 0.0, 0.0, 0.0, 0.0, 0.0, 0.0, 1.695415813713869E9, 0.0, 2023-09-22 15:50:13.713
90.0, -38189.18474783716, -14317.365207358029, -87229.85085604798, -81432.27773097489, -24625.989750145647, -55390.12615562989, -156875.76316306152, -72703.18391361045, -3791.146432297997, -187500.02235174447, -85825.24488273202, -79449.20861115558, -58094.55312425532, -55736.22056677587, -83348.58219010619, -84375.8683652721, -0.03, 0.9400000000000001, 0.376, 192.0, 0.0, 0.0, 0.0, 0.0, 0.0, 0.0, 0.0, 0.0, 0.0, 1.695415813774039E9, 0.0, 2023-09-22 15:50:13.774
92.0, -38147.252875239, -14272.281738791675, -87191.98700094069, -81390.2564513989, -24600.419354488775, -55351.79291388905, -156997.22254243167, -72665.0965410586, -3663.830895880568, -187500.02235174447, -85783.67063804515, -79403.25342455547, -58054.99053656943, -55703.631723360035, -83312.70764025541, -84337.26690259778, -0.028, 0.9380000000000001, 0.374, 192.0, 127.5, 16.0, 14.5, 40.0, 5.5, 88.0, 0.0, 0.0, 0.0, 1.695415813774049E9, 0.0, 2023-09-22 15:50:13.774
94.0, -38168.37527374927, -14293.314730324118, -87226.85572229096, -81413.50226563243, -24634.081081638466, -55401.7267110022, -156904.97689306462, -72695.58432049565, -3755.4730481473266, -187500.02235174447, -85768.98554193802, -79382.33219174531, -58030.068341501756, -55685.48210686232, -83291.49583476732, -84319.67607971145, -0.028, 0.9380000000000001, 0.374, 192.0, 0.0, 0.0, 0.0, 0.0, 0.0, 0.0, 0.0, 0.0, 0.0, 1.695415813774053E9, 0.0, 2023-09-22 15:50:13.774
96.0, -38136.54638964491, -14252.433389715361, -87203.67696329081, -81385.31671587429, -24623.799279189025, -55386.01343465012, -157014.1651647288, -72683.62613721206, -3664.5237999586825, -187500.02235174447, -85795.71822830656, -79406.78500017941, -58050.96722256747, -55731.28083125125, -83327.52684682928, -84354.85772548411, -0.028, 0.9380000000000001, 0.374, 192.0, 0.0, 0.0, 0.0, 0.0, 0.0, 0.0, 0.0, 0.0, 0.0, 1.695415813774056E9, 0.0, 2023-09-22 15:50:13.774
98.0, -38148.571628161866, -14273.220512058797, -87227.2357019467, -81414.0163557549, -24645.703988755227, -55419.89867924436, -156935.62113471286, -72715.74559399433, -3763.0949930065863, -187500.02235174447, -85766.95153319258, -79381.16990103363, -58022.49110013141, -55718.249764233806, -83297.24023309234, -84337.19984736442, -0.028, 0.9380000000000001, 0.374, 192.0, 0.0, 0.0, 0.0, 0.0, 0.0, 0.0, 0.0, 0.0, 0.0, 1.695415813774059E9, 0.0, 2023-09-22 15:50:13.774
100.0, -38167.19063129314, -14289.604340744538, -87250.36975745794, -81440.45846944553, -24648.721474256694, -55440.50698763216, -157023.48584216664, -72732.57645756919, -3677.174887320386, -187500.02235174447, -85804.39070515522, -79426.38748006673, -58054.945833080514, -55759.86871240959, -83330.36551837511, -84374.37079839359, -0.028, 0.9380000000000001, 0.374, 192.0, 0.0, 0.0, 0.0, 0.0, 0.0, 0.0, 0.0, 0.0, 0.0, 1.695415813774062E9, 0.0, 2023-09-22 15:50:13.774
102.0, -38173.85145114082, -14309.609152032037, -87260.76331862967, -81450.69556840605, -24649.1685091458, -55442.67510684432, -156933.76593992306, -72736.68917854896, -3772.7732983557344, -187500.02235174447, -85819.88046406275, -79447.77809951045, -58070.547350710316, -55781.86282895361, -83334.50059109933, -84381.8139292972, -0.034, 0.934, 0.378, 192.0, 127.0, 120.0, 14.5, 24.0, 5.5, 104.0, 0.0, 0.0, 0.0, 1.695415813774065E9, 0.0, 2023-09-22 15:50:13.774
104.0, -38152.907866586196, -14285.871599420501, -87253.23078074823, -81430.31077746282, -24653.30358187003, -55424.39137987988, -157024.9163538118, -72715.92440794998, -3702.3205998326066, -187500.02235174447, -85819.94751929611, -79450.21443965608, -58066.568740197275, -55761.65685196601, -83337.18280043398, -84377.7682635508, -0.034, 0.934, 0.378, 192.0, 0.0, 0.0, 0.0, 0.0, 0.0, 0.0, 0.0, 0.0, 0.0, 1.695415813834296E9, 0.0, 2023-09-22 15:50:13.834
106.0, -38137.12753500075, -14275.9697766268, -87238.83625731901, -81406.37205915118, -24628.67195948028, -55401.123213901905, -156967.6064810284, -72699.04884088621, -3776.237818746307, -187500.02235174447, -85802.53551036543, -79423.95113992109, -58045.669859131565, -55738.94747959942, -83316.90976821301, -84351.32614986016, -0.034, 0.934, 0.378, 192.0, 0.0, 0.0, 0.0, 0.0, 0.0, 0.0, 0.0, 0.0, 0.0, 1.695415813834317E9, 0.0, 2023-09-22 15:50:13.834
108.0, -38151.74557587452, -14270.895930635445, -87259.33280698453, -81419.64899535764, -24663.60773606393, -55419.60810656645, -157034.46054869422, -72721.42293708598, -3717.83271048459, -187500.02235174447, -85810.49273139153, -79420.46426778607, -58059.215016271475, -55728.5539184277, -83331.81838176471, -84354.76831850628, -0.034, 0.934, 0.378, 192.0, 0.0, 0.0, 0.0, 0.0, 0.0, 0.0, 0.0, 0.0, 0.0, 1.695415813834321E9, 0.0, 2023-09-22 15:50:13.834
110.0, -38145.95647406059, -14269.666584690403, -87247.62049288994, -81398.4148381251, -24655.471701082195, -55408.02990293859, -156981.53161782405, -72712.05755615921, -3762.782068584212, -187500.02235174447, -85808.03403950144, -79406.18150307912, -58052.84476910171, -55730.83379636214, -83329.87377999708, -84349.3591963481, -0.034, 0.934, 0.378, 192.0, 0.0, 0.0, 0.0, 0.0, 0.0, 0.0, 0.0, 0.0, 0.0, 1.695415813834324E9, 0.0, 2023-09-22 15:50:13.834
112.0, -38128.23154070754, -14245.370238467483, -87240.6467486199, -81393.8103787673, -24672.92841350179, -55400.65382726835, -157036.7180748842, -72711.99050092585, -3723.8006262541567, -187500.02235174447, -85802.96019351008, -79394.58094770683, -58049.91669057807, -55720.03790379023, -83342.54721910325, -84350.78970799324, -0.028, 0.9380000000000001, 0.382, 192.0, 127.5, 16.0, 14.5, 40.0, 5.5, 120.0, 0.0, 0.0, 0.0, 1.695415813834327E9, 0.0, 2023-09-22 15:50:13.834
114.0, -38130.46671515307, -14259.563596196604, -87239.10447825247, -81400.69471605954, -24664.63591630887, -55415.58479256449, -157006.0514814915, -72723.14402140904, -3737.077562460609, -187500.02235174447, -85784.0953211898, -79379.76174113296, -58038.22672822794, -55721.26724973527, -83334.29942539924, -84341.89371370003, -0.028, 0.9380000000000001, 0.382, 192.0, 0.0, 0.0, 0.0, 0.0, 0.0, 0.0, 0.0, 0.0, 0.0, 1.695415813834331E9, 0.0, 2023-09-22 15:50:13.834
116.0, -38115.08871496782, -14237.792997097135, -87240.31147245306, -81403.28751841636, -24674.895367013858, -55424.8831182579, -157048.54214770105, -72745.78633854227, -3715.6869430168804, -187500.02235174447, -85793.70657130559, -79394.9385756181, -58041.758303851886, -55731.48199695135, -83344.89415227105, -84363.21727791039, -0.028, 0.9380000000000001, 0.382, 192.0, 0.0, 0.0, 0.0, 0.0, 0.0, 0.0, 0.0, 0.0, 0.0, 1.695415813834334E9, 0.0, 2023-09-22 15:50:13.834
118.0, -38139.474468168555, -14266.380878255473, -87247.21816148976, -81415.24570169994, -24677.15289320384, -55442.96567952224, -157046.10580755543, -72745.67457982, -3706.5227277902045, -187500.02235174447, -85797.08168471835, -79394.6927064291, -58034.270469459356, -55728.41980796097, -83343.48599237038, -84370.88392625857, -0.028, 0.9380000000000001, 0.382, 192.0, 0.0, 0.0, 0.0, 0.0, 0.0, 0.0, 0.0, 0.0, 0.0, 1.695415813834337E9, 0.0, 2023-09-22 15:50:13.834
120.0, -38143.11780251477, -14264.25746253222, -87259.71278664027, -81422.39825992564, -24687.613509608927, -55446.83253131301, -157045.90464185533, -72756.00108575834, -3718.503262818249, -187500.02235174447, -85827.07772577736, -79418.72083171854, -58052.241272001425, -55754.90662514051, -83360.0262832673, -84395.82847307068, -0.028, 0.9380000000000001, 0.382, 192.0, 0.0, 0.0, 0.0, 0.0, 0.0, 0.0, 0.0, 0.0, 0.0, 1.695415813894622E9, 0.0, 2023-09-22 15:50:13.894
122.0, -38149.68921538463, -14282.988224385766, -87256.0471005496, -81418.97844302398, -24682.427904895296, -55434.53907186259, -157054.80063614855, -72747.88740252107, -3676.4149280089055, -187500.02235174447, -85827.010670544, -79421.96183466457, -58073.833057145246, -55741.96496510089, -83357.74640533286, -84387.53597587776, -0.026000000000000002, 0.934, 0.378, 192.0, 127.5, 24.0, 14.5, 24.0, 5.5, 104.0, 0.0, 0.0, 0.0, 1.695415813894634E9, 0.0, 2023-09-22 15:50:13.894
124.0, -38138.155715245695, -14268.839570145557, -87250.59327490251, -81418.88903604615, -24685.55714911904, -55424.16786243533, -157027.7773771021, -72746.43453913147, -3691.3011898161403, -187500.02235174447, -85835.48198169256, -79442.65955003018, -58078.61633045869, -55765.926035156976, -83365.39070193657, -84388.34063867816, -0.026000000000000002, 0.934, 0.378, 192.0, 0.0, 0.0, 0.0, 0.0, 0.0, 0.0, 0.0, 0.0, 0.0, 1.695415813894637E9, 0.0, 2023-09-22 15:50:13.894
126.0, -38107.310307897365, -14246.823101857079, -87213.10939945096, -81394.39152412314, -24644.474642810186, -55391.60137076394, -157081.8685986839, -72702.64747174352, -3620.401456403906, -187500.02235174447, -85793.25953641649, -79400.95119487659, -58038.98668753942, -55734.678296408456, -83324.8669892391, -84352.98017894986, -0.026000000000000002, 0.934, 0.378, 192.0, 0.0, 0.0, 0.0, 0.0, 0.0, 0.0, 0.0, 0.0, 0.0, 1.69541581389464E9, 0.0, 2023-09-22 15:50:13.894
128.0, -38097.810816503865, -14237.189499996843, -87214.18228318481, -81409.16602720809, -24654.39881734834, -55403.716016258724, -157032.8735748379, -72712.32577709267, -3652.34209923054, -187500.02235174447, -85789.07976020334, -79397.17375006364, -58039.14314975061, -55752.26911929478, -83322.69887002694, -84358.03167319676, -0.026000000000000002, 0.934, 0.378, 192.0, 0.0, 0.0, 0.0, 0.0, 0.0, 0.0, 0.0, 0.0, 0.0, 1.695415813894643E9, 0.0, 2023-09-22 15:50:13.894
130.0, -38089.764188499954, -14231.087473760543, -87196.94908820976, -81389.58589906525, -24641.45715730872, -55398.86568771192, -157105.20381989525, -72708.05659390171, -3559.6494149743817, -187500.02235174447, -85762.97292267955, -79383.44977896808, -58020.85942278617, -55738.723962154865, -83311.27712861028, -84352.66725452749, -0.026000000000000002, 0.934, 0.378, 192.0, 0.0, 0.0, 0.0, 0.0, 0.0, 0.0, 0.0, 0.0, 0.0, 1.695415813894647E9, 0.0, 2023-09-22 15:50:13.894
132.0, -38083.751569241474, -14226.304200447108, -87200.0783324335, -81394.54798633432, -24653.661209781316, -55408.09695817196, -157050.53145295757, -72707.20722761241, -3646.463590438794, -187500.02235174447, -85752.19938185209, -79380.49934869997, -58024.10042573219, -55757.90175889752, -83312.2606053663, -84355.32711211767, -0.024, 0.936, 0.374, 192.0, 127.5, 32.0, 14.5, 32.0, 5.5, 88.0, 0.0, 0.0, 0.0, 1.69541581389465E9, 0.0, 2023-09-22 15:50:13.894
134.0, -38094.92744146913, -14237.904755819412, -87213.01999247313, -81402.79578003833, -24664.971192475703, -55421.5303565896, -157145.05698025908, -72723.4122423425, -3583.118746652454, -187500.02235174447, -85747.39375679419, -79376.63249690921, -58028.21314671197, -55753.476113495366, -83323.88351248307, -84360.5127168313, -0.024, 0.936, 0.374, 192.0, 0.0, 0.0, 0.0, 0.0, 0.0, 0.0, 0.0, 0.0, 0.0, 1.695415813953384E9, 0.0, 2023-09-22 15:50:13.953
136.0, -38118.62029059175, -14258.378953740474, -87243.70893761027, -81433.39531819765, -24694.587253878984, -55445.22320571223, -157062.73550543017, -72753.58709735717, -3687.3672827920063, -187500.02235174447, -85773.09826291779, -79394.5362442179, -58044.887548075625, -55783.69567199894, -83345.76587030481, -84383.0656269867, -0.024, 0.936, 0.374, 192.0, 0.0, 0.0, 0.0, 0.0, 0.0, 0.0, 0.0, 0.0, 0.0, 1.695415813953411E9, 0.0, 2023-09-22 15:50:13.953
138.0, -38080.488214551, -14219.084586988043, -87197.03849518759, -81376.957163448, -24655.73992201566, -55397.9269144448, -157177.48936146373, -72714.71741374939, -3605.3587323854845, -187500.02235174447, -85762.01179766796, -79380.45464521107, -58035.76803633786, -55763.80261943372, -83337.0710417117, -84370.34748439163, -0.024, 0.936, 0.374, 192.0, 0.0, 0.0, 0.0, 0.0, 0.0, 0.0, 0.0, 0.0, 0.0, 1.695415813953414E9, 0.0, 2023-09-22 15:50:13.953
140.0, -38125.79520056191, -14265.240939288253, -87249.78861210211, -81431.9201030636, -24704.779649350603, -55446.47490340172, -157087.34477607548, -72764.8747283071, -3708.109701646531, -187500.02235174447, -85757.85437319927, -79371.0892642843, -58034.739856092914, -55744.13308431305, -83322.27418688229, -84357.49523132983, -0.024, 0.936, 0.374, 192.0, 0.0, 0.0, 0.0, 0.0, 0.0, 0.0, 0.0, 0.0, 0.0, 1.695415813953417E9, 0.0, 2023-09-22 15:50:13.953
142.0, -38126.26458719547, -14262.603433442526, -87244.08891726601, -81428.25441697294, -24706.478381929206, -55437.914185275346, -157185.69245167883, -72747.68623682097, -3611.1701859438645, -187500.02235174447, -85810.91741453618, -79430.23198011304, -58087.48997300744, -55786.4672883114, -83372.25268748435, -84405.12679876409, -0.03, 0.936, 0.37, 192.0, 127.5, 8.0, 14.5, 32.0, 5.5, 72.0, 0.0, 0.0, 0.0, 1.695415813953421E9, 0.0, 2023-09-22 15:50:13.953
144.0, -38151.32089272987, -14293.381785557483, -87265.23366752073, -81449.04153931637, -24720.55998093605, -55462.54580766509, -157089.40113656534, -72780.29743198126, -3715.575184294604, -187500.02235174447, -85813.26434770398, -79433.60709352579, -58083.24314156093, -55786.28847435576, -83363.26728621332, -84400.20941498392, -0.03, 0.936, 0.37, 192.0, 0.0, 0.0, 0.0, 0.0, 0.0, 0.0, 0.0, 0.0, 0.0, 1.695415813953424E9, 0.0, 2023-09-22 15:50:13.953
146.0, -38113.747610300496, -14247.851282102023, -87221.7371728107, -81400.60530908171, -24680.572710105505, -55413.10374892995, -157215.7555479712, -72720.23829462985, -3629.4315611638503, -187500.02235174447, -85809.03986800193, -79420.08428813033, -58076.58232171325, -55776.87838994007, -83360.8756495566, -84394.91205154802, -0.03, 0.936, 0.37, 192.0, 0.0, 0.0, 0.0, 0.0, 0.0, 0.0, 0.0, 0.0, 0.0, 1.695415813953427E9, 0.0, 2023-09-22 15:50:13.953
148.0, -38146.13528801624, -14288.576160499593, -87238.7915538301, -81421.25832095843, -24690.69805034376, -55434.85199628497, -157137.45738714427, -72735.8174605152, -3718.235041884785, -187500.02235174447, -85790.93495499314, -79402.64992745519, -58037.01973402736, -55754.4595902514, -83324.75523051682, -84354.29893187272, -0.03, 0.936, 0.37, 192.0, 0.0, 0.0, 0.0, 0.0, 0.0, 0.0, 0.0, 0.0, 0.0, 1.69541581395343E9, 0.0, 2023-09-22 15:50:13.953
150.0, -38163.50259345801, -14297.561561770626, -87252.67198713684, -81449.89090560567, -24705.60666389545, -55436.32721141902, -157231.64763827893, -72741.76302454031, -3629.7221338417694, -187500.02235174447, -85842.20985677361, -79459.78098628295, -58076.67172869107, -55802.58289606368, -83358.79693732226, -84389.21235671191, -0.03, 0.936, 0.37, 192.0, 0.0, 0.0, 0.0, 0.0, 0.0, 0.0, 0.0, 0.0, 0.0, 1.69541581401374E9, 0.0, 2023-09-22 15:50:14.013
152.0, -38182.970962878586, -14320.852079493055, -87270.77690014565, -81472.24265006097, -24710.546399420073, -55455.4379529283, -157149.8402535725, -72768.36160044213, -3713.3847133379836, -187500.02235174447, -85842.16515328469, -79468.43111138715, -58086.484144506954, -55818.16206194903, -83355.39947216505, -84392.0733800022, -0.03, 0.9420000000000001, 0.368, 192.0, 127.5, 8.0, 14.5, 56.0, 5.5, 64.0, 0.0, 0.0, 0.0, 1.695415814013751E9, 0.0, 2023-09-22 15:50:14.013
154.0, -38153.51136368649, -14291.906570423434, -87251.55439991408, -81462.31847552281, -24711.663986642838, -55443.32330743353, -157238.77784476016, -72736.10803319312, -3650.0398695516433, -187500.02235174447, -85836.97954857106, -79471.62741084426, -58094.97780739997, -55832.06484700023, -83368.56464964923, -84410.06653428871, -0.03, 0.9420000000000001, 0.368, 192.0, 0.0, 0.0, 0.0, 0.0, 0.0, 0.0, 0.0, 0.0, 0.0, 1.695415814013755E9, 0.0, 2023-09-22 15:50:14.013
156.0, -38155.344206731825, -14306.25639036374, -87264.65252216489, -81478.92582165312, -24719.84472511348, -55465.56329316656, -157179.52337020915, -72765.25470796284, -3705.3604370785283, -187500.02235174447, -85800.47914987555, -79440.93846570712, -58071.91080712209, -55811.74711129035, -83349.63272209559, -84393.88387130307, -0.03, 0.9420000000000001, 0.368, 192.0, 0.0, 0.0, 0.0, 0.0, 0.0, 0.0, 0.0, 0.0, 0.0, 1.695415814013758E9, 0.0, 2023-09-22 15:50:14.013
158.0, -38178.65707619871, -14311.799622988658, -87282.53391772913, -81490.32521132533, -24755.316943564052, -55476.80622062758, -157213.6097805035, -72781.4820744374, -3643.4908084262383, -187500.02235174447, -85843.01451957399, -79486.13369299576, -58129.198328161045, -55853.83544609969, -83407.8366646572, -84452.40073828706, -0.03, 0.9420000000000001, 0.368, 192.0, 0.0, 0.0, 0.0, 0.0, 0.0, 0.0, 0.0, 0.0, 0.0, 1.695415814013762E9, 0.0, 2023-09-22 15:50:14.013
160.0, -38142.55900890339, -14278.272006305697, -87238.61273987446, -81436.81513509931, -24710.591102908984, -55424.614897324434, -157173.6001579285, -72730.69891103494, -3671.922227373389, -187500.02235174447, -85797.7075335631, -79435.08230865984, -58097.70472022352, -55794.62567503759, -83357.34407393266, -84395.96258353742, -0.03, 0.9420000000000001, 0.368, 192.0, 0.0, 0.0, 0.0, 0.0, 0.0, 0.0, 0.0, 0.0, 0.0, 1.695415814013765E9, 0.0, 2023-09-22 15:50:14.013
162.0, -38127.20336046259, -14254.243881016242, -87229.91791128134, -81418.82198081279, -24709.361756963943, -55411.78499600709, -157213.98976015922, -72721.80291674173, -3626.503482640205, -187500.02235174447, -85796.47818761805, -79420.82189569734, -58093.52494401037, -55780.07468939718, -83350.1691639625, -84379.60110659614, -0.026000000000000002, 0.9440000000000001, 0.37, 192.0, 127.5, 24.0, 14.5, 64.0, 5.5, 72.0, 0.0, 0.0, 0.0, 1.695415814013769E9, 0.0, 2023-09-22 15:50:14.013
164.0, -38113.613499833766, -14245.481997189761, -87220.99956524368, -81403.33222190526, -24682.45025663975, -55397.1222516444, -157199.61758847447, -72710.49293404733, -3624.2683081946743, -187500.02235174447, -85768.38204483772, -79386.15434004717, -58068.669804176076, -55744.58011920215, -83314.83105597866, -84346.43111782445, -0.026000000000000002, 0.9440000000000001, 0.37, 192.0, 0.0, 0.0, 0.0, 0.0, 0.0, 0.0, 0.0, 0.0, 0.0, 1.69541581407408E9, 0.0, 2023-09-22 15:50:14.074
166.0, -38080.197641873085, -14208.601618838504, -87206.06859994752, -81378.09710241522, -24677.35405890394, -55384.94055091627, -157226.32792309858, -72697.5065705188, -3614.9699825012667, -187500.02235174447, -85772.51711756196, -79383.36037199026, -58077.16346706909, -55742.501406967815, -83323.03414619376, -84350.90146671551, -0.026000000000000002, 0.9440000000000001, 0.37, 192.0, 0.0, 0.0, 0.0, 0.0, 0.0, 0.0, 0.0, 0.0, 0.0, 1.695415814074093E9, 0.0, 2023-09-22 15:50:14.074
168.0, -38063.0315021314, -14201.247894912709, -87175.80433795505, -81352.39259629163, -24649.146157401345, -55363.035841350065, -157255.65341182394, -72671.24327078382, -3600.3966451164065, -187500.02235174447, -85740.86704741324, -79347.79874656186, -58036.572699138254, -55718.74150261182, -83289.0147911328, -84322.78297219075, -0.026000000000000002, 0.9440000000000001, 0.37, 192.0, 0.0, 0.0, 0.0, 0.0, 0.0, 0.0, 0.0, 0.0, 0.0, 1.695415814074097E9, 0.0, 2023-09-22 15:50:14.074
170.0, -38094.41335134666, -14222.213831211786, -87200.83829174499, -81386.56841356379, -24678.471646126705, -55392.76366147562, -157255.63106007947, -72694.39967803952, -3634.9077385554006, -187500.02235174447, -85754.81453595335, -79367.06595028234, -58031.20828046898, -55719.23324098984, -83294.46861677988, -84325.82280943666, -0.026000000000000002, 0.9440000000000001, 0.37, 192.0, 0.0, 0.0, 0.0, 0.0, 0.0, 0.0, 0.0, 0.0, 0.0, 1.6954158140741E9, 0.0, 2023-09-22 15:50:14.074
172.0, -38114.664031823166, -14243.9620785668, -87199.96657371124, -81394.07859970076, -24665.485282598172, -55392.674254497804, -157294.0760605426, -72694.28791931724, -3613.4947673672164, -187500.02235174447, -85765.16339363616, -79379.38176147721, -58037.06443751627, -55716.707493866386, -83292.59107024563, -84330.04728913872, -0.034, 0.9440000000000001, 0.372, 192.0, 127.0, 120.0, 14.5, 64.0, 5.5, 80.0, 0.0, 0.0, 0.0, 1.695415814074104E9, 0.0, 2023-09-22 15:50:14.074
174.0, -38158.428747466656, -14279.657814461925, -87248.26869347916, -81450.53910619488, -24726.214972283244, -55450.3864586814, -157242.37647561746, -72754.99525725785, -3668.4130034939058, -187500.02235174447, -85823.72496410906, -79433.09300340331, -58078.795144414325, -55785.30499759973, -83336.73576554487, -84381.63511534156, -0.034, 0.9440000000000001, 0.372, 192.0, 0.0, 0.0, 0.0, 0.0, 0.0, 0.0, 0.0, 0.0, 0.0, 1.695415814074107E9, 0.0, 2023-09-22 15:50:14.074
176.0, -38159.76985213398, -14280.551884240138, -87243.597178888, -81450.06971956132, -24716.60372216746, -55449.31357494755, -157291.34914771904, -72752.08953047867, -3629.543319886127, -187500.02235174447, -85820.19338848513, -79429.76259347948, -58084.3607287837, -55794.938599459965, -83337.36161438962, -84387.29010668876, -0.034, 0.9440000000000001, 0.372, 192.0, 0.0, 0.0, 0.0, 0.0, 0.0, 0.0, 0.0, 0.0, 0.0, 1.695415814074111E9, 0.0, 2023-09-22 15:50:14.074
178.0, -38137.26164546748, -14266.894968377945, -87238.7915538301, -81453.73540565198, -24719.218876268733, -55453.560406394055, -157240.09659768303, -72759.53266138228, -3706.500376045749, -187500.02235174447, -85819.254615218, -79436.6022272828, -58081.25383630441, -55807.99201822186, -83348.49278312836, -84406.51260692033, -0.034, 0.9440000000000001, 0.372, 192.0, 0.0, 0.0, 0.0, 0.0, 0.0, 0.0, 0.0, 0.0, 0.0, 1.695415814074114E9, 0.0, 2023-09-22 15:50:14.074
180.0, -38137.865142567774, -14271.72294518029, -87232.75658282716, -81445.33114973678, -24709.160591263844, -55444.97733652322, -157314.95258986385, -72754.05648399073, -3625.76587507318, -187500.02235174447, -85799.60743184178, -79426.1416108777, -58082.282016549354, -55807.20970716592, -83343.08366097018, -84401.61757488461, -0.034, 0.9440000000000001, 0.372, 192.0, 0.0, 0.0, 0.0, 0.0, 0.0, 0.0, 0.0, 0.0, 0.0, 1.695415814134406E9, 0.0, 2023-09-22 15:50:14.134
182.0, -38142.134325758736, -14281.557712740627, -87253.61076040397, -81455.0765103193, -24737.346141021986, -55452.17459823783, -157241.97414421727, -72763.10894049513, -3706.075692901098, -187500.02235174447, -85807.58700461233, -79438.79269823941, -58103.87380169318, -55827.90742253154, -83353.3207599307, -84404.81387434172, -0.022, 0.9440000000000001, 0.374, 192.0, 127.5, 40.0, 14.5, 64.0, 5.5, 88.0, 0.0, 0.0, 0.0, 1.695415814134418E9, 0.0, 2023-09-22 15:50:14.134
184.0, -38144.63772113773, -14279.657814461925, -87252.56022841457, -81445.01822531442, -24738.642542200392, -55438.69649633128, -157322.26161030075, -72738.61142857211, -3607.415092875373, -187500.02235174447, -85806.26825168947, -79426.90157018919, -58109.215868618, -55807.67909379949, -83361.34503619016, -84398.98006903888, -0.022, 0.9440000000000001, 0.374, 192.0, 0.0, 0.0, 0.0, 0.0, 0.0, 0.0, 0.0, 0.0, 0.0, 1.695415814134422E9, 0.0, 2023-09-22 15:50:14.134
186.0, -38148.348110717314, -14287.480925021282, -87260.60685641848, -81453.13190855169, -24750.444263272795, -55442.27277544413, -157232.18408014585, -72740.55603033972, -3695.056282884632, -187500.02235174447, -85806.44706564512, -79426.02985215544, -58112.47922330847, -55814.18345143598, -83353.924257031, -84385.07728398769, -0.022, 0.9440000000000001, 0.374, 192.0, 0.0, 0.0, 0.0, 0.0, 0.0, 0.0, 0.0, 0.0, 0.0, 1.695415814134425E9, 0.0, 2023-09-22 15:50:14.134
188.0, -38144.45890718209, -14283.59172148606, -87250.23564699122, -81450.98614108398, -24747.27031556014, -55443.993859767186, -157321.74752017827, -72748.8708792771, -3598.2061741597863, -187500.02235174447, -85825.37899319876, -79446.63816054323, -58127.83487174927, -55825.962820763925, -83376.63362939759, -84408.88189183259, -0.022, 0.9440000000000001, 0.374, 192.0, 0.0, 0.0, 0.0, 0.0, 0.0, 0.0, 0.0, 0.0, 0.0, 1.695415814134431E9, 0.0, 2023-09-22 15:50:14.134
190.0, -38142.73782285903, -14283.323500552595, -87246.27938822263, -81450.94143759507, -24738.62019045594, -55437.623612597425, -157228.89837371092, -72740.95836173992, -3700.3759980649947, -187500.02235174447, -85807.29643193442, -79435.52934354894, -58112.6133337752, -55818.78791079378, -83353.43251865299, -84393.86151955862, -0.022, 0.9440000000000001, 0.374, 192.0, 0.0, 0.0, 0.0, 0.0, 0.0, 0.0, 0.0, 0.0, 0.0, 1.695415814134435E9, 0.0, 2023-09-22 15:50:14.134
192.0, -38162.407357979704, -14292.532419268182, -87256.40472846088, -81459.63626618819, -24756.434530786817, -55444.887929545395, -157319.82527015512, -72756.96221076993, -3600.217831160764, -187500.02235174447, -85811.81148431438, -79436.31165460487, -58119.721188512, -55820.017256738814, -83354.99714076486, -84392.65452535803, -0.026000000000000002, 0.9480000000000001, 0.372, 192.0, 127.5, 24.0, 14.5, 80.0, 5.5, 80.0, 0.0, 0.0, 0.0, 1.695415814134438E9, 0.0, 2023-09-22 15:50:14.134
194.0, -38176.84658489783, -14303.663588006924, -87254.75069937119, -81445.01822531442, -24753.171176096344, -55446.38549642391, -157213.34155957002, -72760.2255654604, -3704.1310911334863, -187500.02235174447, -85830.83281884585, -79436.71398600507, -58130.941764228555, -55824.28643992978, -83353.03018725279, -84395.87317655959, -0.026000000000000002, 0.9480000000000001, 0.372, 192.0, 0.0, 0.0, 0.0, 0.0, 0.0, 0.0, 0.0, 0.0, 0.0, 1.695415814194648E9, 0.0, 2023-09-22 15:50:14.194
196.0, -38160.105128300806, -14282.317672052108, -87237.20457997377, -81423.98523378196, -24738.776652667126, -55422.15620543435, -157312.20332529585, -72749.94376301096, -3620.0438284926213, -187500.02235174447, -85830.45283919011, -79426.47688704454, -58135.278002652885, -55803.47696584189, -83351.44321339646, -84386.99953401084, -0.026000000000000002, 0.9480000000000001, 0.372, 192.0, 0.0, 0.0, 0.0, 0.0, 0.0, 0.0, 0.0, 0.0, 0.0, 1.69541581419466E9, 0.0, 2023-09-22 15:50:14.194
198.0, -38167.0565208264, -14301.428413561394, -87242.56899864305, -81439.05030954485, -24741.436510257307, -55426.33598164749, -157214.7050159818, -72739.43844311696, -3686.495564758249, -187500.02235174447, -85821.02040302998, -79425.87338994424, -58116.43548207706, -55792.837535481165, -83340.62496908009, -84374.37079839359, -0.026000000000000002, 0.9480000000000001, 0.372, 192.0, 0.0, 0.0, 0.0, 0.0, 0.0, 0.0, 0.0, 0.0, 0.0, 1.695415814194664E9, 0.0, 2023-09-22 15:50:14.194
200.0, -38126.66691859566, -14260.278852019173, -87219.16672219834, -81414.77631506638, -24720.537629191596, -55400.94439994627, -157302.65913041343, -72720.95355045242, -3582.8728774634455, -187500.02235174447, -85802.98254525453, -79425.22518935504, -58110.7134354965, -55785.059128410714, -83333.62887306558, -84365.51950758928, -0.026000000000000002, 0.9480000000000001, 0.372, 192.0, 0.0, 0.0, 0.0, 0.0, 0.0, 0.0, 0.0, 0.0, 0.0, 1.695415814194668E9, 0.0, 2023-09-22 15:50:14.194
202.0, -38094.07807517983, -14231.24393597173, -87187.71781774973, -81377.00186693692, -24689.580463120994, -55366.90269314083, -157247.22680416427, -72685.74955293532, -3630.504444897705, -187500.02235174447, -85765.72218724755, -79392.234014539, -58085.45596426201, -55755.46541875189, -83306.18093087447, -84337.51277178679, -0.03, 0.9460000000000001, 0.366, 192.0, 127.5, 8.0, 14.5, 72.0, 5.5, 56.0, 0.0, 0.0, 0.0, 1.695415814194671E9, 0.0, 2023-09-22 15:50:14.194
204.0, -38103.756380528976, -14223.018494012178, -87198.06667543254, -81384.86968098518, -24711.105193031453, -55383.510039271125, -157333.30337206167, -72700.97109090938, -3563.404508042873, -187500.02235174447, -85752.66876848564, -79368.69762762757, -58062.500722706405, -55742.38964824554, -83296.50262552532, -84326.6051204926, -0.03, 0.9460000000000001, 0.366, 192.0, 0.0, 0.0, 0.0, 0.0, 0.0, 0.0, 0.0, 0.0, 0.0, 1.695415814194675E9, 0.0, 2023-09-22 15:50:14.194
206.0, -38128.65622385219, -14255.540282194648, -87228.39799265839, -81429.84139082926, -24735.692111932294, -55417.283525143095, -157267.74570557426, -72726.18385865497, -3622.3013546826073, -187500.02235174447, -85768.42674832663, -79370.239897995, -58085.03128111736, -55769.94934915893, -83315.38984959005, -84347.23578062485, -0.03, 0.9460000000000001, 0.366, 192.0, 0.0, 0.0, 0.0, 0.0, 0.0, 0.0, 0.0, 0.0, 0.0, 1.695415814194678E9, 0.0, 2023-09-22 15:50:14.194
208.0, -38149.28688398444, -14267.92314862289, -87258.93047558433, -81461.8267371448, -24774.539443795617, -55448.26304295815, -157303.0838135581, -72759.46560614892, -3592.573534557049, -187500.02235174447, -85810.78330406944, -79416.30684331738, -58134.093360196755, -55808.640218811066, -83356.8299838102, -84397.90718530503, -0.03, 0.9460000000000001, 0.366, 192.0, 0.0, 0.0, 0.0, 0.0, 0.0, 0.0, 0.0, 0.0, 0.0, 1.695415814194681E9, 0.0, 2023-09-22 15:50:14.194
210.0, -38162.49676495752, -14299.796736216156, -87265.61364717646, -81477.78588268589, -24767.968030925756, -55457.5390169071, -157256.70394381334, -72764.673562607, -3637.9252240568667, -187500.02235174447, -85811.99029827003, -79432.89183770321, -58143.77166554591, -55820.66545732802, -83358.1263849886, -84398.39892368304, -0.03, 0.9460000000000001, 0.366, 192.0, 0.0, 0.0, 0.0, 0.0, 0.0, 0.0, 0.0, 0.0, 0.0, 1.695415814253952E9, 0.0, 2023-09-22 15:50:14.253
212.0, -38158.205230022104, -14296.868657692512, -87275.69428392581, -81494.77320847193, -24794.276034149654, -55474.883970604424, -157283.2131127373, -72775.71532436792, -3627.4646076517834, -187500.02235174447, -85821.93682455264, -79454.43891935813, -58154.20993020653, -55841.58669013819, -83367.42471068201, -84412.5699296677, -0.03, 0.936, 0.374, 192.0, 127.5, 8.0, 14.5, 32.0, 5.5, 88.0, 0.0, 0.0, 0.0, 1.695415814253963E9, 0.0, 2023-09-22 15:50:14.253
214.0, -38150.22565725156, -14291.057204134131, -87255.26478949367, -81474.83545241778, -24782.362554354975, -55465.652700144376, -157263.9682607613, -72777.83874009117, -3637.2546717232076, -187500.02235174447, -85829.26819673397, -79458.32812289335, -58165.09522975627, -55861.61385317014, -83382.9815248229, -84428.88670312008, -0.03, 0.936, 0.374, 192.0, 0.0, 0.0, 0.0, 0.0, 0.0, 0.0, 0.0, 0.0, 0.0, 1.695415814253967E9, 0.0, 2023-09-22 15:50:14.253
216.0, -38137.26164546748, -14268.660756189915, -87233.89652179439, -81451.36612073972, -24764.90584193538, -55453.58275813851, -157267.1645602184, -72764.04771376225, -3650.2410352517413, -187500.02235174447, -85800.83677778683, -79421.60420675328, -58143.01170623442, -55844.15714075055, -83360.38391117858, -84409.59714765515, -0.03, 0.936, 0.374, 192.0, 0.0, 0.0, 0.0, 0.0, 0.0, 0.0, 0.0, 0.0, 0.0, 1.695415814253971E9, 0.0, 2023-09-22 15:50:14.253
218.0, -38137.731032101045, -14280.954215640333, -87220.53017861012, -81436.7704316104, -24736.764995666148, -55425.82189152502, -157278.2733772127, -72729.04488194524, -3618.47920638075, -187500.02235174447, -85785.65994330168, -79403.7898664224, -58121.91165946861, -55831.79662606676, -83325.69400378395, -84376.3154001612, -0.03, 0.936, 0.374, 192.0, 0.0, 0.0, 0.0, 0.0, 0.0, 0.0, 0.0, 0.0, 0.0, 1.695415814253974E9, 0.0, 2023-09-22 15:50:14.253
220.0, -38148.39281420622, -14295.728718725291, -87245.05004227758, -81467.25821104745, -24760.9942866557, -55440.05995274305, -157260.74960955975, -72745.920449009, -3648.274081739674, -187500.02235174447, -85803.40722839918, -79441.78783199642, -58136.97673523149, -55843.15131225006, -83335.01468122182, -84376.04717922774, -0.03, 0.936, 0.374, 192.0, 0.0, 0.0, 0.0, 0.0, 0.0, 0.0, 0.0, 0.0, 0.0, 1.695415814253977E9, 0.0, 2023-09-22 15:50:14.253
222.0, -38176.57836396436, -14324.473062094816, -87264.47370820925, -81489.67701073611, -24774.00300192869, -55458.92482506333, -157288.7786971067, -72778.24107149137, -3605.2693254076635, -187500.02235174447, -85832.03981304645, -79480.67986734866, -58148.644345837165, -55870.711013163454, -83363.26728621332, -84403.94215630797, -0.022, 0.9440000000000001, 0.372, 192.0, 127.5, 40.0, 14.5, 64.0, 5.5, 80.0, 0.0, 0.0, 0.0, 1.695415814253981E9, 0.0, 2023-09-22 15:50:14.253
224.0, -38165.93893360364, -14308.692730509369, -87268.11704255546, -81498.4835980515, -24783.927176466845, -55460.66826113084, -157242.48823433975, -72771.33438245469, -3669.374128505484, -187500.02235174447, -85835.14670552572, -79479.31641093688, -58159.01555526442, -55870.06281257425, -83362.93201004648, -84412.927557579, -0.022, 0.9440000000000001, 0.372, 192.0, 0.0, 0.0, 0.0, 0.0, 0.0, 0.0, 0.0, 0.0, 0.0, 1.695415814313736E9, 0.0, 2023-09-22 15:50:14.313
226.0, -38157.78054687745, -14297.919189681912, -87261.92560934134, -81485.09490312278, -24773.37715308394, -55457.65077562938, -157281.78260109219, -72762.84071956167, -3593.109976423976, -187500.02235174447, -85831.10103977931, -79461.9491054951, -58174.438258938586, -55876.27659753282, -83369.63753338308, -84419.70013614895, -0.022, 0.9440000000000001, 0.372, 192.0, 0.0, 0.0, 0.0, 0.0, 0.0, 0.0, 0.0, 0.0, 0.0, 1.695415814313754E9, 0.0, 2023-09-22 15:50:14.313
228.0, -38121.81659004886, -14254.15447403842, -87235.50584739516, -81452.70722540704, -24755.585164497516, -55430.22518518272, -157214.9061816819, -72731.72709127988, -3647.111791027998, -187500.02235174447, -85801.86495803177, -79416.17273285064, -58161.83187506579, -55854.99773681137, -83345.18472494898, -84396.63313587107, -0.022, 0.9440000000000001, 0.372, 192.0, 0.0, 0.0, 0.0, 0.0, 0.0, 0.0, 0.0, 0.0, 0.0, 1.695415814313758E9, 0.0, 2023-09-22 15:50:14.313
230.0, -38086.65729602067, -14217.81053755409, -87191.07057941802, -81410.79770455333, -24726.37143449443, -55389.99204516316, -157304.3802147365, -72696.47839027386, -3537.9235193638233, -187500.02235174447, -85750.8359254403, -79363.66848512513, -58125.24206939246, -55798.671340784, -83308.50551229782, -84352.33197836066, -0.022, 0.9440000000000001, 0.372, 192.0, 0.0, 0.0, 0.0, 0.0, 0.0, 0.0, 0.0, 0.0, 0.0, 1.695415814313762E9, 0.0, 2023-09-22 15:50:14.313
232.0, -38096.53676706991, -14237.681238374858, -87204.21340515775, -81432.50124841944, -24735.647408443383, -55397.50223130015, -157212.69335898082, -72713.08573640416, -3599.3237613825518, -187500.02235174447, -85756.46856504305, -79384.43325572411, -58119.005932689426, -55813.89287875806, -83307.8573117086, -84353.69543477242, -0.024, 0.9380000000000001, 0.374, 192.0, 127.5, 32.0, 14.5, 40.0, 5.5, 88.0, 0.0, 0.0, 0.0, 1.695415814313765E9, 0.0, 2023-09-22 15:50:14.313
234.0, -38076.911935438155, -14221.0068370112, -87177.01133215563, -81409.16602720809, -24714.681472144304, -55367.014451863106, -157308.31412176063, -72682.32973603366, -3489.956675762734, -187500.02235174447, -85742.43166952512, -79380.94638358908, -58119.721188512, -55801.73352977438, -83293.57454700167, -84336.48459154184, -0.024, 0.9380000000000001, 0.374, 192.0, 0.0, 0.0, 0.0, 0.0, 0.0, 0.0, 0.0, 0.0, 0.0, 1.695415814313769E9, 0.0, 2023-09-22 15:50:14.313
236.0, -38075.570830770834, -14221.81149981159, -87181.57108802452, -81402.72872480497, -24721.81167862555, -55379.173800846795, -157232.4746528238, -72695.3608030511, -3603.6823515513365, -187500.02235174447, -85734.31798628783, -79375.31374398635, -58096.5647812563, -55791.20585813592, -83288.07601786566, -84329.68966122743, -0.024, 0.9380000000000001, 0.374, 192.0, 0.0, 0.0, 0.0, 0.0, 0.0, 0.0, 0.0, 0.0, 0.0, 1.695415814313772E9, 0.0, 2023-09-22 15:50:14.313
