%OpenBCI Raw EXG Data
%Number of channels = 16
%Sample Rate = 125 Hz
%Board = OpenBCI_GUI$BoardCytonSerialDaisy
Sample Index, EXG Channel 0, EXG Channel 1, EXG Channel 2, EXG Channel 3, EXG Channel 4, EXG Channel 5, EXG Channel 6, EXG Channel 7, EXG Channel 8, EXG Channel 9, EXG Channel 10, EXG Channel 11, EXG Channel 12, EXG Channel 13, EXG Channel 14, EXG Channel 15, Accel Channel 0, Accel Channel 1, Accel Channel 2, Other, Other, Other, Other, Other, Other, Other, Analog Channel 0, Analog Channel 1, Analog Channel 2, Timestamp, Other, Timestamp (Formatted)
0.0, -36651.56354326767, -15833.439330272597, -85274.98963773128, -80101.94660448392, -26847.440224580794, -54581.32828251461, -166956.33285717166, -72187.57387251544, 0.0, 0.0, 0.0, 0.0, 0.0, 0.0, 0.0, 0.0, 0.0, 0.0, 0.0, 192.0, 0.0, 0.0, 0.0, 0.0, 0.0, 0.0, 0.0, 0.0, 0.0, 1.695415893102329E9, 0.0, 2023-09-22 15:51:33.102
238.0, -36651.384729312034, -15835.987429140501, -85266.56303007163, -80101.43251436146, -26823.74737545817, -54575.025090578216, -167006.80309615174, -72173.9840118866, 1293.294285928522, -187500.02235174447, -83945.75374671862, -78098.87267337712, -59446.67720159021, -59632.97899162519, -81525.50685709798, -82866.99150407214, 0.0, 0.0, 0.0, 192.0, 0.0, 0.0, 0.0, 0.0, 0.0, 0.0, 0.0, 0.0, 0.0, 1.695415893102339E9, 0.0, 2023-09-22 15:51:33.102
240.0, -36642.77930769674, -15827.650228458671, -85268.95466672834, -80100.29257539423, -26826.40723304835, -54571.67232890992, -166991.58155817766, -72175.19100608719, 1264.3711286033547, -187500.02235174447, -83967.25612488463, -78124.46542077845, -59461.29524246398, -59653.27437559061, -81537.53209561492, -82881.29662052353, 0.0, 0.0, 0.0, 192.0, 0.0, 0.0, 0.0, 0.0, 0.0, 0.0, 0.0, 0.0, 0.0, 1.695415893102343E9, 0.0, 2023-09-22 15:51:33.102
242.0, -36659.856040460596, -15842.290621076898, -85275.4813761093, -80097.52095908177, -26823.70267196926, -54575.293311511676, -167061.52016657832, -72167.56906122793, 1299.329256931455, -187500.02235174447, -83949.41943280929, -78104.05827809076, -59443.79382655548, -59624.641790943366, -81514.33098487032, -82858.81076560149, 0.0, 0.0, 0.0, 192.0, 0.0, 0.0, 0.0, 0.0, 0.0, 0.0, 0.0, 0.0, 0.0, 1.695415893102346E9, 0.0, 2023-09-22 15:51:33.102
244.0, -36668.01442718678, -15848.929089180123, -85291.41816990593, -80102.41599111748, -26848.13312865891, -54596.46041351085, -167010.11115433113, -72190.43489580571, 1246.1768086167347, -187500.02235174447, -83972.48643308716, -78118.5869119867, -59466.68201287771, -59645.69713422026, -81534.38049964672, -82880.24608853413, 0.0, 0.0, 0.0, 192.0, 0.0, 0.0, 0.0, 0.0, 0.0, 0.0, 0.0, 0.0, 0.0, 1.695415893102349E9, 0.0, 2023-09-22 15:51:33.102
246.0, -36655.83272645864, -15835.294525062387, -85282.36571340152, -80085.31690660917, -26841.7852332336, -54581.574151703615, -167092.2314634599, -72179.0802096224, 1290.835594038438, -187500.02235174447, -83953.97918867817, -78096.01165008685, -59464.335079709905, -59630.85557590194, -81532.36884264575, -82871.43950121875, -0.026000000000000002, 0.932, 0.404, 192.0, 127.5, 24.0, 14.5, 16.0, 6.0, 80.0, 0.0, 0.0, 0.0, 1.695415893102353E9, 0.0, 2023-09-22 15:51:33.102
248.0, -36667.27681961976, -15851.030153158923, -85303.95749854535, -80102.37128762857, -26863.667591055346, -54603.83648918111, -167024.88565741607, -72203.04127967851, 1232.6092997323633, -187500.02235174447, -83977.20265116724, -78121.939673655, -59484.5410566975, -59647.552329010054, -81553.2006684781, -82890.2149665612, -0.026000000000000002, 0.932, 0.404, 192.0, 0.0, 0.0, 0.0, 0.0, 0.0, 0.0, 0.0, 0.0, 0.0, 1.695415893102356E9, 0.0, 2023-09-22 15:51:33.102
250.0, -36645.52857226474, -15821.347036522275, -85270.25106790675, -80065.69207497741, -26833.73860522969, -54569.906541097946, -167150.74833044392, -72176.24153807659, 1285.3817683913433, -187500.02235174447, -83959.45536606973, -78106.69578393648, -59461.78698084199, -59630.296782290556, -81536.57097060335, -82874.25582102011, -0.026000000000000002, 0.932, 0.404, 192.0, 0.0, 0.0, 0.0, 0.0, 0.0, 0.0, 0.0, 0.0, 0.0, 1.695415893102359E9, 0.0, 2023-09-22 15:51:33.102
252.0, -36651.83176420114, -15828.924277892624, -85288.46773963782, -80078.7007902504, -26847.55198330307, -54583.51875347123, -167103.87672232112, -72191.15015162827, 1229.3682967863438, -187500.02235174447, -83948.97239792018, -78091.76481864034, -59446.11840797883, -59614.56115419402, -81522.82464776334, -82859.34720746843, -0.026000000000000002, 0.932, 0.404, 192.0, 0.0, 0.0, 0.0, 0.0, 0.0, 0.0, 0.0, 0.0, 0.0, 1.695415893102362E9, 0.0, 2023-09-22 15:51:33.102
0.0, -18341.081540713494, -8039.833073596129, -42637.986557243654, -40070.106395495706, -13505.57220048573, -27338.016311885873, -83255.46482270537, -36141.94376968667, 644.356089157592, -93750.01117587223, -41982.74516853633, -39048.81048784381, -29733.475116905585, -29814.276673111523, -40773.98518013778, -41437.56376952693, -0.035, 0.925, 0.40800000000000003, 192.0, 127.0, 80.0, 14.0, 88.0, 6.0, 112.0, 0.0, 0.0, 0.0, 1.695415893215396E9, 0.0, 2023-09-22 15:51:33.215
2.0, -36639.87358091755, -16030.537012879493, -85217.3668405255, -80087.9544124549, -26965.30097309363, -54621.58377427862, -166581.89643405634, -72225.03539622252, 1054.912931312672, -187500.02235174447, -83956.39317707934, -78132.91438018256, -59618.964447851715, -59782.26629284219, -81559.16858424766, -82892.9642311292, -0.035, 0.925, 0.40800000000000003, 192.0, 0.0, 0.0, 0.0, 0.0, 0.0, 0.0, 0.0, 0.0, 0.0, 1.695415893275065E9, 0.0, 2023-09-22 15:51:33.275
4.0, -36649.46247928888, -16043.232803730109, -85237.48341053528, -80108.18274118695, -26975.448665076336, -54641.85680649958, -166481.9394328522, -72234.98192250513, 998.854756218762, -187500.02235174447, -83925.92774938677, -78099.14089431059, -59588.5660753925, -59753.343135517025, -81531.47477286754, -82861.53767842504, -0.035, 0.925, 0.40800000000000003, 192.0, 0.0, 0.0, 0.0, 0.0, 0.0, 0.0, 0.0, 0.0, 0.0, 1.695415893275076E9, 0.0, 2023-09-22 15:51:33.275
6.0, -36674.47408133437, -16066.478617963627, -85264.35020737055, -80129.75217458632, -26997.062801964617, -54660.60992009758, -166544.23374464916, -72257.49012917162, 1067.0722802963592, -187500.02235174447, -83953.68861600026, -78124.97951090093, -59613.443566971255, -59775.47136252777, -81552.28424695543, -82884.44821649173, -0.035, 0.925, 0.40800000000000003, 192.0, 0.0, 0.0, 0.0, 0.0, 0.0, 0.0, 0.0, 0.0, 0.0, 1.695415893275079E9, 0.0, 2023-09-22 15:51:33.275
8.0, -36667.16506089748, -16066.724487152636, -85259.47752707929, -80122.68902333845, -26993.978261229786, -54654.48554211683, -166432.8773537728, -72258.74182686112, 951.3349475067791, -187500.02235174447, -83970.38536910836, -78140.62573201963, -59634.78948292607, -59788.703595245315, -81576.02179956697, -82897.814559676, -0.044, 0.914, 0.41000000000000003, 192.0, 127.0, 80.0, 14.0, 72.0, 6.0, 104.0, 0.0, 0.0, 0.0, 1.695415893275083E9, 0.0, 2023-09-22 15:51:33.275
10.0, -36653.754014224294, -16055.950946325178, -85235.73997446775, -80109.56854934318, -26971.782978985666, -54641.67799254394, -166514.3494623124, -72236.92652427274, 1057.818658091862, -187500.02235174447, -83953.15217413333, -78130.85801969266, -59608.72734889118, -59770.82219968107, -81555.3464359458, -82885.83402464796, -0.044, 0.914, 0.41000000000000003, 192.0, 0.0, 0.0, 0.0, 0.0, 0.0, 0.0, 0.0, 0.0, 0.0, 1.695415893275086E9, 0.0, 2023-09-22 15:51:33.275
12.0, -36659.23019161585, -16066.925652852733, -85237.55046576864, -80112.2060551889, -26968.229051617272, -54642.66146929997, -166404.71415575914, -72239.42991965174, 992.886840449195, -187500.02235174447, -83932.70032795671, -78118.63161547562, -59585.99562478014, -59758.97577511976, -81535.5427903584, -82861.1576987693, -0.044, 0.914, 0.41000000000000003, 192.0, 0.0, 0.0, 0.0, 0.0, 0.0, 0.0, 0.0, 0.0, 0.0, 1.695415893275089E9, 0.0, 2023-09-22 15:51:33.275
14.0, -36660.57129628316, -16065.584548185416, -85242.37844257099, -80114.32947091215, -26973.39230458645, -54647.26592865776, -166469.8918425908, -72244.28024819854, 1088.4852514845434, -187500.02235174447, -83951.05111015453, -78139.86577270816, -59604.03348255557, -59775.717231716786, -81550.6972730991, -82880.40255074532, -0.044, 0.914, 0.41000000000000003, 192.0, 0.0, 0.0, 0.0, 0.0, 0.0, 0.0, 0.0, 0.0, 0.0, 1.695415893275093E9, 0.0, 2023-09-22 15:51:33.275
16.0, -36657.68792124843, -16067.260929019563, -85237.4163553019, -80105.56758708568, -26969.503101051225, -54640.47099834335, -166358.44604473663, -72241.37452141935, 1007.2590121339575, -187500.02235174447, -83945.26200834061, -78124.0854411227, -59604.145241277845, -59773.34794680452, -81538.22499969305, -82869.42784421776, -0.044, 0.914, 0.41000000000000003, 192.0, 0.0, 0.0, 0.0, 0.0, 0.0, 0.0, 0.0, 0.0, 0.0, 1.695415893334802E9, 0.0, 2023-09-22 15:51:33.334
18.0, -36621.70161267539, -16025.038483743489, -85214.50581723521, -80082.99232518583, -26958.57309801258, -54618.566288777154, -166424.09311820188, -72224.54365784451, 1094.497870743021, -187500.02235174447, -83935.24842682463, -78105.75701066936, -59605.754566878626, -59770.956310147805, -81544.79641256291, -82871.6630186633, -0.044, 0.918, 0.41000000000000003, 192.0, 127.0, 80.0, 14.0, 88.0, 6.0, 104.0, 0.0, 0.0, 0.0, 1.695415893334816E9, 0.0, 2023-09-22 15:51:33.334
20.0, -36621.321633019645, -16029.285315189996, -85203.97814559676, -80074.09633089261, -26951.15231885342, -54606.80927119366, -166356.3673325023, -72211.6467012938, 1024.5369105979098, -187500.02235174447, -83896.24463275011, -78066.14971949456, -59577.434906653754, -59735.75231263069, -81510.97822320202, -82842.44928866021, -0.044, 0.918, 0.41000000000000003, 192.0, 0.0, 0.0, 0.0, 0.0, 0.0, 0.0, 0.0, 0.0, 0.0, 1.69541589333482E9, 0.0, 2023-09-22 15:51:33.334
22.0, -36638.08544136112, -16038.136605994297, -85229.8167621871, -80098.19151141543, -26980.209586645316, -54623.394265579496, -166412.1796384072, -72231.11507071437, 1085.981856105549, -187500.02235174447, -83918.01523184958, -78092.16715004054, -59594.154011506325, -59746.1011703135, -81537.26387468146, -82862.69996913672, -0.044, 0.918, 0.41000000000000003, 192.0, 0.0, 0.0, 0.0, 0.0, 0.0, 0.0, 0.0, 0.0, 0.0, 1.695415893334824E9, 0.0, 2023-09-22 15:51:33.334
24.0, -36625.07672608813, -16032.481614647106, -85213.92467187937, -80081.02537167375, -26954.259211332705, -54602.31657055814, -166356.8143673914, -72207.042241936, 1011.1929191580915, -187500.02235174447, -83913.12019981387, -78086.69097264898, -59589.79542133754, -59735.03705680813, -81535.83336303632, -82854.22865798816, -0.044, 0.918, 0.41000000000000003, 192.0, 0.0, 0.0, 0.0, 0.0, 0.0, 0.0, 0.0, 0.0, 0.0, 1.695415893334827E9, 0.0, 2023-09-22 15:51:33.334
26.0, -36636.78904018272, -16035.789672826491, -85231.64960523244, -80098.63854630453, -26973.57111854209, -54620.108559144566, -166399.19327487866, -72233.77492830456, 1071.4532222095993, -187500.02235174447, -83918.50697022761, -78091.54130119579, -59584.006319523614, -59735.1488155304, -81526.84796176529, -82853.33458820994, -0.044, 0.918, 0.41000000000000003, 192.0, 0.0, 0.0, 0.0, 0.0, 0.0, 0.0, 0.0, 0.0, 0.0, 1.695415893334831E9, 0.0, 2023-09-22 15:51:33.334
28.0, -36661.21949687237, -16071.217187788152, -85240.07621289209, -80109.4567906209, -26975.80629298762, -54640.158073920975, -166356.05440807992, -72232.70204457069, 1017.7866837724071, -187500.02235174447, -83930.17458083328, -78101.91251062305, -59597.79734585254, -59749.766856404174, -81536.92859851463, -82860.57655341347, -0.042, 0.918, 0.41200000000000003, 192.0, 127.0, 88.0, 14.0, 88.0, 6.0, 112.0, 0.0, 0.0, 0.0, 1.695415893334834E9, 0.0, 2023-09-22 15:51:33.334
30.0, -36684.48766285034, -16099.290978824018, -85271.7262830408, -80142.26915148129, -27004.796505546154, -54679.47479241787, -166349.84062312136, -72268.26366999908, 1024.4475036200886, -187500.02235174447, -83975.95095347775, -78145.58781928872, -59639.036314372584, -59797.15255464942, -81570.99265706452, -82899.42388527679, -0.042, 0.918, 0.41200000000000003, 192.0, 0.0, 0.0, 0.0, 0.0, 0.0, 0.0, 0.0, 0.0, 0.0, 1.695415893334837E9, 0.0, 2023-09-22 15:51:33.334
32.0, -36681.62663956006, -16101.481449780638, -85257.08589042258, -80129.72982284187, -26980.813083745612, -54666.33196667814, -166331.82511709037, -72259.27826872806, 997.3571893402565, -187500.02235174447, -83970.9218109753, -78143.37499658763, -59628.195718311756, -59802.87460122998, -81553.89357255622, -82891.89134739534, -0.042, 0.918, 0.41200000000000003, 192.0, 0.0, 0.0, 0.0, 0.0, 0.0, 0.0, 0.0, 0.0, 0.0, 1.695415893394854E9, 0.0, 2023-09-22 15:51:33.394
34.0, -36682.87833724956, -16103.671920737259, -85267.74767252775, -80135.9659595449, -27001.73431655578, -54670.33292893564, -166321.52096289647, -72266.90021358732, 1006.0967214222815, -187500.02235174447, -83982.70118030324, -78158.41772060606, -59637.069360860514, -59795.78909823765, -81562.18606974914, -82898.84273992095, -0.042, 0.918, 0.41200000000000003, 192.0, 0.0, 0.0, 0.0, 0.0, 0.0, 0.0, 0.0, 0.0, 0.0, 1.695415893394866E9, 0.0, 2023-09-22 15:51:33.394
36.0, -36699.84331129114, -16118.804051733501, -85273.1791464304, -80140.99510204734, -26997.19691243135, -54672.50104814781, -166333.0544630354, -72259.0100477946, 1015.9314889826167, -187500.02235174447, -83979.54958433505, -78153.5450403148, -59621.490194975166, -59793.68803425885, -81558.67684586965, -82891.19844331723, -0.042, 0.918, 0.41200000000000003, 192.0, 0.0, 0.0, 0.0, 0.0, 0.0, 0.0, 0.0, 0.0, 0.0, 1.69541589339487E9, 0.0, 2023-09-22 15:51:33.394
38.0, -36686.70048555142, -16098.441612534716, -85279.63880057797, -80142.82794509268, -27010.697366082357, -54668.03069925674, -166315.24012270453, -72258.33949546092, 983.342645566779, -187500.02235174447, -83992.35713390794, -78162.97747647495, -59632.576660225, -59806.674397787385, -81572.24435475402, -82899.44623702124, -0.042, 0.92, 0.41000000000000003, 192.0, 127.0, 88.0, 14.0, 96.0, 6.0, 104.0, 0.0, 0.0, 0.0, 1.695415893394873E9, 0.0, 2023-09-22 15:51:33.394
40.0, -36676.37397961307, -16085.812876917467, -85267.5241550832, -80125.12536348407, -26998.135685698475, -54648.42821936944, -166355.3615040018, -72249.82348082346, 1019.5301198399211, -187500.02235174447, -83978.7225697902, -78143.93379019902, -59641.0256196291, -59790.22351386828, -81570.7020843866, -82891.93605088427, -0.042, 0.92, 0.41000000000000003, 192.0, 0.0, 0.0, 0.0, 0.0, 0.0, 0.0, 0.0, 0.0, 0.0, 1.695415893394876E9, 0.0, 2023-09-22 15:51:33.394
42.0, -36667.85796497559, -16083.130667582831, -85279.0800069666, -80133.88724731056, -27022.05205226565, -54658.19593169641, -166317.36353842777, -72270.2082717667, 980.14634610967, -187500.02235174447, -83968.32900861849, -78129.4945632809, -59637.89637540536, -59785.73081323276, -81578.54754669042, -82893.99241137414, -0.042, 0.92, 0.41000000000000003, 192.0, 0.0, 0.0, 0.0, 0.0, 0.0, 0.0, 0.0, 0.0, 0.0, 1.695415893394879E9, 0.0, 2023-09-22 15:51:33.394
44.0, -36665.86865971907, -16080.56021697047, -85265.06546319312, -80126.93585478496, -27004.081249723586, -54644.76253327877, -166395.72875448808, -72255.74669310411, 1033.8799397802281, -187500.02235174447, -83961.48937481515, -78125.9853394014, -59640.46682601772, -59776.119563116976, -81579.1063403018, -82896.67462070879, -0.042, 0.92, 0.41000000000000003, 192.0, 0.0, 0.0, 0.0, 0.0, 0.0, 0.0, 0.0, 0.0, 0.0, 1.695415893394882E9, 0.0, 2023-09-22 15:51:33.394
46.0, -36669.22142138737, -16090.28322580853, -85271.88274525199, -80136.90473281202, -27004.125953212497, -54656.608957840086, -166344.0068178185, -72265.87203334237, 975.0725001183152, -187500.02235174447, -83958.33777884695, -78130.32157782574, -59633.69424744776, -59782.489810286745, -81557.55925864688, -82886.63868744836, -0.042, 0.92, 0.41000000000000003, 192.0, 0.0, 0.0, 0.0, 0.0, 0.0, 0.0, 0.0, 0.0, 0.0, 1.695415893455237E9, 0.0, 2023-09-22 15:51:33.455
48.0, -36671.50129932181, -16088.696251952202, -85262.09268118057, -80125.10301173961, -26993.19595017385, -54653.97145199436, -166424.60720832436, -72251.03047502405, 1036.4503903925886, -187500.02235174447, -83970.38536910836, -78141.38569133112, -59646.74766620966, -59782.57921726456, -81566.18703200664, -82894.14887358533, -0.044, 0.914, 0.41400000000000003, 192.0, 127.0, 80.0, 14.0, 72.0, 6.0, 120.0, 0.0, 0.0, 0.0, 1.695415893455251E9, 0.0, 2023-09-22 15:51:33.455
50.0, -36679.771444770275, -16103.13547887033, -85280.59992558956, -80145.84543059414, -27023.795488333166, -54675.742051093825, -166342.68806489566, -72295.55514997902, 960.2085900555361, -187500.02235174447, -83980.15308143533, -78153.50033682589, -59648.42404704381, -59802.40521459642, -81580.73801764703, -82908.38693480336, -0.044, 0.914, 0.41400000000000003, 192.0, 0.0, 0.0, 0.0, 0.0, 0.0, 0.0, 0.0, 0.0, 0.0, 1.695415893455254E9, 0.0, 2023-09-22 15:51:33.455
52.0, -36661.532421294745, -16076.961586113166, -85245.12770713899, -80114.82120929018, -26989.686726294367, -54646.327155390645, -166449.52940339202, -72245.50959414359, 1065.6194169067642, -187500.02235174447, -83954.69444450074, -78123.07961262223, -59621.981933353185, -59773.86203692699, -81560.77790984845, -82887.04101884854, -0.044, 0.914, 0.41400000000000003, 192.0, 0.0, 0.0, 0.0, 0.0, 0.0, 0.0, 0.0, 0.0, 0.0, 1.695415893455258E9, 0.0, 2023-09-22 15:51:33.455
54.0, -36672.68594177794, -16089.545618241504, -85257.64468403396, -80130.7132995979, -26995.744049041758, -54653.792638038714, -166360.8600331378, -72252.88566981384, 992.5068607934548, -187500.02235174447, -83965.15506090583, -78132.35558657117, -59616.438700728264, -59787.854228956014, -81557.6486656247, -82884.58232695847, -0.044, 0.914, 0.41400000000000003, 192.0, 0.0, 0.0, 0.0, 0.0, 0.0, 0.0, 0.0, 0.0, 0.0, 1.695415893455261E9, 0.0, 2023-09-22 15:51:33.455
56.0, -36646.44499378741, -16059.482521949116, -85238.0645558911, -80104.38294462954, -26975.7168860098, -54621.24849811179, -166477.46908396116, -72224.52130610005, 1089.915763129683, -187500.02235174447, -83958.18131663578, -78126.5441330128, -59614.80702338303, -59771.87273167047, -81555.1005667568, -82879.57553620047, -0.044, 0.914, 0.41400000000000003, 192.0, 0.0, 0.0, 0.0, 0.0, 0.0, 0.0, 0.0, 0.0, 0.0, 1.695415893455264E9, 0.0, 2023-09-22 15:51:33.455
58.0, -36640.79000244022, -16066.344507496895, -85243.63014026049, -80108.8085900317, -26970.553633040625, -54625.0929981581, -166400.46732431263, -72228.67873056875, 1018.367829128245, -187500.02235174447, -83931.71685120069, -78100.6384611891, -59603.027654055084, -59749.0516005816, -81526.78090653193, -82849.71360560818, -0.04, 0.92, 0.40800000000000003, 192.0, 127.0, 96.0, 14.0, 96.0, 6.0, 96.0, 0.0, 0.0, 0.0, 1.695415893455267E9, 0.0, 2023-09-22 15:51:33.455
60.0, -36623.355641765076, -16042.852824074367, -85226.48635226327, -80092.53652006824, -26961.747045725235, -54611.391378807, -166498.07739234893, -72213.12191642784, 1099.370551034278, -187500.02235174447, -83943.1162408729, -78115.16709508504, -59613.6223809269, -59753.87957738395, -81542.09185148381, -82869.18197502875, -0.04, 0.92, 0.40800000000000003, 192.0, 0.0, 0.0, 0.0, 0.0, 0.0, 0.0, 0.0, 0.0, 0.0, 1.695415893455272E9, 0.0, 2023-09-22 15:51:33.455
62.0, -36645.88620017603, -16067.998536586589, -85247.54169554016, -80117.07873548016, -26982.265947135205, -54633.13962616201, -166410.3691471063, -72232.52323061506, 1012.0422854473932, -187500.02235174447, -83912.24848178012, -78086.22158601542, -59588.633130625865, -59736.981658575736, -81522.51172334095, -82844.79622182802, -0.04, 0.92, 0.40800000000000003, 192.0, 0.0, 0.0, 0.0, 0.0, 0.0, 0.0, 0.0, 0.0, 0.0, 1.695415893514757E9, 0.0, 2023-09-22 15:51:33.514
64.0, -36656.32446483665, -16070.814856387957, -85258.15877415643, -80121.6608430935, -26999.58854908807, -54645.2989751457, -166489.293156778, -72248.37061743386, 1078.5387252019316, -187500.02235174447, -83954.56033403402, -78125.76182195685, -59627.79338691156, -59774.532589260656, -81562.32018021586, -82889.96909737219, -0.04, 0.92, 0.40800000000000003, 192.0, 0.0, 0.0, 0.0, 0.0, 0.0, 0.0, 0.0, 0.0, 0.0, 1.695415893514773E9, 0.0, 2023-09-22 15:51:33.514
66.0, -36672.149499911015, -16091.691385709213, -85270.76515802923, -80143.00675904832, -27008.01515674772, -54666.71194633388, -166406.3234813599, -72262.49691992962, 977.5535437528544, -187500.02235174447, -83952.66043575532, -78122.76668819984, -59629.53682297908, -59775.560769505595, -81559.7497296035, -82886.01283860361, -0.04, 0.92, 0.40800000000000003, 192.0, 0.0, 0.0, 0.0, 0.0, 0.0, 0.0, 0.0, 0.0, 0.0, 1.695415893514777E9, 0.0, 2023-09-22 15:51:33.514
68.0, -36634.464458759365, -16053.447550946183, -85240.50089603674, -80114.3071191677, -26990.424333861392, -54641.52153033275, -166511.28727332203, -72256.32783845995, 1054.2200272345576, -187500.02235174447, -83953.30863634452, -78125.38184230111, -59627.502814233645, -59781.52868527517, -81565.4494244396, -82899.33447829896, -0.044, 0.92, 0.41400000000000003, 192.0, 127.0, 80.0, 14.0, 96.0, 6.0, 120.0, 0.0, 0.0, 0.0, 1.69541589351478E9, 0.0, 2023-09-22 15:51:33.514
70.0, -36643.6510257305, -16063.572891184438, -85242.55725652662, -80118.55395061421, -26983.137665168964, -54639.1969489094, -166466.11439777786, -72244.41435866528, 1003.079235920815, -187500.02235174447, -83933.52734250156, -78108.55097872627, -59611.99070358166, -59769.52579850266, -81542.8965142842, -82882.23539379066, -0.044, 0.92, 0.41400000000000003, 192.0, 0.0, 0.0, 0.0, 0.0, 0.0, 0.0, 0.0, 0.0, 0.0, 1.695415893514783E9, 0.0, 2023-09-22 15:51:33.514
72.0, -36648.031967643736, -16060.622460916336, -85256.48239332228, -80128.25460770782, -27006.15996195793, -54647.802370524696, -166546.58067781696, -72253.91385005879, 1063.4289459501442, -187500.02235174447, -83940.67990072726, -78115.72588869643, -59621.84782288645, -59767.42473452386, -81546.56220037487, -82881.87776587937, -0.044, 0.92, 0.41400000000000003, 192.0, 0.0, 0.0, 0.0, 0.0, 0.0, 0.0, 0.0, 0.0, 0.0, 1.695415893514786E9, 0.0, 2023-09-22 15:51:33.514
74.0, -36672.417720844474, -16088.18216182973, -85271.81569001863, -80137.95526480142, -27013.938369028376, -54655.692536317416, -166497.0045086151, -72259.52413791706, 1003.9733056990274, -187500.02235174447, -83957.82368872449, -78126.3876708016, -59639.01396262812, -59777.0583363841, -81564.01891279446, -82890.77376017258, -0.044, 0.92, 0.41400000000000003, 192.0, 0.0, 0.0, 0.0, 0.0, 0.0, 0.0, 0.0, 0.0, 0.0, 1.695415893514789E9, 0.0, 2023-09-22 15:51:33.514
76.0, -36678.855023247605, -16090.439688019716, -85285.94199251437, -80150.9639800744, -27033.29497972667, -54662.174542209454, -166540.8586312364, -72262.78749260753, 1028.7166868110523, -187500.02235174447, -83975.70508428873, -78144.87256346614, -59649.318116822025, -59786.93780743335, -81573.25018325451, -82897.74750444264, -0.044, 0.92, 0.41400000000000003, 192.0, 0.0, 0.0, 0.0, 0.0, 0.0, 0.0, 0.0, 0.0, 0.0, 1.695415893574384E9, 0.0, 2023-09-22 15:51:33.574
78.0, -36699.84331129114, -16117.86527846638, -85295.84381530808, -80161.29048601276, -27033.451441937857, -54670.55644638019, -166515.62351174635, -72275.7068009027, 984.14730836717, -187500.02235174447, -83989.29494491756, -78164.38563637563, -59662.95268093976, -59799.63359828396, -81584.69427641563, -82906.4646847802, -0.04, 0.918, 0.41200000000000003, 192.0, 127.0, 96.0, 14.0, 88.0, 6.0, 112.0, 0.0, 0.0, 0.0, 1.695415893574397E9, 0.0, 2023-09-22 15:51:33.574
80.0, -36674.29526737872, -16096.8993421673, -85287.95364951536, -80151.92510508599, -27031.35037795906, -54666.84605680061, -166551.18513717476, -72271.45996945619, 996.9101544511503, -187500.02235174447, -83987.88678501688, -78165.3020578983, -59659.152884382354, -59801.287627373655, -81591.5562619634, -82911.4714755382, -0.04, 0.918, 0.41200000000000003, 192.0, 0.0, 0.0, 0.0, 0.0, 0.0, 0.0, 0.0, 0.0, 0.0, 1.695415893574401E9, 0.0, 2023-09-22 15:51:33.574
82.0, -36689.1591774415, -16110.980941174144, -85291.77579781722, -80159.65880866752, -27029.8304593361, -54673.9539115374, -166545.5077940831, -72268.15191127681, 1012.466968592044, -187500.02235174447, -83978.14142443436, -78157.45659559449, -59664.65141351836, -59798.80658373912, -81588.71759041758, -82909.99626040415, -0.04, 0.918, 0.41200000000000003, 192.0, 0.0, 0.0, 0.0, 0.0, 0.0, 0.0, 0.0, 0.0, 0.0, 1.695415893574404E9, 0.0, 2023-09-22 15:51:33.574
84.0, -36645.796793198206, -16059.75074288258, -85257.10824216703, -80129.28278795276, -26994.268833907707, -54640.20277740989, -166559.0082477341, -72249.21998372316, 1022.6146605747534, -187500.02235174447, -83963.79160449405, -78138.41290931856, -59656.69419249227, -59791.67637725787, -81570.18799426412, -82899.17801608778, -0.04, 0.918, 0.41200000000000003, 192.0, 0.0, 0.0, 0.0, 0.0, 0.0, 0.0, 0.0, 0.0, 0.0, 1.695415893574407E9, 0.0, 2023-09-22 15:51:33.574
86.0, -36651.69765373441, -16070.70309766568, -85248.79339322966, -80124.07483149467, -26988.636194304967, -54642.05797219968, -166589.13839925986, -72239.74284407412, 1069.2851029974345, -187500.02235174447, -83941.93159841676, -78117.49167650839, -59622.76424440912, -59764.0049176222, -81543.96939801806, -82877.65328617732, -0.04, 0.918, 0.41200000000000003, 192.0, 0.0, 0.0, 0.0, 0.0, 0.0, 0.0, 0.0, 0.0, 0.0, 1.695415893574411E9, 0.0, 2023-09-22 15:51:33.574
88.0, -36665.48868006333, -16088.785658930025, -85268.35116962805, -80149.33230272918, -27019.503953397747, -54666.89076028953, -166552.4591866087, -72270.07416129997, 1038.529102626932, -187500.02235174447, -83953.75567123362, -78139.79871747478, -59636.55527073804, -59794.33623484805, -81555.61465687928, -82896.74167594215, -0.036000000000000004, 0.922, 0.41000000000000003, 192.0, 127.0, 112.0, 14.0, 104.0, 6.0, 104.0, 0.0, 0.0, 0.0, 1.695415893574414E9, 0.0, 2023-09-22 15:51:33.574
90.0, -36615.55488295018, -16043.523376408028, -85203.57581419656, -80086.27803162075, -26950.414711286394, -54602.964771147344, -166640.97209465172, -72199.50970405457, 1080.1927542916244, -187500.02235174447, -83926.03950810904, -78116.12822009662, -59616.12577630589, -59764.78722867814, -81529.12783969974, -82870.813652374, -0.036000000000000004, 0.922, 0.41000000000000003, 192.0, 0.0, 0.0, 0.0, 0.0, 0.0, 0.0, 0.0, 0.0, 0.0, 1.695415893574418E9, 0.0, 2023-09-22 15:51:33.574
92.0, -36654.335159580136, -16083.51064723857, -85255.61067528852, -80140.03397703577, -27000.884950266478, -54658.64296658552, -166608.65147216935, -72254.89732681481, 1043.82646606284, -187500.02235174447, -83912.71786841367, -78102.31484202325, -59602.73708137716, -59755.93593787384, -81509.88298772371, -82853.60280914341, -0.036000000000000004, 0.922, 0.41000000000000003, 192.0, 0.0, 0.0, 0.0, 0.0, 0.0, 0.0, 0.0, 0.0, 0.0, 1.695415893634675E9, 0.0, 2023-09-22 15:51:33.634
94.0, -36651.87646769005, -16073.251196533585, -85249.88862870797, -80124.4101076615, -26997.889816509465, -54637.72173377535, -166692.7834382991, -72235.33955041642, 1076.7058821565965, -187500.02235174447, -83958.24837186914, -78144.44788032149, -59643.640773730374, -59791.564618535594, -81565.36001746179, -82899.5132922546, -0.036000000000000004, 0.922, 0.41000000000000003, 192.0, 0.0, 0.0, 0.0, 0.0, 0.0, 0.0, 0.0, 0.0, 0.0, 1.695415893634685E9, 0.0, 2023-09-22 15:51:33.634
96.0, -36652.88229619054, -16075.352260512384, -85261.89151548047, -80134.2672269663, -27003.365993901014, -54642.48265534433, -166651.27624884562, -72252.5056901581, 1003.1015876652704, -187500.02235174447, -83940.47873502717, -78119.81625793174, -59632.50960499163, -59771.69391771483, -81542.85181079528, -82873.9652483422, -0.036000000000000004, 0.922, 0.41000000000000003, 192.0, 0.0, 0.0, 0.0, 0.0, 0.0, 0.0, 0.0, 0.0, 0.0, 1.695415893634689E9, 0.0, 2023-09-22 15:51:33.634
98.0, -36670.51782256577, -16091.445516520205, -85278.45415812185, -80147.38770096155, -27019.459249908836, -54651.088076959626, -166753.26725879518, -72256.41724543777, 1082.0479490814148, -187500.02235174447, -83950.53702003206, -78131.30505458177, -59640.10919810644, -59781.21576085279, -81557.93923830263, -82887.51040548211, -0.036000000000000004, 0.924, 0.406, 192.0, 127.0, 112.0, 14.0, 112.0, 6.0, 88.0, 0.0, 0.0, 0.0, 1.695415893634692E9, 0.0, 2023-09-22 15:51:33.634
100.0, -36712.628509119575, -16134.360865874394, -85332.25480702578, -80207.67035575752, -27070.801206922675, -54714.343513768144, -166661.35688559496, -72314.04004264355, 976.6818257190974, -187500.02235174447, -84002.21425321273, -78185.21746220798, -59684.410355616856, -59826.72391256379, -81609.23649182756, -82938.07005144001, -0.036000000000000004, 0.924, 0.406, 192.0, 0.0, 0.0, 0.0, 0.0, 0.0, 0.0, 0.0, 0.0, 0.0, 1.695415893634695E9, 0.0, 2023-09-22 15:51:33.634
102.0, -36679.346761625624, -16110.399795818306, -85286.27726868121, -80175.34973327514, -27030.07632852511, -54679.318330206675, -166777.40714280691, -72275.57269043598, 1051.336652199823, -187500.02235174447, -83989.69727631775, -78175.8520812812, -59673.569759556034, -59827.75209280874, -81594.86432014279, -82938.2265136512, -0.036000000000000004, 0.924, 0.406, 192.0, 0.0, 0.0, 0.0, 0.0, 0.0, 0.0, 0.0, 0.0, 0.0, 1.695415893634698E9, 0.0, 2023-09-22 15:51:33.634
104.0, -36692.981325743356, -16132.215098406685, -85306.21502473534, -80183.9775066349, -27051.22107877983, -54701.37950198406, -166687.46372311877, -72298.90791164731, 974.4466512735667, -187500.02235174447, -83986.88095651638, -78179.00367724939, -59677.682480535805, -59837.2739359467, -81588.02468633947, -82932.45976358173, -0.036000000000000004, 0.924, 0.406, 192.0, 0.0, 0.0, 0.0, 0.0, 0.0, 0.0, 0.0, 0.0, 0.0, 1.695415893634702E9, 0.0, 2023-09-22 15:51:33.634
106.0, -36677.7597877693, -16116.971208688166, -85295.79911181917, -80174.7238844304, -27052.24925902477, -54691.03064430126, -166799.24479713975, -72286.63680394135, 1067.0722802963592, -187500.02235174447, -83988.4232268838, -78175.76267430338, -59684.20918991676, -59841.25254645974, -81596.42894225466, -82938.94176947376, -0.036000000000000004, 0.924, 0.406, 192.0, 0.0, 0.0, 0.0, 0.0, 0.0, 0.0, 0.0, 0.0, 0.0, 1.695415893694986E9, 0.0, 2023-09-22 15:51:33.694
108.0, -36679.0561889477, -16125.934258214744, -85295.9332222859, -80177.74136993187, -27051.39989273547, -54693.7575571248, -166719.6055316455, -72291.59889121042, 980.1910495985807, -187500.02235174447, -83975.3698081219, -78162.9998282194, -59672.22865488871, -59837.40804641343, -81585.49893921602, -82924.63665302237, -0.026000000000000002, 0.93, 0.406, 192.0, 127.5, 24.0, 14.5, 8.0, 6.0, 88.0, 0.0, 0.0, 0.0, 1.695415893695E9, 0.0, 2023-09-22 15:51:33.695
110.0, -36684.64412506153, -16126.04601693702, -85294.70387634086, -80178.9707158769, -27056.563145704647, -54703.234696773856, -166818.8249252826, -72299.73492619216, 1075.5435914449206, -187500.02235174447, -83986.32216290501, -78174.98036324745, -59685.01385271715, -59850.48381691978, -81597.99356436654, -82938.24886539565, -0.026000000000000002, 0.93, 0.406, 192.0, 0.0, 0.0, 0.0, 0.0, 0.0, 0.0, 0.0, 0.0, 0.0, 1.695415893695004E9, 0.0, 2023-09-22 15:51:33.695
112.0, -36675.859889490595, -16118.66994126677, -85282.41041689045, -80164.71030291442, -27031.86446808153, -54686.806164599206, -166751.68028493886, -72284.3569260069, 998.3630178407452, -187500.02235174447, -83968.75369176314, -78159.08827293973, -59663.24325361768, -59844.85117731705, -81576.04415131142, -82918.82519946399, -0.026000000000000002, 0.93, 0.406, 192.0, 0.0, 0.0, 0.0, 0.0, 0.0, 0.0, 0.0, 0.0, 0.0, 1.695415893695007E9, 0.0, 2023-09-22 15:51:33.695
114.0, -36668.21559288688, -16102.196705603208, -85279.25882092224, -80155.81430862121, -27039.91109608544, -54681.35233895211, -166858.40986471294, -72274.32099274648, 1102.2539260690126, -187500.02235174447, -83970.89945923084, -78161.39050261861, -59660.40458207185, -59831.10485447704, -81578.10051180131, -82918.19935061924, -0.026000000000000002, 0.93, 0.406, 192.0, 0.0, 0.0, 0.0, 0.0, 0.0, 0.0, 0.0, 0.0, 0.0, 1.695415893695011E9, 0.0, 2023-09-22 15:51:33.695
116.0, -36676.5080900798, -16118.558182544493, -85287.23839369278, -80156.19428827695, -27035.910133827943, -54692.662321646494, -166798.55189306164, -72284.49103647364, 1028.6272798332311, -187500.02235174447, -83974.18516566577, -78157.83657525023, -59660.96337568324, -59830.21078469882, -81577.51936644547, -82915.53949302906, -0.026000000000000002, 0.93, 0.406, 192.0, 0.0, 0.0, 0.0, 0.0, 0.0, 0.0, 0.0, 0.0, 0.0, 1.695415893695014E9, 0.0, 2023-09-22 15:51:33.695
118.0, -36685.80641577321, -16126.425996592761, -85308.07021952514, -80170.78997740627, -27062.240488796295, -54703.078234562665, -166879.77813241223, -72300.04785061453, 1095.816623665884, -187500.02235174447, -83987.48445361668, -78160.36232237368, -59671.24517813268, -59837.83272955808, -81588.51642471748, -82924.86017046693, -0.022, 0.934, 0.40800000000000003, 192.0, 127.5, 40.0, 14.5, 24.0, 6.0, 96.0, 0.0, 0.0, 0.0, 1.695415893695017E9, 0.0, 2023-09-22 15:51:33.695
120.0, -36667.29917136421, -16115.764214487579, -85280.9352017564, -80136.39064268956, -27026.58945639008, -54673.28335920374, -166838.74032959228, -72271.50467294511, 1047.4698004090549, -187500.02235174447, -83978.4767006012, -78151.46632808047, -59666.640718774885, -59829.89786027645, -81578.14521529022, -82910.6221092489, -0.022, 0.934, 0.40800000000000003, 192.0, 0.0, 0.0, 0.0, 0.0, 0.0, 0.0, 0.0, 0.0, 0.0, 1.69541589369502E9, 0.0, 2023-09-22 15:51:33.695
122.0, -36646.690862976415, -16088.539789741015, -85268.73114928379, -80127.89697979653, -27030.277494225204, -54665.34848992211, -166911.15998162748, -72268.42013221027, 1112.26750758499, -187500.02235174447, -83970.4747760862, -78150.63931353562, -59656.716544236726, -59828.10972072002, -81572.9596105766, -82910.06331563751, -0.022, 0.934, 0.40800000000000003, 192.0, 0.0, 0.0, 0.0, 0.0, 0.0, 0.0, 0.0, 0.0, 0.0, 1.695415893755228E9, 0.0, 2023-09-22 15:51:33.755
124.0, -36628.58594996762, -16071.619519188347, -85249.46394556332, -80103.44417136243, -26998.605072332037, -54643.644946056, -166910.57883627163, -72225.39302413381, 1102.4550917691101, -187500.02235174447, -83924.51958948608, -78105.01940310233, -59609.0179215691, -59789.70942374581, -81525.37274663124, -82865.31512323799, -0.022, 0.934, 0.40800000000000003, 192.0, 0.0, 0.0, 0.0, 0.0, 0.0, 0.0, 0.0, 0.0, 0.0, 1.69541589375524E9, 0.0, 2023-09-22 15:51:33.755
126.0, -36635.514990748765, -16076.581606457426, -85278.99059998877, -80118.64335759204, -27025.002482533753, -54661.9510247649, -166964.53594738676, -72255.97021054866, 1138.3743451087887, -187500.02235174447, -83952.90630494432, -78125.1359731121, -59626.519337477606, -59812.10587169002, -81548.03741550892, -82883.21887054668, -0.022, 0.934, 0.40800000000000003, 192.0, 0.0, 0.0, 0.0, 0.0, 0.0, 0.0, 0.0, 0.0, 0.0, 1.695415893755243E9, 0.0, 2023-09-22 15:51:33.755
128.0, -36652.81524095717, -16095.647644477804, -85287.37250415952, -80118.41984014749, -27021.761479587734, -54666.19785621141, -166969.29686895572, -72260.7087803732, 1092.0838823418478, -187500.02235174447, -83971.3241423755, -78132.2438278489, -59652.246195345666, -59822.25356367273, -81556.64283712422, -82888.04684734903, -0.018000000000000002, 0.928, 0.404, 192.0, 127.5, 56.0, 14.5, 0.0, 6.0, 80.0, 0.0, 0.0, 0.0, 1.695415893755246E9, 0.0, 2023-09-22 15:51:33.755
130.0, -36653.66460724647, -16091.624330475848, -85296.11203624154, -80121.72789832686, -27034.59138090508, -54676.7031761054, -167004.03147983926, -72275.61739392488, 1091.592143963831, -187500.02235174447, -83980.89068900236, -78133.27200809385, -59642.9255179078, -59814.09517694655, -81552.95479928909, -82887.39864675983, -0.018000000000000002, 0.928, 0.404, 192.0, 0.0, 0.0, 0.0, 0.0, 0.0, 0.0, 0.0, 0.0, 0.0, 1.695415893755249E9, 0.0, 2023-09-22 15:51:33.755
132.0, -36659.4537090604, -16099.089813123921, -85283.50565236875, -80113.23423543385, -27024.421337177915, -54670.39998416901, -167043.2811431028, -72261.44638794022, 1099.0576266119035, -187500.02235174447, -83983.50584310363, -78129.80748770326, -59645.07128537552, -59819.72781654928, -81554.31825570087, -82886.83985314844, -0.018000000000000002, 0.928, 0.404, 192.0, 0.0, 0.0, 0.0, 0.0, 0.0, 0.0, 0.0, 0.0, 0.0, 1.695415893755253E9, 0.0, 2023-09-22 15:51:33.755
134.0, -36661.44301431692, -16105.102432382399, -85296.00027751927, -80134.13311649956, -27048.672979911924, -54694.20459201391, -167036.28504708828, -72281.22768178317, 1077.555248445898, -187500.02235174447, -84012.69722136226, -78154.12618567064, -59660.27047160512, -59852.249604731755, -81575.66417165568, -82911.18090286027, -0.018000000000000002, 0.928, 0.404, 192.0, 0.0, 0.0, 0.0, 0.0, 0.0, 0.0, 0.0, 0.0, 0.0, 1.695415893755256E9, 0.0, 2023-09-22 15:51:33.755
136.0, -36644.54509550871, -16096.251141578095, -85280.82344303411, -80109.81441853219, -27033.384386704492, -54682.42522268596, -167099.27226296335, -72273.78455087954, 1108.2665453274901, -187500.02235174447, -83984.04228497056, -78120.4868102654, -59634.78948292607, -59831.39542715495, -81555.70406385709, -82892.24897530663, -0.018000000000000002, 0.928, 0.404, 192.0, 0.0, 0.0, 0.0, 0.0, 0.0, 0.0, 0.0, 0.0, 0.0, 1.695415893814688E9, 0.0, 2023-09-22 15:51:33.814
138.0, -36636.65492971599, -16090.931426397734, -85293.92156528492, -80117.23519769135, -27044.20263102086, -54687.29790297722, -167085.25771918986, -72283.48520797315, 1073.4425274661216, -187500.02235174447, -83998.01212525513, -78131.81914470425, -59650.68157323379, -59845.611136628526, -81573.63016291025, -82907.82814119199, -0.012, 0.918, 0.41000000000000003, 192.0, 127.5, 80.0, 14.0, 88.0, 6.0, 104.0, 0.0, 0.0, 0.0, 1.695415893814702E9, 0.0, 2023-09-22 15:51:33.814
140.0, -36657.5538107817, -16109.9527609292, -85304.94097530139, -80129.75217458632, -27049.276477012216, -54692.97524606887, -167153.8999264121, -72283.3063940175, 1124.2927461019453, -187500.02235174447, -83998.81678805553, -78128.10875512466, -59645.69713422026, -59840.55964238163, -81567.21521225157, -82905.570615002, -0.012, 0.918, 0.41000000000000003, 192.0, 0.0, 0.0, 0.0, 0.0, 0.0, 0.0, 0.0, 0.0, 0.0, 1.695415893814705E9, 0.0, 2023-09-22 15:51:33.814
142.0, -36677.13393892455, -16127.0071419486, -85328.56676919064, -80155.23316326537, -27073.237547068304, -54715.90813588001, -167093.99725127188, -72313.19067635425, 1053.2141987340688, -187500.02235174447, -84030.04217505959, -78156.00373220489, -59676.229617146215, -59868.8793026065, -81591.13157881875, -82928.54820830205, -0.012, 0.918, 0.41000000000000003, 192.0, 0.0, 0.0, 0.0, 0.0, 0.0, 0.0, 0.0, 0.0, 0.0, 1.695415893814709E9, 0.0, 2023-09-22 15:51:33.814
144.0, -36671.21072664389, -16122.514441313082, -85304.80686483465, -80135.45186942242, -27056.563145704647, -54700.68659790595, -167182.28664187033, -72295.15281857882, 1109.0488563834258, -187500.02235174447, -84040.12281180892, -78163.29040089731, -59675.04497469008, -59885.44194524788, -81599.82640741186, -82940.68520554129, -0.012, 0.918, 0.41000000000000003, 192.0, 0.0, 0.0, 0.0, 0.0, 0.0, 0.0, 0.0, 0.0, 0.0, 1.695415893814712E9, 0.0, 2023-09-22 15:51:33.814
146.0, -36670.2048981434, -16124.19082214723, -85301.72232409983, -80138.29054096824, -27057.099587571574, -54704.64285667454, -167128.17306854404, -72301.76893493759, 1044.8099428188734, -187500.02235174447, -84019.15687550986, -78142.54798204279, -59653.60965175744, -59859.69273563537, -81579.68748565763, -82919.45104830874, -0.012, 0.918, 0.41000000000000003, 192.0, 0.0, 0.0, 0.0, 0.0, 0.0, 0.0, 0.0, 0.0, 0.0, 1.695415893814715E9, 0.0, 2023-09-22 15:51:33.814
148.0, -36678.653857547506, -16130.918697228277, -85305.67858286841, -80140.99510204734, -27059.69238992839, -54699.34549323863, -167212.8191247963, -72296.87390290188, 1131.4453043276435, -187500.02235174447, -84033.19377102779, -78154.12618567064, -59674.061497934046, -59874.37783174251, -81588.04703808393, -82927.7211937572, -0.012, 0.916, 0.406, 192.0, 127.5, 80.0, 14.0, 80.0, 6.0, 88.0, 0.0, 0.0, 0.0, 1.695415893814718E9, 0.0, 2023-09-22 15:51:33.814
150.0, -36665.376921341056, -16122.872069224368, -85302.39287643349, -80127.67346235197, -27061.100549829072, -54691.969417568376, -167130.31883601175, -72282.92641436178, 1057.885713325228, -187500.02235174447, -84022.75550636716, -78143.46440356546, -59666.305442608056, -59869.862779362535, -81583.55433744841, -82912.94669067225, -0.012, 0.916, 0.406, 192.0, 0.0, 0.0, 0.0, 0.0, 0.0, 0.0, 0.0, 0.0, 0.0, 1.695415893814721E9, 0.0, 2023-09-22 15:51:33.814
152.0, -36657.73262473734, -16111.271513852063, -85292.84868155107, -80119.58213085915, -27046.415453721937, -54681.03941452973, -167231.75105234995, -72278.50076895962, 1151.8077435264283, -187500.02235174447, -84015.71470686373, -78136.96004592896, -59655.62130875842, -59863.023145559215, -81580.91683160268, -82908.00695514762, -0.012, 0.916, 0.406, 192.0, 0.0, 0.0, 0.0, 0.0, 0.0, 0.0, 0.0, 0.0, 0.0, 1.695415893874341E9, 0.0, 2023-09-22 15:51:33.874
154.0, -36636.96785413836, -16095.893513666811, -85268.23941090578, -80098.19151141543, -27023.281398210693, -54666.10844923359, -167160.35958055969, -72257.803053594, 1066.111155284781, -187500.02235174447, -84004.8741108029, -78126.00769114586, -59645.58537549798, -59859.08923853508, -81559.48150867004, -82894.05946660752, -0.012, 0.916, 0.406, 192.0, 0.0, 0.0, 0.0, 0.0, 0.0, 0.0, 0.0, 0.0, 0.0, 1.695415893874353E9, 0.0, 2023-09-22 15:51:33.874
156.0, -36640.275912317746, -16088.249217063096, -85267.61356206103, -80098.57149107117, -27029.651645380458, -54669.26004520179, -167279.96376514004, -72264.62033565287, 1158.557970351931, -187500.02235174447, -83989.54081410657, -78108.26040604836, -59631.10144509095, -59845.678191861894, -81541.73422357252, -82880.58136470096, -0.012, 0.916, 0.406, 192.0, 0.0, 0.0, 0.0, 0.0, 0.0, 0.0, 0.0, 0.0, 0.0, 1.695415893874356E9, 0.0, 2023-09-22 15:51:33.874
158.0, -36654.044586902215, -16105.482412038138, -85280.95755350085, -80114.82120929018, -27037.25123849526, -54677.66430111698, -167204.83955202575, -72276.556167192, 1059.919722070661, -187500.02235174447, -83996.17928220979, -78115.45766776297, -59638.52222425011, -59859.111590279535, -81553.13361324473, -82886.37046651488, -0.006, 0.924, 0.406, 192.0, 127.5, 104.0, 14.0, 112.0, 6.0, 88.0, 0.0, 0.0, 0.0, 1.69541589387436E9, 0.0, 2023-09-22 15:51:33.874
160.0, -36649.86481068907, -16099.559199757481, -85281.20342268985, -80118.03986049174, -27047.331875244603, -54675.63029237155, -167318.07348943633, -72273.89630960183, 1140.5201125764981, -187500.02235174447, -84003.91298579134, -78129.15928711406, -59643.81958768602, -59868.70048865086, -81573.04901755441, -82900.94380389975, -0.006, 0.924, 0.406, 192.0, 0.0, 0.0, 0.0, 0.0, 0.0, 0.0, 0.0, 0.0, 0.0, 1.695415893874363E9, 0.0, 2023-09-22 15:51:33.874
162.0, -36669.44493883192, -16125.911906470288, -85297.90017579797, -80136.30123571173, -27051.288134013193, -54695.6574554035, -167237.3166367193, -72293.07410634447, 1056.656367380186, -187500.02235174447, -84007.578671882, -78136.37890057312, -59639.14807309486, -59880.54691321217, -81576.08885480033, -82905.23533883516, -0.006, 0.924, 0.406, 192.0, 0.0, 0.0, 0.0, 0.0, 0.0, 0.0, 0.0, 0.0, 0.0, 1.695415893874366E9, 0.0, 2023-09-22 15:51:33.874
164.0, -36675.47990983485, -16127.051845437509, -85306.99733579128, -80145.89013408305, -27068.566032477145, -54705.87220261958, -167320.75569877098, -72308.07212687399, 1120.336487333356, -187500.02235174447, -84025.32595697952, -78154.75203451539, -59665.6348902744, -59898.76358494325, -81590.1033985738, -82921.21683612072, -0.006, 0.924, 0.406, 192.0, 0.0, 0.0, 0.0, 0.0, 0.0, 0.0, 0.0, 0.0, 0.0, 1.695415893874369E9, 0.0, 2023-09-22 15:51:33.874
166.0, -36696.73641881185, -16155.103284728919, -85320.92247258693, -80153.95911383141, -27082.334707061615, -54726.301697051735, -167240.5799914098, -72320.90202819134, 1038.6855648381193, -187500.02235174447, -84029.4833814482, -78162.53044158584, -59668.71943100923, -59916.19794561839, -81600.1616835787, -82928.5705600465, -0.006, 0.924, 0.406, 192.0, 0.0, 0.0, 0.0, 0.0, 0.0, 0.0, 0.0, 0.0, 0.0, 1.695415893934712E9, 0.0, 2023-09-22 15:51:33.934
168.0, -36679.32440988116, -16137.825386264967, -85303.26459446724, -80144.03493929327, -27071.896442400986, -54713.53885096775, -167304.1260008962, -72304.71936520569, 1101.9857051355489, -187500.02235174447, -84034.31135825055, -78165.65968580959, -59682.443402104785, -59928.603163791086, -81609.57176799438, -82940.1264119299, -0.008, 0.922, 0.41000000000000003, 192.0, 127.5, 96.0, 14.0, 104.0, 6.0, 104.0, 0.0, 0.0, 0.0, 1.695415893934728E9, 0.0, 2023-09-22 15:51:33.934
170.0, -36689.427398374966, -16151.638764338348, -85312.85349283856, -80155.7696051323, -27074.913927902453, -54721.92075513849, -167241.7646338659, -72310.4190600418, 1058.5786174033424, -187500.02235174447, -84021.88378833339, -78154.3497031152, -59672.76509675564, -59925.876250967536, -81589.9022328737, -82927.60943503493, -0.008, 0.922, 0.41000000000000003, 192.0, 0.0, 0.0, 0.0, 0.0, 0.0, 0.0, 0.0, 0.0, 0.0, 1.695415893934732E9, 0.0, 2023-09-22 15:51:33.934
172.0, -36662.18062188395, -16114.71368249818, -85296.06733275263, -80134.37898568857, -27061.12290157353, -54700.44072871694, -167304.2824631074, -72288.80492315351, 1098.722350445074, -187500.02235174447, -84027.98581456969, -78158.88710723963, -59678.308329380554, -59931.307724870174, -81603.26857605799, -82934.00203394915, -0.008, 0.922, 0.41000000000000003, 192.0, 0.0, 0.0, 0.0, 0.0, 0.0, 0.0, 0.0, 0.0, 0.0, 1.695415893934735E9, 0.0, 2023-09-22 15:51:33.934
174.0, -36672.909459222494, -16126.403644848306, -85295.39678041897, -80133.44021242145, -27057.54662246068, -54698.898458349526, -167298.42630606014, -72291.84476039944, 1070.1568210311916, -187500.02235174447, -84003.75652358014, -78137.56354302926, -59660.3822303274, -59909.69358798189, -81581.58738393633, -82906.2188155912, -0.008, 0.922, 0.41000000000000003, 192.0, 0.0, 0.0, 0.0, 0.0, 0.0, 0.0, 0.0, 0.0, 0.0, 1.695415893934738E9, 0.0, 2023-09-22 15:51:33.934
176.0, -36687.460444862896, -16145.536738102048, -85317.390896963, -80162.20690753542, -27081.6418029835, -54728.44746451944, -167324.30962613938, -72327.7193102502, 1090.563963718887, -187500.02235174447, -84018.28515747609, -78157.5460025723, -59667.24421587518, -59925.652733522984, -81591.9585933636, -82923.04967916604, -0.008, 0.922, 0.41000000000000003, 192.0, 0.0, 0.0, 0.0, 0.0, 0.0, 0.0, 0.0, 0.0, 0.0, 1.695415893934741E9, 0.0, 2023-09-22 15:51:33.934
178.0, -36693.942450754934, -16155.326802173473, -85311.6912021269, -80162.676294169, -27075.807997680666, -54720.11026383761, -167306.4952858085, -72319.09153689045, 1057.4833819250325, -187500.02235174447, -84034.62428267293, -78176.92496501506, -59689.998291730684, -59942.662411053476, -81613.30450931842, -82948.37420563391, -0.012, 0.926, 0.40800000000000003, 192.0, 127.5, 80.0, 14.0, 120.0, 6.0, 96.0, 0.0, 0.0, 0.0, 1.695415893934744E9, 0.0, 2023-09-22 15:51:33.934
180.0, -36678.229174402855, -16141.781645033558, -85311.26651898224, -80165.91729711501, -27076.67971571442, -54716.2657637913, -167304.37187008525, -72323.2713131036, 1073.5319344439429, -187500.02235174447, -84022.71080287824, -78171.06880796776, -59678.91182648085, -59935.97923946133, -81606.80015168192, -82946.51901084412, -0.012, 0.926, 0.40800000000000003, 192.0, 0.0, 0.0, 0.0, 0.0, 0.0, 0.0, 0.0, 0.0, 0.0, 1.695415893934748E9, 0.0, 2023-09-22 15:51:33.934
182.0, -36655.56450552517, -16118.871106966866, -85274.83317552009, -80125.6171018621, -27029.87516282501, -54674.8032778267, -167341.72163507005, -72274.83508286894, 1094.5202224874763, -187500.02235174447, -83987.23858442767, -78139.86577270816, -59659.331698338, -59901.9375326559, -81580.44744496912, -82921.57446403199, -0.012, 0.926, 0.40800000000000003, 192.0, 0.0, 0.0, 0.0, 0.0, 0.0, 0.0, 0.0, 0.0, 0.0, 1.695415893994952E9, 0.0, 2023-09-22 15:51:33.994
184.0, -36649.46247928888, -16112.590266774925, -85277.40362613245, -80127.24877920732, -27043.01798856473, -54675.83145807165, -167327.81885001884, -72273.96336483519, 1093.6038009648087, -187500.02235174447, -83977.73909303416, -78137.04945290678, -59649.38517205539, -59890.15816332796, -81562.99073254952, -82906.4199812913, -0.012, 0.926, 0.40800000000000003, 192.0, 0.0, 0.0, 0.0, 0.0, 0.0, 0.0, 0.0, 0.0, 0.0, 1.695415893994964E9, 0.0, 2023-09-22 15:51:33.994
186.0, -36648.41194729948, -16108.81282196198, -85261.28801838018, -80109.83677027664, -27022.163810987928, -54661.3028241757, -167384.8157983799, -72257.51248091609, 1135.55802530742, -187500.02235174447, -83961.24350562615, -78124.0407376338, -59629.49211949016, -59869.9298345959, -81550.38434867673, -82891.17609157278, -0.012, 0.926, 0.40800000000000003, 192.0, 0.0, 0.0, 0.0, 0.0, 0.0, 0.0, 0.0, 0.0, 0.0, 1.695415893994967E9, 0.0, 2023-09-22 15:51:33.994
188.0, -36666.695674263916, -16126.71656927068, -85296.11203624154, -80141.71035786992, -27067.604907465568, -54695.880972848056, -167335.66431232265, -72301.29954830403, 1092.3073997864008, -187500.02235174447, -83977.89555524536, -78137.83176396272, -59643.081980118994, -59874.51194220924, -81563.59422964981, -82904.78830394606, -0.018000000000000002, 0.916, 0.40800000000000003, 192.0, 127.5, 56.0, 14.0, 80.0, 6.0, 96.0, 0.0, 0.0, 0.0, 1.69541589399497E9, 0.0, 2023-09-22 15:51:33.994
190.0, -36653.08346189064, -16114.937199942733, -85271.79333827416, -80120.49855238183, -27045.722549643822, -54677.44078367243, -167409.38036553626, -72269.49301594413, 1116.3578768203113, -187500.02235174447, -83981.80711052503, -78135.08249939472, -59655.62130875842, -59885.866628392534, -81570.83619485333, -82910.35388831543, -0.018000000000000002, 0.916, 0.40800000000000003, 192.0, 0.0, 0.0, 0.0, 0.0, 0.0, 0.0, 0.0, 0.0, 0.0, 1.695415893994974E9, 0.0, 2023-09-22 15:51:33.994
192.0, -36645.64033098702, -16110.533906285038, -85274.72141679781, -80126.13119198456, -27052.31631425814, -54685.755632609806, -167355.6020683768, -72281.49590271663, 1066.3570244737894, -187500.02235174447, -83971.03356969757, -78110.80850491626, -59639.103369605946, -59862.30788973664, -81555.1005667568, -82896.9651933867, -0.018000000000000002, 0.916, 0.40800000000000003, 192.0, 0.0, 0.0, 0.0, 0.0, 0.0, 0.0, 0.0, 0.0, 0.0, 1.695415893994977E9, 0.0, 2023-09-22 15:51:33.994
194.0, -36650.96004616738, -16116.300656354506, -85267.09947193855, -80118.7104128254, -27038.12295652902, -54672.188123725435, -167448.9653049666, -72268.55424267701, 1124.2480426130346, -187500.02235174447, -83971.3688458644, -78109.10977233766, -59638.74574169466, -59859.06688679062, -81553.91592430067, -82895.35586778593, -0.018000000000000002, 0.916, 0.40800000000000003, 192.0, 0.0, 0.0, 0.0, 0.0, 0.0, 0.0, 0.0, 0.0, 0.0, 1.69541589399498E9, 0.0, 2023-09-22 15:51:33.994
196.0, -36685.33702913964, -16149.135368959352, -85296.380257175, -80145.8677823386, -27065.21327080885, -54694.18224026945, -167371.27064123997, -72295.97983312367, 1048.6544428651862, -187500.02235174447, -83982.9246977478, -78125.24773183439, -59650.74862846716, -59865.90652059395, -81561.001427293, -82900.94380389975, -0.018000000000000002, 0.916, 0.40800000000000003, 192.0, 0.0, 0.0, 0.0, 0.0, 0.0, 0.0, 0.0, 0.0, 0.0, 1.695415894055253E9, 0.0, 2023-09-22 15:51:34.055
198.0, -36719.13286675607, -16183.177075764785, -85312.04883003817, -80166.36433200412, -27077.953765148373, -54712.533022467265, -167452.54158407947, -72308.92149316329, 1111.1499203622247, -187500.02235174447, -84010.46204691673, -78155.66845603805, -59671.51339906614, -59879.42932598941, -81583.21906128158, -82926.80477223454, -0.024, 0.914, 0.40800000000000003, 192.0, 127.5, 32.0, 14.0, 72.0, 6.0, 96.0, 0.0, 0.0, 0.0, 1.695415894055268E9, 0.0, 2023-09-22 15:51:34.055
200.0, -36718.79759058924, -16187.647424655846, -85305.56682414614, -80158.1165383001, -27065.615602209047, -54708.55441195422, -167369.61661215028, -72306.08282161747, 1022.368791385745, -187500.02235174447, -84019.93918656578, -78168.0513224663, -59674.24031188969, -59891.34280578409, -81584.40370373771, -82935.320786872, -0.024, 0.914, 0.40800000000000003, 192.0, 0.0, 0.0, 0.0, 0.0, 0.0, 0.0, 0.0, 0.0, 0.0, 1.695415894055271E9, 0.0, 2023-09-22 15:51:34.055
202.0, -36730.08522153917, -16195.11290730392, -85305.07508576813, -80159.41293947851, -27060.586459706603, -54700.999522328326, -167477.01674425803, -72295.13046683437, 1107.305420315912, -187500.02235174447, -84024.87892209041, -78169.7500550449, -59671.602806043964, -59887.11832608203, -81590.0586950849, -82940.64050205237, -0.024, 0.914, 0.40800000000000003, 192.0, 0.0, 0.0, 0.0, 0.0, 0.0, 0.0, 0.0, 0.0, 0.0, 1.695415894055275E9, 0.0, 2023-09-22 15:51:34.055
204.0, -36766.65267546805, -16236.620096757424, -85319.55901617516, -80177.65196295404, -27067.202576065374, -54711.750711411325, -167386.89451061422, -72301.32190004848, 1005.7837969999072, -187500.02235174447, -84031.69620414928, -78179.94245051652, -59671.04401243258, -59895.723747697324, -81585.63304968274, -82932.83974323748, -0.024, 0.914, 0.40800000000000003, 192.0, 0.0, 0.0, 0.0, 0.0, 0.0, 0.0, 0.0, 0.0, 0.0, 1.695415894055278E9, 0.0, 2023-09-22 15:51:34.055
206.0, -36775.50396627235, -16235.323695579016, -85319.58136791961, -80178.34486703217, -27072.54464299019, -54710.6107724441, -167494.80873284445, -72300.69605120373, 1070.8944285982168, -187500.02235174447, -84038.20056178576, -78194.04640126781, -59671.06636417704, -59905.4914600243, -81595.60192770981, -82937.1759816618, -0.024, 0.914, 0.40800000000000003, 192.0, 0.0, 0.0, 0.0, 0.0, 0.0, 0.0, 0.0, 0.0, 0.0, 1.695415894055281E9, 0.0, 2023-09-22 15:51:34.055
208.0, -36788.75855073435, -16257.966012712242, -85317.72617312982, -80171.68404718448, -27069.616564466545, -54707.30271426472, -167416.68938597315, -72300.00314712562, 976.5924187412762, -187500.02235174447, -84036.56888444054, -78194.87341581266, -59671.08871592149, -59902.026939633724, -81590.32691601836, -82928.70467051324, -0.016, 0.924, 0.4, 192.0, 127.5, 64.0, 14.0, 112.0, 6.0, 64.0, 0.0, 0.0, 0.0, 1.695415894055284E9, 0.0, 2023-09-22 15:51:34.055
210.0, -36793.13949264759, -16253.652126032368, -85321.14599003148, -80167.59367794916, -27079.272518071237, -54704.86637411909, -167508.46564870665, -72292.80588541101, 1054.6670621236638, -187500.02235174447, -84039.340500753, -78197.17564549156, -59685.77381202863, -59904.128003612524, -81601.94982313512, -82928.05646992403, -0.016, 0.924, 0.4, 192.0, 0.0, 0.0, 0.0, 0.0, 0.0, 0.0, 0.0, 0.0, 0.0, 1.695415894055287E9, 0.0, 2023-09-22 15:51:34.055
212.0, -36835.65251060158, -16299.674367865846, -85358.74162420532, -80206.44100981248, -27107.480419573836, -54743.490188537864, -167405.3123480454, -72336.3247318655, 974.6701687181197, -187500.02235174447, -84055.05377710507, -78209.93849157554, -59700.23539069121, -59919.304838097676, -81609.99645113903, -82940.1264119299, -0.016, 0.924, 0.4, 192.0, 0.0, 0.0, 0.0, 0.0, 0.0, 0.0, 0.0, 0.0, 0.0, 1.695415894114737E9, 0.0, 2023-09-22 15:51:34.114
214.0, -36800.984954951404, -16257.876605734422, -85332.54537970369, -80174.29920128574, -27089.01787865375, -54716.55633646922, -167481.7329623381, -72311.64840598684, 1032.4717798795439, -187500.02235174447, -84082.36760882946, -78234.65952094311, -59730.00791430568, -59940.78486451923, -81646.83212600138, -82974.70456060226, -0.016, 0.924, 0.4, 192.0, 0.0, 0.0, 0.0, 0.0, 0.0, 0.0, 0.0, 0.0, 0.0, 1.695415894114748E9, 0.0, 2023-09-22 15:51:34.114
216.0, -36766.40680627904, -16230.629829243402, -85297.29667869768, -80147.03007305028, -27041.810994364143, -54678.603074384104, -167436.82830772738, -72269.64947815532, 1017.0267244609266, -187500.02235174447, -84019.29098597658, -78172.9016510131, -59654.86134944694, -59878.64701493347, -81577.49701470102, -82910.59975750445, -0.016, 0.924, 0.4, 192.0, 0.0, 0.0, 0.0, 0.0, 0.0, 0.0, 0.0, 0.0, 0.0, 1.695415894114752E9, 0.0, 2023-09-22 15:51:34.114
218.0, -36720.809247590216, -16178.170285006796, -85270.60869581804, -80120.3644419151, -27023.25904646624, -54654.55259735019, -167528.5375152275, -72254.33853320344, 1099.370551034278, -187500.02235174447, -84007.10928524844, -78154.81908974875, -59636.68938120477, -59868.20875027285, -81565.22590699505, -82902.6648882228, -0.014, 0.928, 0.388, 192.0, 127.5, 72.0, 14.5, 0.0, 6.0, 16.0, 0.0, 0.0, 0.0, 1.695415894114755E9, 0.0, 2023-09-22 15:51:34.114
220.0, -36742.13281180058, -16199.315035261518, -85295.24031820778, -80142.64913113703, -27041.29690424167, -54681.66526337448, -167481.55414838245, -72264.15094901931, 1064.9712163175602, -187500.02235174447, -83995.24050894268, -78137.83176396272, -59633.20250906974, -59868.678136906405, -81555.48054641254, -82891.73488518417, -0.014, 0.928, 0.388, 192.0, 0.0, 0.0, 0.0, 0.0, 0.0, 0.0, 0.0, 0.0, 0.0, 1.695415894114758E9, 0.0, 2023-09-22 15:51:34.114
222.0, -36697.384619401055, -16150.185900948753, -85262.33855036958, -80108.8085900317, -27010.742069571268, -54647.98118448033, -167532.31496004044, -72230.69038756972, 1102.2539260690126, -187500.02235174447, -84000.60492761194, -78141.00571167537, -59648.535805766085, -59896.34959654207, -81565.38236920624, -82899.2674230656, -0.014, 0.928, 0.388, 192.0, 0.0, 0.0, 0.0, 0.0, 0.0, 0.0, 0.0, 0.0, 0.0, 1.695415894114762E9, 0.0, 2023-09-22 15:51:34.114
224.0, -36705.31948868269, -16160.668869098292, -85265.6242568045, -80112.51897961128, -27009.266854437217, -54656.83247528464, -167512.4889627086, -72236.18891670572, 1098.1859085781466, -187500.02235174447, -83963.99277019415, -78108.26040604836, -59618.58446819597, -59861.346764725065, -81523.87517975274, -82859.21309700169, -0.014, 0.928, 0.388, 192.0, 0.0, 0.0, 0.0, 0.0, 0.0, 0.0, 0.0, 0.0, 0.0, 1.695415894114765E9, 0.0, 2023-09-22 15:51:34.114
226.0, -36701.296174680734, -16157.427866152271, -85287.23839369278, -80132.38968043205, -27036.603037906058, -54678.71483310638, -167532.58318097392, -72260.7087803732, 1100.108158601303, -187500.02235174447, -83990.77016005162, -78138.39055757411, -59639.68451496179, -59912.018169405244, -81552.91009580018, -82889.45500724972, -0.014, 0.928, 0.388, 192.0, 0.0, 0.0, 0.0, 0.0, 0.0, 0.0, 0.0, 0.0, 0.0, 1.695415894174409E9, 0.0, 2023-09-22 15:51:34.174
228.0, -36705.632413105064, -16168.089648257454, -85291.52992862821, -80137.15060200103, -27032.266799481728, -54677.68665286144, -167541.32271305594, -72263.12276877437, 1085.0654345828814, -187500.02235174447, -83985.94218324927, -78136.28949359531, -59642.70200046325, -59923.17168988845, -81554.76529058997, -82891.10903633942, -0.004, 0.936, 0.39, 192.0, 127.5, 112.0, 14.5, 32.0, 6.0, 24.0, 0.0, 0.0, 0.0, 1.695415894174422E9, 0.0, 2023-09-22 15:51:34.174
230.0, -36709.5663201292, -16171.598872136936, -85313.54639691667, -80147.52181142829, -27064.185090563908, -54692.57291466867, -167517.07107032195, -72277.33847824794, 1081.5115072144874, -187500.02235174447, -84012.2278347287, -78159.66941829555, -59669.97112869873, -59951.55840534668, -81582.66026767019, -82911.35971681592, -0.004, 0.936, 0.39, 192.0, 0.0, 0.0, 0.0, 0.0, 0.0, 0.0, 0.0, 0.0, 0.0, 1.695415894174426E9, 0.0, 2023-09-22 15:51:34.174
232.0, -36707.867587550594, -16170.727154103179, -85302.52698690021, -80140.6151223916, -27054.864413126044, -54682.805202341704, -167532.4490705072, -72273.02459156807, 1077.912876357183, -187500.02235174447, -83994.50290137564, -78138.32350234075, -59662.55034953956, -59938.70615228488, -81570.8585465978, -82896.40639977533, -0.004, 0.936, 0.39, 192.0, 0.0, 0.0, 0.0, 0.0, 0.0, 0.0, 0.0, 0.0, 0.0, 1.695415894174429E9, 0.0, 2023-09-22 15:51:34.174
234.0, -36712.78497133076, -16173.431715182272, -85318.86611209705, -80156.75308188834, -27080.88184367202, -54702.944124095935, -167479.94482278166, -72293.1188098334, 1052.3424807003119, -187500.02235174447, -84016.20644524175, -78158.01538920586, -59680.94583522628, -59974.3571846911, -81589.2540322845, -82918.04288840806, -0.004, 0.936, 0.39, 192.0, 0.0, 0.0, 0.0, 0.0, 0.0, 0.0, 0.0, 0.0, 0.0, 1.695415894174432E9, 0.0, 2023-09-22 15:51:34.174
236.0, -36687.818072774186, -16146.900194513822, -85287.21604194833, -80123.67250009449, -27044.940238587886, -54676.97139703887, -167534.0360443635, -72269.69418164423, 1084.1043095713032, -187500.02235174447, -83993.7205903197, -78135.90951393956, -59655.3307360805, -59957.615728094075, -81573.92073558817, -82902.77664694509, -0.004, 0.936, 0.39, 192.0, 0.0, 0.0, 0.0, 0.0, 0.0, 0.0, 0.0, 0.0, 0.0, 1.695415894174435E9, 0.0, 2023-09-22 15:51:34.174
238.0, -36701.51969212529, -16159.730095831168, -85305.47741716831, -80145.55485791623, -27064.475663241825, -54696.506821692805, -167465.10326446334, -72286.99443185264, 1062.8254488498508, -187500.02235174447, -83999.53204387809, -78145.81133673327, -59653.90022443536, -59964.321251430665, -81577.49701470102, -82909.07983888147, -0.004, 0.9380000000000001, 0.384, 192.0, 127.5, 112.0, 14.5, 40.0, 6.0, 0.0, 0.0, 0.0, 0.0, 1.695415894174439E9, 0.0, 2023-09-22 15:51:34.174
240.0, -36671.34483711062, -16141.28990665554, -85272.35213188555, -80116.45288663541, -27034.189049504883, -54666.3543184226, -167552.40917830577, -72262.22869899616, 1108.9370976611492, -187500.02235174447, -83978.9237354903, -78131.1932958595, -59642.03144812959, -59941.455416852885, -81567.23756399604, -82899.0662573655, -0.004, 0.9380000000000001, 0.384, 192.0, 0.0, 0.0, 0.0, 0.0, 0.0, 0.0, 0.0, 0.0, 0.0, 1.695415894174442E9, 0.0, 2023-09-22 15:51:34.174
242.0, -36696.199976944925, -16166.457970912215, -85302.86226306704, -80151.5674771747, -27047.10835780005, -54694.405757714005, -167482.55997688294, -72279.1042660599, 1065.0606232953814, -187500.02235174447, -83978.4767006012, -78135.57423777274, -59636.68938120477, -59957.36985890506, -81558.78860459193, -82900.18384458826, -0.004, 0.9380000000000001, 0.384, 192.0, 0.0, 0.0, 0.0, 0.0, 0.0, 0.0, 0.0, 0.0, 0.0, 1.695415894234691E9, 0.0, 2023-09-22 15:51:34.234
244.0, -36682.23013666036, -16145.335572401951, -85288.35598091556, -80133.37315718808, -27035.59720940557, -54667.516609134276, -167583.56751007648, -72253.3550564474, 1107.7971586939286, -187500.02235174447, -83988.73615130618, -78145.72192975544, -59651.48623603419, -59968.34456543262, -81570.29975298641, -82907.93989991426, -0.004, 0.9380000000000001, 0.384, 192.0, 0.0, 0.0, 0.0, 0.0, 0.0, 0.0, 0.0, 0.0, 0.0, 1.695415894234702E9, 0.0, 2023-09-22 15:51:34.234
246.0, -36711.10859049661, -16172.492941915149, -85321.74948713178, -80170.924087873, -27072.052904612174, -54702.184164784456, -167485.68922110667, -72287.57557720847, 1049.8167335768621, -187500.02235174447, -83993.38531415288, -78151.2428106359, -59652.380305812396, -59972.54669339022, -81573.54075593242, -82906.0176498911, -0.004, 0.9380000000000001, 0.384, 192.0, 0.0, 0.0, 0.0, 0.0, 0.0, 0.0, 0.0, 0.0, 0.0, 1.695415894234706E9, 0.0, 2023-09-22 15:51:34.234
248.0, -36692.80251178772, -16158.545453375036, -85303.39870493398, -80153.10974754211, -27061.145253317984, -54686.71675762138, -167578.13603617385, -72276.310298003, 1103.5056237585097, -187500.02235174447, -83999.59909911145, -78160.92111598505, -59662.84092221748, -59979.34162370463, -81587.71176191709, -82920.50158029814, -0.004, 0.9380000000000001, 0.384, 192.0, 127.5, 112.0, 14.5, 40.0, 6.0, 0.0, 0.0, 0.0, 0.0, 1.69541589423471E9, 0.0, 2023-09-22 15:51:34.234
250.0, -36707.55466312822, -16177.745601862145, -85320.65425165347, -80175.17091931951, -27079.853663427075, -54709.515536965795, -167473.59692735635, -72303.89235066084, 1031.5553583568762, -187500.02235174447, -83997.58744211048, -78166.7996247768, -59673.703870022764, -59993.132650033556, -81592.89736663073, -82925.73188850068, -0.004, 0.9380000000000001, 0.384, 192.0, 0.0, 0.0, 0.0, 0.0, 0.0, 0.0, 0.0, 0.0, 0.0, 1.695415894234713E9, 0.0, 2023-09-22 15:51:34.234
252.0, -36684.39825587252, -16152.935165516756, -85289.58532686059, -80149.39935796254, -27053.813881136644, -54688.77311811127, -167581.37703911986, -72274.32099274648, 1106.7466267045293, -187500.02235174447, -83987.70797106123, -78165.43616836502, -59669.501742065164, -59994.89843784553, -81587.48824447254, -82927.072993168, -0.004, 0.9380000000000001, 0.384, 192.0, 0.0, 0.0, 0.0, 0.0, 0.0, 0.0, 0.0, 0.0, 0.0, 1.695415894234716E9, 0.0, 2023-09-22 15:51:34.234
254.0, -36687.08046520716, -16155.684430084757, -85288.33362917109, -80150.82986960768, -27051.802224135667, -54695.07631004767, -167491.07599152043, -72289.94486212074, 1054.1306202567364, -187500.02235174447, -83964.819784739, -78142.88325820962, -59639.19277658377, -59978.648719626515, -81562.81191859388, -82904.09539986795, -0.004, 0.9380000000000001, 0.384, 192.0, 0.0, 0.0, 0.0, 0.0, 0.0, 0.0, 0.0, 0.0, 0.0, 1.69541589423472E9, 0.0, 2023-09-22 15:51:34.234
0.0, -36666.405101586, -16127.454176837706, -85263.45613759234, -80121.6161396046, -27038.949971073864, -54670.75761208029, -167588.84252176792, -72274.54451019103, 1132.3617258503111, -187500.02235174447, -83962.49520331564, -78142.65974076507, -59649.13930286638, -59958.643908339014, -81566.34349421781, -82911.51617902711, -0.004, 0.9380000000000001, 0.384, 192.0, 0.0, 0.0, 0.0, 0.0, 0.0, 0.0, 0.0, 0.0, 0.0, 1.695415894295069E9, 0.0, 2023-09-22 15:51:34.295
2.0, -36661.57712478365, -16125.062540180987, -85255.14128865497, -80106.32754639717, -27017.29113069667, -54659.09000147462, -167498.96615731315, -72258.58536464995, 1077.041158323426, -187500.02235174447, -83934.39906053533, -78115.34590904068, -59618.405654240334, -59934.615783049565, -81540.10254622728, -82881.47543447917, -0.006, 0.9460000000000001, 0.384, 192.0, 127.5, 104.0, 14.5, 72.0, 6.0, 0.0, 0.0, 0.0, 0.0, 1.695415894295083E9, 0.0, 2023-09-22 15:51:34.295
4.0, -36643.6510257305, -16098.41926079026, -85240.43384080337, -80088.33439211064, -27002.24840667825, -54642.21443441087, -167583.58986182092, -72236.12186147236, 1155.8981127617494, -187500.02235174447, -83938.62354023737, -78116.86582766364, -59618.38330249588, -59926.703265512384, -81536.63802583671, -82876.80391988801, -0.006, 0.9460000000000001, 0.384, 192.0, 0.0, 0.0, 0.0, 0.0, 0.0, 0.0, 0.0, 0.0, 0.0, 1.695415894295087E9, 0.0, 2023-09-22 15:51:34.295
6.0, -36659.52076429377, -16120.9051157123, -85257.10824216703, -80111.78137204425, -27012.284339938684, -54658.77707705225, -167510.90198885227, -72252.63980062483, 1088.2617340399902, -187500.02235174447, -83920.27275803957, -78096.6822024205, -59597.931456319275, -59905.37970130202, -81511.02292669093, -82854.54158241053, -0.006, 0.9460000000000001, 0.384, 192.0, 0.0, 0.0, 0.0, 0.0, 0.0, 0.0, 0.0, 0.0, 0.0, 1.69541589429509E9, 0.0, 2023-09-22 15:51:34.295
8.0, -36651.83176420114, -16112.120880141365, -85261.71270152483, -80116.58699710215, -27021.24738946526, -54657.77124855176, -167594.13988520383, -72245.42018716577, 1128.3831153372664, -187500.02235174447, -83943.563275762, -78120.64327247659, -59621.53489846407, -59929.072550424644, -81543.2988456844, -82886.32576302598, -0.006, 0.9460000000000001, 0.384, 192.0, 0.0, 0.0, 0.0, 0.0, 0.0, 0.0, 0.0, 0.0, 0.0, 1.695415894295093E9, 0.0, 2023-09-22 15:51:34.295
10.0, -36671.18837489944, -16141.28990665554, -85284.7349983138, -80135.85420082262, -27039.55346817416, -54681.39704244102, -167530.5044687396, -72266.34141997593, 1066.0664517958703, -187500.02235174447, -83940.4116797938, -78116.79877243028, -59619.590296696464, -59929.296067869196, -81542.06949973936, -82881.02839959007, -0.006, 0.9460000000000001, 0.384, 192.0, 0.0, 0.0, 0.0, 0.0, 0.0, 0.0, 0.0, 0.0, 0.0, 1.695415894295096E9, 0.0, 2023-09-22 15:51:34.295
12.0, -36667.12035740857, -16130.605772805904, -85291.59698386157, -80143.58790440415, -27051.22107877983, -54687.432013443955, -167575.83380649495, -72287.55322546401, 1105.6066877373084, -187500.02235174447, -83966.63027603988, -78141.56450528676, -59651.35212556746, -59959.560329861684, -81577.72053214557, -82915.8747691959, -0.002, 0.9440000000000001, 0.378, 192.0, 127.5, 120.0, 14.5, 64.0, 5.5, 104.0, 0.0, 0.0, 0.0, 1.695415894295099E9, 0.0, 2023-09-22 15:51:34.295
14.0, -36670.98720919934, -16136.551336831015, -85286.12080647002, -80139.92221831348, -27042.280380997705, -54676.72552784986, -167543.82610843494, -72268.24131825463, 1061.6184546492643, -187500.02235174447, -83954.82855496748, -78126.25356033488, -59633.80600617004, -59947.87036751156, -81560.5543924039, -82901.72611495569, -0.002, 0.9440000000000001, 0.378, 192.0, 0.0, 0.0, 0.0, 0.0, 0.0, 0.0, 0.0, 0.0, 0.0, 1.695415894295103E9, 0.0, 2023-09-22 15:51:34.295
16.0, -36670.11549116558, -16130.538717572537, -85292.02166700622, -80144.83960209365, -27053.813881136644, -54681.844077330126, -167574.6491640388, -72277.11496080339, 1089.9828183630489, -187500.02235174447, -83974.69925578825, -78139.57520003023, -59646.70296272075, -59952.83245478064, -81575.55241293341, -82915.62890000688, -0.002, 0.9440000000000001, 0.378, 192.0, 0.0, 0.0, 0.0, 0.0, 0.0, 0.0, 0.0, 0.0, 0.0, 1.695415894355384E9, 0.0, 2023-09-22 15:51:34.355
18.0, -36670.741340010325, -16130.695179783725, -85281.06931222312, -80126.80174431822, -27037.184183261896, -54671.02583301376, -167561.61809702136, -72261.53579491805, 1059.137411014725, -187500.02235174447, -83970.67594178629, -78132.2438278489, -59651.329773823, -59947.333925644634, -81561.33670345983, -82902.48607426716, -0.002, 0.9440000000000001, 0.378, 192.0, 0.0, 0.0, 0.0, 0.0, 0.0, 0.0, 0.0, 0.0, 0.0, 1.695415894355397E9, 0.0, 2023-09-22 15:51:34.355
20.0, -36648.38959555502, -16106.577647516448, -85277.69419881036, -80115.64822383503, -27033.987883804784, -54664.94615852191, -167590.13892294632, -72256.46194892669, 1078.2481525240128, -187500.02235174447, -83960.08121491448, -78117.11169685265, -59638.388113783374, -59930.72657951434, -81550.56316263237, -82886.43752174826, -0.002, 0.9440000000000001, 0.378, 192.0, 0.0, 0.0, 0.0, 0.0, 0.0, 0.0, 0.0, 0.0, 0.0, 1.695415894355401E9, 0.0, 2023-09-22 15:51:34.355
22.0, -36675.4575580904, -16143.703895056713, -85277.96241974384, -80123.87366579457, -27036.133651272496, -54672.70221384791, -167601.42655389628, -72264.75444611961, 1071.4755739540547, -187500.02235174447, -83960.95293294823, -78120.75503119887, -59646.077113876, -59933.58760280462, -81550.8984387992, -82886.30341128152, -0.002, 0.9480000000000001, 0.376, 192.0, 127.5, 120.0, 14.5, 80.0, 5.5, 96.0, 0.0, 0.0, 0.0, 1.695415894355404E9, 0.0, 2023-09-22 15:51:34.355
24.0, -36689.896785008525, -16160.11007548691, -85299.39774267648, -80155.43432896546, -27062.709875429857, -54708.80028114322, -167578.2030914072, -72300.22666457017, 1060.724384871052, -187500.02235174447, -83975.3698081219, -78144.67139776604, -59645.58537549798, -59962.73427757434, -81565.94116281762, -82905.32474581299, -0.002, 0.9480000000000001, 0.376, 192.0, 0.0, 0.0, 0.0, 0.0, 0.0, 0.0, 0.0, 0.0, 0.0, 1.695415894355407E9, 0.0, 2023-09-22 15:51:34.355
26.0, -36693.674229821474, -16169.497808158138, -85294.72622808532, -80144.48197418237, -27050.617581679533, -54710.856641633116, -167604.73461207564, -72289.65428944281, 1063.9653878170716, -187500.02235174447, -83977.31440988951, -78153.20976414798, -59639.21512832822, -59973.127838746055, -81570.14329077522, -82916.5229697851, -0.002, 0.9480000000000001, 0.376, 192.0, 0.0, 0.0, 0.0, 0.0, 0.0, 0.0, 0.0, 0.0, 0.0, 1.69541589435541E9, 0.0, 2023-09-22 15:51:34.355
28.0, -36703.397238659534, -16178.572616406993, -85319.76018187526, -80162.49748021335, -27083.005259395275, -54727.93337439697, -167549.48109978213, -72313.74946996564, 1039.9596142720718, -187500.02235174447, -83995.24050894268, -78173.7510173024, -59655.263680847136, -59993.132650033556, -81585.49893921602, -82935.05256593855, -0.002, 0.9480000000000001, 0.376, 192.0, 0.0, 0.0, 0.0, 0.0, 0.0, 0.0, 0.0, 0.0, 0.0, 1.695415894355414E9, 0.0, 2023-09-22 15:51:34.355
30.0, -36712.85202656413, -16189.05558455653, -85328.74558314629, -80169.20300354993, -27083.094666373097, -54738.57280475769, -167592.84348402542, -72326.57937128299, 1062.6689866386637, -187500.02235174447, -83998.68267758879, -78177.86373828218, -59660.561044283044, -59994.227885511864, -81593.0538288419, -82941.1322404304, -0.002, 0.9480000000000001, 0.376, 192.0, 0.0, 0.0, 0.0, 0.0, 0.0, 0.0, 0.0, 0.0, 0.0, 1.695415894415666E9, 0.0, 2023-09-22 15:51:34.415
32.0, -36700.64797409153, -16177.119753017398, -85322.37533597653, -80159.3682359896, -27084.30166057368, -54735.667077978505, -167519.6415209343, -72316.99047291165, 1018.7031052950747, -187500.02235174447, -84015.22296848572, -78191.81122682229, -59679.649434047875, -60006.744862406835, -81602.41920976869, -82957.91840051633, -0.002, 0.9480000000000001, 0.376, 192.0, 0.0, 0.0, 14.5, 80.0, 5.5, 72.0, 0.0, 0.0, 0.0, 1.695415894415681E9, 0.0, 2023-09-22 15:51:34.415
34.0, -36670.69663652142, -16150.901156771322, -85293.25101295127, -80124.29834893922, -27050.885802612996, -54701.53596419525, -167610.03197551155, -72285.34040276294, 1067.49696344101, -187500.02235174447, -83988.71379956172, -78158.68594153953, -59664.76317224064, -59977.97816729286, -81573.96543907707, -82926.31303385652, -0.002, 0.9480000000000001, 0.376, 192.0, 0.0, 0.0, 0.0, 0.0, 0.0, 0.0, 0.0, 0.0, 0.0, 1.695415894415685E9, 0.0, 2023-09-22 15:51:34.415
36.0, -36665.17575564096, -16147.213118936197, -85300.44827466588, -80123.20311346091, -27054.395026492482, -54696.28330424825, -167535.62301821983, -72282.16645505029, 1053.013033033971, -187500.02235174447, -83975.86154649992, -78144.85021172168, -59633.51543349212, -59961.594338607116, -81554.80999407888, -82904.67654522379, -0.002, 0.9480000000000001, 0.376, 192.0, 0.0, 0.0, 0.0, 0.0, 0.0, 0.0, 0.0, 0.0, 0.0, 1.695415894415688E9, 0.0, 2023-09-22 15:51:34.415
38.0, -36626.37312726655, -16105.750632971602, -85259.25400963474, -80074.45395880389, -27007.85869453653, -54646.81889376866, -167651.18153705378, -72218.5980938194, 1118.5483477769315, -187500.02235174447, -83971.81588075351, -78127.72877546893, -59626.04995084405, -59945.18815817692, -81543.9470462736, -82884.76114091411, -0.002, 0.9480000000000001, 0.376, 192.0, 0.0, 0.0, 0.0, 0.0, 0.0, 0.0, 0.0, 0.0, 0.0, 1.695415894415692E9, 0.0, 2023-09-22 15:51:34.415
40.0, -36619.13116206302, -16099.894475924311, -85256.72826251129, -80071.14590062451, -27000.43791537737, -54645.76836177926, -167581.3993908643, -72224.56600958896, 1074.4036524776998, -187500.02235174447, -83951.29697934353, -78099.29735652177, -59599.13845051986, -59915.303875840174, -81511.87229298023, -82853.02166378757, -0.002, 0.9480000000000001, 0.376, 192.0, 0.0, 0.0, 0.0, 0.0, 0.0, 0.0, 0.0, 0.0, 0.0, 1.695415894415695E9, 0.0, 2023-09-22 15:51:34.415
42.0, -36587.14581574748, -16063.215263273152, -85214.93050037987, -80035.71838566284, -26969.01136267321, -54612.66542824095, -167718.9743779867, -72192.98299467361, 1139.044897442448, -187500.02235174447, -83926.39713602033, -78070.79888234126, -59566.326089659466, -59885.66546269244, -81493.54386252689, -82831.94396876621, -0.006, 0.9380000000000001, 0.37, 192.0, 127.5, 104.0, 14.5, 40.0, 5.5, 72.0, 0.0, 0.0, 0.0, 1.6954158944157E9, 0.0, 2023-09-22 15:51:34.415
44.0, -36654.22340085786, -16134.00323796311, -85286.14315821447, -80106.41695337498, -27040.022854807718, -54698.741996138335, -167606.54510337653, -72273.33751599044, 1079.946885102616, -187500.02235174447, -83941.39515654984, -78089.41788547253, -59577.12198223138, -59908.08426238111, -81501.6351940197, -82847.47843116266, -0.006, 0.9380000000000001, 0.37, 192.0, 0.0, 0.0, 0.0, 0.0, 0.0, 0.0, 0.0, 0.0, 0.0, 1.695415894415703E9, 0.0, 2023-09-22 15:51:34.415
46.0, -36653.418738057466, -16123.654380280303, -85277.76125404374, -80100.94077598343, -27025.58362788959, -54691.36592046809, -167693.64985151886, -72264.66503914178, 1112.7368942185515, -187500.02235174447, -83991.21719494072, -78141.40804307557, -59632.30843929153, -59954.754704803796, -81552.95479928909, -82904.94476615725, -0.006, 0.9380000000000001, 0.37, 192.0, 0.0, 0.0, 0.0, 0.0, 0.0, 0.0, 0.0, 0.0, 0.0, 1.695415894474516E9, 0.0, 2023-09-22 15:51:34.474
48.0, -36670.316656865674, -16151.05761898251, -85301.65526886645, -80121.54908437122, -27045.25316301026, -54707.03449333126, -167583.0981234429, -72279.93128060475, 1040.1831317166248, -187500.02235174447, -83998.9285467778, -78147.35360710068, -59633.20250906974, -59968.81395206618, -81551.7478050885, -82902.17314984479, -0.006, 0.9380000000000001, 0.37, 192.0, 0.0, 0.0, 0.0, 0.0, 0.0, 0.0, 0.0, 0.0, 0.0, 1.695415894474529E9, 0.0, 2023-09-22 15:51:34.474
50.0, -36646.57910425414, -16118.446423822215, -85284.66794308042, -80097.76682827077, -27034.099642527064, -54679.07246101767, -167688.75481948315, -72260.9099460733, 1106.0313708819594, -187500.02235174447, -83990.50193911814, -78133.40611856057, -59628.329828778486, -59941.85774825308, -81555.56995339035, -82900.63087947738, -0.006, 0.9380000000000001, 0.37, 192.0, 0.0, 0.0, 0.0, 0.0, 0.0, 0.0, 0.0, 0.0, 0.0, 1.695415894474532E9, 0.0, 2023-09-22 15:51:34.474
52.0, -36667.679151019955, -16145.29086891304, -85305.1868444904, -80125.90767454001, -27052.472776469323, -54702.944124095935, -167591.8153037805, -72277.09260905893, 1037.2327014485243, -187500.02235174447, -83988.49028211717, -78130.96977841495, -59626.22876479969, -59942.03656220873, -81553.15596498919, -82895.64644046384, -0.01, 0.936, 0.372, 192.0, 127.5, 88.0, 14.5, 32.0, 5.5, 80.0, 0.0, 0.0, 0.0, 1.695415894474535E9, 0.0, 2023-09-22 15:51:34.474
54.0, -36636.16319133797, -16113.171412130763, -85275.7272452983, -80101.87954925056, -27036.379520461505, -54677.17256273897, -167689.02304041662, -72261.69225712922, 1093.3132282868896, -187500.02235174447, -83990.18901469577, -78137.96587442946, -59632.733122436184, -59954.3523734036, -81561.22494473755, -82906.33057431347, -0.01, 0.936, 0.372, 192.0, 0.0, 0.0, 0.0, 0.0, 0.0, 0.0, 0.0, 0.0, 0.0, 1.695415894474539E9, 0.0, 2023-09-22 15:51:34.474
56.0, -36665.287514363234, -16151.459950382705, -85297.07316125312, -80130.24391296435, -27048.471814211825, -54701.53596419525, -167603.6617283418, -72281.02651608307, 1053.7506406009961, -187500.02235174447, -83979.5719360795, -78134.23313310542, -59630.14032007937, -59952.31836465817, -81550.16083123218, -82897.814559676, -0.01, 0.936, 0.372, 192.0, 0.0, 0.0, 0.0, 0.0, 0.0, 0.0, 0.0, 0.0, 0.0, 1.695415894474542E9, 0.0, 2023-09-22 15:51:34.474
58.0, -36665.04164517423, -16143.346267145429, -85302.54933864468, -80134.44604092193, -27064.60977370856, -54703.94995259643, -167664.30201104903, -72290.83893189895, 1106.4337022821549, -187500.02235174447, -83994.14527346435, -78151.04164493582, -59643.081980118994, -59967.96458577688, -81569.13746227472, -82913.19255986126, -0.01, 0.936, 0.372, 192.0, 0.0, 0.0, 0.0, 0.0, 0.0, 0.0, 0.0, 0.0, 0.0, 1.695415894474545E9, 0.0, 2023-09-22 15:51:34.474
60.0, -36675.88224123505, -16155.550319618025, -85302.7281526003, -80137.12825025657, -27056.943125360387, -54706.520403208786, -167611.0154522676, -72277.11496080339, 1040.9654427725604, -187500.02235174447, -83994.7264188202, -78150.88518272463, -59642.6796487188, -59974.78186783575, -81566.47760468455, -82911.31501332701, -0.01, 0.936, 0.372, 192.0, 0.0, 0.0, 0.0, 0.0, 0.0, 0.0, 0.0, 0.0, 0.0, 1.695415894534623E9, 0.0, 2023-09-22 15:51:34.534
62.0, -36665.846307974614, -16138.29477289853, -85297.25197520877, -80126.10884024011, -27059.558279461657, -54701.42420547298, -167661.44098775878, -72278.99250733764, 1091.5697922193758, -187500.02235174447, -83996.55926186554, -78156.58487756073, -59639.77392193961, -59978.87223707107, -81570.03153205295, -82910.89033018236, -0.008, 0.932, 0.364, 192.0, 127.5, 96.0, 14.5, 16.0, 5.5, 48.0, 0.0, 0.0, 0.0, 1.695415894534636E9, 0.0, 2023-09-22 15:51:34.534
64.0, -36682.632468060554, -16161.62999410987, -85304.29277471219, -80136.21182873391, -27057.8371951386, -54716.04224634675, -167614.54702789153, -72287.35205976391, 1070.0674140533704, -187500.02235174447, -83993.60883159743, -78155.33317987123, -59638.99161088367, -59973.08313525715, -81569.67390414166, -82910.64446099335, -0.008, 0.932, 0.364, 192.0, 0.0, 0.0, 0.0, 0.0, 0.0, 0.0, 0.0, 0.0, 0.0, 1.69541589453464E9, 0.0, 2023-09-22 15:51:34.534
66.0, -36667.09800566411, -16139.702932799213, -85293.34041992908, -80125.10301173961, -27052.87510786952, -54704.77696714127, -167626.43815594175, -72283.41815273979, 1104.4667487700879, -187500.02235174447, -84003.1753782243, -78170.17473818955, -59645.78654119808, -59976.413545180985, -81577.25114551201, -82918.69108899726, -0.008, 0.932, 0.364, 192.0, 0.0, 0.0, 0.0, 0.0, 0.0, 0.0, 0.0, 0.0, 0.0, 1.695415894534644E9, 0.0, 2023-09-22 15:51:34.534
68.0, -36647.78609845473, -16128.392950104828, -85262.33855036958, -80091.3071741232, -27014.474810895303, -54661.705155575895, -167622.88422857336, -72243.58734412043, 1087.5241264729652, -187500.02235174447, -83977.51557558961, -78142.27976110933, -59615.611686183416, -59949.52439660125, -81547.74684283101, -82889.00797236062, -0.008, 0.932, 0.364, 192.0, 0.0, 0.0, 0.0, 0.0, 0.0, 0.0, 0.0, 0.0, 0.0, 1.695415894534647E9, 0.0, 2023-09-22 15:51:34.534
70.0, -36631.62578721354, -16106.287074838528, -85257.57762880059, -80088.46850257737, -27017.201723718852, -54657.3018619182, -167631.64611239985, -72246.2024982217, 1112.3569145628112, -187500.02235174447, -83956.10260440143, -78120.06212712075, -59601.84301159895, -59925.07158816714, -81527.36205188776, -82868.33260873945, -0.008, 0.932, 0.364, 192.0, 0.0, 0.0, 0.0, 0.0, 0.0, 0.0, 0.0, 0.0, 0.0, 1.695415894534651E9, 0.0, 2023-09-22 15:51:34.534
72.0, -36634.84443841511, -16110.71272024068, -85253.84488747656, -80089.47433107786, -27009.602130604046, -54657.83830378512, -167659.9657726247, -72251.23164072415, 1109.786463950451, -187500.02235174447, -83939.53996176005, -78110.56263572724, -59590.35421494892, -59915.035654906715, -81522.84699950779, -82863.83990810394, -0.01, 0.9440000000000001, 0.362, 192.0, 127.5, 88.0, 14.5, 64.0, 5.5, 40.0, 0.0, 0.0, 0.0, 1.695415894534654E9, 0.0, 2023-09-22 15:51:34.534
74.0, -36610.391629981, -16089.053879863488, -85237.70692797983, -80074.54336578172, -27003.030717734186, -54639.21930065386, -167653.059083588, -72234.55723936048, 1096.1966033216243, -187500.02235174447, -83941.6633774833, -78115.16709508504, -59592.812906839004, -59922.9928759328, -81527.16088618766, -82872.08770180795, -0.01, 0.9440000000000001, 0.362, 192.0, 0.0, 0.0, 0.0, 0.0, 0.0, 0.0, 0.0, 0.0, 0.0, 1.695415894534658E9, 0.0, 2023-09-22 15:51:34.534
76.0, -36627.73658367832, -16106.264723094075, -85247.49699205125, -80078.67843850594, -27009.557427115134, -54648.58468158063, -167697.82962773202, -72232.99261724862, 1119.0177344104927, -187500.02235174447, -83927.47001975418, -78100.10201932216, -59585.615645124395, -59900.79759368868, -81510.59824354628, -82853.04401553202, -0.01, 0.9440000000000001, 0.362, 192.0, 0.0, 0.0, 0.0, 0.0, 0.0, 0.0, 0.0, 0.0, 0.0, 1.695415894594864E9, 0.0, 2023-09-22 15:51:34.594
78.0, -36661.44301431692, -16138.920621743277, -85288.02070474872, -80117.68223258045, -27057.077235827117, -54692.84113560214, -167625.32056871898, -72282.03234458355, 1085.199545049613, -187500.02235174447, -83965.24446788365, -78134.56840927225, -59620.84199438596, -59939.06378019617, -81547.47862189754, -82886.43752174826, -0.01, 0.9440000000000001, 0.362, 192.0, 0.0, 0.0, 0.0, 0.0, 0.0, 0.0, 0.0, 0.0, 0.0, 1.695415894594875E9, 0.0, 2023-09-22 15:51:34.594
80.0, -36652.97170316836, -16125.308409369996, -85269.04407370616, -80101.34310738363, -27042.682712397902, -54677.01610052778, -167687.99486017166, -72267.30254498751, 1101.628077224264, -187500.02235174447, -83970.65359004184, -78136.93769418451, -59636.46586376022, -59947.17746343344, -81562.23077323804, -82895.311164297, -0.01, 0.9440000000000001, 0.362, 192.0, 0.0, 0.0, 0.0, 0.0, 0.0, 0.0, 0.0, 0.0, 0.0, 1.695415894594879E9, 0.0, 2023-09-22 15:51:34.594
82.0, -36655.385691569536, -16131.276325139563, -85282.36571340152, -80119.40331690351, -27052.785700891698, -54691.65649314601, -167611.4624871567, -72277.13731254784, 1064.5688849173648, -187500.02235174447, -83967.6137527959, -78136.8929906956, -59643.10433186345, -59955.022925737256, -81558.83330808084, -82892.5171962401, -0.006, 0.9460000000000001, 0.366, 192.0, 127.5, 104.0, 14.5, 72.0, 5.5, 56.0, 0.0, 0.0, 0.0, 1.695415894594883E9, 0.0, 2023-09-22 15:51:34.594
84.0, -36641.25938907378, -16122.626200035358, -85270.0275504622, -80108.09333420913, -27039.173488518416, -54680.2571034738, -167696.48852306468, -72270.16356827779, 1104.556155747909, -187500.02235174447, -83968.64193304085, -78141.00571167537, -59627.05577934453, -59969.37274567757, -81564.1530232612, -82899.98267888818, -0.006, 0.9460000000000001, 0.366, 192.0, 0.0, 0.0, 0.0, 0.0, 0.0, 0.0, 0.0, 0.0, 0.0, 1.695415894594887E9, 0.0, 2023-09-22 15:51:34.594
86.0, -36657.598514270605, -16139.81469152149, -85291.12759722801, -80128.14284898555, -27054.663247425946, -54695.053958303215, -167613.1165162464, -72279.75246664912, 1063.2948354834123, -187500.02235174447, -83957.2648951131, -78130.5450952703, -59618.31624726251, -59959.91795777297, -81548.68561609813, -82882.79418740203, -0.006, 0.9460000000000001, 0.366, 192.0, 0.0, 0.0, 0.0, 0.0, 0.0, 0.0, 0.0, 0.0, 0.0, 1.69541589459489E9, 0.0, 2023-09-22 15:51:34.594
88.0, -36674.250563889815, -16146.743732302635, -85293.04984725117, -80127.98638677436, -27056.96547710484, -54695.0092548143, -167684.5303397811, -72278.36665849289, 1101.784539435451, -187500.02235174447, -83996.84983454345, -78169.28066841135, -59652.35795406794, -59988.863466842595, -81579.39691297972, -82917.21587386321, -0.006, 0.9460000000000001, 0.366, 192.0, 0.0, 0.0, 0.0, 0.0, 0.0, 0.0, 0.0, 0.0, 0.0, 1.695415894594893E9, 0.0, 2023-09-22 15:51:34.594
90.0, -36670.16019465449, -16144.016819479088, -85290.52410012772, -80121.6161396046, -27045.431976965905, -54690.091871034136, -167588.55194909, -72274.70097240222, 1044.20644571858, -187500.02235174447, -83983.30467740353, -78156.8978019831, -59636.3764567824, -59975.96651029188, -81559.5038604145, -82894.55120498553, -0.006, 0.9460000000000001, 0.366, 192.0, 0.0, 0.0, 0.0, 0.0, 0.0, 0.0, 0.0, 0.0, 0.0, 1.695415894655358E9, 0.0, 2023-09-22 15:51:34.655
92.0, -36669.26612487628, -16139.14413918783, -85292.33459142859, -80122.4655058939, -27046.527212444213, -54689.19780125592, -167681.26698509062, -72276.35500149192, 1101.9857051355489, -187500.02235174447, -83982.47766285868, -78157.5012990834, -59636.599974226956, -59965.59530086462, -81561.31435171538, -82894.8641294079, -0.006, 0.9500000000000001, 0.362, 192.0, 127.5, 104.0, 14.5, 88.0, 5.5, 40.0, 0.0, 0.0, 0.0, 1.695415894655369E9, 0.0, 2023-09-22 15:51:34.655
94.0, -36679.436168603446, -16161.205310965219, -85307.04203928019, -80144.32551197118, -27062.665171940946, -54703.12293805158, -167558.26533535306, -72293.25292030012, 1011.7517127694742, -187500.02235174447, -83999.42028515581, -78173.05811322428, -59652.00032615666, -59988.30467323121, -81571.752616376, -82909.48217028167, -0.006, 0.9500000000000001, 0.362, 192.0, 0.0, 0.0, 0.0, 0.0, 0.0, 0.0, 0.0, 0.0, 0.0, 1.695415894655373E9, 0.0, 2023-09-22 15:51:34.655
96.0, -36653.418738057466, -16136.216060664185, -85277.89536451046, -80110.97670924387, -27036.20070650586, -54678.67012961747, -167644.63247592837, -72270.52119618907, 1072.4590507100881, -187500.02235174447, -83983.48349135918, -78162.82101426375, -59641.964392896225, -59960.65556533999, -81562.94602906061, -82900.38501028836, -0.006, 0.9500000000000001, 0.362, 192.0, 0.0, 0.0, 0.0, 0.0, 0.0, 0.0, 0.0, 0.0, 0.0, 1.695415894655377E9, 0.0, 2023-09-22 15:51:34.655
98.0, -36676.86571799108, -16160.9147382873, -85300.53768164369, -80130.7132995979, -27058.619506194533, -54698.94316183843, -167530.61622746184, -72282.38997249484, 1016.1550064271697, -187500.02235174447, -83978.25318315663, -78160.11645318466, -59645.2277475867, -59960.38734440653, -81553.4465376671, -82890.34907702793, -0.006, 0.9500000000000001, 0.362, 192.0, 0.0, 0.0, 0.0, 0.0, 0.0, 0.0, 0.0, 0.0, 0.0, 1.69541589465538E9, 0.0, 2023-09-22 15:51:34.655
100.0, -36649.82010720016, -16120.61454303438, -85274.40849237544, -80103.04183996223, -27041.274552497216, -54672.76926908127, -167622.12426926187, -72266.52023393157, 1083.590219448831, -187500.02235174447, -83978.54375583456, -78153.43328159253, -59634.32009629251, -59954.37472514805, -81559.03447378094, -82892.78541717357, -0.006, 0.9500000000000001, 0.362, 192.0, 0.0, 0.0, 0.0, 0.0, 0.0, 0.0, 0.0, 0.0, 0.0, 1.695415894655384E9, 0.0, 2023-09-22 15:51:34.655
102.0, -36671.724816766364, -16149.649459081826, -85296.82729206412, -80124.96890127289, -27054.842061381587, -54695.612751914596, -167518.3451197559, -72280.06539107149, 1044.787591074418, -187500.02235174447, -83979.30371514603, -78142.92796169853, -59635.683552704286, -59943.73529478733, -81549.91496204317, -82885.85637639242, -0.006, 0.9440000000000001, 0.364, 192.0, 127.5, 104.0, 14.5, 64.0, 5.5, 48.0, 0.0, 0.0, 0.0, 1.695415894655387E9, 0.0, 2023-09-22 15:51:34.655
104.0, -36652.81524095717, -16129.465833838683, -85282.07514072361, -80112.94366275593, -27046.50486069976, -54678.20074298391, -167582.22640540916, -72274.79037938004, 1096.2636585549901, -187500.02235174447, -83995.73224732069, -78158.8424037507, -59651.977974412206, -59949.9490797459, -81571.59615416481, -82906.77760920259, -0.006, 0.9440000000000001, 0.364, 192.0, 0.0, 0.0, 0.0, 0.0, 0.0, 0.0, 0.0, 0.0, 0.0, 1.695415894655391E9, 0.0, 2023-09-22 15:51:34.655
106.0, -36659.699578249405, -16142.452197367216, -85279.63880057797, -80117.63752909155, -27035.865430339032, -54680.74884185182, -167493.35586945486, -72275.21506252469, 1062.0878412828256, -187500.02235174447, -83973.20168890974, -78132.98143541592, -59639.304535306044, -59940.80721626368, -81550.16083123218, -82888.20330956022, -0.006, 0.9440000000000001, 0.364, 192.0, 0.0, 0.0, 0.0, 0.0, 0.0, 0.0, 0.0, 0.0, 0.0, 1.695415894717173E9, 0.0, 2023-09-22 15:51:34.717
108.0, -36639.4488977729, -16119.42990057825, -85263.56789631462, -80104.44999986292, -27033.49614542677, -54665.92963527795, -167552.67739923924, -72254.18207099225, 1118.4142373101995, -187500.02235174447, -83969.6701132858, -78137.11650814016, -59624.73119792119, -59938.90731798498, -81547.65743585318, -82886.83985314844, -0.006, 0.9440000000000001, 0.364, 192.0, 0.0, 0.0, 0.0, 0.0, 0.0, 0.0, 0.0, 0.0, 0.0, 1.695415894717183E9, 0.0, 2023-09-22 15:51:34.717
110.0, -36628.943577878905, -16113.976074931155, -85238.4668872913, -80082.79115948573, -27007.85869453653, -54648.67408855845, -167530.66093095078, -72232.56793410396, 1090.854536396806, -187500.02235174447, -83929.95106338873, -78108.8862548931, -59592.56703765, -59911.86170719406, -81512.69930752508, -82855.61446614438, -0.006, 0.9440000000000001, 0.364, 192.0, 0.0, 0.0, 0.0, 0.0, 0.0, 0.0, 0.0, 0.0, 0.0, 1.695415894717186E9, 0.0, 2023-09-22 15:51:34.717
112.0, -36610.05635381417, -16088.003347874088, -85225.23465457377, -80069.22365060136, -27014.318348684115, -54629.80921623817, -167590.34008864642, -72231.78562304802, 1125.6785542581742, -187500.02235174447, -83925.88304589785, -78108.50627523736, -59588.67783411477, -59907.10078562508, -81513.86159823676, -82857.76023361209, -0.01, 0.936, 0.368, 192.0, 127.5, 88.0, 14.5, 32.0, 5.5, 64.0, 0.0, 0.0, 0.0, 1.69541589471719E9, 0.0, 2023-09-22 15:51:34.717
114.0, -36650.66947348946, -16140.14996768832, -85258.60580904553, -80105.12055219657, -27019.682767353388, -54658.7994287967, -167553.25854459507, -72243.02855050904, 1096.3530655328113, -187500.02235174447, -83924.02785110807, -78110.74144968289, -59596.92562781878, -59905.71497746885, -81510.75470575747, -82850.98765504213, -0.01, 0.936, 0.368, 192.0, 0.0, 0.0, 0.0, 0.0, 0.0, 0.0, 0.0, 0.0, 0.0, 1.695415894717193E9, 0.0, 2023-09-22 15:51:34.717
116.0, -36659.76663348277, -16146.587270091448, -85270.94397198486, -80113.99419474533, -27041.676883897413, -54673.037490014736, -167555.0019806626, -72257.89246057182, 1087.7252921730628, -187500.02235174447, -83954.15800263382, -78142.68209250952, -59622.89835487585, -59932.84999523759, -81531.9441595011, -82876.08866406545, -0.01, 0.936, 0.368, 192.0, 0.0, 0.0, 0.0, 0.0, 0.0, 0.0, 0.0, 0.0, 0.0, 1.695415894717196E9, 0.0, 2023-09-22 15:51:34.717
118.0, -36670.38371209904, -16161.182959220763, -85270.16166092893, -80119.82800004816, -27031.819764592623, -54670.60114986911, -167552.85621319487, -72264.44152169723, 1052.5659981448648, -187500.02235174447, -83963.65749402733, -78154.88614498213, -59624.99941885465, -59938.84026275161, -81532.7935257904, -82880.62606818987, -0.01, 0.936, 0.368, 192.0, 0.0, 0.0, 0.0, 0.0, 0.0, 0.0, 0.0, 0.0, 0.0, 1.695415894717199E9, 0.0, 2023-09-22 15:51:34.717
120.0, -36680.799625015214, -16170.86126456991, -85291.66403909493, -80137.39647119003, -27059.62533469502, -54685.71092912089, -167524.1342215698, -72277.42788522577, 1046.7768963309404, -187500.02235174447, -83980.1754331798, -78171.18056669005, -59638.65633471684, -59950.01613497927, -81545.15404047418, -82893.6124317184, -0.01, 0.936, 0.368, 192.0, 0.0, 0.0, 0.0, 0.0, 0.0, 0.0, 0.0, 0.0, 0.0, 1.69541589477498E9, 0.0, 2023-09-22 15:51:34.774
122.0, -36679.59263081463, -16170.995375036644, -85283.50565236875, -80125.55004662872, -27048.695331656378, -54672.41164116999, -167549.7046172267, -72268.33072523246, 1049.883788810228, -187500.02235174447, -83975.88389824437, -78161.72577878545, -59648.245233088164, -59934.23580339382, -81550.25023820999, -82889.99144911664, -0.02, 0.932, 0.366, 192.0, 127.5, 48.0, 14.5, 16.0, 5.5, 56.0, 0.0, 0.0, 0.0, 1.695415894774999E9, 0.0, 2023-09-22 15:51:34.774
124.0, -36662.78411898424, -16153.158682961308, -85272.28507665219, -80118.73276456985, -27041.431014708403, -54666.33196667814, -167529.0963088389, -72263.07806528546, 1047.8497800647951, -187500.02235174447, -83965.31152311701, -78155.37788336014, -59638.34341029447, -59929.69839926939, -81543.07532823984, -82886.25870779261, -0.02, 0.932, 0.366, 192.0, 0.0, 0.0, 0.0, 0.0, 0.0, 0.0, 0.0, 0.0, 0.0, 1.695415894775003E9, 0.0, 2023-09-22 15:51:34.775
126.0, -36679.16794766998, -16169.296642458039, -85279.23646917779, -80127.80757281871, -27049.41058747895, -54669.21534171288, -167583.16517867628, -72267.92839383226, 1075.0518530669037, -187500.02235174447, -83966.58557255096, -78158.23890665041, -59635.66120095983, -59924.0434079222, -81549.02089226496, -82890.81846366149, -0.02, 0.932, 0.366, 192.0, 0.0, 0.0, 0.0, 0.0, 0.0, 0.0, 0.0, 0.0, 0.0, 1.695415894775006E9, 0.0, 2023-09-22 15:51:34.775
128.0, -36685.67230530647, -16176.158628005818, -85280.48816686728, -80127.42759316297, -27047.35422698906, -54666.48842888933, -167515.55115169898, -72262.04988504051, 1032.3600211572673, -187500.02235174447, -83981.44948261375, -78168.94539224451, -59640.71269520673, -59932.49236732631, -81546.29397944141, -82890.84081540594, -0.02, 0.932, 0.366, 192.0, 0.0, 0.0, 0.0, 0.0, 0.0, 0.0, 0.0, 0.0, 0.0, 1.695415894775009E9, 0.0, 2023-09-22 15:51:34.775
130.0, -36680.84432850413, -16173.588177393458, -85259.16460265692, -80109.68030806545, -27022.856715066042, -54646.64007981302, -167590.02716422407, -72230.01983523606, 1067.787536118929, -187500.02235174447, -83969.60305805244, -78155.60140080469, -59629.53682297908, -59915.795614218194, -81525.99859547599, -82867.95262908371, -0.02, 0.932, 0.366, 192.0, 0.0, 0.0, 0.0, 0.0, 0.0, 0.0, 0.0, 0.0, 0.0, 1.695415894775013E9, 0.0, 2023-09-22 15:51:34.775
132.0, -36727.42536394899, -16220.884468660888, -85304.96332704584, -80163.34684650265, -27077.75259944828, -54699.07727230517, -167482.5376251385, -72285.2062922962, 1021.2959076518903, -187500.02235174447, -83994.27938393109, -78186.64797385312, -59658.97407042672, -59947.17746343344, -81544.75170907399, -82891.80194041753, -0.01, 0.9420000000000001, 0.378, 192.0, 127.5, 88.0, 14.5, 56.0, 5.5, 104.0, 0.0, 0.0, 0.0, 1.695415894775016E9, 0.0, 2023-09-22 15:51:34.775
134.0, -36711.13094224107, -16203.07012833001, -85274.0732162086, -80135.25070372233, -27044.895535098975, -54669.99765276881, -167571.74343725963, -72258.8088820945, 1049.4591056655772, -187500.02235174447, -84005.52231139211, -78204.2611484839, -59662.34918383947, -59969.37274567757, -81563.750691861, -82910.46564703771, -0.01, 0.9420000000000001, 0.378, 192.0, 0.0, 0.0, 0.0, 0.0, 0.0, 0.0, 0.0, 0.0, 0.0, 1.695415894775019E9, 0.0, 2023-09-22 15:51:34.775
136.0, -36727.581826160174, -16225.7795006966, -85288.24422219327, -80154.42850046499, -27059.357113761558, -54686.3591297101, -167477.41907565822, -72274.52215844658, 1002.8333667318067, -187500.02235174447, -83989.71962806222, -78192.61588962268, -59642.880814418895, -59961.527283373754, -81545.26579919647, -82895.22175731919, -0.01, 0.9420000000000001, 0.378, 192.0, 0.0, 0.0, 0.0, 0.0, 0.0, 0.0, 0.0, 0.0, 0.0, 1.69541589483483E9, 0.0, 2023-09-22 15:51:34.834
138.0, -36744.770317646304, -16236.910669435343, -85288.62420184902, -80152.43919520846, -27062.10637832956, -54687.29790297722, -167559.42762606475, -72269.56007117749, 1057.3939749472113, -187500.02235174447, -84003.7788753246, -78211.97250032098, -59660.42693381631, -59984.88485632955, -81566.18703200664, -82909.63863249286, -0.01, 0.9420000000000001, 0.378, 192.0, 0.0, 0.0, 0.0, 0.0, 0.0, 0.0, 0.0, 0.0, 0.0, 1.695415894834839E9, 0.0, 2023-09-22 15:51:34.834
140.0, -36757.89079164157, -16252.64629753188, -85279.05765522215, -80144.43727069347, -27053.277439269717, -54689.28720823374, -167458.5318515935, -72269.47066419967, 993.5797445273096, -187500.02235174447, -83995.53108162059, -78204.12703801716, -59645.384209797885, -59976.01121378079, -81552.50776439998, -82899.73680969916, -0.01, 0.9420000000000001, 0.378, 192.0, 0.0, 0.0, 0.0, 0.0, 0.0, 0.0, 0.0, 0.0, 0.0, 1.695415894834843E9, 0.0, 2023-09-22 15:51:34.834
142.0, -36770.005437136344, -16260.380001113415, -85269.625219062, -80130.28861645325, -27046.147232788473, -54673.41746967047, -167542.88733516782, -72262.04988504051, 1057.7292511140408, -187500.02235174447, -84001.25312820115, -78207.47979968546, -59652.89439593487, -59989.77988836526, -81555.18997373462, -82898.70862945421, -0.006, 0.9480000000000001, 0.376, 192.0, 127.5, 104.0, 14.5, 80.0, 5.5, 96.0, 0.0, 0.0, 0.0, 1.695415894834846E9, 0.0, 2023-09-22 15:51:34.834
144.0, -36777.98500990689, -16277.41203038836, -85277.06834996562, -80134.9154275555, -27056.049055582174, -54669.595321368615, -167429.22871461257, -72258.56301290549, 990.115224136737, -187500.02235174447, -84000.69433458976, -78203.8588170837, -59644.80306444205, -59991.14334477703, -81549.24440970951, -82886.97396361518, -0.006, 0.9480000000000001, 0.376, 192.0, 0.0, 0.0, 0.0, 0.0, 0.0, 0.0, 0.0, 0.0, 0.0, 1.695415894834849E9, 0.0, 2023-09-22 15:51:34.834
146.0, -36732.767430873806, -16232.887355433388, -85226.77692494118, -80088.5579095552, -27008.752764314744, -54622.969582434846, -167533.7007681967, -72210.12678267084, 1055.2929109684123, -187500.02235174447, -83983.30467740353, -78185.39627616362, -59631.90610789134, -59976.704117858906, -81529.93250250012, -82867.32678023896, -0.006, 0.9480000000000001, 0.376, 192.0, 0.0, 0.0, 0.0, 0.0, 0.0, 0.0, 0.0, 0.0, 0.0, 1.695415894834853E9, 0.0, 2023-09-22 15:51:34.834
148.0, -36738.55653268773, -16248.399466085371, -85236.74580296825, -80102.95243298441, -27013.424278905903, -54635.08422792963, -167457.3248573929, -72213.3454338724, 1020.8712245072395, -187500.02235174447, -83937.4165460368, -78148.13591815662, -59601.55243892103, -59944.182329676434, -81483.75379845547, -82825.66312857428, -0.006, 0.9480000000000001, 0.376, 192.0, 0.0, 0.0, 0.0, 0.0, 0.0, 0.0, 0.0, 0.0, 0.0, 1.695415894834856E9, 0.0, 2023-09-22 15:51:34.834
150.0, -36736.92485534249, -16238.899974691865, -85252.66024502042, -80122.64431984954, -27041.29690424167, -54649.27758565874, -167530.68328269522, -72235.49601262761, 1081.1315275587474, -187500.02235174447, -83964.64097078335, -78177.59551734872, -59633.87306140341, -59983.6555103845, -81524.21045591956, -82865.69510289373, -0.006, 0.9480000000000001, 0.376, 192.0, 0.0, 0.0, 0.0, 0.0, 0.0, 0.0, 0.0, 0.0, 0.0, 1.69541589489493E9, 0.0, 2023-09-22 15:51:34.894
152.0, -36729.258206994324, -16243.12445439392, -85252.59318978706, -80123.91836928349, -27039.419357707426, -54651.60216708209, -167444.271438631, -72246.51542264408, 1017.4961110944881, -187500.02235174447, -83960.99763643714, -78178.78015980484, -59629.40271251235, -59985.80127785222, -81530.0889647113, -82872.22181227467, -0.006, 0.9480000000000001, 0.376, 192.0, 0.0, 0.0, 14.5, 56.0, 5.5, 120.0, 0.0, 0.0, 0.0, 1.695415894894951E9, 0.0, 2023-09-22 15:51:34.894
154.0, -36712.896730053035, -16216.481175003193, -85248.30165485165, -80118.53159886975, -27045.811956621645, -54649.52345484775, -167502.85536084836, -72249.97994303465, 1079.8351263803395, -187500.02235174447, -83961.9140579598, -78173.21457543547, -59631.1237968354, -59987.43295519745, -81535.40867989167, -82877.85445187741, -0.006, 0.9480000000000001, 0.376, 192.0, 0.0, 0.0, 0.0, 0.0, 0.0, 0.0, 0.0, 0.0, 0.0, 1.695415894894955E9, 0.0, 2023-09-22 15:51:34.894
156.0, -36700.82678804717, -16211.899067389855, -85235.78467795666, -80111.87077902208, -27032.646779137467, -54651.78098103774, -167451.781624768, -72249.1976319787, 1021.3182593963456, -187500.02235174447, -83944.4126420513, -78150.63931353562, -59611.141337292356, -59965.081210742144, -81518.71192678355, -82865.58334417145, -0.006, 0.9480000000000001, 0.376, 192.0, 0.0, 0.0, 0.0, 0.0, 0.0, 0.0, 0.0, 0.0, 0.0, 1.695415894894958E9, 0.0, 2023-09-22 15:51:34.894
158.0, -36697.3622676566, -16206.221724298208, -85252.83905897607, -80127.42759316297, -27048.717683400835, -54670.04235625772, -167486.53858739597, -72265.84968159792, 1073.621341421764, -187500.02235174447, -83956.90726720182, -78166.44199686551, -59624.910011876826, -59987.27649298627, -81541.44365089461, -82887.53275722657, -0.006, 0.9480000000000001, 0.376, 192.0, 0.0, 0.0, 0.0, 0.0, 0.0, 0.0, 0.0, 0.0, 0.0, 1.695415894894962E9, 0.0, 2023-09-22 15:51:34.894
160.0, -36708.426381161975, -16219.141032593374, -85266.36186437153, -80132.68025310997, -27057.34545676058, -54677.217266227875, -167435.8671827158, -72266.96726882068, 1043.3123759403677, -187500.02235174447, -83949.50883978711, -78161.9939997189, -59628.91097413433, -59984.63898714054, -81533.41937463515, -82880.38019900087, -0.006, 0.9480000000000001, 0.376, 192.0, 0.0, 0.0, 0.0, 0.0, 0.0, 0.0, 0.0, 0.0, 0.0, 1.695415894894965E9, 0.0, 2023-09-22 15:51:34.894
162.0, -36684.957049483906, -16190.463744457216, -85266.04893994915, -80126.01943326229, -27058.82067189463, -54666.28726318923, -167459.0682934604, -72255.6572861263, 1057.1481057582027, -187500.02235174447, -83966.74203476215, -78171.71700855697, -59645.20539584225, -59988.17056276448, -81551.43488066613, -82893.23245206267, -0.002, 0.9400000000000001, 0.384, 192.0, 127.5, 120.0, 14.5, 48.0, 6.0, 0.0, 0.0, 0.0, 0.0, 1.69541589489497E9, 0.0, 2023-09-22 15:51:34.894
164.0, -36693.51776761028, -16199.918532361811, -85269.66992255091, -80130.02039551978, -27049.723511901324, -54673.32806269266, -167437.49886006105, -72256.77487334906, 1032.6952973240968, -187500.02235174447, -83959.34360734744, -78157.16602291656, -59653.09556163497, -59968.41162066599, -81532.68176706812, -82879.64259143385, -0.002, 0.9400000000000001, 0.384, 192.0, 0.0, 0.0, 0.0, 0.0, 0.0, 0.0, 0.0, 0.0, 0.0, 1.695415894894974E9, 0.0, 2023-09-22 15:51:34.894
166.0, -36672.17185165547, -16176.695069872747, -85255.63302703298, -80121.50438088231, -27054.97617184832, -54665.77317306676, -167440.78456649598, -72254.807919837, 1033.589367102309, -187500.02235174447, -83968.8207469965, -78160.6975985405, -59654.01198315764, -59966.37761192055, -81539.9460840161, -82890.55024272803, -0.002, 0.9400000000000001, 0.384, 192.0, 0.0, 0.0, 0.0, 0.0, 0.0, 0.0, 0.0, 0.0, 0.0, 1.69541589495513E9, 0.0, 2023-09-22 15:51:34.955
168.0, -36683.03479946075, -16189.30145374554, -85260.41630034642, -80128.38871817455, -27054.05975032565, -54675.45147841591, -167449.65820904472, -72260.1052832729, 1039.8031520608845, -187500.02235174447, -83950.67113049878, -78138.5917232742, -59636.868195160416, -59953.72652455885, -81522.8917029967, -82875.50751870961, -0.002, 0.9400000000000001, 0.384, 192.0, 0.0, 0.0, 0.0, 0.0, 0.0, 0.0, 0.0, 0.0, 0.0, 1.69541589495514E9, 0.0, 2023-09-22 15:51:34.955
170.0, -36666.695674263916, -16173.923453560288, -85255.47656482179, -80125.75121232882, -27065.54854697568, -54677.88781856154, -167420.4668307861, -72267.74957987662, 1020.3794861292228, -187500.02235174447, -83963.43397658278, -78153.18741240352, -59655.28603259159, -59966.37761192055, -81546.33868293032, -82895.53468174157, -0.002, 0.9400000000000001, 0.384, 192.0, 0.0, 0.0, 0.0, 0.0, 0.0, 0.0, 0.0, 0.0, 0.0, 1.695415894955144E9, 0.0, 2023-09-22 15:51:34.955
172.0, -36675.39050285703, -16187.937997333765, -85259.49987882374, -80137.97761654588, -27070.17535807793, -54686.76146111029, -167449.4793950891, -72276.06442881399, 1048.3638701872671, -187500.02235174447, -83945.73139497417, -78143.95614194348, -59637.38228528289, -59967.56225437669, -81540.01313924947, -82891.51136773961, -0.012, 0.936, 0.38, 192.0, 127.5, 80.0, 14.5, 32.0, 5.5, 112.0, 0.0, 0.0, 0.0, 1.695415894955147E9, 0.0, 2023-09-22 15:51:34.955
174.0, -36649.79775545571, -16158.277232441573, -85242.73607048226, -80126.95820652941, -27058.0383608387, -54668.142457979025, -167407.25694981302, -72264.28505948605, 1030.6165850897532, -187500.02235174447, -83951.85577295492, -78154.193240904, -59643.59607024147, -59968.657489854995, -81550.65256961019, -82901.03321087756, -0.012, 0.936, 0.38, 192.0, 0.0, 0.0, 0.0, 0.0, 0.0, 0.0, 0.0, 0.0, 0.0, 1.695415894955151E9, 0.0, 2023-09-22 15:51:34.955
176.0, -36649.149554866504, -16157.740790574646, -85237.14813436844, -80113.99419474533, -27044.359093232048, -54659.179408452444, -167470.6241453438, -72249.01881802308, 1087.658236939697, -187500.02235174447, -83929.41462152179, -78131.55092377079, -59625.55821246603, -59940.85191975259, -81527.25029316549, -82875.2169460317, -0.012, 0.936, 0.38, 192.0, 0.0, 0.0, 0.0, 0.0, 0.0, 0.0, 0.0, 0.0, 0.0, 1.695415894955154E9, 0.0, 2023-09-22 15:51:34.955
178.0, -36620.58402545262, -16131.09751118392, -85216.115142836, -80094.27995613575, -27018.09579349706, -54633.25138488429, -167414.25304582753, -72225.88476251182, 1052.6777568671414, -187500.02235174447, -83928.07351685448, -78129.7404324699, -59617.89156411786, -59937.476806339844, -81519.06955469484, -82867.03620756105, -0.012, 0.936, 0.38, 192.0, 0.0, 0.0, 0.0, 0.0, 0.0, 0.0, 0.0, 0.0, 0.0, 1.695415894955158E9, 0.0, 2023-09-22 15:51:34.955
180.0, -36614.70551666088, -16120.14515640082, -85205.96745085329, -80082.65704901899, -26997.711002553824, -54624.86948071355, -167506.49869519458, -72209.1433059148, 1131.624118283286, -187500.02235174447, -83895.48467343864, -78094.62584193061, -59589.77306959309, -59895.1873058304, -81480.62455423172, -82828.81472454248, -0.012, 0.936, 0.38, 192.0, 0.0, 0.0, 0.0, 0.0, 0.0, 0.0, 0.0, 0.0, 0.0, 1.695415894955162E9, 0.0, 2023-09-22 15:51:34.955
182.0, -36612.939728848905, -16123.587325046938, -85212.33769802305, -80082.83586297464, -27013.02194750571, -54631.776169750236, -167421.45030754214, -72219.15688743078, 1064.3900709617224, -187500.02235174447, -83905.2523857656, -78106.42756300302, -59598.2667324861, -59910.43119554892, -81490.90635668115, -82839.07417524746, -0.008, 0.934, 0.374, 192.0, 127.5, 96.0, 14.5, 24.0, 5.5, 88.0, 0.0, 0.0, 0.0, 1.695415895015701E9, 0.0, 2023-09-22 15:51:35.015
184.0, -36633.45863025888, -16135.791377519534, -85230.9119976654, -80096.33631662563, -27035.954837316855, -54649.05406821419, -167497.89327357928, -72238.78171906254, 1122.169330378691, -187500.02235174447, -83902.41371421979, -78102.31484202325, -59605.955732578725, -59905.67027397994, -81502.90924345366, -82846.15967823978, -0.008, 0.934, 0.374, 192.0, 0.0, 0.0, 0.0, 0.0, 0.0, 0.0, 0.0, 0.0, 0.0, 1.69541589501571E9, 0.0, 2023-09-22 15:51:35.015
186.0, -36655.519802036266, -16163.284023199561, -85249.44159381886, -80120.34209017064, -27054.417378236936, -54678.98305403985, -167372.2094145071, -72272.35403923441, 1028.5155211109545, -187500.02235174447, -83937.03656638105, -78137.45178430698, -59641.13737835138, -59952.29601291371, -81532.5923600903, -82880.9166408678, -0.008, 0.934, 0.374, 192.0, 0.0, 0.0, 0.0, 0.0, 0.0, 0.0, 0.0, 0.0, 0.0, 1.695415895015714E9, 0.0, 2023-09-22 15:51:35.015
188.0, -36654.938656680424, -16157.450217896727, -85249.48629730777, -80115.89409302404, -27062.97809636332, -54676.83728657214, -167450.3287613784, -72280.28890851604, 1085.6465799387192, -187500.02235174447, -83935.69546171374, -78136.98239767342, -59633.62719221439, -59948.63032682304, -81534.62636883574, -82885.45404499222, -0.008, 0.934, 0.374, 192.0, 0.0, 0.0, 0.0, 0.0, 0.0, 0.0, 0.0, 0.0, 0.0, 1.695415895015717E9, 0.0, 2023-09-22 15:51:35.015
190.0, -36673.87058423407, -16174.169322749296, -85267.83707950558, -80129.05927050821, -27073.55047149068, -54688.34843496662, -167326.7906697739, -72279.86422537139, 1000.5758405418206, -187500.02235174447, -83958.02485442458, -78154.57322055975, -59647.86525343243, -59970.19976022241, -81550.67492135464, -82893.21010031822, -0.008, 0.934, 0.374, 192.0, 0.0, 0.0, 0.0, 0.0, 0.0, 0.0, 0.0, 0.0, 0.0, 1.695415895015721E9, 0.0, 2023-09-22 15:51:35.015
192.0, -36643.47221177485, -16145.894366013334, -85241.75259372624, -80101.49956959482, -27050.751692146267, -54658.17357995195, -167408.2180748246, -72254.51734715907, 1070.3579867312892, -187500.02235174447, -83957.84604046894, -78153.07565368124, -59638.45516901674, -59953.547710603205, -81547.85860155328, -82887.24218454864, -0.012, 0.9420000000000001, 0.372, 192.0, 127.5, 80.0, 14.5, 56.0, 5.5, 80.0, 0.0, 0.0, 0.0, 1.695415895015724E9, 0.0, 2023-09-22 15:51:35.015
194.0, -36642.086403618625, -16149.761217804102, -85244.16658212741, -80095.26343289178, -27045.901363599463, -54655.759591550785, -167309.2445503765, -72252.41628318028, 1013.4057418591669, -187500.02235174447, -83927.26885405408, -78123.57135100024, -59614.58350593848, -59928.96079170237, -81515.38151685972, -82855.14507951082, -0.012, 0.9420000000000001, 0.372, 192.0, 0.0, 0.0, 0.0, 0.0, 0.0, 0.0, 0.0, 0.0, 0.0, 1.695415895015728E9, 0.0, 2023-09-22 15:51:35.015
196.0, -36625.1437813215, -16127.767101260079, -85233.23657908876, -80086.07686592065, -27044.11322404304, -54646.08128620163, -167389.62142343778, -72244.52611738755, 1097.269487055479, -187500.02235174447, -83935.27077856909, -78133.31671158275, -59620.41731124131, -59932.447663837396, -81533.24056067951, -82870.6124866739, -0.012, 0.9420000000000001, 0.372, 192.0, 0.0, 0.0, 0.0, 0.0, 0.0, 0.0, 0.0, 0.0, 0.0, 1.6954158950768E9, 0.0, 2023-09-22 15:51:35.076
198.0, -36629.61413021256, -16137.557165331504, -85229.52618950918, -80080.31011585119, -27034.680787882902, -54647.154169935486, -167293.03953564639, -72241.53098363054, 1038.462047393566, -187500.02235174447, -83917.90347312731, -78127.95229291348, -59607.38624422387, -59933.00645744878, -81515.80620000437, -82854.38512019934, -0.012, 0.9420000000000001, 0.372, 192.0, 0.0, 0.0, 0.0, 0.0, 0.0, 0.0, 0.0, 0.0, 0.0, 1.695415895076814E9, 0.0, 2023-09-22 15:51:35.076
200.0, -36612.82797012663, -16117.23942962163, -85232.40956454392, -80078.14199663902, -27043.621485665022, -54651.26689091526, -167351.44464390812, -72240.05576849649, 1121.074094900381, -187500.02235174447, -83916.02592659307, -78125.24773183439, -59599.5184301756, -59928.37964634653, -81514.48744708151, -82857.67082663428, -0.012, 0.9420000000000001, 0.372, 192.0, 0.0, 0.0, 0.0, 0.0, 0.0, 0.0, 0.0, 0.0, 0.0, 1.695415895076817E9, 0.0, 2023-09-22 15:51:35.076
202.0, -36633.39157502551, -16142.072217711475, -85257.15294565594, -80099.53261608275, -27053.344494503082, -54683.58751339764, -167257.5226137069, -72269.31420198848, 1064.3006639839011, -187500.02235174447, -83915.64594693732, -78122.65492947758, -59609.263790758116, -59935.62161155005, -81506.82079873333, -82857.42495744527, -0.016, 0.9460000000000001, 0.37, 192.0, 127.5, 64.0, 14.5, 72.0, 5.5, 72.0, 0.0, 0.0, 0.0, 1.695415895076821E9, 0.0, 2023-09-22 15:51:35.076
204.0, -36597.58408040811, -16106.220019605164, -85248.5698757851, -80077.96318268338, -27050.729340401813, -54673.12689699256, -167307.3893555867, -72259.63589663935, 1102.2539260690126, -187500.02235174447, -83943.89855192883, -78143.62086577665, -59633.35897128093, -59960.70026882891, -81536.81683979236, -82890.0138008611, -0.016, 0.9460000000000001, 0.37, 192.0, 0.0, 0.0, 0.0, 0.0, 0.0, 0.0, 0.0, 0.0, 0.0, 1.695415895076824E9, 0.0, 2023-09-22 15:51:35.076
206.0, -36576.864013298036, -16085.812876917467, -85230.62142498749, -80055.7455486948, -27026.947084301366, -54660.67697533095, -167251.9346775931, -72239.67578884074, 1084.0819578268479, -187500.02235174447, -83909.05218232301, -78103.54418796828, -59611.9236483483, -59923.23874512181, -81503.57979578731, -82854.47452717717, -0.016, 0.9460000000000001, 0.37, 192.0, 0.0, 0.0, 0.0, 0.0, 0.0, 0.0, 0.0, 0.0, 0.0, 1.695415895076827E9, 0.0, 2023-09-22 15:51:35.076
208.0, -36536.4744110673, -16043.590431641393, -85196.22209027078, -80029.41519372645, -27010.54090387117, -54637.72173377535, -167281.86366341874, -72220.45328860919, 1146.6668423017077, -187500.02235174447, -83889.82968209144, -78088.90379535005, -59594.73515686216, -59915.70620724037, -81490.0346386474, -82841.17523922626, -0.016, 0.9460000000000001, 0.37, 192.0, 0.0, 0.0, 0.0, 0.0, 0.0, 0.0, 0.0, 0.0, 0.0, 1.69541589507683E9, 0.0, 2023-09-22 15:51:35.076
210.0, -36517.63189049147, -16029.88881229029, -85174.96558129377, -80007.7340016048, -26989.15028442744, -54610.72082647334, -167251.4205874706, -72201.67782326673, 1135.9380049631602, -187500.02235174447, -83848.76952752704, -78051.71049257643, -59567.68954607124, -59885.263131292246, -81447.54397243787, -82804.38426785282, -0.016, 0.9460000000000001, 0.37, 192.0, 0.0, 0.0, 0.0, 0.0, 0.0, 0.0, 0.0, 0.0, 0.0, 1.695415895076833E9, 0.0, 2023-09-22 15:51:35.076
212.0, -36512.08865786656, -16019.919934263222, -85185.18032850986, -80008.06927777163, -27007.143438713963, -54613.00070440778, -167244.15627052262, -72208.76332625907, 1165.3752524107997, -187500.02235174447, -83861.13004221083, -78058.41601591301, -59577.63607235385, -59886.06779409263, -81465.31360927982, -82809.63692779982, -0.016, 0.9480000000000001, 0.376, 192.0, 127.5, 64.0, 14.5, 80.0, 5.5, 96.0, 0.0, 0.0, 0.0, 1.695415895135737E9, 0.0, 2023-09-22 15:51:35.135
214.0, -36486.674724420875, -15998.864590986323, -85153.77612755014, -79973.80405352164, -26966.95500218332, -54578.10963131305, -167248.4701572025, -72168.2843170505, 1167.722185578607, -187500.02235174447, -83839.06887043345, -78033.91850399, -59551.26101389659, -59861.01148855824, -81437.26216998842, -82781.09375013039, -0.016, 0.9480000000000001, 0.376, 192.0, 0.0, 0.0, 0.0, 0.0, 0.0, 0.0, 0.0, 0.0, 0.0, 1.695415895135747E9, 0.0, 2023-09-22 15:51:35.135
216.0, -36485.9594685983, -15992.919026961212, -85167.34363643451, -79988.19857695086, -26987.205682659827, -54590.91718088594, -167233.85211632875, -72184.57873875841, 1167.431612900688, -187500.02235174447, -83843.40510885777, -78032.68915804496, -59562.63805182434, -59861.70439263635, -81440.92785607908, -82780.4902530301, -0.016, 0.9480000000000001, 0.376, 192.0, 0.0, 0.0, 0.0, 0.0, 0.0, 0.0, 0.0, 0.0, 0.0, 1.695415895135751E9, 0.0, 2023-09-22 15:51:35.135
218.0, -36480.68445690685, -15991.533218804983, -85152.77029904966, -79982.11890245901, -26966.15033938293, -54587.49736398427, -167261.4341689866, -72179.8401689339, 1178.7639473395286, -187500.02235174447, -83833.86091397535, -78027.79412600925, -59538.11818815687, -59856.85406408955, -81436.59161765476, -82777.1374913618, -0.016, 0.9480000000000001, 0.376, 192.0, 0.0, 0.0, 0.0, 0.0, 0.0, 0.0, 0.0, 0.0, 0.0, 1.695415895135754E9, 0.0, 2023-09-22 15:51:35.135
220.0, -36504.75728568522, -16014.399053382762, -85184.26390698718, -80015.55711216416, -26998.62742407649, -54623.01428592376, -167199.58689207875, -72210.93144547123, 1146.9574149796267, -187500.02235174447, -83859.1407369543, -78055.15266122254, -59565.83435128145, -59891.63337846201, -81452.72957715149, -82804.22780564164, -0.016, 0.9480000000000001, 0.376, 192.0, 0.0, 0.0, 0.0, 0.0, 0.0, 0.0, 0.0, 0.0, 0.0, 1.695415895135757E9, 0.0, 2023-09-22 15:51:35.135
222.0, -36502.92444263988, -16011.806251025946, -85175.97140979426, -80009.1868649944, -26991.988955973266, -54617.76162597676, -167241.8316890993, -72206.14817215779, 1167.0292815004923, -187500.02235174447, -83843.38275711332, -78039.57349533719, -59555.99958372112, -59881.686852179395, -81445.88994334817, -82796.31528810445, -0.008, 0.9420000000000001, 0.38, 192.0, 127.5, 96.0, 14.5, 56.0, 5.5, 112.0, 0.0, 0.0, 0.0, 1.69541589513576E9, 0.0, 2023-09-22 15:51:35.135
224.0, -36505.36078278551, -16010.286332402986, -85186.02969479916, -80025.95067333587, -27000.460267121827, -54626.322344103144, -167167.82506320777, -72217.97224497465, 1113.8321296968616, -187500.02235174447, -83878.0503127635, -78075.24687948787, -59584.20748522371, -59914.7897857177, -81476.89181290768, -82830.46875363216, -0.008, 0.9420000000000001, 0.38, 192.0, 0.0, 0.0, 0.0, 0.0, 0.0, 0.0, 0.0, 0.0, 0.0, 1.695415895135763E9, 0.0, 2023-09-22 15:51:35.135
226.0, -36493.13437856846, -15995.69064327367, -85167.38833992343, -80006.66111787094, -26973.593470286545, -54607.1892508494, -167240.84821234326, -72195.8440179639, 1161.687214575674, -187500.02235174447, -83845.88615249231, -78045.89903901804, -59556.42426686577, -59882.3350527686, -81451.56728643982, -82802.37261085185, -0.008, 0.9420000000000001, 0.38, 192.0, 0.0, 0.0, 0.0, 0.0, 0.0, 0.0, 0.0, 0.0, 0.0, 1.695415895195781E9, 0.0, 2023-09-22 15:51:35.195
228.0, -36508.333564798064, -16014.577867338405, -85200.22305252828, -80039.62994094253, -27013.603092861547, -54632.558480806176, -167144.69100769653, -72226.86823926786, 1102.656257469208, -187500.02235174447, -83861.82294628894, -78065.99325728336, -59573.456296140714, -59898.7859366877, -81466.2300308025, -82822.28801516152, -0.008, 0.9420000000000001, 0.38, 192.0, 0.0, 0.0, 0.0, 0.0, 0.0, 0.0, 0.0, 0.0, 0.0, 1.695415895195797E9, 0.0, 2023-09-22 15:51:35.195
230.0, -36515.79904744614, -16017.88592551779, -85203.12877930746, -80040.76987990974, -27021.716776098823, -54638.414637853464, -167199.18456067855, -72222.86727701036, 1153.618234827308, -187500.02235174447, -83870.58483011542, -78074.91160332103, -59588.007281781116, -59910.29708508219, -81491.24163284799, -82835.47554439015, -0.008, 0.9420000000000001, 0.38, 192.0, 0.0, 0.0, 0.0, 0.0, 0.0, 0.0, 0.0, 0.0, 0.0, 1.6954158951958E9, 0.0, 2023-09-22 15:51:35.195
232.0, -36520.20234110384, -16018.914105762733, -85201.8100263846, -80037.30535951917, -27021.91794179892, -54631.776169750236, -167099.87576006365, -72237.01593125057, 1076.4376612231329, -187500.02235174447, -83878.92203079726, -78075.51510042133, -59596.41153769631, -59919.14837588649, -81493.52151078243, -82837.8001258135, -0.008, 0.9400000000000001, 0.384, 192.0, 127.5, 96.0, 14.5, 48.0, 6.0, 0.0, 0.0, 0.0, 0.0, 1.695415895195804E9, 0.0, 2023-09-22 15:51:35.195
234.0, -36515.12849511248, -16016.298951661463, -85194.32219199208, -80029.79517338218, -27007.165790458417, -54619.34859983309, -167175.5140633004, -72208.42805009223, 1158.5132668630204, -187500.02235174447, -83859.02897823203, -78047.88834427457, -59573.07631648497, -59890.85106740607, -81470.99095237147, -82813.88375924632, -0.008, 0.9400000000000001, 0.384, 192.0, 0.0, 0.0, 0.0, 0.0, 0.0, 0.0, 0.0, 0.0, 0.0, 1.695415895195808E9, 0.0, 2023-09-22 15:51:35.195
236.0, -36532.62991102099, -16037.823681571923, -85212.67297418987, -80045.82137415664, -27023.01317727723, -54640.314536132166, -167031.7252912194, -72232.83615503742, 1074.5154111999764, -187500.02235174447, -83898.14453102881, -78085.10399879265, -59606.20160176774, -59921.182384631924, -81499.64588876319, -82841.33170143745, -0.008, 0.9400000000000001, 0.384, 192.0, 0.0, 0.0, 0.0, 0.0, 0.0, 0.0, 0.0, 0.0, 0.0, 1.695415895195811E9, 0.0, 2023-09-22 15:51:35.195
238.0, -36534.8203819776, -16040.192966484186, -85206.12391306448, -80046.42487125694, -27027.528229657204, -54644.226091411845, -167101.3286234532, -72233.75257656009, 1149.1925894251574, -187500.02235174447, -83884.80053958899, -78074.28575447628, -59612.34833149295, -59915.728558984825, -81491.66631599264, -82839.52121013656, -0.008, 0.9400000000000001, 0.384, 192.0, 0.0, 0.0, 0.0, 0.0, 0.0, 0.0, 0.0, 0.0, 0.0, 1.695415895195815E9, 0.0, 2023-09-22 15:51:35.195
