%OpenBCI Raw EXG Data
%Number of channels = 16
%Sample Rate = 125 Hz
%Board = OpenBCI_GUI$BoardCytonSerialDaisy
Sample Index, EXG Channel 0, EXG Channel 1, EXG Channel 2, EXG Channel 3, EXG Channel 4, EXG Channel 5, EXG Channel 6, EXG Channel 7, EXG Channel 8, EXG Channel 9, EXG Channel 10, EXG Channel 11, EXG Channel 12, EXG Channel 13, EXG Channel 14, EXG Channel 15, Accel Channel 0, Accel Channel 1, Accel Channel 2, Other, Other, Other, Other, Other, Other, Other, Analog Channel 0, Analog Channel 1, Analog Channel 2, Timestamp, Other, Timestamp (Formatted)
0.0, -35930.56332237284, -16676.524779382322, -84292.42930322043, -79374.84435735278, -27932.326845208034, -54204.12024308685, -187500.02235174447, -71661.27969757078, 0.0, 0.0, 0.0, 0.0, 0.0, 0.0, 0.0, 0.0, 0.0, 0.0, 0.0, 192.0, 0.0, 0.0, 0.0, 0.0, 0.0, 0.0, 0.0, 0.0, 0.0, 1.695415941709358E9, 0.0, 2023-09-22 15:52:21.709
240.0, -35934.54193288588, -16683.565578885744, -84303.35930625908, -79390.44587498259, -27947.81660411556, -54214.33499030292, -187500.02235174447, -71678.80346522373, -1180.753252596051, -187500.02235174447, -83006.66755517335, -77183.47933095448, -59794.246827870236, -61943.523519459195, -80730.43295507824, -81891.58372778699, 0.0, 0.0, 0.0, 192.0, 0.0, 0.0, 0.0, 0.0, 0.0, 0.0, 0.0, 0.0, 0.0, 1.695415941709385E9, 0.0, 2023-09-22 15:52:21.709
242.0, -35947.617703392236, -16690.651081878077, -84302.26407078077, -79389.95413660457, -27945.067339547557, -54215.6984467147, -187500.02235174447, -71675.33894483316, -1113.3850948077554, -187500.02235174447, -83005.97465109524, -77183.97106933249, -59794.55975229261, -61940.12605430199, -80737.07142318146, -81897.59634704547, 0.0, 0.0, 0.0, 192.0, 0.0, 0.0, 0.0, 0.0, 0.0, 0.0, 0.0, 0.0, 0.0, 1.695415941709389E9, 0.0, 2023-09-22 15:52:21.709
244.0, -35971.42231123713, -16713.673378667045, -84321.84419892362, -79411.88119791522, -27958.813662387573, -54239.77127549306, -187500.02235174447, -71688.54882580624, -1206.3683517418328, -187500.02235174447, -83024.23602631522, -77201.42778175209, -59804.729796019776, -61964.914138902925, -80744.13457442935, -81906.24647214967, 0.0, 0.0, 0.0, 192.0, 0.0, 0.0, 0.0, 0.0, 0.0, 0.0, 0.0, 0.0, 0.0, 1.695415941709392E9, 0.0, 2023-09-22 15:52:21.709
246.0, -35960.961694832054, -16698.45184069298, -84304.63335569303, -79393.0386773394, -27939.792327856107, -54223.05217064049, -187500.02235174447, -71673.72961923237, -1134.5074933180206, -187500.02235174447, -83035.1436776094, -77210.65905221213, -59809.84834550004, -61964.10947610253, -80746.0121209636, -81911.87911175241, -0.044, 0.922, 0.41400000000000003, 192.0, 127.0, 80.0, 14.0, 104.0, 6.0, 120.0, 0.0, 0.0, 0.0, 1.695415941709395E9, 0.0, 2023-09-22 15:52:21.709
248.0, -35978.93249737412, -16715.908553112575, -84322.31358555717, -79410.54009324791, -27954.231554774233, -54241.268842371566, -187500.02235174447, -71684.72667750438, -1213.0738750784249, -187500.02235174447, -83027.40997402788, -77199.88551138467, -59802.60638029652, -61959.99675512275, -80734.16569640228, -81897.082256923, -0.044, 0.922, 0.41400000000000003, 192.0, 0.0, 0.0, 0.0, 0.0, 0.0, 0.0, 0.0, 0.0, 0.0, 1.695415941709399E9, 0.0, 2023-09-22 15:52:21.709
250.0, -35961.18521227661, -16701.96106457246, -84301.57116670265, -79394.37978200673, -27941.0440255456, -54221.21932759516, -187500.02235174447, -71677.39530532305, -1134.7757142514843, -187500.02235174447, -83044.66552074737, -77217.54338950437, -59819.83957527156, -61976.1794181084, -80757.85854552491, -81918.49522811118, -0.044, 0.922, 0.41400000000000003, 192.0, 0.0, 0.0, 0.0, 0.0, 0.0, 0.0, 0.0, 0.0, 0.0, 1.695415941709402E9, 0.0, 2023-09-22 15:52:21.709
252.0, -35934.608988119246, -16682.87267480763, -84277.25246873529, -79377.39245622068, -27910.444487386285, -54195.15719356027, -187500.02235174447, -71649.00858986481, -1207.4188837312322, -187500.02235174447, -82989.23319449821, -77169.24126973645, -59773.616167737986, -61934.11343504351, -80703.63321347634, -81869.18727984278, -0.044, 0.922, 0.41400000000000003, 192.0, 0.0, 0.0, 0.0, 0.0, 0.0, 0.0, 0.0, 0.0, 0.0, 1.695415941709405E9, 0.0, 2023-09-22 15:52:21.709
254.0, -35953.54091567289, -16693.176829001528, -84300.99002134682, -79400.16888382065, -27939.81467960056, -54217.5983449934, -187500.02235174447, -71669.03575289676, -1113.1168738742917, -187500.02235174447, -83012.099029076, -77192.48708396997, -59786.26725509969, -61950.363153262515, -80731.14821090082, -81894.86943422192, -0.044, 0.922, 0.41400000000000003, 192.0, 0.0, 0.0, 0.0, 0.0, 0.0, 0.0, 0.0, 0.0, 0.0, 1.695415941709408E9, 0.0, 2023-09-22 15:52:21.709
0.0, -17944.002800464965, -8404.032397750903, -42095.37560884662, -39694.97706830229, -14240.765779109692, -27117.35989062308, -93750.01117587223, -35836.32836774926, -606.4475305613912, -93750.01117587223, -41509.96106981768, -38597.01467716869, -29900.1073718199, -30984.70341976922, -40368.03279734049, -40951.59214157965, -0.042, 0.914, 0.41200000000000003, 192.0, 127.0, 88.0, 14.0, 72.0, 6.0, 112.0, 0.0, 0.0, 0.0, 1.695415941870245E9, 0.0, 2023-09-22 15:52:21.870
2.0, -35863.441033773546, -16775.341841619236, -84169.5617639496, -79363.9367060586, -28469.551023191336, -54212.68096121323, -187500.02235174447, -71659.5139097588, -1708.0979595301105, -187500.02235174447, -82998.4421132138, -77156.47842365247, -59845.16410173942, -62140.28592589926, -80708.1035623674, -81840.39823298434, -0.042, 0.914, 0.41200000000000003, 192.0, 0.0, 0.0, 0.0, 0.0, 0.0, 0.0, 0.0, 0.0, 0.0, 1.695415941870255E9, 0.0, 2023-09-22 15:52:21.870
4.0, -35846.54311496534, -16759.025068166862, -84148.70758637281, -79341.98729300348, -28443.24301996744, -54193.234943537114, -187500.02235174447, -71637.27392402577, -1757.3612043096073, -187500.02235174447, -82965.1827174643, -77112.37843184214, -59817.9173252484, -62101.930332413955, -80676.20762302967, -81806.13300873435, -0.042, 0.914, 0.41200000000000003, 192.0, 0.0, 0.0, 0.0, 0.0, 0.0, 0.0, 0.0, 0.0, 0.0, 1.695415941870259E9, 0.0, 2023-09-22 15:52:21.870
6.0, -35830.04752755732, -16738.237945823425, -84142.7620223477, -79330.63260682019, -28442.14778448913, -54189.14457430179, -187500.02235174447, -71631.86480186759, -1680.2923894277085, -187500.02235174447, -82951.88342951339, -77094.72055372245, -59793.77744123667, -62094.91188465499, -80666.77518686953, -81796.58881385194, -0.042, 0.914, 0.41200000000000003, 192.0, 0.0, 0.0, 0.0, 0.0, 0.0, 0.0, 0.0, 0.0, 0.0, 1.695415941870263E9, 0.0, 2023-09-22 15:52:21.870
8.0, -35816.34590820622, -16730.057207352784, -84123.49481862722, -79306.78329548637, -28423.61818833568, -54167.15045775777, -187500.02235174447, -71617.53733367173, -1739.1445325785319, -187500.02235174447, -82938.20416190675, -77076.34741978018, -59793.2633511142, -62090.73210844184, -80664.76352986855, -81789.59271783743, -0.05, 0.916, 0.41600000000000004, 192.0, 127.0, 56.0, 14.0, 80.0, 6.5, 0.0, 0.0, 0.0, 0.0, 1.695415941870266E9, 0.0, 2023-09-22 15:52:21.870
10.0, -35824.45959144349, -16737.276820811847, -84144.72897585976, -79329.17974343059, -28447.10987175821, -54179.37686197482, -187500.02235174447, -71634.4576042244, -1695.7150931018703, -187500.02235174447, -82937.06422293953, -77079.29785004829, -59792.905723202915, -62094.800125932714, -80672.36312298336, -81791.49261611613, -0.05, 0.916, 0.41600000000000004, 192.0, 0.0, 0.0, 0.0, 0.0, 0.0, 0.0, 0.0, 0.0, 0.0, 1.695415941870269E9, 0.0, 2023-09-22 15:52:21.870
12.0, -35855.41675751409, -16771.22912063946, -84159.21290626681, -79350.23508670749, -28464.20895626652, -54197.43707149471, -187500.02235174447, -71646.16991831898, -1743.6372332140486, -187500.02235174447, -82949.71531030122, -77092.57478625474, -59820.46542411631, -62104.97016965988, -80684.3436580114, -81799.33807841994, -0.05, 0.916, 0.41600000000000004, 192.0, 0.0, 0.0, 0.0, 0.0, 0.0, 0.0, 0.0, 0.0, 0.0, 1.695415941870273E9, 0.0, 2023-09-22 15:52:21.870
14.0, -35857.38371102616, -16777.062925942293, -84163.03505456867, -79359.1757844896, -28472.72497090399, -54204.45551925368, -187500.02235174447, -71646.37108401908, -1739.6139192120934, -187500.02235174447, -82966.2779529426, -77113.27250162036, -59819.1690229379, -62119.31998960018, -80700.77219018605, -81818.94055830724, -0.05, 0.916, 0.41600000000000004, 192.0, 0.0, 0.0, 0.0, 0.0, 0.0, 0.0, 0.0, 0.0, 0.0, 1.695415941870276E9, 0.0, 2023-09-22 15:52:21.870
16.0, -35886.6197927737, -16808.780051324375, -84171.8192901396, -79373.77147361892, -28477.48589247297, -54224.46033054118, -187500.02235174447, -71660.34092430364, -1753.6955182189367, -187500.02235174447, -82972.84936581246, -77123.1519726696, -59831.55188936614, -62130.451158338925, -80702.76149544258, -81821.19808449723, -0.05, 0.916, 0.41600000000000004, 192.0, 0.0, 0.0, 0.0, 0.0, 0.0, 0.0, 0.0, 0.0, 0.0, 1.695415941930032E9, 0.0, 2023-09-22 15:52:21.930
18.0, -35882.14944388264, -16804.533219877867, -84172.33338026206, -79384.94734584658, -28484.772561165402, -54232.61871726737, -187500.02235174447, -71670.62272675309, -1769.6770155044815, -187500.02235174447, -82990.79781661008, -77143.24619093492, -59846.70637210684, -62156.35683016263, -80712.64096649182, -81843.4157184858, -0.058, 0.918, 0.41200000000000003, 192.0, 127.0, 24.0, 14.0, 88.0, 6.0, 112.0, 0.0, 0.0, 0.0, 1.695415941930044E9, 0.0, 2023-09-22 15:52:21.930
20.0, -35873.655780989626, -16792.105649960715, -84154.98842656476, -79358.75110134495, -28463.806624866324, -54210.82576642344, -187500.02235174447, -71649.70149394292, -1759.3505095661294, -187500.02235174447, -82967.9319820323, -77118.36869935617, -59825.44986312984, -62134.5638793187, -80691.9432511262, -81818.31470946249, -0.058, 0.918, 0.41200000000000003, 192.0, 0.0, 0.0, 0.0, 0.0, 0.0, 0.0, 0.0, 0.0, 0.0, 1.695415941930047E9, 0.0, 2023-09-22 15:52:21.930
22.0, -35898.466217335015, -16816.51375490591, -84184.91741239041, -79390.98231684952, -28490.740476934967, -54239.01131618158, -187500.02235174447, -71674.55663377722, -1782.752786010836, -187500.02235174447, -82989.99315380969, -77140.1616502001, -59842.70540984934, -62154.27811792828, -80708.57294900095, -81834.72088989269, -0.058, 0.918, 0.41200000000000003, 192.0, 0.0, 0.0, 0.0, 0.0, 0.0, 0.0, 0.0, 0.0, 0.0, 1.695415941930051E9, 0.0, 2023-09-22 15:52:21.930
24.0, -35886.575089284794, -16806.924856534584, -84161.85041211253, -79370.12813927271, -28472.747322648447, -54213.5973827359, -187500.02235174447, -71652.83073816667, -1758.8364194436574, -187500.02235174447, -82987.51211017516, -77140.6086850892, -59843.26420346072, -62160.089571486664, -80706.94127165571, -81834.85500035943, -0.058, 0.918, 0.41200000000000003, 192.0, 0.0, 0.0, 0.0, 0.0, 0.0, 0.0, 0.0, 0.0, 0.0, 1.695415941930054E9, 0.0, 2023-09-22 15:52:21.930
26.0, -35888.34087709676, -16811.663426359108, -84178.7706826652, -79383.27096501243, -28490.963994379523, -54222.35926656238, -187500.02235174447, -71658.39632253603, -1799.4718908634056, -187500.02235174447, -82973.49756640167, -77132.74087104094, -59826.14276720796, -62133.53569907376, -80700.30280355249, -81824.30497697652, -0.058, 0.918, 0.41200000000000003, 192.0, 0.0, 0.0, 0.0, 0.0, 0.0, 0.0, 0.0, 0.0, 0.0, 1.695415941930058E9, 0.0, 2023-09-22 15:52:21.930
28.0, -35878.886089192165, -16800.688719831553, -84168.98061859378, -79369.2340694945, -28479.810473896323, -54210.356379789875, -187500.02235174447, -71656.07174111268, -1744.5536547367162, -187500.02235174447, -82974.81631932454, -77133.32201639676, -59845.7228953508, -62131.00995195031, -80709.04233563451, -81831.70340439123, -0.056, 0.922, 0.418, 192.0, 127.0, 32.0, 14.0, 104.0, 6.5, 8.0, 0.0, 0.0, 0.0, 1.695415941930061E9, 0.0, 2023-09-22 15:52:21.930
30.0, -35901.93073772559, -16827.019074799904, -84205.79394171166, -79399.5877384648, -28516.377927825204, -54244.95688020669, -187500.02235174447, -71690.64988978504, -1800.8576990196348, -187500.02235174447, -82981.43243568331, -77137.23357167645, -59835.46344464582, -62136.53083283077, -80720.82170496247, -81843.70629116372, -0.056, 0.922, 0.418, 192.0, 0.0, 0.0, 0.0, 0.0, 0.0, 0.0, 0.0, 0.0, 0.0, 1.695415941988885E9, 0.0, 2023-09-22 15:52:21.988
32.0, -35891.403066087136, -16811.75283333693, -84181.9222786334, -79375.04552305288, -28493.668555458615, -54219.47589152765, -187500.02235174447, -71666.73352321786, -1735.5459017212274, -187500.02235174447, -82997.52569169113, -77149.61643810468, -59859.402162957456, -62152.199405693944, -80738.34547261542, -81857.07263434799, -0.056, 0.922, 0.418, 192.0, 0.0, 0.0, 0.0, 0.0, 0.0, 0.0, 0.0, 0.0, 0.0, 1.695415941988895E9, 0.0, 2023-09-22 15:52:21.988
34.0, -35893.68294402158, -16817.877211317686, -84188.13606359197, -79381.16990103363, -28500.284671817386, -54220.72758921714, -187500.02235174447, -71669.4157325525, -1804.2551641768414, -187500.02235174447, -82971.01652276714, -77124.29191163683, -59837.139825479964, -62127.791300748744, -80704.61669023236, -81821.35454670842, -0.056, 0.922, 0.418, 192.0, 0.0, 0.0, 0.0, 0.0, 0.0, 0.0, 0.0, 0.0, 0.0, 1.695415941988899E9, 0.0, 2023-09-22 15:52:21.988
36.0, -35901.886034236675, -16821.14056600816, -84187.68902870287, -79380.29818299988, -28508.10778237674, -54223.230984596135, -187500.02235174447, -71667.58288950716, -1737.1552273220095, -187500.02235174447, -83000.40906672586, -77154.44441490703, -59861.547930425164, -62156.71445807391, -80737.98784470414, -81850.3224075225, -0.056, 0.922, 0.418, 192.0, 0.0, 0.0, 0.0, 0.0, 0.0, 0.0, 0.0, 0.0, 0.0, 1.695415941988902E9, 0.0, 2023-09-22 15:52:21.988
38.0, -35878.08142639177, -16799.973464008985, -84163.48208945777, -79364.74136885899, -28481.330392519285, -54206.22130706564, -187500.02235174447, -71647.04163635273, -1805.8868415220788, -187500.02235174447, -82973.87754605741, -77123.04021394733, -59833.876470789495, -62138.81071076521, -80706.87421642235, -81820.34871820793, -0.06, 0.922, 0.418, 192.0, 127.0, 16.0, 14.0, 104.0, 6.5, 8.0, 0.0, 0.0, 0.0, 1.695415941988905E9, 0.0, 2023-09-22 15:52:21.988
40.0, -35868.470176275994, -16786.27184465788, -84151.27803698517, -79353.14081348668, -28465.862985356212, -54202.15328957478, -187500.02235174447, -71642.34777001712, -1699.0231512812557, -187500.02235174447, -82959.05833948354, -77105.71761199446, -59818.3196566486, -62117.01775992129, -80688.81400690247, -81812.03386927056, -0.06, 0.922, 0.418, 192.0, 0.0, 0.0, 0.0, 0.0, 0.0, 0.0, 0.0, 0.0, 0.0, 1.695415941988909E9, 0.0, 2023-09-22 15:52:21.988
42.0, -35876.18152811307, -16793.558513350312, -84152.44032769685, -79357.36529318873, -28457.861060841213, -54204.88020239833, -187500.02235174447, -71631.19424953393, -1782.6633790330147, -187500.02235174447, -82963.64044709688, -77111.37260334166, -59818.54317409315, -62130.026475194274, -80680.56621319846, -81813.55378789351, -0.06, 0.922, 0.418, 192.0, 0.0, 0.0, 0.0, 0.0, 0.0, 0.0, 0.0, 0.0, 0.0, 1.695415941988912E9, 0.0, 2023-09-22 15:52:21.988
44.0, -35883.73641773897, -16801.5157343764, -84166.85720287052, -79367.62474389371, -28477.44118898406, -54208.16590883326, -187500.02235174447, -71632.3565402456, -1700.4313111819401, -187500.02235174447, -82963.57339186352, -77110.92556845256, -59819.057264215626, -62120.594039034135, -80678.6439631753, -81808.56934887997, -0.06, 0.922, 0.418, 192.0, 0.0, 0.0, 0.0, 0.0, 0.0, 0.0, 0.0, 0.0, 0.0, 1.695415941988915E9, 0.0, 2023-09-22 15:52:21.988
46.0, -35899.74026676897, -16825.81208059932, -84169.60646743853, -79372.36331371825, -28483.811436153825, -54207.02596986604, -187500.02235174447, -71632.82592687916, -1810.7595218133358, -187500.02235174447, -82977.23030772571, -77129.81279251729, -59831.68599983287, -62139.280097398776, -80696.10067559489, -81821.60041589742, -0.06, 0.922, 0.418, 192.0, 0.0, 0.0, 0.0, 0.0, 0.0, 0.0, 0.0, 0.0, 0.0, 1.695415942049039E9, 0.0, 2023-09-22 15:52:22.049
48.0, -35899.62850804669, -16822.436967186568, -84164.21969702479, -79366.01541829294, -28476.524767461393, -54201.10275758538, -187500.02235174447, -71629.78608963324, -1742.1620180799985, -187500.02235174447, -82973.81049082405, -77127.66702504958, -59825.60632534103, -62137.804882264725, -80693.46316974917, -81818.89585481833, -0.054, 0.916, 0.41000000000000003, 192.0, 127.0, 40.0, 14.0, 80.0, 6.0, 104.0, 0.0, 0.0, 0.0, 1.695415942049047E9, 0.0, 2023-09-22 15:52:22.049
50.0, -35915.96763324352, -16837.390284227167, -84172.6686564289, -79370.44106369509, -28488.505302489437, -54201.95212387468, -187500.02235174447, -71636.13398505855, -1829.0432487777769, -187500.02235174447, -82966.74733957618, -77117.80990574478, -59818.342008393054, -62126.78547224826, -80683.91897486676, -81806.84826455692, -0.054, 0.916, 0.41000000000000003, 192.0, 0.0, 0.0, 0.0, 0.0, 0.0, 0.0, 0.0, 0.0, 0.0, 1.69541594204905E9, 0.0, 2023-09-22 15:52:22.049
52.0, -35932.217351462525, -16853.818816401817, -84167.39364473744, -79367.84826133827, -28487.745343177958, -54206.35541753238, -187500.02235174447, -71639.12911881556, -1766.6148265141044, -187500.02235174447, -82991.24485149918, -77147.91770552608, -59840.425531914894, -62151.282984171274, -80709.86935017936, -81828.97649156768, -0.054, 0.916, 0.41000000000000003, 192.0, 0.0, 0.0, 0.0, 0.0, 0.0, 0.0, 0.0, 0.0, 0.0, 1.695415942049054E9, 0.0, 2023-09-22 15:52:22.049
54.0, -35972.11521531525, -16898.96934020154, -84187.37610428048, -79391.3846482497, -28494.942604892567, -54228.59540326541, -187500.02235174447, -71662.41963653799, -1830.0937807671764, -187500.02235174447, -82980.91834556083, -77148.14122297063, -59833.04945624465, -62144.644516068045, -80688.05404759098, -81813.77730533807, -0.054, 0.916, 0.41000000000000003, 192.0, 0.0, 0.0, 0.0, 0.0, 0.0, 0.0, 0.0, 0.0, 0.0, 1.695415942049057E9, 0.0, 2023-09-22 15:52:22.049
56.0, -35982.88875614271, -16906.278360638426, -84188.0243048697, -79390.46822672704, -28506.900788176157, -54222.672190984755, -187500.02235174447, -71660.07270337018, -1785.4573470899281, -187500.02235174447, -83018.42457275683, -77188.82139787929, -59864.632471159995, -62173.99235653786, -80721.84988520741, -81847.26021853212, -0.054, 0.916, 0.41000000000000003, 192.0, 0.0, 0.0, 0.0, 0.0, 0.0, 0.0, 0.0, 0.0, 0.0, 1.69541594204906E9, 0.0, 2023-09-22 15:52:22.049
58.0, -35970.34942750328, -16887.18997087359, -84170.67935117238, -79376.27486899792, -28486.96303212202, -54202.71208318616, -187500.02235174447, -71641.74427291683, -1829.4008766890618, -187500.02235174447, -82987.33329621951, -77155.33848468524, -59833.518842878206, -62139.30244914323, -80696.9947453731, -81813.12910474886, -0.052000000000000005, 0.924, 0.41400000000000003, 192.0, 127.0, 48.0, 14.0, 112.0, 6.0, 120.0, 0.0, 0.0, 0.0, 1.695415942049063E9, 0.0, 2023-09-22 15:52:22.049
60.0, -35992.567061491856, -16919.465889867057, -84201.07772363159, -79401.4429332546, -28516.10970689174, -54226.47198754216, -187500.02235174447, -71680.41279082451, -1801.5506030977492, -187500.02235174447, -83011.58493895351, -77181.31121174232, -59852.33901170958, -62157.13914121856, -80720.15115262881, -81839.07948006147, -0.052000000000000005, 0.924, 0.41400000000000003, 192.0, 0.0, 0.0, 0.0, 0.0, 0.0, 0.0, 0.0, 0.0, 0.0, 1.695415942110881E9, 0.0, 2023-09-22 15:52:22.110
62.0, -35988.9460788901, -16916.53781134341, -84183.93393563437, -79390.64704068268, -28500.35172705075, -54209.14938558929, -187500.02235174447, -71644.42648225147, -1834.0500395357658, -187500.02235174447, -83006.46638947325, -77178.3160779853, -59858.485741434786, -62159.93310927548, -80717.49129503862, -81830.1611340238, -0.052000000000000005, 0.924, 0.41400000000000003, 192.0, 0.0, 0.0, 0.0, 0.0, 0.0, 0.0, 0.0, 0.0, 0.0, 1.695415942110893E9, 0.0, 2023-09-22 15:52:22.110
64.0, -35994.69047721511, -16921.49989861249, -84206.28568008968, -79414.74222120551, -28522.54700929487, -54232.81988296746, -187500.02235174447, -71667.5605377627, -1814.626373604104, -187500.02235174447, -83020.68209894683, -77192.39767699214, -59862.665517647925, -62178.68622287348, -80725.82849572045, -81838.9677213392, -0.052000000000000005, 0.924, 0.41400000000000003, 192.0, 0.0, 0.0, 0.0, 0.0, 0.0, 0.0, 0.0, 0.0, 0.0, 1.695415942110896E9, 0.0, 2023-09-22 15:52:22.110
66.0, -35961.92281984363, -16893.515514554445, -84172.37808375098, -79391.20583429407, -28486.06896234381, -54206.84715591039, -187500.02235174447, -71639.84437463812, -1810.8042253022463, -187500.02235174447, -83009.6403371859, -77182.42879896508, -59852.71899136532, -62174.55115014925, -80716.26194909358, -81834.29620674804, -0.052000000000000005, 0.924, 0.41400000000000003, 192.0, 0.0, 0.0, 0.0, 0.0, 0.0, 0.0, 0.0, 0.0, 0.0, 1.6954159421109E9, 0.0, 2023-09-22 15:52:22.110
68.0, -35935.994796275474, -16871.09671486577, -84160.77752837868, -79385.01440107994, -28485.621927454704, -54197.48177498362, -187500.02235174447, -71637.54214495924, -1786.619637801604, -187500.02235174447, -82991.46836894374, -77171.74466511545, -59832.15538646643, -62168.292661701766, -80701.68861170871, -81822.44978218673, -0.052000000000000005, 0.924, 0.41400000000000003, 192.0, 127.0, 48.0, 14.0, 112.0, 6.0, 120.0, 0.0, 0.0, 0.0, 1.695415942110903E9, 0.0, 2023-09-22 15:52:22.110
70.0, -35905.037630204875, -16842.061798818326, -84135.8106298221, -79363.55672640285, -28460.163290520108, -54178.974530574626, -187500.02235174447, -71616.86678133807, -1744.5089512478057, -187500.02235174447, -82956.08555747099, -77139.1111182107, -59818.58787758206, -62142.23052766688, -80675.76058814056, -81799.29337493103, -0.052000000000000005, 0.924, 0.41400000000000003, 192.0, 0.0, 0.0, 0.0, 0.0, 0.0, 0.0, 0.0, 0.0, 0.0, 1.695415942110907E9, 0.0, 2023-09-22 15:52:22.110
72.0, -35907.608080817234, -16844.29697326386, -84151.30038872962, -79376.99012482048, -28485.35370652124, -54208.277667555536, -187500.02235174447, -71648.69566544243, -1762.4574020454172, -187500.02235174447, -82959.25950518364, -77143.80498454631, -59812.53055483467, -62142.99048697836, -80683.6954574222, -81813.19615998222, -0.052000000000000005, 0.924, 0.41400000000000003, 192.0, 0.0, 0.0, 0.0, 0.0, 0.0, 0.0, 0.0, 0.0, 0.0, 1.695415942110911E9, 0.0, 2023-09-22 15:52:22.110
74.0, -35888.2738218634, -16821.65465613063, -84128.47925764075, -79346.94938027256, -28459.82801435328, -54187.95993184566, -187500.02235174447, -71621.02420580677, -1729.6450411850265, -187500.02235174447, -82951.01171147963, -77127.84583900521, -59813.737549035264, -62140.531795088275, -80682.51081496607, -81810.64806111432, -0.052000000000000005, 0.924, 0.41400000000000003, 192.0, 0.0, 0.0, 0.0, 0.0, 0.0, 0.0, 0.0, 0.0, 0.0, 1.695415942110914E9, 0.0, 2023-09-22 15:52:22.110
76.0, -35892.05126667634, -16817.854859573228, -84140.92917930236, -79351.84441230827, -28465.281840000374, -54194.844269137895, -187500.02235174447, -71624.08639479714, -1783.9374284669673, -187500.02235174447, -82937.10892642844, -77109.83033297423, -59796.951388949325, -62120.750501245326, -80662.39424495629, -81791.29145041603, -0.052000000000000005, 0.924, 0.41400000000000003, 192.0, 0.0, 0.0, 0.0, 0.0, 0.0, 0.0, 0.0, 0.0, 0.0, 1.695415942168923E9, 0.0, 2023-09-22 15:52:22.168
78.0, -35886.75390324043, -16810.99287402545, -84130.84854255302, -79344.33422617128, -28467.02527606789, -54179.309806741454, -187500.02235174447, -71617.40322320501, -1725.465264971884, -187500.02235174447, -82943.32271138701, -77117.04994643331, -59802.67343552988, -62123.455062324414, -80672.49723345009, -81795.71709581818, -0.054, 0.922, 0.41400000000000003, 192.0, 127.0, 40.0, 14.0, 104.0, 6.0, 120.0, 0.0, 0.0, 0.0, 1.695415942168932E9, 0.0, 2023-09-22 15:52:22.168
80.0, -35892.654763776634, -16821.386435197168, -84147.25472298321, -79365.56838340384, -28480.928061119088, -54191.58091444742, -187500.02235174447, -71634.83758388014, -1785.0550156897327, -187500.02235174447, -82940.9310747303, -77121.72146102447, -59807.21083965431, -62121.86808846809, -80671.80432937197, -81794.93478476224, -0.054, 0.922, 0.41400000000000003, 192.0, 0.0, 0.0, 0.0, 0.0, 0.0, 0.0, 0.0, 0.0, 0.0, 1.695415942168935E9, 0.0, 2023-09-22 15:52:22.168
82.0, -35892.67711552109, -16819.017150284904, -84148.95345556182, -79367.9376683161, -28483.811436153825, -54185.34477774439, -187500.02235174447, -71632.71416815689, -1712.3224392321636, -187500.02235174447, -82945.28966489907, -77128.62815006115, -59809.87069724449, -62130.07117868319, -80683.80721614447, -81801.77441856556, -0.054, 0.922, 0.41400000000000003, 192.0, 0.0, 0.0, 0.0, 0.0, 0.0, 0.0, 0.0, 0.0, 0.0, 1.695415942168938E9, 0.0, 2023-09-22 15:52:22.168
84.0, -35908.09981919525, -16835.065702803815, -84174.52385121869, -79391.65286918318, -28503.480971274494, -54215.85490892588, -187500.02235174447, -71651.75785443281, -1809.9772107574, -187500.02235174447, -82965.76386282014, -77139.46874612197, -59834.7258370788, -62126.02551293678, -80699.78871343003, -81821.82393334198, -0.054, 0.922, 0.41400000000000003, 192.0, 0.0, 0.0, 0.0, 0.0, 0.0, 0.0, 0.0, 0.0, 0.0, 1.695415942168941E9, 0.0, 2023-09-22 15:52:22.168
86.0, -35880.629525259676, -16795.458411629013, -84150.29456022913, -79354.59367687628, -28490.584014723783, -54194.77721390453, -187500.02235174447, -71627.14858378752, -1736.7528959218141, -187500.02235174447, -82962.14288021838, -77123.01786220288, -59832.825938800095, -62125.15379490302, -80700.32515529695, -81819.11937226288, -0.054, 0.922, 0.41400000000000003, 192.0, 0.0, 0.0, 0.0, 0.0, 0.0, 0.0, 0.0, 0.0, 0.0, 1.695415942168944E9, 0.0, 2023-09-22 15:52:22.168
88.0, -35887.133882896174, -16803.817964055295, -84165.24787726974, -79369.74815961697, -28500.441134028573, -54212.47979551313, -187500.02235174447, -71650.43910150994, -1809.7760450573023, -187500.02235174447, -82947.70365330025, -77106.36581258367, -59831.59659285505, -62117.55420178822, -80683.13666381082, -81804.07664824446, -0.058, 0.916, 0.41400000000000003, 192.0, 127.0, 24.0, 14.0, 80.0, 6.0, 120.0, 0.0, 0.0, 0.0, 1.695415942168948E9, 0.0, 2023-09-22 15:52:22.168
90.0, -35878.595516514244, -16798.43119364157, -84160.50930744522, -79365.34486595928, -28497.513055504925, -54198.06292033946, -187500.02235174447, -71644.82881365166, -1725.7781893942583, -187500.02235174447, -82954.27506617011, -77119.82156274577, -59835.21757545681, -62124.12561465808, -80702.6944402092, -81817.063011773, -0.058, 0.916, 0.41400000000000003, 192.0, 0.0, 0.0, 0.0, 0.0, 0.0, 0.0, 0.0, 0.0, 0.0, 1.695415942228667E9, 0.0, 2023-09-22 15:52:22.228
92.0, -35898.48856907947, -16830.885926590672, -84183.95628737882, -79394.24567153999, -28515.439154558084, -54218.000676393596, -187500.02235174447, -71668.63342149656, -1818.8061498172463, -187500.02235174447, -82962.07582498502, -77138.3064554103, -59831.1719097104, -62134.027437451776, -80710.94223391321, -81825.02023279908, -0.058, 0.916, 0.41400000000000003, 192.0, 0.0, 0.0, 0.0, 0.0, 0.0, 0.0, 0.0, 0.0, 0.0, 1.695415942228679E9, 0.0, 2023-09-22 15:52:22.228
94.0, -35917.28638616638, -16848.208528543535, -84210.26429060272, -79421.09011663082, -28553.705341065568, -54243.88399647284, -187500.02235174447, -71688.52647406179, -1749.5827972391603, -187500.02235174447, -82985.589860152, -77164.48034816746, -59850.1261890085, -62161.34126917616, -80735.3056353695, -81850.38946275586, -0.058, 0.916, 0.41400000000000003, 192.0, 0.0, 0.0, 0.0, 0.0, 0.0, 0.0, 0.0, 0.0, 0.0, 1.695415942228683E9, 0.0, 2023-09-22 15:52:22.228
96.0, -35899.025010946396, -16829.61187715672, -84184.04569435665, -79400.1912355651, -28525.318625607328, -54223.02981889604, -187500.02235174447, -71666.75587496231, -1846.5670164307376, -187500.02235174447, -82989.09908403148, -77163.85449932271, -59859.91625307992, -62177.68039437299, -80742.23467615065, -81858.27962854858, -0.058, 0.916, 0.41400000000000003, 192.0, 0.0, 0.0, 0.0, 0.0, 0.0, 0.0, 0.0, 0.0, 0.0, 1.695415942228686E9, 0.0, 2023-09-22 15:52:22.228
98.0, -35889.01142943042, -16817.743100850952, -84170.70170291683, -79391.07172382734, -28519.998910426966, -54218.626525238345, -187500.02235174447, -71651.82490966617, -1746.431201270962, -187500.02235174447, -82966.83674655399, -77141.52510661187, -59843.21949997181, -62146.902042258036, -80715.18906535972, -81837.80543062752, -0.054, 0.914, 0.41000000000000003, 192.0, 127.0, 40.0, 14.0, 72.0, 6.0, 104.0, 0.0, 0.0, 0.0, 1.69541594222869E9, 0.0, 2023-09-22 15:52:22.228
100.0, -35882.08238864927, -16817.81015608432, -84150.27220848468, -79375.31374398635, -28504.486799774983, -54202.600324463885, -187500.02235174447, -71642.6159909506, -1811.5194811248161, -187500.02235174447, -82957.44901388277, -77139.82637403326, -59834.39056091197, -62143.28105965627, -80703.65556522079, -81829.5129334346, -0.054, 0.914, 0.41000000000000003, 192.0, 0.0, 0.0, 0.0, 0.0, 0.0, 0.0, 0.0, 0.0, 0.0, 1.695415942228693E9, 0.0, 2023-09-22 15:52:22.228
102.0, -35852.82395515728, -16791.18922843805, -84121.19258894832, -79351.03974950788, -28485.957203621532, -54183.22136202113, -187500.02235174447, -71626.92506634296, -1726.4487417279174, -187500.02235174447, -82926.58125478998, -77119.39687960112, -59814.7657292802, -62126.29373387024, -80679.42627423123, -81805.1048284894, -0.054, 0.914, 0.41000000000000003, 192.0, 0.0, 0.0, 0.0, 0.0, 0.0, 0.0, 0.0, 0.0, 0.0, 1.695415942228697E9, 0.0, 2023-09-22 15:52:22.228
104.0, -35858.38953952665, -16797.60417909672, -84113.99532723372, -79346.2788279389, -28466.310020245317, -54182.90843759876, -187500.02235174447, -71623.16997327447, -1765.3631288246072, -187500.02235174447, -82906.15176035784, -77105.31528059427, -59787.027214411166, -62112.413300563494, -80656.42632918672, -81787.71517130318, -0.054, 0.914, 0.41000000000000003, 192.0, 0.0, 0.0, 0.0, 0.0, 0.0, 0.0, 0.0, 0.0, 0.0, 1.6954159422287E9, 0.0, 2023-09-22 15:52:22.228
106.0, -35864.558620996315, -16796.93362676306, -84133.57545537657, -79358.43817692259, -28485.53252047688, -54194.285475526514, -187500.02235174447, -71642.4148252505, -1730.7402766633365, -187500.02235174447, -82920.65804250933, -77115.55237955479, -59795.476173815274, -62115.27432385377, -80668.3398089814, -81801.08151448745, -0.054, 0.914, 0.41000000000000003, 192.0, 0.0, 0.0, 0.0, 0.0, 0.0, 0.0, 0.0, 0.0, 0.0, 1.695415942289121E9, 0.0, 2023-09-22 15:52:22.289
108.0, -35870.995923399445, -16802.342748921248, -84138.02345252318, -79359.42165367863, -28482.135055319675, -54183.60134167688, -187500.02235174447, -71640.69374092743, -1793.9063064940342, -187500.02235174447, -82928.72702225769, -77111.7525829974, -59798.06897617209, -62111.54158252974, -80673.41365497276, -81802.28850868804, -0.054, 0.916, 0.41400000000000003, 192.0, 127.0, 40.0, 14.0, 80.0, 6.0, 120.0, 0.0, 0.0, 0.0, 1.695415942289134E9, 0.0, 2023-09-22 15:52:22.289
110.0, -35873.14169086715, -16795.95015000703, -84160.10697604502, -79371.1339677732, -28502.16221835163, -54191.93854235871, -187500.02235174447, -71647.75689217531, -1778.2153818864087, -187500.02235174447, -82938.2712171401, -77112.02080393086, -59808.19431641034, -62113.53088778626, -80686.98116385713, -81805.68597384525, -0.054, 0.916, 0.41400000000000003, 192.0, 0.0, 0.0, 0.0, 0.0, 0.0, 0.0, 0.0, 0.0, 0.0, 1.695415942289138E9, 0.0, 2023-09-22 15:52:22.289
112.0, -35881.99298167145, -16801.806307054318, -84171.50636571723, -79386.17669179162, -28511.97463416751, -54195.15719356027, -187500.02235174447, -71651.75785443281, -1801.5282513532939, -187500.02235174447, -82947.52483934461, -77120.93914996853, -59820.93481074987, -62128.05952168221, -80703.5438064985, -81818.06884027348, -0.054, 0.916, 0.41400000000000003, 192.0, 0.0, 0.0, 0.0, 0.0, 0.0, 0.0, 0.0, 0.0, 0.0, 1.695415942289141E9, 0.0, 2023-09-22 15:52:22.289
114.0, -35881.613002015714, -16800.062870986803, -84194.32749680609, -79406.56148273486, -28539.64609380318, -54208.59059197791, -187500.02235174447, -71666.57706100668, -1795.2474111613526, -187500.02235174447, -82970.0330460111, -77147.80594680381, -59840.49258714826, -62134.60858280762, -80732.48931556813, -81841.38170974037, -0.054, 0.916, 0.41400000000000003, 192.0, 0.0, 0.0, 0.0, 0.0, 0.0, 0.0, 0.0, 0.0, 0.0, 1.695415942289145E9, 0.0, 2023-09-22 15:52:22.289
116.0, -35892.520653309904, -16809.85293505823, -84197.07676137409, -79408.03669786891, -28547.893887507187, -54210.75871119007, -187500.02235174447, -71672.1649971205, -1796.8343850176796, -187500.02235174447, -82970.8824123004, -77147.80594680381, -59854.95416581085, -62133.24512639584, -80743.59813256242, -81843.46042197471, -0.054, 0.916, 0.41400000000000003, 192.0, 0.0, 0.0, 0.0, 0.0, 0.0, 0.0, 0.0, 0.0, 0.0, 1.695415942289148E9, 0.0, 2023-09-22 15:52:22.289
118.0, -35892.40889458763, -16807.28248444587, -84208.94553767986, -79421.06776488636, -28559.76266381296, -54232.7528277341, -187500.02235174447, -71695.7237357764, -1836.7993041037685, -187500.02235174447, -82981.52184266112, -77148.70001658202, -59858.552796668155, -62140.08476019916, -80740.7594610166, -81855.28449479157, -0.06, 0.918, 0.418, 192.0, 127.0, 16.0, 14.0, 88.0, 6.5, 8.0, 0.0, 0.0, 0.0, 1.695415942289151E9, 0.0, 2023-09-22 15:52:22.289
120.0, -35885.52455729539, -16807.70716759052, -84199.8260259421, -79412.01530838196, -28555.40407364417, -54239.234833626135, -187500.02235174447, -71693.24269214185, -1815.0510567487547, -187500.02235174447, -82985.45574968526, -77142.77680430136, -59869.25928226225, -62144.75627479032, -80753.76817628958, -81874.81991944551, -0.06, 0.918, 0.418, 192.0, 0.0, 0.0, 0.0, 0.0, 0.0, 0.0, 0.0, 0.0, 0.0, 1.695415942350602E9, 0.0, 2023-09-22 15:52:22.350
122.0, -35861.74230119494, -16789.714013303997, -84187.68902870287, -79397.6431366972, -28549.525564852425, -54233.93747019023, -187500.02235174447, -71681.57508153618, -1858.234627036408, -187500.02235174447, -82970.01069426665, -77123.50960058089, -59863.872511848516, -62149.7183620594, -80744.22398140717, -81870.23781183218, -0.06, 0.918, 0.418, 192.0, 0.0, 0.0, 0.0, 0.0, 0.0, 0.0, 0.0, 0.0, 0.0, 1.695415942350621E9, 0.0, 2023-09-22 15:52:22.350
124.0, -35867.084368119766, -16789.84812377073, -84179.95532512132, -79391.45170348308, -28540.85308800377, -54229.06478989897, -187500.02235174447, -71675.38364832207, -1794.2415826608637, -187500.02235174447, -82949.40238587886, -77104.95765268298, -59846.527558151196, -62136.6649432975, -80733.09281266843, -81855.21743955821, -0.06, 0.918, 0.418, 192.0, 0.0, 0.0, 0.0, 0.0, 0.0, 0.0, 0.0, 0.0, 0.0, 1.695415942350625E9, 0.0, 2023-09-22 15:52:22.350
126.0, -35876.31563857981, -16800.241684942448, -84187.01847636921, -79403.38753502221, -28546.955114240067, -54244.755714506595, -187500.02235174447, -71696.23782589888, -1839.2579959938523, -187500.02235174447, -82955.50441211516, -77114.79242024332, -59837.60921211353, -62142.38698987806, -80733.71866151318, -81856.55854422553, -0.06, 0.918, 0.418, 192.0, 0.0, 0.0, 0.0, 0.0, 0.0, 0.0, 0.0, 0.0, 0.0, 1.695415942350628E9, 0.0, 2023-09-22 15:52:22.350
128.0, -35887.80443522983, -16810.814060069806, -84182.99516236725, -79401.2417675545, -28546.016340972943, -54241.11238016038, -187500.02235174447, -71684.65962227102, -1772.4262800724841, -187500.02235174447, -82971.70942684525, -77134.12667919716, -59846.393447684466, -62147.84081552516, -80745.09569944092, -81872.2718205776, -0.064, 0.926, 0.42, 192.0, 127.0, 0.0, 14.0, 120.0, 6.5, 16.0, 0.0, 0.0, 0.0, 1.695415942350632E9, 0.0, 2023-09-22 15:52:22.350
130.0, -35889.72668525299, -16815.48557466097, -84191.46647351581, -79408.48373275802, -28549.547916596883, -54246.2532813851, -187500.02235174447, -71690.22520664039, -1850.8809031106118, -187500.02235174447, -82967.97668552121, -77128.87401925016, -59832.89299403346, -62146.49971085784, -80732.44461207923, -81858.43609075977, -0.064, 0.926, 0.42, 192.0, 0.0, 0.0, 0.0, 0.0, 0.0, 0.0, 0.0, 0.0, 0.0, 1.695415942350635E9, 0.0, 2023-09-22 15:52:22.350
132.0, -35871.95704841102, -16792.88796101665, -84167.08072031508, -79382.80157837887, -28525.58684654079, -54213.75384494709, -187500.02235174447, -71656.63053472407, -1770.1240503935876, -187500.02235174447, -82968.35666517695, -77122.19084765803, -59843.84534881656, -62145.67269631299, -80724.84501896442, -81852.75874766812, -0.064, 0.926, 0.42, 192.0, 0.0, 0.0, 0.0, 0.0, 0.0, 0.0, 0.0, 0.0, 0.0, 1.695415942350638E9, 0.0, 2023-09-22 15:52:22.350
134.0, -35869.07367337628, -16794.47493487298, -84167.34894124854, -79370.19519450607, -28528.336111108794, -54206.08719659891, -187500.02235174447, -71651.75785443281, -1833.044211035277, -187500.02235174447, -82945.64729281036, -77089.53494900883, -59814.005769968724, -62125.086739669656, -80688.61284120237, -81815.8113140835, -0.064, 0.926, 0.42, 192.0, 0.0, 0.0, 0.0, 0.0, 0.0, 0.0, 0.0, 0.0, 0.0, 1.695415942350641E9, 0.0, 2023-09-22 15:52:22.350
136.0, -35851.39344351214, -16773.151370662614, -84152.44032769685, -79349.40807216264, -28521.74234649448, -54186.462364967156, -187500.02235174447, -71635.28461876925, -1751.9297304069676, -187500.02235174447, -82959.34891216147, -77098.2968328353, -59843.107741249536, -62142.18582417796, -80711.76924845806, -81828.79767761203, -0.064, 0.926, 0.42, 192.0, 0.0, 0.0, 0.0, 0.0, 0.0, 0.0, 0.0, 0.0, 0.0, 1.695415942410268E9, 0.0, 2023-09-22 15:52:22.410
138.0, -35857.070786603785, -16779.678080043566, -84164.48791795825, -79361.96975254653, -28529.297236120372, -54202.37680701933, -187500.02235174447, -71650.70732244341, -1829.1773592445088, -187500.02235174447, -82928.23528387968, -77077.08502734722, -59814.78808102466, -62127.63483853756, -80682.55551845497, -81799.2039679532, -0.062, 0.92, 0.41600000000000004, 192.0, 127.0, 8.0, 14.0, 96.0, 6.5, 0.0, 0.0, 0.0, 0.0, 1.695415942410281E9, 0.0, 2023-09-22 15:52:22.410
140.0, -35827.76764962288, -16749.212652350983, -84132.72608908727, -79327.25749340744, -28503.97270965251, -54170.659681637255, -187500.02235174447, -71622.34295872963, -1735.4117912544957, -187500.02235174447, -82923.38495533288, -77084.66226871757, -59809.73658677776, -62122.91862045749, -80691.60797495938, -81805.08247674495, -0.062, 0.92, 0.41600000000000004, 192.0, 0.0, 0.0, 0.0, 0.0, 0.0, 0.0, 0.0, 0.0, 0.0, 1.695415942410284E9, 0.0, 2023-09-22 15:52:22.410
142.0, -35839.323501506275, -16768.41280083809, -84129.44038265233, -79317.60153980274, -28490.24873855695, -54173.63246364981, -187500.02235174447, -71621.44888895142, -1824.8634725646345, -187500.02235174447, -82901.32378355549, -77063.02578008483, -59782.17688586437, -62092.52024799827, -80650.70428260617, -81768.38091234934, -0.062, 0.92, 0.41600000000000004, 192.0, 0.0, 0.0, 0.0, 0.0, 0.0, 0.0, 0.0, 0.0, 0.0, 1.695415942410287E9, 0.0, 2023-09-22 15:52:22.410
144.0, -35828.5052571899, -16754.88999544263, -84126.73582157324, -79306.58212978627, -28494.11559034772, -54175.130030528315, -187500.02235174447, -71629.47316521087, -1744.0172128697889, -187500.02235174447, -82916.03123140708, -77066.26678303085, -59780.58991200804, -62080.29384378122, -80664.36119846835, -81786.28465965803, -0.062, 0.92, 0.41600000000000004, 192.0, 0.0, 0.0, 0.0, 0.0, 0.0, 0.0, 0.0, 0.0, 0.0, 1.69541594241029E9, 0.0, 2023-09-22 15:52:22.410
146.0, -35865.676208219076, -16797.492420374445, -84159.16820277789, -79340.48972612497, -28508.26424458793, -54210.579897234435, -187500.02235174447, -71645.78993866325, -1836.1958070034752, -187500.02235174447, -82934.09144092696, -77073.46404474546, -59796.59376103804, -62099.09166086813, -80662.77422461203, -81796.29824117402, -0.062, 0.92, 0.41600000000000004, 192.0, 0.0, 0.0, 0.0, 0.0, 0.0, 0.0, 0.0, 0.0, 0.0, 1.695415942410294E9, 0.0, 2023-09-22 15:52:22.410
148.0, -35882.95410668303, -16813.630379871178, -84184.40332226793, -79370.06108403935, -28539.087300191797, -54231.43407481123, -187500.02235174447, -71661.6596772265, -1784.7420912673583, -187500.02235174447, -82976.96208679225, -77117.69814702251, -59833.54119462267, -62135.212079907906, -80696.1453790838, -81830.9657968242, -0.062, 0.908, 0.41600000000000004, 192.0, 127.0, 8.0, 14.0, 48.0, 6.5, 0.0, 0.0, 0.0, 0.0, 1.695415942410297E9, 0.0, 2023-09-22 15:52:22.410
150.0, -35899.025010946396, -16830.573002168298, -84196.00387764024, -79382.66746791214, -28545.99398922849, -54238.20665338119, -187500.02235174447, -71673.70726748792, -1872.4950399988938, -187500.02235174447, -82988.02620029762, -77133.59023733024, -59838.65974410293, -62155.842740040156, -80712.5068560251, -81841.80639288502, -0.062, 0.908, 0.41600000000000004, 192.0, 0.0, 0.0, 0.0, 0.0, 0.0, 0.0, 0.0, 0.0, 0.0, 1.695415942469084E9, 0.0, 2023-09-22 15:52:22.469
152.0, -35884.272859605895, -16815.507926405422, -84191.60058398254, -79381.12519754472, -28549.972599741533, -54237.11141790288, -187500.02235174447, -71673.55080527674, -1806.043303733266, -187500.02235174447, -83000.5431771926, -77151.02459800537, -59846.08052326209, -62177.45687692844, -80728.10837365489, -81858.25727680413, -0.062, 0.908, 0.41600000000000004, 192.0, 0.0, 0.0, 0.0, 0.0, 0.0, 0.0, 0.0, 0.0, 0.0, 1.695415942469104E9, 0.0, 2023-09-22 15:52:22.469
154.0, -35874.08046413428, -16810.009397269416, -84181.0729123441, -79364.67431362561, -28531.532410565906, -54217.5983449934, -187500.02235174447, -71655.33413354566, -1847.7293071424137, -187500.02235174447, -82973.11758674594, -77121.0509086908, -59834.09998823405, -62157.385010407575, -80697.30766979548, -81827.54597992254, -0.062, 0.908, 0.41600000000000004, 192.0, 0.0, 0.0, 0.0, 0.0, 0.0, 0.0, 0.0, 0.0, 0.0, 1.695415942469108E9, 0.0, 2023-09-22 15:52:22.469
156.0, -35882.12709213819, -16809.964693780505, -84197.74731370775, -79381.84045336729, -28563.942440026098, -54237.04436266951, -187500.02235174447, -71685.64309902706, -1804.523385110305, -187500.02235174447, -82995.51403469015, -77137.6582548211, -59850.305002964145, -62169.36554543562, -80722.00634741859, -81848.35545401042, -0.062, 0.908, 0.41600000000000004, 192.0, 0.0, 0.0, 0.0, 0.0, 0.0, 0.0, 0.0, 0.0, 0.0, 1.695415942469111E9, 0.0, 2023-09-22 15:52:22.469
158.0, -35869.20778384302, -16802.253341943426, -84167.32658950408, -79361.38860719069, -28536.338035623794, -54213.12799610234, -187500.02235174447, -71649.88030789857, -1836.2181587479306, -187500.02235174447, -82971.03887451159, -77115.84295223272, -59832.73653182227, -62160.804827309235, -80710.2046263462, -81829.33411947895, -0.052000000000000005, 0.91, 0.418, 192.0, 127.0, 48.0, 14.0, 56.0, 6.5, 8.0, 0.0, 0.0, 0.0, 1.695415942469115E9, 0.0, 2023-09-22 15:52:22.469
160.0, -35872.82876644478, -16799.973464008985, -84173.40626399593, -79366.12717701521, -28537.232105402007, -54223.74507471861, -187500.02235174447, -71654.75298818982, -1809.9548590129448, -187500.02235174447, -82972.62584836791, -77122.43671684703, -59830.590764354565, -62172.24892047035, -80706.56129199997, -81832.10573579143, -0.052000000000000005, 0.91, 0.418, 192.0, 0.0, 0.0, 0.0, 0.0, 0.0, 0.0, 0.0, 0.0, 0.0, 1.695415942469118E9, 0.0, 2023-09-22 15:52:22.469
162.0, -35866.726740208476, -16799.90640877562, -84159.70464464482, -79352.35850243074, -28529.252532631464, -54204.92490588724, -187500.02235174447, -71645.00762760731, -1808.3231816677073, -187500.02235174447, -82954.63269408139, -77105.29292884981, -59826.85802303052, -62159.44137089746, -80697.6429459623, -81821.82393334198, -0.052000000000000005, 0.91, 0.418, 192.0, 0.0, 0.0, 0.0, 0.0, 0.0, 0.0, 0.0, 0.0, 0.0, 1.695415942469121E9, 0.0, 2023-09-22 15:52:22.469
164.0, -35877.85790894722, -16816.625513628187, -84184.62683971248, -79377.45951145406, -28549.950247997076, -54226.91902243126, -187500.02235174447, -71668.99104940785, -1808.3455334121627, -187500.02235174447, -82965.78621456459, -77110.9032167081, -59817.24677291475, -62158.279080185785, -80693.66433544927, -81824.55084616553, -0.052000000000000005, 0.91, 0.418, 192.0, 0.0, 0.0, 0.0, 0.0, 0.0, 0.0, 0.0, 0.0, 0.0, 1.695415942469124E9, 0.0, 2023-09-22 15:52:22.469
166.0, -35894.37584809969, -16824.96271431002, -84181.25172629974, -79373.59265966328, -28545.189326428095, -54222.82865319594, -187500.02235174447, -71658.55278474723, -1816.4815683938943, -187500.02235174447, -82987.44505494178, -77129.87984775065, -59842.817168571615, -62170.59489138066, -80710.8975304243, -81837.29134050505, -0.052000000000000005, 0.91, 0.418, 192.0, 0.0, 0.0, 0.0, 0.0, 0.0, 0.0, 0.0, 0.0, 0.0, 1.695415942529371E9, 0.0, 2023-09-22 15:52:22.529
168.0, -35886.508034051425, -16814.256228715923, -84180.55882222162, -79370.99985730647, -28550.50904160846, -54226.96372592017, -187500.02235174447, -71666.84528194014, -1850.7244408994247, -187500.02235174447, -82987.78033110862, -77130.81862101778, -59844.11356975002, -62180.63082464109, -80711.16575135777, -81838.38657598336, -0.054, 0.914, 0.422, 192.0, 127.0, 40.0, 14.0, 72.0, 6.5, 24.0, 0.0, 0.0, 0.0, 1.695415942529384E9, 0.0, 2023-09-22 15:52:22.529
170.0, -35872.11351062221, -16800.64401634264, -84160.39754872293, -79356.27005771043, -28534.907523978654, -54213.97736239164, -187500.02235174447, -71647.08633984165, -1802.4223211315061, -187500.02235174447, -82981.61124963895, -77128.67285355006, -59848.65097387445, -62168.15855123503, -80708.90822516779, -81836.37491898239, -0.054, 0.914, 0.422, 192.0, 0.0, 0.0, 0.0, 0.0, 0.0, 0.0, 0.0, 0.0, 0.0, 1.695415942529388E9, 0.0, 2023-09-22 15:52:22.529
172.0, -35863.798661684836, -16800.465202387, -84165.42669122538, -79365.41192119264, -28538.75202402497, -54219.16296710527, -187500.02235174447, -71653.63540096706, -1813.620545103615, -187500.02235174447, -82946.6307695664, -77102.74482998191, -59813.938714735355, -62148.421960880994, -80674.97827708462, -81804.54603487803, -0.054, 0.914, 0.422, 192.0, 0.0, 0.0, 0.0, 0.0, 0.0, 0.0, 0.0, 0.0, 0.0, 1.695415942529392E9, 0.0, 2023-09-22 15:52:22.529
174.0, -35879.06490314781, -16818.100728762238, -84168.89121161595, -79370.8880985842, -28540.003721714464, -54221.3981415508, -187500.02235174447, -71661.23499408185, -1773.7450329953472, -187500.02235174447, -82974.72691234671, -77134.73017629745, -59838.771502825206, -62175.758144349835, -80705.3542977994, -81835.83847711545, -0.054, 0.914, 0.422, 192.0, 0.0, 0.0, 0.0, 0.0, 0.0, 0.0, 0.0, 0.0, 0.0, 1.695415942529396E9, 0.0, 2023-09-22 15:52:22.529
176.0, -35858.277780804376, -16796.397184896134, -84152.37327246348, -79354.23604896499, -28521.988215683486, -54204.008484364575, -187500.02235174447, -71641.72192117237, -1841.8955018395784, -187500.02235174447, -82964.28864768609, -77123.50960058089, -59807.83668849906, -62164.425809910994, -80689.3951522583, -81819.78992459654, -0.054, 0.914, 0.422, 192.0, 0.0, 0.0, 0.0, 0.0, 0.0, 0.0, 0.0, 0.0, 0.0, 1.695415942529399E9, 0.0, 2023-09-22 15:52:22.529
178.0, -35836.37307123817, -16768.636318282643, -84120.23146393675, -79327.21278991853, -28489.913462390123, -54176.26996949554, -187500.02235174447, -71614.18457200343, -1754.2543118303195, -187500.02235174447, -82941.1769439193, -77098.81092295777, -59788.48007780076, -62142.18582417796, -80673.05602706147, -81802.04263949904, -0.052000000000000005, 0.916, 0.41400000000000003, 192.0, 127.0, 48.0, 14.0, 80.0, 6.0, 120.0, 0.0, 0.0, 0.0, 1.695415942529403E9, 0.0, 2023-09-22 15:52:22.529
180.0, -35843.81620214179, -16774.38071660766, -84134.46952515478, -79347.75404307294, -28499.480009016992, -54201.21451630766, -187500.02235174447, -71628.33322624365, -1814.9616497709335, -187500.02235174447, -82911.80675170502, -77072.50291973387, -59758.52874023065, -62116.2130971209, -80645.60808487036, -81777.7015897872, -0.052000000000000005, 0.916, 0.41400000000000003, 192.0, 0.0, 0.0, 0.0, 0.0, 0.0, 0.0, 0.0, 0.0, 0.0, 1.69541594259117E9, 0.0, 2023-09-22 15:52:22.591
182.0, -35867.75492045342, -16799.817001797797, -84158.69881614433, -79372.67623814062, -28522.8822854617, -54225.57791776394, -187500.02235174447, -71654.97650563437, -1762.3009398342301, -187500.02235174447, -82954.25271442566, -77120.91679822408, -59807.74728152124, -62164.13523723307, -80695.98891687262, -81829.93761657925, -0.052000000000000005, 0.916, 0.41400000000000003, 192.0, 0.0, 0.0, 0.0, 0.0, 0.0, 0.0, 0.0, 0.0, 0.0, 1.695415942591182E9, 0.0, 2023-09-22 15:52:22.591
184.0, -35887.89384220765, -16825.409749199123, -84177.89896463144, -79391.29524127189, -28537.29916063537, -54238.89955745931, -187500.02235174447, -71670.75683721981, -1868.9187608860448, -187500.02235174447, -82971.12828148941, -77134.3054931528, -59819.83957527156, -62172.09245825916, -80701.1968733307, -81834.18444802576, -0.052000000000000005, 0.916, 0.41400000000000003, 192.0, 0.0, 0.0, 0.0, 0.0, 0.0, 0.0, 0.0, 0.0, 0.0, 1.695415942591186E9, 0.0, 2023-09-22 15:52:22.591
186.0, -35881.277725848886, -16813.65273161563, -84164.55497319163, -79377.25834575396, -28525.430384329604, -54225.22028985266, -187500.02235174447, -71657.99399113584, -1795.1133006946209, -187500.02235174447, -82980.40425543836, -77137.34533039872, -59821.33714215006, -62165.25282445584, -80708.84116993441, -81836.68784340475, -0.052000000000000005, 0.916, 0.41400000000000003, 192.0, 0.0, 0.0, 0.0, 0.0, 0.0, 0.0, 0.0, 0.0, 0.0, 1.695415942591189E9, 0.0, 2023-09-22 15:52:22.591
188.0, -35886.1727578846, -16819.03950202936, -84164.35380749153, -79378.13006378771, -28521.965863939033, -54222.98511540713, -187500.02235174447, -71652.54016548874, -1889.3706070626506, -187500.02235174447, -82977.61028738145, -77134.953693742, -59823.90759276243, -62167.420943668, -80697.28531805103, -81829.3117677345, -0.058, 0.924, 0.41200000000000003, 192.0, 127.0, 24.0, 14.0, 112.0, 6.0, 112.0, 0.0, 0.0, 0.0, 1.695415942591192E9, 0.0, 2023-09-22 15:52:22.591
190.0, -35890.37488584219, -16817.98897003996, -84169.5170604607, -79383.22626152352, -28534.996930956477, -54225.667324741764, -187500.02235174447, -71655.20002307893, -1798.7342832963805, -187500.02235174447, -82972.20116522326, -77137.4123856321, -59818.25260141523, -62165.5210453893, -80699.40873377428, -81831.12225903539, -0.058, 0.924, 0.41200000000000003, 192.0, 0.0, 0.0, 0.0, 0.0, 0.0, 0.0, 0.0, 0.0, 0.0, 1.695415942591195E9, 0.0, 2023-09-22 15:52:22.591
192.0, -35899.62850804669, -16831.556478924333, -84170.9699238503, -79385.8861191137, -28532.672349533124, -54223.655667740786, -187500.02235174447, -71658.97746789188, -1893.4162728090612, -187500.02235174447, -82976.38094143641, -77148.23062994846, -59828.199127697844, -62177.859208328635, -80705.57781524395, -81841.068785318, -0.058, 0.924, 0.41200000000000003, 192.0, 0.0, 0.0, 0.0, 0.0, 0.0, 0.0, 0.0, 0.0, 0.0, 1.695415942591199E9, 0.0, 2023-09-22 15:52:22.591
194.0, -35890.1737201421, -16820.112385763216, -84172.7133599178, -79379.64998241067, -28538.014416457943, -54211.80924317947, -187500.02235174447, -71654.88709865655, -1817.3309346831961, -187500.02235174447, -82965.98738026469, -77139.02171123287, -59813.55873507962, -62161.16245522052, -80693.79844591599, -81826.3613374664, -0.058, 0.924, 0.41200000000000003, 192.0, 0.0, 0.0, 0.0, 0.0, 0.0, 0.0, 0.0, 0.0, 0.0, 1.695415942591202E9, 0.0, 2023-09-22 15:52:22.591
196.0, -35910.73732504098, -16842.531185451888, -84191.77939793818, -79397.21845355254, -28556.096977722285, -54232.90928994528, -187500.02235174447, -71671.62855525357, -1908.257831127385, -187500.02235174447, -82986.0368950411, -77156.59018237474, -59838.30211619164, -62171.578368136696, -80717.6030537609, -81842.94633185225, -0.058, 0.924, 0.41200000000000003, 192.0, 0.0, 0.0, 0.0, 0.0, 0.0, 0.0, 0.0, 0.0, 0.0, 1.695415942649879E9, 0.0, 2023-09-22 15:52:22.649
198.0, -35890.687810264564, -16817.69839736204, -84173.42861574038, -79383.91916560163, -28536.673311790626, -54223.74507471861, -187500.02235174447, -71659.42450278098, -1852.5349322003046, -187500.02235174447, -82985.65691538536, -77155.51729864089, -59836.98336326878, -62187.716327633425, -80718.74299272812, -81849.29422727755, -0.056, 0.916, 0.41400000000000003, 192.0, 127.0, 32.0, 14.0, 80.0, 6.0, 120.0, 0.0, 0.0, 0.0, 1.69541594264989E9, 0.0, 2023-09-22 15:52:22.649
200.0, -35899.58380455778, -16831.198851013047, -84166.7677958927, -79378.04065680988, -28529.02901518691, -54225.756731719586, -187500.02235174447, -71656.7646451908, -1898.5795257782372, -187500.02235174447, -82962.2322871962, -77137.50179260991, -59817.62675257048, -62167.175074479, -80693.01613486007, -81823.63442464286, -0.056, 0.916, 0.41400000000000003, 192.0, 0.0, 0.0, 0.0, 0.0, 0.0, 0.0, 0.0, 0.0, 0.0, 1.695415942649894E9, 0.0, 2023-09-22 15:52:22.649
202.0, -35901.193130158565, -16838.418464472114, -84179.68710418786, -79393.35160176178, -28548.922067752133, -54248.399048852814, -187500.02235174447, -71682.71502050341, -1833.8712255801233, -187500.02235174447, -82979.7337031047, -77154.57852537377, -59830.166081209914, -62194.93594109249, -80709.62348099035, -81844.91328536431, -0.056, 0.916, 0.41400000000000003, 192.0, 0.0, 0.0, 0.0, 0.0, 0.0, 0.0, 0.0, 0.0, 0.0, 1.695415942649898E9, 0.0, 2023-09-22 15:52:22.649
204.0, -35904.81411276032, -16845.436912231078, -84169.49470871624, -79388.14364530369, -28536.87447749072, -54239.234833626135, -187500.02235174447, -71650.84143291014, -1874.841973166701, -187500.02235174447, -82968.66958959933, -77146.08486248075, -59823.97464799579, -62190.30912999024, -80696.92769013974, -81834.25150325913, -0.056, 0.916, 0.41400000000000003, 192.0, 0.0, 0.0, 0.0, 0.0, 0.0, 0.0, 0.0, 0.0, 0.0, 1.695415942649901E9, 0.0, 2023-09-22 15:52:22.649
206.0, -35905.88699649418, -16847.33681050978, -84177.29546753115, -79397.06199134135, -28553.347713154282, -54246.789723252026, -187500.02235174447, -71671.89677618704, -1837.1569320150534, -187500.02235174447, -82982.95235430627, -77160.05470276531, -59829.65199108744, -62205.262447030844, -80709.82464669045, -81849.58479995547, -0.056, 0.916, 0.41400000000000003, 192.0, 0.0, 0.0, 0.0, 0.0, 0.0, 0.0, 0.0, 0.0, 0.0, 1.695415942649904E9, 0.0, 2023-09-22 15:52:22.649
208.0, -35891.17954864258, -16835.579792926288, -84161.53748769016, -79385.12615980222, -28533.901695478165, -54230.2494323551, -187500.02235174447, -71655.5129475013, -1854.7924583902907, -187500.02235174447, -82969.92128728883, -77148.00711250391, -59816.68797930336, -62192.36549048013, -80696.10067559489, -81837.22428527169, -0.062, 0.914, 0.41600000000000004, 192.0, 127.0, 8.0, 14.0, 72.0, 6.5, 0.0, 0.0, 0.0, 0.0, 1.695415942649908E9, 0.0, 2023-09-22 15:52:22.649
210.0, -35869.29719082084, -16814.211525227016, -84153.53556317516, -79368.69762762757, -28527.352634352763, -54220.437016539225, -187500.02235174447, -71652.13783408854, -1835.5476064142713, -187500.02235174447, -82969.87658379991, -77146.97893225896, -59815.25746765822, -62196.85819111564, -80700.19104483021, -81839.59357018395, -0.062, 0.914, 0.41600000000000004, 192.0, 0.0, 0.0, 0.0, 0.0, 0.0, 0.0, 0.0, 0.0, 0.0, 1.695415942708796E9, 0.0, 2023-09-22 15:52:22.708
212.0, -35852.82395515728, -16798.341786663746, -84128.99334776323, -79347.82109830632, -28503.905654419144, -54193.033777837016, -187500.02235174447, -71624.06404305268, -1810.9606875134334, -187500.02235174447, -82929.44227808027, -77112.06550741977, -59785.88727544395, -62155.68627782897, -80666.01522755805, -81803.89783428881, -0.062, 0.914, 0.41600000000000004, 192.0, 0.0, 0.0, 0.0, 0.0, 0.0, 0.0, 0.0, 0.0, 0.0, 1.695415942708812E9, 0.0, 2023-09-22 15:52:22.708
214.0, -35867.53140300887, -16817.050196772838, -84156.95538007682, -79372.87740384071, -28531.398300099172, -54218.06773162696, -187500.02235174447, -71651.40022652152, -1816.0568852492436, -187500.02235174447, -82928.07882166849, -77115.15004815461, -59784.05443239861, -62154.61339409511, -80666.6410764028, -81800.2544999426, -0.062, 0.914, 0.41600000000000004, 192.0, 0.0, 0.0, 0.0, 0.0, 0.0, 0.0, 0.0, 0.0, 0.0, 1.695415942708816E9, 0.0, 2023-09-22 15:52:22.708
216.0, -35908.21157791753, -16852.18713905658, -84187.04082811366, -79398.15722681966, -28559.785015557412, -54239.033667926036, -187500.02235174447, -71667.69464822944, -1830.786684845291, -187500.02235174447, -82972.02235126762, -77158.69124635354, -59827.282706175174, -62187.850438100155, -80709.66818447926, -81840.8676196179, -0.062, 0.914, 0.41600000000000004, 192.0, 0.0, 0.0, 0.0, 0.0, 0.0, 0.0, 0.0, 0.0, 0.0, 1.695415942708819E9, 0.0, 2023-09-22 15:52:22.708
218.0, -35897.79566500136, -16845.03458083088, -84189.41011302592, -79400.4371047541, -28565.238841204507, -54243.32520286146, -187500.02235174447, -71669.79571220824, -1884.2073540934748, -187500.02235174447, -82983.73466536221, -77165.03914177885, -59843.577127883094, -62203.45195572996, -80715.7031554822, -81846.25439003162, -0.06, 0.91, 0.41200000000000003, 192.0, 127.0, 16.0, 14.0, 56.0, 6.0, 112.0, 0.0, 0.0, 0.0, 1.695415942708823E9, 0.0, 2023-09-22 15:52:22.708
220.0, -35878.08142639177, -16824.470975932, -84164.33145574707, -79377.68302889861, -28538.461451347048, -54220.839347939414, -187500.02235174447, -71645.70053168542, -1835.3911442030842, -187500.02235174447, -82963.7298540747, -77145.54842061382, -59824.26522067371, -62191.47142070191, -80700.32515529695, -81830.7646311241, -0.06, 0.91, 0.41200000000000003, 192.0, 0.0, 0.0, 0.0, 0.0, 0.0, 0.0, 0.0, 0.0, 0.0, 1.695415942708826E9, 0.0, 2023-09-22 15:52:22.708
222.0, -35875.80154845733, -16825.297990476847, -84170.23231628328, -79392.6363459392, -28539.959018225556, -54234.473912057154, -187500.02235174447, -71660.65384872603, -1869.9469411309888, -187500.02235174447, -82958.54424936108, -77147.22480144797, -59821.38184563898, -62195.58414168169, -80698.26879480705, -81832.44101195825, -0.06, 0.91, 0.41200000000000003, 192.0, 0.0, 0.0, 0.0, 0.0, 0.0, 0.0, 0.0, 0.0, 0.0, 1.695415942708829E9, 0.0, 2023-09-22 15:52:22.708
224.0, -35868.604286742724, -16815.03853977186, -84155.45781319831, -79381.79574987838, -28531.040672187886, -54220.32525781695, -187500.02235174447, -71648.82977590917, -1807.78673980078, -187500.02235174447, -82952.01753998012, -77146.39778690312, -59813.42462461289, -62192.63371141359, -80693.79844591599, -81833.33508173646, -0.06, 0.91, 0.41200000000000003, 192.0, 0.0, 0.0, 0.0, 0.0, 0.0, 0.0, 0.0, 0.0, 0.0, 1.695415942708833E9, 0.0, 2023-09-22 15:52:22.708
226.0, -35868.69369372055, -16820.939400308063, -84156.77656612117, -79384.20973827956, -28526.860895974743, -54219.297077572, -187500.02235174447, -71648.29333404223, -1868.3376155302067, -187500.02235174447, -82944.23913290967, -77137.52414435436, -59805.82503149808, -62186.88931308858, -80684.5448237115, -81822.18156125327, -0.06, 0.91, 0.41200000000000003, 192.0, 0.0, 0.0, 0.0, 0.0, 0.0, 0.0, 0.0, 0.0, 0.0, 1.695415942769095E9, 0.0, 2023-09-22 15:52:22.769
228.0, -35863.999827384934, -16810.7693565809, -84152.97676956377, -79375.80548236436, -28532.18061115511, -54206.08719659891, -187500.02235174447, -71643.5100607288, -1801.59530658666, -187500.02235174447, -82945.84845851046, -77132.4055948741, -59805.04272044215, -62183.89417933157, -80687.96464061317, -81819.43229668526, -0.07, 0.918, 0.41000000000000003, 192.0, 126.5, 104.0, 14.0, 88.0, 6.0, 104.0, 0.0, 0.0, 0.0, 1.695415942769104E9, 0.0, 2023-09-22 15:52:22.769
230.0, -35914.760639042936, -16859.85378740475, -84207.60443301254, -79420.86659918627, -28585.24365249201, -54259.306700147, -187500.02235174447, -71680.59160478016, -1887.8283366952346, -187500.02235174447, -82969.92128728883, -77149.41527240459, -59828.780273053686, -62190.26442650133, -80709.64583273481, -81834.25150325913, -0.07, 0.918, 0.41000000000000003, 192.0, 0.0, 0.0, 0.0, 0.0, 0.0, 0.0, 0.0, 0.0, 0.0, 1.695415942769108E9, 0.0, 2023-09-22 15:52:22.769
232.0, -35909.999717473955, -16850.220185544513, -84194.05927587263, -79413.75874444947, -28576.54882389889, -54249.36017386439, -187500.02235174447, -71681.6197850251, -1827.5680336437267, -187500.02235174447, -83010.4897034752, -77189.38019149068, -59867.31468049463, -62233.11272062215, -80749.00725472061, -81876.36218981292, -0.07, 0.918, 0.41000000000000003, 192.0, 0.0, 0.0, 0.0, 0.0, 0.0, 0.0, 0.0, 0.0, 0.0, 1.695415942769111E9, 0.0, 2023-09-22 15:52:22.769
234.0, -35871.6664757331, -16817.921914806597, -84154.25081899772, -79378.26417425444, -28536.472146090528, -54216.90544091528, -187500.02235174447, -71642.6159909506, -1885.8837349276228, -187500.02235174447, -82957.40431039386, -77137.59119958772, -59815.771557780696, -62186.35287122165, -80698.02292561805, -81823.83559034296, -0.07, 0.918, 0.41000000000000003, 192.0, 0.0, 0.0, 0.0, 0.0, 0.0, 0.0, 0.0, 0.0, 0.0, 1.695415942769115E9, 0.0, 2023-09-22 15:52:22.769
236.0, -35868.76074895391, -16815.597333383244, -84158.07296729958, -79378.487691699, -28542.93180023811, -54216.45840602618, -187500.02235174447, -71643.97944736236, -1771.6663207610038, -187500.02235174447, -82949.42473762331, -77127.3541006272, -59803.76867100819, -62174.68526061598, -80689.37280051384, -81817.17477049527, -0.07, 0.918, 0.41000000000000003, 192.0, 0.0, 0.0, 0.0, 0.0, 0.0, 0.0, 0.0, 0.0, 0.0, 1.695415942769118E9, 0.0, 2023-09-22 15:52:22.769
238.0, -35850.655835945116, -16802.342748921248, -84143.43257468136, -79366.14952875966, -28526.59267504128, -54204.701388442685, -187500.02235174447, -71632.46829896788, -1870.617493464648, -187500.02235174447, -82952.24105742468, -77125.99064421543, -59806.3167698761, -62176.8757315726, -80696.48065525063, -81820.95221530822, -0.064, 0.918, 0.41200000000000003, 192.0, 127.0, 0.0, 14.0, 88.0, 6.0, 112.0, 0.0, 0.0, 0.0, 1.695415942769121E9, 0.0, 2023-09-22 15:52:22.769
240.0, -35830.785135124344, -16779.27574864337, -84131.63085360895, -79358.25936296694, -28525.20686688505, -54197.05709183897, -187500.02235174447, -71625.78512737574, -1773.3203498506964, -187500.02235174447, -82919.56280703102, -77095.50286477839, -59784.18854286535, -62152.8699580276, -80677.05698931897, -81801.75206682111, -0.064, 0.918, 0.41200000000000003, 192.0, 0.0, 0.0, 0.0, 0.0, 0.0, 0.0, 0.0, 0.0, 0.0, 1.695415942831415E9, 0.0, 2023-09-22 15:52:22.831
242.0, -35844.57616145327, -16792.70914706101, -84136.7046996003, -79365.41192119264, -28532.15825941065, -54210.13286234532, -187500.02235174447, -71642.37012176157, -1859.0616415812544, -187500.02235174447, -82905.21298709071, -77083.11999835014, -59784.18854286535, -62157.45206564094, -80673.7936346285, -81795.33711616244, -0.064, 0.918, 0.41200000000000003, 192.0, 0.0, 0.0, 0.0, 0.0, 0.0, 0.0, 0.0, 0.0, 0.0, 1.695415942831442E9, 0.0, 2023-09-22 15:52:22.831
244.0, -35837.021271827376, -16783.589635323242, -84131.74261233123, -79359.1310810007, -28533.141736166686, -54205.93073438773, -187500.02235174447, -71637.6092001926, -1792.431091359984, -187500.02235174447, -82924.88252221138, -77103.39303057111, -59803.50045007473, -62165.766914578315, -80692.45734124868, -81817.13006700636, -0.064, 0.918, 0.41200000000000003, 192.0, 0.0, 0.0, 0.0, 0.0, 0.0, 0.0, 0.0, 0.0, 0.0, 1.695415942831448E9, 0.0, 2023-09-22 15:52:22.831
246.0, -35867.19612684204, -16816.223182227994, -84155.05548179812, -79391.49640697199, -28547.692721807092, -54229.511824788075, -187500.02235174447, -71656.33996204614, -1853.8089816342572, -187500.02235174447, -82916.83589420747, -77095.63697524511, -59787.720118489284, -62167.13037099009, -80682.30964926597, -81804.09899998891, -0.064, 0.918, 0.41200000000000003, 192.0, 0.0, 0.0, 0.0, 0.0, 0.0, 0.0, 0.0, 0.0, 0.0, 1.695415942831451E9, 0.0, 2023-09-22 15:52:22.831
248.0, -35863.73160645147, -16814.099766504736, -84159.61523766699, -79387.09311331429, -28548.296218907384, -54229.802397465995, -187500.02235174447, -71658.39632253603, -1815.5427951267716, -187500.02235174447, -82951.61520857993, -77128.98577797244, -59816.77738628118, -62196.12058354862, -80705.71192571067, -81836.24080851565, -0.056, 0.916, 0.41400000000000003, 192.0, 127.0, 32.0, 14.0, 80.0, 6.0, 120.0, 0.0, 0.0, 0.0, 1.695415942831455E9, 0.0, 2023-09-22 15:52:22.831
250.0, -35865.98913264145, -16818.90539156263, -84154.65315039792, -79386.22139528053, -28538.84143100279, -54226.04730439751, -187500.02235174447, -71650.86378465459, -1874.5737522332374, -187500.02235174447, -82943.2333044092, -77118.59221680072, -59820.95716249433, -62195.00299632586, -80697.1959110732, -81822.49448567563, -0.056, 0.916, 0.41400000000000003, 192.0, 0.0, 0.0, 0.0, 0.0, 0.0, 0.0, 0.0, 0.0, 0.0, 1.695415942831459E9, 0.0, 2023-09-22 15:52:22.831
252.0, -35852.9133621351, -16806.678987345575, -84151.79212710765, -79384.14268304619, -28545.99398922849, -54221.95693516218, -187500.02235174447, -71647.44396775293, -1835.949937814467, -187500.02235174447, -82935.45489733874, -77112.91487370907, -59806.02619719818, -62186.598740410656, -80689.99864935859, -81822.04745078653, -0.056, 0.916, 0.41400000000000003, 192.0, 0.0, 0.0, 0.0, 0.0, 0.0, 0.0, 0.0, 0.0, 0.0, 1.695415942831463E9, 0.0, 2023-09-22 15:52:22.831
254.0, -35865.65385647462, -16823.84512708725, -84157.20124926583, -79387.3389825033, -28555.538184110905, -54223.76742646306, -187500.02235174447, -71656.80934867972, -1872.8750196546341, -187500.02235174447, -82934.04673743805, -77113.451315576, -59812.55290657913, -62186.15170552155, -80694.02196336054, -81819.54405540753, -0.056, 0.916, 0.41400000000000003, 192.0, 0.0, 0.0, 0.0, 0.0, 0.0, 0.0, 0.0, 0.0, 0.0, 1.695415942831466E9, 0.0, 2023-09-22 15:52:22.831
0.0, -35864.17864134057, -16819.888868318663, -84168.93591510486, -79397.17375006364, -28571.385570929717, -54228.260127098576, -187500.02235174447, -71662.21847083789, -1859.6427869370923, -187500.02235174447, -82947.32367364451, -77124.51542908138, -59822.79000553966, -62190.21972301242, -80712.7527252141, -81831.23401775766, -0.056, 0.916, 0.41400000000000003, 192.0, 0.0, 0.0, 0.0, 0.0, 0.0, 0.0, 0.0, 0.0, 0.0, 1.695415942889741E9, 0.0, 2023-09-22 15:52:22.889
2.0, -35887.066827662806, -16845.10163606425, -84181.56465072211, -79411.47886651503, -28577.97933554403, -54241.55941504949, -187500.02235174447, -71671.60620350912, -1885.2578860828742, -187500.02235174447, -82961.20410695125, -77134.3054931528, -59847.98042154079, -62204.65894993055, -80726.83432422094, -81847.05905283202, -0.06, 0.918, 0.406, 192.0, 127.0, 16.0, 14.0, 88.0, 6.0, 88.0, 0.0, 0.0, 0.0, 1.69541594288975E9, 0.0, 2023-09-22 15:52:22.889
4.0, -35884.541080539355, -16841.61476392922, -84185.43150251287, -79415.09984911678, -28583.589623402313, -54248.22023489717, -187500.02235174447, -71678.44583731245, -1890.4434907965053, -187500.02235174447, -82957.15844120484, -77133.47847860795, -59833.69765683385, -62197.014653326834, -80722.96747243017, -81842.5216487076, -0.06, 0.918, 0.406, 192.0, 0.0, 0.0, 0.0, 0.0, 0.0, 0.0, 0.0, 0.0, 0.0, 1.695415942889754E9, 0.0, 2023-09-22 15:52:22.889
6.0, -35877.61203975821, -16834.909240592628, -84166.00783658122, -79395.92205237414, -28564.143605726196, -54237.2008248807, -187500.02235174447, -71670.30980233071, -1878.5970662351926, -187500.02235174447, -82963.4839848857, -77142.48623162345, -59841.56547088212, -62212.72792967891, -80727.46017306569, -81853.96574186871, -0.06, 0.918, 0.406, 192.0, 0.0, 0.0, 0.0, 0.0, 0.0, 0.0, 0.0, 0.0, 0.0, 1.695415942889757E9, 0.0, 2023-09-22 15:52:22.889
8.0, -35857.830745915264, -16818.19013574006, -84159.83875511154, -79388.45656972607, -28560.835547546812, -54229.64593525481, -187500.02235174447, -71659.22333708088, -1879.6475982245922, -187500.02235174447, -82943.56858057601, -77119.32982436774, -59822.45472937283, -62198.758089394345, -80708.61765248986, -81832.4633637027, -0.06, 0.918, 0.406, 192.0, 0.0, 0.0, 0.0, 0.0, 0.0, 0.0, 0.0, 0.0, 0.0, 1.695415942889761E9, 0.0, 2023-09-22 15:52:22.889
10.0, -35837.915341605585, -16795.592522095743, -84140.43744092435, -79371.9386305736, -28543.64705606068, -54212.16687109076, -187500.02235174447, -71639.97848510486, -1829.557338900249, -187500.02235174447, -82927.25180712364, -77102.0519259038, -59802.98635995226, -62176.76397285033, -80694.2454808051, -81819.23113098516, -0.06, 0.918, 0.406, 192.0, 0.0, 0.0, 0.0, 0.0, 0.0, 0.0, 0.0, 0.0, 0.0, 1.695415942889769E9, 0.0, 2023-09-22 15:52:22.889
12.0, -35844.24088528644, -16801.381623909667, -84141.57737989156, -79375.44785445307, -28543.334131638305, -54218.87239442735, -187500.02235174447, -71642.16895606148, -1857.429964236017, -187500.02235174447, -82921.32859484298, -77094.51938802235, -59797.55488604962, -62183.60360665365, -80694.17842557174, -81816.2136454837, -0.06, 0.914, 0.406, 192.0, 127.0, 16.0, 14.0, 72.0, 6.0, 88.0, 0.0, 0.0, 0.0, 1.695415942889772E9, 0.0, 2023-09-22 15:52:22.889
14.0, -35847.81716439929, -16799.32526341978, -84132.43551640934, -79366.95419156006, -28537.12034667973, -54201.415682007755, -187500.02235174447, -71629.33905474414, -1824.1258649976094, -187500.02235174447, -82920.88155995388, -77091.21132984298, -59802.204048896325, -62180.00497579634, -80679.58273644242, -81808.70345934671, -0.06, 0.914, 0.406, 192.0, 0.0, 0.0, 0.0, 0.0, 0.0, 0.0, 0.0, 0.0, 0.0, 1.695415942949044E9, 0.0, 2023-09-22 15:52:22.949
16.0, -35837.58006543876, -16789.93753074855, -84131.83201930905, -79354.727787343, -28534.50519257846, -54199.64989419578, -187500.02235174447, -71636.82688913666, -1893.4162728090612, -187500.02235174447, -82916.92530118529, -77081.95770763847, -59803.63456054146, -62168.136199490575, -80668.71978863714, -81796.58881385194, -0.06, 0.914, 0.406, 192.0, 0.0, 0.0, 0.0, 0.0, 0.0, 0.0, 0.0, 0.0, 0.0, 1.695415942949055E9, 0.0, 2023-09-22 15:52:22.949
18.0, -35841.268103273884, -16786.763583035896, -84131.2061704643, -79353.94547628707, -28541.769509526435, -54197.81705115045, -187500.02235174447, -71620.57717091766, -1815.5651468712267, -187500.02235174447, -82907.15758885832, -77067.51848072035, -59796.034967426654, -62162.99529826586, -80666.10463453588, -81790.44208412673, -0.06, 0.914, 0.406, 192.0, 0.0, 0.0, 0.0, 0.0, 0.0, 0.0, 0.0, 0.0, 0.0, 1.695415942949058E9, 0.0, 2023-09-22 15:52:22.949
20.0, -35852.48867899045, -16799.83935354225, -84151.50155442972, -79373.61501140775, -28556.007570744467, -54221.755769462085, -187500.02235174447, -71650.32734278767, -1902.3122671022734, -187500.02235174447, -82924.3237286, -77081.77889368283, -59809.93775247786, -62167.219777967905, -80684.07543707793, -81805.12718023386, -0.06, 0.914, 0.406, 192.0, 0.0, 0.0, 0.0, 0.0, 0.0, 0.0, 0.0, 0.0, 0.0, 1.695415942949062E9, 0.0, 2023-09-22 15:52:22.949
22.0, -35840.46344047349, -16789.021109225883, -84144.03607178165, -79366.6859706266, -28554.398245143682, -54208.50118500009, -187500.02235174447, -71644.27002004028, -1833.4465424354723, -187500.02235174447, -82932.34800485945, -77090.36196355367, -59819.72781654928, -62179.960272307435, -80695.89950989479, -81817.84532282893, -0.062, 0.916, 0.40800000000000003, 192.0, 127.0, 8.0, 14.0, 80.0, 6.0, 96.0, 0.0, 0.0, 0.0, 1.695415942949073E9, 0.0, 2023-09-22 15:52:22.949
24.0, -35832.08153630275, -16784.528408590366, -84139.38690893495, -79362.5285461579, -28544.56347758335, -54205.70721694318, -187500.02235174447, -71646.08051134116, -1918.1596539210861, -187500.02235174447, -82911.4714755382, -77072.52527147833, -59801.287627373655, -62160.58130986468, -80678.75572189757, -81799.56159586449, -0.062, 0.916, 0.40800000000000003, 192.0, 0.0, 0.0, 0.0, 0.0, 0.0, 0.0, 0.0, 0.0, 0.0, 1.695415942949077E9, 0.0, 2023-09-22 15:52:22.949
26.0, -35850.029987100366, -16796.821868040784, -84151.2109817518, -79374.71024688605, -28559.963829513053, -54216.525461259545, -187500.02235174447, -71645.85699389661, -1829.2220627334193, -187500.02235174447, -82925.97775768969, -77084.25993731737, -59814.45280485783, -62167.10801924563, -80691.96560287067, -81815.3642791944, -0.062, 0.916, 0.40800000000000003, 192.0, 0.0, 0.0, 0.0, 0.0, 0.0, 0.0, 0.0, 0.0, 0.0, 1.69541594294908E9, 0.0, 2023-09-22 15:52:22.949
28.0, -35833.80262062581, -16783.455524856512, -84135.43065016635, -79357.70056935555, -28548.922067752133, -54202.332103530425, -187500.02235174447, -71636.42455773646, -1932.554177350304, -187500.02235174447, -82920.54628378706, -77074.76044592386, -59808.10490943252, -62165.99043202287, -80689.48455923612, -81810.7598198366, -0.062, 0.916, 0.40800000000000003, 192.0, 0.0, 0.0, 0.0, 0.0, 0.0, 0.0, 0.0, 0.0, 0.0, 1.695415942949083E9, 0.0, 2023-09-22 15:52:22.949
30.0, -35844.71027192, -16790.921007504585, -84144.12547875947, -79366.46245318204, -28556.27579167793, -54209.663475711764, -187500.02235174447, -71639.48674672685, -1826.5845568876932, -187500.02235174447, -82920.61333902042, -77077.37560002513, -59810.250676900236, -62164.515216888816, -80688.81400690247, -81813.53143614906, -0.062, 0.916, 0.40800000000000003, 192.0, 0.0, 0.0, 0.0, 0.0, 0.0, 0.0, 0.0, 0.0, 0.0, 1.695415943009915E9, 0.0, 2023-09-22 15:52:23.009
32.0, -35852.48867899045, -16804.98025476697, -84146.98650204975, -79367.02124679342, -28558.55566961237, -54207.60711522187, -187500.02235174447, -71635.66459842499, -1914.42691259705, -187500.02235174447, -82927.20710363473, -77088.41736178605, -59806.36147336501, -62169.186731479975, -80677.97341084165, -81805.99889826762, -0.062, 0.924, 0.40800000000000003, 192.0, 127.0, 8.0, 14.0, 112.0, 6.0, 96.0, 0.0, 0.0, 0.0, 1.695415943009925E9, 0.0, 2023-09-22 15:52:23.009
34.0, -35858.72481569348, -16806.164897223105, -84148.81934509508, -79366.35069445976, -28558.33215216782, -54208.92586814474, -187500.02235174447, -71636.98335134785, -1846.1199815416314, -187500.02235174447, -82938.65119679585, -77102.0966293927, -59810.04951120014, -62183.69301363147, -80685.12596906733, -81811.65388961481, -0.062, 0.924, 0.40800000000000003, 192.0, 0.0, 0.0, 0.0, 0.0, 0.0, 0.0, 0.0, 0.0, 0.0, 1.695415943009929E9, 0.0, 2023-09-22 15:52:23.009
36.0, -35859.21655407149, -16807.46129840151, -84146.85239158302, -79358.79580483388, -28554.152375954676, -54198.33114127292, -187500.02235174447, -71631.23895302284, -1923.4346656125388, -187500.02235174447, -82937.4218508508, -77104.04123116031, -59806.13795592046, -62173.56767339321, -80673.3465997394, -81799.04750574203, -0.062, 0.924, 0.40800000000000003, 192.0, 0.0, 0.0, 0.0, 0.0, 0.0, 0.0, 0.0, 0.0, 0.0, 1.695415943009932E9, 0.0, 2023-09-22 15:52:23.009
38.0, -35823.63257689864, -16772.95020496252, -84128.92629252987, -79319.90376948164, -28535.46631759004, -54173.23013224961, -187500.02235174447, -71608.26135972278, -1836.6651936370367, -187500.02235174447, -82925.39661233385, -77087.70210596349, -59796.057319171116, -62148.10903645862, -80666.17168976924, -81780.45085435521, -0.062, 0.924, 0.40800000000000003, 192.0, 0.0, 0.0, 0.0, 0.0, 0.0, 0.0, 0.0, 0.0, 0.0, 1.695415943009936E9, 0.0, 2023-09-22 15:52:23.009
40.0, -35818.22345474046, -16766.535254303846, -84122.35487966001, -79311.36540309971, -28533.901695478165, -54171.01730954854, -187500.02235174447, -71614.63160689254, -1873.9926068773993, -187500.02235174447, -82914.15368487283, -77072.68173368952, -59787.675415000376, -62136.08379794167, -80655.95694255317, -81771.5995635509, -0.062, 0.924, 0.40800000000000003, 192.0, 0.0, 0.0, 0.0, 0.0, 0.0, 0.0, 0.0, 0.0, 0.0, 1.695415943009941E9, 0.0, 2023-09-22 15:52:23.009
42.0, -35802.24195745492, -16745.010524393383, -84111.82720802155, -79299.09429539375, -28529.386643098194, -54164.1329722563, -187500.02235174447, -71598.29248169571, -1809.105492723643, -187500.02235174447, -82897.27811780908, -77051.93931483499, -59760.6521559539, -62118.53767854425, -80644.35638718086, -81758.59084827792, -0.062, 0.918, 0.41200000000000003, 192.0, 127.0, 8.0, 14.0, 88.0, 6.0, 112.0, 0.0, 0.0, 0.0, 1.695415943009946E9, 0.0, 2023-09-22 15:52:23.009
44.0, -35818.71519311848, -16762.489588557433, -84119.82913253656, -79305.91157745261, -28525.45273607406, -54177.34285322939, -187500.02235174447, -71608.52958065625, -1862.2355892939079, -187500.02235174447, -82901.68141146678, -77055.51559394784, -59761.21094956529, -62120.72814950087, -80634.94630276517, -81756.78035697703, -0.062, 0.918, 0.41200000000000003, 192.0, 0.0, 0.0, 0.0, 0.0, 0.0, 0.0, 0.0, 0.0, 0.0, 1.695415943070596E9, 0.0, 2023-09-22 15:52:23.070
46.0, -35815.13891400563, -16760.99202167893, -84130.44621115283, -79312.25947287792, -28533.499364077972, -54187.60230393438, -187500.02235174447, -71622.56647617418, -1832.396010446073, -187500.02235174447, -82916.03123140708, -77068.1443295651, -59773.68322297135, -62129.758254260814, -80644.78107032551, -81770.86195598388, -0.062, 0.918, 0.41200000000000003, 192.0, 0.0, 0.0, 0.0, 0.0, 0.0, 0.0, 0.0, 0.0, 0.0, 1.695415943070612E9, 0.0, 2023-09-22 15:52:23.070
48.0, -35867.352589053226, -16815.060891516317, -84170.74640640574, -79355.59950537677, -28568.345733683796, -54228.126016631846, -187500.02235174447, -71653.27777305577, -1877.7924034348016, -187500.02235174447, -82951.41404287983, -77100.48730379192, -59799.79006049515, -62159.17314996399, -80671.0890735494, -81796.76762780758, -0.062, 0.918, 0.41200000000000003, 192.0, 0.0, 0.0, 0.0, 0.0, 0.0, 0.0, 0.0, 0.0, 0.0, 1.695415943070616E9, 0.0, 2023-09-22 15:52:23.070
50.0, -35830.94159733553, -16779.387507365645, -84144.72897585976, -79330.00675797544, -28548.318570651838, -54195.336007515914, -187500.02235174447, -71632.26713326779, -1890.3093803297736, -187500.02235174447, -82960.44414763978, -77109.47270506296, -59798.560714550105, -62171.712478603426, -80676.05116081848, -81804.32251743347, -0.062, 0.918, 0.41200000000000003, 192.0, 0.0, 0.0, 0.0, 0.0, 0.0, 0.0, 0.0, 0.0, 0.0, 1.69541594307062E9, 0.0, 2023-09-22 15:52:23.070
52.0, -35840.7093096625, -16785.7130510465, -84144.57251364857, -79330.81142077583, -28544.049387460876, -54197.839402894904, -187500.02235174447, -71631.68598791194, -1883.715615715458, -187500.02235174447, -82947.86011551143, -77095.65932698958, -59792.145763891436, -62142.834024767166, -80664.51766067954, -81785.68116255774, -0.06, 0.912, 0.41400000000000003, 192.0, 127.0, 16.0, 14.0, 64.0, 6.0, 120.0, 0.0, 0.0, 0.0, 1.695415943070632E9, 0.0, 2023-09-22 15:52:23.070
54.0, -35836.64129217163, -16786.204789424515, -84148.48406892826, -79334.74532779996, -28554.59941084378, -54197.10179532788, -187500.02235174447, -71627.3050459987, -1889.4376622960167, -187500.02235174447, -82950.58702833498, -77097.80509445729, -59794.1127174035, -62164.89519654455, -80666.17168976924, -81790.24091842663, -0.06, 0.912, 0.41400000000000003, 192.0, 0.0, 0.0, 0.0, 0.0, 0.0, 0.0, 0.0, 0.0, 0.0, 1.695415943070636E9, 0.0, 2023-09-22 15:52:23.070
56.0, -35831.969777580474, -16781.443867855534, -84132.10024024252, -79320.73078402648, -28537.522678079928, -54179.57802767492, -187500.02235174447, -71614.49749642581, -1870.6398452091034, -187500.02235174447, -82943.83680150947, -77091.09957112069, -59788.16715337839, -62149.38308589257, -80661.90250657828, -81783.49069160112, -0.06, 0.912, 0.41400000000000003, 192.0, 0.0, 0.0, 0.0, 0.0, 0.0, 0.0, 0.0, 0.0, 0.0, 1.695415943070639E9, 0.0, 2023-09-22 15:52:23.070
58.0, -35811.71909710397, -16765.75294324791, -84121.23729243723, -79312.86296997822, -28526.749137252467, -54174.504181683566, -187500.02235174447, -71600.48295265234, -1891.6951884860027, -187500.02235174447, -82929.44227808027, -77081.84594891619, -59779.40526955191, -62141.9176032445, -80646.03276801501, -81770.12434841685, -0.06, 0.912, 0.41400000000000003, 192.0, 0.0, 0.0, 0.0, 0.0, 0.0, 0.0, 0.0, 0.0, 0.0, 1.695415943070642E9, 0.0, 2023-09-22 15:52:23.070
60.0, -35852.01929235688, -16805.04731000034, -84152.64149339695, -79350.61506636323, -28559.76266381296, -54207.27183905504, -187500.02235174447, -71631.77539488976, -1850.0315368213103, -187500.02235174447, -82936.39367060586, -77092.23951008791, -59774.89021717194, -62155.86509178461, -80654.97346579713, -81777.5004240871, -0.06, 0.912, 0.41400000000000003, 192.0, 0.0, 0.0, 0.0, 0.0, 0.0, 0.0, 0.0, 0.0, 0.0, 1.695415943129465E9, 0.0, 2023-09-22 15:52:23.129
62.0, -35856.377882525674, -16807.70716759052, -84166.87955461498, -79357.36529318873, -28574.671277364647, -54215.38552229232, -187500.02235174447, -71643.5100607288, -1931.548348849815, -187500.02235174447, -82965.00390350865, -77122.97315871395, -59806.09325243154, -62187.06812704422, -80686.26590803456, -81807.1611889793, -0.058, 0.906, 0.418, 192.0, 127.0, 24.0, 14.0, 40.0, 6.5, 8.0, 0.0, 0.0, 0.0, 1.695415943129485E9, 0.0, 2023-09-22 15:52:23.129
64.0, -35870.92886816608, -16814.27858046038, -84168.9135633604, -79358.95226704505, -28571.117349996253, -54211.429263523736, -187500.02235174447, -71648.06981659768, -1871.6009702206816, -187500.02235174447, -82973.67638035731, -77130.32688263975, -59810.250676900236, -62190.48794394588, -80692.74791392659, -81813.19615998222, -0.058, 0.906, 0.418, 192.0, 0.0, 0.0, 0.0, 0.0, 0.0, 0.0, 0.0, 0.0, 0.0, 1.695415943129489E9, 0.0, 2023-09-22 15:52:23.129
66.0, -35833.62380667017, -16783.634338812153, -84136.30236820011, -79328.55389458584, -28535.533372823404, -54177.1863910182, -187500.02235174447, -71610.04949927921, -1911.007095695388, -187500.02235174447, -82959.14774646137, -77114.52419930986, -59796.92903720487, -62171.913644303524, -80673.12308229484, -81794.39834289532, -0.058, 0.906, 0.418, 192.0, 0.0, 0.0, 0.0, 0.0, 0.0, 0.0, 0.0, 0.0, 0.0, 1.695415943129492E9, 0.0, 2023-09-22 15:52:23.129
68.0, -35847.794812654836, -16799.258208186413, -84143.67844387036, -79339.10391796875, -28550.8890212642, -54193.100833070384, -187500.02235174447, -71624.98046457535, -1809.1278444680984, -187500.02235174447, -82947.65894981135, -77101.35902182567, -59785.21672311029, -62164.60462386664, -80661.12019552234, -81780.94259273322, -0.058, 0.906, 0.418, 192.0, 0.0, 0.0, 0.0, 0.0, 0.0, 0.0, 0.0, 0.0, 0.0, 1.695415943129496E9, 0.0, 2023-09-22 15:52:23.129
70.0, -35807.24874821291, -16761.03672516784, -84106.70865854129, -79299.3178128383, -28516.869666203223, -54157.785076830995, -187500.02235174447, -71584.14382745551, -1901.395845579606, -187500.02235174447, -82940.61815030791, -77092.95476591049, -59773.01267063769, -62146.00797247982, -80655.88988731979, -81775.71228453067, -0.058, 0.906, 0.418, 192.0, 0.0, 0.0, 0.0, 0.0, 0.0, 0.0, 0.0, 0.0, 0.0, 1.6954159431295E9, 0.0, 2023-09-22 15:52:23.129
72.0, -35817.12821926215, -16766.3564403482, -84119.8067807921, -79312.68415602257, -28529.610160542747, -54172.29135898249, -187500.02235174447, -71602.58401663114, -1817.1744724720088, -187500.02235174447, -82920.36746983141, -77072.03353310032, -59755.95828961829, -62130.5629170612, -80638.27671268901, -81756.40037732129, -0.058, 0.914, 0.418, 192.0, 127.0, 24.0, 14.0, 72.0, 6.5, 8.0, 0.0, 0.0, 0.0, 1.695415943129503E9, 0.0, 2023-09-22 15:52:23.129
74.0, -35827.70059438951, -16782.717917289487, -84138.71635660129, -79325.69287129556, -28546.731596795515, -54189.23398127961, -187500.02235174447, -71621.06890929567, -1924.686363302036, -187500.02235174447, -82936.66189153933, -77087.36682979665, -59776.58894975054, -62150.321859159696, -80654.61583788584, -81774.43823509672, -0.058, 0.914, 0.418, 192.0, 0.0, 0.0, 0.0, 0.0, 0.0, 0.0, 0.0, 0.0, 0.0, 1.695415943189623E9, 0.0, 2023-09-22 15:52:23.189
76.0, -35818.44697218502, -16762.84721646872, -84121.23729243723, -79309.59961528773, -28534.192268156086, -54173.83362934991, -187500.02235174447, -71616.19622900442, -1836.0169930478328, -187500.02235174447, -82936.21485665023, -77081.93535589402, -59773.77262994917, -62145.94091724646, -80660.09201527739, -81778.86388049887, -0.058, 0.914, 0.418, 192.0, 0.0, 0.0, 0.0, 0.0, 0.0, 0.0, 0.0, 0.0, 0.0, 1.695415943189644E9, 0.0, 2023-09-22 15:52:23.189
78.0, -35844.28558877535, -16793.42440288358, -84142.65026362542, -79336.08643246727, -28555.135852710708, -54195.98420810512, -187500.02235174447, -71620.24189475083, -1924.5746045797594, -187500.02235174447, -82933.39853684885, -77083.99171638391, -59768.296452557624, -62154.38987665056, -80652.64888437378, -81775.93580197523, -0.058, 0.914, 0.418, 192.0, 0.0, 0.0, 0.0, 0.0, 0.0, 0.0, 0.0, 0.0, 0.0, 1.695415943189648E9, 0.0, 2023-09-22 15:52:23.189
80.0, -35834.987263081945, -16782.203827167014, -84136.14590598893, -79332.75602254344, -28551.291352664397, -54185.09890855538, -187500.02235174447, -71611.45765917988, -1849.4503914654722, -187500.02235174447, -82955.99615049317, -77107.08106840623, -59797.01844418269, -62173.05358327075, -80677.86165211936, -81795.6053370959, -0.058, 0.914, 0.418, 192.0, 0.0, 0.0, 0.0, 0.0, 0.0, 0.0, 0.0, 0.0, 0.0, 1.695415943189651E9, 0.0, 2023-09-22 15:52:23.189
82.0, -35843.10094631922, -16793.64792032813, -84141.2644554692, -79331.81724927631, -28551.850146275778, -54186.84234462289, -187500.02235174447, -71614.27397898126, -1924.328735390751, -187500.02235174447, -82922.98262393268, -77072.70408543397, -59773.057374126605, -62140.8670712551, -80645.45162265917, -81759.23904886712, -0.056, 0.914, 0.42, 192.0, 127.0, 32.0, 14.0, 72.0, 6.5, 16.0, 0.0, 0.0, 0.0, 1.695415943189655E9, 0.0, 2023-09-22 15:52:23.189
84.0, -35852.98041736847, -16799.682891331064, -84153.08852828605, -79347.88815353968, -28569.105692995276, -54205.23783030961, -187500.02235174447, -71634.32349375766, -1855.328900257218, -187500.02235174447, -82964.44510989728, -77111.01497543037, -59805.93679022036, -62176.27223447231, -80682.6449254328, -81800.54507262053, -0.056, 0.914, 0.42, 192.0, 0.0, 0.0, 0.0, 0.0, 0.0, 0.0, 0.0, 0.0, 0.0, 1.695415943189658E9, 0.0, 2023-09-22 15:52:23.189
86.0, -35875.80154845733, -16822.638132886666, -84167.32658950408, -79369.90462182816, -28585.198949003097, -54225.48851078612, -187500.02235174447, -71654.12713934507, -1944.8252850562676, -187500.02235174447, -82973.34110419049, -77117.49698132242, -59816.19624092535, -62192.0302143133, -80691.87619589284, -81811.00568902561, -0.056, 0.914, 0.42, 192.0, 0.0, 0.0, 0.0, 0.0, 0.0, 0.0, 0.0, 0.0, 0.0, 1.695415943189661E9, 0.0, 2023-09-22 15:52:23.189
88.0, -35858.881277904664, -16808.80240306883, -84155.97190332078, -79364.80842409235, -28578.47107392205, -54221.062865383974, -187500.02235174447, -71651.06495035469, -1890.6446564966031, -187500.02235174447, -82967.70846458775, -77108.46687656247, -59803.41104309691, -62182.08368803069, -80689.64102144731, -81811.89975880382, -0.056, 0.914, 0.42, 192.0, 0.0, 0.0, 0.0, 0.0, 0.0, 0.0, 0.0, 0.0, 0.0, 1.695415943189664E9, 0.0, 2023-09-22 15:52:23.189
90.0, -35867.39729254214, -16822.884002075672, -84159.48112720027, -79365.72484561501, -28574.850091320288, -54218.2465455826, -187500.02235174447, -71644.94057237395, -1941.4725233879715, -187500.02235174447, -82967.79787156558, -77110.9032167081, -59801.10881341801, -62188.833914856186, -80691.07153309244, -81812.39149718184, -0.056, 0.914, 0.42, 192.0, 0.0, 0.0, 0.0, 0.0, 0.0, 0.0, 0.0, 0.0, 0.0, 1.695415943249246E9, 0.0, 2023-09-22 15:52:23.249
92.0, -35850.05233884482, -16808.2659612019, -84155.07783354257, -79356.91825829963, -28584.528396669437, -54204.567277975955, -187500.02235174447, -71642.92891537296, -1893.1704036200529, -187500.02235174447, -82967.57435412102, -77109.58446378523, -59803.813374497106, -62189.035080556285, -80692.5467482265, -81809.61988086937, -0.058, 0.92, 0.418, 192.0, 127.0, 24.0, 14.0, 96.0, 6.5, 8.0, 0.0, 0.0, 0.0, 1.695415943249256E9, 0.0, 2023-09-22 15:52:23.249
94.0, -35858.121318593185, -16814.61385662721, -84153.46850794178, -79354.63838036518, -28586.070667036853, -54202.13093783033, -187500.02235174447, -71637.67625542596, -1931.548348849815, -187500.02235174447, -82954.94561850377, -77096.41928630105, -59799.23126688377, -62175.624033883105, -80688.72459992464, -81796.54411036303, -0.058, 0.92, 0.418, 192.0, 0.0, 0.0, 0.0, 0.0, 0.0, 0.0, 0.0, 0.0, 0.0, 1.695415943249259E9, 0.0, 2023-09-22 15:52:23.249
96.0, -35820.19040825253, -16774.5595305633, -84116.56577784607, -79322.65303404964, -28546.575134584327, -54174.39242296129, -187500.02235174447, -71610.89886556851, -1900.3676653346618, -187500.02235174447, -82952.46457486923, -77099.52617878035, -59801.712310518305, -62181.50254267485, -80682.75668415507, -81796.58881385194, -0.058, 0.92, 0.418, 192.0, 0.0, 0.0, 0.0, 0.0, 0.0, 0.0, 0.0, 0.0, 0.0, 1.695415943249262E9, 0.0, 2023-09-22 15:52:23.249
98.0, -35821.978547808954, -16778.627548054166, -84107.17804517485, -79316.68511828007, -28536.338035623794, -54168.826838591915, -187500.02235174447, -71596.88432179503, -1897.394883322106, -187500.02235174447, -82911.35971681592, -77063.60692544066, -59759.04283035312, -62149.9195277595, -80637.67321558871, -81759.88724945633, -0.058, 0.92, 0.418, 192.0, 0.0, 0.0, 0.0, 0.0, 0.0, 0.0, 0.0, 0.0, 0.0, 1.695415943249265E9, 0.0, 2023-09-22 15:52:23.249
100.0, -35800.4985213874, -16755.113512887183, -84101.81362650558, -79308.83965597626, -28536.11451817924, -54166.189332746195, -187500.02235174447, -71594.93972002743, -1882.9333046595223, -187500.02235174447, -82908.43163829227, -77059.49420446089, -59753.65605993939, -62155.418056895505, -80638.25436094456, -81758.36733083337, -0.058, 0.92, 0.418, 192.0, 0.0, 0.0, 0.0, 0.0, 0.0, 0.0, 0.0, 0.0, 0.0, 1.695415943249268E9, 0.0, 2023-09-22 15:52:23.249
102.0, -35803.60541386669, -16765.730591503452, -84101.41129510538, -79307.38679258667, -28527.866724475232, -54168.44685893618, -187500.02235174447, -71589.35178391359, -1864.8283916507235, -187500.02235174447, -82900.80969343301, -77046.39608221008, -59752.18084480535, -62135.86028049711, -80626.8326195279, -81749.09135688441, -0.052000000000000005, 0.92, 0.418, 192.0, 127.0, 48.0, 14.0, 96.0, 6.5, 8.0, 0.0, 0.0, 0.0, 1.695415943249272E9, 0.0, 2023-09-22 15:52:23.249
104.0, -35823.78903910983, -16780.214521910493, -84133.5084001432, -79327.83863876328, -28566.781111571923, -54191.04447258049, -187500.02235174447, -71612.26232198028, -1886.129604116631, -187500.02235174447, -82922.78145823258, -77065.21625104145, -59766.03892636763, -62158.50259763034, -80649.3855296833, -81764.73757800313, -0.052000000000000005, 0.92, 0.418, 192.0, 0.0, 0.0, 0.0, 0.0, 0.0, 0.0, 0.0, 0.0, 0.0, 1.695415943308675E9, 0.0, 2023-09-22 15:52:23.308
106.0, -35821.352698964205, -16778.47108584298, -84121.57256860407, -79316.93098746908, -28552.36423639825, -54175.755879373064, -187500.02235174447, -71603.74630734281, -1881.100461614187, -187500.02235174447, -82932.45976358173, -77071.9441261225, -59782.73567947575, -62167.04096401227, -80664.16003276825, -81774.19236590771, -0.052000000000000005, 0.92, 0.418, 192.0, 0.0, 0.0, 0.0, 0.0, 0.0, 0.0, 0.0, 0.0, 0.0, 1.695415943308686E9, 0.0, 2023-09-22 15:52:23.308
108.0, -35832.37210898067, -16787.478838858467, -84140.862124069, -79338.76864180191, -28577.75581809948, -54195.78304240502, -187500.02235174447, -71629.07083381068, -1923.457017356994, -187500.02235174447, -82931.85626648144, -77071.92177437805, -59774.19731309382, -62156.937975518464, -80666.75283512508, -81775.3546566194, -0.052000000000000005, 0.92, 0.418, 192.0, 0.0, 0.0, 0.0, 0.0, 0.0, 0.0, 0.0, 0.0, 0.0, 1.69541594330869E9, 0.0, 2023-09-22 15:52:23.308
110.0, -35851.72871967897, -16805.18142046707, -84146.87474332747, -79347.91050528413, -28581.600318145793, -54206.645990210294, -187500.02235174447, -71637.34097925914, -1886.9342669170223, -187500.02235174447, -82949.22357192321, -77084.43875127302, -59792.57044703609, -62176.89808331706, -80677.16874804125, -81791.24674692712, -0.052000000000000005, 0.92, 0.418, 192.0, 0.0, 0.0, 0.0, 0.0, 0.0, 0.0, 0.0, 0.0, 0.0, 1.695415943308693E9, 0.0, 2023-09-22 15:52:23.308
112.0, -35860.24473431644, -16817.631342128676, -84163.10210980203, -79366.26128748195, -28599.213492776573, -54215.4972810146, -187500.02235174447, -71655.24472656783, -1956.6046543842144, -187500.02235174447, -82967.30613318755, -77103.21421661547, -59821.20303168333, -62200.6803394175, -80690.42333250324, -81808.14466573532, -0.054, 0.916, 0.418, 192.0, 127.0, 40.0, 14.0, 80.0, 6.5, 8.0, 0.0, 0.0, 0.0, 1.695415943308697E9, 0.0, 2023-09-22 15:52:23.308
114.0, -35847.68305393255, -16803.527391377378, -84137.08467925605, -79342.09905172576, -28573.777207586434, -54187.60230393438, -187500.02235174447, -71623.14762153002, -1881.9945313923993, -187500.02235174447, -82954.11860395892, -77097.2463008459, -59809.9154007334, -62191.8290486132, -80680.83443413192, -81796.56646210748, -0.054, 0.916, 0.418, 192.0, 0.0, 0.0, 0.0, 0.0, 0.0, 0.0, 0.0, 0.0, 0.0, 1.6954159433087E9, 0.0, 2023-09-22 15:52:23.308
116.0, -35860.46825176099, -16820.04533052985, -84151.45685094081, -79357.00766527744, -28588.32819322684, -54208.79175767801, -187500.02235174447, -71638.79384264874, -1953.1401339936417, -187500.02235174447, -82958.05251098306, -77106.76814398386, -59800.371205850985, -62204.681301675, -80678.12987305282, -81794.01836323958, -0.054, 0.916, 0.418, 192.0, 0.0, 0.0, 0.0, 0.0, 0.0, 0.0, 0.0, 0.0, 0.0, 1.695415943308703E9, 0.0, 2023-09-22 15:52:23.308
118.0, -35857.58487672626, -16814.077414760282, -84148.55112416162, -79350.34684542977, -28588.216434504564, -54209.596420478396, -187500.02235174447, -71634.9046391135, -1877.747699945891, -187500.02235174447, -82951.41404287983, -77098.52035027985, -59801.62290354048, -62192.76782188033, -80677.90635560827, -81794.30893591749, -0.054, 0.916, 0.418, 192.0, 0.0, 0.0, 0.0, 0.0, 0.0, 0.0, 0.0, 0.0, 0.0, 1.695415943308707E9, 0.0, 2023-09-22 15:52:23.308
120.0, -35839.032928828354, -16793.804382539318, -84136.41412692239, -79333.8736097662, -28575.431236676126, -54194.19606854869, -187500.02235174447, -71623.41584246348, -1970.7980121133344, -187500.02235174447, -82942.07101369751, -77084.79637918429, -59804.17100240839, -62193.75129863636, -80677.9957625861, -81787.26813641407, -0.054, 0.916, 0.418, 192.0, 0.0, 0.0, 0.0, 0.0, 0.0, 0.0, 0.0, 0.0, 0.0, 1.695415943368873E9, 0.0, 2023-09-22 15:52:23.368
122.0, -35828.39349846762, -16778.69460328753, -84128.03222275164, -79325.40229861764, -28572.50315815248, -54183.42252772123, -187500.02235174447, -71618.47610693886, -1870.2598655533632, -187500.02235174447, -82934.31495837153, -77072.83819590071, -59793.0621854141, -62178.775629851305, -80672.45252996119, -81779.66854329927, -0.046, 0.922, 0.418, 192.0, 127.0, 72.0, 14.0, 104.0, 6.5, 8.0, 0.0, 0.0, 0.0, 1.695415943368882E9, 0.0, 2023-09-22 15:52:23.368
124.0, -35812.09907675971, -16772.637280540144, -84113.43653362233, -79313.24294963396, -28561.953134769577, -54166.14462925728, -187500.02235174447, -71604.88624631002, -1944.132380978153, -187500.02235174447, -82918.33346108597, -77059.62831492763, -59780.16522886339, -62163.97877502189, -80658.52739316552, -81761.87655471284, -0.046, 0.922, 0.418, 192.0, 0.0, 0.0, 0.0, 0.0, 0.0, 0.0, 0.0, 0.0, 0.0, 1.695415943368885E9, 0.0, 2023-09-22 15:52:23.368
126.0, -35795.40232365159, -16757.37103907717, -84095.13045491344, -79298.33433608226, -28542.12713743772, -54149.693745338176, -187500.02235174447, -71577.17008318545, -1834.2512052358634, -187500.02235174447, -82907.73873421416, -77051.96166657945, -59767.96117639079, -62143.99631547884, -80642.74706158007, -81751.10301388538, -0.046, 0.922, 0.418, 192.0, 0.0, 0.0, 0.0, 0.0, 0.0, 0.0, 0.0, 0.0, 0.0, 1.695415943368889E9, 0.0, 2023-09-22 15:52:23.368
128.0, -35780.538413588816, -16750.73257097394, -84080.82533846205, -79288.99130689994, -28521.205904627554, -54139.970736500116, -187500.02235174447, -71565.9942109578, -1907.5649270492706, -187500.02235174447, -82887.24218454864, -77036.24839022737, -59744.49184471272, -62141.0682369552, -80620.82000026942, -81734.7415369441, -0.046, 0.922, 0.418, 192.0, 0.0, 0.0, 0.0, 0.0, 0.0, 0.0, 0.0, 0.0, 0.0, 1.695415943368892E9, 0.0, 2023-09-22 15:52:23.368
130.0, -35774.32462863024, -16735.533384744333, -84082.21114661827, -79289.23717608895, -28527.956131453055, -54136.72973355409, -187500.02235174447, -71563.40140860098, -1812.2123852029308, -187500.02235174447, -82874.79226288704, -77019.48458188589, -59731.304315484085, -62126.964286203896, -80618.09308744587, -81727.67838569623, -0.046, 0.922, 0.418, 192.0, 0.0, 0.0, 0.0, 0.0, 0.0, 0.0, 0.0, 0.0, 0.0, 1.695415943368895E9, 0.0, 2023-09-22 15:52:23.368
132.0, -35815.38478319464, -16779.052231198817, -84121.86314128198, -79319.85906599273, -28561.640210347203, -54170.07853628141, -187500.02235174447, -71603.14281024251, -1899.1606711340753, -187500.02235174447, -82888.22566130468, -77030.34752969116, -59755.46655124028, -62134.58623106316, -80632.01822424153, -81737.55785674546, -0.05, 0.918, 0.41400000000000003, 192.0, 127.0, 56.0, 14.0, 88.0, 6.0, 120.0, 0.0, 0.0, 0.0, 1.695415943368898E9, 0.0, 2023-09-22 15:52:23.368
134.0, -35819.251634985405, -16780.12511493267, -84129.5074378857, -79330.63260682019, -28573.8442628198, -54168.7374316141, -187500.02235174447, -71606.58497888863, -1865.945978873489, -187500.02235174447, -82937.6230165509, -77079.63312621512, -59791.58697028005, -62178.93209206249, -80682.95784985517, -81782.86484275637, -0.05, 0.918, 0.41400000000000003, 192.0, 0.0, 0.0, 0.0, 0.0, 0.0, 0.0, 0.0, 0.0, 0.0, 1.69541594342937E9, 0.0, 2023-09-22 15:52:23.429
136.0, -35829.19816126802, -16797.246551185435, -84133.39664142093, -79340.53442961388, -28563.763626070457, -54168.268044980534, -187500.02235174447, -71594.15740897148, -1944.132380978153, -187500.02235174447, -82915.18186511777, -77061.41645448405, -59770.93395840335, -62158.05556274123, -80648.87143956083, -81750.45481329618, -0.05, 0.918, 0.41400000000000003, 192.0, 0.0, 0.0, 0.0, 0.0, 0.0, 0.0, 0.0, 0.0, 0.0, 1.695415943429382E9, 0.0, 2023-09-22 15:52:23.429
138.0, -35820.39157395263, -16785.243664412938, -84121.48316162624, -79336.7793365454, -28567.451663905584, -54158.85796056485, -187500.02235174447, -71587.87656877954, -1888.364778562162, -187500.02235174447, -82939.6793770408, -77097.15689386809, -59798.493659316744, -62187.224589255406, -80675.8946986073, -81775.8016915085, -0.05, 0.918, 0.41400000000000003, 192.0, 0.0, 0.0, 0.0, 0.0, 0.0, 0.0, 0.0, 0.0, 0.0, 1.695415943429386E9, 0.0, 2023-09-22 15:52:23.429
140.0, -35832.528571191855, -16798.81117329731, -84127.83105705155, -79344.1777639601, -28569.820948817844, -54163.44006817819, -187500.02235174447, -71590.08939148062, -1921.4453603560164, -187500.02235174447, -82912.45495229423, -77074.80514941277, -59776.87952242846, -62165.18576922247, -80653.36414019634, -81750.03013015153, -0.05, 0.918, 0.41400000000000003, 192.0, 0.0, 0.0, 0.0, 0.0, 0.0, 0.0, 0.0, 0.0, 0.0, 1.695415943429389E9, 0.0, 2023-09-22 15:52:23.429
142.0, -35835.054318315306, -16800.107574475715, -84142.73967060325, -79357.45470016655, -28587.143550770706, -54180.159173030755, -187500.02235174447, -71606.74144109982, -1886.8001564502904, -187500.02235174447, -82935.36549036091, -77096.01695490086, -59788.81535396759, -62189.30330148975, -80674.91122185126, -81772.49363332911, -0.05, 0.918, 0.41600000000000004, 192.0, 127.0, 56.0, 14.0, 88.0, 6.5, 0.0, 0.0, 0.0, 0.0, 1.695415943429392E9, 0.0, 2023-09-22 15:52:23.429
144.0, -35819.56455940778, -16785.64599581313, -84113.4588853668, -79331.9290079986, -28552.431291631616, -54162.36718444433, -187500.02235174447, -71582.13217045453, -1915.0080579528878, -187500.02235174447, -82924.05550766653, -77087.03155362983, -59774.77845844966, -62181.05550778574, -80665.74700662459, -81765.11755765886, -0.05, 0.918, 0.41600000000000004, 192.0, 0.0, 0.0, 0.0, 0.0, 0.0, 0.0, 0.0, 0.0, 0.0, 1.695415943429395E9, 0.0, 2023-09-22 15:52:23.429
146.0, -35866.12324310819, -16827.868441089206, -84170.63464768346, -79391.36229650525, -28607.930673114144, -54219.98998165011, -187500.02235174447, -71641.54310721673, -1880.586371491715, -187500.02235174447, -82942.89802824236, -77107.19282712851, -59787.809525467106, -62200.367414995126, -80679.11334980886, -81786.59758408042, -0.05, 0.918, 0.41600000000000004, 192.0, 0.0, 0.0, 0.0, 0.0, 0.0, 0.0, 0.0, 0.0, 0.0, 1.695415943429399E9, 0.0, 2023-09-22 15:52:23.429
148.0, -35867.15142335313, -16832.89758359165, -84169.04767382714, -79385.28262201342, -28609.29412952592, -54218.22419383815, -187500.02235174447, -71646.34873227462, -1929.3802296376502, -187500.02235174447, -82962.56756336303, -77128.0023012164, -59815.32452289159, -62214.896048891074, -80703.9014344098, -81813.77730533807, -0.05, 0.918, 0.41600000000000004, 192.0, 0.0, 0.0, 0.0, 0.0, 0.0, 0.0, 0.0, 0.0, 0.0, 1.695415943429402E9, 0.0, 2023-09-22 15:52:23.429
150.0, -35872.180565855575, -16835.66919990411, -84186.70555194683, -79401.57704372134, -28633.47871702656, -54237.64785976981, -187500.02235174447, -71670.53331977526, -1940.6902123320358, -187500.02235174447, -82973.45286291276, -77137.34533039872, -59834.435264400876, -62228.329447308715, -80729.18125738874, -81834.65383465933, -0.05, 0.918, 0.41600000000000004, 192.0, 0.0, 0.0, 0.0, 0.0, 0.0, 0.0, 0.0, 0.0, 0.0, 1.695415943491094E9, 0.0, 2023-09-22 15:52:23.491
152.0, -35837.7588793944, -16800.308740175813, -84136.63764436694, -79355.84537456578, -28583.388457702218, -54184.361300988356, -187500.02235174447, -71611.79293534672, -1918.9196132325667, -187500.02235174447, -82950.49762135716, -77117.98871970043, -59810.42949085587, -62209.35281626616, -80697.91116689578, -81813.30791870451, -0.05, 0.918, 0.41600000000000004, 192.0, 127.0, 56.0, 14.0, 88.0, 6.5, 0.0, 0.0, 0.0, 0.0, 1.695415943491105E9, 0.0, 2023-09-22 15:52:23.491
154.0, -35808.61220462468, -16778.47108584298, -84115.26937666767, -79329.11268819723, -28563.02601850343, -54154.54407388498, -187500.02235174447, -71587.11660946807, -1916.6620870425807, -187500.02235174447, -82921.50740879863, -77087.52329200784, -59774.577292749564, -62173.00887978183, -80657.02982628702, -81766.302200115, -0.05, 0.918, 0.41600000000000004, 192.0, 0.0, 0.0, 0.0, 0.0, 0.0, 0.0, 0.0, 0.0, 0.0, 1.695415943491108E9, 0.0, 2023-09-22 15:52:23.491
156.0, -35807.22639646845, -16780.12511493267, -84105.65812655189, -79321.06606019332, -28554.711169566057, -54134.293393408465, -187500.02235174447, -71573.3479348836, -1865.945978873489, -187500.02235174447, -82905.10122836844, -77071.45238774447, -59761.099190843015, -62152.0205917383, -80641.76358482405, -81744.35278705988, -0.05, 0.918, 0.41600000000000004, 192.0, 0.0, 0.0, 0.0, 0.0, 0.0, 0.0, 0.0, 0.0, 0.0, 1.695415943491111E9, 0.0, 2023-09-22 15:52:23.491
158.0, -35803.8512830557, -16781.265053899893, -84111.64839406591, -79328.9785777305, -28560.813195802355, -54146.58685285889, -187500.02235174447, -71581.50632160978, -1926.3403923917285, -187500.02235174447, -82902.37431554489, -77068.72547492092, -59763.82610366656, -62160.33544067567, -80639.50605863406, -81742.13996435881, -0.05, 0.918, 0.41600000000000004, 192.0, 0.0, 0.0, 0.0, 0.0, 0.0, 0.0, 0.0, 0.0, 0.0, 1.695415943491114E9, 0.0, 2023-09-22 15:52:23.491
160.0, -35804.34302143371, -16783.85785625671, -84109.97201323176, -79332.51015335444, -28566.065855749355, -54156.15339948576, -187500.02235174447, -71578.80176053068, -1879.5805429912261, -187500.02235174447, -82893.65713520732, -77064.9927335969, -59751.53264421614, -62167.242129712366, -80641.1377359793, -81745.22450509365, -0.05, 0.918, 0.41600000000000004, 192.0, 0.0, 0.0, 0.0, 0.0, 0.0, 0.0, 0.0, 0.0, 0.0, 1.695415943491118E9, 0.0, 2023-09-22 15:52:23.491
162.0, -35826.247730999916, -16805.539048378356, -84140.59390313554, -79365.61308689274, -28598.118257298265, -54202.57797271943, -187500.02235174447, -71622.03003430724, -1954.3471281942284, -187500.02235174447, -82912.45495229423, -77085.28811756232, -59780.34404281903, -62191.73964163538, -80663.40007345678, -81771.51015657309, -0.048, 0.912, 0.41200000000000003, 192.0, 127.0, 64.0, 14.0, 64.0, 6.0, 112.0, 0.0, 0.0, 0.0, 1.695415943491121E9, 0.0, 2023-09-22 15:52:23.491
164.0, -35828.86288510119, -16797.246551185435, -84119.98559474773, -79348.55870587334, -28577.644059377202, -54187.44584172319, -187500.02235174447, -71598.8512753071, -1892.3210373307513, -187500.02235174447, -82922.06620241002, -77096.5981002567, -59790.35762433501, -62205.86594413113, -80668.65273340378, -81785.77056953557, -0.048, 0.912, 0.41200000000000003, 192.0, 0.0, 0.0, 0.0, 0.0, 0.0, 0.0, 0.0, 0.0, 0.0, 1.695415943551233E9, 0.0, 2023-09-22 15:52:23.551
166.0, -35855.97555112548, -16824.158051509625, -84146.5618189051, -79371.9833340625, -28599.66052766568, -54209.529365245035, -187500.02235174447, -71629.13788904404, -1977.5705906832923, -187500.02235174447, -82935.29843512755, -77102.945995682, -59784.16619112089, -62206.514144720335, -80661.25430598907, -81787.24578466962, -0.048, 0.912, 0.41200000000000003, 192.0, 0.0, 0.0, 0.0, 0.0, 0.0, 0.0, 0.0, 0.0, 0.0, 1.695415943551245E9, 0.0, 2023-09-22 15:52:23.551
168.0, -35844.03971958634, -16807.46129840151, -84128.9039407854, -79350.57036287432, -28588.12702752674, -54188.85400162387, -187500.02235174447, -71618.90079008351, -1911.0965026732092, -187500.02235174447, -82938.8300107515, -77103.90712069359, -59798.5160110612, -62202.55788595175, -80672.47488170564, -81794.77832255105, -0.048, 0.912, 0.41200000000000003, 192.0, 0.0, 0.0, 0.0, 0.0, 0.0, 0.0, 0.0, 0.0, 0.0, 1.69541594355125E9, 0.0, 2023-09-22 15:52:23.551
170.0, -35847.05720508781, -16818.011321784415, -84143.76785084819, -79364.29433396988, -28604.689670168125, -54196.23007729412, -187500.02235174447, -71629.83079312215, -1994.6920269360576, -187500.02235174447, -82933.26442638213, -77100.08497239172, -59804.79685125314, -62199.76391789484, -80674.8888701068, -81788.92216550377, -0.048, 0.912, 0.41200000000000003, 192.0, 0.0, 0.0, 0.0, 0.0, 0.0, 0.0, 0.0, 0.0, 0.0, 1.695415943551253E9, 0.0, 2023-09-22 15:52:23.551
172.0, -35835.411946226595, -16806.455469901022, -84134.62598736596, -79357.90173505565, -28595.27958575244, -54182.684920154206, -187500.02235174447, -71615.45862143738, -1906.2238223819522, -187500.02235174447, -82929.01759493562, -77097.26865259036, -59794.60445578152, -62203.250790029866, -80681.48263472112, -81789.86093877089, -0.046, 0.922, 0.41400000000000003, 192.0, 127.0, 72.0, 14.0, 104.0, 6.0, 120.0, 0.0, 0.0, 0.0, 1.695415943551257E9, 0.0, 2023-09-22 15:52:23.551
174.0, -35836.66364391609, -16810.545839136343, -84139.07398451256, -79356.51592689943, -28599.057030565386, -54183.84721086588, -187500.02235174447, -71626.38862447604, -1994.647323447147, -187500.02235174447, -82923.89904545534, -77096.30752757879, -59805.4674035868, -62195.204162025955, -80677.30285850797, -81786.19525268022, -0.046, 0.922, 0.41400000000000003, 192.0, 0.0, 0.0, 0.0, 0.0, 0.0, 0.0, 0.0, 0.0, 0.0, 1.69541594355126E9, 0.0, 2023-09-22 15:52:23.551
176.0, -35841.08928931824, -16818.3689496957, -84145.60069389352, -79370.91045032865, -28614.61384470628, -54189.65866442426, -187500.02235174447, -71616.19622900442, -1900.6358862681254, -187500.02235174447, -82930.2245891362, -77105.18117012754, -59800.952351206826, -62200.926208606514, -80681.30382076548, -81791.02322948257, -0.046, 0.922, 0.41400000000000003, 192.0, 0.0, 0.0, 0.0, 0.0, 0.0, 0.0, 0.0, 0.0, 0.0, 1.695415943551264E9, 0.0, 2023-09-22 15:52:23.551
178.0, -35849.13591732215, -16828.516641678412, -84150.94276081833, -79380.20877602206, -28616.67020519617, -54197.72764417263, -187500.02235174447, -71624.7569471308, -1991.2051548010297, -187500.02235174447, -82939.38880436287, -77114.92653071006, -59795.07384241508, -62207.45291798746, -80684.50012022258, -81792.0067062386, -0.046, 0.922, 0.41400000000000003, 192.0, 0.0, 0.0, 0.0, 0.0, 0.0, 0.0, 0.0, 0.0, 0.0, 1.695415943551267E9, 0.0, 2023-09-22 15:52:23.551
180.0, -35834.6072834262, -16807.37189142369, -84138.91752230139, -79361.36625544624, -28610.456420237595, -54186.6411789228, -187500.02235174447, -71614.63160689254, -1913.5775463077482, -187500.02235174447, -82941.35575787495, -77111.68552776403, -59800.102984917525, -62212.86204014564, -80689.03752434702, -81795.47122662918, -0.046, 0.922, 0.41400000000000003, 192.0, 0.0, 0.0, 0.0, 0.0, 0.0, 0.0, 0.0, 0.0, 0.0, 1.695415943608745E9, 0.0, 2023-09-22 15:52:23.608
182.0, -35842.47509747447, -16816.200830483536, -84140.97388279127, -79360.8298135793, -28605.114353312776, -54195.85009763839, -187500.02235174447, -71623.99698781932, -1973.2343522589629, -187500.02235174447, -82927.14004840137, -77092.15010311009, -59801.712310518305, -62197.573446938215, -80672.85486136137, -81778.43919735422, -0.05, 0.922, 0.41000000000000003, 192.0, 127.0, 56.0, 14.0, 104.0, 6.0, 104.0, 0.0, 0.0, 0.0, 1.695415943608754E9, 0.0, 2023-09-22 15:52:23.608
184.0, -35809.23805346943, -16782.293234144836, -84111.33546964354, -79333.69479581056, -28587.23295774853, -54176.471135195636, -187500.02235174447, -71598.91833054046, -1891.3152088302625, -187500.02235174447, -82919.29458609756, -77086.76333269637, -59789.35179583452, -62197.26052251584, -80665.56819266894, -81779.89206074382, -0.05, 0.922, 0.41000000000000003, 192.0, 0.0, 0.0, 0.0, 0.0, 0.0, 0.0, 0.0, 0.0, 0.0, 1.695415943608758E9, 0.0, 2023-09-22 15:52:23.608
186.0, -35782.1477391896, -16764.389486836135, -84082.63582976292, -79305.66570826361, -28545.815175272844, -54152.44300990618, -187500.02235174447, -71567.0447429472, -1925.491026102427, -187500.02235174447, -82886.03519034806, -77053.8392131137, -59766.37420253447, -62171.913644303524, -80632.86759053083, -81745.045691138, -0.05, 0.922, 0.41000000000000003, 192.0, 0.0, 0.0, 0.0, 0.0, 0.0, 0.0, 0.0, 0.0, 0.0, 1.695415943608762E9, 0.0, 2023-09-22 15:52:23.608
188.0, -35779.80080602179, -16762.154312390605, -84090.79421648911, -79313.06413567832, -28558.622724845736, -54154.70053609616, -187500.02235174447, -71577.5947663301, -1863.3755282611287, -187500.02235174447, -82873.18293728626, -77043.37859670862, -59750.34800176001, -62146.99144923585, -80618.36130837933, -81733.98157763261, -0.05, 0.922, 0.41000000000000003, 192.0, 0.0, 0.0, 0.0, 0.0, 0.0, 0.0, 0.0, 0.0, 0.0, 1.695415943608766E9, 0.0, 2023-09-22 15:52:23.608
190.0, -35807.584024379736, -16787.009452224906, -84108.74266728672, -79329.80559227534, -28576.70528611008, -54167.999824047074, -187500.02235174447, -71595.9455485279, -1924.552252835304, -187500.02235174447, -82881.564841457, -77051.24641075688, -59749.52098721516, -62156.602699351635, -80624.776259038, -81741.8493916809, -0.05, 0.922, 0.41000000000000003, 192.0, 0.0, 0.0, 0.0, 0.0, 0.0, 0.0, 0.0, 0.0, 0.0, 1.695415943608769E9, 0.0, 2023-09-22 15:52:23.608
192.0, -35798.44216089752, -16772.637280540144, -84112.4083533774, -79327.9280457411, -28595.547806685903, -54161.361355943845, -187500.02235174447, -71598.40424041799, -1909.8001014948013, -187500.02235174447, -82908.78926620356, -77073.70991393446, -59780.4110980524, -62176.85337982814, -80656.96277105364, -81768.02328443805, -0.052000000000000005, 0.922, 0.41400000000000003, 192.0, 127.0, 48.0, 14.0, 104.0, 6.0, 120.0, 0.0, 0.0, 0.0, 1.695415943608773E9, 0.0, 2023-09-22 15:52:23.608
194.0, -35828.5052571899, -16802.476859387978, -84140.4597926688, -79350.57036287432, -28618.65951045269, -54181.969664331635, -187500.02235174447, -71615.77154585977, -1930.4307616270498, -187500.02235174447, -82903.24603357865, -77064.85862313016, -59786.28960684414, -62167.711516345924, -80661.76839611154, -81761.76479599057, -0.052000000000000005, 0.922, 0.41400000000000003, 192.0, 0.0, 0.0, 0.0, 0.0, 0.0, 0.0, 0.0, 0.0, 0.0, 1.695415943669093E9, 0.0, 2023-09-22 15:52:23.669
196.0, -35822.894969331624, -16792.463277872, -84140.2139234798, -79344.1777639601, -28622.168734332176, -54181.969664331635, -187500.02235174447, -71622.14179302953, -1942.321889677273, -187500.02235174447, -82928.41409783532, -77088.32795480824, -59803.813374497106, -62199.74156615038, -80686.4447219902, -81788.31866840347, -0.052000000000000005, 0.922, 0.41400000000000003, 192.0, 0.0, 0.0, 0.0, 0.0, 0.0, 0.0, 0.0, 0.0, 0.0, 1.695415943669104E9, 0.0, 2023-09-22 15:52:23.669
198.0, -35804.83475981173, -16778.47108584298, -84109.7037922983, -79309.95724319902, -28588.059972293377, -54155.01346051854, -187500.02235174447, -71586.49076062332, -1945.7193548344799, -187500.02235174447, -82903.98364114566, -77070.46891098845, -59780.321691074576, -62183.938882820476, -80665.03175080201, -81761.07189191245, -0.052000000000000005, 0.922, 0.41400000000000003, 192.0, 0.0, 0.0, 0.0, 0.0, 0.0, 0.0, 0.0, 0.0, 0.0, 1.695415943669108E9, 0.0, 2023-09-22 15:52:23.669
200.0, -35827.11944903367, -16800.778126809375, -84145.33247296006, -79338.723938313, -28617.72073718557, -54191.11152781386, -187500.02235174447, -71612.57524640266, -1939.7737908093682, -187500.02235174447, -82904.78830394606, -77073.10641683417, -59786.37901382196, -62173.522969904305, -80657.14158500929, -81755.43925230972, -0.052000000000000005, 0.922, 0.41400000000000003, 192.0, 0.0, 0.0, 0.0, 0.0, 0.0, 0.0, 0.0, 0.0, 0.0, 1.695415943669111E9, 0.0, 2023-09-22 15:52:23.669
202.0, -35834.74139389293, -16804.399109411133, -84141.35386244701, -79329.2244469195, -28609.47294348156, -54190.10569931337, -187500.02235174447, -71611.79293534672, -1944.2664914448849, -187500.02235174447, -82922.33442334348, -77086.51746350735, -59791.87754295797, -62189.59387416767, -80661.65663738927, -81764.35759834739, -0.054, 0.918, 0.41400000000000003, 192.0, 127.0, 40.0, 14.0, 88.0, 6.0, 120.0, 0.0, 0.0, 0.0, 1.695415943669115E9, 0.0, 2023-09-22 15:52:23.669
204.0, -35814.4013064386, -16784.774277779376, -84134.08954549904, -79319.61319680372, -28603.08034456734, -54187.57995218992, -187500.02235174447, -71609.13307775655, -1984.3431692532504, -187500.02235174447, -82923.29554835506, -77079.36490528166, -59788.16715337839, -62193.05839455824, -80659.39911119928, -81768.6491332828, -0.054, 0.918, 0.41400000000000003, 192.0, 0.0, 0.0, 0.0, 0.0, 0.0, 0.0, 0.0, 0.0, 0.0, 1.695415943669118E9, 0.0, 2023-09-22 15:52:23.669
206.0, -35812.63551862664, -16782.963786478496, -84125.99821400622, -79308.21380713151, -28595.70426889709, -54175.822934606425, -187500.02235174447, -71592.9951182598, -1931.168369194075, -187500.02235174447, -82911.89615868285, -77059.91888760554, -59778.153571862415, -62167.91268204602, -80642.00945401305, -81759.32845584494, -0.054, 0.918, 0.41400000000000003, 192.0, 0.0, 0.0, 0.0, 0.0, 0.0, 0.0, 0.0, 0.0, 0.0, 1.695415943669121E9, 0.0, 2023-09-22 15:52:23.669
208.0, -35838.697652661525, -16812.512792648413, -84162.81153712411, -79345.20594420504, -28631.131783858753, -54208.23296406662, -187500.02235174447, -71632.28948501224, -1995.519041480904, -187500.02235174447, -82929.28581586908, -77076.54858548028, -59779.24880734072, -62188.05160380025, -80650.95015179517, -81771.1972321507, -0.054, 0.918, 0.41400000000000003, 192.0, 0.0, 0.0, 0.0, 0.0, 0.0, 0.0, 0.0, 0.0, 0.0, 1.695415943669124E9, 0.0, 2023-09-22 15:52:23.669
210.0, -35821.57621640876, -16789.89282725964, -84137.68817635634, -79315.05344093483, -28611.819876649366, -54180.159173030755, -187500.02235174447, -71609.78127834575, -1938.3209274197732, -187500.02235174447, -82948.06128121153, -77093.6476699886, -59800.661778528905, -62194.39949922556, -80673.25719276156, -81786.55288059151, -0.054, 0.918, 0.41400000000000003, 192.0, 0.0, 0.0, 0.0, 0.0, 0.0, 0.0, 0.0, 0.0, 0.0, 1.695415943729158E9, 0.0, 2023-09-22 15:52:23.729
212.0, -35806.041754012316, -16772.972556706973, -84130.82619080857, -79303.05055416234, -28604.28733876793, -54166.77047810203, -187500.02235174447, -71598.895978796, -1965.254779488418, -187500.02235174447, -82921.82033322101, -77063.00342834037, -59780.36639456349, -62170.14785649155, -80647.59739012687, -81752.04178715251, -0.048, 0.916, 0.42, 192.0, 127.0, 64.0, 14.0, 80.0, 6.5, 16.0, 0.0, 0.0, 0.0, 1.695415943729169E9, 0.0, 2023-09-22 15:52:23.729
214.0, -35802.688992344025, -16764.36713509168, -84118.39862089141, -79295.78623721436, -28601.158094544186, -54159.50616115405, -187500.02235174447, -71590.93875776992, -1883.5591535042709, -187500.02235174447, -82921.03802216507, -77057.77312013783, -59771.89508341493, -62168.04679251275, -80646.81507907095, -81745.91740917176, -0.048, 0.916, 0.42, 192.0, 0.0, 0.0, 0.0, 0.0, 0.0, 0.0, 0.0, 0.0, 0.0, 1.695415943729173E9, 0.0, 2023-09-22 15:52:23.729
216.0, -35794.26238468437, -16762.46723681298, -84106.7980655191, -79282.12932135217, -28578.381666944228, -54154.365259929335, -187500.02235174447, -71574.10789419507, -1957.9904625404433, -187500.02235174447, -82915.49478954016, -77052.92279159103, -59768.363507790986, -62165.25282445584, -80635.2368754431, -81734.62977822183, -0.048, 0.916, 0.42, 192.0, 0.0, 0.0, 0.0, 0.0, 0.0, 0.0, 0.0, 0.0, 0.0, 1.695415943729176E9, 0.0, 2023-09-22 15:52:23.729
218.0, -35805.17003597856, -16773.12901891816, -84115.04585922312, -79294.69100173605, -28581.577966401335, -54162.545998399975, -187500.02235174447, -71585.19435944491, -1866.102441084676, -187500.02235174447, -82913.75135347263, -77051.00054156788, -59756.58413846304, -62165.141065733565, -80624.82096252692, -81727.76779267404, -0.048, 0.916, 0.42, 192.0, 0.0, 0.0, 0.0, 0.0, 0.0, 0.0, 0.0, 0.0, 0.0, 1.695415943729179E9, 0.0, 2023-09-22 15:52:23.729
220.0, -35831.99212932493, -16807.550705379334, -84144.77367934867, -79329.98440623099, -28604.846132379313, -54197.32531277243, -187500.02235174447, -71616.10682202659, -1975.2236575154852, -187500.02235174447, -82931.09630716995, -77067.31731502025, -59771.31393805909, -62186.73285087739, -80634.27575043151, -81746.40914754977, -0.048, 0.916, 0.42, 192.0, 0.0, 0.0, 0.0, 0.0, 0.0, 0.0, 0.0, 0.0, 0.0, 1.695415943729182E9, 0.0, 2023-09-22 15:52:23.729
222.0, -35828.08057404525, -16799.6158360977, -84148.32760671707, -79332.19722893205, -28619.12889708625, -54204.09789134239, -187500.02235174447, -71618.96784531687, -1912.4823108294381, -187500.02235174447, -82963.39457790788, -77102.2977950928, -59797.934865705356, -62220.4839850049, -80681.21441378766, -81794.64421208433, -0.044, 0.912, 0.424, 192.0, 127.0, 80.0, 14.0, 64.0, 6.5, 32.0, 0.0, 0.0, 0.0, 1.695415943729185E9, 0.0, 2023-09-22 15:52:23.729
224.0, -35843.235056785954, -16815.373815938692, -84161.55983943462, -79344.28952268237, -28630.461231525092, -54215.65374322578, -187500.02235174447, -71635.32932225816, -1999.0506171048426, -187500.02235174447, -82941.51222008614, -77078.62729771463, -59793.12924064747, -62210.47040348893, -80665.8364136024, -81781.99312472262, -0.044, 0.912, 0.424, 192.0, 0.0, 0.0, 0.0, 0.0, 0.0, 0.0, 0.0, 0.0, 0.0, 1.695415943791018E9, 0.0, 2023-09-22 15:52:23.791
226.0, -35817.08351577324, -16787.478838858467, -84134.73774608824, -79316.03691769087, -28612.244559794017, -54182.126126542826, -187500.02235174447, -71604.01452827627, -1935.8622355296893, -187500.02235174447, -82956.19731619327, -77091.41249554307, -59801.60055179603, -62220.17106058253, -80678.82277713095, -81793.43721788374, -0.044, 0.912, 0.424, 192.0, 0.0, 0.0, 0.0, 0.0, 0.0, 0.0, 0.0, 0.0, 0.0, 1.69541594379103E9, 0.0, 2023-09-22 15:52:23.791
228.0, -35821.419754197574, -16793.89378951714, -84133.01666176518, -79321.60250206024, -28608.936501614633, -54184.11543179935, -187500.02235174447, -71605.42268817696, -1999.2964862938509, -187500.02235174447, -82924.10021115544, -77059.80712888326, -59773.92909216036, -62192.76782188033, -80644.64695985877, -81755.64041800982, -0.044, 0.912, 0.424, 192.0, 0.0, 0.0, 0.0, 0.0, 0.0, 0.0, 0.0, 0.0, 0.0, 1.695415943791033E9, 0.0, 2023-09-22 15:52:23.791
230.0, -35832.23799851394, -16805.740214078454, -84145.98067354926, -79335.61704583371, -28629.455403024604, -54192.49733597009, -187500.02235174447, -71618.45375519441, -1926.6980203030134, -187500.02235174447, -82946.16138293283, -77086.00337338488, -59794.53740054815, -62216.90770589205, -80666.66342814725, -81779.73559853263, -0.044, 0.912, 0.424, 192.0, 0.0, 0.0, 0.0, 0.0, 0.0, 0.0, 0.0, 0.0, 0.0, 1.695415943791037E9, 0.0, 2023-09-22 15:52:23.791
232.0, -35847.012501598896, -16824.314513720812, -84148.97580730627, -79342.90371452615, -28629.52245825797, -54195.71598717165, -187500.02235174447, -71624.64518840853, -2010.9193934106106, -187500.02235174447, -82952.59868533596, -77093.67002173305, -59798.78423199466, -62223.188546084, -80669.27858224853, -81774.08060718545, -0.048, 0.92, 0.422, 192.0, 127.0, 64.0, 14.0, 96.0, 6.5, 24.0, 0.0, 0.0, 0.0, 1.69541594379104E9, 0.0, 2023-09-22 15:52:23.791
234.0, -35807.785190079834, -16782.98613822295, -84116.29755691261, -79303.13996114016, -28602.47684746705, -54173.76657411654, -187500.02235174447, -71605.71326085487, -1940.3996396541168, -187500.02235174447, -82942.56275207552, -77079.45431225948, -59783.02625215367, -62209.665740688535, -80660.44964318868, -81767.26332512658, -0.048, 0.92, 0.422, 192.0, 0.0, 0.0, 0.0, 0.0, 0.0, 0.0, 0.0, 0.0, 0.0, 1.695415943791043E9, 0.0, 2023-09-22 15:52:23.791
236.0, -35818.625786140656, -16797.13479246316, -84122.71250757128, -79311.27599612188, -28600.46519046607, -54184.920094599736, -187500.02235174447, -71605.31092945467, -1975.067195304298, -187500.02235174447, -82921.23918786517, -77056.96845733744, -59764.49665600022, -62195.897066104066, -80634.20869519815, -81744.55395275998, -0.048, 0.92, 0.422, 192.0, 0.0, 0.0, 0.0, 0.0, 0.0, 0.0, 0.0, 0.0, 0.0, 1.695415943791046E9, 0.0, 2023-09-22 15:52:23.791
