%OpenBCI Raw EXG Data
%Number of channels = 16
%Sample Rate = 125 Hz
%Board = OpenBCI_GUI$BoardCytonSerialDaisy
Sample Index, EXG Channel 0, EXG Channel 1, EXG Channel 2, EXG Channel 3, EXG Channel 4, EXG Channel 5, EXG Channel 6, EXG Channel 7, EXG Channel 8, EXG Channel 9, EXG Channel 10, EXG Channel 11, EXG Channel 12, EXG Channel 13, EXG Channel 14, EXG Channel 15, Accel Channel 0, Accel Channel 1, Accel Channel 2, Other, Other, Other, Other, Other, Other, Other, Analog Channel 0, Analog Channel 1, Analog Channel 2, Timestamp, Other, Timestamp (Formatted)
238.0, -36192.861043555866, -16571.672746142478, -84685.93176435611, -79699.88342522185, -27209.00204288984, -54469.9048364049, -173526.73989853144, -71971.92424201063, -195.04132211700943, -187500.02235174447, -83367.82704208221, -77652.84361277147, -59742.100208056, -61249.50185412191, -81062.98220908431, -82383.61267848166, 0.0, 0.0, 0.0, 192.0, 0.0, 0.0, 0.0, 0.0, 0.0, 0.0, 0.0, 0.0, 0.0, 1.695415925868276E9, 0.0, 2023-09-22 15:52:05.868
240.0, -36205.33331696192, -16586.603711438624, -84704.01432562046, -79717.7648207861, -27223.28480759678, -54482.71238597779, -173479.42125551956, -71982.89894853819, -282.6154568929025, -187500.02235174447, -83377.66180964254, -77651.4801563597, -59748.2022342923, -61246.3055546648, -81064.03274107371, -82383.27740231484, 0.0, 0.0, 0.0, 192.0, 0.0, 0.0, 0.0, 0.0, 0.0, 0.0, 0.0, 0.0, 0.0, 1.695415925868285E9, 0.0, 2023-09-22 15:52:05.868
242.0, -36168.40823512176, -16551.33265868815, -84666.39633970217, -79684.77364597007, -27198.653185207033, -54451.53170246264, -173570.75048336393, -71953.34994236827, -200.3386855529172, -187500.02235174447, -83374.15258576305, -77648.95440923625, -59745.229452279746, -61251.17823495606, -81068.30192426467, -82386.31723956075, 0.0, 0.0, 0.0, 192.0, 0.0, 0.0, 0.0, 0.0, 0.0, 0.0, 0.0, 0.0, 0.0, 1.695415925868289E9, 0.0, 2023-09-22 15:52:05.868
244.0, -36156.293589626985, -16535.79819629171, -84659.24378147647, -79676.36939005487, -27187.186740301462, -54438.098304045, -173543.74957606193, -71938.44132881658, -245.69037505273522, -187500.02235174447, -83328.62208230759, -77605.74848720414, -59708.99727451769, -61220.109310163185, -81027.28647318918, -82342.35135821717, 0.0, 0.0, 0.0, 192.0, 0.0, 0.0, 0.0, 0.0, 0.0, 0.0, 0.0, 0.0, 0.0, 1.695415925868292E9, 0.0, 2023-09-22 15:52:05.868
246.0, -36155.89125822679, -16537.56398410368, -84652.73942383999, -79670.6026399854, -27173.90980409501, -54432.040981297614, -173630.31788233732, -71926.61725599972, -156.75278386506844, -187500.02235174447, -83341.25081792484, -77621.26059785612, -59716.88744031041, -61219.30464736279, -81032.74029883627, -82346.62054140813, -0.01, 0.928, 0.392, 192.0, 127.5, 88.0, 14.5, 0.0, 6.0, 32.0, 0.0, 0.0, 0.0, 1.695415925868296E9, 0.0, 2023-09-22 15:52:05.868
248.0, -36124.10707761134, -16515.011073948273, -84619.54708332385, -79634.12459303434, -27132.290855919226, -54395.45117562428, -173605.28392854737, -71889.42395322608, -234.96153771418784, -187500.02235174447, -83327.3703846181, -77606.15081860434, -59705.91273378286, -61206.83237395673, -81004.13006593348, -82320.75957307334, -0.01, 0.928, 0.392, 192.0, 0.0, 0.0, 0.0, 0.0, 0.0, 0.0, 0.0, 0.0, 0.0, 1.69541592586831E9, 0.0, 2023-09-22 15:52:05.868
250.0, -36126.230493334595, -16510.60778029058, -84621.71520253601, -79638.37142448085, -27142.863231046587, -54406.2917716851, -173712.5946536773, -71901.78446790988, -129.55071086295973, -187500.02235174447, -83296.88260518106, -77572.556146688, -59667.065401919535, -61175.40582125257, -80975.07279814158, -82294.92095648301, -0.01, 0.928, 0.392, 192.0, 0.0, 0.0, 0.0, 0.0, 0.0, 0.0, 0.0, 0.0, 0.0, 1.695415925868313E9, 0.0, 2023-09-22 15:52:05.868
252.0, -36167.51416534354, -16555.400676179015, -84664.04940653437, -79683.76781746958, -27178.447208219437, -54451.50935071819, -173664.35958914275, -71941.97290444051, -228.7701045000678, -187500.02235174447, -83320.97778570387, -77598.0147836226, -59692.05465222057, -61210.185135625026, -80998.69859203084, -82322.9276922855, -0.01, 0.928, 0.392, 192.0, 0.0, 0.0, 0.0, 0.0, 0.0, 0.0, 0.0, 0.0, 0.0, 1.695415925868316E9, 0.0, 2023-09-22 15:52:05.868
254.0, -36162.19445016318, -16549.90214704301, -84661.00956928845, -79680.2138901012, -27192.685269437465, -54440.221719768255, -173738.50032550102, -71933.14396538067, -178.8363073869118, -187500.02235174447, -83351.8231930522, -77631.20712413873, -59723.77177760265, -61236.58254582674, -81033.0755750031, -82350.24152400989, -0.01, 0.928, 0.392, 192.0, 0.0, 0.0, 0.0, 0.0, 0.0, 0.0, 0.0, 0.0, 0.0, 1.69541592586832E9, 0.0, 2023-09-22 15:52:05.868
0.0, -18056.923813453177, -8296.319341220778, -42262.49960213895, -39799.62793584203, -13577.634224609641, -27191.746496170344, -92283.22264948161, -35925.1318484702, -119.2912601579738, -93750.01117587223, -41672.94999038577, -38813.29015651824, -29861.19298472321, -30617.48661011298, -40512.24625256613, -41168.20289709603, -0.042, 0.918, 0.40800000000000003, 192.0, 127.0, 88.0, 14.0, 88.0, 6.0, 96.0, 0.0, 0.0, 0.0, 1.695415925957287E9, 0.0, 2023-09-22 15:52:05.957
2.0, -36125.6269962343, -16610.38596753907, -84539.08080328474, -79615.21501722516, -27165.304382479717, -54399.96622800425, -184517.4502751172, -71862.40069417963, -434.02617383315254, -187500.02235174447, -83226.31814793566, -77455.67887493121, -59854.08244777709, -61486.229179648064, -80932.47037320977, -82187.0514377417, -0.042, 0.918, 0.40800000000000003, 192.0, 0.0, 0.0, 0.0, 0.0, 0.0, 0.0, 0.0, 0.0, 0.0, 1.695415926016313E9, 0.0, 2023-09-22 15:52:06.016
4.0, -36138.38984231828, -16620.131328121584, -84552.17892553555, -79636.15860177978, -27183.543405955246, -54427.28005972863, -184578.40348224682, -71884.68538340156, -369.2284666572174, -187500.02235174447, -83252.42498545945, -77486.70309623517, -59864.94539558237, -61517.45456665213, -80957.28080955516, -82217.69567938992, -0.042, 0.918, 0.40800000000000003, 192.0, 0.0, 0.0, 0.0, 0.0, 0.0, 0.0, 0.0, 0.0, 0.0, 1.695415926016327E9, 0.0, 2023-09-22 15:52:06.016
6.0, -36155.22070589312, -16636.716322507422, -84560.5608297063, -79650.26255253107, -27184.01279258881, -54441.36165873548, -184568.90399085332, -71897.0682498298, -430.24872902020564, -187500.02235174447, -83251.41915695896, -77487.32894507992, -59873.10378230856, -61523.26602021051, -80959.13600434495, -82228.20099928392, -0.042, 0.918, 0.40800000000000003, 192.0, 0.0, 0.0, 0.0, 0.0, 0.0, 0.0, 0.0, 0.0, 0.0, 1.69541592601633E9, 0.0, 2023-09-22 15:52:06.016
8.0, -36150.32567385741, -16625.96513342442, -84564.27121928587, -79642.797069883, -27193.780504915776, -54445.76495239317, -184607.90778492784, -71910.81457266981, -391.98254251271993, -187500.02235174447, -83264.02554083176, -77493.29686084948, -59887.766526671236, -61529.882136569286, -80976.92799293138, -82246.8647059041, -0.058, 0.916, 0.41000000000000003, 192.0, 127.0, 24.0, 14.0, 80.0, 6.0, 104.0, 0.0, 0.0, 0.0, 1.695415926016334E9, 0.0, 2023-09-22 15:52:06.016
10.0, -36143.48604005409, -16625.16047062403, -84548.26737025588, -79630.9953488106, -27180.257699520316, -54434.209100509775, -184608.69009598377, -71896.66591842961, -456.9367118998423, -187500.02235174447, -83258.61641867357, -77486.30076483497, -59890.04640460568, -61523.60129637734, -80973.44112079634, -82244.160144825, -0.058, 0.916, 0.41000000000000003, 192.0, 0.0, 0.0, 0.0, 0.0, 0.0, 0.0, 0.0, 0.0, 0.0, 1.695415926016337E9, 0.0, 2023-09-22 15:52:06.016
12.0, -36148.470479067626, -16630.90486894904, -84560.20320179501, -79647.6473984298, -27198.831999162674, -54445.899062859906, -184638.0379364536, -71913.20620932654, -417.21766200276164, -187500.02235174447, -83246.32295922315, -77479.75170370957, -59874.93662535389, -61514.1688602172, -80968.34492306053, -82237.74519416633, -0.058, 0.916, 0.41000000000000003, 192.0, 0.0, 0.0, 0.0, 0.0, 0.0, 0.0, 0.0, 0.0, 0.0, 1.695415926016348E9, 0.0, 2023-09-22 15:52:06.016
14.0, -36163.982589719606, -16647.445159845967, -84566.32757977577, -79652.27420953206, -27211.125458613096, -54449.67650767285, -184639.088468443, -71916.73778495047, -441.4246012478592, -187500.02235174447, -83261.92447685296, -77499.10831440787, -59891.543971484185, -61541.50504368604, -80985.39930407993, -82253.97256064089, -0.058, 0.916, 0.41000000000000003, 192.0, 0.0, 0.0, 0.0, 0.0, 0.0, 0.0, 0.0, 0.0, 0.0, 1.695415926016351E9, 0.0, 2023-09-22 15:52:06.016
16.0, -36126.43165903469, -16611.86118267312, -84548.960274334, -79627.75434586458, -27201.938891641963, -54428.37529520694, -184650.4431546263, -71904.55608422233, -432.9309383548425, -187500.02235174447, -83253.43081395995, -77489.22884335862, -59882.9832533578, -61531.17853774769, -80988.8191209816, -82245.43419425895, -0.058, 0.916, 0.41000000000000003, 192.0, 0.0, 0.0, 0.0, 0.0, 0.0, 0.0, 0.0, 0.0, 0.0, 1.695415926076525E9, 0.0, 2023-09-22 15:52:06.076
18.0, -36169.995208978085, -16649.38976161358, -84581.68322821656, -79654.46468048867, -27225.00589191984, -54444.44619947031, -184652.05248022705, -71903.99729061095, -408.29931596509414, -187500.02235174447, -83254.21312501587, -77485.5408055235, -59890.5381429837, -61530.910316814225, -80981.97948717827, -82231.84433363013, -0.066, 0.914, 0.41600000000000004, 192.0, 126.5, 120.0, 14.0, 72.0, 6.5, 0.0, 0.0, 0.0, 0.0, 1.695415926076538E9, 0.0, 2023-09-22 15:52:06.076
20.0, -36174.44320612469, -16655.849415761164, -84586.10887361871, -79663.36067478188, -27226.682272753987, -54440.646402912906, -184617.6307937659, -71912.55800873734, -457.76372644468864, -187500.02235174447, -83284.38798003054, -77513.9498727262, -59909.85005019308, -61551.540976946475, -81004.8676735005, -82247.3117407932, -0.066, 0.914, 0.41600000000000004, 192.0, 0.0, 0.0, 0.0, 0.0, 0.0, 0.0, 0.0, 0.0, 0.0, 1.695415926076542E9, 0.0, 2023-09-22 15:52:06.076
22.0, -36174.957296247165, -16657.324630895215, -84563.28774252985, -79652.40831999878, -27199.703717196433, -54431.281021986135, -184640.00488996564, -71893.96135735052, -427.11948479646264, -187500.02235174447, -83276.87779389355, -77513.63694830381, -59909.47007053734, -61554.73727640358, -80988.03680992566, -82245.12126983659, -0.066, 0.914, 0.41600000000000004, 192.0, 0.0, 0.0, 0.0, 0.0, 0.0, 0.0, 0.0, 0.0, 0.0, 1.695415926076545E9, 0.0, 2023-09-22 15:52:06.076
24.0, -36154.39369134828, -16639.800863242253, -84555.03994882584, -79650.12844206435, -27190.80772290322, -54436.6007371665, -184592.66389520932, -71906.18776156756, -447.95131062880887, -187500.02235174447, -83254.88367734953, -77494.43679981671, -59876.18832304339, -61533.570174404405, -80955.1573938319, -82231.28554001875, -0.066, 0.914, 0.41600000000000004, 192.0, 0.0, 0.0, 0.0, 0.0, 0.0, 0.0, 0.0, 0.0, 0.0, 1.695415926076548E9, 0.0, 2023-09-22 15:52:06.076
26.0, -36139.88740919679, -16623.28292408978, -84543.99818706492, -79627.17320050874, -27181.71056290991, -54420.14985324739, -184633.99227070718, -71878.49395018745, -380.78431854061114, -187500.02235174447, -83256.53770643922, -77493.09569514939, -59883.07266033562, -61538.86753784031, -80966.109748615, -82236.53819996574, -0.066, 0.914, 0.41600000000000004, 192.0, 0.0, 0.0, 0.0, 0.0, 0.0, 0.0, 0.0, 0.0, 0.0, 1.695415926076551E9, 0.0, 2023-09-22 15:52:06.076
28.0, -36137.92045568472, -16617.6726362315, -84557.49864071592, -79630.70477613268, -27195.7698101723, -54432.62212665345, -184582.829127649, -71896.37534575169, -440.7316971697447, -187500.02235174447, -83243.28312197723, -77471.12393034983, -59873.170837541926, -61519.15329923073, -80955.67148395437, -82216.3098712337, -0.07, 0.91, 0.418, 192.0, 126.5, 104.0, 14.0, 56.0, 6.5, 8.0, 0.0, 0.0, 0.0, 1.695415926076555E9, 0.0, 2023-09-22 15:52:06.076
30.0, -36118.049754863954, -16597.310197032715, -84532.3529282037, -79600.284051929, -27176.055571562716, -54403.72132107274, -184646.66570981333, -71865.97697329248, -368.6696730458347, -187500.02235174447, -83245.0489097892, -77465.3348285359, -59888.01239586025, -61512.62658984979, -80967.83083293807, -82222.09897304761, -0.07, 0.91, 0.418, 192.0, 0.0, 0.0, 0.0, 0.0, 0.0, 0.0, 0.0, 0.0, 0.0, 1.695415926076558E9, 0.0, 2023-09-22 15:52:06.076
32.0, -36122.162475843725, -16607.167316337505, -84544.89225684313, -79617.74076434861, -27183.85633037762, -54418.00408577968, -184597.42481677828, -71886.36176423571, -451.6617002083898, -187500.02235174447, -83225.69229909091, -77452.66138942973, -59854.08244777709, -61501.74129030005, -80950.08354784055, -82208.24089148533, -0.07, 0.91, 0.418, 192.0, 0.0, 0.0, 0.0, 0.0, 0.0, 0.0, 0.0, 0.0, 0.0, 1.69541592613681E9, 0.0, 2023-09-22 15:52:06.136
34.0, -36109.466684993116, -16591.297577774236, -84532.04000378132, -79597.1324559608, -27177.553138441224, -54390.26557091065, -184679.94745730728, -71871.27433672838, -360.176010152818, -187500.02235174447, -83223.61358685656, -77450.31445626193, -59855.065924533126, -61499.84139202135, -80959.49363225623, -82212.89005433203, -0.07, 0.91, 0.418, 192.0, 0.0, 0.0, 0.0, 0.0, 0.0, 0.0, 0.0, 0.0, 0.0, 1.695415926136824E9, 0.0, 2023-09-22 15:52:06.136
36.0, -36147.39759533377, -16628.91556369252, -84575.38003628017, -79635.51040119058, -27223.86595295262, -54426.76596960616, -184603.59389824796, -71908.37823252419, -459.7977351901216, -187500.02235174447, -83240.75737485378, -77461.60208721187, -59881.4856864793, -61518.66156085272, -80974.37989406346, -82217.71803113438, -0.07, 0.91, 0.418, 192.0, 0.0, 0.0, 0.0, 0.0, 0.0, 0.0, 0.0, 0.0, 0.0, 1.695415926136827E9, 0.0, 2023-09-22 15:52:06.136
38.0, -36132.71249922663, -16613.80578444073, -84555.48698371495, -79614.96914803615, -27213.025356891794, -54409.175146719834, -184673.42074792634, -71877.17519726459, -383.8912110198988, -187500.02235174447, -83260.11398555207, -77480.91399442125, -59899.36708204354, -61520.2708864535, -80993.55769080612, -82229.18447603995, -0.076, 0.916, 0.42, 192.0, 126.5, 80.0, 14.0, 80.0, 6.5, 16.0, 0.0, 0.0, 0.0, 1.695415926136831E9, 0.0, 2023-09-22 15:52:06.136
40.0, -36127.75041195755, -16610.922409405997, -84542.88059984214, -79613.98567128011, -27191.679440936976, -54403.9895420062, -184629.16429390482, -71868.36860994919, -473.1193748854846, -187500.02235174447, -83238.43279343043, -77459.09869183287, -59877.73059341081, -61511.24078169356, -80958.77837643366, -82202.98823153833, -0.076, 0.916, 0.42, 192.0, 0.0, 0.0, 0.0, 0.0, 0.0, 0.0, 0.0, 0.0, 0.0, 1.695415926136834E9, 0.0, 2023-09-22 15:52:06.136
42.0, -36157.94761871667, -16633.72118875041, -84570.08267284426, -79630.63772089932, -27217.29454008276, -54433.58325166503, -184680.34978870748, -71889.75922939292, -378.8397167729994, -187500.02235174447, -83261.9021251085, -77479.036447887, -59895.23200931931, -61530.93266855868, -80963.87457416947, -82220.3108334912, -0.076, 0.916, 0.42, 192.0, 0.0, 0.0, 0.0, 0.0, 0.0, 0.0, 0.0, 0.0, 0.0, 1.695415926136845E9, 0.0, 2023-09-22 15:52:06.136
44.0, -36143.03900516498, -16624.020531656806, -84554.95054184801, -79613.91861604675, -27197.602653217633, -54413.42197816634, -184639.7813725211, -71867.45218842653, -488.69854077083363, -187500.02235174447, -83259.71165415188, -77476.10836936336, -59877.95411085536, -61529.859784824825, -80958.97954213376, -82214.74524912181, -0.076, 0.916, 0.42, 192.0, 0.0, 0.0, 0.0, 0.0, 0.0, 0.0, 0.0, 0.0, 0.0, 1.695415926136848E9, 0.0, 2023-09-22 15:52:06.136
46.0, -36141.58614177539, -16617.940857164962, -84566.14876582012, -79615.43853466971, -27201.29069105276, -54420.06044626957, -184714.12327457944, -71878.62806065417, -383.5559348530692, -187500.02235174447, -83254.21312501587, -77469.22403207113, -59876.52359921022, -61517.476918396584, -80953.95039963131, -82210.23019674185, -0.076, 0.916, 0.42, 192.0, 0.0, 0.0, 0.0, 0.0, 0.0, 0.0, 0.0, 0.0, 0.0, 1.695415926197107E9, 0.0, 2023-09-22 15:52:06.197
48.0, -36172.565659590444, -16649.34505812467, -84595.5189580344, -79637.63381691383, -27220.44613605096, -54447.82131288306, -184665.99996876717, -71907.05947960133, -490.1737559048839, -187500.02235174447, -83284.05270386371, -77494.59326202789, -59906.76550945825, -61541.57209891941, -80977.73265573176, -82236.20292379892, -0.068, 0.914, 0.422, 192.0, 126.5, 112.0, 14.0, 72.0, 6.5, 24.0, 0.0, 0.0, 0.0, 1.695415926197119E9, 0.0, 2023-09-22 15:52:06.197
50.0, -36164.65314205326, -16631.553069538244, -84590.19924285404, -79624.46863942964, -27217.451002293947, -54442.032211069134, -184729.12129510895, -71899.83986614227, -420.43631320432587, -187500.02235174447, -83293.35102955712, -77504.11510516585, -59902.742195456296, -61544.65663965424, -80985.48871105775, -82246.909409393, -0.068, 0.914, 0.422, 192.0, 0.0, 0.0, 0.0, 0.0, 0.0, 0.0, 0.0, 0.0, 0.0, 1.695415926197123E9, 0.0, 2023-09-22 15:52:06.197
52.0, -36172.923287501726, -16639.86791847562, -84596.41302781261, -79625.45211618568, -27218.747403472353, -54449.56474895057, -184703.5508994521, -71912.6250639707, -478.9531801883197, -187500.02235174447, -83276.34135202663, -77482.43391304421, -59894.87438140802, -61542.71203788663, -80968.36727480499, -82230.27971151826, -0.068, 0.914, 0.422, 192.0, 0.0, 0.0, 0.0, 0.0, 0.0, 0.0, 0.0, 0.0, 0.0, 1.695415926197126E9, 0.0, 2023-09-22 15:52:06.197
54.0, -36165.39074962029, -16637.029246929796, -84591.87562368819, -79622.74755510659, -27225.29646459776, -54450.88350187344, -184745.48277205025, -71910.94868313655, -411.9873538002198, -187500.02235174447, -83294.78154120226, -77501.67876502023, -59905.64792223548, -61546.24361351057, -80991.43427508287, -82252.5196972513, -0.068, 0.914, 0.422, 192.0, 0.0, 0.0, 0.0, 0.0, 0.0, 0.0, 0.0, 0.0, 0.0, 1.695415926197129E9, 0.0, 2023-09-22 15:52:06.197
56.0, -36180.83580503891, -16655.96117448344, -84596.88241444617, -79631.48708718862, -27234.058348424238, -54448.73773440573, -184731.49058002123, -71916.08958436127, -470.5936277620349, -187500.02235174447, -83284.43268351945, -77498.12483765183, -59902.585733245105, -61540.61097390783, -80979.94547843284, -82237.85695288861, -0.068, 0.914, 0.422, 192.0, 0.0, 0.0, 0.0, 0.0, 0.0, 0.0, 0.0, 0.0, 0.0, 1.695415926197132E9, 0.0, 2023-09-22 15:52:06.197
58.0, -36178.26535442655, -16649.166244169028, -84601.64333601516, -79629.38602320982, -27239.15454616005, -54446.368449493464, -184756.27866462216, -71914.74847969395, -429.86874936446543, -187500.02235174447, -83304.77277097378, -77520.87891350733, -59917.539050285704, -61551.16099729073, -81000.64319379845, -82249.658673961, -0.07, 0.908, 0.424, 192.0, 126.5, 104.0, 14.0, 48.0, 6.5, 32.0, 0.0, 0.0, 0.0, 1.695415926197136E9, 0.0, 2023-09-22 15:52:06.197
60.0, -36159.82516525092, -16631.888345705076, -84568.80862341031, -79591.1868919357, -27193.579339215677, -54408.1916699638, -184761.37486235797, -71863.02654302437, -446.38668851693734, -187500.02235174447, -83285.72908469786, -77492.49219804909, -59893.17564882942, -61527.73636910157, -80963.65105672492, -82211.43719094244, -0.07, 0.908, 0.424, 192.0, 0.0, 0.0, 0.0, 0.0, 0.0, 0.0, 0.0, 0.0, 0.0, 1.695415926197139E9, 0.0, 2023-09-22 15:52:06.197
62.0, -36161.814470507445, -16631.463662560425, -84585.32656256278, -79609.78354332251, -27217.428650549493, -54428.46470218476, -184761.77719375817, -71897.82820914128, -402.8901938069098, -187500.02235174447, -83290.84763417812, -77491.2405003596, -59892.97448312933, -61528.608087135326, -80964.92510615887, -82212.24185374283, -0.07, 0.908, 0.424, 192.0, 0.0, 0.0, 0.0, 0.0, 0.0, 0.0, 0.0, 0.0, 0.0, 1.695415926256606E9, 0.0, 2023-09-22 15:52:06.256
64.0, -36147.66581626723, -16619.036092643273, -84560.02438783937, -79583.96727847663, -27198.452019506934, -54403.43074839482, -184776.99873173222, -71863.13830174664, -413.9096038233762, -187500.02235174447, -83282.57748872966, -77482.03158164401, -59890.068756350134, -61528.87630806879, -80969.97660040577, -82213.42649619895, -0.07, 0.908, 0.424, 192.0, 0.0, 0.0, 0.0, 0.0, 0.0, 0.0, 0.0, 0.0, 0.0, 1.695415926256616E9, 0.0, 2023-09-22 15:52:06.256
66.0, -36109.801961159945, -16582.736859647855, -84533.11288751518, -79568.09753991336, -27171.495815693834, -54379.112050427444, -184790.20861270532, -71840.89831601361, -401.48203390622547, -187500.02235174447, -83244.80304060019, -77450.56032545095, -59849.79091284167, -61497.561514086905, -80930.63753016443, -82180.81530103866, -0.07, 0.908, 0.424, 192.0, 0.0, 0.0, 0.0, 0.0, 0.0, 0.0, 0.0, 0.0, 0.0, 1.69541592625662E9, 0.0, 2023-09-22 15:52:06.256
68.0, -36130.32086256991, -16607.65905471552, -84536.51035267238, -79583.52024358753, -27180.14594079804, -54397.41812913634, -184838.60013945107, -71861.21605172349, -369.273170146128, -187500.02235174447, -83242.36670045456, -77458.40578775476, -59845.342915695066, -61488.754926771515, -80927.19536151832, -82184.32452491815, -0.068, 0.904, 0.424, 192.0, 126.5, 112.0, 14.0, 32.0, 6.5, 32.0, 0.0, 0.0, 0.0, 1.695415926256623E9, 0.0, 2023-09-22 15:52:06.256
70.0, -36151.01857793553, -16628.982618925886, -84561.6113616957, -79607.77188632154, -27207.5715312447, -54425.6483823834, -184818.90825258594, -71884.52892119037, -411.1826909998287, -187500.02235174447, -83259.91281985198, -77476.82362518593, -59859.111590279535, -61516.40403466273, -80941.0534430806, -82208.17383625195, -0.068, 0.904, 0.424, 192.0, 0.0, 0.0, 0.0, 0.0, 0.0, 0.0, 0.0, 0.0, 0.0, 1.695415926256626E9, 0.0, 2023-09-22 15:52:06.256
72.0, -36165.12252868683, -16636.20223238495, -84563.19833555202, -79606.07315374294, -27214.120592370105, -54427.25770798418, -184859.72253796132, -71893.04493582784, -390.8873070344099, -187500.02235174447, -83284.07505560816, -77491.97810792662, -59883.31852952463, -61538.398151206755, -80969.12723411647, -82232.67134817498, -0.068, 0.904, 0.424, 192.0, 0.0, 0.0, 0.0, 0.0, 0.0, 0.0, 0.0, 0.0, 0.0, 1.69541592625663E9, 0.0, 2023-09-22 15:52:06.256
74.0, -36161.41213910725, -16629.988447426374, -84574.03893161284, -79613.22571196863, -27223.10599364114, -54439.39470522341, -184827.6701364124, -71899.5716452088, -455.32738629906015, -187500.02235174447, -83272.89918338052, -77475.12489260732, -59882.26799753523, -61532.89962207075, -80964.50042301422, -82223.37302248157, -0.068, 0.904, 0.424, 192.0, 0.0, 0.0, 0.0, 0.0, 0.0, 0.0, 0.0, 0.0, 0.0, 1.695415926256633E9, 0.0, 2023-09-22 15:52:06.256
76.0, -36144.82714472141, -16611.682368717476, -84552.67066391357, -79588.16940643423, -27201.558911986223, -54409.957457775774, -184901.632058815, -71872.4589791845, -387.5121936216585, -187500.02235174447, -83269.27820077875, -77469.62636347133, -59882.04448009068, -61526.149395245244, -80956.78907117713, -82216.53338867825, -0.068, 0.904, 0.424, 192.0, 0.0, 0.0, 0.0, 0.0, 0.0, 0.0, 0.0, 0.0, 0.0, 1.695415926316832E9, 0.0, 2023-09-22 15:52:06.316
78.0, -36180.23230793861, -16652.451950603958, -84595.09427488975, -79629.3413197209, -27241.59088630568, -54444.692068659315, -184848.0772791001, -71916.76013669492, -468.3584533165042, -187500.02235174447, -83286.7125614539, -77491.2405003596, -59888.97352087183, -61538.822834351406, -80974.02226615218, -82224.93764459345, -0.07, 0.908, 0.41400000000000003, 192.0, 126.5, 104.0, 14.0, 48.0, 6.0, 120.0, 0.0, 0.0, 0.0, 1.695415926316849E9, 0.0, 2023-09-22 15:52:06.316
80.0, -36167.87179325483, -16638.795034741765, -84569.47917574397, -79605.15673222026, -27223.351862830146, -54415.50069040069, -184925.43666665992, -71879.83505485476, -401.303219950583, -187500.02235174447, -83301.48706453884, -77507.6466807898, -59909.47007053734, -61548.121160044815, -80985.35460059102, -82231.57611269667, -0.07, 0.908, 0.41400000000000003, 192.0, 0.0, 0.0, 0.0, 0.0, 0.0, 0.0, 0.0, 0.0, 0.0, 1.695415926316853E9, 0.0, 2023-09-22 15:52:06.316
82.0, -36171.62688632332, -16649.300354635758, -84575.71531244699, -79621.78643009502, -27218.881513939086, -54428.82233009605, -184879.05679691516, -71891.68147941607, -466.23503759325, -187500.02235174447, -83279.71646543939, -77490.50289279257, -59880.59161670109, -61531.17853774769, -80958.46545201128, -82207.1009525181, -0.07, 0.908, 0.41400000000000003, 192.0, 0.0, 0.0, 0.0, 0.0, 0.0, 0.0, 0.0, 0.0, 0.0, 1.695415926316856E9, 0.0, 2023-09-22 15:52:06.316
84.0, -36159.7357582731, -16628.334418336683, -84559.7561669059, -79606.45313339867, -27210.633720235077, -54413.82430956654, -184966.47446947987, -71872.83895884025, -376.6045423274687, -187500.02235174447, -83286.9584306429, -77495.59909052838, -59886.80540165966, -61549.21639552312, -80965.88623117044, -82220.5567026802, -0.07, 0.908, 0.41400000000000003, 192.0, 0.0, 0.0, 0.0, 0.0, 0.0, 0.0, 0.0, 0.0, 0.0, 1.695415926316859E9, 0.0, 2023-09-22 15:52:06.316
86.0, -36163.20027866367, -16632.558898038733, -84566.59580070923, -79615.25972071406, -27214.522923770302, -54423.502614915684, -184925.48137014883, -71883.7689618789, -456.2438078217278, -187500.02235174447, -83270.28402927924, -77476.01896238554, -59874.08725906459, -61527.55755514593, -80954.93387638735, -82209.2020164969, -0.07, 0.908, 0.41400000000000003, 192.0, 0.0, 0.0, 0.0, 0.0, 0.0, 0.0, 0.0, 0.0, 0.0, 1.695415926316862E9, 0.0, 2023-09-22 15:52:06.316
88.0, -36169.65993281126, -16638.884441719587, -84582.7114084615, -79628.51430517607, -27240.070967682717, -54432.53271967563, -184998.54922277323, -71903.14792432165, -354.789239739089, -187500.02235174447, -83285.88554690905, -77496.00142192858, -59894.337939541096, -61547.00357282205, -80975.67629524188, -82231.21848478538, -0.064, 0.91, 0.41600000000000004, 192.0, 127.0, 0.0, 14.0, 56.0, 6.5, 0.0, 0.0, 0.0, 0.0, 1.695415926316865E9, 0.0, 2023-09-22 15:52:06.316
90.0, -36171.55983108996, -16651.24495640337, -84589.48398703146, -79634.72809013464, -27244.29544738477, -54437.58421392253, -184946.38025121455, -71901.6727091876, -471.5771045180684, -187500.02235174447, -83284.74560794182, -77502.97516619864, -59899.8364686771, -61550.065761812424, -80981.80067322263, -82233.27484527527, -0.064, 0.91, 0.41600000000000004, 192.0, 0.0, 0.0, 0.0, 0.0, 0.0, 0.0, 0.0, 0.0, 0.0, 1.695415926316868E9, 0.0, 2023-09-22 15:52:06.316
92.0, -36190.06707549895, -16664.276023420814, -84609.15352215213, -79656.49868923411, -27269.77643606382, -54458.259577543686, -184993.83300469315, -71925.76788971042, -390.7979000565887, -187500.02235174447, -83303.18579711745, -77527.45032637719, -59917.44964330789, -61567.56717772093, -81005.69468804535, -82256.45360427542, -0.064, 0.91, 0.41600000000000004, 192.0, 0.0, 0.0, 0.0, 0.0, 0.0, 0.0, 0.0, 0.0, 0.0, 1.695415926376953E9, 0.0, 2023-09-22 15:52:06.376
94.0, -36170.196374678184, -16647.065180190228, -84586.60061199674, -79638.03614831403, -27247.648209053066, -54444.4014959814, -184945.64264364753, -71912.04391861486, -485.03285468016327, -187500.02235174447, -83293.30632606821, -77520.96832048516, -59920.355370087076, -61569.86940739983, -81003.07953394408, -82252.02795887327, -0.064, 0.91, 0.41600000000000004, 192.0, 0.0, 0.0, 0.0, 0.0, 0.0, 0.0, 0.0, 0.0, 0.0, 1.695415926376968E9, 0.0, 2023-09-22 15:52:06.376
96.0, -36151.13033665781, -16626.211002613425, -84571.24496355593, -79621.27233997254, -27242.753177017355, -54432.890347586916, -185002.46077805292, -71906.70185169004, -371.9553794807648, -187500.02235174447, -83280.18585207294, -77505.09858192189, -59896.05902386416, -61555.34077350388, -80994.98820245126, -82245.97063612589, -0.064, 0.91, 0.41600000000000004, 192.0, 0.0, 0.0, 0.0, 0.0, 0.0, 0.0, 0.0, 0.0, 0.0, 1.695415926376972E9, 0.0, 2023-09-22 15:52:06.376
98.0, -36135.05943239444, -16617.918505420508, -84549.13908828964, -79595.65724082675, -27223.575380274702, -54411.18680372081, -184975.0575393507, -71889.80393288183, -442.721002426267, -187500.02235174447, -83250.27921799175, -77476.10836936336, -59877.86470387754, -61529.34569470235, -80974.44694929683, -82219.9532055799, -0.064, 0.914, 0.41400000000000003, 192.0, 127.0, 0.0, 14.0, 72.0, 6.0, 120.0, 0.0, 0.0, 0.0, 1.695415926376975E9, 0.0, 2023-09-22 15:52:06.376
100.0, -36127.45983927963, -16604.686272702966, -84537.31501547278, -79582.89439474278, -27222.39073781857, -54395.898210513384, -185046.35960416312, -71877.15284552012, -368.2226381567286, -187500.02235174447, -83245.6524068895, -77474.05200887346, -59876.97063409932, -61523.24366846606, -80978.33615283205, -82214.32056597716, -0.064, 0.914, 0.41400000000000003, 192.0, 0.0, 0.0, 0.0, 0.0, 0.0, 0.0, 0.0, 0.0, 0.0, 1.695415926376978E9, 0.0, 2023-09-22 15:52:06.376
102.0, -36137.22755160661, -16612.57643849569, -84529.64836712461, -79579.22870865211, -27204.174066087493, -54387.940989487295, -185044.41500239552, -71853.99643826442, -443.9503483713089, -187500.02235174447, -83230.29675844869, -77460.12687207782, -59864.09602929307, -61510.994912504546, -80944.22739079325, -82186.98438250832, -0.064, 0.914, 0.41400000000000003, 192.0, 0.0, 0.0, 0.0, 0.0, 0.0, 0.0, 0.0, 0.0, 0.0, 1.695415926376982E9, 0.0, 2023-09-22 15:52:06.376
104.0, -36151.309150613444, -16623.95347642344, -84557.38688199365, -79604.8438077979, -27224.000063419353, -54406.470585640745, -185089.23025002843, -71877.15284552012, -385.7017023207787, -187500.02235174447, -83242.81373534368, -77474.20847108465, -59870.42157297392, -61520.51675564251, -80952.31872228607, -82196.79679832421, -0.064, 0.914, 0.41400000000000003, 192.0, 0.0, 0.0, 0.0, 0.0, 0.0, 0.0, 0.0, 0.0, 0.0, 1.695415926376985E9, 0.0, 2023-09-22 15:52:06.376
106.0, -36189.24006095411, -16658.799846029266, -84585.23715558495, -79627.50847667558, -27246.418863108025, -54421.6474201259, -185066.74439510636, -71883.07605780078, -456.08734561054064, -187500.02235174447, -83273.43562524744, -77503.37749759883, -59910.364140315556, -61557.71005841614, -80987.366257592, -82218.4109352125, -0.064, 0.914, 0.41400000000000003, 192.0, 0.0, 0.0, 0.0, 0.0, 0.0, 0.0, 0.0, 0.0, 0.0, 1.695415926436788E9, 0.0, 2023-09-22 15:52:06.436
108.0, -36184.881470785316, -16648.518043579825, -84591.69680973254, -79633.20817151168, -27247.938781730987, -54427.32476321754, -185079.32842723472, -71886.54057819136, -432.66271742137883, -187500.02235174447, -83280.67759045096, -77509.77009651305, -59899.858820421556, -61553.485578714084, -80974.82692895258, -82213.4041444545, -0.066, 0.914, 0.41400000000000003, 192.0, 126.5, 120.0, 14.0, 72.0, 6.0, 120.0, 0.0, 0.0, 0.0, 1.695415926436924E9, 0.0, 2023-09-22 15:52:06.436
110.0, -36187.63073535332, -16659.69391580748, -84580.96797239399, -79631.48708718862, -27244.854240996152, -54428.35294346249, -185078.97079932343, -71895.3695172512, -463.686938725345, -187500.02235174447, -83290.7135237114, -77518.01789021706, -59914.543916528695, -61564.41558175273, -80985.17578663537, -82227.10576380561, -0.066, 0.914, 0.41400000000000003, 192.0, 0.0, 0.0, 0.0, 0.0, 0.0, 0.0, 0.0, 0.0, 0.0, 1.695415926436932E9, 0.0, 2023-09-22 15:52:06.436
112.0, -36185.39556090779, -16670.10982872365, -84585.39361779614, -79645.65809317328, -27258.64526732508, -54449.83296988404, -185066.5879328952, -71912.64741571515, -451.6393484639345, -187500.02235174447, -83290.82528243367, -77529.01494848907, -59907.65957923646, -61583.01223313955, -80989.04263842615, -82241.56734246819, -0.066, 0.914, 0.41400000000000003, 192.0, 0.0, 0.0, 0.0, 0.0, 0.0, 0.0, 0.0, 0.0, 0.0, 1.695415926436936E9, 0.0, 2023-09-22 15:52:06.436
114.0, -36167.35770313236, -16653.614241315634, -84564.85236464172, -79625.60857839687, -27234.34892110216, -54433.940879576316, -185095.77931115383, -71897.89526437465, -441.8045809035994, -187500.02235174447, -83279.7611689283, -77518.68844255072, -59897.42248027593, -61576.351413291864, -80983.1641296344, -82242.8637436466, -0.066, 0.914, 0.41400000000000003, 192.0, 0.0, 0.0, 0.0, 0.0, 0.0, 0.0, 0.0, 0.0, 0.0, 1.69541592643694E9, 0.0, 2023-09-22 15:52:06.436
116.0, -36143.50839179855, -16628.513232292324, -84554.72702440346, -79608.95652877766, -27240.24978163836, -54420.82040558105, -185105.97170662545, -71895.5706829513, -441.4693047367698, -187500.02235174447, -83257.72234889536, -77492.67101200474, -59883.922026624925, -61554.64786942576, -80969.6636759834, -82226.32345274967, -0.066, 0.914, 0.41400000000000003, 192.0, 0.0, 0.0, 0.0, 0.0, 0.0, 0.0, 0.0, 0.0, 0.0, 1.695415926436946E9, 0.0, 2023-09-22 15:52:06.436
118.0, -36140.08857489689, -16618.38789205407, -84540.39955620762, -79593.57852859242, -27212.75713595833, -54401.083815227015, -185163.68391080905, -71872.6154413957, -406.55587989758016, -187500.02235174447, -83246.97115981235, -77473.7390844511, -59877.52942771071, -61544.85780535434, -80960.4100537789, -82215.37109796656, -0.07, 0.914, 0.41600000000000004, 192.0, 126.5, 104.0, 14.0, 72.0, 6.5, 0.0, 0.0, 0.0, 0.0, 1.695415926436967E9, 0.0, 2023-09-22 15:52:06.436
120.0, -36154.66191228174, -16628.088549147673, -84570.68616994456, -79610.96818577865, -27243.267267139825, -54422.4967864152, -185152.32922462575, -71899.50458997543, -440.4858279807363, -187500.02235174447, -83253.6990348934, -77476.42129378574, -59878.110573066544, -61534.88892732727, -80962.86874566898, -82208.66557462998, -0.07, 0.914, 0.41600000000000004, 192.0, 0.0, 0.0, 0.0, 0.0, 0.0, 0.0, 0.0, 0.0, 0.0, 1.695415926436972E9, 0.0, 2023-09-22 15:52:06.436
122.0, -36166.82126126543, -16633.81059572823, -84570.48500424446, -79614.11978174685, -27240.897982227565, -54419.72517010274, -185222.82662663778, -71890.42978172658, -405.1030165079852, -187500.02235174447, -83272.89918338052, -77493.63213701632, -59889.91229413895, -61551.65273566875, -80977.33032433156, -82224.44590621542, -0.07, 0.914, 0.41600000000000004, 192.0, 0.0, 0.0, 0.0, 0.0, 0.0, 0.0, 0.0, 0.0, 0.0, 1.695415926497074E9, 0.0, 2023-09-22 15:52:06.497
124.0, -36197.62196512485, -16671.048601990773, -84607.94652795154, -79656.31987527847, -27280.169997235538, -54445.65319367089, -185187.93555354304, -71916.13428785017, -473.4099475634036, -187500.02235174447, -83287.98661088785, -77516.54267508301, -59899.724709954826, -61570.65171845576, -80992.12717916098, -82231.44200222993, -0.07, 0.914, 0.41600000000000004, 192.0, 0.0, 0.0, 0.0, 0.0, 0.0, 0.0, 0.0, 0.0, 0.0, 1.695415926497085E9, 0.0, 2023-09-22 15:52:06.497
126.0, -36197.197281980196, -16675.183674715005, -84592.9708591665, -79649.48024147515, -27258.332342902704, -54431.77276036415, -185244.48546701498, -71891.63677592717, -420.4586649487812, -187500.02235174447, -83313.668765267, -77549.26562896557, -59929.027846935736, -61602.05591941547, -81016.4235253839, -82254.15137459652, -0.07, 0.914, 0.41600000000000004, 192.0, 0.0, 0.0, 0.0, 0.0, 0.0, 0.0, 0.0, 0.0, 0.0, 1.695415926497088E9, 0.0, 2023-09-22 15:52:06.497
128.0, -36180.9922672501, -16667.44997113347, -84580.54328924934, -79643.02058732756, -27245.92712473001, -54422.96617304876, -185205.45932119602, -71873.77773210738, -482.84238372354315, -187500.02235174447, -83292.88164292356, -77531.98773050163, -59910.498250782286, -61594.92571293422, -80982.49357730075, -82228.51392370628, -0.066, 0.91, 0.41200000000000003, 192.0, 126.5, 120.0, 14.0, 56.0, 6.0, 112.0, 0.0, 0.0, 0.0, 1.695415926497092E9, 0.0, 2023-09-22 15:52:06.497
130.0, -36141.608493519845, -16622.500613033844, -84536.42094569457, -79595.45607512667, -27207.10214461114, -54381.28016963961, -185303.65053458817, -71839.28899041284, -376.5151353496475, -187500.02235174447, -83264.13729955403, -77502.75164875409, -59885.15137256997, -61566.87427364282, -80954.35273103151, -82202.4517896714, -0.066, 0.91, 0.41200000000000003, 192.0, 0.0, 0.0, 0.0, 0.0, 0.0, 0.0, 0.0, 0.0, 0.0, 1.695415926497095E9, 0.0, 2023-09-22 15:52:06.497
132.0, -36139.48507779659, -16618.96903740991, -84542.16534401958, -79595.21020593765, -27212.33245281368, -54380.47550683922, -185267.91009520413, -71844.47459512646, -438.85415063549885, -187500.02235174447, -83237.13639225202, -77470.09575010488, -59865.526540938205, -61539.158110518234, -80924.44609695031, -82172.56750733465, -0.066, 0.91, 0.41200000000000003, 192.0, 0.0, 0.0, 0.0, 0.0, 0.0, 0.0, 0.0, 0.0, 0.0, 1.695415926497098E9, 0.0, 2023-09-22 15:52:06.497
134.0, -36119.81554267592, -16596.013795854305, -84522.22758796545, -79576.1888714062, -27200.731897441376, -54361.81180021904, -185361.09451783833, -71828.33663562973, -354.4763153167147, -187500.02235174447, -83246.9488080679, -77477.5388810085, -59884.12319232502, -61537.347619217355, -80939.17589654635, -82183.51986211776, -0.066, 0.91, 0.41200000000000003, 192.0, 0.0, 0.0, 0.0, 0.0, 0.0, 0.0, 0.0, 0.0, 0.0, 1.695415926497102E9, 0.0, 2023-09-22 15:52:06.497
136.0, -36130.92435967021, -16614.632798985578, -84539.66194864058, -79603.07801998593, -27218.05449939424, -54389.97499823273, -185329.01976454494, -71860.34433368973, -445.40321176090384, -187500.02235174447, -83220.7972670552, -77456.84116564288, -59859.96095656884, -61510.994912504546, -80923.77554461666, -82169.34885613309, -0.066, 0.91, 0.41200000000000003, 192.0, 0.0, 0.0, 0.0, 0.0, 0.0, 0.0, 0.0, 0.0, 0.0, 1.695415926557408E9, 0.0, 2023-09-22 15:52:06.557
138.0, -36149.789231990486, -16626.76979622481, -84556.5598674488, -79627.28495923102, -27238.86397348213, -54417.512347401665, -185397.8184339784, -71882.49491244495, -363.59582705447997, -187500.02235174447, -83250.52508718075, -77487.08307589091, -59876.90357886596, -61550.915128101726, -80963.04755962463, -82217.69567938992, -0.066, 0.916, 0.418, 192.0, 126.5, 120.0, 14.0, 80.0, 6.5, 8.0, 0.0, 0.0, 0.0, 1.695415926557422E9, 0.0, 2023-09-22 15:52:06.557
140.0, -36159.91457222874, -16641.879575476596, -84565.63467569766, -79625.7426888636, -27248.251706153358, -54434.25380399869, -185350.36568049976, -71905.5172092339, -479.1766976328728, -187500.02235174447, -83257.67764540645, -77482.5903752554, -59887.54300922668, -61567.678936443204, -80969.52956551667, -82229.36328999558, -0.066, 0.916, 0.418, 192.0, 0.0, 0.0, 0.0, 0.0, 0.0, 0.0, 0.0, 0.0, 0.0, 1.695415926557426E9, 0.0, 2023-09-22 15:52:06.557
142.0, -36152.516144814035, -16627.328589836194, -84561.2090302955, -79616.77963933702, -27258.980543491907, -54430.722228374754, -185415.3198498869, -71902.23150279898, -394.10595823597413, -187500.02235174447, -83266.46188097738, -77480.15403510976, -59899.61295123255, -61574.3844597798, -80986.69570525835, -82243.78016516927, -0.066, 0.916, 0.418, 192.0, 0.0, 0.0, 0.0, 0.0, 0.0, 0.0, 0.0, 0.0, 0.0, 1.695415926557429E9, 0.0, 2023-09-22 15:52:06.557
144.0, -36163.11087168585, -16642.57247955471, -84565.29939953082, -79623.37340395134, -27254.890174256587, -54434.45496969879, -185381.59106750382, -71902.45502024353, -488.47502332628056, -187500.02235174447, -83249.31809298016, -77456.75175866506, -59889.442907505385, -61561.62161369582, -80965.81917593708, -82218.4556387014, -0.066, 0.916, 0.418, 192.0, 0.0, 0.0, 0.0, 0.0, 0.0, 0.0, 0.0, 0.0, 0.0, 1.695415926557432E9, 0.0, 2023-09-22 15:52:06.557
146.0, -36153.700787270165, -16633.58707828368, -84556.3139982598, -79619.37244169383, -27256.14187194608, -54419.47930091373, -185444.60063512335, -71895.81655214031, -414.82602534604376, -187500.02235174447, -83274.39675025902, -77486.5913375129, -59914.968599673346, -61582.87812267282, -80987.54507154765, -82241.99202561284, -0.066, 0.916, 0.418, 192.0, 0.0, 0.0, 0.0, 0.0, 0.0, 0.0, 0.0, 0.0, 0.0, 1.695415926557435E9, 0.0, 2023-09-22 15:52:06.557
148.0, -36149.11867965683, -16636.828081229698, -84547.32859698875, -79614.65622361377, -27242.19438340597, -54400.10033847098, -185429.66966982718, -71879.79035136585, -489.3467413600375, -187500.02235174447, -83239.70684286438, -77460.52920347801, -59891.90159939547, -61556.70422991565, -80959.42657702287, -82208.37500195205, -0.066, 0.908, 0.424, 192.0, 126.5, 120.0, 14.0, 48.0, 6.5, 32.0, 0.0, 0.0, 0.0, 1.695415926557438E9, 0.0, 2023-09-22 15:52:06.557
150.0, -36146.39176683328, -16633.72118875041, -84553.29651275832, -79622.74755510659, -27249.749273031866, -54404.30246642858, -185495.33909503688, -71881.13145603317, -411.8308915890326, -187500.02235174447, -83243.5960463996, -77470.11810184934, -59899.07650936562, -61572.23869231209, -80967.29439107113, -82216.62279565606, -0.066, 0.908, 0.424, 192.0, 0.0, 0.0, 0.0, 0.0, 0.0, 0.0, 0.0, 0.0, 0.0, 1.695415926557441E9, 0.0, 2023-09-22 15:52:06.557
152.0, -36161.27802864052, -16653.43542735999, -84560.47142272847, -79630.1906860102, -27244.273095640314, -54407.1411379744, -185484.20792629814, -71883.92542409008, -467.9337701718534, -187500.02235174447, -83255.37541572755, -77487.8430352024, -59903.47980302332, -61573.66920395723, -80976.63742025345, -82223.4624294594, -0.066, 0.908, 0.424, 192.0, 0.0, 0.0, 0.0, 0.0, 0.0, 0.0, 0.0, 0.0, 0.0, 1.695415926617217E9, 0.0, 2023-09-22 15:52:06.617
154.0, -36164.608438564355, -16651.267308147824, -84573.211917068, -79646.12747980685, -27262.892098771586, -54421.848585825996, -185518.6296127593, -71899.6163486977, -419.18461551482864, -187500.02235174447, -83260.22574427436, -77494.81677947244, -59906.027901891226, -61574.98795688009, -80978.5149667877, -82225.63054867156, -0.066, 0.908, 0.424, 192.0, 0.0, 0.0, 0.0, 0.0, 0.0, 0.0, 0.0, 0.0, 0.0, 1.69541592661723E9, 0.0, 2023-09-22 15:52:06.617
156.0, -36180.187604449704, -16662.420828631024, -84578.35281829273, -79646.5521629515, -27269.93289827501, -54430.14108301891, -185506.80553994246, -71905.33839527826, -478.2155726212946, -187500.02235174447, -83280.56583172869, -77507.19964590069, -59916.354407829574, -61593.85282920037, -80997.33513561907, -82243.82486865818, -0.066, 0.908, 0.424, 192.0, 0.0, 0.0, 0.0, 0.0, 0.0, 0.0, 0.0, 0.0, 0.0, 1.695415926617233E9, 0.0, 2023-09-22 15:52:06.617
158.0, -36172.34214214589, -16654.35184888266, -84579.09042585974, -79644.2499332726, -27272.905680287564, -54434.991411565716, -185526.3856680853, -71915.44138377206, -466.03387189315225, -187500.02235174447, -83275.5590409707, -77494.92853819473, -59912.39814906099, -61589.47188728713, -80994.63057453997, -82240.96384536789, -0.062, 0.912, 0.41600000000000004, 192.0, 127.0, 8.0, 14.0, 64.0, 6.5, 0.0, 0.0, 0.0, 0.0, 1.695415926617237E9, 0.0, 2023-09-22 15:52:06.617
160.0, -36160.24984839557, -16646.90871797904, -84555.39757673712, -79618.52307540453, -27244.831889251698, -54415.59009737851, -185555.77821204404, -71887.25583401392, -472.1582498739064, -187500.02235174447, -83260.29279950772, -77478.07532287542, -59904.642093735, -61578.78775343749, -80980.25840285521, -82226.18934228293, -0.062, 0.912, 0.41600000000000004, 192.0, 0.0, 0.0, 0.0, 0.0, 0.0, 0.0, 0.0, 0.0, 0.0, 1.69541592661724E9, 0.0, 2023-09-22 15:52:06.617
162.0, -36164.45197635317, -16656.76583728383, -84581.8173386833, -79646.1051280624, -27272.749218076377, -54444.66971691486, -185549.47502010764, -71918.70473846255, -461.3847090464484, -187500.02235174447, -83274.06147409219, -77497.16371264026, -59919.5954107756, -61587.259064586055, -80992.57421405008, -82237.18640055494, -0.062, 0.912, 0.41600000000000004, 192.0, 0.0, 0.0, 0.0, 0.0, 0.0, 0.0, 0.0, 0.0, 0.0, 1.695415926617243E9, 0.0, 2023-09-22 15:52:06.617
164.0, -36168.654104310765, -16663.62782283161, -84573.77071067938, -79646.68627341822, -27265.954287761964, -54442.63570816943, -185579.91809605577, -71912.8262296708, -439.2788337801497, -187500.02235174447, -83273.88266013654, -77501.9916894426, -59916.153242129476, -61589.38248030931, -80997.44689434134, -82244.98715936985, -0.062, 0.912, 0.41600000000000004, 192.0, 0.0, 0.0, 0.0, 0.0, 0.0, 0.0, 0.0, 0.0, 0.0, 1.695415926617246E9, 0.0, 2023-09-22 15:52:06.617
166.0, -36146.704691255654, -16643.846528988663, -84562.23721054045, -79640.40543322629, -27255.471319612425, -54433.516196431665, -185566.46234589367, -71905.42780225609, -440.28466228063854, -187500.02235174447, -83260.80688963018, -77490.92757593722, -59890.87341915053, -61589.71775647614, -80985.17578663537, -82237.38756625504, -0.062, 0.912, 0.41600000000000004, 192.0, 0.0, 0.0, 0.0, 0.0, 0.0, 0.0, 0.0, 0.0, 0.0, 1.695415926617249E9, 0.0, 2023-09-22 15:52:06.617
168.0, -36120.44139152067, -16613.828136185188, -84525.51329440037, -79605.44730489819, -27227.53163904329, -54391.00317847767, -185626.65559371182, -71863.25006046893, -391.8707837904434, -187500.02235174447, -83247.50760167929, -77473.7390844511, -59879.07169807812, -61583.213398839645, -80972.43529229585, -82226.72578414986, -0.066, 0.906, 0.41400000000000003, 192.0, 126.5, 120.0, 14.0, 40.0, 6.0, 120.0, 0.0, 0.0, 0.0, 1.695415926677453E9, 0.0, 2023-09-22 15:52:06.677
170.0, -36103.74463841256, -16599.5677232227, -84520.93118678704, -79601.9827845076, -27218.456830794436, -54389.885591254904, -185627.03557336755, -71859.29380170033, -416.63651664692367, -187500.02235174447, -83209.50963610526, -77432.2765984865, -59843.84534881656, -61528.71984585761, -80933.85618136599, -82181.88818477251, -0.066, 0.906, 0.41400000000000003, 192.0, 0.0, 0.0, 0.0, 0.0, 0.0, 0.0, 0.0, 0.0, 0.0, 1.695415926677465E9, 0.0, 2023-09-22 15:52:06.677
172.0, -36124.554112500446, -16623.752310723343, -84529.55896014678, -79603.50270313058, -27229.319778599714, -54404.74950131768, -185698.82937655802, -71866.3122494593, -372.08948994749665, -187500.02235174447, -83224.86528454606, -77444.54770619246, -59861.74909612526, -61550.356334490345, -80950.15060307391, -82199.41195242548, -0.066, 0.906, 0.41400000000000003, 192.0, 0.0, 0.0, 0.0, 0.0, 0.0, 0.0, 0.0, 0.0, 0.0, 1.695415926677468E9, 0.0, 2023-09-22 15:52:06.677
174.0, -36144.71538599913, -16647.020476701317, -84561.65606518461, -79632.58232266693, -27263.048560982774, -54426.028362039135, -185671.44848960024, -71902.18679931008, -463.4410695363366, -187500.02235174447, -83246.83704934563, -77469.87223266033, -59890.225218561325, -61578.85480867086, -80962.62287647997, -82215.84048460014, -0.066, 0.906, 0.41400000000000003, 192.0, 0.0, 0.0, 0.0, 0.0, 0.0, 0.0, 0.0, 0.0, 0.0, 1.695415926677472E9, 0.0, 2023-09-22 15:52:06.677
176.0, -36135.41706030572, -16633.16239513903, -84543.46174519799, -79610.543502634, -27245.971828218917, -54403.63191409492, -185769.95262741478, -71879.9691653215, -399.67154260534556, -187500.02235174447, -83249.27338949125, -77469.89458440478, -59891.07458485063, -61570.42820101121, -80971.58592600655, -82219.93085383545, -0.066, 0.906, 0.41400000000000003, 192.0, 0.0, 0.0, 0.0, 0.0, 0.0, 0.0, 0.0, 0.0, 0.0, 1.695415926677475E9, 0.0, 2023-09-22 15:52:06.677
178.0, -36131.9301881707, -16630.033150915286, -84543.57350392027, -79611.21405496766, -27241.72499677241, -54406.180012962825, -185726.5902431715, -71881.57849092227, -475.30984584210466, -187500.02235174447, -83228.53097063673, -77446.71582540462, -59879.63049168951, -61552.77032289152, -80948.04953909511, -82198.67434485846, -0.07, 0.914, 0.418, 192.0, 126.5, 104.0, 14.0, 72.0, 6.5, 8.0, 0.0, 0.0, 0.0, 1.695415926677478E9, 0.0, 2023-09-22 15:52:06.677
180.0, -36158.05937743895, -16654.888290749586, -84564.85236464172, -79632.13528777783, -27272.659811098554, -54426.788321350614, -185781.26261010917, -71904.84665690025, -398.35278968248247, -187500.02235174447, -83255.04013956072, -77473.06853211744, -59899.07650936562, -61579.05597437096, -80980.34780983304, -82227.28457776125, -0.07, 0.914, 0.418, 192.0, 0.0, 0.0, 0.0, 0.0, 0.0, 0.0, 0.0, 0.0, 0.0, 1.695415926677482E9, 0.0, 2023-09-22 15:52:06.677
182.0, -36163.35674087486, -16663.426657131513, -84574.30715254632, -79643.26645651656, -27278.560671634757, -54438.902966845395, -185724.64564140388, -71921.49870651946, -508.03279972467425, -187500.02235174447, -83258.39290122902, -77480.31049732096, -59906.89961992498, -61582.69930871717, -80987.00862968071, -82231.77727839677, -0.07, 0.914, 0.418, 192.0, 0.0, 0.0, 0.0, 0.0, 0.0, 0.0, 0.0, 0.0, 0.0, 1.69541592673919E9, 0.0, 2023-09-22 15:52:06.739
184.0, -36182.713351573155, -16672.568520613735, -84590.2215945985, -79660.16437532478, -27291.92701481903, -54455.890292631426, -185776.25581935118, -71937.2790381049, -427.20889177428387, -187500.02235174447, -83277.0566078492, -77498.48246556312, -59923.99870443329, -61605.56514329495, -81009.33802239156, -82257.30297056472, -0.07, 0.914, 0.418, 192.0, 0.0, 0.0, 0.0, 0.0, 0.0, 0.0, 0.0, 0.0, 0.0, 1.695415926739204E9, 0.0, 2023-09-22 15:52:06.739
186.0, -36180.88050852782, -16676.837703804697, -84588.23228934196, -79657.50451773459, -27290.67531712953, -54448.000126838706, -185712.91097556485, -71921.2751890749, -534.8548930710427, -187500.02235174447, -83280.29761079521, -77495.17440738373, -59923.5963730331, -61608.80614624097, -81002.69955428834, -82255.49247926385, -0.07, 0.914, 0.418, 192.0, 0.0, 0.0, 0.0, 0.0, 0.0, 0.0, 0.0, 0.0, 0.0, 1.695415926739207E9, 0.0, 2023-09-22 15:52:06.739
188.0, -36184.63560159631, -16675.764820070843, -84584.99128639595, -79656.40928225628, -27295.63740439861, -54451.57640595155, -185783.56483978807, -71931.22171535752, -437.3565837569933, -187500.02235174447, -83283.22568931886, -77496.42610507323, -59930.36895160305, -61592.489372788594, -81009.96387123631, -82260.43221478847, -0.07200000000000001, 0.91, 0.42, 192.0, 126.5, 96.0, 14.0, 56.0, 6.5, 16.0, 0.0, 0.0, 0.0, 1.695415926739211E9, 0.0, 2023-09-22 15:52:06.739
190.0, -36192.45871215567, -16685.77840158682, -84580.7668066939, -79662.86893640387, -27291.435276441014, -54455.10798157549, -185741.83413289, -71933.4792415475, -538.3864686949812, -187500.02235174447, -83277.07895959365, -77498.52716905203, -59934.28050688273, -61596.46798330164, -80995.63640304047, -82253.05613911821, -0.07200000000000001, 0.91, 0.42, 192.0, 0.0, 0.0, 0.0, 0.0, 0.0, 0.0, 0.0, 0.0, 0.0, 1.695415926739214E9, 0.0, 2023-09-22 15:52:06.739
192.0, -36186.893127786294, -16684.459648663957, -84589.48398703146, -79664.05357886, -27304.01930856935, -54457.410211254384, -185797.42292135037, -71932.31695083583, -451.19231357482835, -187500.02235174447, -83278.1518433275, -77503.17633189874, -59927.887907968514, -61601.07244265943, -81005.2700049007, -82259.5157932658, -0.07200000000000001, 0.91, 0.42, 192.0, 0.0, 0.0, 0.0, 0.0, 0.0, 0.0, 0.0, 0.0, 0.0, 1.695415926739217E9, 0.0, 2023-09-22 15:52:06.739
194.0, -36185.864947541355, -16688.86294232165, -84588.25464108642, -79664.85824166039, -27306.343889992702, -54455.175036808854, -185745.76803991414, -71938.3742735832, -540.7110501183331, -187500.02235174447, -83277.03425610474, -77500.538826053, -59935.24163189431, -61608.35911135186, -81008.868635758, -82260.05223513272, -0.07200000000000001, 0.91, 0.42, 192.0, 0.0, 0.0, 0.0, 0.0, 0.0, 0.0, 0.0, 0.0, 0.0, 1.69541592673922E9, 0.0, 2023-09-22 15:52:06.739
196.0, -36172.20803167916, -16670.981546757408, -84582.19731833904, -79660.36554102488, -27301.717078890455, -54451.30818501809, -185788.25870612368, -71937.16727938263, -458.9483689008199, -187500.02235174447, -83277.68245669395, -77497.96837544064, -59924.49044281131, -61611.041320686505, -81016.0211939837, -82266.06485439121, -0.07200000000000001, 0.91, 0.42, 192.0, 0.0, 0.0, 0.0, 0.0, 0.0, 0.0, 0.0, 0.0, 0.0, 1.695415926739223E9, 0.0, 2023-09-22 15:52:06.739
198.0, -36174.86788926934, -16676.12244798213, -84571.62494321167, -79650.1507938088, -27288.104866517173, -54440.89227210192, -185750.73012718323, -71918.95060765155, -526.3612301780261, -187500.02235174447, -83266.68539842193, -77483.86442468935, -59923.95400094438, -61602.65941651576, -80999.61501355351, -82248.27286580479, -0.062, 0.908, 0.42, 192.0, 127.0, 8.0, 14.0, 48.0, 6.5, 16.0, 0.0, 0.0, 0.0, 1.695415926799621E9, 0.0, 2023-09-22 15:52:06.799
200.0, -36136.780516717496, -16639.33147660869, -84538.56671316228, -79622.27816847303, -27264.59083135019, -54411.74559733219, -185795.61243004948, -71893.89430211714, -438.9435576133201, -187500.02235174447, -83253.98960757132, -77472.57679373941, -59901.84812567808, -61595.640968756794, -80989.24380412625, -82236.09116507664, -0.062, 0.908, 0.42, 192.0, 0.0, 0.0, 0.0, 0.0, 0.0, 0.0, 0.0, 0.0, 0.0, 1.695415926799646E9, 0.0, 2023-09-22 15:52:06.799
202.0, -36103.67758317919, -16609.6707117165, -84500.05465746578, -79582.9838017206, -27220.75906047333, -54375.96045445925, -185820.28875592814, -71860.32198194528, -460.17771484586183, -187500.02235174447, -83194.10928417556, -77415.15516223373, -59848.60627038554, -61541.549747174955, -80934.92906509984, -82181.48585337233, -0.062, 0.908, 0.42, 192.0, 0.0, 0.0, 0.0, 0.0, 0.0, 0.0, 0.0, 0.0, 0.0, 1.695415926799654E9, 0.0, 2023-09-22 15:52:06.799
204.0, -36133.40540330474, -16633.497671305857, -84536.51035267238, -79619.3947934383, -27254.91252600104, -54414.00312352218, -185835.62205262447, -71893.69313641706, -429.399362730904, -187500.02235174447, -83226.38520316902, -77445.5311829485, -59868.8793026065, -61570.22703531111, -80955.33620778755, -82211.66070838699, -0.062, 0.908, 0.42, 192.0, 0.0, 0.0, 0.0, 0.0, 0.0, 0.0, 0.0, 0.0, 0.0, 1.69541592679966E9, 0.0, 2023-09-22 15:52:06.799
206.0, -36156.40534834926, -16652.92133723752, -84550.43548946804, -79628.91663657625, -27267.00481975136, -54425.827196339036, -185835.28677645765, -71898.7669824084, -473.8346307080544, -187500.02235174447, -83231.77197358274, -77446.1346800488, -59878.401145744465, -61565.42141025322, -80956.56555373258, -82211.7501153648, -0.062, 0.908, 0.42, 192.0, 0.0, 0.0, 0.0, 0.0, 0.0, 0.0, 0.0, 0.0, 0.0, 1.695415926799663E9, 0.0, 2023-09-22 15:52:06.799
208.0, -36154.4830983261, -16654.128331438103, -84557.09630931572, -79634.45986920118, -27279.521796646335, -54428.889385329414, -185834.14683749044, -71910.54635173635, -485.23402038026103, -187500.02235174447, -83269.25584903429, -77481.62925024382, -59910.87823043802, -61598.50199204707, -80995.56934780709, -82245.0095111143, -0.068, 0.918, 0.422, 192.0, 126.5, 112.0, 14.0, 88.0, 6.5, 24.0, 0.0, 0.0, 0.0, 1.695415926799667E9, 0.0, 2023-09-22 15:52:06.799
210.0, -36134.411231805236, -16635.934011451485, -84531.39180319212, -79605.290842687, -27252.833813766698, -54395.60763783546, -185877.5762769671, -71880.5726624218, -479.10964239950687, -187500.02235174447, -83237.2928544632, -77456.30472377596, -59881.66450043494, -61570.45055275566, -80962.48876601324, -82214.74524912181, -0.068, 0.918, 0.422, 192.0, 0.0, 0.0, 0.0, 0.0, 0.0, 0.0, 0.0, 0.0, 0.0, 1.695415926799674E9, 0.0, 2023-09-22 15:52:06.799
212.0, -36152.73966225859, -16652.384895370593, -84561.65606518461, -79627.21790399765, -27280.661735613554, -54417.17707123484, -185865.68514891688, -71898.92344461959, -470.5712760175796, -187500.02235174447, -83246.07709003414, -77462.40675001225, -59889.018224360734, -61573.624500468315, -80968.54608876063, -82216.42162995596, -0.068, 0.918, 0.422, 192.0, 0.0, 0.0, 0.0, 0.0, 0.0, 0.0, 0.0, 0.0, 0.0, 1.695415926857481E9, 0.0, 2023-09-22 15:52:06.857
214.0, -36160.65217979577, -16658.01753497333, -84562.23721054045, -79617.98663353761, -27274.40324716607, -54407.029379252126, -185899.77155921122, -71891.30149976033, -464.1563253589065, -187500.02235174447, -83253.98960757132, -77465.96067738064, -59891.92395113993, -61574.16094233524, -80969.99895215023, -82213.91823457698, -0.068, 0.918, 0.422, 192.0, 0.0, 0.0, 0.0, 0.0, 0.0, 0.0, 0.0, 0.0, 0.0, 1.695415926857493E9, 0.0, 2023-09-22 15:52:06.857
216.0, -36162.59678156338, -16660.67739256351, -84570.84263215573, -79613.4939329021, -27281.980488536417, -54419.85928056947, -185865.2604657722, -71897.40352599663, -510.4467881258474, -187500.02235174447, -83271.06634033518, -77482.00922989956, -59905.13383211301, -61587.77315470853, -80981.53245228916, -82219.43911545744, -0.068, 0.918, 0.422, 192.0, 0.0, 0.0, 0.0, 0.0, 0.0, 0.0, 0.0, 0.0, 0.0, 1.695415926857497E9, 0.0, 2023-09-22 15:52:06.857
218.0, -36157.09825242737, -16650.932031980996, -84562.0583965848, -79603.50270313058, -27265.529604617313, -54405.2412396957, -185915.90951870795, -71881.93611883356, -462.27877882466066, -187500.02235174447, -83252.26852324826, -77466.67593320322, -59888.07945109361, -61577.334890047896, -80959.06894911158, -82203.41291468298, -0.066, 0.91, 0.426, 192.0, 126.5, 120.0, 14.0, 56.0, 6.5, 40.0, 0.0, 0.0, 0.0, 1.695415926857501E9, 0.0, 2023-09-22 15:52:06.857
220.0, -36160.02633095102, -16653.211909915437, -84576.34116129174, -79613.06924975745, -27281.01936352484, -54419.41224568037, -185862.6676634154, -71896.30829051833, -521.0191632532076, -187500.02235174447, -83270.23932579033, -77480.53401476551, -59897.824811676124, -61580.64294822729, -80974.5587080191, -82217.94154857894, -0.066, 0.91, 0.426, 192.0, 0.0, 0.0, 0.0, 0.0, 0.0, 0.0, 0.0, 0.0, 0.0, 1.695415926857505E9, 0.0, 2023-09-22 15:52:06.857
222.0, -36193.30807844497, -16678.44702940548, -84602.91738544911, -79634.75044187909, -27300.666546901055, -54447.88836811643, -185896.66466673193, -71918.0788896178, -463.4634212807919, -187500.02235174447, -83279.87292765056, -77483.6409072448, -59910.43119554892, -61591.05886114346, -80981.97948717827, -82224.44590621542, -0.066, 0.91, 0.426, 192.0, 0.0, 0.0, 0.0, 0.0, 0.0, 0.0, 0.0, 0.0, 0.0, 1.695415926857509E9, 0.0, 2023-09-22 15:52:06.857
224.0, -36189.17300572074, -16682.44799166298, -84606.73953375097, -79633.43168895623, -27304.578102180734, -54447.73190590524, -185824.84851179703, -71918.0788896178, -567.9801783538078, -187500.02235174447, -83320.48604732586, -77519.80602977348, -59940.538995330215, -61623.91592549276, -81010.5226648477, -82253.27965656277, -0.066, 0.91, 0.426, 192.0, 0.0, 0.0, 0.0, 0.0, 0.0, 0.0, 0.0, 0.0, 0.0, 1.695415926857514E9, 0.0, 2023-09-22 15:52:06.857
226.0, -36173.280915413015, -16668.142875211583, -84583.67253347309, -79612.2422352126, -27284.282718215316, -54430.789283608116, -185893.80364344164, -71910.45694475854, -473.4322993078589, -187500.02235174447, -83295.04976213572, -77492.53690153801, -59908.91127692596, -61598.457288558166, -80981.68891450035, -82227.28457776125, -0.066, 0.91, 0.426, 192.0, 0.0, 0.0, 0.0, 0.0, 0.0, 0.0, 0.0, 0.0, 0.0, 1.695415926857517E9, 0.0, 2023-09-22 15:52:06.857
228.0, -36180.545232360986, -16678.02234626083, -84594.2672603449, -79625.02743304103, -27291.949366563484, -54444.22268202576, -185829.14004673244, -71919.46469777402, -558.3018730046598, -187500.02235174447, -83291.40642778951, -77488.20066311368, -59913.82866070612, -61596.15505887927, -80975.69864698633, -82223.59653992612, -0.068, 0.912, 0.424, 192.0, 126.5, 112.0, 14.0, 64.0, 6.5, 32.0, 0.0, 0.0, 0.0, 1.695415926918611E9, 0.0, 2023-09-22 15:52:06.918
230.0, -36175.82901428092, -16677.195331715982, -84578.28576305935, -79620.13240100532, -27282.06989551424, -54440.646402912906, -185885.75701543773, -71905.80778191183, -482.21653487879456, -187500.02235174447, -83311.83592222165, -77510.93238722472, -59942.05891395318, -61622.10543419188, -80989.62378378198, -82245.05421460322, -0.068, 0.912, 0.424, 192.0, 0.0, 0.0, 0.0, 0.0, 0.0, 0.0, 0.0, 0.0, 0.0, 1.695415926918621E9, 0.0, 2023-09-22 15:52:06.918
232.0, -36187.20605220867, -16689.041756277296, -84588.54521376434, -79628.40254645378, -27286.3390787052, -54449.47534197276, -185813.65028782492, -71925.43261354358, -575.1103848350507, -187500.02235174447, -83293.68630572395, -77494.90618645027, -59904.2397623348, -61606.92859970673, -80962.66757996888, -82222.70247014791, -0.068, 0.912, 0.424, 192.0, 0.0, 0.0, 0.0, 0.0, 0.0, 0.0, 0.0, 0.0, 0.0, 1.695415926918625E9, 0.0, 2023-09-22 15:52:06.918
234.0, -36178.39946489328, -16675.608357859655, -84576.3635130362, -79616.17614223673, -27289.8930060736, -54437.00306856669, -185863.69584366036, -71918.45886927353, -481.3671685894929, -187500.02235174447, -83315.05457342321, -77518.01789021706, -59920.355370087076, -61626.66519006076, -80986.24867036923, -82242.97550236888, -0.068, 0.912, 0.424, 192.0, 0.0, 0.0, 0.0, 0.0, 0.0, 0.0, 0.0, 0.0, 0.0, 1.695415926918628E9, 0.0, 2023-09-22 15:52:06.918
236.0, -36148.33636860089, -16646.685200534488, -84553.4082714806, -79590.56104309094, -27266.088398228694, -54406.98467576321, -185823.79797980763, -71877.84574959824, -551.7304601347995, -187500.02235174447, -83270.79811940172, -77476.80127344147, -59889.018224360734, -61596.24446585709, -80959.00189387822, -82204.12817050554, -0.068, 0.912, 0.424, 192.0, 0.0, 0.0, 0.0, 0.0, 0.0, 0.0, 0.0, 0.0, 0.0, 1.695415926918631E9, 0.0, 2023-09-22 15:52:06.918
238.0, -36155.019540193025, -16648.830968002196, -84561.23138203996, -79597.7359530611, -27273.21860470994, -54407.47641414123, -185885.5334979932, -71880.90793858861, -446.2749297946608, -187500.02235174447, -83275.96137237089, -77479.6846484762, -59895.41082327496, -61588.95779716466, -80963.47224276928, -82203.79289433872, -0.068, 0.91, 0.43, 192.0, 126.5, 112.0, 14.0, 56.0, 6.5, 56.0, 0.0, 0.0, 0.0, 1.695415926918635E9, 0.0, 2023-09-22 15:52:06.918
240.0, -36137.60753126234, -16629.697874748454, -84543.93113183154, -79575.36185686135, -27253.191441677984, -54392.99248373419, -185849.05545104214, -71862.3112872018, -536.3077564606376, -187500.02235174447, -83261.36568324157, -77457.35525576536, -59883.1844190579, -61579.25714007106, -80947.356635017, -82186.35853366357, -0.068, 0.91, 0.43, 192.0, 0.0, 0.0, 0.0, 0.0, 0.0, 0.0, 0.0, 0.0, 0.0, 1.695415926918638E9, 0.0, 2023-09-22 15:52:06.918
242.0, -36139.17215337422, -16632.022456171806, -84538.65612014009, -79570.86915622583, -27255.605430079155, -54385.683463297304, -185913.33906809558, -71854.42112140908, -446.9231303838647, -187500.02235174447, -83256.11302329457, -77451.05206382896, -59884.92785512542, -61574.56327373544, -80937.27599826765, -82177.8425190261, -0.068, 0.91, 0.43, 192.0, 0.0, 0.0, 0.0, 0.0, 0.0, 0.0, 0.0, 0.0, 0.0, 1.695415926978977E9, 0.0, 2023-09-22 15:52:06.978
244.0, -36140.11092664134, -16640.359656853638, -84537.31501547278, -79577.06058943995, -27248.38581662009, -54389.30444589907, -185896.64231498746, -71865.708752359, -541.6274716410007, -187500.02235174447, -83256.04596806121, -77453.30959001895, -59888.79470691618, -61571.07640160041, -80937.2983500121, -82176.81433878116, -0.068, 0.91, 0.43, 192.0, 0.0, 0.0, 0.0, 0.0, 0.0, 0.0, 0.0, 0.0, 0.0, 1.695415926978993E9, 0.0, 2023-09-22 15:52:06.978
246.0, -36136.512295784036, -16635.15170039555, -84535.79509684982, -79576.32298187292, -27245.10011018516, -54390.39968137738, -185953.9968912598, -71859.11498774469, -475.68982549784494, -187500.02235174447, -83259.01875007377, -77457.46701448763, -59886.49247723728, -61576.57493073642, -80937.81244013458, -82183.8998417735, -0.068, 0.91, 0.43, 192.0, 0.0, 0.0, 0.0, 0.0, 0.0, 0.0, 0.0, 0.0, 0.0, 1.695415926978997E9, 0.0, 2023-09-22 15:52:06.978
248.0, -36160.71923502913, -16660.073895463218, -84546.52393418836, -79590.18106343522, -27262.06508422674, -54402.64843733889, -185915.4848355633, -71874.1130082742, -544.6226053980118, -187500.02235174447, -83258.37054948456, -77454.36012200834, -59893.55562848516, -61571.76930567853, -80932.98446333224, -82174.86973701355, -0.068, 0.908, 0.43, 192.0, 126.5, 112.0, 14.0, 48.0, 6.5, 56.0, 0.0, 0.0, 0.0, 1.695415926979001E9, 0.0, 2023-09-22 15:52:06.979
250.0, -36172.96799099064, -16663.471360620424, -84561.6113616957, -79608.97888052212, -27279.030058268316, -54426.56480390606, -185918.32350710913, -71902.67853768809, -500.52261358769107, -187500.02235174447, -83290.82528243367, -77483.4397415447, -59906.83256469161, -61613.43295734322, -80957.83960316653, -82210.14078976403, -0.068, 0.908, 0.43, 192.0, 0.0, 0.0, 0.0, 0.0, 0.0, 0.0, 0.0, 0.0, 0.0, 1.695415926979004E9, 0.0, 2023-09-22 15:52:06.979
252.0, -36154.90778147075, -16645.746427267364, -84533.53757065983, -79583.87787149881, -27250.308066643247, -54401.01675999365, -185908.48873954877, -71874.67180188559, -547.1707042659169, -187500.02235174447, -83274.57556421465, -77467.79352042598, -59892.661558706954, -61598.099660646876, -80943.17685880385, -82196.05919075718, -0.068, 0.908, 0.43, 192.0, 0.0, 0.0, 0.0, 0.0, 0.0, 0.0, 0.0, 0.0, 0.0, 1.695415926979007E9, 0.0, 2023-09-22 15:52:06.979
254.0, -36173.750302046574, -16669.327517667713, -84567.35576002071, -79615.61734862535, -27285.445008926992, -54431.61629815296, -185897.67049523242, -71903.84082839976, -506.781102035177, -187500.02235174447, -83279.44824450591, -77476.98008739711, -59896.28254130871, -61602.10062290438, -80949.32358852906, -82202.67530711596, -0.068, 0.908, 0.43, 192.0, 0.0, 0.0, 0.0, 0.0, 0.0, 0.0, 0.0, 0.0, 0.0, 1.69541592697901E9, 0.0, 2023-09-22 15:52:06.979
0.0, -36205.13215126183, -16700.262331993858, -84591.94267892155, -79636.47152620215, -27311.283625517324, -54448.268347772166, -185874.49173623227, -71923.51036352043, -549.0482508001627, -187500.02235174447, -83304.4598465514, -77499.95768069717, -59930.972448703345, -61625.72641679364, -80983.03001916767, -82229.83267662916, -0.068, 0.908, 0.43, 192.0, 0.0, 0.0, 0.0, 0.0, 0.0, 0.0, 0.0, 0.0, 0.0, 1.695415926979014E9, 0.0, 2023-09-22 15:52:06.979
2.0, -36175.806662536466, -16665.25950017685, -84564.7629576639, -79608.01775551055, -27277.15251173407, -54418.00408577968, -185858.80081162465, -71882.60667116722, -552.4010124684587, -187500.02235174447, -83309.42193382049, -77499.01890743004, -59937.81208250667, -61628.45332961719, -80981.33128658906, -82226.54697019422, -0.06, 0.91, 0.424, 192.0, 127.0, 16.0, 14.0, 56.0, 6.5, 32.0, 0.0, 0.0, 0.0, 1.69541592703778E9, 0.0, 2023-09-22 15:52:07.037
4.0, -36187.742494075595, -16674.893102037084, -84570.17207982208, -79607.57072062144, -27284.036849026306, -54415.45598691177, -185859.3149017471, -71880.95264207752, -531.0327447691852, -187500.02235174447, -83287.78544518775, -77481.3386775659, -59921.875288710035, -61608.22500088513, -80953.19044031983, -82197.15442623549, -0.06, 0.91, 0.424, 192.0, 0.0, 0.0, 0.0, 0.0, 0.0, 0.0, 0.0, 0.0, 0.0, 1.695415927037793E9, 0.0, 2023-09-22 15:52:07.037
6.0, -36175.40433113627, -16667.517026366833, -84564.964123364, -79611.68344160121, -27283.16513099255, -54415.79126307861, -185822.30041292912, -71892.37438349419, -557.810134626643, -187500.02235174447, -83302.87287269508, -77503.80218074349, -59924.35633234458, -61622.91009699227, -80973.57523126308, -82211.34778396461, -0.06, 0.91, 0.424, 192.0, 0.0, 0.0, 0.0, 0.0, 0.0, 0.0, 0.0, 0.0, 0.0, 1.695415927037796E9, 0.0, 2023-09-22 15:52:07.037
8.0, -36169.45876711116, -16662.689049564488, -84546.61334116619, -79600.77579030703, -27265.619011595132, -54405.86708854045, -185863.1146983045, -71876.1693687641, -511.653782326434, -187500.02235174447, -83277.21307006039, -77488.13360788031, -59905.446756535384, -61605.81101248396, -80956.92318164387, -82194.82984481213, -0.06, 0.91, 0.424, 192.0, 0.0, 0.0, 0.0, 0.0, 0.0, 0.0, 0.0, 0.0, 0.0, 1.6954159270378E9, 0.0, 2023-09-22 15:52:07.037
10.0, -36210.42951469774, -16706.856096608175, -84595.7201237345, -79659.67263694677, -27302.991128324407, -54457.20904555429, -185791.92439221437, -71929.2771135899, -548.0200705552186, -187500.02235174447, -83290.26648882228, -77506.46203833366, -59904.686797223905, -61634.48830062012, -80972.2564783402, -82219.5061706908, -0.06, 0.91, 0.424, 192.0, 0.0, 0.0, 0.0, 0.0, 0.0, 0.0, 0.0, 0.0, 0.0, 1.695415927037803E9, 0.0, 2023-09-22 15:52:07.037
12.0, -36224.533465449036, -16716.892029868606, -84589.28282133136, -79653.54825896601, -27294.095134031195, -54450.212949539775, -185801.46858709678, -71929.29946533436, -522.2708609427049, -187500.02235174447, -83333.18183817648, -77549.84677432141, -59942.97533547584, -61661.13158001084, -81011.8190660261, -82266.89186893606, -0.062, 0.918, 0.422, 192.0, 127.0, 8.0, 14.0, 88.0, 6.5, 24.0, 0.0, 0.0, 0.0, 1.695415927037806E9, 0.0, 2023-09-22 15:52:07.037
14.0, -36214.78810486652, -16704.956198329473, -84576.05058861383, -79638.5949419254, -27278.20304372347, -54434.47732144324, -185744.9410253693, -71911.44042151456, -581.0783006046177, -187500.02235174447, -83315.97099494589, -77531.02660549004, -59913.60514326157, -61638.53396636653, -80985.15343489092, -82243.35548202462, -0.062, 0.918, 0.422, 192.0, 0.0, 0.0, 0.0, 0.0, 0.0, 0.0, 0.0, 0.0, 0.0, 1.695415927037809E9, 0.0, 2023-09-22 15:52:07.037
16.0, -36197.21963372465, -16680.861017806652, -84532.95642530399, -79596.6854210717, -27247.983485219895, -54386.0857946975, -185811.43746512383, -71864.4123511806, -503.98713397826367, -187500.02235174447, -83293.99923014632, -77511.91586398076, -59894.337939541096, -61612.293018375996, -80963.74046370274, -82219.86379860209, -0.062, 0.918, 0.422, 192.0, 0.0, 0.0, 0.0, 0.0, 0.0, 0.0, 0.0, 0.0, 0.0, 1.69541592709811E9, 0.0, 2023-09-22 15:52:07.098
18.0, -36185.932002774716, -16675.787171815296, -84522.42875366555, -79582.00032496457, -27242.39554910607, -54370.037242178594, -185763.87295292295, -71859.38320867816, -571.8917336334865, -187500.02235174447, -83263.01971233127, -77489.18413986971, -59875.65188117646, -61589.918922176235, -80934.01264357718, -82188.59370810911, -0.062, 0.918, 0.422, 192.0, 0.0, 0.0, 0.0, 0.0, 0.0, 0.0, 0.0, 0.0, 0.0, 1.695415927098125E9, 0.0, 2023-09-22 15:52:07.098
20.0, -36187.45192139768, -16675.474247392922, -84509.95648025948, -79566.75643524605, -27229.029205921797, -54353.94398617077, -185851.89412258795, -71836.6514845671, -473.7452237302332, -187500.02235174447, -83227.05575550268, -77450.1803457952, -59845.678191861894, -61553.68674441418, -80907.7940473311, -82154.50729781477, -0.062, 0.918, 0.422, 192.0, 0.0, 0.0, 0.0, 0.0, 0.0, 0.0, 0.0, 0.0, 0.0, 1.695415927098129E9, 0.0, 2023-09-22 15:52:07.098
22.0, -36239.911465634286, -16725.765672417365, -84557.49864071592, -79614.0974300024, -27265.417845895034, -54397.21696343624, -185782.87193570996, -71871.1625780061, -589.7731291977321, -187500.02235174447, -83267.64652343352, -77488.64769800278, -59882.69268067988, -61591.34943382138, -80934.01264357718, -82178.82599578214, -0.062, 0.916, 0.426, 192.0, 127.0, 8.0, 14.0, 80.0, 6.5, 40.0, 0.0, 0.0, 0.0, 1.695415927098133E9, 0.0, 2023-09-22 15:52:07.098
24.0, -36262.08439613395, -16741.970687147463, -84578.9116119041, -79626.16737200825, -27280.97466003593, -54417.802920079586, -185839.01951778168, -71888.79810438133, -534.9219483044086, -187500.02235174447, -83311.32183209919, -77528.14323045532, -59920.28831485371, -61623.558297581476, -80963.96398114729, -82211.0572112867, -0.062, 0.916, 0.426, 192.0, 0.0, 0.0, 0.0, 0.0, 0.0, 0.0, 0.0, 0.0, 0.0, 1.695415927098136E9, 0.0, 2023-09-22 15:52:07.098
26.0, -36261.83852694494, -16749.74909421791, -84588.7687312089, -79639.4443082147, -27294.02807879783, -54431.52689117514, -185765.23640933473, -71892.19556953854, -647.3959264035137, -187500.02235174447, -83314.87575946758, -77532.79239330202, -59925.36216084506, -61633.124844208345, -80969.79778645013, -82215.39344971103, -0.062, 0.916, 0.426, 192.0, 0.0, 0.0, 0.0, 0.0, 0.0, 0.0, 0.0, 0.0, 0.0, 1.69541592709814E9, 0.0, 2023-09-22 15:52:07.098
28.0, -36235.12819232085, -16723.35168401619, -84572.69782694553, -79626.88262783083, -27287.054334527773, -54427.68239112883, -185822.03219199565, -71899.34812776424, -560.9170271059307, -187500.02235174447, -83317.89324496905, -77540.1461172278, -59934.77224526075, -61630.62144882935, -80986.42748432487, -82236.64995868802, -0.062, 0.916, 0.426, 192.0, 0.0, 0.0, 0.0, 0.0, 0.0, 0.0, 0.0, 0.0, 0.0, 1.695415927098152E9, 0.0, 2023-09-22 15:52:07.098
30.0, -36228.221503284156, -16714.567448445254, -84569.61328621069, -79624.15571500728, -27274.805578566265, -54428.66586788486, -185768.27624658064, -71889.53571194837, -648.8040863041981, -187500.02235174447, -83290.82528243367, -77509.27835813504, -59914.9909514178, -61625.68171330473, -80959.65009446742, -82212.51007467629, -0.062, 0.916, 0.426, 192.0, 0.0, 0.0, 0.0, 0.0, 0.0, 0.0, 0.0, 0.0, 0.0, 1.695415927098155E9, 0.0, 2023-09-22 15:52:07.098
32.0, -36231.082526574435, -16714.656855423076, -84582.39848403913, -79637.32089249145, -27289.580081651224, -54441.98750758023, -185819.57350010556, -71901.29272953185, -556.133753792495, -187500.02235174447, -83300.81651220519, -77515.31332913796, -59918.589582275104, -61629.66032381777, -80967.98729514924, -82223.55183643721, -0.07200000000000001, 0.91, 0.426, 192.0, 126.5, 96.0, 14.0, 56.0, 6.5, 40.0, 0.0, 0.0, 0.0, 1.695415927157366E9, 0.0, 2023-09-22 15:52:07.157
34.0, -36231.864837630375, -16725.899782884095, -84586.33239106326, -79648.83204088593, -27297.939634077506, -54450.637632684426, -185757.7932784311, -71918.23535182897, -646.4795048808462, -187500.02235174447, -83319.54727405874, -77537.7544805711, -59926.636210279015, -61654.224890974154, -80992.26128962771, -82247.93758963795, -0.07200000000000001, 0.91, 0.426, 192.0, 0.0, 0.0, 0.0, 0.0, 0.0, 0.0, 0.0, 0.0, 0.0, 1.695415927157378E9, 0.0, 2023-09-22 15:52:07.157
36.0, -36207.3449739629, -16703.056300050772, -84577.12347234768, -79642.48414546062, -27289.73654386241, -54440.355830234985, -185811.57157559058, -71913.09445060426, -553.5633031801348, -187500.02235174447, -83297.66491623699, -77524.79046878702, -59907.79368970319, -61642.93726002423, -80978.87259469899, -82241.656749446, -0.07200000000000001, 0.91, 0.426, 192.0, 0.0, 0.0, 0.0, 0.0, 0.0, 0.0, 0.0, 0.0, 0.0, 1.695415927157382E9, 0.0, 2023-09-22 15:52:07.157
38.0, -36196.3926191798, -16702.5422099283, -84569.59093446624, -79630.28009298803, -27287.7919420948, -54428.73292311823, -185776.79226121813, -71901.13626732067, -622.1831586579274, -187500.02235174447, -83283.7621311858, -77515.29097739351, -59908.84422169259, -61631.806091285485, -80972.56940276259, -82229.29623476222, -0.07200000000000001, 0.91, 0.426, 192.0, 0.0, 0.0, 0.0, 0.0, 0.0, 0.0, 0.0, 0.0, 0.0, 1.695415927157385E9, 0.0, 2023-09-22 15:52:07.157
40.0, -36209.31192747497, -16703.726852384432, -84592.34501032175, -79642.21592452716, -27313.11646856266, -54446.3013942601, -185797.355866117, -71923.17508735361, -557.7430793932772, -187500.02235174447, -83293.35102955712, -77521.46005886317, -59917.539050285704, -61639.696257078205, -80986.9639261918, -82237.63343544405, -0.07200000000000001, 0.91, 0.426, 192.0, 0.0, 0.0, 0.0, 0.0, 0.0, 0.0, 0.0, 0.0, 0.0, 1.695415927157388E9, 0.0, 2023-09-22 15:52:07.157
42.0, -36211.860026342874, -16700.239980249404, -84584.07486487328, -79631.8447150999, -27298.25255849988, -54431.39278070841, -185762.42008953335, -71912.64741571515, -635.3483361421032, -187500.02235174447, -83304.8621779516, -77528.47850662214, -59935.42044584995, -61644.14425422481, -80996.75399026323, -82241.72380467938, -0.074, 0.91, 0.422, 192.0, 126.5, 88.0, 14.0, 56.0, 6.5, 24.0, 0.0, 0.0, 0.0, 1.695415927157391E9, 0.0, 2023-09-22 15:52:07.157
44.0, -36199.72302910364, -16692.081593523217, -84585.39361779614, -79644.6969681617, -27300.711250389966, -54435.751370877195, -185779.4521188083, -71903.28203478838, -588.521431508235, -187500.02235174447, -83292.92634641247, -77520.47658210715, -59929.00549519128, -61633.81774828646, -80982.2700598562, -82228.98331033986, -0.074, 0.91, 0.422, 192.0, 0.0, 0.0, 0.0, 0.0, 0.0, 0.0, 0.0, 0.0, 0.0, 1.695415927157395E9, 0.0, 2023-09-22 15:52:07.157
46.0, -36182.512185873056, -16679.16228522805, -84563.19833555202, -79620.46767717216, -27284.841511826697, -54419.36754219145, -185762.1965720888, -71881.08675254426, -599.0491031466846, -187500.02235174447, -83272.80977640269, -77512.9440442257, -59915.303875840174, -61628.74390229511, -80972.8152719516, -82217.8074381122, -0.074, 0.91, 0.422, 192.0, 0.0, 0.0, 0.0, 0.0, 0.0, 0.0, 0.0, 0.0, 0.0, 1.695415927219024E9, 0.0, 2023-09-22 15:52:07.219
48.0, -36146.12354589982, -16647.132235423593, -84537.87380908417, -79598.80883679495, -27272.793921565288, -54396.54641110259, -185771.8972291824, -71868.0109820379, -553.8091723691431, -187500.02235174447, -83247.9993400573, -77491.41931431524, -59888.34767202708, -61611.15307940878, -80962.82404218007, -82201.42360942646, -0.074, 0.91, 0.422, 192.0, 0.0, 0.0, 0.0, 0.0, 0.0, 0.0, 0.0, 0.0, 0.0, 1.695415927219037E9, 0.0, 2023-09-22 15:52:07.219
50.0, -36144.268351110026, -16643.421845844012, -84524.3063001998, -79585.26367965504, -27254.979581234405, -54390.82436452203, -185788.66103752388, -71860.32198194528, -529.557529635135, -187500.02235174447, -83225.60289211308, -77464.35135177987, -59869.84042761808, -61585.158000607255, -80938.5053442127, -82181.3517429056, -0.074, 0.91, 0.422, 192.0, 0.0, 0.0, 0.0, 0.0, 0.0, 0.0, 0.0, 0.0, 0.0, 1.695415927219041E9, 0.0, 2023-09-22 15:52:07.219
52.0, -36144.67068251022, -16640.829043487196, -84530.40832643608, -79590.04695296848, -27264.613183094643, -54397.26166692516, -185781.12849964245, -71863.45122616903, -530.7198203468109, -187500.02235174447, -83229.38033692603, -77462.04912210097, -59874.89192186498, -61590.85769544336, -80939.98055934675, -82181.97759175034, -0.076, 0.918, 0.41600000000000004, 192.0, 126.5, 80.0, 14.0, 88.0, 6.5, 0.0, 0.0, 0.0, 0.0, 1.695415927219044E9, 0.0, 2023-09-22 15:52:07.219
54.0, -36137.74164172907, -16633.56472653922, -84513.97979426144, -79577.12764467331, -27241.702645027955, -54381.25781789516, -185813.49382561372, -71857.72917958847, -516.1017794730401, -187500.02235174447, -83222.2948339337, -77455.88004063131, -59865.37007872702, -61581.51466626104, -80934.45967846629, -82182.13405396153, -0.076, 0.918, 0.41600000000000004, 192.0, 0.0, 0.0, 0.0, 0.0, 0.0, 0.0, 0.0, 0.0, 0.0, 1.695415927219047E9, 0.0, 2023-09-22 15:52:07.219
56.0, -36144.49186855458, -16647.981601712894, -84544.17700102055, -79611.32581368992, -27270.40228490857, -54413.511385144164, -185779.6532845084, -71885.08771480176, -552.2669020017269, -187500.02235174447, -83226.2957961912, -77460.39509301128, -59872.813209630636, -61593.11522163334, -80940.87462912496, -82192.99700176681, -0.076, 0.918, 0.41600000000000004, 192.0, 0.0, 0.0, 0.0, 0.0, 0.0, 0.0, 0.0, 0.0, 0.0, 1.695415927219051E9, 0.0, 2023-09-22 15:52:07.219
58.0, -36144.894199954775, -16654.77653202731, -84538.94669281802, -79612.80102882397, -27273.933860532507, -54414.226640966735, -185831.77755257816, -71883.14311303415, -508.63629682496753, -187500.02235174447, -83232.73309859433, -77473.96260189565, -59889.2864452942, -61608.4932218186, -80958.01841712218, -82209.73845836383, -0.076, 0.918, 0.41600000000000004, 192.0, 0.0, 0.0, 0.0, 0.0, 0.0, 0.0, 0.0, 0.0, 0.0, 1.695415927219054E9, 0.0, 2023-09-22 15:52:07.219
60.0, -36151.15268840226, -16659.515101851834, -84551.66483541309, -79620.98176729462, -27289.334212462214, -54421.51330965917, -185807.1012266995, -71904.39962201114, -567.7343091647994, -187500.02235174447, -83243.23841848833, -77479.79640719849, -59893.935608140906, -61610.23665788611, -80961.95232414632, -82214.78995261074, -0.076, 0.918, 0.41600000000000004, 192.0, 0.0, 0.0, 0.0, 0.0, 0.0, 0.0, 0.0, 0.0, 0.0, 1.695415927219057E9, 0.0, 2023-09-22 15:52:07.219
62.0, -36177.70656081517, -16673.77551481432, -84570.41794901108, -79628.76017436507, -27300.331270734227, -54423.25674572668, -185872.54713446466, -71914.21203782702, -524.3048696881377, -187500.02235174447, -83260.71748265237, -77486.52428227953, -59909.73829147081, -61616.89747773379, -80982.38181857846, -82227.61985392807, -0.078, 0.922, 0.41000000000000003, 192.0, 126.5, 72.0, 14.0, 104.0, 6.0, 104.0, 0.0, 0.0, 0.0, 1.695415927277548E9, 0.0, 2023-09-22 15:52:07.277
64.0, -36211.390639709316, -16710.16415478756, -84616.48489433348, -79667.51809925058, -27343.26897183287, -54463.33342353504, -185805.0001627207, -71941.59292478478, -613.1083504090727, -187500.02235174447, -83285.21499457539, -77503.51160806556, -59926.12212015654, -61633.03543723052, -81004.80061826714, -82242.32730177967, -0.078, 0.922, 0.41000000000000003, 192.0, 0.0, 0.0, 0.0, 0.0, 0.0, 0.0, 0.0, 0.0, 0.0, 1.695415927277558E9, 0.0, 2023-09-22 15:52:07.277
66.0, -36182.713351573155, -16683.565578885744, -84581.77263519439, -79635.2421802571, -27325.856962902184, -54431.59394640851, -185879.0738438456, -71917.6765582176, -548.6906228888778, -187500.02235174447, -83286.19847133142, -77508.02666044554, -59946.81983552216, -61643.78662631353, -81027.46528714482, -82256.05127287522, -0.078, 0.922, 0.41000000000000003, 192.0, 0.0, 0.0, 0.0, 0.0, 0.0, 0.0, 0.0, 0.0, 0.0, 1.695415927277561E9, 0.0, 2023-09-22 15:52:07.277
68.0, -36166.44128160969, -16677.865884049643, -84569.81445191079, -79640.293674504, -27313.094116818207, -54438.5006354452, -185841.54526490514, -71923.53271526488, -607.2968968506929, -187500.02235174447, -83261.63390417503, -77497.43193357372, -59927.820852735145, -61635.58353609843, -81006.47699910129, -82238.99689185583, -0.078, 0.922, 0.41000000000000003, 192.0, 0.0, 0.0, 0.0, 0.0, 0.0, 0.0, 0.0, 0.0, 0.0, 1.695415927277565E9, 0.0, 2023-09-22 15:52:07.277
70.0, -36154.818374492934, -16669.841607790186, -84550.88252435715, -79631.06240404397, -27295.995032309896, -54427.90590857338, -185934.9755567283, -71900.8680463872, -511.05028522614066, -187500.02235174447, -83246.39001445651, -77496.15788413977, -59902.22810533382, -61635.360018653875, -80986.78511223616, -82229.07271731767, -0.078, 0.922, 0.41000000000000003, 192.0, 0.0, 0.0, 0.0, 0.0, 0.0, 0.0, 0.0, 0.0, 0.0, 1.695415927277568E9, 0.0, 2023-09-22 15:52:07.277
72.0, -36164.742549031085, -16677.642366605087, -84561.6113616957, -79638.10320354739, -27292.418753197046, -54434.25380399869, -185885.2205735708, -71903.01381385492, -613.5330335537236, -187500.02235174447, -83242.90314232149, -77491.19579687068, -59895.120250597036, -61635.650591331796, -80964.65688522541, -82216.22046425586, -0.066, 0.924, 0.40800000000000003, 192.0, 126.5, 120.0, 14.0, 112.0, 6.0, 96.0, 0.0, 0.0, 0.0, 1.695415927277571E9, 0.0, 2023-09-22 15:52:07.277
74.0, -36204.28278497252, -16705.805564618775, -84598.91642319161, -79665.26057306059, -27332.78600368333, -54466.97675788126, -185932.36040262706, -71932.71928223602, -527.1882447228724, -187500.02235174447, -83275.89431713753, -77509.47952383514, -59926.61385853456, -61651.9003095508, -80993.40122859493, -82242.17083956848, -0.066, 0.924, 0.40800000000000003, 192.0, 0.0, 0.0, 0.0, 0.0, 0.0, 0.0, 0.0, 0.0, 0.0, 1.695415927277574E9, 0.0, 2023-09-22 15:52:07.277
76.0, -36195.722066846145, -16698.407137204067, -84589.8192631983, -79651.4024914983, -27322.07951808924, -54457.58902521003, -185859.69488140286, -71923.91269492063, -647.2171124478713, -187500.02235174447, -83287.45016902091, -77509.85950349086, -59943.489425598316, -61670.049926048516, -81003.19129266635, -82251.1115373506, -0.066, 0.924, 0.40800000000000003, 192.0, 0.0, 0.0, 0.0, 0.0, 0.0, 0.0, 0.0, 0.0, 0.0, 1.695415927337947E9, 0.0, 2023-09-22 15:52:07.337
78.0, -36162.283857141, -16667.740543811386, -84552.13422204665, -79628.35784296488, -27299.10192478918, -54426.788321350614, -185937.09897245158, -71899.88456963118, -537.8947303169645, -187500.02235174447, -83265.36664549907, -77494.07917190543, -59928.64786727999, -61652.01206827308, -80999.05621994213, -82238.88513313355, -0.066, 0.924, 0.40800000000000003, 192.0, 0.0, 0.0, 0.0, 0.0, 0.0, 0.0, 0.0, 0.0, 0.0, 1.695415927337964E9, 0.0, 2023-09-22 15:52:07.337
80.0, -36159.7357582731, -16675.094267737182, -84549.18379177855, -79636.47152620215, -27297.202026510484, -54418.38406543542, -185906.29826859216, -71896.73297366298, -588.5437832526902, -187500.02235174447, -83223.07714498963, -77472.57679373941, -59877.73059341081, -61627.82748077244, -80958.55485898911, -82206.98919379583, -0.066, 0.924, 0.40800000000000003, 192.0, 0.0, 0.0, 0.0, 0.0, 0.0, 0.0, 0.0, 0.0, 0.0, 1.695415927337968E9, 0.0, 2023-09-22 15:52:07.337
82.0, -36144.42481332121, -16662.242014675383, -84549.51906794538, -79632.55997092248, -27301.44885795699, -54413.84666131099, -185963.47403090884, -71893.42491548359, -498.30979088661564, -187500.02235174447, -83244.28895047771, -77498.90714870777, -59901.15522159997, -61636.16468145427, -80991.21075763831, -82237.36521451059, -0.062, 0.916, 0.40800000000000003, 192.0, 127.0, 8.0, 14.0, 80.0, 6.0, 96.0, 0.0, 0.0, 0.0, 1.695415927337971E9, 0.0, 2023-09-22 15:52:07.337
84.0, -36126.05167937895, -16644.830005744698, -84532.64350088162, -79606.83311305441, -27271.63163085361, -54394.087719212504, -185961.32826344113, -71873.95654606301, -573.3222452786262, -187500.02235174447, -83198.17730166642, -77441.84314511337, -59867.80641887265, -61596.60209376837, -80945.76966116067, -82192.37115292206, -0.062, 0.916, 0.40800000000000003, 192.0, 0.0, 0.0, 0.0, 0.0, 0.0, 0.0, 0.0, 0.0, 0.0, 1.695415927337974E9, 0.0, 2023-09-22 15:52:07.337
86.0, -36147.59876103386, -16658.665735562532, -84560.89610587312, -79627.88845633132, -27305.561578936766, -54418.138196246415, -186011.7090954434, -71909.8757994027, -509.68682881436695, -187500.02235174447, -83240.22093298685, -77470.4310262717, -59900.28350356621, -61633.326009908444, -80986.18161513587, -82228.44686847292, -0.062, 0.916, 0.40800000000000003, 192.0, 0.0, 0.0, 0.0, 0.0, 0.0, 0.0, 0.0, 0.0, 0.0, 1.695415927337977E9, 0.0, 2023-09-22 15:52:07.337
88.0, -36150.07980466841, -16657.905776251053, -84550.0555098123, -79617.0925637594, -27294.698631131487, -54410.67271359834, -185999.2591737818, -71896.53180796288, -593.2600013327601, -187500.02235174447, -83224.95469152388, -77443.36306373634, -59898.69652970989, -61618.77502426804, -80968.56844050509, -82208.26324322978, -0.062, 0.916, 0.40800000000000003, 192.0, 0.0, 0.0, 0.0, 0.0, 0.0, 0.0, 0.0, 0.0, 0.0, 1.695415927337981E9, 0.0, 2023-09-22 15:52:07.337
90.0, -36157.031197194, -16667.360564155646, -84564.87471638617, -79637.63381691383, -27316.31276801977, -54427.704742873284, -186040.47579055736, -71900.39865975364, -545.8295995985985, -187500.02235174447, -83245.56299991166, -77466.60887796985, -59913.33692232811, -61643.92073678026, -80984.616993024, -82226.54697019422, -0.062, 0.916, 0.40800000000000003, 192.0, 0.0, 0.0, 0.0, 0.0, 0.0, 0.0, 0.0, 0.0, 0.0, 1.695415927337984E9, 0.0, 2023-09-22 15:52:07.337
92.0, -36162.708540285654, -16673.127314225116, -84569.74739667743, -79641.25479951559, -27319.46436398797, -54427.078894028535, -186048.45536332793, -71905.76307842291, -583.3358267946037, -187500.02235174447, -83244.55717141119, -77469.1793285822, -59921.115329398555, -61645.12773098084, -80976.83858595355, -82221.0037375693, -0.058, 0.916, 0.41000000000000003, 192.0, 127.0, 24.0, 14.0, 80.0, 6.0, 104.0, 0.0, 0.0, 0.0, 1.695415927400961E9, 0.0, 2023-09-22 15:52:07.400
94.0, -36168.43058686621, -16681.6880323515, -84591.3168300768, -79655.98459911163, -27349.862736447187, -54448.53656870563, -186072.9752269954, -71930.46175604603, -551.6857566458889, -187500.02235174447, -83275.1567095705, -77493.81095097197, -59937.63326855103, -61667.43477194724, -81009.18156018038, -82245.70241519243, -0.058, 0.916, 0.41000000000000003, 192.0, 0.0, 0.0, 0.0, 0.0, 0.0, 0.0, 0.0, 0.0, 0.0, 1.695415927400975E9, 0.0, 2023-09-22 15:52:07.400
96.0, -36154.84072623739, -16673.239072947392, -84568.1604228211, -79635.80097386849, -27318.279721531835, -54426.788321350614, -186102.7253988654, -71898.9681481085, -573.6128179565452, -187500.02235174447, -83262.43856697543, -77470.27456406053, -59927.753797501784, -61653.24141421812, -80991.03194368267, -82234.12421156457, -0.058, 0.916, 0.41000000000000003, 192.0, 0.0, 0.0, 0.0, 0.0, 0.0, 0.0, 0.0, 0.0, 0.0, 1.695415927400979E9, 0.0, 2023-09-22 15:52:07.400
98.0, -36158.86404023934, -16676.05539274876, -84570.01561761089, -79644.20522978369, -27317.631520942632, -54434.209100509775, -186119.75742814035, -71910.79222092536, -559.5759224386123, -187500.02235174447, -83260.22574427436, -77467.8829274038, -59916.153242129476, -61656.3036032085, -80984.0134959237, -82226.63637717205, -0.058, 0.916, 0.41000000000000003, 192.0, 0.0, 0.0, 0.0, 0.0, 0.0, 0.0, 0.0, 0.0, 0.0, 1.695415927400982E9, 0.0, 2023-09-22 15:52:07.400
100.0, -36168.34117988839, -16691.388689445103, -84562.84070764073, -79642.797069883, -27305.516875447855, -54433.27032724266, -186173.4910218109, -71907.1265348347, -569.2765795322156, -187500.02235174447, -83255.68834014992, -77469.02286637103, -59914.700378739886, -61643.473701891155, -80976.74917897573, -82224.42355447097, -0.058, 0.916, 0.41000000000000003, 192.0, 0.0, 0.0, 0.0, 0.0, 0.0, 0.0, 0.0, 0.0, 0.0, 1.695415927400986E9, 0.0, 2023-09-22 15:52:07.400
102.0, -36177.79596779298, -16704.978550073927, -84582.39848403913, -79669.79797718501, -27327.26512280287, -54455.71147867578, -186173.58042878873, -71927.26545658892, -582.1064808495619, -187500.02235174447, -83277.48129099385, -77495.77790448403, -59916.8908496965, -61669.06644929248, -80991.94836520533, -82246.4623745039, -0.06, 0.918, 0.41000000000000003, 192.0, 127.0, 16.0, 14.0, 88.0, 6.0, 104.0, 0.0, 0.0, 0.0, 1.695415927400989E9, 0.0, 2023-09-22 15:52:07.400
104.0, -36180.5899358499, -16703.771555873343, -84584.43249278456, -79662.66777070377, -27324.02411985685, -54445.742600648715, -186221.59197587872, -71917.36363379522, -562.0346143286961, -187500.02235174447, -83288.90303241051, -77503.4892563211, -59924.736312000314, -61675.280234251055, -81000.73260077627, -82252.54204899575, -0.06, 0.918, 0.41000000000000003, 192.0, 0.0, 0.0, 0.0, 0.0, 0.0, 0.0, 0.0, 0.0, 0.0, 1.695415927400992E9, 0.0, 2023-09-22 15:52:07.400
106.0, -36193.129264489326, -16709.717119898454, -84614.5179408214, -79680.79503545702, -27360.278649363358, -54469.390746282435, -186182.92345797105, -71956.52389008092, -604.905260193975, -187500.02235174447, -83301.21884360538, -77499.0412591745, -59942.86357675357, -61677.73892614114, -81012.4225631264, -82259.7169589659, -0.06, 0.918, 0.41000000000000003, 192.0, 0.0, 0.0, 0.0, 0.0, 0.0, 0.0, 0.0, 0.0, 0.0, 1.695415927458397E9, 0.0, 2023-09-22 15:52:07.458
108.0, -36194.60447962338, -16709.046567564794, -84607.14186515116, -79670.98261964114, -27355.674190005564, -54464.696879946816, -186225.2129584805, -71934.01568341443, -571.6458644444781, -187500.02235174447, -83304.23632910685, -77493.29686084948, -59960.610861851084, -61685.87496112287, -81031.08626974658, -82272.27863934978, -0.06, 0.918, 0.41000000000000003, 192.0, 0.0, 0.0, 0.0, 0.0, 0.0, 0.0, 0.0, 0.0, 0.0, 1.69541592745841E9, 0.0, 2023-09-22 15:52:07.458
110.0, -36166.73185428761, -16687.81241033225, -84584.8124724403, -79654.88936363332, -27341.41377704308, -54447.62014718296, -186196.2450976664, -71924.04680538736, -627.2570046492821, -187500.02235174447, -83288.03131437676, -77485.42904680122, -59947.62449832255, -61680.06350756449, -81023.53138012068, -82260.90160142203, -0.06, 0.918, 0.41000000000000003, 192.0, 0.0, 0.0, 0.0, 0.0, 0.0, 0.0, 0.0, 0.0, 0.0, 1.695415927458414E9, 0.0, 2023-09-22 15:52:07.458
112.0, -36159.40048210627, -16685.82310507573, -84563.17598380757, -79636.38211922433, -27327.801564669797, -54430.163434763366, -186274.5656102378, -71906.83596215678, -534.6984308598555, -187500.02235174447, -83269.74758741232, -77478.03061938651, -59939.06378019617, -61668.574710914465, -81010.1203334475, -82247.9599413824, -0.064, 0.922, 0.40800000000000003, 192.0, 127.0, 0.0, 14.0, 104.0, 6.0, 96.0, 0.0, 0.0, 0.0, 1.695415927458417E9, 0.0, 2023-09-22 15:52:07.458
114.0, -36162.6861885412, -16691.366337700645, -84573.48013800147, -79648.09443331891, -27330.97551238245, -54439.12648428995, -186238.15461852012, -71915.41903202761, -586.7109402073551, -187500.02235174447, -83244.33365396663, -77453.93543886369, -59916.153242129476, -61654.023725274055, -80979.9678301773, -82221.47312420286, -0.064, 0.922, 0.40800000000000003, 192.0, 0.0, 0.0, 0.0, 0.0, 0.0, 0.0, 0.0, 0.0, 0.0, 1.69541592745842E9, 0.0, 2023-09-22 15:52:07.458
116.0, -36176.81249103695, -16694.853209835674, -84581.8620421722, -79657.21394505668, -27340.27383807586, -54444.982641337236, -186305.0757414193, -71915.55314249435, -522.2261574537943, -187500.02235174447, -83282.24221256284, -77487.77597996902, -59947.66920181146, -61698.52604848457, -81011.12616194799, -82254.79957518574, -0.064, 0.922, 0.40800000000000003, 192.0, 0.0, 0.0, 0.0, 0.0, 0.0, 0.0, 0.0, 0.0, 0.0, 1.695415927458424E9, 0.0, 2023-09-22 15:52:07.458
118.0, -36176.007828236565, -16693.35564295717, -84586.04181838535, -79653.92823862175, -27336.406986285092, -54446.07787681554, -186254.18081929456, -71913.94381689356, -611.6778387639331, -187500.02235174447, -83266.68539842193, -77467.70411344816, -59932.38060860403, -61667.43477194724, -80991.43427508287, -82232.24666503032, -0.064, 0.922, 0.40800000000000003, 192.0, 0.0, 0.0, 0.0, 0.0, 0.0, 0.0, 0.0, 0.0, 0.0, 1.695415927458427E9, 0.0, 2023-09-22 15:52:07.458
120.0, -36156.67356928272, -16666.19827344397, -84557.8115651383, -79625.25095048558, -27307.34971849319, -54415.32187644504, -186347.61111111776, -71887.68051715857, -520.8403492975651, -187500.02235174447, -83264.0031890873, -77465.22306981363, -59926.39034109001, -61666.51835042457, -80981.33128658906, -82227.15046729452, -0.064, 0.922, 0.40800000000000003, 192.0, 0.0, 0.0, 0.0, 0.0, 0.0, 0.0, 0.0, 0.0, 0.0, 1.695415927458431E9, 0.0, 2023-09-22 15:52:07.458
122.0, -36162.10504318536, -16678.134104983106, -84568.24982979892, -79638.17025878075, -27311.01540458386, -54424.776664349636, -186303.46641581852, -71899.8175143978, -610.582603285623, -187500.02235174447, -83262.48327046433, -77467.36883728133, -59922.05410266568, -61656.616527630875, -80977.12915863146, -82224.7588306378, -0.06, 0.922, 0.40800000000000003, 192.0, 127.0, 16.0, 14.0, 104.0, 6.0, 96.0, 0.0, 0.0, 0.0, 1.695415927517143E9, 0.0, 2023-09-22 15:52:07.517
124.0, -36147.71051975615, -16660.47622686341, -84542.52297193087, -79606.83311305441, -27290.228282240427, -54394.91473375735, -186395.08621634083, -71874.3141739743, -519.3651341635149, -187500.02235174447, -83253.9002005935, -77448.30279926096, -59910.43119554892, -61641.59615535691, -80964.38866429194, -82213.06886828768, -0.06, 0.922, 0.40800000000000003, 192.0, 0.0, 0.0, 0.0, 0.0, 0.0, 0.0, 0.0, 0.0, 0.0, 1.695415927517157E9, 0.0, 2023-09-22 15:52:07.517
126.0, -36165.41310136475, -16677.53060788281, -84565.16528906408, -79623.44045918471, -27313.094116818207, -54409.84569905349, -186357.6470443782, -71890.13920904866, -601.1501671254834, -187500.02235174447, -83251.01682555876, -77435.24938049905, -59914.3427508286, -61633.5942308419, -80962.01937937968, -82202.69765886042, -0.06, 0.922, 0.40800000000000003, 192.0, 0.0, 0.0, 0.0, 0.0, 0.0, 0.0, 0.0, 0.0, 0.0, 1.695415927517163E9, 0.0, 2023-09-22 15:52:07.517
128.0, -36177.34893290388, -16684.012613774852, -84574.66478045759, -79633.5434476785, -27325.476983246444, -54412.21498396576, -186431.1619318917, -71904.4219737556, -524.4836836437802, -187500.02235174447, -83274.7543781703, -77458.27167728802, -59918.61193401956, -61654.06842876297, -80995.74816176273, -82227.59750218362, -0.06, 0.922, 0.40800000000000003, 192.0, 0.0, 0.0, 0.0, 0.0, 0.0, 0.0, 0.0, 0.0, 0.0, 1.695415927517169E9, 0.0, 2023-09-22 15:52:07.517
130.0, -36186.04376149699, -16701.514029683356, -84579.42570202658, -79644.2499332726, -27321.07368958875, -54421.2450887257, -186400.71885594356, -71902.723241177, -606.425178816936, -187500.02235174447, -83266.77480539976, -77461.57973546741, -59918.09784389709, -61656.750638097605, -80981.73361798926, -82218.36623172359, -0.06, 0.922, 0.40800000000000003, 192.0, 0.0, 0.0, 0.0, 0.0, 0.0, 0.0, 0.0, 0.0, 0.0, 1.695415927517175E9, 0.0, 2023-09-22 15:52:07.517
132.0, -36201.242947726605, -16712.198163532994, -84598.49174004696, -79665.39468352732, -27339.625637486653, -54449.34123150602, -186460.26390317248, -71924.29267457637, -537.8947303169645, -187500.02235174447, -83296.27910808077, -77498.95185219668, -59946.50691109979, -61698.2131240622, -81008.68982180236, -82250.77626118378, -0.058, 0.932, 0.40800000000000003, 192.0, 127.0, 24.0, 14.5, 16.0, 6.0, 96.0, 0.0, 0.0, 0.0, 1.695415927517181E9, 0.0, 2023-09-22 15:52:07.517
134.0, -36185.03793299651, -16700.709366882966, -84586.95823990801, -79648.27324727456, -27325.58874196872, -54446.43550472683, -186448.73040303355, -71927.31016007783, -618.226899889338, -187500.02235174447, -83299.02837264877, -77497.23076787363, -59941.455416852885, -61712.87586842488, -81012.53432184868, -82253.83845017415, -0.058, 0.932, 0.40800000000000003, 192.0, 0.0, 0.0, 0.0, 0.0, 0.0, 0.0, 0.0, 0.0, 0.0, 1.695415927517187E9, 0.0, 2023-09-22 15:52:07.517
136.0, -36160.5851245624, -16669.72984906791, -84578.10694910372, -79640.58424718193, -27323.264160545372, -54449.520045461664, -186507.85076711784, -71911.88745640367, -535.5701488936126, -187500.02235174447, -83284.07505560816, -77473.89554666229, -59924.110463155565, -61709.21018233421, -80991.34486810505, -82243.89192389154, -0.058, 0.932, 0.40800000000000003, 192.0, 0.0, 0.0, 0.0, 0.0, 0.0, 0.0, 0.0, 0.0, 0.0, 1.695415927577518E9, 0.0, 2023-09-22 15:52:07.577
138.0, -36172.74447354609, -16684.437296919503, -84586.89118467465, -79641.25479951559, -27330.103794348695, -54449.184769294836, -186501.0781885479, -71911.39571802565, -605.2181846163494, -187500.02235174447, -83276.29664853773, -77466.09478784738, -59931.97827720384, -61697.83314440646, -80979.14081563245, -82232.04549933023, -0.058, 0.932, 0.40800000000000003, 192.0, 0.0, 0.0, 0.0, 0.0, 0.0, 0.0, 0.0, 0.0, 0.0, 1.695415927577533E9, 0.0, 2023-09-22 15:52:07.577
140.0, -36174.599668335875, -16685.420773675534, -84595.20603361202, -79642.12651754935, -27341.771404954365, -54451.44229548482, -186540.7301832116, -71914.41320352712, -582.262943060749, -187500.02235174447, -83293.9098231685, -77480.6904769767, -59946.86453901107, -61707.019711377594, -80998.49742633074, -82248.04934836023, -0.058, 0.932, 0.40800000000000003, 192.0, 0.0, 0.0, 0.0, 0.0, 0.0, 0.0, 0.0, 0.0, 0.0, 1.695415927577539E9, 0.0, 2023-09-22 15:52:07.577
142.0, -36168.229421166114, -16675.72011658193, -84577.59285898124, -79612.77867707952, -27322.83947740072, -54427.48122542873, -186558.81274447593, -71894.49779921744, -615.0082486877739, -187500.02235174447, -83279.7611689283, -77468.64288671529, -59928.75962600227, -61693.385147259854, -80986.00280118022, -82230.99496734083, -0.046, 0.93, 0.41000000000000003, 192.0, 127.0, 72.0, 14.5, 8.0, 6.0, 104.0, 0.0, 0.0, 0.0, 1.695415927577545E9, 0.0, 2023-09-22 15:52:07.577
144.0, -36183.11568297335, -16691.031061533817, -84611.18753089757, -79642.66295941627, -27360.70333250801, -54460.38299326694, -186573.47548883862, -71926.93018042209, -573.7245766788217, -187500.02235174447, -83280.83405266215, -77474.29787806248, -59931.12891091454, -61693.20633330421, -80992.10482741652, -82232.69369991943, -0.046, 0.93, 0.41000000000000003, 192.0, 0.0, 0.0, 0.0, 0.0, 0.0, 0.0, 0.0, 0.0, 0.0, 1.695415927577551E9, 0.0, 2023-09-22 15:52:07.577
146.0, -36172.699770057174, -16682.82797131872, -84594.33431557826, -79620.42297368323, -27339.469175275466, -54440.1993680238, -186601.37046591885, -71908.98172962449, -605.2852398497153, -187500.02235174447, -83283.29274455224, -77479.55053800947, -59939.57787031864, -61699.15189732932, -80995.01055419572, -82233.65482493101, -0.046, 0.93, 0.41000000000000003, 192.0, 0.0, 0.0, 0.0, 0.0, 0.0, 0.0, 0.0, 0.0, 0.0, 1.695415927577557E9, 0.0, 2023-09-22 15:52:07.577
148.0, -36171.40336887877, -16683.453820163468, -84602.49270230446, -79627.03909004202, -27350.443881803025, -54448.24599602771, -186602.33159093044, -71924.06915713182, -603.161824126461, -187500.02235174447, -83284.83501491965, -77479.10350312036, -59945.45637911039, -61696.335577527956, -80997.44689434134, -82230.57028419618, -0.046, 0.93, 0.41000000000000003, 192.0, 0.0, 0.0, 0.0, 0.0, 0.0, 0.0, 0.0, 0.0, 0.0, 1.695415927577564E9, 0.0, 2023-09-22 15:52:07.577
150.0, -36168.519993844035, -16675.96598577094, -84585.39361779614, -79606.09550548739, -27327.622750714156, -54426.654210883884, -186654.99230086713, -71898.81168589732, -595.1375478670059, -187500.02235174447, -83277.54834622721, -77471.25804081655, -59940.896623241504, -61688.490115224144, -80984.2146616238, -82223.68594690395, -0.046, 0.93, 0.41000000000000003, 192.0, 0.0, 0.0, 0.0, 0.0, 0.0, 0.0, 0.0, 0.0, 0.0, 1.69541592757757E9, 0.0, 2023-09-22 15:52:07.577
152.0, -36188.92713653173, -16693.73562261291, -84612.90861522063, -79633.78931686751, -27362.26795461988, -54454.79505715312, -186637.7591058921, -71929.81355545683, -618.3833621005252, -187500.02235174447, -83296.52497726977, -77488.24536660258, -59944.048219209704, -61695.93324612776, -80998.94446121984, -82234.10185982012, -0.046, 0.924, 0.41400000000000003, 192.0, 127.0, 72.0, 14.0, 112.0, 6.0, 120.0, 0.0, 0.0, 0.0, 1.695415927639688E9, 0.0, 2023-09-22 15:52:07.639
154.0, -36179.02531373803, -16684.30318645277, -84588.74637946444, -79614.67857535822, -27329.388538526124, -54434.23145225424, -186706.5130718366, -71904.37727026669, -588.7896524416986, -187500.02235174447, -83295.02741039127, -77488.96062242516, -59937.92384122895, -61685.51733321159, -80993.33417336157, -82230.0114905848, -0.046, 0.924, 0.41400000000000003, 192.0, 0.0, 0.0, 0.0, 0.0, 0.0, 0.0, 0.0, 0.0, 0.0, 1.695415927639697E9, 0.0, 2023-09-22 15:52:07.639
156.0, -36185.17204346324, -16692.416869690045, -84603.05149591583, -79631.46473544415, -27336.518745007368, -54451.129371062445, -186688.07288266098, -71911.70864244804, -631.2132634178714, -187500.02235174447, -83288.6571632215, -77485.27258459003, -59923.73048349983, -61682.32103375447, -80973.28465858515, -82217.159237523, -0.046, 0.924, 0.41400000000000003, 192.0, 0.0, 0.0, 0.0, 0.0, 0.0, 0.0, 0.0, 0.0, 0.0, 1.695415927639704E9, 0.0, 2023-09-22 15:52:07.639
158.0, -36196.32556394643, -16696.350776714182, -84600.34693483674, -79627.06144178647, -27338.17277409706, -54444.133275047934, -186749.0707932795, -71912.46860175951, -589.1919838418942, -187500.02235174447, -83313.13232340006, -77514.82159075995, -59951.468998368866, -61705.29862705453, -80996.21754839631, -82243.02020585779, -0.046, 0.924, 0.41400000000000003, 192.0, 0.0, 0.0, 0.0, 0.0, 0.0, 0.0, 0.0, 0.0, 0.0, 1.69541592763971E9, 0.0, 2023-09-22 15:52:07.639
160.0, -36185.26145044106, -16688.72883185492, -84596.10010339023, -79627.1955522532, -27338.865678175174, -54446.368449493464, -186707.9212317373, -71913.40737502664, -637.7623245432765, -187500.02235174447, -83293.41808479048, -77498.6389277743, -59935.21928014985, -61688.40070824632, -80983.27588835667, -82225.74230739383, -0.046, 0.924, 0.41400000000000003, 192.0, 0.0, 0.0, 0.0, 0.0, 0.0, 0.0, 0.0, 0.0, 0.0, 1.695415927639716E9, 0.0, 2023-09-22 15:52:07.639
162.0, -36153.29845586997, -16659.358639640646, -84559.66675992809, -79601.04401124049, -27319.553770965787, -54420.3957224364, -186788.61102922095, -71886.27235725788, -547.6847943883889, -187500.02235174447, -83283.8068346747, -77496.80608472897, -59928.022018435244, -61689.00420534661, -80986.38278083596, -82233.11838306408, -0.05, 0.91, 0.41200000000000003, 192.0, 127.0, 56.0, 14.0, 56.0, 6.0, 112.0, 0.0, 0.0, 0.0, 1.695415927639722E9, 0.0, 2023-09-22 15:52:07.639
164.0, -36131.70667072614, -16643.935935966485, -84551.66483541309, -79588.88466225681, -27306.098020803693, -54404.32481817303, -186771.7354621572, -71868.79329309384, -613.3318678536258, -187500.02235174447, -83234.96827303985, -77453.86838363032, -59885.2854830367, -61647.34055368192, -80941.00873959169, -82187.43141739744, -0.05, 0.91, 0.41200000000000003, 192.0, 0.0, 0.0, 0.0, 0.0, 0.0, 0.0, 0.0, 0.0, 0.0, 1.695415927639729E9, 0.0, 2023-09-22 15:52:07.639
166.0, -36159.646351295276, -16669.05929673425, -84575.29062930234, -79609.35886017786, -27332.718948449965, -54424.12846376043, -186855.0627654866, -71900.10808707573, -540.3981256959588, -187500.02235174447, -83259.8010611297, -77478.61176474235, -59911.72759672733, -61662.33857421143, -80972.4129405514, -82211.5042461758, -0.05, 0.91, 0.41200000000000003, 192.0, 0.0, 0.0, 0.0, 0.0, 0.0, 0.0, 0.0, 0.0, 0.0, 1.695415927698219E9, 0.0, 2023-09-22 15:52:07.698
168.0, -36161.76976701853, -16675.49659913738, -84576.05058861383, -79615.95262479217, -27334.01534962837, -54427.52592891764, -186813.82379696655, -71904.98076736699, -656.4930863968237, -187500.02235174447, -83273.21210780289, -77490.52524453703, -59923.082282910626, -61668.48530393664, -80976.92799293138, -82221.04844105821, -0.05, 0.91, 0.41200000000000003, 192.0, 0.0, 0.0, 0.0, 0.0, 0.0, 0.0, 0.0, 0.0, 0.0, 1.695415927698228E9, 0.0, 2023-09-22 15:52:07.698
170.0, -36164.049644952975, -16673.172017714027, -84575.89412640264, -79616.39965968128, -27334.104756606193, -54424.3966846939, -186902.42611198738, -71895.59303469575, -560.5146957057352, -187500.02235174447, -83263.95848559838, -77479.10350312036, -59910.364140315556, -61656.01303053058, -80970.93772541735, -82211.68306013144, -0.05, 0.91, 0.41200000000000003, 192.0, 0.0, 0.0, 0.0, 0.0, 0.0, 0.0, 0.0, 0.0, 0.0, 1.695415927698234E9, 0.0, 2023-09-22 15:52:07.698
172.0, -36157.120604171825, -16671.45093339097, -84569.61328621069, -79612.51045614606, -27324.538209979324, -54424.17316724935, -186862.77411732366, -71898.45405798603, -672.9216185714745, -187500.02235174447, -83266.41717748847, -77483.50679677806, -59915.885021196016, -61666.25012949111, -80970.02130389468, -82216.77925786725, -0.058, 0.91, 0.41400000000000003, 192.0, 127.0, 24.0, 14.0, 56.0, 6.0, 120.0, 0.0, 0.0, 0.0, 1.69541592769824E9, 0.0, 2023-09-22 15:52:07.698
174.0, -36171.939810745695, -16681.44216316249, -84583.73958870645, -79627.01673829756, -27343.157213110593, -54437.8971383449, -186933.31622282462, -71913.38502328217, -587.4485477743802, -187500.02235174447, -83273.72619792535, -77493.56508178296, -59930.65952428097, -61666.98773705814, -80984.8181587241, -82226.77048763877, -0.058, 0.91, 0.41400000000000003, 192.0, 0.0, 0.0, 0.0, 0.0, 0.0, 0.0, 0.0, 0.0, 0.0, 1.695415927698246E9, 0.0, 2023-09-22 15:52:07.698
176.0, -36158.238191394594, -16674.62488110362, -84566.30522803131, -79613.67274685774, -27326.102832091194, -54427.637687639915, -186894.53594619466, -71895.70479341803, -692.0770635696725, -187500.02235174447, -83274.37439851456, -77501.25408187558, -59933.78876850472, -61677.69422265223, -80981.59950752254, -82228.3574614951, -0.058, 0.91, 0.41400000000000003, 192.0, 0.0, 0.0, 0.0, 0.0, 0.0, 0.0, 0.0, 0.0, 0.0, 1.695415927698252E9, 0.0, 2023-09-22 15:52:07.698
178.0, -36161.881525740806, -16671.45093339097, -84567.37811176517, -79619.28303471602, -27336.183468840536, -54441.16049303538, -186969.25782790876, -71896.88943587417, -589.8401844310981, -187500.02235174447, -83249.72042438036, -77476.6895147192, -59908.64305599249, -61659.36579219888, -80961.92997240186, -82209.02320254126, -0.058, 0.91, 0.41400000000000003, 192.0, 0.0, 0.0, 0.0, 0.0, 0.0, 0.0, 0.0, 0.0, 0.0, 1.695415927698258E9, 0.0, 2023-09-22 15:52:07.698
180.0, -36185.61907835234, -16692.752145856877, -84581.88439391665, -79638.93021809224, -27353.55077428231, -54454.415077497375, -186921.8721296635, -71910.79222092536, -681.4376332089464, -187500.02235174447, -83270.32873276815, -77495.64379401729, -59931.732408014825, -61678.34242324143, -80981.6665627559, -82228.71508940638, -0.058, 0.91, 0.41400000000000003, 192.0, 0.0, 0.0, 0.0, 0.0, 0.0, 0.0, 0.0, 0.0, 0.0, 1.695415927698264E9, 0.0, 2023-09-22 15:52:07.698
182.0, -36155.310112870946, -16659.783322785297, -84553.67649241406, -79611.57168287894, -27323.957064623486, -54424.1955189938, -186994.71646484334, -71892.4190869831, -609.1520916404834, -187500.02235174447, -83273.86030839209, -77498.79538998549, -59937.58856506212, -61679.86234186439, -80990.16022564891, -82235.5100197208, -0.062, 0.918, 0.418, 192.0, 127.0, 8.0, 14.0, 88.0, 6.5, 8.0, 0.0, 0.0, 0.0, 1.695415927758368E9, 0.0, 2023-09-22 15:52:07.758
184.0, -36178.645334082285, -16685.666642864544, -84568.38394026566, -79628.31313947597, -27342.330198565745, -54437.38304822243, -186973.638769822, -71904.10904933323, -654.3026154402037, -187500.02235174447, -83249.67572089145, -77476.77892169701, -59906.921971669435, -61649.754542083094, -80961.77351019067, -82208.08442927414, -0.062, 0.918, 0.418, 192.0, 0.0, 0.0, 0.0, 0.0, 0.0, 0.0, 0.0, 0.0, 0.0, 1.695415927758379E9, 0.0, 2023-09-22 15:52:07.758
186.0, -36164.742549031085, -16670.601567101665, -84565.99230360893, -79619.57360739393, -27341.27966657635, -54428.21883299576, -187023.57256693515, -71905.58426446728, -605.7546264832768, -187500.02235174447, -83275.0002473593, -77501.90228246478, -59928.67021902445, -61681.33755699844, -80985.62282152449, -82231.59846444112, -0.062, 0.918, 0.418, 192.0, 0.0, 0.0, 0.0, 0.0, 0.0, 0.0, 0.0, 0.0, 0.0, 1.695415927758382E9, 0.0, 2023-09-22 15:52:07.758
188.0, -36171.20220317867, -16675.74246832639, -84572.51901298988, -79624.80391559648, -27344.78889045583, -54432.66683014236, -187036.13424731902, -71904.19845631105, -648.1335339705389, -187500.02235174447, -83255.86715410557, -77478.03061938651, -59922.456434065876, -61652.01206827308, -80972.97173416278, -82211.77246710926, -0.062, 0.918, 0.418, 192.0, 0.0, 0.0, 0.0, 0.0, 0.0, 0.0, 0.0, 0.0, 0.0, 1.695415927758385E9, 0.0, 2023-09-22 15:52:07.758
190.0, -36165.59191532039, -16666.935881010995, -84571.22261181148, -79629.87776158784, -27342.93369566604, -54436.69014414432, -187069.52775353525, -71912.4238982706, -611.5884317861119, -187500.02235174447, -83276.22959330435, -77493.31921259394, -59934.884003983025, -61668.68646963674, -80995.14466466244, -82234.97357785387, -0.062, 0.918, 0.418, 192.0, 0.0, 0.0, 0.0, 0.0, 0.0, 0.0, 0.0, 0.0, 0.0, 1.695415927758388E9, 0.0, 2023-09-22 15:52:07.758
192.0, -36157.96997046113, -16665.170093199027, -84544.06524229828, -79605.67082234274, -27307.97556733794, -54418.54052764661, -187095.8134050147, -71881.9137670891, -621.9596412133743, -187500.02235174447, -83257.27531400626, -77482.41156129976, -59925.33980910061, -61659.56695789898, -80968.94842016083, -82216.17576076696, -0.066, 0.92, 0.41000000000000003, 192.0, 126.5, 120.0, 14.0, 96.0, 6.0, 104.0, 0.0, 0.0, 0.0, 1.695415927758392E9, 0.0, 2023-09-22 15:52:07.758
194.0, -36156.27123788252, -16664.76776179883, -84551.03898656834, -79611.75049683457, -27319.106736076683, -54421.28979221461, -187121.40615241602, -71879.65624089912, -594.0199606442405, -187500.02235174447, -83244.31130222218, -77472.59914548388, -59891.92395113993, -61646.58059437044, -80957.79489967762, -82199.34489719212, -0.066, 0.92, 0.41000000000000003, 192.0, 0.0, 0.0, 0.0, 0.0, 0.0, 0.0, 0.0, 0.0, 0.0, 1.695415927758395E9, 0.0, 2023-09-22 15:52:07.758
196.0, -36153.38786284779, -16668.321689167224, -84535.52687591636, -79596.08192397142, -27301.135933534617, -54403.7883763061, -187158.5771034452, -71869.88852857215, -599.6526002469778, -187500.02235174447, -83240.42209868695, -77472.7332559506, -59895.20965757486, -61650.24628046111, -80960.54416424563, -82195.23217621233, -0.066, 0.92, 0.41000000000000003, 192.0, 0.0, 0.0, 0.0, 0.0, 0.0, 0.0, 0.0, 0.0, 0.0, 1.695415927818666E9, 0.0, 2023-09-22 15:52:07.818
198.0, -36132.39957480426, -16649.970906969418, -84535.50452417189, -79599.21116819515, -27305.539227192312, -54408.37048391945, -187168.8812576391, -71877.73399087596, -594.4446437888913, -187500.02235174447, -83235.81763932915, -77470.29691580498, -59885.57605571462, -61652.05677176199, -80956.45379501031, -82197.33324019113, -0.066, 0.92, 0.41000000000000003, 192.0, 0.0, 0.0, 0.0, 0.0, 0.0, 0.0, 0.0, 0.0, 0.0, 1.69541592781868E9, 0.0, 2023-09-22 15:52:07.818
200.0, -36135.931150428194, -16652.139026181583, -84527.9049310571, -79598.31709841694, -27300.063049800763, -54407.18584146331, -187239.9374532625, -71878.2704327429, -571.1094225775507, -187500.02235174447, -83210.64957507249, -77451.45439522916, -59869.4827997068, -61633.46012037517, -80940.69581516933, -82183.2516411843, -0.066, 0.92, 0.41000000000000003, 192.0, 0.0, 0.0, 0.0, 0.0, 0.0, 0.0, 0.0, 0.0, 0.0, 1.695415927818683E9, 0.0, 2023-09-22 15:52:07.818
202.0, -36155.77949950451, -16674.06608749224, -84556.82808838226, -79629.38602320982, -27333.970646139463, -54439.1488360344, -187223.19599666548, -71891.01092708242, -620.5961848016005, -187500.02235174447, -83238.25397947479, -77488.53593928051, -59901.87047742253, -61664.35023121241, -80961.75115844622, -82210.74428686433, -0.068, 0.922, 0.41600000000000004, 192.0, 126.5, 112.0, 14.0, 104.0, 6.5, 0.0, 0.0, 0.0, 0.0, 1.695415927818687E9, 0.0, 2023-09-22 15:52:07.818
204.0, -36166.128357187314, -16681.933901540506, -84560.04673958382, -79625.69798537469, -27339.200954342003, -54434.074990043046, -187291.16765155407, -71903.63966269966, -592.5000420212796, -187500.02235174447, -83244.0430812887, -77493.49802654958, -59902.49632626728, -61680.21996977568, -80973.15054811843, -82217.405106712, -0.068, 0.922, 0.41600000000000004, 192.0, 0.0, 0.0, 0.0, 0.0, 0.0, 0.0, 0.0, 0.0, 0.0, 1.69541592781869E9, 0.0, 2023-09-22 15:52:07.818
206.0, -36172.722121801635, -16687.186561487506, -84581.63852472765, -79635.95743607968, -27359.876317963164, -54451.263481529175, -187256.209523226, -71914.5249622494, -662.6174643775779, -187500.02235174447, -83254.92838083845, -77496.85078821788, -59925.22805037833, -61681.38226048736, -80989.93670820436, -82226.77048763877, -0.068, 0.922, 0.41600000000000004, 192.0, 0.0, 0.0, 0.0, 0.0, 0.0, 0.0, 0.0, 0.0, 0.0, 1.695415927818693E9, 0.0, 2023-09-22 15:52:07.818
208.0, -36171.939810745695, -16678.40232591657, -84572.56371647879, -79618.90305506028, -27347.135823623637, -54430.76693186366, -187328.33860258324, -71895.92831086258, -622.4737313358464, -187500.02235174447, -83266.97597109986, -77496.91784345124, -59941.90245174199, -61683.326862254966, -80998.43037109738, -82228.53627545075, -0.068, 0.922, 0.41600000000000004, 192.0, 0.0, 0.0, 0.0, 0.0, 0.0, 0.0, 0.0, 0.0, 0.0, 1.695415927818696E9, 0.0, 2023-09-22 15:52:07.818
210.0, -36162.32856062991, -16678.3352706832, -84567.04283559833, -79621.96524405066, -27343.000750899406, -54422.51913815965, -187308.87023316268, -71894.98953759547, -689.6630751684994, -187500.02235174447, -83254.83897386062, -77477.1365496083, -59918.07549215263, -61665.31135622399, -80976.70447548681, -82204.21757748337, -0.068, 0.922, 0.41600000000000004, 192.0, 0.0, 0.0, 0.0, 0.0, 0.0, 0.0, 0.0, 0.0, 0.0, 1.695415927818699E9, 0.0, 2023-09-22 15:52:07.818
212.0, -36170.53165084501, -16690.807544089264, -84567.44516699853, -79627.30731097548, -27344.453614289003, -54427.48122542873, -187396.19849874955, -71904.31021503333, -605.5534607831789, -187500.02235174447, -83264.78550014323, -77487.06072414646, -59918.254306108276, -61672.978004572156, -80991.05429542712, -82218.34387997912, -0.06, 0.916, 0.41200000000000003, 192.0, 127.0, 16.0, 14.0, 80.0, 6.0, 112.0, 0.0, 0.0, 0.0, 1.695415927877665E9, 0.0, 2023-09-22 15:52:07.877
214.0, -36164.92136298673, -16687.186561487506, -84561.58900995125, -79621.56291265046, -27330.21555307097, -54434.96905982126, -187360.5251145989, -71902.54442722135, -680.7894326197426, -187500.02235174447, -83252.0003023148, -77477.91886066424, -59906.45258503588, -61668.306489981, -80966.86970792648, -82209.6043478971, -0.06, 0.916, 0.41200000000000003, 192.0, 0.0, 0.0, 0.0, 0.0, 0.0, 0.0, 0.0, 0.0, 0.0, 1.69541592787769E9, 0.0, 2023-09-22 15:52:07.877
216.0, -36167.98355197711, -16682.895026552087, -84567.55692572081, -79625.0944882744, -27350.153309125104, -54446.68137391584, -187440.16438009316, -71912.26743605941, -588.4320245304137, -187500.02235174447, -83256.24713376131, -77477.82945368641, -59913.40397756147, -61677.98479533014, -80982.7170947453, -82226.39050798303, -0.06, 0.916, 0.41200000000000003, 192.0, 0.0, 0.0, 0.0, 0.0, 0.0, 0.0, 0.0, 0.0, 0.0, 1.695415927877696E9, 0.0, 2023-09-22 15:52:07.877
218.0, -36178.15359570427, -16695.724927869433, -84577.54815549233, -79638.48318320313, -27360.770387741377, -54463.19931306831, -187381.71456834252, -71927.84660194477, -691.0265315802732, -187500.02235174447, -83272.4074450025, -77488.93827068071, -59941.76834127526, -61698.414289762295, -81004.10771418903, -82245.74711868133, -0.06, 0.916, 0.41200000000000003, 192.0, 0.0, 0.0, 0.0, 0.0, 0.0, 0.0, 0.0, 0.0, 0.0, 1.6954159278777E9, 0.0, 2023-09-22 15:52:07.877
220.0, -36151.19739189117, -16670.042773490284, -84541.60655040819, -79610.5882061229, -27328.87444840365, -54429.40347545189, -187485.11373819277, -71890.98857533796, -585.8392221735982, -187500.02235174447, -83247.90993307949, -77470.29691580498, -59906.07260538013, -61681.20344653171, -80974.1563766189, -82221.18255152495, -0.06, 0.916, 0.41200000000000003, 192.0, 0.0, 0.0, 0.0, 0.0, 0.0, 0.0, 0.0, 0.0, 0.0, 1.695415927877704E9, 0.0, 2023-09-22 15:52:07.877
222.0, -36143.79896447647, -16666.131218210605, -84532.46468692597, -79601.9380810187, -27317.87739013164, -54415.72420784524, -187460.0574326584, -71875.1635402636, -658.1694672309718, -187500.02235174447, -83226.42990665793, -77455.50006097557, -59879.98811960079, -61650.62626011685, -80948.58598096205, -82194.94160353442, -0.06, 0.918, 0.41000000000000003, 192.0, 127.0, 16.0, 14.0, 88.0, 6.0, 104.0, 0.0, 0.0, 0.0, 1.69541592787771E9, 0.0, 2023-09-22 15:52:07.877
224.0, -36124.397650289255, -16641.253726631847, -84528.79900083531, -79590.62809832432, -27323.532381478835, -54401.843774538494, -187500.02235174447, -71883.1654647786, -550.9705008233191, -187500.02235174447, -83223.30066243418, -77450.11329056183, -59890.18051507241, -61650.805074072494, -80956.0067601212, -82197.02031576876, -0.06, 0.918, 0.41000000000000003, 192.0, 0.0, 0.0, 0.0, 0.0, 0.0, 0.0, 0.0, 0.0, 0.0, 1.695415927877715E9, 0.0, 2023-09-22 15:52:07.877
226.0, -36119.793190931465, -16637.520985307812, -84528.57548339076, -79585.0848656994, -27312.445916229, -54399.58624834851, -187500.02235174447, -71867.38513319315, -630.9226907399525, -187500.02235174447, -83205.75454303678, -77424.49819141606, -59880.81513414564, -61636.65641983228, -80951.13407982995, -82182.75990280628, -0.06, 0.918, 0.41000000000000003, 192.0, 0.0, 0.0, 0.0, 0.0, 0.0, 0.0, 0.0, 0.0, 0.0, 1.695415927937913E9, 0.0, 2023-09-22 15:52:07.937
228.0, -36118.22856881959, -16628.535584036777, -84525.4015356781, -79584.70488604366, -27319.173791310048, -54403.85543153947, -187500.02235174447, -71876.3705344642, -552.6692334019224, -187500.02235174447, -83221.93720602241, -77433.46124094263, -59898.47301226533, -61646.93822228172, -80956.23027756576, -82194.69573434541, -0.06, 0.918, 0.41000000000000003, 192.0, 0.0, 0.0, 0.0, 0.0, 0.0, 0.0, 0.0, 0.0, 0.0, 1.695415927937928E9, 0.0, 2023-09-22 15:52:07.937
230.0, -36130.76789745902, -16645.120578422615, -84520.1488757311, -79588.39292387878, -27312.960006351474, -54400.50266987117, -187500.02235174447, -71862.49010115744, -635.84007452012, -187500.02235174447, -83206.62626107053, -77421.63716812577, -59869.19222702888, -61632.141367452314, -80937.47716396775, -82177.149614948, -0.06, 0.918, 0.41000000000000003, 192.0, 0.0, 0.0, 0.0, 0.0, 0.0, 0.0, 0.0, 0.0, 0.0, 1.695415927937931E9, 0.0, 2023-09-22 15:52:07.937
232.0, -36129.806772447446, -16644.382970855593, -84523.14400948811, -79597.66889782774, -27322.057166344784, -54405.263591440154, -187500.02235174447, -71868.8156448383, -583.0899576055954, -187500.02235174447, -83224.64176710151, -77441.61962766881, -59880.2339887898, -61645.17243446976, -80956.36438803248, -82194.96395527887, -0.066, 0.922, 0.40800000000000003, 192.0, 126.5, 120.0, 14.0, 104.0, 6.0, 96.0, 0.0, 0.0, 0.0, 1.695415927937934E9, 0.0, 2023-09-22 15:52:07.937
234.0, -36118.56384498642, -16634.414092828523, -84505.57553834624, -79582.20149066467, -27296.933805577017, -54393.64068432339, -187500.02235174447, -71858.60089762222, -636.711792553877, -187500.02235174447, -83204.81576976964, -77426.97923505059, -59877.283558521696, -61641.663210590275, -80940.31583551358, -82184.97272550735, -0.066, 0.922, 0.40800000000000003, 192.0, 0.0, 0.0, 0.0, 0.0, 0.0, 0.0, 0.0, 0.0, 0.0, 1.695415927937938E9, 0.0, 2023-09-22 15:52:07.937
236.0, -36119.07793510889, -16640.404360342545, -84528.88840781312, -79598.04887748348, -27327.13101233614, -54414.070178755544, -187500.02235174447, -71879.9691653215, -573.1210795785283, -187500.02235174447, -83198.87020574453, -77418.53027564648, -59882.49151497979, -61651.6991438507, -80942.17103030336, -82184.48098712934, -0.066, 0.922, 0.40800000000000003, 192.0, 0.0, 0.0, 0.0, 0.0, 0.0, 0.0, 0.0, 0.0, 0.0, 1.695415927937941E9, 0.0, 2023-09-22 15:52:07.937
238.0, -36130.38791780328, -16650.797921514266, -84531.48121016994, -79598.74178156159, -27325.342872779715, -54414.226640966735, -187500.02235174447, -71874.98472630796, -618.4057138449805, -187500.02235174447, -83207.27446165973, -77423.89469431576, -59886.291311537185, -61647.653478104294, -80957.61608572198, -82189.66659184296, -0.066, 0.922, 0.40800000000000003, 192.0, 0.0, 0.0, 0.0, 0.0, 0.0, 0.0, 0.0, 0.0, 0.0, 1.695415927937944E9, 0.0, 2023-09-22 15:52:07.937
240.0, -36135.81939170592, -16647.758084268342, -84533.202294493, -79604.82145605344, -27328.382710025635, -54419.881632313925, -187500.02235174447, -71888.93221484807, -610.6049550300784, -187500.02235174447, -83226.92164503595, -77442.40193872475, -59901.110518111054, -61659.745771854614, -80973.1058446295, -82207.59269089613, -0.066, 0.922, 0.40800000000000003, 192.0, 0.0, 0.0, 0.0, 0.0, 0.0, 0.0, 0.0, 0.0, 0.0, 1.695415927937947E9, 0.0, 2023-09-22 15:52:07.937
