%OpenBCI Raw EXG Data
%Number of channels = 16
%Sample Rate = 125 Hz
%Board = OpenBCI_GUI$BoardCytonSerialDaisy
Sample Index, EXG Channel 0, EXG Channel 1, EXG Channel 2, EXG Channel 3, EXG Channel 4, EXG Channel 5, EXG Channel 6, EXG Channel 7, EXG Channel 8, EXG Channel 9, EXG Channel 10, EXG Channel 11, EXG Channel 12, EXG Channel 13, EXG Channel 14, EXG Channel 15, Accel Channel 0, Accel Channel 1, Accel Channel 2, Other, Other, Other, Other, Other, Other, Other, Analog Channel 0, Analog Channel 1, Analog Channel 2, Timestamp, Other, Timestamp (Formatted)
0.0, -37022.91542564815, -15601.651740271061, -85674.50471812543, -80351.28031388287, -26707.786525224034, -54766.490133582374, -164585.7962472196, -72406.15158154388, 0.0, 0.0, 0.0, 0.0, 0.0, 0.0, 0.0, 0.0, 0.0, 0.0, 0.0, 192.0, 0.0, 0.0, 0.0, 0.0, 0.0, 0.0, 0.0, 0.0, 0.0, 1.695415877049013E9, 0.0, 2023-09-22 15:51:17.049
224.0, -36993.522881689416, -15569.308766044232, -85650.5659998138, -80322.1112873687, -26695.314251817974, -54741.16560711451, -164671.67164941688, -72373.1827584723, 1095.4142922656886, -187500.02235174447, -84326.62747223706, -78400.93414794614, -59544.1531591598, -59044.68107756151, -81868.20380308674, -83190.01891494023, 0.0, 0.0, 0.0, 192.0, 0.0, 0.0, 0.0, 0.0, 0.0, 0.0, 0.0, 0.0, 0.0, 1.695415877049023E9, 0.0, 2023-09-22 15:51:17.049
226.0, -36998.03793406939, -15583.211551095434, -85648.88961897965, -80323.63120599165, -26689.771019193056, -54740.24918559184, -164597.08387816953, -72371.93106078281, 1036.495093881499, -187500.02235174447, -84308.03082085024, -78386.62903149474, -59528.3504758299, -59029.839519243185, -81850.5235732226, -83169.16473736343, -0.016, 0.461, 0.20500000000000002, 192.0, 127.5, 0.0, 14.0, 104.0, 6.0, 104.0, 0.0, 0.0, 0.0, 1.695415877049027E9, 0.0, 2023-09-22 15:51:17.049
228.0, -36994.72987589001, -15576.438972525475, -85653.24820914844, -80324.4582205365, -26694.19666459521, -54731.97904014338, -164651.73389336275, -72375.37322942892, 1105.8302051818616, -187500.02235174447, -84316.9491668879, -78396.70966824409, -59544.55549056, -59036.38858036859, -81867.44384377525, -83182.01699042524, -0.016, 0.461, 0.20500000000000002, 192.0, 0.0, 0.0, 0.0, 0.0, 0.0, 0.0, 0.0, 0.0, 0.0, 1.695415877049031E9, 0.0, 2023-09-22 15:51:17.049
230.0, -37020.97082388053, -15602.121126904623, -85670.07907272328, -80339.00920617691, -26697.728240219145, -54734.1695111, -164578.8001512051, -72363.30328742306, 1067.4522599520994, -187500.02235174447, -84314.6022337201, -78389.84768269632, -59539.7051620132, -59030.0853884322, -81855.68682619177, -83167.84598444057, -0.016, 0.461, 0.20500000000000002, 192.0, 0.0, 0.0, 0.0, 0.0, 0.0, 0.0, 0.0, 0.0, 0.0, 1.695415877049034E9, 0.0, 2023-09-22 15:51:17.049
232.0, -37004.69875391707, -15579.143533604567, -85665.40755813212, -80326.82750544876, -26696.029507640542, -54714.18705155695, -164613.98179697775, -72361.89512752237, 1104.7126179590962, -187500.02235174447, -84341.82665846666, -78412.3111858739, -59553.33972613094, -59031.89587973308, -81878.7761782141, -83189.4377695844, -0.016, 0.461, 0.20500000000000002, 192.0, 0.0, 0.0, 0.0, 0.0, 0.0, 0.0, 0.0, 0.0, 0.0, 1.695415877049038E9, 0.0, 2023-09-22 15:51:17.049
234.0, -37001.16717829313, -15577.645966726062, -85646.92266546759, -80311.11422909668, -26673.18602480722, -54702.653551418014, -164573.97217440273, -72350.00399947214, 1086.9653328615825, -187500.02235174447, -84308.27669003925, -78376.63780172322, -59527.07642639595, -58986.16421057752, -81851.10471857843, -83156.33483604608, -0.016, 0.461, 0.20500000000000002, 192.0, 0.0, 0.0, 0.0, 0.0, 0.0, 0.0, 0.0, 0.0, 0.0, 1.695415877049041E9, 0.0, 2023-09-22 15:51:17.049
236.0, -36993.880509600705, -15565.84424565366, -85641.93822645405, -80317.9538629, -26679.37745802134, -54711.81776664469, -164586.13152338643, -72365.1361304684, 1131.4453043276435, -187500.02235174447, -84312.7470389303, -78388.03719139543, -59537.380580589845, -58997.78711769428, -81863.95697164023, -83169.50001353027, -0.028, 0.6935, 0.3015, 192.0, 127.0, 96.0, 14.0, 120.0, 6.0, 56.0, 0.0, 0.0, 0.0, 1.695415877049044E9, 0.0, 2023-09-22 15:51:17.049
238.0, -36960.732872573484, -15538.530413929275, -85603.49322599093, -80292.8975573656, -26629.980102775113, -54683.87808607556, -164589.9983751772, -72316.9681211672, 1114.234461097057, -187500.02235174447, -84281.52165192625, -78360.18691780412, -59498.89087663781, -58988.041757111765, -81829.3117677345, -83143.9296178734, -0.028, 0.6935, 0.3015, 192.0, 0.0, 0.0, 0.0, 0.0, 0.0, 0.0, 0.0, 0.0, 0.0, 1.695415877049047E9, 0.0, 2023-09-22 15:51:17.049
0.0, -18386.43323021331, -7797.383701489413, -42730.92511068882, -40079.65059037812, -13420.926144233483, -27301.270044001347, -83530.32422427228, -36125.247016578556, 577.7925941696876, -93750.01117587223, -42143.744783847906, -39186.56428892187, -29743.2204774881, -29504.570901938787, -40919.76325747529, -41580.10084391843, -0.04, 0.924, 0.404, 192.0, 127.0, 96.0, 14.0, 112.0, 6.0, 80.0, 0.0, 0.0, 0.0, 1.695415877222513E9, 0.0, 2023-09-22 15:51:17.222
2.0, -36769.98308539189, -15599.774193736816, -85457.35752074212, -80155.81430862121, -26835.906724441855, -54596.46041351085, -166943.43590062094, -72246.29190519953, 1446.3590319584648, -187500.02235174447, -84108.63090856445, -78231.0161865969, -59538.83344397944, -59167.43685811006, -81683.28782120798, -82992.09421778849, -0.04, 0.924, 0.404, 192.0, 0.0, 0.0, 0.0, 0.0, 0.0, 0.0, 0.0, 0.0, 0.0, 1.695415877222527E9, 0.0, 2023-09-22 15:51:17.222
4.0, -36750.4253089935, -15579.814085938227, -85444.95230256944, -80154.9649423319, -26829.424718549817, -54586.04450059468, -167006.2219507959, -72231.80797479248, 1536.8388935135476, -187500.02235174447, -84095.89041422492, -78219.57209343578, -59526.67409499575, -59158.13853241665, -81672.80485305845, -82985.61221189646, -0.04, 0.924, 0.404, 192.0, 0.0, 0.0, 0.0, 0.0, 0.0, 0.0, 0.0, 0.0, 0.0, 1.695415877222531E9, 0.0, 2023-09-22 15:51:17.222
6.0, -36752.92870437249, -15591.615807010628, -85445.51109618081, -80163.9726953474, -26825.468459781227, -54590.537201230196, -166925.7556707568, -72225.84005902291, 1476.667997439861, -187500.02235174447, -84091.04008567812, -78222.65663417062, -59520.48266178163, -59165.604015064724, -81667.14986171125, -82981.90182231687, -0.04, 0.924, 0.404, 192.0, 0.0, 0.0, 0.0, 0.0, 0.0, 0.0, 0.0, 0.0, 0.0, 1.695415877222534E9, 0.0, 2023-09-22 15:51:17.222
8.0, -36732.07452679569, -15564.301975286244, -85438.62675888858, -80153.4226719645, -26823.345044057973, -54581.440041236885, -166979.48926442734, -72226.3988526343, 1540.0351929706567, -187500.02235174447, -84096.96329795878, -78231.4185179971, -59526.36117057338, -59172.466000612505, -81675.7329315821, -82994.30704048957, -0.048, 0.93, 0.406, 192.0, 127.0, 64.0, 14.5, 8.0, 6.0, 88.0, 0.0, 0.0, 0.0, 1.695415877222538E9, 0.0, 2023-09-22 15:51:17.222
10.0, -36699.485683379855, -15531.579021403673, -85392.8056827552, -80107.19926443092, -26767.91271780881, -54534.61313660302, -166962.77015957478, -72178.52141601103, 1506.8428524545257, -187500.02235174447, -84042.78266939911, -78175.76267430338, -59479.15428628377, -59122.398093032614, -81622.46872454509, -82939.74643227416, -0.048, 0.93, 0.406, 192.0, 0.0, 0.0, 0.0, 0.0, 0.0, 0.0, 0.0, 0.0, 0.0, 1.695415877222541E9, 0.0, 2023-09-22 15:51:17.222
12.0, -36698.83748279065, -15533.344809215643, -85403.8027410272, -80118.93393026995, -26791.58321518698, -54549.432343176886, -167014.96148287793, -72200.42612557723, 1555.6143588560055, -187500.02235174447, -84040.36868099794, -78173.28163066883, -59481.61297817386, -59117.05602610779, -81624.74860247954, -82939.58997006297, -0.048, 0.93, 0.406, 192.0, 0.0, 0.0, 0.0, 0.0, 0.0, 0.0, 0.0, 0.0, 0.0, 1.695415877222545E9, 0.0, 2023-09-22 15:51:17.222
14.0, -36722.82090459119, -15564.525492730796, -85416.163255711, -80131.62972112057, -26801.48503798068, -54561.90461658295, -166981.38916270604, -72212.04903269399, 1513.4589688132965, -187500.02235174447, -84055.27729454963, -78188.59257562073, -59493.03471959051, -59145.48744505495, -81643.56877131091, -82956.59964759347, -0.048, 0.93, 0.406, 192.0, 0.0, 0.0, 0.0, 0.0, 0.0, 0.0, 0.0, 0.0, 0.0, 1.695415877283448E9, 0.0, 2023-09-22 15:51:17.283
16.0, -36726.64305289305, -15568.951138132947, -85431.36244194061, -80142.87264858159, -26812.906779397345, -54568.14075328598, -166980.89742432802, -72216.3405676294, 1525.506559074707, -187500.02235174447, -84068.95656215628, -78201.46718042699, -59501.81895516145, -59140.145378130124, -81653.09061444887, -82964.02042675263, -0.048, 0.93, 0.406, 192.0, 0.0, 0.0, 0.0, 0.0, 0.0, 0.0, 0.0, 0.0, 0.0, 1.695415877283463E9, 0.0, 2023-09-22 15:51:17.283
18.0, -36732.476858195885, -15571.767457934317, -85429.70841285092, -80140.68217762497, -26799.383974001885, -54557.56837815862, -166981.88090108408, -72212.27255013854, 1513.8836519579474, -187500.02235174447, -84067.25782957768, -78193.93464254554, -59492.922960868236, -59129.9082791696, -81642.02650094348, -82951.59285683547, -0.046, 0.924, 0.406, 192.0, 127.0, 72.0, 14.0, 112.0, 6.0, 88.0, 0.0, 0.0, 0.0, 1.695415877283467E9, 0.0, 2023-09-22 15:51:17.283
20.0, -36734.13088728558, -15567.40886776553, -85438.29148272175, -80143.81142184872, -26812.057413108043, -54564.0280323062, -166977.23173823737, -72214.30655888398, 1497.5221750166627, -187500.02235174447, -84089.20724263278, -78213.31360498829, -59512.994827389106, -59152.23767188045, -81662.36658839781, -82969.74247333319, -0.046, 0.924, 0.406, 192.0, 0.0, 0.0, 0.0, 0.0, 0.0, 0.0, 0.0, 0.0, 0.0, 1.69541587728347E9, 0.0, 2023-09-22 15:51:17.283
22.0, -36749.50888747083, -15584.060917384735, -85440.52665716728, -80156.03782606576, -26814.851381164957, -54573.03578532169, -167000.58931119315, -72227.51643985706, 1512.922526946369, -187500.02235174447, -84084.69219025281, -78210.94432007603, -59514.49239426761, -59148.192006134035, -81658.0750534624, -82966.21089770924, -0.046, 0.924, 0.406, 192.0, 0.0, 0.0, 0.0, 0.0, 0.0, 0.0, 0.0, 0.0, 0.0, 1.695415877283473E9, 0.0, 2023-09-22 15:51:17.283
24.0, -36745.820849635704, -15582.898626673059, -85447.1651252705, -80164.4197302365, -26821.22162833472, -54587.877343640015, -166959.5962118621, -72235.36190216088, 1477.3385497735203, -187500.02235174447, -84093.36466710147, -78221.62845392567, -59525.82472870645, -59163.212378408, -81662.99243724256, -82981.92417406132, -0.046, 0.924, 0.406, 192.0, 0.0, 0.0, 0.0, 0.0, 0.0, 0.0, 0.0, 0.0, 0.0, 1.695415877283476E9, 0.0, 2023-09-22 15:51:17.283
26.0, -36746.17847754699, -15587.279568586298, -85438.78322109977, -80158.45181446694, -26814.896084653865, -54581.35063425906, -166995.0684303127, -72213.21132340567, 1509.3685995779754, -187500.02235174447, -84091.64358277842, -78218.67802365757, -59523.07546413845, -59165.5146080869, -81662.27718142, -82982.61707813945, -0.046, 0.924, 0.406, 192.0, 0.0, 0.0, 0.0, 0.0, 0.0, 0.0, 0.0, 0.0, 0.0, 1.695415877283481E9, 0.0, 2023-09-22 15:51:17.283
28.0, -36744.27857926829, -15586.184333107989, -85448.2156572599, -80170.85703263963, -26827.45776503775, -54594.11348034305, -166933.3552638716, -72238.26762894007, 1464.285131011621, -187500.02235174447, -84100.11489392698, -78224.35536674922, -59523.41074030528, -59177.94217800405, -81668.49096637857, -82990.82016835453, -0.036000000000000004, 0.926, 0.41000000000000003, 192.0, 127.0, 112.0, 14.0, 120.0, 6.0, 104.0, 0.0, 0.0, 0.0, 1.695415877283484E9, 0.0, 2023-09-22 15:51:17.283
30.0, -36762.8752306551, -15598.880123958603, -85458.22923877588, -80180.15535833304, -26832.59866626247, -54602.696550213885, -166985.09955228562, -72244.9508005322, 1512.0061054237015, -187500.02235174447, -84098.9526032153, -78220.75673589192, -59521.644952493305, -59179.32798616028, -81669.07211173441, -82992.42949395532, -0.036000000000000004, 0.926, 0.41000000000000003, 192.0, 0.0, 0.0, 0.0, 0.0, 0.0, 0.0, 0.0, 0.0, 0.0, 1.695415877344081E9, 0.0, 2023-09-22 15:51:17.344
32.0, -36759.23189630889, -15598.187219880489, -85462.78899464477, -80181.45175951144, -26836.800794220067, -54601.511907757755, -166895.51376050877, -72241.1510039748, 1449.9129593268585, -187500.02235174447, -84111.96131848829, -78238.32520703378, -59536.17358638926, -59186.86052404172, -81683.93602179718, -82998.46446495825, -0.036000000000000004, 0.926, 0.41000000000000003, 192.0, 0.0, 0.0, 0.0, 0.0, 0.0, 0.0, 0.0, 0.0, 0.0, 1.695415877344093E9, 0.0, 2023-09-22 15:51:17.344
34.0, -36746.64786418055, -15586.810181952738, -85441.53248566778, -80151.63453240806, -26815.07489860951, -54575.56153244514, -166970.34740094512, -72222.28613165452, 1519.9409747053355, -187500.02235174447, -84099.35493461549, -78227.81988713979, -59530.317429341965, -59171.124895945184, -81664.08767272088, -82981.45478742776, -0.036000000000000004, 0.926, 0.41000000000000003, 192.0, 0.0, 0.0, 0.0, 0.0, 0.0, 0.0, 0.0, 0.0, 0.0, 1.695415877344098E9, 0.0, 2023-09-22 15:51:17.344
36.0, -36753.08516658368, -15592.711042488938, -85451.1213840391, -80156.39545397705, -26824.015596391633, -54578.020224335225, -166876.00068759927, -72228.83519277992, 1452.0140233056575, -187500.02235174447, -84094.28108862414, -78213.96180557749, -59517.532231513534, -59167.056878454314, -81655.23638191658, -82969.69776984428, -0.036000000000000004, 0.926, 0.41000000000000003, 192.0, 0.0, 0.0, 0.0, 0.0, 0.0, 0.0, 0.0, 0.0, 0.0, 1.695415877344101E9, 0.0, 2023-09-22 15:51:17.344
38.0, -36736.678986153485, -15575.164923091523, -85436.23512223187, -80143.38673870407, -26815.16430558733, -54553.813285090124, -166956.8469472941, -72204.27062562354, 1527.093532931034, -187500.02235174447, -84088.67080076586, -78202.49536067192, -59522.986057160626, -59163.771172019384, -81657.71742555112, -82964.7803860641, -0.028, 0.924, 0.41400000000000003, 192.0, 127.5, 16.0, 14.0, 112.0, 6.0, 120.0, 0.0, 0.0, 0.0, 1.695415877344105E9, 0.0, 2023-09-22 15:51:17.344
40.0, -36748.43600373698, -15593.962740178436, -85453.08833755116, -80162.81040463572, -26829.73764297219, -54576.09797431207, -166844.30591396164, -72222.04026246551, 1462.6758054108388, -187500.02235174447, -84092.98468744573, -78213.09008754374, -59527.456406051686, -59167.99565172144, -81663.08184422039, -82968.22255471023, -0.028, 0.924, 0.41400000000000003, 192.0, 0.0, 0.0, 0.0, 0.0, 0.0, 0.0, 0.0, 0.0, 0.0, 1.695415877344108E9, 0.0, 2023-09-22 15:51:17.344
42.0, -36706.39237241654, -15547.515815200308, -85409.16715969649, -80121.34791867113, -26780.027363303587, -54538.27882269369, -166957.4504443944, -72186.9927271596, 1564.6221118714943, -187500.02235174447, -84071.92934416884, -78194.98517453494, -59501.930713883725, -59152.125913158176, -81638.76314625301, -82950.69878705726, -0.028, 0.924, 0.41400000000000003, 192.0, 0.0, 0.0, 0.0, 0.0, 0.0, 0.0, 0.0, 0.0, 0.0, 1.695415877344112E9, 0.0, 2023-09-22 15:51:17.344
44.0, -36730.532256428276, -15577.645966726062, -85441.57718915668, -80151.83569810816, -26811.92330264131, -54568.83365736409, -166852.5313559212, -72224.4989543556, 1496.3375325605314, -187500.02235174447, -84076.3996930599, -78192.99586927843, -59505.88697265232, -59159.83726499525, -81637.98083519707, -82950.47526961271, -0.028, 0.924, 0.41400000000000003, 192.0, 0.0, 0.0, 0.0, 0.0, 0.0, 0.0, 0.0, 0.0, 0.0, 1.695415877402953E9, 0.0, 2023-09-22 15:51:17.402
46.0, -36698.50220662382, -15535.155300516522, -85410.01652598579, -80122.37609891607, -26793.214892532218, -54540.692811094865, -166965.8099968207, -72197.11806739785, 1572.7134433643155, -187500.02235174447, -84071.54936451309, -78187.40793316459, -59507.473946508646, -59154.85282598172, -81652.75533828203, -82961.69584532928, -0.028, 0.924, 0.41400000000000003, 192.0, 0.0, 0.0, 0.0, 0.0, 0.0, 0.0, 0.0, 0.0, 0.0, 1.695415877402967E9, 0.0, 2023-09-22 15:51:17.402
48.0, -36697.228157189864, -15537.323419728687, -85401.9028427485, -80117.23519769135, -26778.149816769343, -54538.256470949236, -166902.8004292012, -72187.52916902651, 1490.0343406241348, -187500.02235174447, -84037.6864716633, -78153.38857810362, -59474.37101297033, -59126.28729656784, -81611.38225929526, -82926.51419955662, -0.024, 0.924, 0.418, 192.0, 127.5, 32.0, 14.0, 112.0, 6.5, 8.0, 0.0, 0.0, 0.0, 1.695415877402971E9, 0.0, 2023-09-22 15:51:17.402
50.0, -36687.50514835181, -15526.996913790335, -85397.14192117953, -80111.82607553317, -26783.96127032772, -54527.86290977751, -167001.14810480454, -72176.01802063204, 1572.8028503421367, -187500.02235174447, -84041.6874339208, -78162.03870320781, -59469.498332679075, -59125.88496516764, -81616.03142214197, -82930.58221704749, -0.024, 0.924, 0.418, 192.0, 0.0, 0.0, 0.0, 0.0, 0.0, 0.0, 0.0, 0.0, 0.0, 1.695415877402975E9, 0.0, 2023-09-22 15:51:17.402
52.0, -36712.87437830858, -15559.652812439539, -85416.94556676692, -80130.668596109, -26800.50156122465, -54543.755000085235, -166919.8548102206, -72187.52916902651, 1504.2947535866206, -187500.02235174447, -84042.84972463247, -78165.99496197641, -59469.5877396569, -59124.767377944874, -81616.70197447563, -82924.86017046693, -0.024, 0.924, 0.418, 192.0, 0.0, 0.0, 0.0, 0.0, 0.0, 0.0, 0.0, 0.0, 0.0, 1.695415877402978E9, 0.0, 2023-09-22 15:51:17.402
54.0, -36733.259169251825, -15575.209626580434, -85442.65007289054, -80152.55095393074, -26825.53551501459, -54566.86670385203, -166963.3960084195, -72212.4960675831, 1554.7202890777933, -187500.02235174447, -84075.7961959596, -78197.17564549156, -59510.960818643674, -59163.212378408, -81649.49198359156, -82960.48885112868, -0.024, 0.924, 0.418, 192.0, 0.0, 0.0, 0.0, 0.0, 0.0, 0.0, 0.0, 0.0, 0.0, 1.695415877402982E9, 0.0, 2023-09-22 15:51:17.402
56.0, -36725.145486014546, -15565.084286342179, -85426.46740990489, -80141.08450902517, -26800.769782158113, -54546.37015418651, -166888.56236798316, -72187.2385963486, 1467.7272996577383, -187500.02235174447, -84084.33456234152, -78203.0094507944, -59522.15904261578, -59160.59722430673, -81648.01676845751, -82958.00780749414, -0.024, 0.924, 0.418, 192.0, 0.0, 0.0, 0.0, 0.0, 0.0, 0.0, 0.0, 0.0, 0.0, 1.695415877402996E9, 0.0, 2023-09-22 15:51:17.402
58.0, -36725.30194822573, -15565.55367297574, -85438.64911063304, -80145.71132012742, -26815.745450943166, -54554.28267172369, -166938.07148195166, -72203.53301805652, 1532.346192878031, -187500.02235174447, -84075.72914072624, -78198.8073228368, -59505.93167614123, -59144.88394795465, -81637.93613170816, -82947.41308062233, -0.022, 0.922, 0.41400000000000003, 192.0, 127.5, 40.0, 14.0, 104.0, 6.0, 120.0, 0.0, 0.0, 0.0, 1.695415877403E9, 0.0, 2023-09-22 15:51:17.403
60.0, -36768.619628980116, -15615.2863043888, -85462.38666324457, -80175.93087863098, -26832.397500562372, -54586.75975641725, -166871.64209743048, -72230.77979454753, 1481.9206573868582, -187500.02235174447, -84097.92442297035, -78227.88694237315, -59529.289249097026, -59171.34841338974, -81661.80779478644, -82970.16715647784, -0.022, 0.922, 0.41400000000000003, 192.0, 0.0, 0.0, 0.0, 0.0, 0.0, 0.0, 0.0, 0.0, 0.0, 1.695415877463161E9, 0.0, 2023-09-22 15:51:17.463
62.0, -36737.41659372051, -15583.368013306621, -85441.89011357905, -80157.35657898862, -26830.69876798377, -54571.1805905319, -166897.61482448757, -72227.51643985706, 1505.1664716203777, -187500.02235174447, -84101.36659161648, -78231.23970404145, -59531.77029273156, -59192.023777010894, -81668.46861463411, -82983.10881651746, -0.022, 0.922, 0.41400000000000003, 192.0, 0.0, 0.0, 0.0, 0.0, 0.0, 0.0, 0.0, 0.0, 0.0, 1.695415877463173E9, 0.0, 2023-09-22 15:51:17.463
64.0, -36729.057041294225, -15574.583777735685, -85421.05828774671, -80133.14963974353, -26813.286759053084, -54552.94156705637, -166877.83353064462, -72207.55633205848, 1487.4638900117743, -187500.02235174447, -84075.08094013702, -78204.57407290627, -59518.582763502935, -59158.13853241665, -81652.06243420392, -82964.73568257519, -0.022, 0.922, 0.41400000000000003, 192.0, 0.0, 0.0, 0.0, 0.0, 0.0, 0.0, 0.0, 0.0, 0.0, 1.695415877463177E9, 0.0, 2023-09-22 15:51:17.463
66.0, -36732.85683785163, -15572.058030612236, -85433.17293324148, -80149.08643354016, -26815.58898873198, -54563.71510788383, -166872.46911197534, -72207.95866345867, 1515.023590925168, -187500.02235174447, -84068.42012028935, -78191.58770937774, -59507.98803663112, -59158.831436494766, -81643.03232944397, -82954.27506617011, -0.022, 0.922, 0.41400000000000003, 192.0, 0.0, 0.0, 0.0, 0.0, 0.0, 0.0, 0.0, 0.0, 0.0, 1.69541587746318E9, 0.0, 2023-09-22 15:51:17.463
68.0, -36752.21344854992, -15592.442821555474, -85443.43238394646, -80167.34780876015, -26821.534552757093, -54578.89194236898, -166867.26115551725, -72218.66514905276, 1510.7544077342043, -187500.02235174447, -84078.79132971661, -78203.88116882816, -59526.048246151004, -59177.696308815044, -81647.50267833503, -82966.74733957618, -0.018000000000000002, 0.914, 0.40800000000000003, 192.0, 127.5, 56.0, 14.0, 72.0, 6.0, 96.0, 0.0, 0.0, 0.0, 1.695415877463183E9, 0.0, 2023-09-22 15:51:17.463
70.0, -36764.46220451143, -15609.005464196858, -85471.99791336035, -80194.10284687315, -26853.922230472832, -54606.541050260195, -166825.128117219, -72246.18014647724, 1490.8837069134363, -187500.02235174447, -84098.77378925965, -78228.64690168464, -59533.670191010264, -59201.50091665995, -81675.84469030437, -82993.48002594472, -0.018000000000000002, 0.914, 0.40800000000000003, 192.0, 0.0, 0.0, 0.0, 0.0, 0.0, 0.0, 0.0, 0.0, 0.0, 1.695415877463187E9, 0.0, 2023-09-22 15:51:17.463
72.0, -36755.11917532911, -15602.054071671257, -85454.22827651838, -80170.40999775052, -26821.579256246005, -54580.94830285887, -166843.881230817, -72217.88283799683, 1506.7534454767044, -187500.02235174447, -84096.18098690284, -78223.43894522655, -59542.208557392194, -59197.3211404468, -81669.89912627926, -82983.73466536221, -0.018000000000000002, 0.914, 0.40800000000000003, 192.0, 0.0, 0.0, 0.0, 0.0, 0.0, 0.0, 0.0, 0.0, 0.0, 1.69541587746319E9, 0.0, 2023-09-22 15:51:17.463
74.0, -36762.60700972164, -15608.670188030028, -85468.39928250304, -80189.96777414891, -26840.019445421633, -54594.80638442116, -166782.369230076, -72243.96732377617, 1479.9984073637017, -187500.02235174447, -84105.65812655189, -78229.5633232073, -59533.24550786561, -59206.26183822893, -81664.19943144315, -82981.67830487232, -0.018000000000000002, 0.914, 0.40800000000000003, 192.0, 0.0, 0.0, 0.0, 0.0, 0.0, 0.0, 0.0, 0.0, 0.0, 1.695415877523972E9, 0.0, 2023-09-22 15:51:17.523
76.0, -36764.506908000345, -15609.51955431933, -85457.33516899767, -80170.85703263963, -26826.60839874845, -54575.69564291187, -166813.70637580234, -72215.29003564, 1518.6222217824725, -187500.02235174447, -84118.01864123567, -78240.69449194605, -59540.42041783577, -59210.82159409781, -81673.31894318092, -82987.15448226387, -0.018000000000000002, 0.914, 0.40800000000000003, 192.0, 0.0, 0.0, 0.0, 0.0, 0.0, 0.0, 0.0, 0.0, 0.0, 1.695415877523985E9, 0.0, 2023-09-22 15:51:17.523
78.0, -36734.153239030034, -15578.94236790447, -85431.98829078535, -80134.53544789976, -26812.616206719424, -54549.11941875451, -166744.0583400796, -72205.05293667948, 1478.5902474630175, -187500.02235174447, -84097.9020712259, -78216.77812537887, -59530.809167719985, -59181.898436772644, -81655.95163773914, -82962.58991510748, -0.018000000000000002, 0.924, 0.404, 192.0, 127.5, 56.0, 14.0, 112.0, 6.0, 80.0, 0.0, 0.0, 0.0, 1.695415877523989E9, 0.0, 2023-09-22 15:51:17.523
80.0, -36727.15714301552, -15572.795638179261, -85417.72787782286, -80120.63266284855, -26792.67845066529, -54545.721953597305, -166798.79776225064, -72190.21137836116, 1564.510353149218, -187500.02235174447, -84067.7942714446, -78192.37002043368, -59512.63719947782, -59162.966509219, -81635.3656810958, -82941.33340613049, -0.018000000000000002, 0.924, 0.404, 192.0, 0.0, 0.0, 0.0, 0.0, 0.0, 0.0, 0.0, 0.0, 0.0, 1.695415877523993E9, 0.0, 2023-09-22 15:51:17.523
82.0, -36709.85689280712, -15559.228129294888, -85414.7103923214, -80108.6074243316, -26785.280023250583, -54539.351706427544, -166721.39367120192, -72182.5894335019, 1520.2986026166204, -187500.02235174447, -84048.46001249076, -78180.79181680582, -59475.510951937555, -59154.87517772617, -81610.80111393942, -82924.21196987772, -0.018000000000000002, 0.924, 0.404, 192.0, 0.0, 0.0, 0.0, 0.0, 0.0, 0.0, 0.0, 0.0, 0.0, 1.695415877523997E9, 0.0, 2023-09-22 15:51:17.523
84.0, -36716.16008474351, -15556.03182983778, -85417.37024991158, -80101.70073529491, -26786.93405234028, -54534.36726741401, -166792.89690171444, -72163.45634024816, 1604.5199757242176, -187500.02235174447, -84060.61936147444, -78190.58188087725, -59486.99974858758, -59158.87613998367, -81622.20050361163, -82926.44714432325, -0.018000000000000002, 0.924, 0.404, 192.0, 0.0, 0.0, 0.0, 0.0, 0.0, 0.0, 0.0, 0.0, 0.0, 1.695415877524E9, 0.0, 2023-09-22 15:51:17.524
86.0, -36701.27382293628, -15543.045466309246, -85414.24100568784, -80090.16723515597, -26786.509369195628, -54526.3206394101, -166707.0438512616, -72172.7323141971, 1507.5804600215508, -187500.02235174447, -84057.60187597298, -78182.19997670651, -59485.88216136482, -59158.18323590556, -81621.64171000024, -82926.13421990088, -0.018000000000000002, 0.924, 0.404, 192.0, 0.0, 0.0, 0.0, 0.0, 0.0, 0.0, 0.0, 0.0, 0.0, 1.695415877524008E9, 0.0, 2023-09-22 15:51:17.524
88.0, -36695.283555422255, -15529.969695802893, -85407.13315095105, -80084.44518857541, -26777.367505713406, -54523.213746930815, -166795.44500058235, -72161.51173848055, 1585.990379570768, -187500.02235174447, -84039.36285249745, -78157.83657525023, -59468.71602162314, -59131.11527337018, -81601.90511964621, -82911.00208890464, -0.02, 0.928, 0.4, 192.0, 127.5, 48.0, 14.5, 0.0, 6.0, 64.0, 0.0, 0.0, 0.0, 1.695415877524013E9, 0.0, 2023-09-22 15:51:17.524
90.0, -36690.90261350902, -15536.205832505922, -85417.8619882896, -80095.84457824762, -26788.319860496507, -54541.74334308426, -166692.06818247656, -72184.37757305831, 1511.1790908788553, -187500.02235174447, -84037.7311751522, -78156.98720896093, -59479.24369326159, -59131.71877047048, -81601.52513999047, -82913.572539517, -0.02, 0.928, 0.4, 192.0, 0.0, 0.0, 0.0, 0.0, 0.0, 0.0, 0.0, 0.0, 0.0, 1.695415877583839E9, 0.0, 2023-09-22 15:51:17.583
92.0, -36726.88892208206, -15573.55559749074, -85456.75402364183, -80137.37411944558, -26829.089442382985, -54581.03770983669, -166752.0602645946, -72205.96935820214, 1586.8397458600696, -187500.02235174447, -84067.16842259985, -78191.49830239991, -59498.95793187117, -59169.13559068866, -81629.53187579298, -82950.4305661238, -0.02, 0.928, 0.4, 192.0, 0.0, 0.0, 0.0, 0.0, 0.0, 0.0, 0.0, 0.0, 0.0, 1.695415877583851E9, 0.0, 2023-09-22 15:51:17.583
94.0, -36718.641128378054, -15574.829646924692, -85447.7686223708, -80116.38583140205, -26816.460706765738, -54572.0299568212, -166642.76023420814, -72192.31244233996, 1478.0538055960901, -187500.02235174447, -84085.58626003102, -78205.69166012903, -59510.893763410306, -59192.604922366736, -81634.4716113176, -82951.23522892418, -0.02, 0.928, 0.4, 192.0, 0.0, 0.0, 0.0, 0.0, 0.0, 0.0, 0.0, 0.0, 0.0, 1.695415877583855E9, 0.0, 2023-09-22 15:51:17.583
96.0, -36691.506110609305, -15541.88317559757, -85411.24587193083, -80079.86308096208, -26786.039982562066, -54540.35753492803, -166745.89118312494, -72174.27458456453, 1570.925303807891, -187500.02235174447, -84070.25296333469, -78187.2514709534, -59487.84911487688, -59162.117142929696, -81617.88661693176, -82932.14683915935, -0.02, 0.928, 0.4, 192.0, 0.0, 0.0, 0.0, 0.0, 0.0, 0.0, 0.0, 0.0, 0.0, 1.695415877583858E9, 0.0, 2023-09-22 15:51:17.583
98.0, -36719.22227373389, -15575.902530658548, -85433.21763673039, -80096.3586683701, -26796.411191989326, -54556.8754740805, -166654.83017621402, -72184.64579399179, 1498.4833000282408, -187500.02235174447, -84068.71069296726, -78188.03378200934, -59480.94242584019, -59155.03163993736, -81609.79528543893, -82922.31207159902, -0.02, 0.926, 0.402, 192.0, 127.5, 48.0, 14.0, 120.0, 6.0, 72.0, 0.0, 0.0, 0.0, 1.695415877583862E9, 0.0, 2023-09-22 15:51:17.583
100.0, -36727.35830871562, -15579.143533604567, -85442.24774149034, -80105.74640104132, -26807.54236072807, -54565.21267476233, -166719.8066973456, -72189.02673590502, 1570.5900276410614, -187500.02235174447, -84091.17419614484, -78208.2621107414, -59498.35443477088, -59173.24831166844, -81621.64171000024, -82936.5277810726, -0.02, 0.926, 0.402, 192.0, 0.0, 0.0, 0.0, 0.0, 0.0, 0.0, 0.0, 0.0, 0.0, 1.695415877583865E9, 0.0, 2023-09-22 15:51:17.583
102.0, -36753.867477639615, -15614.548696821774, -85463.41484348952, -80126.62293036257, -26818.762936444633, -54582.02118659273, -166633.35014979247, -72218.08400369693, 1488.536773745629, -187500.02235174447, -84098.23734739273, -78214.05121255532, -59499.561428971465, -59177.29397741485, -81625.19563736864, -82939.94759797426, -0.02, 0.926, 0.402, 192.0, 0.0, 0.0, 0.0, 0.0, 0.0, 0.0, 0.0, 0.0, 0.0, 1.695415877583868E9, 0.0, 2023-09-22 15:51:17.583
104.0, -36757.175535819, -15612.760557265348, -85466.5217359688, -80125.68415709546, -26826.518991770627, -54580.2330470363, -166684.87092076195, -72204.06945992344, 1528.412285853897, -187500.02235174447, -84142.33733920305, -78254.50787001943, -59541.82857773645, -59216.61069591173, -81669.0274082455, -82981.27597347212, -0.02, 0.926, 0.402, 192.0, 0.0, 0.0, 0.0, 0.0, 0.0, 0.0, 0.0, 0.0, 0.0, 1.695415877642777E9, 0.0, 2023-09-22 15:51:17.642
106.0, -36777.023884895316, -15637.727455821927, -85470.76856741532, -80128.90280829702, -26825.155535358852, -54578.89194236898, -166629.3268357905, -72219.58157057544, 1472.5329247156292, -187500.02235174447, -84112.58716733303, -78219.05800331332, -59511.89959191079, -59187.486372886466, -81639.81367824241, -82946.16138293283, -0.02, 0.926, 0.402, 192.0, 0.0, 0.0, 0.0, 0.0, 0.0, 0.0, 0.0, 0.0, 0.0, 1.695415877642808E9, 0.0, 2023-09-22 15:51:17.642
108.0, -36793.653582770065, -15650.065618761257, -85476.3788552736, -80138.46935492389, -26842.724006500724, -54577.97552084631, -166663.50265306266, -72205.76819250204, 1507.7816257216484, -187500.02235174447, -84145.89126657145, -78255.98308515348, -59538.18524339024, -59221.10339654725, -81666.5240128665, -82973.40815942385, -0.016, 0.928, 0.402, 192.0, 127.5, 64.0, 14.5, 0.0, 6.0, 72.0, 0.0, 0.0, 0.0, 1.695415877642812E9, 0.0, 2023-09-22 15:51:17.642
110.0, -36825.92950176352, -15690.63403494764, -85490.39339904707, -80150.3157794852, -26841.7852332336, -54591.364215775044, -166621.9731118647, -72213.5465995725, 1455.769116374149, -187500.02235174447, -84138.8057635791, -78248.29408506086, -59532.26203110958, -59208.809937096834, -81655.30343714994, -82955.03502548159, -0.016, 0.928, 0.402, 192.0, 0.0, 0.0, 0.0, 0.0, 0.0, 0.0, 0.0, 0.0, 0.0, 1.695415877642816E9, 0.0, 2023-09-22 15:51:17.642
112.0, -36849.801164841796, -15704.290950809831, -85501.61397476363, -80167.05723608223, -26856.425625851825, -54601.780128691214, -166627.583399723, -72230.73509105862, 1458.9654158312578, -187500.02235174447, -84184.71624669031, -78294.91982399463, -59571.1093629729, -59248.01489687144, -81688.38401894379, -82996.40810446837, -0.016, 0.928, 0.402, 192.0, 0.0, 0.0, 0.0, 0.0, 0.0, 0.0, 0.0, 0.0, 0.0, 1.695415877642819E9, 0.0, 2023-09-22 15:51:17.642
114.0, -36846.2472374734, -15711.175288102066, -85461.47024172191, -80133.663729866, -26808.838761906478, -54564.47506719531, -166634.46773701522, -72193.63119526282, 1441.3969446893866, -187500.02235174447, -84163.25857201322, -78274.06564641782, -59542.54383355902, -59223.53973669288, -81657.44920461765, -82967.88727854339, -0.016, 0.928, 0.402, 192.0, 0.0, 0.0, 0.0, 0.0, 0.0, 0.0, 0.0, 0.0, 0.0, 1.695415877642822E9, 0.0, 2023-09-22 15:51:17.642
116.0, -36836.85950480217, -15706.079090366256, -85438.82792458868, -80126.24295070684, -26797.193503045262, -54557.41191594743, -166655.76894948113, -72184.3328695694, 1480.3113317860762, -187500.02235174447, -84133.84367631003, -78250.28339031737, -59502.33304528392, -59213.81672785482, -81626.69320424715, -82949.20122017876, -0.016, 0.928, 0.402, 192.0, 0.0, 0.0, 0.0, 0.0, 0.0, 0.0, 0.0, 0.0, 0.0, 1.695415877642825E9, 0.0, 2023-09-22 15:51:17.642
118.0, -36851.0975660202, -15718.841936450237, -85432.12240125208, -80120.07386923718, -26772.897156822346, -54546.41485767542, -166677.7407142807, -72163.94807862617, 1501.9254686743582, -187500.02235174447, -84113.14596094441, -78238.54872447834, -59481.25535026257, -59198.23756196947, -81603.9614801361, -82930.6716240253, -0.018000000000000002, 0.928, 0.4, 192.0, 127.5, 56.0, 14.5, 0.0, 6.0, 64.0, 0.0, 0.0, 0.0, 1.695415877642828E9, 0.0, 2023-09-22 15:51:17.642
120.0, -36853.62331314365, -15720.138337628645, -85444.10293628013, -80129.55100888622, -26791.78438088708, -54559.04359329267, -166644.3472080645, -72201.90134071128, 1484.669921954861, -187500.02235174447, -84134.38011817695, -78261.07928288929, -59495.091080080405, -59221.170451780614, -81627.09553564734, -82954.49858361467, -0.018000000000000002, 0.928, 0.4, 192.0, 0.0, 0.0, 0.0, 0.0, 0.0, 0.0, 0.0, 0.0, 0.0, 1.695415877703095E9, 0.0, 2023-09-22 15:51:17.703
122.0, -36859.501821935395, -15722.328808585264, -85447.9697880709, -80123.09135473864, -26795.807694889034, -54552.762753100724, -166685.5414730956, -72176.2862415655, 1488.4473667678078, -187500.02235174447, -84129.12745822997, -78245.90244840413, -59499.695539438195, -59212.945009821065, -81618.7136314766, -82944.21678116522, -0.018000000000000002, 0.928, 0.4, 192.0, 0.0, 0.0, 0.0, 0.0, 0.0, 0.0, 0.0, 0.0, 0.0, 1.695415877703107E9, 0.0, 2023-09-22 15:51:17.703
124.0, -36855.232638744434, -15716.91968642708, -85464.84535513466, -80133.30610195472, -26820.77459344561, -54574.443945222374, -166631.0255683691, -72207.08694542492, 1436.6136713759508, -187500.02235174447, -84150.80865035161, -78257.95003866554, -59521.62260074885, -59228.72534140651, -81646.78742251247, -82962.8804877854, -0.018000000000000002, 0.928, 0.4, 192.0, 0.0, 0.0, 0.0, 0.0, 0.0, 0.0, 0.0, 0.0, 0.0, 1.695415877703111E9, 0.0, 2023-09-22 15:51:17.703
126.0, -36847.565990396266, -15711.15293635761, -85456.10582305263, -80129.52865714177, -26820.439317278782, -54567.09022129658, -166684.40153412838, -72186.23276784811, 1475.1033753279896, -187500.02235174447, -84137.24114146724, -78254.08318687478, -59524.21540310567, -59227.965382095026, -81647.88265799078, -82961.31586567353, -0.018000000000000002, 0.928, 0.4, 192.0, 0.0, 0.0, 0.0, 0.0, 0.0, 0.0, 0.0, 0.0, 0.0, 1.695415877703114E9, 0.0, 2023-09-22 15:51:17.703
128.0, -36846.33664445122, -15713.63397999215, -85480.91625939801, -80152.70741614193, -26844.26627686814, -54591.47597449732, -166611.6689576708, -72216.65349205179, 1431.5621771290514, -187500.02235174447, -84135.94474028883, -78254.23964908597, -59531.859699709385, -59242.96340262454, -81657.98564648458, -82966.76969132063, -0.01, 0.934, 0.404, 192.0, 127.5, 88.0, 14.5, 24.0, 6.0, 80.0, 0.0, 0.0, 0.0, 1.695415877703118E9, 0.0, 2023-09-22 15:51:17.703
130.0, -36846.4484031735, -15707.621360733672, -85472.19907906045, -80145.82307884969, -26843.55102104557, -54583.89873312697, -166680.60173757098, -72217.12287868535, 1484.0217213656572, -187500.02235174447, -84151.4121474519, -78269.1259108932, -59551.082199940945, -59256.53091150891, -81672.69309433617, -82979.4431304268, -0.01, 0.934, 0.404, 192.0, 0.0, 0.0, 0.0, 0.0, 0.0, 0.0, 0.0, 0.0, 0.0, 1.695415877703122E9, 0.0, 2023-09-22 15:51:17.703
132.0, -36855.925542822544, -15713.924552670069, -85492.15918685903, -80171.46052973992, -26860.31482938705, -54612.6430764965, -166591.23946323866, -72244.59317262092, 1411.289144908088, -187500.02235174447, -84156.73186263227, -78271.24932661645, -59551.864510996886, -59259.838969688295, -81676.60464961585, -82985.14282526288, -0.01, 0.934, 0.404, 192.0, 0.0, 0.0, 0.0, 0.0, 0.0, 0.0, 0.0, 0.0, 0.0, 1.695415877703125E9, 0.0, 2023-09-22 15:51:17.703
134.0, -36830.221036698946, -15690.09759308071, -85468.91337262552, -80157.33422724417, -26837.672512253823, -54596.50511699976, -166689.1401039529, -72226.28709391202, 1480.736014930727, -187500.02235174447, -84149.82517359557, -78264.9684864245, -59548.86937723987, -59265.91864418014, -81673.31894318092, -82992.87652884443, -0.01, 0.934, 0.404, 192.0, 0.0, 0.0, 0.0, 0.0, 0.0, 0.0, 0.0, 0.0, 0.0, 1.695415877763328E9, 0.0, 2023-09-22 15:51:17.763
136.0, -36831.2939204328, -15693.159782071089, -85478.56932623021, -80177.40609376504, -26844.668608268334, -54611.88311718502, -166604.44934421175, -72242.62621910885, 1422.71088632475, -187500.02235174447, -84136.9058653004, -78255.80427119783, -59541.78387424754, -59258.83314118781, -81666.5240128665, -82986.64039214139, -0.01, 0.934, 0.404, 192.0, 0.0, 0.0, 0.0, 0.0, 0.0, 0.0, 0.0, 0.0, 0.0, 1.695415877763343E9, 0.0, 2023-09-22 15:51:17.763
138.0, -36819.38044063812, -15682.095668565711, -85470.18742205948, -80164.95617210343, -26849.83186123751, -54607.12219561604, -166709.36843268495, -72229.5504486025, 1499.0420936396235, -187500.02235174447, -84147.3664817055, -78264.0744166463, -59552.98209821965, -59271.864208205254, -81680.11387349533, -83001.4372469708, -0.014, 0.928, 0.404, 192.0, 127.5, 72.0, 14.5, 0.0, 6.0, 80.0, 0.0, 0.0, 0.0, 1.695415877763347E9, 0.0, 2023-09-22 15:51:17.763
140.0, -36809.657431800064, -15669.019898059358, -85464.71124466792, -80157.8706691111, -26836.01848316413, -54601.86953566904, -166633.4842602592, -72229.93042825823, 1421.548595613074, -187500.02235174447, -84135.05067051061, -78249.72459670599, -59528.77515897455, -59272.49005705, -81671.15082396875, -82992.31773523304, -0.014, 0.928, 0.404, 192.0, 0.0, 0.0, 0.0, 0.0, 0.0, 0.0, 0.0, 0.0, 0.0, 1.695415877763351E9, 0.0, 2023-09-22 15:51:17.763
142.0, -36801.677859029514, -15655.519444408352, -85459.70445390993, -80150.53929692975, -26832.665721495836, -54597.04155886669, -166743.38778774595, -72221.88380025432, 1509.927393189358, -187500.02235174447, -84126.40054540642, -78238.973407623, -59518.20278384719, -59250.07125736133, -81663.88650702078, -82986.50628167466, -0.014, 0.928, 0.404, 192.0, 0.0, 0.0, 0.0, 0.0, 0.0, 0.0, 0.0, 0.0, 0.0, 1.695415877763354E9, 0.0, 2023-09-22 15:51:17.763
144.0, -36811.758495778864, -15669.533988181829, -85472.64611394955, -80159.05531156722, -26840.55588728856, -54609.692646228395, -166653.95845818025, -72236.54654461701, 1451.410526205364, -187500.02235174447, -84128.16633321838, -78245.74598619294, -59532.127920642844, -59259.4366382881, -81668.84859428986, -82991.73658987721, -0.014, 0.928, 0.404, 192.0, 0.0, 0.0, 0.0, 0.0, 0.0, 0.0, 0.0, 0.0, 0.0, 1.695415877763357E9, 0.0, 2023-09-22 15:51:17.763
146.0, -36768.37375979111, -15625.501051604875, -85433.32939545267, -80122.04082274924, -26815.25371256515, -54567.33609048559, -166753.28961053965, -72199.46500056566, 1539.3869923814527, -187500.02235174447, -84116.61048133498, -78238.54872447834, -59525.154176372795, -59258.96725165454, -81665.69699832165, -82987.55681366406, -0.014, 0.928, 0.404, 192.0, 0.0, 0.0, 0.0, 0.0, 0.0, 0.0, 0.0, 0.0, 0.0, 1.69541587776336E9, 0.0, 2023-09-22 15:51:17.763
148.0, -36756.460279996434, -15620.918943991537, -85424.50045639282, -80113.52480811178, -26798.35579375694, -54553.343898456566, -166680.42292361535, -72177.1356078548, 1505.5017477872073, -187500.02235174447, -84068.71069296726, -78187.51969188688, -59484.76457414205, -59214.08494878828, -81618.42305879868, -82934.8737519829, -0.018000000000000002, 0.922, 0.402, 192.0, 127.5, 56.0, 14.0, 104.0, 6.0, 72.0, 0.0, 0.0, 0.0, 1.695415877763364E9, 0.0, 2023-09-22 15:51:17.763
150.0, -36735.203771019434, -15593.225132611411, -85407.08844746214, -80095.17402591396, -26792.566691943015, -54538.05530524914, -166760.53157574317, -72167.39024727228, 1586.1468417819551, -187500.02235174447, -84079.90891693937, -78194.42638092356, -59487.737356154605, -59215.09077728877, -81632.4152508277, -82945.15555443235, -0.018000000000000002, 0.922, 0.402, 192.0, 0.0, 0.0, 0.0, 0.0, 0.0, 0.0, 0.0, 0.0, 0.0, 1.695415877823407E9, 0.0, 2023-09-22 15:51:17.823
152.0, -36743.451564723444, -15602.031719926801, -85409.59184284114, -80099.66672654948, -26787.649308162847, -54540.893976794956, -166699.3995546579, -72164.283354793, 1521.7961694951262, -187500.02235174447, -84055.97019862774, -78172.67813356855, -59467.754896611565, -59194.43776541207, -81602.17334057967, -82917.05941165202, -0.018000000000000002, 0.922, 0.402, 192.0, 0.0, 0.0, 0.0, 0.0, 0.0, 0.0, 0.0, 0.0, 0.0, 1.695415877823418E9, 0.0, 2023-09-22 15:51:17.823
154.0, -36730.17462851699, -15586.296091830265, -85406.0602672172, -80095.68811603643, -26780.697915637247, -54534.45667439183, -166773.6073462495, -72172.10646535236, 1567.9748735397905, -187500.02235174447, -84073.71748372525, -78197.3544594472, -59477.96964382764, -59204.473698672504, -81616.29964307543, -82936.70659502824, -0.018000000000000002, 0.922, 0.402, 192.0, 0.0, 0.0, 0.0, 0.0, 0.0, 0.0, 0.0, 0.0, 0.0, 1.695415877823422E9, 0.0, 2023-09-22 15:51:17.823
156.0, -36748.7265764149, -15612.917019476536, -85423.42757265897, -80104.31588939618, -26791.002069831142, -54548.69473560986, -166739.11860455497, -72189.04908764947, 1531.988564966746, -187500.02235174447, -84058.27242830663, -78175.91913651457, -59456.646079617276, -59179.88677977167, -81602.12863709076, -82921.97679543219, -0.018000000000000002, 0.922, 0.402, 192.0, 0.0, 0.0, 0.0, 0.0, 0.0, 0.0, 0.0, 0.0, 0.0, 1.695415877823425E9, 0.0, 2023-09-22 15:51:17.823
158.0, -36733.5720936742, -15592.576932022206, -85425.61804361558, -80103.42181961797, -26803.34023277047, -54546.37015418651, -166783.3303550876, -72183.6399654913, 1557.7154228348045, -187500.02235174447, -84095.30926886908, -78202.47300892747, -59496.58864695891, -59213.81672785482, -81641.78063175447, -82956.84551678247, -0.026000000000000002, 0.922, 0.406, 192.0, 127.5, 24.0, 14.0, 104.0, 6.0, 88.0, 0.0, 0.0, 0.0, 1.695415877823428E9, 0.0, 2023-09-22 15:51:17.823
160.0, -36755.2756375403, -15621.880069003115, -85431.98829078535, -80118.28572968075, -26805.709517682735, -54560.78702936018, -166757.3129245416, -72187.77503821552, 1526.087704430545, -187500.02235174447, -84078.12077738295, -78186.200938964, -59466.413791944244, -59200.31627420381, -81621.70876523362, -82934.56082756053, -0.026000000000000002, 0.922, 0.406, 192.0, 0.0, 0.0, 0.0, 0.0, 0.0, 0.0, 0.0, 0.0, 0.0, 1.695415877823431E9, 0.0, 2023-09-22 15:51:17.823
162.0, -36762.249381810354, -15624.361112637653, -85446.9192560815, -80137.26236072331, -26827.8824481824, -54577.99787259077, -166761.93973564386, -72207.60103554738, 1542.6726988163828, -187500.02235174447, -84116.61048133498, -78230.09976507424, -59507.40689127528, -59244.10334159176, -81654.02938771599, -82969.85423205546, -0.026000000000000002, 0.922, 0.406, 192.0, 0.0, 0.0, 0.0, 0.0, 0.0, 0.0, 0.0, 0.0, 0.0, 1.695415877823434E9, 0.0, 2023-09-22 15:51:17.823
164.0, -36764.149280089056, -15632.608906341662, -85443.58884615765, -80136.8153258342, -26823.25563708015, -54582.982311604304, -166768.33233455807, -72207.01989019154, 1519.5609950495952, -187500.02235174447, -84093.72229501275, -78208.93266307506, -59500.65666444977, -59225.75255939395, -81643.45701258862, -82956.15261270436, -0.026000000000000002, 0.922, 0.406, 192.0, 0.0, 0.0, 0.0, 0.0, 0.0, 0.0, 0.0, 0.0, 0.0, 1.695415877882876E9, 0.0, 2023-09-22 15:51:17.882
166.0, -36742.44573622295, -15608.692539774484, -85434.17876174198, -80127.1146687406, -26824.12735511391, -54579.696605169374, -166766.43243627937, -72212.22784664964, 1514.3083351025982, -187500.02235174447, -84097.38798110343, -78220.93554984755, -59506.2446005636, -59249.847739916775, -81654.38701562728, -82970.90476404486, -0.026000000000000002, 0.922, 0.406, 192.0, 0.0, 0.0, 0.0, 0.0, 0.0, 0.0, 0.0, 0.0, 0.0, 1.69541587788289E9, 0.0, 2023-09-22 15:51:17.882
168.0, -36733.3709279741, -15601.070594915223, -85420.70065983542, -80114.28476742325, -26805.664814193824, -54558.3283374701, -166801.74819251875, -72192.53595978451, 1527.7417335202376, -187500.02235174447, -84075.21505060376, -78197.33210770275, -59495.89574288079, -59230.08879781828, -81632.86228571681, -82949.44708936776, -0.022, 0.926, 0.404, 192.0, 127.5, 40.0, 14.0, 120.0, 6.0, 80.0, 0.0, 0.0, 0.0, 1.695415877882894E9, 0.0, 2023-09-22 15:51:17.882
170.0, -36740.456430966435, -15610.391272353087, -85433.82113383069, -80117.7045843249, -26821.512201012636, -54570.957073087346, -166768.7123142138, -72210.8420384934, 1510.44148331183, -187500.02235174447, -84085.45214956428, -78206.07163978477, -59497.70623418168, -59232.01104784144, -81639.70191952014, -82952.5316301026, -0.022, 0.926, 0.404, 192.0, 0.0, 0.0, 0.0, 0.0, 0.0, 0.0, 0.0, 0.0, 0.0, 1.695415877882897E9, 0.0, 2023-09-22 15:51:17.882
172.0, -36731.53808492876, -15604.490411816885, -85421.05828774671, -80108.6074243316, -26806.64829094986, -54561.97167181631, -166826.6256840975, -72196.58162553092, 1535.2742714016763, -187500.02235174447, -84076.77967271562, -78193.93464254554, -59494.06289983546, -59218.667056401624, -81631.3200153494, -82946.58606607748, -0.022, 0.926, 0.404, 192.0, 0.0, 0.0, 0.0, 0.0, 0.0, 0.0, 0.0, 0.0, 0.0, 1.695415877882901E9, 0.0, 2023-09-22 15:51:17.882
174.0, -36756.50498348534, -15625.076368460223, -85446.6733868925, -80136.97178804538, -26834.342102329985, -54580.92595111441, -166762.72204669978, -72218.21811416365, 1489.967285390769, -187500.02235174447, -84100.02548694915, -78216.12992478967, -59514.53709775652, -59240.97409736802, -81654.85640226083, -82970.16715647784, -0.022, 0.926, 0.404, 192.0, 0.0, 0.0, 0.0, 0.0, 0.0, 0.0, 0.0, 0.0, 0.0, 1.695415877882904E9, 0.0, 2023-09-22 15:51:17.882
176.0, -36731.76160237331, -15600.020062925823, -85412.94460450944, -80106.68517430844, -26791.20323553124, -54543.93381404088, -166847.3904546965, -72195.70990749716, 1528.9487277208243, -187500.02235174447, -84078.05372214958, -78200.39429669312, -59489.7937166445, -59223.04799831486, -81630.62711127129, -82950.56467659053, -0.022, 0.926, 0.404, 192.0, 0.0, 0.0, 0.0, 0.0, 0.0, 0.0, 0.0, 0.0, 0.0, 1.695415877882907E9, 0.0, 2023-09-22 15:51:17.882
178.0, -36741.171686789, -15613.162888665545, -85430.06604076219, -80122.82313380517, -26812.079764852497, -54556.495494424766, -166777.2730323402, -72194.07823015192, 1497.2986575721095, -187500.02235174447, -84082.70288499628, -78209.53616017535, -59492.45357423468, -59221.97511458101, -81627.9672536811, -82948.28479865608, -0.02, 0.926, 0.402, 192.0, 127.5, 48.0, 14.0, 120.0, 6.0, 72.0, 0.0, 0.0, 0.0, 1.69541587788291E9, 0.0, 2023-09-22 15:51:17.882
180.0, -36745.28440776878, -15612.939371220991, -85434.20111348643, -80123.09135473864, -26813.21970381972, -54561.6810991384, -166847.7257308633, -72194.03352666301, 1556.1955042118436, -187500.02235174447, -84087.53086179863, -78205.33403221775, -59502.422452261744, -59225.86431811623, -81641.89239047676, -82952.93396150279, -0.02, 0.926, 0.402, 192.0, 0.0, 0.0, 0.0, 0.0, 0.0, 0.0, 0.0, 0.0, 0.0, 1.695415877942514E9, 0.0, 2023-09-22 15:51:17.942
182.0, -36708.426381161975, -15582.250426083856, -85397.32073513517, -80100.06905794967, -26785.07885755049, -54546.481912908785, -166760.21865132079, -72176.2862415655, 1505.5464512761178, -187500.02235174447, -84074.85742269247, -78194.67225011256, -59488.385556743815, -59222.19863202556, -81629.04013741495, -82945.49083059917, -0.02, 0.926, 0.402, 192.0, 0.0, 0.0, 0.0, 0.0, 0.0, 0.0, 0.0, 0.0, 0.0, 1.695415877942525E9, 0.0, 2023-09-22 15:51:17.942
184.0, -36670.07078767667, -15544.140701787557, -85356.70761545988, -80071.36941806907, -26753.20526995722, -54512.52961308118, -166863.57311768213, -72152.01224708704, 1609.4597112488404, -187500.02235174447, -84028.18698026979, -78161.05522645179, -59453.09215224888, -59192.51551538891, -81594.7078579316, -82919.83102796448, -0.02, 0.926, 0.402, 192.0, 0.0, 0.0, 0.0, 0.0, 0.0, 0.0, 0.0, 0.0, 0.0, 1.695415877942529E9, 0.0, 2023-09-22 15:51:17.942
186.0, -36678.54209882523, -15554.958946103925, -85364.77659520824, -80077.11381639408, -26755.954534525223, -54518.3187148951, -166772.84738693803, -72155.20854654415, 1559.6153211135056, -187500.02235174447, -84009.74679109416, -78145.18548788852, -59431.07568396041, -59189.34156767626, -81572.7584448765, -82900.07208586599, -0.02, 0.926, 0.402, 192.0, 0.0, 0.0, 0.0, 0.0, 0.0, 0.0, 0.0, 0.0, 0.0, 1.695415877942533E9, 0.0, 2023-09-22 15:51:17.942
188.0, -36682.47600584936, -15550.600355935141, -85368.5987435101, -80077.82907221664, -26767.35392419743, -54524.13016845348, -166877.09592307758, -72167.56906122793, 1623.496606766773, -187500.02235174447, -84017.86047433144, -78152.2933426253, -59447.63832660179, -59183.351300162234, -81587.84587238383, -82911.82910344948, -0.026000000000000002, 0.93, 0.404, 192.0, 127.5, 24.0, 14.5, 8.0, 6.0, 80.0, 0.0, 0.0, 0.0, 1.695415877942537E9, 0.0, 2023-09-22 15:51:17.942
190.0, -36709.476913151375, -15578.875312671104, -85389.54232806472, -80098.0574009487, -26779.82619760349, -54542.927985540395, -166781.1622358754, -72174.67691596472, 1532.9943934672349, -187500.02235174447, -84024.32012847903, -78161.88224099664, -59447.59362311287, -59194.03543401187, -81587.30943051689, -82912.18673136077, -0.026000000000000002, 0.93, 0.404, 192.0, 0.0, 0.0, 0.0, 0.0, 0.0, 0.0, 0.0, 0.0, 0.0, 1.695415877942541E9, 0.0, 2023-09-22 15:51:17.942
192.0, -36721.300985968235, -15584.575007507206, -85399.08652294714, -80103.71239229589, -26796.411191989326, -54544.64906986345, -166863.8413386156, -72174.31928805343, 1591.8241848736031, -187500.02235174447, -84055.90314339437, -78188.45846515399, -59473.63340540331, -59209.68165513059, -81612.65630872922, -82930.89514146985, -0.026000000000000002, 0.93, 0.404, 192.0, 0.0, 0.0, 0.0, 0.0, 0.0, 0.0, 0.0, 0.0, 0.0, 1.695415877942544E9, 0.0, 2023-09-22 15:51:17.942
194.0, -36725.07843078118, -15594.186257622989, -85402.77456078227, -80105.14290394103, -26786.26350000662, -54542.25743320673, -166774.03202939418, -72179.01315438905, 1501.8807651854474, -187500.02235174447, -84055.03142536062, -78181.9541075175, -59478.01434731655, -59203.66903587211, -81607.5601109934, -82924.25667336663, -0.026000000000000002, 0.93, 0.404, 192.0, 0.0, 0.0, 0.0, 0.0, 0.0, 0.0, 0.0, 0.0, 0.0, 1.695415878003799E9, 0.0, 2023-09-22 15:51:18.003
196.0, -36717.523541155286, -15580.574045249707, -85394.99615371182, -80099.04087770473, -26788.051639563044, -54531.77446505719, -166871.55269045266, -72169.22309031762, 1564.4656496603072, -187500.02235174447, -84063.16746034235, -78182.66936334007, -59484.92103635324, -59205.81480333982, -81616.14318086424, -82931.09630716995, -0.026000000000000002, 0.93, 0.404, 192.0, 0.0, 0.0, 0.0, 0.0, 0.0, 0.0, 0.0, 0.0, 0.0, 1.695415878003817E9, 0.0, 2023-09-22 15:51:18.003
198.0, -36742.60219843414, -15616.247429400377, -85422.77937206977, -80135.45186942242, -26809.35285202895, -54558.12717177, -166796.80845699413, -72186.97037541514, 1502.5513175191068, -187500.02235174447, -84063.54743999809, -78182.64701159562, -59489.92782711123, -59215.35899822223, -81617.8642651873, -82928.95053970224, -0.03, 0.934, 0.402, 192.0, 127.5, 8.0, 14.5, 24.0, 6.0, 72.0, 0.0, 0.0, 0.0, 1.695415878003822E9, 0.0, 2023-09-22 15:51:18.003
200.0, -36721.926834812984, -15595.013272167835, -85403.24394741583, -80124.79008731725, -26803.094363581466, -54545.94547104186, -166880.9404231239, -72187.37270681534, 1565.3820711829749, -187500.02235174447, -84070.07414937904, -78197.5556251473, -59488.944350355196, -59226.66898091662, -81629.84480021535, -82947.32367364451, -0.03, 0.934, 0.402, 192.0, 0.0, 0.0, 0.0, 0.0, 0.0, 0.0, 0.0, 0.0, 0.0, 1.695415878003826E9, 0.0, 2023-09-22 15:51:18.003
202.0, -36745.15029730205, -15623.176470181523, -85419.18074121246, -80141.50919216982, -26815.16430558733, -54566.71024164084, -166821.84241078407, -72204.62825353483, 1515.9623641922908, -187500.02235174447, -84066.49787026619, -78199.12024725917, -59488.67612942173, -59222.95859133704, -81624.07805014588, -82944.2838363986, -0.03, 0.934, 0.402, 192.0, 0.0, 0.0, 0.0, 0.0, 0.0, 0.0, 0.0, 0.0, 0.0, 1.695415878003831E9, 0.0, 2023-09-22 15:51:18.003
204.0, -36761.15414633205, -15630.105510962667, -85449.91438983851, -80161.35754124612, -26852.670532783337, -54597.66740771144, -166859.70626589135, -72239.8993062853, 1552.663928587905, -187500.02235174447, -84088.44728332131, -78215.66053815611, -59504.43410926272, -59236.16847231013, -81651.88362024828, -82968.1331477324, -0.03, 0.934, 0.402, 192.0, 0.0, 0.0, 0.0, 0.0, 0.0, 0.0, 0.0, 0.0, 0.0, 1.695415878003836E9, 0.0, 2023-09-22 15:51:18.003
206.0, -36766.116233601126, -15644.38827566961, -85450.69670089445, -80169.62768669458, -26843.238096623194, -54601.66836996894, -166812.94641649086, -72241.10630048589, 1484.3569975324867, -187500.02235174447, -84113.32477490006, -78240.89565764615, -59531.792644476016, -59273.85351346178, -81683.62309737482, -83001.21372952625, -0.03, 0.934, 0.402, 192.0, 0.0, 0.0, 0.0, 0.0, 0.0, 0.0, 0.0, 0.0, 0.0, 1.695415878003841E9, 0.0, 2023-09-22 15:51:18.003
208.0, -36729.50407618333, -15606.74793800687, -85429.37313668408, -80152.8191748642, -26826.697805726268, -54584.301064527164, -166855.52648967822, -72215.06651819545, 1537.442390613841, -187500.02235174447, -84083.95458268578, -78218.16393353509, -59502.422452261744, -59253.9381091521, -81649.76020452502, -82976.62681062541, -0.022, 0.93, 0.4, 192.0, 127.5, 40.0, 14.5, 8.0, 6.0, 64.0, 0.0, 0.0, 0.0, 1.695415878003846E9, 0.0, 2023-09-22 15:51:18.003
210.0, -36730.867532595104, -15608.401967096564, -85408.27308991828, -80122.80078206072, -26806.35771827194, -54561.859913094035, -166837.8239080696, -72198.21330287616, 1542.0021464827237, -187500.02235174447, -84065.40263478788, -78199.36611644819, -59499.38261501582, -59237.30841127735, -81630.80592522693, -82957.80664179404, -0.022, 0.93, 0.4, 192.0, 0.0, 0.0, 0.0, 0.0, 0.0, 0.0, 0.0, 0.0, 0.0, 1.695415878063098E9, 0.0, 2023-09-22 15:51:18.063
212.0, -36724.05025053624, -15590.967606421425, -85406.61906082858, -80117.27990118026, -26810.425735762805, -54556.204921746845, -166838.74032959228, -72197.00630867557, 1558.8106583131146, -187500.02235174447, -84067.88367842241, -78194.8063605793, -59502.8918388953, -59229.59705944027, -81634.0692799174, -82954.69974931476, -0.022, 0.93, 0.4, 192.0, 0.0, 0.0, 0.0, 0.0, 0.0, 0.0, 0.0, 0.0, 0.0, 1.695415878063123E9, 0.0, 2023-09-22 15:51:18.063
214.0, -36688.019238474284, -15552.36614374711, -85353.69012995841, -80064.97681915484, -26749.025493744077, -54496.34695009553, -166875.75481841026, -72144.7255783946, 1560.4199839138967, -187500.02235174447, -84025.61652965743, -78149.34291235721, -59461.96579479764, -59184.42418389609, -81586.63887818324, -82903.76012370111, -0.022, 0.93, 0.4, 192.0, 0.0, 0.0, 0.0, 0.0, 0.0, 0.0, 0.0, 0.0, 0.0, 1.695415878063149E9, 0.0, 2023-09-22 15:51:18.063
216.0, -36690.0085437308, -15551.159149546524, -85373.4490720569, -80084.8475199756, -26778.39568595835, -54507.45576708982, -166857.00170481225, -72148.6818371632, 1574.6133416430166, -187500.02235174447, -84016.47466617521, -78141.02806341983, -59450.16407372524, -59157.155055660616, -81574.50188094401, -82888.69504793824, -0.022, 0.93, 0.4, 192.0, 0.0, 0.0, 0.0, 0.0, 0.0, 0.0, 0.0, 0.0, 0.0, 1.695415878063154E9, 0.0, 2023-09-22 15:51:18.063
218.0, -36674.22821214535, -15540.340905230154, -85355.85824917057, -80067.50256627829, -26762.794168328546, -54495.34112159504, -166895.3349465531, -72145.66435166173, 1575.730928865782, -187500.02235174447, -84014.17243649632, -78135.93186568402, -59453.27096620452, -59162.72064002999, -81582.66026767019, -82893.1653968293, -0.026000000000000002, 0.936, 0.4, 192.0, 127.5, 24.0, 14.5, 32.0, 6.0, 64.0, 0.0, 0.0, 0.0, 1.695415878063159E9, 0.0, 2023-09-22 15:51:18.063
220.0, -36689.65091581952, -15551.36031524662, -85386.23426988535, -80095.06226719168, -26794.131314054885, -54526.007714987725, -166843.635361628, -72163.56809897043, 1555.7708210671929, -187500.02235174447, -84016.56407315303, -78138.39055757411, -59459.10477150736, -59171.52722734538, -81590.19280555163, -82900.317955055, -0.026000000000000002, 0.936, 0.4, 192.0, 0.0, 0.0, 0.0, 0.0, 0.0, 0.0, 0.0, 0.0, 0.0, 1.695415878063165E9, 0.0, 2023-09-22 15:51:18.063
222.0, -36707.68877359495, -15574.449667268953, -85395.26437464528, -80111.93783425544, -26797.931110612288, -54542.905633795934, -166884.02496385874, -72188.75851497156, 1563.5939316265503, -187500.02235174447, -84035.5854076845, -78156.60722930518, -59480.964777584646, -59189.34156767626, -81604.3638115363, -82919.49575179766, -0.026000000000000002, 0.936, 0.4, 192.0, 0.0, 0.0, 0.0, 0.0, 0.0, 0.0, 0.0, 0.0, 0.0, 1.695415878063172E9, 0.0, 2023-09-22 15:51:18.063
224.0, -36706.615889861096, -15573.957928890935, -85396.67253454597, -80115.73763081284, -26801.753258914145, -54543.822055318604, -166814.77925953618, -72175.36982004283, 1519.6504020274165, -187500.02235174447, -84050.87400089193, -78176.41087489258, -59484.675167164234, -59208.65347488564, -81616.56786400889, -82937.13127817289, -0.026000000000000002, 0.936, 0.4, 192.0, 0.0, 0.0, 0.0, 0.0, 0.0, 0.0, 0.0, 0.0, 0.0, 1.69541587812318E9, 0.0, 2023-09-22 15:51:18.123
226.0, -36704.1124944821, -15567.542978232263, -85391.91161297698, -80104.89703475202, -26797.126447811897, -54530.5227673677, -166887.37772552704, -72175.10159910937, 1578.6366556449718, -187500.02235174447, -84038.91581760834, -78163.98330497544, -59476.78500137151, -59188.44749789804, -81612.27632907347, -82923.74258324417, -0.026000000000000002, 0.936, 0.4, 192.0, 0.0, 0.0, 0.0, 0.0, 0.0, 0.0, 0.0, 0.0, 0.0, 1.695415878123195E9, 0.0, 2023-09-22 15:51:18.123
228.0, -36719.892826067546, -15586.765478463827, -85411.5140928643, -80121.77260181578, -26805.240131049173, -54547.398334431455, -166797.92604421687, -72183.4387997912, 1515.53768104764, -187500.02235174447, -84048.97410261323, -78170.3535521452, -59491.648911434284, -59204.56310565032, -81616.09847737533, -82929.68814726928, -0.026000000000000002, 0.926, 0.402, 192.0, 127.5, 24.0, 14.0, 120.0, 6.0, 72.0, 0.0, 0.0, 0.0, 1.695415878123205E9, 0.0, 2023-09-22 15:51:18.123
230.0, -36738.914160599015, -15598.120164647124, -85425.50628489332, -80132.59084613215, -26822.763898702135, -54564.89975033996, -166866.74706539477, -72208.2939396255, 1571.2605799747205, -187500.02235174447, -84068.8895069229, -78183.83165405174, -59503.87531565134, -59207.60294289624, -81638.04789043045, -82945.91551374382, -0.026000000000000002, 0.926, 0.402, 192.0, 0.0, 0.0, 0.0, 0.0, 0.0, 0.0, 0.0, 0.0, 0.0, 1.695415878123211E9, 0.0, 2023-09-22 15:51:18.123
232.0, -36729.90640758353, -15592.867504700125, -85412.54227310924, -80131.85323856512, -26805.933035127287, -54560.31764272662, -166772.64622123793, -72192.75947722906, 1484.736977188227, -187500.02235174447, -84068.15189935589, -78181.59647960622, -59514.179469845236, -59215.89544008916, -81634.82923922889, -82950.38586263488, -0.026000000000000002, 0.926, 0.402, 192.0, 0.0, 0.0, 0.0, 0.0, 0.0, 0.0, 0.0, 0.0, 0.0, 1.695415878123217E9, 0.0, 2023-09-22 15:51:18.123
234.0, -36704.00073575982, -15569.979318377891, -85387.12833966356, -80105.07584870767, -26798.892235623865, -54535.64131684796, -166871.53033870822, -72167.43495076119, 1567.2596177172206, -187500.02235174447, -84048.41530900185, -78169.5041858559, -59493.749975413084, -59204.94308530606, -81616.29964307543, -82931.6774525258, -0.026000000000000002, 0.926, 0.402, 192.0, 0.0, 0.0, 0.0, 0.0, 0.0, 0.0, 0.0, 0.0, 0.0, 1.695415878123222E9, 0.0, 2023-09-22 15:51:18.123
236.0, -36729.63818665006, -15600.265932114833, -85418.57724411217, -80140.03397703577, -26824.68614872529, -54565.302081740156, -166767.5053200132, -72199.88968371031, 1497.5892302500285, -187500.02235174447, -84051.90218113687, -78169.86181376717, -59491.13482131181, -59215.604867411246, -81623.65336700123, -82935.43254559429, -0.026000000000000002, 0.926, 0.402, 192.0, 0.0, 0.0, 0.0, 0.0, 0.0, 0.0, 0.0, 0.0, 0.0, 1.695415878123227E9, 0.0, 2023-09-22 15:51:18.123
238.0, -36695.97645950037, -15561.083324084679, -85383.59676403961, -80105.96991848588, -26791.8737878649, -54527.818206288604, -166863.05902755965, -72163.99278211508, 1564.3315391935753, -187500.02235174447, -84064.0391783761, -78184.54690987432, -59501.64014120581, -59225.19376578257, -81634.58337003987, -82946.6307695664, -0.028, 0.928, 0.404, 192.0, 127.5, 16.0, 14.5, 0.0, 6.0, 80.0, 0.0, 0.0, 0.0, 1.695415878123232E9, 0.0, 2023-09-22 15:51:18.123
240.0, -36682.02897096026, -15552.07557106919, -85373.8514034571, -80098.39267711552, -26776.853415590933, -54520.486834107265, -166760.1068925985, -72159.6341919463, 1521.6397072839388, -187500.02235174447, -84018.88865457638, -78143.48675530992, -59459.73062035211, -59182.3678234062, -81591.9585933636, -82906.79996094704, -0.028, 0.928, 0.404, 192.0, 0.0, 0.0, 0.0, 0.0, 0.0, 0.0, 0.0, 0.0, 0.0, 1.695415878182709E9, 0.0, 2023-09-22 15:51:18.182
242.0, -36666.36039809709, -15531.467262681397, -85358.00401663828, -80082.72410425235, -26764.53760439606, -54503.32069436559, -166842.89775406098, -72142.44570046017, 1617.7075049528487, -187500.02235174447, -84011.84785507296, -78137.96587442946, -59454.70147784967, -59178.813896037806, -81587.756465406, -82904.78830394606, -0.028, 0.928, 0.404, 192.0, 0.0, 0.0, 0.0, 0.0, 0.0, 0.0, 0.0, 0.0, 0.0, 1.695415878182724E9, 0.0, 2023-09-22 15:51:18.182
244.0, -36658.76080498228, -15532.69660862644, -85347.85632465557, -80073.33637158113, -26752.691179834746, -54498.380958840964, -166761.5150524992, -72152.77220639851, 1552.8874460324582, -187500.02235174447, -83991.10543621844, -78115.94940614098, -59442.98916375508, -59161.87127374069, -81561.58257264884, -82881.45308273472, -0.028, 0.928, 0.404, 192.0, 0.0, 0.0, 0.0, 0.0, 0.0, 0.0, 0.0, 0.0, 0.0, 1.69541587818273E9, 0.0, 2023-09-22 15:51:18.182
246.0, -36670.29430512122, -15539.782111618772, -85366.60943825358, -80089.09435142211, -26775.914642323813, -54509.82505200208, -166826.31275967511, -72139.56232542543, 1616.120531096522, -187500.02235174447, -84009.09859050496, -78134.3895953166, -59459.90943430775, -59166.34162263175, -81584.85073862682, -82901.7708184446, -0.028, 0.928, 0.404, 192.0, 0.0, 0.0, 0.0, 0.0, 0.0, 0.0, 0.0, 0.0, 0.0, 1.695415878182735E9, 0.0, 2023-09-22 15:51:18.182
248.0, -36697.45167463442, -15574.248501568854, -85390.36934260957, -80112.51897961128, -26787.44814246275, -54532.154444712934, -166738.22453477676, -72166.13854958279, 1528.3228788760757, -187500.02235174447, -84019.82742784351, -78146.37013034464, -59463.351602953866, -59187.77694556439, -81584.64957292672, -82900.47441726619, -0.026000000000000002, 0.932, 0.402, 192.0, 127.5, 24.0, 14.5, 16.0, 6.0, 72.0, 0.0, 0.0, 0.0, 1.695415878182741E9, 0.0, 2023-09-22 15:51:18.182
250.0, -36681.89486049353, -15548.387533234065, -85377.42768256995, -80101.65603180601, -26781.72609588219, -54518.00579047272, -166803.75984951973, -72159.00834310155, 1571.21587648581, -187500.02235174447, -84035.31718675104, -78163.46921485296, -59478.55078918348, -59204.697216117056, -81604.02853536946, -82920.99331867616, -0.026000000000000002, 0.932, 0.402, 192.0, 0.0, 0.0, 0.0, 0.0, 0.0, 0.0, 0.0, 0.0, 0.0, 1.695415878182747E9, 0.0, 2023-09-22 15:51:18.182
252.0, -36695.23885193335, -15565.12898983109, -85378.12058664806, -80107.19926443092, -26772.49482542215, -54527.97466849979, -166740.79498538913, -72150.35821799735, 1518.2422421267322, -187500.02235174447, -84024.07425929002, -78153.65679903708, -59463.061030275945, -59200.53979164837, -81585.16366304918, -82908.34223131445, -0.026000000000000002, 0.932, 0.402, 192.0, 0.0, 0.0, 0.0, 0.0, 0.0, 0.0, 0.0, 0.0, 0.0, 1.695415878182752E9, 0.0, 2023-09-22 15:51:18.182
254.0, -36692.69075306544, -15560.010440350825, -85383.7532262508, -80112.36251740009, -26791.270290764605, -54540.35753492803, -166779.8211312081, -72178.27554682203, 1567.5501903951397, -187500.02235174447, -84026.60000641347, -78161.88224099664, -59466.95023381117, -59205.83715508428, -81595.1548928207, -82920.23335936468, -0.026000000000000002, 0.932, 0.402, 192.0, 0.0, 0.0, 0.0, 0.0, 0.0, 0.0, 0.0, 0.0, 0.0, 1.695415878242537E9, 0.0, 2023-09-22 15:51:18.242
0.0, -36701.229119447366, -15572.505065501342, -85383.17208089496, -80106.05932546369, -26782.01666856011, -54534.546081369655, -166742.96310460128, -72162.51756698103, 1532.1450271779331, -187500.02235174447, -84030.9362448378, -78166.3972933766, -59473.63340540331, -59208.65347488564, -81594.61845095379, -82922.75910648813, -0.026000000000000002, 0.932, 0.402, 192.0, 0.0, 0.0, 0.0, 0.0, 0.0, 0.0, 0.0, 0.0, 0.0, 1.695415878242557E9, 0.0, 2023-09-22 15:51:18.242
2.0, -36669.24377313182, -15534.954134816426, -85363.10021437409, -80080.66774376247, -26767.465682919705, -54505.19824089983, -166767.12534035748, -72130.93455206568, 1560.0847077470671, -187500.02235174447, -84032.92555009433, -78162.93277298604, -59477.880236849815, -59203.40081493865, -81596.27248004348, -82915.09245813996, -0.026000000000000002, 0.932, 0.406, 192.0, 127.5, 24.0, 14.5, 16.0, 6.0, 88.0, 0.0, 0.0, 0.0, 1.695415878242562E9, 0.0, 2023-09-22 15:51:18.242
4.0, -36679.011485458796, -15552.03086758028, -85368.77755746574, -80084.62400253105, -26764.939935796254, -54510.78617701366, -166765.22544207878, -72139.07058704742, 1559.347100180042, -187500.02235174447, -83990.85956702943, -78122.7890399443, -59434.07081771742, -59163.52530283038, -81556.77694759094, -82874.83696637595, -0.026000000000000002, 0.932, 0.406, 192.0, 0.0, 0.0, 0.0, 0.0, 0.0, 0.0, 0.0, 0.0, 0.0, 1.695415878242567E9, 0.0, 2023-09-22 15:51:18.242
6.0, -36682.699523293915, -15549.50512045683, -85381.47334831636, -80084.4004850865, -26787.31403199602, -54523.414912630906, -166752.19437506134, -72159.38832275728, 1553.5132948772068, -187500.02235174447, -84031.87501810493, -78163.17864217504, -59469.855960590365, -59205.39012019517, -81593.92554687566, -82912.7678767166, -0.026000000000000002, 0.932, 0.406, 192.0, 0.0, 0.0, 0.0, 0.0, 0.0, 0.0, 0.0, 0.0, 0.0, 1.695415878242572E9, 0.0, 2023-09-22 15:51:18.242
8.0, -36693.540119354744, -15562.2232630519, -85386.63660128553, -80084.31107810869, -26784.83298836148, -54526.74532255475, -166768.7570177027, -72157.5331279675, 1555.8825797894692, -187500.02235174447, -84019.91683482133, -78150.72872051343, -59466.12321926632, -59190.54856187684, -81580.98388683604, -82898.39570503184, -0.026000000000000002, 0.932, 0.406, 192.0, 0.0, 0.0, 0.0, 0.0, 0.0, 0.0, 0.0, 0.0, 0.0, 1.695415878242576E9, 0.0, 2023-09-22 15:51:18.242
10.0, -36692.9589739989, -15561.46330374042, -85396.42666535696, -80089.67549677796, -26798.758125157136, -54534.41197090292, -166744.34891275753, -72175.50393050957, 1537.8670737584919, -187500.02235174447, -84029.63984365939, -78161.52461308535, -59468.82778034542, -59198.84105906976, -81589.36579100679, -82904.25186207914, -0.026000000000000002, 0.932, 0.406, 192.0, 0.0, 0.0, 0.0, 0.0, 0.0, 0.0, 0.0, 0.0, 0.0, 1.695415878242581E9, 0.0, 2023-09-22 15:51:18.242
12.0, -36707.15233172802, -15579.03177488229, -85406.35083989511, -80088.98259269985, -26799.07104957951, -54538.18941571587, -166772.53446251567, -72157.15314831176, 1563.079841504078, -187500.02235174447, -84044.0343670886, -78169.5488893448, -59479.62367291733, -59209.167565008116, -81592.33857301934, -82909.70568772622, -0.02, 0.92, 0.41000000000000003, 192.0, 127.5, 48.0, 14.0, 96.0, 6.0, 104.0, 0.0, 0.0, 0.0, 1.695415878242586E9, 0.0, 2023-09-22 15:51:18.242
14.0, -36687.30398265171, -15561.910338629526, -85396.98545896834, -80079.7513222398, -26798.8251803905, -54535.238985447766, -166715.8057350881, -72164.21629955963, 1536.0789342020673, -187500.02235174447, -84058.98768412921, -78179.11543597167, -59491.40304224528, -59220.4775477025, -81604.49792200302, -82919.49575179766, -0.02, 0.92, 0.41000000000000003, 192.0, 0.0, 0.0, 0.0, 0.0, 0.0, 0.0, 0.0, 0.0, 0.0, 1.695415878302894E9, 0.0, 2023-09-22 15:51:18.302
16.0, -36633.88331340353, -15514.278771195266, -85338.06626058415, -80018.4404871989, -26740.42007212878, -54484.03113890066, -166801.43526809636, -72106.43704014267, 1606.218708302821, -187500.02235174447, -84012.76427659563, -78132.22147610445, -59441.93863176568, -59171.683689556565, -81562.96838080506, -82878.815576889, -0.02, 0.92, 0.41000000000000003, 192.0, 0.0, 0.0, 0.0, 0.0, 0.0, 0.0, 0.0, 0.0, 0.0, 1.695415878302918E9, 0.0, 2023-09-22 15:51:18.302
18.0, -36645.7520897093, -15523.577096888674, -85352.37137703555, -80032.94676935038, -26762.369485183895, -54501.64431353144, -166749.28864828215, -72131.04631078796, 1593.4558622188406, -187500.02235174447, -83982.14238669186, -78100.95138561146, -59409.238029627566, -59142.402904320115, -81527.65262456569, -82843.99155902762, -0.02, 0.92, 0.41000000000000003, 192.0, 0.0, 0.0, 0.0, 0.0, 0.0, 0.0, 0.0, 0.0, 0.0, 1.695415878302923E9, 0.0, 2023-09-22 15:51:18.302
20.0, -36658.2020113709, -15533.031884793269, -85358.51810676076, -80043.9885311113, -26769.05265677603, -54506.360531611506, -166834.2252772123, -72138.28827599148, 1622.244909077276, -187500.02235174447, -84012.69722136226, -78126.63353999061, -59448.71121033564, -59167.079230198775, -81562.96838080506, -82875.77573964307, -0.02, 0.92, 0.41000000000000003, 192.0, 0.0, 0.0, 0.0, 0.0, 0.0, 0.0, 0.0, 0.0, 0.0, 1.695415878302929E9, 0.0, 2023-09-22 15:51:18.302
22.0, -36676.53044182425, -15558.93755661697, -85386.72600826336, -80066.11675812207, -26789.750372141647, -54535.21663370331, -166748.99807560424, -72166.3844187718, 1541.2421871712431, -187500.02235174447, -84036.94886409627, -78152.36039785868, -59469.40892570125, -59192.806088066834, -81573.71956988807, -82891.19844331723, -0.026000000000000002, 0.92, 0.41000000000000003, 192.0, 127.5, 24.0, 14.0, 96.0, 6.0, 104.0, 0.0, 0.0, 0.0, 1.695415878302935E9, 0.0, 2023-09-22 15:51:18.302
24.0, -36665.13105215205, -15542.017286064302, -85369.40340631049, -80048.45888000238, -26773.321839966997, -54510.60736305802, -166856.01822805623, -72131.13571776578, 1602.083635578589, -187500.02235174447, -84031.29387274908, -78146.34777860019, -59459.44004767419, -59190.05682349883, -81566.14232851772, -82885.02936184757, -0.026000000000000002, 0.92, 0.41000000000000003, 192.0, 0.0, 0.0, 0.0, 0.0, 0.0, 0.0, 0.0, 0.0, 0.0, 1.695415878302941E9, 0.0, 2023-09-22 15:51:18.302
26.0, -36663.43231957344, -15543.403094220532, -85381.71921750536, -80063.05456913168, -26785.92822383979, -54521.4703108633, -166772.5568142601, -72142.64686616026, 1526.5794428085617, -187500.02235174447, -84035.25013151766, -78146.01250243337, -59459.86473081884, -59185.09473622975, -81573.74192163252, -82884.42586474727, -0.026000000000000002, 0.92, 0.41000000000000003, 192.0, 0.0, 0.0, 0.0, 0.0, 0.0, 0.0, 0.0, 0.0, 0.0, 1.695415878302947E9, 0.0, 2023-09-22 15:51:18.302
28.0, -36685.158215184005, -15566.514797987318, -85378.61232502609, -80066.47438603335, -26786.285851751072, -54532.33325866858, -166869.85395787406, -72162.45051174767, 1606.2857635361868, -187500.02235174447, -84043.1402973104, -78156.40606360509, -59467.397268700275, -59200.78566083738, -81581.90030835872, -82899.3121265545, -0.026000000000000002, 0.92, 0.41000000000000003, 192.0, 0.0, 0.0, 0.0, 0.0, 0.0, 0.0, 0.0, 0.0, 0.0, 1.695415878363112E9, 0.0, 2023-09-22 15:51:18.363
30.0, -36705.498302638334, -15594.432126811997, -85403.42276137148, -80096.91746198147, -26808.68229969529, -54560.09412528207, -166775.3060788281, -72169.75953218454, 1512.7213612462715, -187500.02235174447, -84051.76807067014, -78168.72187479996, -59469.90066407927, -59211.134518520186, -81584.56016594889, -82905.23533883516, -0.026000000000000002, 0.92, 0.41000000000000003, 192.0, 0.0, 0.0, 0.0, 0.0, 0.0, 0.0, 0.0, 0.0, 0.0, 1.695415878363143E9, 0.0, 2023-09-22 15:51:18.363
32.0, -36677.536270324745, -15565.956004375936, -85377.74060699232, -80074.6998279929, -26788.386915729872, -54530.43336038988, -166879.35344926757, -72160.43885474668, 1576.0215015437009, -187500.02235174447, -84059.30060855158, -78184.9045377856, -59487.82676313243, -59223.76325413743, -81600.3628492788, -82924.18961813327, -0.024, 0.912, 0.41400000000000003, 192.0, 127.5, 32.0, 14.0, 64.0, 6.0, 120.0, 0.0, 0.0, 0.0, 1.695415878363147E9, 0.0, 2023-09-22 15:51:18.363
34.0, -36680.28553489275, -15573.354431790644, -85380.7580924938, -80077.40438907199, -26780.407342959326, -54525.56068009862, -166811.78412577917, -72150.67114241971, 1520.9691549502797, -187500.02235174447, -84031.31622449354, -78159.46825259546, -59460.557634896955, -59195.13066949018, -81571.57380242036, -82890.70670493922, -0.024, 0.912, 0.41400000000000003, 192.0, 0.0, 0.0, 0.0, 0.0, 0.0, 0.0, 0.0, 0.0, 0.0, 1.695415878363151E9, 0.0, 2023-09-22 15:51:18.363
36.0, -36687.12516869607, -15572.773286434805, -85397.23132815734, -80096.69394453692, -26804.59193045997, -54541.4751221508, -166903.38157455702, -72169.9830496291, 1596.3168855091199, -187500.02235174447, -84055.74668118318, -78184.59161336323, -59472.225245502625, -59211.29098073137, -81598.23943355554, -82912.49965578315, -0.024, 0.912, 0.41400000000000003, 192.0, 0.0, 0.0, 0.0, 0.0, 0.0, 0.0, 0.0, 0.0, 0.0, 1.695415878363154E9, 0.0, 2023-09-22 15:51:18.363
38.0, -36697.518729867785, -15591.638158755084, -85405.52382535028, -80101.05253470571, -26814.225532320208, -54552.44982867836, -166820.05427122765, -72174.54280549799, 1515.5600327920954, -187500.02235174447, -84057.46776550624, -78179.00367724939, -59478.371975227834, -59218.24237325697, -81600.83223591236, -82913.1255046279, -0.024, 0.912, 0.41400000000000003, 192.0, 0.0, 0.0, 0.0, 0.0, 0.0, 0.0, 0.0, 0.0, 0.0, 1.695415878363158E9, 0.0, 2023-09-22 15:51:18.363
40.0, -36713.85785506461, -15601.718795504428, -85415.64916558852, -80118.9562820144, -26826.02725339261, -54573.192247532876, -166874.70428642086, -72200.53788429951, 1578.1672690114106, -187500.02235174447, -84073.80689070307, -78203.25531998341, -59497.23684754811, -59235.20734729855, -81619.47359078808, -82936.21485665023, -0.024, 0.912, 0.41400000000000003, 192.0, 0.0, 0.0, 0.0, 0.0, 0.0, 0.0, 0.0, 0.0, 0.0, 1.695415878363161E9, 0.0, 2023-09-22 15:51:18.363
42.0, -36702.10083748112, -15596.622597768617, -85389.2070518979, -80101.8571975061, -26796.075915822497, -54547.465389664816, -166810.33126238958, -72173.96166014214, 1516.342343848031, -187500.02235174447, -84071.16938485735, -78208.08329678576, -59500.56725747196, -59240.86233864574, -81604.85554991431, -82935.7231182722, -0.03, 0.916, 0.41400000000000003, 192.0, 127.5, 8.0, 14.0, 80.0, 6.0, 120.0, 0.0, 0.0, 0.0, 1.695415878363164E9, 0.0, 2023-09-22 15:51:18.363
44.0, -36701.67615433647, -15593.359243078143, -85392.26924088827, -80111.98253774435, -26807.855285150443, -54552.360421700534, -166862.07555080362, -72172.0841136079, 1586.1244900374998, -187500.02235174447, -84056.68545445031, -78198.02501178086, -59472.80639085846, -59232.97217285302, -81594.28317478695, -82919.96513843122, -0.03, 0.916, 0.41400000000000003, 192.0, 0.0, 0.0, 0.0, 0.0, 0.0, 0.0, 0.0, 0.0, 0.0, 1.695415878423354E9, 0.0, 2023-09-22 15:51:18.423
46.0, -36687.88512800755, -15579.590568493673, -85369.35870282158, -80086.74741825431, -26777.971002813698, -54523.8172440311, -166821.55183810616, -72152.57104069841, 1539.3869923814527, -187500.02235174447, -84047.61064620146, -78190.31365994379, -59467.84430358939, -59220.74576863596, -81581.38621823624, -82911.18090286027, -0.03, 0.916, 0.41400000000000003, 192.0, 0.0, 0.0, 0.0, 0.0, 0.0, 0.0, 0.0, 0.0, 0.0, 1.695415878423366E9, 0.0, 2023-09-22 15:51:18.423
48.0, -36661.13008989455, -15542.263155253311, -85352.70665320237, -80066.76495871127, -26762.794168328546, -54502.650142031925, -166868.9375363514, -72125.79365084096, 1582.436452202374, -187500.02235174447, -84028.79047737009, -78165.77144453186, -59447.92889927971, -59198.729300347484, -81563.16954650516, -82892.22662356218, -0.03, 0.916, 0.41400000000000003, 192.0, 0.0, 0.0, 0.0, 0.0, 0.0, 0.0, 0.0, 0.0, 0.0, 1.695415878423378E9, 0.0, 2023-09-22 15:51:18.423
50.0, -36708.87341605108, -15601.763498993338, -85400.42762761447, -80112.1613517, -26814.136125342386, -54557.523674669705, -166830.9172190329, -72176.06272412094, 1556.3519664230307, -187500.02235174447, -84025.21419825724, -78159.31179038428, -59459.26123371855, -59195.33183519028, -81569.4056832082, -82890.32672528348, -0.03, 0.916, 0.41400000000000003, 192.0, 0.0, 0.0, 0.0, 0.0, 0.0, 0.0, 0.0, 0.0, 0.0, 1.695415878423382E9, 0.0, 2023-09-22 15:51:18.423
52.0, -36716.07067776569, -15603.618693783128, -85415.20213069941, -80125.28182569526, -26838.723044243223, -54576.27678826771, -166812.43232636838, -72197.56510228696, 1544.1926174393436, -187500.02235174447, -84082.12173964045, -78215.95111083402, -59511.229039577134, -59254.27338531893, -81633.77870723949, -82953.85038302546, -0.034, 0.918, 0.41600000000000004, 192.0, 127.0, 120.0, 14.0, 88.0, 6.5, 0.0, 0.0, 0.0, 0.0, 1.695415878423386E9, 0.0, 2023-09-22 15:51:18.423
54.0, -36711.287404452254, -15604.490411816885, -85398.19245316893, -80121.2585116933, -26817.53359049959, -54568.27486375271, -166794.4168203374, -72189.71963998314, 1519.7398090052377, -187500.02235174447, -84063.12275685344, -78196.63920362464, -59504.36705402935, -59239.02949560041, -81616.45610528662, -82937.95829271774, -0.034, 0.918, 0.41600000000000004, 192.0, 0.0, 0.0, 0.0, 0.0, 0.0, 0.0, 0.0, 0.0, 0.0, 1.695415878423389E9, 0.0, 2023-09-22 15:51:18.423
56.0, -36694.92592751097, -15585.960815663437, -85394.95145022291, -80115.02237499028, -26820.26050332314, -54568.09604979707, -166762.52088099968, -72183.95288991366, 1521.3267828615647, -187500.02235174447, -84056.84191666149, -78186.53621513084, -59487.55854219897, -59238.649515944664, -81609.68352671666, -82938.0253479511, -0.034, 0.918, 0.41600000000000004, 192.0, 0.0, 0.0, 0.0, 0.0, 0.0, 0.0, 0.0, 0.0, 0.0, 1.695415878423393E9, 0.0, 2023-09-22 15:51:18.423
58.0, -36710.102761996124, -15601.696443759973, -85399.13122643605, -80120.65501459301, -26822.294512068573, -54567.738421885784, -166772.17683460438, -72191.97716617312, 1540.2587104152096, -187500.02235174447, -84050.76224216966, -78182.73641857343, -59488.094984065894, -59237.688390933086, -81608.11890460478, -82930.40340309184, -0.034, 0.918, 0.41600000000000004, 192.0, 0.0, 0.0, 0.0, 0.0, 0.0, 0.0, 0.0, 0.0, 0.0, 1.695415878483765E9, 0.0, 2023-09-22 15:51:18.483
60.0, -36727.73828837136, -15615.889801489093, -85422.7123168364, -80146.82890735018, -26849.004846692664, -54596.59452397758, -166696.85145579, -72226.48825961212, 1504.3618088199864, -187500.02235174447, -84075.43856804831, -78212.26307299889, -59515.18529834572, -59252.976984140514, -81636.7738409965, -82960.37709240642, -0.034, 0.918, 0.41600000000000004, 192.0, 0.0, 0.0, 0.0, 0.0, 0.0, 0.0, 0.0, 0.0, 0.0, 1.695415878483779E9, 0.0, 2023-09-22 15:51:18.483
62.0, -36698.569261857185, -15589.09005988718, -85385.0049239403, -80110.75319179932, -26815.901913154354, -54562.217541005324, -166737.50927895418, -72181.60595674586, 1528.4569893428074, -187500.02235174447, -84051.00811135866, -78197.9579565475, -59496.409833003265, -59250.25007131697, -81619.45123904363, -82945.53553408808, -0.038, 0.922, 0.418, 192.0, 127.0, 104.0, 14.0, 104.0, 6.5, 8.0, 0.0, 0.0, 0.0, 1.695415878483783E9, 0.0, 2023-09-22 15:51:18.483
64.0, -36717.18826498846, -15610.65949328655, -85407.28961316224, -80134.20017173293, -26842.679303011813, -54584.99396860528, -166659.99342918317, -72213.01015770558, 1484.9828463772353, -187500.02235174447, -84060.57465798553, -78206.83159909626, -59517.800452446994, -59261.69416447809, -81635.25392237354, -82956.19731619327, -0.038, 0.922, 0.418, 192.0, 0.0, 0.0, 0.0, 0.0, 0.0, 0.0, 0.0, 0.0, 0.0, 1.695415878483786E9, 0.0, 2023-09-22 15:51:18.483
66.0, -36691.19318618694, -15578.830609182192, -85364.86600218607, -80098.59384281562, -26799.540436213072, -54548.33710769858, -166736.05641556458, -72177.60499448836, 1535.3636783794975, -187500.02235174447, -84028.38814596989, -78175.38269464763, -59479.44485896169, -59231.474605974516, -81604.02853536946, -82932.3703566039, -0.038, 0.922, 0.418, 192.0, 0.0, 0.0, 0.0, 0.0, 0.0, 0.0, 0.0, 0.0, 0.0, 1.69541587848379E9, 0.0, 2023-09-22 15:51:18.483
68.0, -36722.8656080801, -15611.151231664568, -85412.09523822014, -80144.59373290464, -26845.36151234645, -54589.33020702961, -166629.55035323507, -72215.58060831793, 1486.703930700294, -187500.02235174447, -84038.42407923032, -78189.3078314433, -59476.51678043804, -59246.36086778175, -81605.30258480342, -82939.16528691832, -0.038, 0.922, 0.418, 192.0, 0.0, 0.0, 0.0, 0.0, 0.0, 0.0, 0.0, 0.0, 0.0, 1.695415878483793E9, 0.0, 2023-09-22 15:51:18.483
70.0, -36722.485628424365, -15613.94519972148, -85416.47618013337, -80148.75115737334, -26852.46936708324, -54596.66157921095, -166670.00701069916, -72215.91588448476, 1538.0682394585897, -187500.02235174447, -84069.7388732122, -78223.95303534903, -59514.22417333414, -59274.166437884145, -81645.20044865613, -82973.13993849039, -0.038, 0.922, 0.418, 192.0, 0.0, 0.0, 0.0, 0.0, 0.0, 0.0, 0.0, 0.0, 0.0, 1.695415878483796E9, 0.0, 2023-09-22 15:51:18.483
72.0, -36692.93662225445, -15586.787830208283, -85400.94171773693, -80117.57047385818, -26834.45386105226, -54570.48768645379, -166568.574794361, -72192.96064292916, 1482.5241544871515, -187500.02235174447, -84046.58246595651, -78200.39429669312, -59504.90349589628, -59257.737905709495, -81626.9614251806, -82951.14582194637, -0.026000000000000002, 0.918, 0.41600000000000004, 192.0, 127.5, 24.0, 14.0, 88.0, 6.5, 0.0, 0.0, 0.0, 0.0, 1.6954158784838E9, 0.0, 2023-09-22 15:51:18.483
74.0, -36666.04747367471, -15551.539129202263, -85372.44324355641, -80082.03120017424, -26802.759087414634, -54526.83472953257, -166654.15962388035, -72151.72167440911, 1580.9165335794132, -187500.02235174447, -84024.74481162368, -78173.21457543547, -59487.469135221145, -59226.95955359454, -81608.94591914963, -82920.72509774269, -0.026000000000000002, 0.918, 0.41600000000000004, 192.0, 0.0, 0.0, 0.0, 0.0, 0.0, 0.0, 0.0, 0.0, 0.0, 1.695415878542612E9, 0.0, 2023-09-22 15:51:18.542
76.0, -36662.15827013949, -15557.171768805001, -85371.5938772671, -80079.12547339505, -26796.880578622888, -54527.54998535514, -166563.1656722028, -72154.47093897712, 1516.767026992682, -187500.02235174447, -84006.25991895914, -78147.46536582297, -59470.39240245729, -59185.586474607764, -81587.22002353908, -82893.47832125168, -0.026000000000000002, 0.918, 0.41600000000000004, 192.0, 0.0, 0.0, 0.0, 0.0, 0.0, 0.0, 0.0, 0.0, 0.0, 1.695415878542625E9, 0.0, 2023-09-22 15:51:18.542
78.0, -36656.32446483665, -15547.35935298912, -85357.60168523809, -80072.5987640141, -26789.862130863923, -54520.15155794044, -166661.11101640595, -72140.25522950354, 1593.8805453634914, -187500.02235174447, -84010.6855643613, -78149.9464094575, -59459.797675585476, -59193.09666074475, -81584.31429675988, -82898.57451898749, -0.026000000000000002, 0.918, 0.41600000000000004, 192.0, 0.0, 0.0, 0.0, 0.0, 0.0, 0.0, 0.0, 0.0, 0.0, 1.695415878542629E9, 0.0, 2023-09-22 15:51:18.542
80.0, -36686.43226461796, -15577.51185625933, -85382.63563902804, -80102.86302600658, -26807.788229917078, -54552.74040135627, -166557.6671430668, -72182.8353026909, 1504.9206024313692, -187500.02235174447, -84018.66513713183, -78158.23890665041, -59462.21166398664, -59206.23948648447, -81582.81672988138, -82903.313088812, -0.026000000000000002, 0.918, 0.41600000000000004, 192.0, 0.0, 0.0, 0.0, 0.0, 0.0, 0.0, 0.0, 0.0, 0.0, 1.695415878542632E9, 0.0, 2023-09-22 15:51:18.542
82.0, -36700.71502932489, -15583.949158662459, -85392.76097926628, -80116.96697675789, -26824.7308522142, -54562.1281340275, -166618.03920484058, -72178.27554682203, 1572.5569811531284, -187500.02235174447, -84054.5396869826, -78197.77914259185, -59497.01333010356, -59243.566899724836, -81622.33461407837, -82943.97091197621, -0.034, 0.924, 0.41400000000000003, 192.0, 127.0, 120.0, 14.0, 112.0, 6.0, 120.0, 0.0, 0.0, 0.0, 1.695415878542636E9, 0.0, 2023-09-22 15:51:18.542
84.0, -36725.79368660375, -15618.102624190167, -85418.53254062326, -80139.81045959122, -26833.872715696423, -54585.284541283196, -166499.6420144608, -72203.64477677879, 1480.9371806308247, -187500.02235174447, -84050.04698634708, -78198.65086062561, -59490.66543467825, -59247.6349172157, -81610.10820986131, -82934.2255513937, -0.034, 0.924, 0.41400000000000003, 192.0, 0.0, 0.0, 0.0, 0.0, 0.0, 0.0, 0.0, 0.0, 0.0, 1.695415878542639E9, 0.0, 2023-09-22 15:51:18.542
86.0, -36686.2087471734, -15574.673184713505, -85383.03797042822, -80101.87954925056, -26808.704651439748, -54546.03487801968, -166571.7263903292, -72171.12298859633, 1545.6231290844835, -187500.02235174447, -84060.97698938573, -78212.55364567682, -59503.20476331768, -59262.3870685562, -81623.38514606777, -82944.37324337641, -0.034, 0.924, 0.41400000000000003, 192.0, 0.0, 0.0, 0.0, 0.0, 0.0, 0.0, 0.0, 0.0, 0.0, 1.695415878542642E9, 0.0, 2023-09-22 15:51:18.542
88.0, -36706.347668927636, -15606.390310095587, -85399.04181945823, -80120.38679365955, -26817.9806253887, -54562.19518926087, -166493.47293299116, -72189.04908764947, 1503.1995181083105, -187500.02235174447, -84026.1306197799, -78179.33895341623, -59475.39919321528, -59236.32493452131, -81593.23264279755, -82912.67846973878, -0.034, 0.924, 0.41400000000000003, 192.0, 0.0, 0.0, 0.0, 0.0, 0.0, 0.0, 0.0, 0.0, 0.0, 1.695415878602821E9, 0.0, 2023-09-22 15:51:18.602
90.0, -36713.83550332016, -15605.13861240609, -85405.41206662799, -80125.63945360655, -26829.759994716645, -54574.04161382218, -166553.4650151092, -72201.45430582218, 1561.761088581215, -187500.02235174447, -84054.65144570488, -78206.96570956298, -59499.47202199364, -59261.00126039997, -81621.73111697807, -82944.19442942076, -0.034, 0.924, 0.41400000000000003, 192.0, 0.0, 0.0, 0.0, 0.0, 0.0, 0.0, 0.0, 0.0, 0.0, 1.695415878602835E9, 0.0, 2023-09-22 15:51:18.602
92.0, -36731.94041632896, -15623.221173670432, -85407.37902014006, -80133.41786067699, -26828.21772434923, -54575.44977372287, -166491.1930550567, -72195.95577668617, 1493.3200470590648, -187500.02235174447, -84057.62422771743, -78211.05607879831, -59492.58768470141, -59252.217024829035, -81620.65823324422, -82943.12154568691, -0.034, 0.918, 0.41400000000000003, 192.0, 127.0, 120.0, 14.0, 88.0, 6.0, 120.0, 0.0, 0.0, 0.0, 1.695415878602839E9, 0.0, 2023-09-22 15:51:18.602
94.0, -36719.78106734527, -15609.51955431933, -85411.04470623074, -80133.35080544362, -26846.07676816902, -54575.51682895623, -166533.59431428844, -72204.49414306809, 1554.6755855888828, -187500.02235174447, -84063.07805336453, -78212.97832882147, -59503.20476331768, -59255.502731263965, -81633.93516945066, -82950.87760101291, -0.034, 0.918, 0.41400000000000003, 192.0, 0.0, 0.0, 0.0, 0.0, 0.0, 0.0, 0.0, 0.0, 0.0, 1.695415878602842E9, 0.0, 2023-09-22 15:51:18.602
96.0, -36699.128055468565, -15597.09198440218, -85385.51901406277, -80107.26631966428, -26817.868866666424, -54553.813285090124, -166499.3961452718, -72187.95385217117, 1515.895308958925, -187500.02235174447, -84047.16361131235, -78196.77331409136, -59504.76938542955, -59230.80405364085, -81622.73694547855, -82937.80183050655, -0.034, 0.918, 0.41400000000000003, 192.0, 0.0, 0.0, 0.0, 0.0, 0.0, 0.0, 0.0, 0.0, 0.0, 1.695415878602846E9, 0.0, 2023-09-22 15:51:18.602
98.0, -36712.02501201928, -15601.42822282651, -85411.5140928643, -80131.3167966982, -26851.105910671464, -54577.9308173574, -166512.47191577815, -72202.61659653386, 1559.5259141356844, -187500.02235174447, -84032.4338117163, -78183.451674396, -59485.34571949789, -59221.99746632546, -81614.93618666366, -82927.36356584592, -0.034, 0.918, 0.41400000000000003, 192.0, 0.0, 0.0, 0.0, 0.0, 0.0, 0.0, 0.0, 0.0, 0.0, 1.695415878602849E9, 0.0, 2023-09-22 15:51:18.602
100.0, -36711.60032887463, -15601.89760946007, -85397.656011302, -80118.73276456985, -26838.097195398474, -54565.65970965144, -166493.4505812467, -72191.95481442867, 1534.8495882570253, -187500.02235174447, -84051.74571892568, -78197.91325305859, -59508.368016286855, -59237.621335699725, -81632.72817525009, -82941.89219974187, -0.034, 0.918, 0.41400000000000003, 192.0, 0.0, 0.0, 0.0, 0.0, 0.0, 0.0, 0.0, 0.0, 0.0, 1.695415878602852E9, 0.0, 2023-09-22 15:51:18.602
102.0, -36709.8121893182, -15599.75184199236, -85401.41110437049, -80140.14573575804, -26834.74443373018, -54580.45656448085, -166474.45159845968, -72201.02962267752, 1553.9156262774022, -187500.02235174447, -84049.0411578466, -78196.39333443563, -59503.85296390689, -59242.516367735436, -81629.93420719316, -82945.24496141016, -0.038, 0.928, 0.41600000000000004, 192.0, 127.0, 104.0, 14.5, 0.0, 6.5, 0.0, 0.0, 0.0, 0.0, 1.695415878602855E9, 0.0, 2023-09-22 15:51:18.602
104.0, -36684.15238668351, -15582.004556894846, -85364.75424346379, -80101.54427308372, -26800.143933313364, -54546.68307860888, -166485.80628464298, -72167.14437808328, 1562.9457310373464, -187500.02235174447, -84036.77005014064, -78192.43707566704, -59499.04733884899, -59252.82052192933, -81618.15483786522, -82940.10406018545, -0.038, 0.928, 0.41600000000000004, 192.0, 0.0, 0.0, 0.0, 0.0, 0.0, 0.0, 0.0, 0.0, 0.0, 1.695415878663185E9, 0.0, 2023-09-22 15:51:18.663
106.0, -36670.07078767667, -15571.275719556299, -85367.43645279843, -80102.77361902877, -26807.430602005792, -54547.15246524245, -166474.31748799296, -72167.61376471684, 1570.0982892630445, -187500.02235174447, -84007.06458175952, -78163.22334566395, -59465.60912914386, -59214.19670751056, -81592.91971837518, -82912.85728369442, -0.038, 0.928, 0.41600000000000004, 192.0, 0.0, 0.0, 0.0, 0.0, 0.0, 0.0, 0.0, 0.0, 0.0, 1.695415878663195E9, 0.0, 2023-09-22 15:51:18.663
108.0, -36698.25633743481, -15598.209571624944, -85374.07492090165, -80112.78720054474, -26807.58706421698, -54551.08637226658, -166517.92574142525, -72170.20656707366, 1583.956370825335, -187500.02235174447, -84005.8799393034, -78162.91042124158, -59467.37491695582, -59211.93918132057, -81588.38231425075, -82907.35875455842, -0.038, 0.928, 0.41600000000000004, 192.0, 0.0, 0.0, 0.0, 0.0, 0.0, 0.0, 0.0, 0.0, 0.0, 1.695415878663199E9, 0.0, 2023-09-22 15:51:18.663
110.0, -36727.22419824889, -15626.19395568299, -85404.54034859424, -80147.90179108403, -26840.578239033013, -54588.95022737387, -166458.38069419633, -72209.12095417034, 1517.4152275818858, -187500.02235174447, -84051.05281484757, -78212.39718346563, -59505.14936508529, -59251.09943760627, -81626.42498331369, -82947.2789701556, -0.038, 0.928, 0.41600000000000004, 192.0, 0.0, 0.0, 0.0, 0.0, 0.0, 0.0, 0.0, 0.0, 0.0, 1.695415878663202E9, 0.0, 2023-09-22 15:51:18.663
112.0, -36736.254303008835, -15636.699275576982, -85398.03599095774, -80141.8668200811, -26830.341140072484, -54575.47212546732, -166505.11819185238, -72187.95385217117, 1535.8107132686036, -187500.02235174447, -84060.57465798553, -78224.13184930466, -59508.993865131604, -59259.280176076914, -81630.6718147602, -82958.11956621642, -0.04, 0.924, 0.41200000000000003, 192.0, 127.0, 96.0, 14.0, 112.0, 6.0, 112.0, 0.0, 0.0, 0.0, 1.695415878663205E9, 0.0, 2023-09-22 15:51:18.663
114.0, -36736.41076522002, -15638.643877344595, -85404.18272068295, -80139.47518342438, -26833.93977092979, -54573.57222718862, -166440.0969672319, -72197.31923309795, 1478.76906141866, -187500.02235174447, -84050.89635263638, -78211.34665147623, -59497.57212371494, -59245.17622532562, -81617.05960238691, -82942.38393811989, -0.04, 0.924, 0.41200000000000003, 192.0, 0.0, 0.0, 0.0, 0.0, 0.0, 0.0, 0.0, 0.0, 0.0, 1.695415878663209E9, 0.0, 2023-09-22 15:51:18.663
116.0, -36743.98800659037, -15647.04813325979, -85397.56660432418, -80127.9640350299, -26829.20120110526, -54561.01054680473, -166512.38250880034, -72180.95775615665, 1533.3967248674305, -187500.02235174447, -84054.51733523814, -78212.84421835473, -59508.41271977577, -59243.81276891384, -81626.60379726933, -82944.59676082096, -0.04, 0.924, 0.41200000000000003, 192.0, 0.0, 0.0, 0.0, 0.0, 0.0, 0.0, 0.0, 0.0, 0.0, 1.695415878663212E9, 0.0, 2023-09-22 15:51:18.663
118.0, -36770.13954760308, -15677.334746996732, -85420.14186622405, -80153.53443068676, -26851.307076371562, -54583.47404998232, -166417.56640882092, -72201.56606454446, 1460.8429623655036, -187500.02235174447, -84052.84095440399, -78210.89961658712, -59513.21834483366, -59241.26467004594, -81626.17911412468, -82935.1196211719, -0.04, 0.924, 0.41200000000000003, 192.0, 0.0, 0.0, 0.0, 0.0, 0.0, 0.0, 0.0, 0.0, 0.0, 1.695415878723679E9, 0.0, 2023-09-22 15:51:18.723
120.0, -36789.96554493494, -15683.928511611048, -85409.48008411886, -80137.55293340122, -26850.390654848892, -54568.27486375271, -166491.93066262372, -72207.10929716937, 1514.0401141691345, -187500.02235174447, -84074.65625699237, -78227.75283190643, -59541.24743238062, -59260.71068772205, -81648.12852717978, -82956.1302609599, -0.04, 0.924, 0.41200000000000003, 192.0, 0.0, 0.0, 0.0, 0.0, 0.0, 0.0, 0.0, 0.0, 0.0, 1.695415878723694E9, 0.0, 2023-09-22 15:51:18.723
122.0, -36839.787583325815, -15732.789424990347, -85432.86000881912, -80164.08445406967, -26869.613155080457, -54594.62757046552, -166369.04077160844, -72212.38430886083, 1424.0966944809788, -187500.02235174447, -84090.36953334446, -78239.93453263456, -59540.39806609131, -59256.843835931286, -81649.58139056938, -82955.57146734852, -0.034, 0.924, 0.406, 192.0, 127.0, 120.0, 14.0, 112.0, 6.0, 88.0, 0.0, 0.0, 0.0, 1.695415878723698E9, 0.0, 2023-09-22 15:51:18.723
124.0, -36849.3988334416, -15743.339448373254, -85428.85904656161, -80161.80457613523, -26861.633582309914, -54586.44683199487, -166443.82970855592, -72203.98005294563, 1475.7739276616487, -187500.02235174447, -84101.32188812755, -78254.95490490853, -59552.468008097174, -59267.55032152538, -81652.26359990402, -82965.6297523534, -0.034, 0.924, 0.406, 192.0, 0.0, 0.0, 0.0, 0.0, 0.0, 0.0, 0.0, 0.0, 0.0, 1.695415878723701E9, 0.0, 2023-09-22 15:51:18.723
126.0, -36871.12472905216, -15768.30634692983, -85443.63354964656, -80175.03680885278, -26864.002867222174, -54592.906486142456, -166332.5627246574, -72215.75942227358, 1385.964618440225, -187500.02235174447, -84104.4511323513, -78262.84507070125, -59544.443731837724, -59272.33359483881, -81652.17419292619, -82961.60643835145, -0.034, 0.924, 0.406, 192.0, 0.0, 0.0, 0.0, 0.0, 0.0, 0.0, 0.0, 0.0, 0.0, 1.695415878723705E9, 0.0, 2023-09-22 15:51:18.723
128.0, -36895.44342701953, -15792.759155363938, -85450.94257008345, -80179.88713739958, -26876.922175517342, -54595.74515768828, -166387.25744333953, -72221.61557932086, 1456.5514274300847, -187500.02235174447, -84126.5570076176, -78284.727428523, -59561.721630301676, -59277.85447571927, -81664.2217831876, -82976.38094143641, -0.034, 0.924, 0.406, 192.0, 0.0, 0.0, 0.0, 0.0, 0.0, 0.0, 0.0, 0.0, 0.0, 1.695415878723708E9, 0.0, 2023-09-22 15:51:18.723
130.0, -36906.84281669174, -15816.541411464385, -85457.20105853093, -80196.49448352987, -26877.972707506742, -54613.00070440778, -166251.80587194036, -72230.10924221388, 1373.2464758451554, -187500.02235174447, -84132.0555367536, -78290.00244021445, -59567.33191815996, -59289.23151364703, -81662.79127154246, -82974.50339490216, -0.034, 0.924, 0.406, 192.0, 0.0, 0.0, 0.0, 0.0, 0.0, 0.0, 0.0, 0.0, 0.0, 1.695415878723711E9, 0.0, 2023-09-22 15:51:18.723
132.0, -36879.283115778344, -15782.052669769844, -85414.86685453259, -80167.28075352678, -26845.965009446743, -54582.42351799292, -166315.88832329374, -72194.54761678548, 1450.739973871705, -187500.02235174447, -84128.79218206313, -78289.15307392515, -59557.27363315507, -59296.58523757282, -81656.51043135053, -82982.81824383953, -0.032, 0.926, 0.406, 192.0, 127.5, 0.0, 14.0, 120.0, 6.0, 88.0, 0.0, 0.0, 0.0, 1.695415878723715E9, 0.0, 2023-09-22 15:51:18.723
134.0, -36857.825441101246, -15766.205282951032, -85396.11374093458, -80148.37117771759, -26815.49958175416, -54564.54212242868, -166228.85063038478, -72186.1433608703, 1396.7605110121383, -187500.02235174447, -84088.11200715447, -78251.44568102904, -59517.24165883561, -59272.31124309436, -81618.87009368779, -82950.29645565707, -0.032, 0.926, 0.406, 192.0, 0.0, 0.0, 0.0, 0.0, 0.0, 0.0, 0.0, 0.0, 0.0, 1.695415878783654E9, 0.0, 2023-09-22 15:51:18.783
136.0, -36845.15200199509, -15745.105236185222, -85394.66087754499, -80135.83184907817, -26822.383919046395, -54545.63254661948, -166298.43161087413, -72167.05497110546, 1489.766119690671, -187500.02235174447, -84065.3355795545, -78230.72561391898, -59501.64014120581, -59247.053771859864, -81602.10628534631, -82928.25763562413, -0.032, 0.926, 0.406, 192.0, 0.0, 0.0, 0.0, 0.0, 0.0, 0.0, 0.0, 0.0, 0.0, 1.695415878783666E9, 0.0, 2023-09-22 15:51:18.783
138.0, -36840.61459787066, -15744.993477462946, -85401.8581392596, -80132.99317753233, -26829.000035405166, -54542.39154367347, -166219.10526980227, -72166.54088098298, 1419.8275112900153, -187500.02235174447, -84072.75635871367, -78231.2620557859, -59527.657571751784, -59229.10532106225, -81614.19857909663, -82924.41313557782, -0.032, 0.926, 0.406, 192.0, 0.0, 0.0, 0.0, 0.0, 0.0, 0.0, 0.0, 0.0, 0.0, 1.695415878783674E9, 0.0, 2023-09-22 15:51:18.783
140.0, -36851.05286253129, -15749.285012398364, -85416.7667528113, -80144.8172503492, -26854.54807931758, -54561.34582297156, -166263.11585463476, -72192.75947722906, 1467.2132095352663, -187500.02235174447, -84077.40552156037, -78229.65273018513, -59528.77515897455, -59233.75448390895, -81621.2170268556, -82924.7707634891, -0.032, 0.926, 0.406, 192.0, 0.0, 0.0, 0.0, 0.0, 0.0, 0.0, 0.0, 0.0, 0.0, 1.695415878783677E9, 0.0, 2023-09-22 15:51:18.783
142.0, -36871.01297032988, -15774.833056310781, -85430.15544774002, -80164.66559942551, -26861.52182358764, -54584.32341627162, -166183.52129262942, -72200.33671859941, 1392.804252243549, -187500.02235174447, -84104.74170502921, -78255.20077409754, -59561.22989192366, -59262.3870685562, -81640.59598929835, -82950.07293821251, -0.034, 0.924, 0.406, 192.0, 127.0, 120.0, 14.0, 112.0, 6.0, 88.0, 0.0, 0.0, 0.0, 1.695415878783681E9, 0.0, 2023-09-22 15:51:18.783
144.0, -36837.95474028048, -15738.220898892987, -85416.4091249, -80152.05921555271, -26859.912497986854, -54573.952206844355, -166208.5775981638, -72207.8916082253, 1420.9227467683252, -187500.02235174447, -84106.66395505238, -78255.8713264312, -59567.28721467104, -59266.45508604707, -81647.56973356841, -82958.32073191652, -0.034, 0.924, 0.406, 192.0, 0.0, 0.0, 0.0, 0.0, 0.0, 0.0, 0.0, 0.0, 0.0, 1.695415878783684E9, 0.0, 2023-09-22 15:51:18.783
146.0, -36843.90030430559, -15747.899204242136, -85423.27111044778, -80163.16803254701, -26852.44701533878, -54582.200000548364, -166166.8692430102, -72196.15694238627, 1410.350371640965, -187500.02235174447, -84087.75437924318, -78237.5205442334, -59552.98209821965, -59253.826350429816, -81633.08580316136, -82953.53745860308, -0.034, 0.924, 0.406, 192.0, 0.0, 0.0, 0.0, 0.0, 0.0, 0.0, 0.0, 0.0, 0.0, 1.695415878783687E9, 0.0, 2023-09-22 15:51:18.783
148.0, -36832.41150765556, -15732.700018012527, -85433.55291289723, -80179.08247459918, -26860.761864276155, -54591.81125066415, -166166.9810017325, -72206.61755879135, 1430.5563486285625, -187500.02235174447, -84100.36076311598, -78252.719730463, -59552.60211856391, -59265.58336801331, -81637.48909681906, -82960.10887147294, -0.034, 0.924, 0.406, 192.0, 0.0, 0.0, 0.0, 0.0, 0.0, 0.0, 0.0, 0.0, 0.0, 1.695415878843183E9, 0.0, 2023-09-22 15:51:18.843
150.0, -36851.745766609405, -15753.621250822694, -85442.58301765716, -80192.91820441702, -26862.684114299314, -54600.48372751281, -166137.02966416237, -72214.91005598428, 1424.700191581272, -187500.02235174447, -84110.41904812086, -78267.00249516995, -59562.0122029796, -59282.50363856598, -81653.42589061569, -82978.1914327373, -0.034, 0.924, 0.406, 192.0, 0.0, 0.0, 0.0, 0.0, 0.0, 0.0, 0.0, 0.0, 0.0, 1.695415878843203E9, 0.0, 2023-09-22 15:51:18.843
152.0, -36841.24044671541, -15748.748570531438, -85446.62868340359, -80196.6285939966, -26870.954259747778, -54598.852050167574, -166107.458306248, -72219.13453568632, 1419.5816421010068, -187500.02235174447, -84114.79999003411, -78274.19975688455, -59569.38827864984, -59286.07991767883, -81654.29760864945, -82980.60542113846, -0.028, 0.92, 0.406, 192.0, 127.5, 16.0, 14.0, 96.0, 6.0, 88.0, 0.0, 0.0, 0.0, 1.695415878843208E9, 0.0, 2023-09-22 15:51:18.843
154.0, -36819.82747552723, -15725.748625486927, -85419.00192725682, -80173.78511116328, -26849.31777111504, -54572.94637834387, -166124.66914947858, -72194.7934859745, 1420.1627874568449, -187500.02235174447, -84107.82624576405, -78267.6730475036, -59564.18032219176, -59284.44824033359, -81653.96233248262, -82976.15742399186, -0.028, 0.92, 0.406, 192.0, 0.0, 0.0, 0.0, 0.0, 0.0, 0.0, 0.0, 0.0, 0.0, 1.695415878843212E9, 0.0, 2023-09-22 15:51:18.843
156.0, -36818.50872260436, -15717.836107949748, -85439.78904960025, -80185.0280386243, -26874.59759409399, -54601.42250077993, -166075.96469831048, -72217.90518974129, 1407.2658309061326, -187500.02235174447, -84090.66010602238, -78249.99281763946, -59563.33095590246, -59261.15772261116, -81642.89821897725, -82962.61226685194, -0.028, 0.92, 0.406, 192.0, 0.0, 0.0, 0.0, 0.0, 0.0, 0.0, 0.0, 0.0, 0.0, 1.695415878843216E9, 0.0, 2023-09-22 15:51:18.843
158.0, -36815.312423147254, -15711.264695079888, -85435.47516292038, -80172.98044836288, -26870.50722485867, -54591.49832624177, -166088.52637869434, -72219.0451287085, 1446.6272528919285, -187500.02235174447, -84099.95843171579, -78252.94324790755, -59575.53500837505, -59275.30637685137, -81660.91372500823, -82975.95625829176, -0.028, 0.92, 0.406, 192.0, 0.0, 0.0, 0.0, 0.0, 0.0, 0.0, 0.0, 0.0, 0.0, 1.69541587884322E9, 0.0, 2023-09-22 15:51:18.843
160.0, -36798.816835739235, -15697.451317006507, -85429.39548842853, -80161.84927962415, -26876.966879006253, -54592.01241636425, -166008.5294852888, -72218.32987288594, 1411.6914763082834, -187500.02235174447, -84096.29274562512, -78242.3708727802, -59576.85376129792, -59272.60181577228, -81654.34231213837, -82966.41206340934, -0.028, 0.92, 0.406, 192.0, 0.0, 0.0, 0.0, 0.0, 0.0, 0.0, 0.0, 0.0, 0.0, 1.695415878843223E9, 0.0, 2023-09-22 15:51:18.843
162.0, -36785.29403034378, -15684.733174411438, -85408.63071782955, -80142.7161863704, -26854.346913617483, -54578.24374177978, -166057.56921262376, -72199.77792498803, 1473.2928840271097, -187500.02235174447, -84072.3987308024, -78215.77229687838, -59558.704144800206, -59251.07708586182, -81636.7738409965, -82946.00492072165, -0.036000000000000004, 0.922, 0.404, 192.0, 127.0, 112.0, 14.0, 104.0, 6.0, 80.0, 0.0, 0.0, 0.0, 1.695415878843227E9, 0.0, 2023-09-22 15:51:18.843
164.0, -36762.048216110255, -15669.399877715097, -85394.88439498954, -80135.60833163362, -26845.49562281318, -54565.05621255115, -165980.00865936384, -72180.66718347874, 1427.7176770827386, -187500.02235174447, -84063.16746034235, -78209.44675319752, -59542.633240536845, -59244.84094915879, -81625.53091353548, -82935.83487699449, -0.036000000000000004, 0.922, 0.404, 192.0, 0.0, 0.0, 0.0, 0.0, 0.0, 0.0, 0.0, 0.0, 0.0, 1.695415878902792E9, 0.0, 2023-09-22 15:51:18.902
166.0, -36765.5797917342, -15668.10347653669, -85395.77846476776, -80139.98927354686, -26837.091366897985, -54568.006642819244, -166072.70134362, -72185.91984342574, 1487.6874074563275, -187500.02235174447, -84059.21120157377, -78210.47493344247, -59536.17358638926, -59238.515405477934, -81618.53481752097, -82934.40436534934, -0.036000000000000004, 0.922, 0.404, 192.0, 0.0, 0.0, 0.0, 0.0, 0.0, 0.0, 0.0, 0.0, 0.0, 1.695415878902803E9, 0.0, 2023-09-22 15:51:18.902
168.0, -36765.199812078456, -15669.62339515965, -85399.86883400308, -80148.05825329522, -26831.034044150598, -54567.045517807666, -166017.00079643738, -72187.26094809306, 1409.4786536072081, -187500.02235174447, -84065.76026269916, -78218.63332016866, -59528.81986246346, -59249.087780605296, -81618.57952100987, -82943.00978696464, -0.036000000000000004, 0.922, 0.404, 192.0, 0.0, 0.0, 0.0, 0.0, 0.0, 0.0, 0.0, 0.0, 0.0, 1.695415878902806E9, 0.0, 2023-09-22 15:51:18.902
170.0, -36778.61085875164, -15677.021822574357, -85413.0563632317, -80160.86580286811, -26828.88827668289, -54573.527523699704, -166134.28039959437, -72199.42029707674, 1490.6825412133387, -187500.02235174447, -84076.06441689306, -78229.63037844066, -59535.65949626679, -59257.78260919841, -81630.13537289326, -82955.52676385961, -0.036000000000000004, 0.922, 0.404, 192.0, 0.0, 0.0, 0.0, 0.0, 0.0, 0.0, 0.0, 0.0, 0.0, 1.69541587890281E9, 0.0, 2023-09-22 15:51:18.902
172.0, -36812.3396411347, -15712.069357880278, -85444.95230256944, -80200.27192834282, -26845.27210536863, -54610.385550306506, -166051.86951778765, -72219.0451287085, 1404.2930488935767, -187500.02235174447, -84084.91570769736, -78242.50498324692, -59539.906327713295, -59271.19365587159, -81642.11590792131, -82968.04374075458, -0.034, 0.92, 0.402, 192.0, 127.0, 120.0, 14.0, 96.0, 6.0, 72.0, 0.0, 0.0, 0.0, 1.695415878902813E9, 0.0, 2023-09-22 15:51:18.902
174.0, -36808.62925155512, -15713.63397999215, -85442.20303800143, -80189.94542240446, -26840.645294266382, -54599.276733312225, -166149.18901314607, -72214.70889028418, 1469.8060118920819, -187500.02235174447, -84114.77763828966, -78276.43493133008, -59556.5583773325, -59303.179002187135, -81671.01671350202, -83001.90663360438, -0.034, 0.92, 0.402, 192.0, 0.0, 0.0, 0.0, 0.0, 0.0, 0.0, 0.0, 0.0, 0.0, 1.695415878902816E9, 0.0, 2023-09-22 15:51:18.902
176.0, -36799.26387062835, -15708.694244467528, -85445.33228222516, -80184.58100373519, -26831.659892995347, -54600.84135542409, -166067.51573890637, -72228.27639916855, 1377.6721212473062, -187500.02235174447, -84111.58133883255, -78269.26002135992, -59555.37373487637, -59300.13916494122, -81656.13045169479, -82990.23902299869, -0.034, 0.92, 0.402, 192.0, 0.0, 0.0, 0.0, 0.0, 0.0, 0.0, 0.0, 0.0, 0.0, 1.695415878902819E9, 0.0, 2023-09-22 15:51:18.902
178.0, -36797.833358983204, -15706.704939211004, -85461.51494521082, -80189.72190495991, -26858.21376540825, -54625.00359118028, -166157.1685859166, -72240.81572780797, 1471.8176688930594, -187500.02235174447, -84105.79223701861, -78258.70999797703, -59553.4067813643, -59290.77378401444, -81660.2208209301, -82987.78033110862, -0.034, 0.92, 0.402, 192.0, 0.0, 0.0, 0.0, 0.0, 0.0, 0.0, 0.0, 0.0, 0.0, 1.695415878963158E9, 0.0, 2023-09-22 15:51:18.963
180.0, -36765.758605689836, -15680.620453431662, -85431.20597972942, -80149.64522715154, -26830.25173309466, -54602.696550213885, -166088.3028612498, -72214.88770423981, 1396.7158075232278, -187500.02235174447, -84100.80779800509, -78251.35627405123, -59554.4573133537, -59290.86319099226, -81656.73394879508, -82984.40521769586, -0.034, 0.92, 0.402, 192.0, 0.0, 0.0, 0.0, 0.0, 0.0, 0.0, 0.0, 0.0, 0.0, 1.695415878963173E9, 0.0, 2023-09-22 15:51:18.963
182.0, -36776.7780157063, -15688.980005857946, -85451.43430846147, -80161.73752090186, -26867.825015524035, -54633.05021918419, -166169.48439711146, -72240.81572780797, 1493.7447302037158, -187500.02235174447, -84080.73593148422, -78233.67604418709, -59536.50886255609, -59273.69705125059, -81643.769937011, -82966.05443549805, -0.038, 0.922, 0.406, 192.0, 127.0, 104.0, 14.0, 104.0, 6.0, 88.0, 0.0, 0.0, 0.0, 1.695415878963177E9, 0.0, 2023-09-22 15:51:18.963
184.0, -36784.17644312101, -15696.244322805922, -85452.03780556176, -80152.79682311974, -26872.675344070834, -54626.90348945898, -166079.67508789006, -72245.57664937695, 1412.160862941845, -187500.02235174447, -84107.1556934304, -78256.5195270204, -59574.439772896745, -59293.21012416007, -81671.95548676915, -82987.31094447506, -0.038, 0.922, 0.406, 192.0, 0.0, 0.0, 0.0, 0.0, 0.0, 0.0, 0.0, 0.0, 0.0, 1.69541587896318E9, 0.0, 2023-09-22 15:51:18.963
186.0, -36770.094844114166, -15673.758467883883, -85446.53927642576, -80141.95622705892, -26873.994096993698, -54613.38068406352, -166137.63316126267, -72240.07812024094, 1474.9692648612577, -187500.02235174447, -84105.47931259625, -78247.17649783808, -59576.00439500862, -59279.19558038659, -81673.31894318092, -82982.840595584, -0.038, 0.922, 0.406, 192.0, 0.0, 0.0, 0.0, 0.0, 0.0, 0.0, 0.0, 0.0, 0.0, 1.695415878963184E9, 0.0, 2023-09-22 15:51:18.963
188.0, -36757.53316373029, -15667.231758502932, -85430.64718611803, -80127.02526176277, -26853.050512439077, -54596.32630304412, -166061.88309930364, -72224.07427121095, 1435.2278632197217, -187500.02235174447, -84097.7009055258, -78231.6196836972, -59563.800342536015, -59270.56780702685, -81654.16349818272, -82966.70263608726, -0.038, 0.922, 0.406, 192.0, 0.0, 0.0, 0.0, 0.0, 0.0, 0.0, 0.0, 0.0, 0.0, 1.695415878963187E9, 0.0, 2023-09-22 15:51:18.963
190.0, -36732.052175051234, -15645.349400681187, -85418.66665109, -80119.24685469233, -26844.82507047952, -54585.99979710577, -166106.2066085585, -72213.32308212794, 1511.827291468059, -187500.02235174447, -84083.30638209658, -78212.37483172117, -59545.22604289366, -59255.94976615308, -81639.0760706754, -82953.47040336972, -0.038, 0.922, 0.406, 192.0, 0.0, 0.0, 0.0, 0.0, 0.0, 0.0, 0.0, 0.0, 0.0, 1.69541587896319E9, 0.0, 2023-09-22 15:51:18.963
192.0, -36741.95399784494, -15660.213310743966, -85417.03497374475, -80113.48010462285, -26827.21189584874, -54583.31758777113, -166048.91908751955, -72205.94700645769, 1466.3861949904199, -187500.02235174447, -84082.41231231837, -78211.12313403167, -59551.372772618866, -59253.267556818435, -81628.97308218159, -82948.68713005628, -0.036000000000000004, 0.922, 0.41400000000000003, 192.0, 127.0, 112.0, 14.0, 104.0, 6.0, 120.0, 0.0, 0.0, 0.0, 1.695415878963194E9, 0.0, 2023-09-22 15:51:18.963
194.0, -36729.481724438876, -15644.991772769901, -85408.0048689848, -80114.5529883567, -26823.412099291338, -54571.94054984338, -166069.81796858527, -72200.64964302178, 1499.0644453840787, -187500.02235174447, -84093.20820489028, -78221.53904694784, -59545.494263827124, -59266.87976919172, -81636.52797180749, -82954.63269408139, -0.036000000000000004, 0.922, 0.41400000000000003, 192.0, 0.0, 0.0, 0.0, 0.0, 0.0, 0.0, 0.0, 0.0, 0.0, 1.695415879023523E9, 0.0, 2023-09-22 15:51:19.023
196.0, -36683.41477911649, -15602.031719926801, -85344.7941356652, -80066.18381335543, -26749.383121655363, -54511.322618880586, -166097.5117799654, -72137.37185446882, 1491.3307418025424, -187500.02235174447, -84031.53974193809, -78169.5488893448, -59484.742222397595, -59214.66609414412, -81572.73609313203, -82897.68044920928, -0.036000000000000004, 0.922, 0.41400000000000003, 192.0, 0.0, 0.0, 0.0, 0.0, 0.0, 0.0, 0.0, 0.0, 0.0, 1.695415879023536E9, 0.0, 2023-09-22 15:51:19.023
198.0, -36729.86170409462, -15644.85766230317, -85397.23132815734, -80126.5111716403, -26795.15949429983, -54568.07369805261, -166091.47680896244, -72192.51360804006, 1524.2325096407544, -187500.02235174447, -84050.11404158045, -78195.2086919795, -59489.36903349985, -59237.28605953289, -81584.73897990453, -82919.65221400883, -0.036000000000000004, 0.922, 0.41400000000000003, 192.0, 0.0, 0.0, 0.0, 0.0, 0.0, 0.0, 0.0, 0.0, 0.0, 1.69541587902354E9, 0.0, 2023-09-22 15:51:19.023
200.0, -36762.383492277084, -15681.536874954329, -85420.3653836686, -80148.2147155064, -26807.944692128265, -54591.49832624177, -166077.08228553322, -72218.30752114148, 1500.405550051397, -187500.02235174447, -84085.47450130875, -78229.09393657374, -59520.77323445955, -59265.717478480045, -81614.17622735217, -82950.07293821251, -0.036000000000000004, 0.922, 0.41400000000000003, 192.0, 0.0, 0.0, 0.0, 0.0, 0.0, 0.0, 0.0, 0.0, 0.0, 1.695415879023543E9, 0.0, 2023-09-22 15:51:19.023
202.0, -36764.506908000345, -15674.898406851104, -85426.55681688272, -80154.5179074428, -26830.721119728223, -54601.06487286864, -166040.2466106709, -72213.41248910576, 1462.6981571552942, -187500.02235174447, -84125.61823435048, -78261.45926254503, -59554.233795909146, -59295.557057327875, -81648.06147194642, -82979.53253740461, -0.036000000000000004, 0.924, 0.41600000000000004, 192.0, 127.0, 112.0, 14.0, 112.0, 6.5, 0.0, 0.0, 0.0, 0.0, 1.695415879023546E9, 0.0, 2023-09-22 15:51:19.023
204.0, -36759.20954456444, -15668.483456192429, -85417.0126220003, -80138.49170666834, -26829.69293948328, -54598.628532723014, -166075.2494424879, -72215.98293971813, 1479.1266893299448, -187500.02235174447, -84089.11783565496, -78223.50600045992, -59526.71879848466, -59261.1353708667, -81622.62518675628, -82951.83872602448, -0.036000000000000004, 0.924, 0.41600000000000004, 192.0, 0.0, 0.0, 0.0, 0.0, 0.0, 0.0, 0.0, 0.0, 0.0, 1.695415879023549E9, 0.0, 2023-09-22 15:51:19.023
206.0, -36765.535088245284, -15677.982947585935, -85439.43142168898, -80164.30797151422, -26869.680210313825, -54633.944288962404, -166014.2291801249, -72258.71947511667, 1445.7331831137162, -187500.02235174447, -84109.86025450949, -78245.85774491522, -59556.37956337685, -59303.2460574205, -81661.7183878086, -82988.36147646446, -0.036000000000000004, 0.924, 0.41600000000000004, 192.0, 0.0, 0.0, 0.0, 0.0, 0.0, 0.0, 0.0, 0.0, 0.0, 1.695415879023553E9, 0.0, 2023-09-22 15:51:19.023
208.0, -36739.02591932129, -15653.597194385195, -85405.03208697225, -80124.94654952844, -26839.12537564342, -54593.33116928711, -166063.47007315996, -72221.32500664295, 1484.155831832389, -187500.02235174447, -84098.1479404149, -78236.49236398845, -59551.17160691877, -59288.60566480228, -81663.41712038721, -82985.27693572962, -0.036000000000000004, 0.924, 0.41600000000000004, 192.0, 0.0, 0.0, 0.0, 0.0, 0.0, 0.0, 0.0, 0.0, 0.0, 1.695415879083533E9, 0.0, 2023-09-22 15:51:19.083
210.0, -36726.687756381965, -15639.113263978155, -85398.63948805803, -80118.24102619184, -26836.97960817571, -54580.70243366986, -165999.9240636735, -72214.21715190615, 1451.5669884165513, -187500.02235174447, -84067.5931057445, -78196.59450013573, -59519.11920536986, -59254.049867874375, -81627.67668100318, -82944.59676082096, -0.036000000000000004, 0.924, 0.41600000000000004, 192.0, 0.0, 0.0, 0.0, 0.0, 0.0, 0.0, 0.0, 0.0, 0.0, 1.695415879083556E9, 0.0, 2023-09-22 15:51:19.083
212.0, -36716.69652661044, -15629.99375224039, -85387.21774664137, -80101.8571975061, -26830.944637172775, -54562.95514857235, -166060.51964289186, -72197.67686100923, 1511.894346701425, -187500.02235174447, -84070.63294299041, -78194.1581599901, -59524.32716182795, -59247.56786198233, -81635.14216365125, -82945.15555443235, -0.032, 0.92, 0.41400000000000003, 192.0, 127.5, 0.0, 14.0, 96.0, 6.0, 120.0, 0.0, 0.0, 0.0, 1.695415879083569E9, 0.0, 2023-09-22 15:51:19.083
214.0, -36735.628454164085, -15651.339668195209, -85410.35180215261, -80127.42759316297, -26846.054416424566, -54593.75585243176, -165969.70450516994, -72227.76230904607, 1444.3697267019425, -187500.02235174447, -84056.99837887268, -78186.78208431984, -59519.61094374787, -59242.60577471326, -81627.00612866953, -82939.12058342941, -0.032, 0.92, 0.41400000000000003, 192.0, 0.0, 0.0, 0.0, 0.0, 0.0, 0.0, 0.0, 0.0, 0.0, 1.695415879083575E9, 0.0, 2023-09-22 15:51:19.083
216.0, -36738.2212565209, -15648.545700138297, -85402.12636019307, -80118.4645436364, -26840.68999775529, -54583.65286393796, -166052.16009046556, -72218.95572173069, 1501.2102128517884, -187500.02235174447, -84085.13922514192, -78217.29221550134, -59547.170644661266, -59272.981795428015, -81653.29178014897, -82968.42372041033, -0.032, 0.92, 0.41400000000000003, 192.0, 0.0, 0.0, 0.0, 0.0, 0.0, 0.0, 0.0, 0.0, 0.0, 1.695415879083581E9, 0.0, 2023-09-22 15:51:19.083
218.0, -36738.66829141001, -15654.379505441131, -85410.2623951748, -80133.68608161046, -26843.685131512302, -54583.69756742687, -165968.18458654697, -72209.41152684827, 1435.5407876420961, -187500.02235174447, -84073.0469313916, -78202.69652637202, -59540.5545283025, -59265.717478480045, -81634.73983225106, -82951.23522892418, -0.032, 0.92, 0.41400000000000003, 192.0, 0.0, 0.0, 0.0, 0.0, 0.0, 0.0, 0.0, 0.0, 0.0, 1.695415879083587E9, 0.0, 2023-09-22 15:51:19.083
220.0, -36726.57599765968, -15642.443673901997, -85392.73862752183, -80118.35278491411, -26815.343119542973, -54564.34095672858, -166069.52739590735, -72195.79931447498, 1519.1139601604891, -187500.02235174447, -84073.47161453625, -78202.22713973846, -59524.863603694874, -59264.532836023915, -81632.54936129444, -82947.86011551143, -0.032, 0.92, 0.41400000000000003, 192.0, 0.0, 0.0, 0.0, 0.0, 0.0, 0.0, 0.0, 0.0, 0.0, 1.695415879083591E9, 0.0, 2023-09-22 15:51:19.083
222.0, -36744.27857926829, -15667.05294454729, -85411.00000274181, -80142.06798578119, -26819.96993064522, -54581.730613914806, -165967.29051676876, -72210.75263151558, 1437.7536103431714, -187500.02235174447, -84080.6465245064, -78216.75577363442, -59522.15904261578, -59274.43465881761, -81625.50856179102, -82946.47430735521, -0.034, 0.922, 0.40800000000000003, 192.0, 127.0, 120.0, 14.0, 104.0, 6.0, 96.0, 0.0, 0.0, 0.0, 1.695415879083596E9, 0.0, 2023-09-22 15:51:19.083
224.0, -36747.49723046985, -15663.990755556913, -85409.8600637746, -80147.99119806185, -26823.50150626916, -54583.80932614915, -166052.13773872113, -72212.27255013854, 1518.666925271383, -187500.02235174447, -84088.02260017666, -78225.3164917608, -59521.95787691568, -59269.0925918928, -81635.47743981809, -82955.01267373713, -0.034, 0.922, 0.40800000000000003, 192.0, 0.0, 0.0, 0.0, 0.0, 0.0, 0.0, 0.0, 0.0, 0.0, 1.695415879142854E9, 0.0, 2023-09-22 15:51:19.142
226.0, -36754.001588106345, -15674.026688817346, -85413.07871497616, -80159.70351215644, -26822.987416146687, -54590.738366930294, -165952.20308926143, -72215.13357342883, 1453.4892384397076, -187500.02235174447, -84086.34621934251, -78227.48461097296, -59524.05894089448, -59268.0420599034, -81633.33167235037, -82957.00197899366, -0.034, 0.922, 0.40800000000000003, 192.0, 0.0, 0.0, 0.0, 0.0, 0.0, 0.0, 0.0, 0.0, 0.0, 1.695415879142868E9, 0.0, 2023-09-22 15:51:19.142
228.0, -36739.94234084396, -15653.932470552025, -85402.81926427118, -80147.85708759513, -26810.336328784982, -54581.39533774798, -166040.96186649345, -72213.16661991675, 1535.54249233514, -187500.02235174447, -84096.8515392365, -78238.28050354487, -59534.78777823303, -59282.838914732805, -81651.66010280373, -82977.74439784819, -0.034, 0.922, 0.40800000000000003, 192.0, 0.0, 0.0, 0.0, 0.0, 0.0, 0.0, 0.0, 0.0, 0.0, 1.695415879142874E9, 0.0, 2023-09-22 15:51:19.142
230.0, -36719.93752955646, -15634.844080787192, -85387.97770595286, -80129.50630539731, -26786.77759012909, -54561.81520960513, -165971.64910693755, -72187.61857600434, 1472.3317590155316, -187500.02235174447, -84070.76705345715, -78205.46814268448, -59511.385501788325, -59259.10136212127, -81623.40749781222, -82952.64338882487, -0.034, 0.922, 0.40800000000000003, 192.0, 0.0, 0.0, 0.0, 0.0, 0.0, 0.0, 0.0, 0.0, 0.0, 1.69541587914288E9, 0.0, 2023-09-22 15:51:19.142
232.0, -36692.17666294297, -15605.965626950936, -85374.4996040463, -80106.46165686389, -26785.68235465078, -54535.574261614594, -166073.12602676466, -72170.87711940732, 1554.0720884885895, -187500.02235174447, -84048.28119853511, -78184.63631685213, -59493.1911818017, -59237.71074267754, -81608.43182902716, -82935.61135954993, -0.042, 0.924, 0.404, 192.0, 127.0, 88.0, 14.0, 112.0, 6.0, 80.0, 0.0, 0.0, 0.0, 1.695415879142886E9, 0.0, 2023-09-22 15:51:19.142
234.0, -36725.346651714644, -15642.018990757346, -85408.42955212946, -80130.33331994216, -26821.959235901744, -54556.24962523575, -165997.1300956166, -72197.60980577586, 1479.86429689697, -187500.02235174447, -84058.11596609544, -78192.7500000894, -59511.67607446624, -59243.52219623592, -81621.8652274448, -82936.75129851715, -0.042, 0.924, 0.404, 192.0, 0.0, 0.0, 0.0, 0.0, 0.0, 0.0, 0.0, 0.0, 0.0, 1.695415879142891E9, 0.0, 2023-09-22 15:51:19.142
236.0, -36699.01629674629, -15610.726548519917, -85388.3576856086, -80113.14482845603, -26815.58898873198, -54542.39154367347, -166069.1474162516, -72180.06368637845, 1522.4443700843299, -187500.02235174447, -84061.84870741949, -78194.98517453494, -59521.75671121559, -59242.89634739117, -81633.24226537255, -82938.76295551813, -0.042, 0.924, 0.404, 192.0, 0.0, 0.0, 0.0, 0.0, 0.0, 0.0, 0.0, 0.0, 0.0, 1.695415879142897E9, 0.0, 2023-09-22 15:51:19.142
238.0, -36737.77422163179, -15654.088932763212, -85414.33041266566, -80147.58886666165, -26844.176869890318, -54583.47404998232, -166006.0260899098, -72216.58643681841, 1474.4551747387857, -187500.02235174447, -84054.83025966052, -78187.94437503153, -59522.91900192726, -59246.62908871521, -81624.8603612018, -82935.25373163864, -0.042, 0.924, 0.404, 192.0, 0.0, 0.0, 0.0, 0.0, 0.0, 0.0, 0.0, 0.0, 0.0, 1.695415879142902E9, 0.0, 2023-09-22 15:51:19.142
