%OpenBCI Raw EXG Data
%Number of channels = 16
%Sample Rate = 125 Hz
%Board = OpenBCI_GUI$BoardCytonSerialDaisy
Sample Index, EXG Channel 0, EXG Channel 1, EXG Channel 2, EXG Channel 3, EXG Channel 4, EXG Channel 5, EXG Channel 6, EXG Channel 7, EXG Channel 8, EXG Channel 9, EXG Channel 10, EXG Channel 11, EXG Channel 12, EXG Channel 13, EXG Channel 14, EXG Channel 15, Accel Channel 0, Accel Channel 1, Accel Channel 2, Other, Other, Other, Other, Other, Other, Other, Analog Channel 0, Analog Channel 1, Analog Channel 2, Timestamp, Other, Timestamp (Formatted)
0.0, -38030.28619650438, -14576.198408150483, -87175.55846876603, -81470.47686224901, -25903.146076577435, -55513.79835770111, -157503.3330921332, -72891.00562226839, 0.0, 0.0, 0.0, 0.0, 0.0, 0.0, 0.0, 0.0, 0.0, 0.0, 0.0, 192.0, 0.0, 0.0, 0.0, 0.0, 0.0, 0.0, 0.0, 0.0, 0.0, 1.695415829612354E9, 0.0, 2023-09-22 15:50:29.612
254.0, -38021.63607140018, -14566.520102801336, -87174.70910247673, -81472.86849890572, -25915.75246045023, -55519.207479859295, -157487.5304088033, -72905.26603523089, -2517.231108812226, -187500.02235174447, -85696.09650326926, -79403.5887007223, -59041.663592060046, -56928.79789218878, -83292.12168361207, -84345.4029375795, 0.0, 0.0, 0.0, 192.0, 0.0, 0.0, 0.0, 0.0, 0.0, 0.0, 0.0, 0.0, 0.0, 1.695415829612365E9, 0.0, 2023-09-22 15:50:29.612
0.0, -38020.630242899686, -14572.376259848626, -87158.70525344674, -81463.14549006766, -25896.820532896585, -55513.530136767644, -157487.03867042527, -72883.83071229825, -2475.008663536151, -187500.02235174447, -85692.85550032325, -79403.5887007223, -59036.18741466849, -56935.59282250319, -83286.15376784251, -84344.64297826804, -0.034, 0.926, 0.398, 192.0, 127.0, 120.0, 14.0, 120.0, 6.0, 56.0, 0.0, 0.0, 0.0, 1.695415829612369E9, 0.0, 2023-09-22 15:50:29.612
2.0, -37995.05984724282, -14546.559995002746, -87137.33698574746, -81454.00362658544, -25884.236500768246, -55503.538906996124, -157454.67334445397, -72886.33410767723, -2482.1165182729387, -187500.02235174447, -85669.18500294507, -79386.35550574727, -59025.74915000787, -56922.07001710773, -83264.69609316542, -84325.17460884746, -0.034, 0.926, 0.398, 192.0, 0.0, 0.0, 0.0, 0.0, 0.0, 0.0, 0.0, 0.0, 0.0, 1.695415829612372E9, 0.0, 2023-09-22 15:50:29.612
4.0, -38000.6701351011, -14558.87580619762, -87133.78305837906, -81458.13869930968, -25879.185006521348, -55501.01315987267, -157481.920120945, -72861.68013354304, -2414.614250017911, -187500.02235174447, -85654.94694172704, -79377.50421494296, -58997.94357990546, -56917.040874605285, -83245.31713072266, -84315.76452443177, -0.034, 0.926, 0.398, 192.0, 0.0, 0.0, 0.0, 0.0, 0.0, 0.0, 0.0, 0.0, 0.0, 1.695415829612376E9, 0.0, 2023-09-22 15:50:29.612
6.0, -37996.311544932316, -14553.466684039437, -87131.7714013781, -81460.61974294421, -25876.413390208887, -55498.21919181576, -157426.398387718, -72867.31277314578, -2467.811401821542, -187500.02235174447, -85652.24238064795, -79382.17572953412, -58993.36147229213, -56928.52967125532, -83245.16066851148, -84316.72564944335, -0.034, 0.926, 0.398, 192.0, 0.0, 0.0, 0.0, 0.0, 0.0, 0.0, 0.0, 0.0, 0.0, 1.695415829612379E9, 0.0, 2023-09-22 15:50:29.612
8.0, -37998.70318158903, -14557.065314896741, -87119.74616286113, -81435.56343740982, -25860.342485945523, -55493.57002896906, -157484.13294364608, -72857.03097069633, -2407.7075609812214, -187500.02235174447, -85658.65733130662, -79385.77436039143, -58999.95523690644, -56922.494700252384, -83246.97115981235, -84320.7042599564, -0.034, 0.926, 0.398, 192.0, 0.0, 0.0, 0.0, 0.0, 0.0, 0.0, 0.0, 0.0, 0.0, 1.695415829612382E9, 0.0, 2023-09-22 15:50:29.612
10.0, -38024.56414992382, -14582.680414042523, -87154.32431153349, -81469.73925468198, -25899.703907931318, -55522.44848280531, -157397.83285830414, -72897.42057292708, -2491.1242712884273, -187500.02235174447, -85666.92747675508, -79388.8365493818, -59005.096138131164, -56933.201185846476, -83250.86036334757, -84323.76644894677, -0.03, 0.926, 0.404, 192.0, 127.5, 8.0, 14.0, 120.0, 6.0, 80.0, 0.0, 0.0, 0.0, 1.695415829612386E9, 0.0, 2023-09-22 15:50:29.612
12.0, -38033.66130991713, -14586.815486766754, -87157.38650052388, -81469.35927502625, -25903.50370448872, -55521.64382000492, -157460.41774277898, -72887.80932281128, -2420.1574826428273, -187500.02235174447, -85683.46776765201, -79404.10279084477, -59029.280725631805, -56936.30807832576, -83266.97597109986, -84339.09974564312, -0.03, 0.926, 0.404, 192.0, 0.0, 0.0, 0.0, 0.0, 0.0, 0.0, 0.0, 0.0, 0.0, 1.695415829612389E9, 0.0, 2023-09-22 15:50:29.612
0.0, -19027.99535131399, -7472.925778976176, -43541.66758557172, -40722.687926612845, -13208.338702719058, -27800.049221521524, -78966.36622743205, -36505.070210107595, -1254.3798988318324, -93750.01117587223, -42837.74409744074, -39697.18989100336, -29509.711803163507, -28462.644334154647, -41630.43697243178, -42163.86135385768, -0.028, 0.925, 0.402, 192.0, 127.5, 24.0, 14.0, 112.0, 6.0, 64.0, 0.0, 0.0, 0.0, 1.6954158297737E9, 0.0, 2023-09-22 15:50:29.773
2.0, -38035.29298726237, -14927.14314784326, -87061.43046157724, -81425.214579727, -26401.8805506087, -55575.265654953204, -158035.5504793585, -72997.48933285348, -1912.4823108294381, -187500.02235174447, -85656.0645289498, -79416.30684331738, -59227.6301059282, -57594.76811823465, -83225.08880199061, -84326.15808560349, -0.028, 0.925, 0.402, 192.0, 0.0, 0.0, 0.0, 0.0, 0.0, 0.0, 0.0, 0.0, 0.0, 1.695415829773713E9, 0.0, 2023-09-22 15:50:29.773
4.0, -38035.382394240194, -14935.212127591627, -87046.92417942574, -81422.21944597, -26382.725105610505, -55574.4162886639, -157951.95495509566, -72977.10454191024, -1995.9884281144655, -187500.02235174447, -85639.16661014159, -79400.52651173194, -59218.7788151239, -57581.4911820282, -83196.36681036554, -84300.67709692444, -0.028, 0.925, 0.402, 192.0, 0.0, 0.0, 0.0, 0.0, 0.0, 0.0, 0.0, 0.0, 0.0, 1.695415829773717E9, 0.0, 2023-09-22 15:50:29.773
6.0, -38048.01112985744, -14938.788406704476, -87058.45767956469, -81448.99683582745, -26411.35769025775, -55601.52895468819, -158027.68266531025, -73012.17442896061, -1914.9633544639773, -187500.02235174447, -85643.70401426603, -79409.71307870306, -59218.018855812414, -57591.393004821904, -83198.71374353334, -84308.65666969499, -0.028, 0.925, 0.402, 192.0, 0.0, 0.0, 0.0, 0.0, 0.0, 0.0, 0.0, 0.0, 0.0, 1.69541582977372E9, 0.0, 2023-09-22 15:50:29.773
8.0, -38062.718577709034, -14963.375325605313, -87066.63841803532, -81454.49536496346, -26417.482068238507, -55621.623172953514, -157923.45648091513, -73025.29490295588, -1972.9214278365885, -187500.02235174447, -85658.90320049562, -79434.61292202627, -59242.00227761296, -57624.07125521556, -83217.4445053869, -84334.0035479073, -0.03, 0.93, 0.398, 192.0, 127.5, 8.0, 14.5, 8.0, 6.0, 56.0, 0.0, 0.0, 0.0, 1.695415829773724E9, 0.0, 2023-09-22 15:50:29.773
10.0, -38019.55735916583, -14913.799156403442, -87035.3459757979, -81423.00175702594, -26395.487951694486, -55580.38420443347, -157980.92281590973, -72987.65456529315, -1891.8516506971898, -187500.02235174447, -85644.68749102205, -79431.05899465788, -59231.36284725223, -57621.07612145855, -83212.50476986227, -84334.94232117443, -0.03, 0.93, 0.398, 192.0, 0.0, 0.0, 0.0, 0.0, 0.0, 0.0, 0.0, 0.0, 0.0, 1.695415829773727E9, 0.0, 2023-09-22 15:50:29.773
12.0, -37988.04139948385, -14884.652481633722, -86998.30913523545, -81378.74530300443, -26345.330637136776, -55537.67002077938, -157937.69454213316, -72951.06475961981, -1911.52118581786, -187500.02235174447, -85592.71968516347, -79372.72094162952, -59174.544712846844, -57558.13360907241, -83162.59332449357, -84278.8394425916, -0.03, 0.93, 0.398, 192.0, 0.0, 0.0, 0.0, 0.0, 0.0, 0.0, 0.0, 0.0, 0.0, 1.69541582977373E9, 0.0, 2023-09-22 15:50:29.773
14.0, -37971.769329520386, -14857.852740031809, -86989.0778647754, -81366.29538134282, -26340.972046967992, -55526.047113662615, -157991.9422259262, -72949.7236549525, -1848.1763420315199, -187500.02235174447, -85574.88299308813, -79349.36336867373, -59157.57973880527, -57534.23959424968, -83136.4194317364, -84256.95708476986, -0.03, 0.93, 0.398, 192.0, 0.0, 0.0, 0.0, 0.0, 0.0, 0.0, 0.0, 0.0, 0.0, 1.695415829773733E9, 0.0, 2023-09-22 15:50:29.773
16.0, -37964.03562593885, -14857.830388287353, -86975.82328031342, -81346.98347413343, -26324.521163048885, -55512.569011756066, -157971.1327518383, -72937.29608503534, -1857.8769991251231, -187500.02235174447, -85560.06378651426, -79330.0291097199, -59148.683744512055, -57512.13371898338, -83123.67893739688, -84241.86965726253, -0.03, 0.93, 0.398, 192.0, 0.0, 0.0, 0.0, 0.0, 0.0, 0.0, 0.0, 0.0, 0.0, 1.695415829833565E9, 0.0, 2023-09-22 15:50:29.833
18.0, -37978.60896332371, -14863.641841845732, -87002.91359459325, -81373.98438143544, -26363.055570489832, -55538.51938706868, -157993.17157187124, -72966.04042840487, -1863.6437491945924, -187500.02235174447, -85575.46413844397, -79342.18845870357, -59160.70898302901, -57525.745931356665, -83147.41649000841, -84259.21461095984, -0.026000000000000002, 0.932, 0.402, 192.0, 127.5, 24.0, 14.5, 16.0, 6.0, 72.0, 0.0, 0.0, 0.0, 1.695415829833587E9, 0.0, 2023-09-22 15:50:29.833
20.0, -37997.18326296607, -14898.287045751458, -87028.77456292804, -81402.12522770467, -26381.026373031902, -55564.87209378149, -157977.90533040828, -72989.10742868274, -1866.5718277182375, -187500.02235174447, -85588.27168801686, -79360.47218566803, -59179.14917220464, -57543.560271687544, -83166.9295629179, -84279.35353271409, -0.026000000000000002, 0.932, 0.402, 192.0, 0.0, 0.0, 0.0, 0.0, 0.0, 0.0, 0.0, 0.0, 0.0, 1.695415829833591E9, 0.0, 2023-09-22 15:50:29.833
22.0, -37977.647838312136, -14877.812847830397, -87025.13122858181, -81389.0047537094, -26381.451056176553, -55554.12090469848, -157984.8343711894, -72977.7750942439, -1895.204412365486, -187500.02235174447, -85606.19778707002, -79378.01830506543, -59184.71475657401, -57558.02185035013, -83184.9897724378, -84297.57020444516, -0.026000000000000002, 0.932, 0.402, 192.0, 0.0, 0.0, 0.0, 0.0, 0.0, 0.0, 0.0, 0.0, 0.0, 1.695415829833594E9, 0.0, 2023-09-22 15:50:29.833
24.0, -37985.29213491585, -14890.843914847841, -87023.52190298104, -81391.41874211059, -26369.045838003858, -55552.08689595305, -157998.82656321843, -72969.19202437306, -1866.9965108628883, -187500.02235174447, -85596.34066776522, -79366.23893573749, -59173.024794223886, -57552.54567295858, -83173.4339205544, -84283.71212288286, -0.026000000000000002, 0.932, 0.402, 192.0, 0.0, 0.0, 0.0, 0.0, 0.0, 0.0, 0.0, 0.0, 0.0, 1.695415829833597E9, 0.0, 2023-09-22 15:50:29.833
26.0, -38008.00150728244, -14905.417252232703, -87048.75702247108, -81421.48183840298, -26405.009794832444, -55586.173306247394, -157956.76058015355, -73010.20747544855, -1918.3831713656393, -187500.02235174447, -85620.48055177696, -79393.37395350623, -59193.58839912277, -57575.657376725365, -83196.34445862108, -84307.11439932758, -0.026000000000000002, 0.932, 0.402, 192.0, 0.0, 0.0, 0.0, 0.0, 0.0, 0.0, 0.0, 0.0, 0.0, 1.6954158298336E9, 0.0, 2023-09-22 15:50:29.833
28.0, -38009.364963694214, -14907.026577833483, -87036.26239732056, -81415.96095752252, -26396.627890661704, -55582.70878585682, -157993.10451663786, -72988.61569030472, -1871.556266731771, -187500.02235174447, -85615.25024357441, -79390.69174417159, -59189.721547331996, -57582.27349308413, -83188.11901666153, -84307.60613770559, -0.024, 0.928, 0.396, 192.0, 127.5, 32.0, 14.5, 0.0, 6.0, 48.0, 0.0, 0.0, 0.0, 1.695415829833604E9, 0.0, 2023-09-22 15:50:29.833
30.0, -38008.04621077135, -14907.853592378331, -87045.44896429169, -81425.95218729404, -26413.816382147837, -55592.81177435062, -157938.0298183, -73008.46403938104, -1943.6853460890468, -187500.02235174447, -85624.28034833436, -79404.3933635227, -59209.88282083069, -57589.38134782093, -83201.77593252373, -84320.7042599564, -0.024, 0.928, 0.396, 192.0, 0.0, 0.0, 0.0, 0.0, 0.0, 0.0, 0.0, 0.0, 0.0, 1.695415829892906E9, 0.0, 2023-09-22 15:50:29.892
32.0, -37998.85964380022, -14902.444470220145, -87035.21186533116, -81410.44007664204, -26394.32566098281, -55568.202503705324, -157989.32707182493, -72988.79450426037, -1865.8342201512123, -187500.02235174447, -85614.71380170749, -79396.99493610799, -59211.78271910939, -57585.6933099858, -83195.51744407623, -84310.55656797369, -0.024, 0.928, 0.396, 192.0, 0.0, 0.0, 0.0, 0.0, 0.0, 0.0, 0.0, 0.0, 0.0, 1.69541582989292E9, 0.0, 2023-09-22 15:50:29.892
34.0, -38005.22989096998, -14910.200525546137, -87051.30512133898, -81423.76171633741, -26410.955358857558, -55580.160686988915, -157912.66058834322, -73014.81193480635, -1952.1566572376082, -187500.02235174447, -85622.06752563329, -79406.00268912347, -59206.5747626513, -57589.40369956538, -83200.54658657868, -84311.47298949635, -0.024, 0.928, 0.396, 192.0, 0.0, 0.0, 0.0, 0.0, 0.0, 0.0, 0.0, 0.0, 0.0, 1.695415829892924E9, 0.0, 2023-09-22 15:50:29.892
36.0, -38008.672059616096, -14912.458051736123, -87043.50436252408, -81412.83171329877, -26393.006908059946, -55570.28121593967, -157984.76731595604, -72998.65162356515, -1860.7827259043129, -187500.02235174447, -85617.21719708649, -79401.75585767697, -59200.137460248174, -57581.26766458365, -83196.07623768762, -84305.81799814916, -0.024, 0.928, 0.396, 192.0, 0.0, 0.0, 0.0, 0.0, 0.0, 0.0, 0.0, 0.0, 0.0, 1.695415829892927E9, 0.0, 2023-09-22 15:50:29.892
38.0, -38032.00728082744, -14932.082883367882, -87064.51500231207, -81440.70433863453, -26418.71141418355, -55597.68445464188, -157889.92886423218, -73017.47179239652, -1948.8485990582228, -187500.02235174447, -85637.33376709626, -79418.85494218528, -59216.364826722725, -57606.52513581814, -83202.69235404639, -84314.40106802, -0.024, 0.922, 0.396, 192.0, 127.5, 32.0, 14.0, 104.0, 6.0, 48.0, 0.0, 0.0, 0.0, 1.69541582989293E9, 0.0, 2023-09-22 15:50:29.892
40.0, -38008.96263229402, -14903.986740587563, -87037.2458740766, -81420.00662326893, -26403.534579698397, -55574.148067730435, -157975.02195537352, -72993.86835025172, -1854.7030514124694, -187500.02235174447, -85636.86438046269, -79415.05514562788, -59221.63983841418, -57598.5455630476, -83210.71663030585, -84324.906387914, -0.024, 0.922, 0.396, 192.0, 0.0, 0.0, 0.0, 0.0, 0.0, 0.0, 0.0, 0.0, 0.0, 1.695415829892933E9, 0.0, 2023-09-22 15:50:29.892
42.0, -38009.47672241649, -14913.933266870174, -87045.24779859159, -81439.78791711187, -26408.116687311733, -55589.28019872668, -157880.74229726105, -73003.90428351215, -1947.1722182240749, -187500.02235174447, -85614.8032086853, -79396.57025296334, -59190.213285710015, -57576.976129648225, -83188.11901666153, -84305.50507372679, -0.024, 0.922, 0.396, 192.0, 0.0, 0.0, 0.0, 0.0, 0.0, 0.0, 0.0, 0.0, 0.0, 1.695415829892937E9, 0.0, 2023-09-22 15:50:29.892
44.0, -38030.5767691823, -14932.686380468176, -87062.43629007773, -81456.3729114977, -26431.831888178815, -55609.173251291904, -157948.5798416829, -73031.53103965892, -1837.9615948154444, -187500.02235174447, -85644.48632532195, -79436.02108192696, -59231.56401295233, -57625.278249416144, -83223.32301417865, -84344.86649571259, -0.024, 0.922, 0.396, 192.0, 0.0, 0.0, 0.0, 0.0, 0.0, 0.0, 0.0, 0.0, 0.0, 1.69541582989294E9, 0.0, 2023-09-22 15:50:29.892
46.0, -38022.12780977819, -14931.971124645606, -87049.74049922712, -81443.47595494699, -26410.46362047954, -55593.70584412883, -157842.47611075357, -73009.02283299241, -1924.552252835304, -187500.02235174447, -85626.60492975771, -79426.45453530009, -59222.5786116813, -57610.5484498201, -83208.32499364913, -84328.75088796031, -0.024, 0.922, 0.396, 192.0, 0.0, 0.0, 0.0, 0.0, 0.0, 0.0, 0.0, 0.0, 0.0, 1.695415829952788E9, 0.0, 2023-09-22 15:50:29.952
48.0, -37980.777082535875, -14883.154914755216, -87008.85915861836, -81390.54702407683, -26378.344163697264, -55542.699163281824, -157942.58957416887, -72967.60505051674, -1810.6701148355146, -187500.02235174447, -85619.65353723211, -79411.1435903482, -59204.25018122795, -57593.11408914496, -83197.64085979949, -84313.64110870851, -0.032, 0.93, 0.398, 192.0, 127.5, 0.0, 14.5, 8.0, 6.0, 56.0, 0.0, 0.0, 0.0, 1.695415829952811E9, 0.0, 2023-09-22 15:50:29.952
50.0, -37985.80622503832, -14894.196676516138, -87010.78140864152, -81395.464407857, -26363.055570489832, -55541.916852225884, -157849.3604480458, -72961.48067253598, -1888.5435925178044, -187500.02235174447, -85581.40970246909, -79361.70153161306, -59167.973299976984, -57551.94217585828, -83146.99180686376, -84259.57223887113, -0.032, 0.93, 0.398, 192.0, 0.0, 0.0, 0.0, 0.0, 0.0, 0.0, 0.0, 0.0, 0.0, 1.695415829952815E9, 0.0, 2023-09-22 15:50:29.952
52.0, -37975.01033246641, -14881.724403110076, -87000.36549572535, -81387.61894555319, -26365.26839319091, -55532.95380269931, -157935.74994036555, -72962.71001848103, -1789.6594750475258, -187500.02235174447, -85592.6526299301, -79375.40315096416, -59181.76432630591, -57562.939234130296, -83162.9286006604, -84276.91719256845, -0.032, 0.93, 0.398, 192.0, 0.0, 0.0, 0.0, 0.0, 0.0, 0.0, 0.0, 0.0, 0.0, 1.695415829952818E9, 0.0, 2023-09-22 15:50:29.952
54.0, -37970.04824519733, -14884.585426400356, -86984.74162635108, -81377.38184659265, -26348.63869531616, -55528.34934334151, -157860.46926504007, -72943.10753859371, -1870.9304178870225, -187500.02235174447, -85575.21826925495, -79368.25059273846, -59157.26681438289, -57553.01505959214, -83140.64391143846, -84262.63442786151, -0.032, 0.93, 0.398, 192.0, 0.0, 0.0, 0.0, 0.0, 0.0, 0.0, 0.0, 0.0, 0.0, 1.695415829952821E9, 0.0, 2023-09-22 15:50:29.952
56.0, -37965.64495153963, -14871.107324493805, -86993.86113808885, -81385.07084668528, -26371.303364193842, -55539.16758765788, -157942.00842881305, -72955.89273642216, -1803.7634257988248, -187500.02235174447, -85563.95299004948, -79359.734578101, -59155.47867482647, -57546.91303335584, -83139.14634455995, -84260.28749469371, -0.032, 0.93, 0.398, 192.0, 0.0, 0.0, 0.0, 0.0, 0.0, 0.0, 0.0, 0.0, 0.0, 1.695415829952825E9, 0.0, 2023-09-22 15:50:29.952
58.0, -37993.20465245302, -14903.673816165188, -87016.07877207742, -81409.30013767483, -26381.004021287445, -55559.84295127904, -157862.54797727443, -72979.25030937795, -1875.8701534116453, -187500.02235174447, -85589.97042059546, -79382.01926732293, -59181.0714222278, -57575.165638347346, -83169.94704841937, -84285.20968976137, -0.03, 0.926, 0.398, 192.0, 127.5, 8.0, 14.0, 120.0, 6.0, 56.0, 0.0, 0.0, 0.0, 1.695415829952828E9, 0.0, 2023-09-22 15:50:29.952
60.0, -37979.525384846376, -14885.23362698956, -87011.83194063092, -81405.54504460633, -26387.351916712752, -55556.93722449985, -157927.41273968373, -72984.50296932495, -1843.7283448849137, -187500.02235174447, -85587.91406010557, -79379.49352019948, -59186.12291647469, -57572.68459471281, -83165.07436812812, -84287.22134676235, -0.03, 0.926, 0.398, 192.0, 0.0, 0.0, 0.0, 0.0, 0.0, 0.0, 0.0, 0.0, 0.0, 1.695415830013032E9, 0.0, 2023-09-22 15:50:30.013
62.0, -38008.38148693818, -14917.174269816194, -87038.02818513253, -81434.6246641427, -26404.160428543142, -55581.702957356334, -157868.87352095527, -73002.33966140028, -1882.9333046595223, -187500.02235174447, -85596.8547578877, -79387.92012785914, -59198.79635558085, -57581.51353377265, -83179.80416772416, -84298.48662596782, -0.03, 0.926, 0.398, 192.0, 0.0, 0.0, 0.0, 0.0, 0.0, 0.0, 0.0, 0.0, 0.0, 1.695415830013047E9, 0.0, 2023-09-22 15:50:30.013
64.0, -37996.8703385437, -14902.220952775593, -87034.7424786976, -81434.57996065378, -26404.339242498787, -55583.28993121266, -157898.37782363629, -73000.75268754395, -1870.818659164746, -187500.02235174447, -85617.03838313084, -79408.86371241376, -59209.011102796925, -57598.25499036968, -83189.97421145132, -84317.46325701037, -0.03, 0.926, 0.398, 192.0, 0.0, 0.0, 0.0, 0.0, 0.0, 0.0, 0.0, 0.0, 0.0, 1.69541583001305E9, 0.0, 2023-09-22 15:50:30.013
66.0, -37993.96461176451, -14908.166516800704, -87024.90771113726, -81417.79380056784, -26393.141018526676, -55568.828352550074, -157872.02511692347, -72980.5243588119, -1888.4318337955278, -187500.02235174447, -85604.25318530241, -79398.5372064754, -59210.46396618652, -57588.28611234261, -83177.4348828119, -84301.21353879137, -0.03, 0.926, 0.398, 192.0, 0.0, 0.0, 0.0, 0.0, 0.0, 0.0, 0.0, 0.0, 0.0, 1.695415830013054E9, 0.0, 2023-09-22 15:50:30.013
68.0, -37993.47287338649, -14897.974121329085, -87028.66280420576, -81423.7170128485, -26411.871780380225, -55576.33853868706, -157885.05618394093, -73002.0267369779, -1894.42210130955, -187500.02235174447, -85605.23666205844, -79399.18540706461, -59212.63208539869, -57594.186972878815, -83187.22494688332, -84307.33791677213, -0.036000000000000004, 0.932, 0.4, 192.0, 127.0, 112.0, 14.5, 16.0, 6.0, 64.0, 0.0, 0.0, 0.0, 1.69541583001306E9, 0.0, 2023-09-22 15:50:30.013
70.0, -37980.486509857954, -14895.180153272171, -87006.9369085952, -81404.24864342793, -26381.60751838774, -55556.49018961075, -157887.78309676447, -72972.5224342969, -1880.8545924251787, -187500.02235174447, -85588.0034670834, -79383.80740687936, -59188.55925662032, -57563.16275157485, -83171.86929844253, -84290.70821889737, -0.036000000000000004, 0.932, 0.4, 192.0, 0.0, 0.0, 0.0, 0.0, 0.0, 0.0, 0.0, 0.0, 0.0, 1.695415830013063E9, 0.0, 2023-09-22 15:50:30.013
72.0, -37991.90825127462, -14904.94786559914, -87026.20411231568, -81423.89582680415, -26401.053536063857, -55577.67964335438, -157876.20489313663, -73001.1326671997, -1905.7320840039354, -187500.02235174447, -85586.97528683845, -79389.30593601537, -59188.51455313141, -57573.24338832419, -83177.36782757854, -84296.92200385594, -0.036000000000000004, 0.932, 0.4, 192.0, 0.0, 0.0, 0.0, 0.0, 0.0, 0.0, 0.0, 0.0, 0.0, 1.695415830013067E9, 0.0, 2023-09-22 15:50:30.013
74.0, -38010.59430963926, -14925.734987942576, -87036.73178395412, -81433.48472517547, -26407.26732102243, -55585.413346935915, -157888.23013165357, -73006.94412075808, -1862.1014788271762, -187500.02235174447, -85599.55931896679, -79404.05808735586, -59211.536849920376, -57596.6456647689, -83188.56605155063, -84310.4001057625, -0.036000000000000004, 0.932, 0.4, 192.0, 0.0, 0.0, 0.0, 0.0, 0.0, 0.0, 0.0, 0.0, 0.0, 1.69541583001307E9, 0.0, 2023-09-22 15:50:30.013
76.0, -37999.26197520042, -14908.747662156542, -87032.93198739672, -81426.39922218314, -26409.32368151232, -55579.110154999515, -157854.0543143814, -72996.57291133082, -1919.0313719548433, -187500.02235174447, -85608.67883070455, -79410.20481708107, -59207.66999812961, -57604.51347881716, -83195.80801675416, -84312.21059706339, -0.036000000000000004, 0.932, 0.4, 192.0, 0.0, 0.0, 0.0, 0.0, 0.0, 0.0, 0.0, 0.0, 0.0, 1.695415830073397E9, 0.0, 2023-09-22 15:50:30.073
78.0, -38018.81975159881, -14926.159671087227, -87042.65499623478, -81436.41280369912, -26418.84552465028, -55585.74862310274, -157890.33119563237, -73003.2784346674, -1858.0558130807656, -187500.02235174447, -85610.57872898325, -79405.86857865675, -59211.24627724246, -57604.28996137261, -83194.64572604248, -84306.66736443846, -0.028, 0.93, 0.398, 192.0, 127.5, 16.0, 14.5, 8.0, 6.0, 56.0, 0.0, 0.0, 0.0, 1.695415830073411E9, 0.0, 2023-09-22 15:50:30.073
80.0, -38034.86830411772, -14941.917650928219, -87068.4042058473, -81474.96956288452, -26447.99219942, -55614.18004204989, -157814.67054065116, -73044.07036829834, -1937.4492093860163, -187500.02235174447, -85628.63893850315, -79431.17075338015, -59234.045056586874, -57621.07612145855, -83209.39787738299, -84326.85098968161, -0.028, 0.93, 0.398, 192.0, 0.0, 0.0, 0.0, 0.0, 0.0, 0.0, 0.0, 0.0, 0.0, 1.695415830073415E9, 0.0, 2023-09-22 15:50:30.073
82.0, -38035.36004249573, -14946.969145175117, -87063.03978717802, -81458.92101036561, -26431.965998645544, -55605.48521345678, -157861.47509354056, -73022.12095524323, -1842.811923362246, -187500.02235174447, -85643.30168286583, -79447.88985823272, -59246.62908871521, -57640.99152576823, -83224.97704326833, -84344.77708873476, -0.028, 0.93, 0.398, 192.0, 0.0, 0.0, 0.0, 0.0, 0.0, 0.0, 0.0, 0.0, 0.0, 1.695415830073418E9, 0.0, 2023-09-22 15:50:30.073
84.0, -37990.52244311839, -14903.360891742814, -87024.08069659241, -81419.716050591, -26394.817399360825, -55566.01203274871, -157795.20217123057, -72984.86059723623, -1905.7544357483907, -187500.02235174447, -85626.09083963525, -79425.0910788883, -59227.831271628296, -57619.69031330232, -83199.69722028938, -84319.92194890046, -0.028, 0.93, 0.398, 192.0, 0.0, 0.0, 0.0, 0.0, 0.0, 0.0, 0.0, 0.0, 0.0, 1.695415830073421E9, 0.0, 2023-09-22 15:50:30.073
86.0, -37962.71687301599, -14868.156894225705, -86989.86017583135, -81383.17094840658, -26359.322829165798, -55530.33864859804, -157893.54984683395, -72956.63034398918, -1772.0686521611992, -187500.02235174447, -85573.98892330992, -79364.71901711453, -59176.37755589218, -57557.127780571915, -83155.55252499015, -84270.41283493195, -0.028, 0.93, 0.398, 192.0, 0.0, 0.0, 0.0, 0.0, 0.0, 0.0, 0.0, 0.0, 0.0, 1.695415830073425E9, 0.0, 2023-09-22 15:50:30.073
88.0, -37982.319352903294, -14893.32495848238, -87012.90482436477, -81409.70246907503, -26386.390791701175, -55556.467837866294, -157799.00196778798, -72984.14534141366, -1853.9877955898996, -187500.02235174447, -85575.46413844397, -79368.5858689053, -59181.22788443898, -57554.28910902609, -83155.06078661213, -84272.78211984423, -0.032, 0.93, 0.402, 192.0, 127.5, 0.0, 14.5, 8.0, 6.0, 72.0, 0.0, 0.0, 0.0, 1.695415830073428E9, 0.0, 2023-09-22 15:50:30.073
90.0, -37939.94044541603, -14848.50971084949, -86963.44041388517, -81363.8590411972, -26339.116852178202, -55504.07534886305, -157904.3680911503, -72925.44966047403, -1751.303881562219, -187500.02235174447, -85570.21147849697, -79368.29529622737, -59176.48931461445, -57553.26092878115, -83150.45632725435, -84267.61886687504, -0.032, 0.93, 0.402, 192.0, 0.0, 0.0, 0.0, 0.0, 0.0, 0.0, 0.0, 0.0, 0.0, 1.695415830133532E9, 0.0, 2023-09-22 15:50:30.133
92.0, -37964.37090210568, -14876.047060018429, -86993.01177179955, -81393.02806771136, -26363.770826312404, -55529.42222707537, -157817.53156394145, -72959.51371902392, -1863.4425834944946, -187500.02235174447, -85550.25137069839, -79350.95034253006, -59158.071477183286, -57530.26098373664, -83122.02490830718, -84238.9862822278, -0.032, 0.93, 0.402, 192.0, 0.0, 0.0, 0.0, 0.0, 0.0, 0.0, 0.0, 0.0, 0.0, 1.695415830133548E9, 0.0, 2023-09-22 15:50:30.133
94.0, -37978.38544587916, -14884.13839151125, -87005.41698997223, -81406.90850101812, -26379.215881731023, -55547.37067787298, -157909.59839935284, -72977.03748667687, -1781.948123210445, -187500.02235174447, -85570.97143780845, -79370.50811892845, -59176.35520414772, -57547.51653045613, -83146.54477197466, -84264.2884569512, -0.032, 0.93, 0.402, 192.0, 0.0, 0.0, 0.0, 0.0, 0.0, 0.0, 0.0, 0.0, 0.0, 1.695415830133552E9, 0.0, 2023-09-22 15:50:30.133
96.0, -38024.407687712635, -14939.280145082492, -87055.10491789639, -81461.93849586709, -26429.552010244373, -55602.08774829957, -157779.75711581198, -73026.88187681221, -1898.3113048447735, -187500.02235174447, -85616.32312730826, -79415.03279388342, -59212.363864465224, -57600.91484795986, -83195.18216790941, -84313.01525986377, -0.032, 0.93, 0.402, 192.0, 0.0, 0.0, 0.0, 0.0, 0.0, 0.0, 0.0, 0.0, 0.0, 1.695415830133555E9, 0.0, 2023-09-22 15:50:30.133
98.0, -37997.80911181082, -14910.781670901975, -87031.21090307366, -81428.9249693066, -26403.445172720574, -55578.908989299416, -157868.9629279331, -73003.56900734533, -1821.3989521740618, -187500.02235174447, -85617.66423197559, -79411.94825314858, -59222.66801865912, -57607.57566780754, -83193.95282196437, -84314.57988197565, -0.03, 0.926, 0.4, 192.0, 127.5, 8.0, 14.0, 120.0, 6.0, 64.0, 0.0, 0.0, 0.0, 1.695415830133562E9, 0.0, 2023-09-22 15:50:30.133
100.0, -38015.8246178418, -14926.249078065048, -87046.41008930327, -81450.85203061724, -26412.899960625167, -55587.2685417257, -157769.87764476272, -73005.31244341284, -1915.6339067976364, -187500.02235174447, -85620.16762735459, -79415.12220086124, -59221.595134925265, -57606.03339744013, -83194.0869324311, -84312.9035011415, -0.03, 0.926, 0.4, 192.0, 0.0, 0.0, 0.0, 0.0, 0.0, 0.0, 0.0, 0.0, 0.0, 1.695415830133565E9, 0.0, 2023-09-22 15:50:30.133
102.0, -37986.454425627526, -14889.480458436068, -87020.79499015749, -81415.80449531133, -26390.190588258578, -55556.08785821055, -157857.45177953862, -72986.60403330375, -1841.783743117302, -187500.02235174447, -85613.7526766959, -79408.57313973585, -59209.41343419712, -57597.24916186919, -83193.88576673101, -84308.79078016171, -0.03, 0.926, 0.4, 192.0, 0.0, 0.0, 0.0, 0.0, 0.0, 0.0, 0.0, 0.0, 0.0, 1.695415830133568E9, 0.0, 2023-09-22 15:50:30.133
104.0, -38007.33095494878, -14918.202450061137, -87040.33041481143, -81438.67032988911, -26406.395602988676, -55577.45612590983, -157771.6881360636, -73018.23175170801, -1906.290877615318, -187500.02235174447, -85599.17933931106, -79393.99980235098, -59202.26087597143, -57580.57476050553, -83172.875126943, -84289.61298341907, -0.03, 0.926, 0.4, 192.0, 0.0, 0.0, 0.0, 0.0, 0.0, 0.0, 0.0, 0.0, 0.0, 1.695415830133571E9, 0.0, 2023-09-22 15:50:30.133
106.0, -37991.46121638551, -14899.695205652144, -87028.2381210611, -81425.8180768273, -26402.774620386914, -55564.46976238129, -157835.2564972945, -72987.09577168176, -1843.0354408067992, -187500.02235174447, -85615.04907787431, -79410.60714848127, -59209.21226849702, -57593.44936531179, -83188.90132771747, -84304.43218999293, -0.03, 0.926, 0.4, 192.0, 0.0, 0.0, 0.0, 0.0, 0.0, 0.0, 0.0, 0.0, 0.0, 1.6954158301933E9, 0.0, 2023-09-22 15:50:30.193
108.0, -37995.8198065543, -14909.641731934755, -87023.07486809194, -81416.34093717825, -26387.106047523743, -55558.54655010063, -157772.0904674638, -72968.94615518405, -1892.3433890752065, -187500.02235174447, -85603.09089459073, -79399.05129659789, -59197.723471847, -57575.74678370319, -83166.46017628434, -84280.82874784814, -0.032, 0.93, 0.396, 192.0, 127.5, 0.0, 14.5, 8.0, 6.0, 48.0, 0.0, 0.0, 0.0, 1.695415830193311E9, 0.0, 2023-09-22 15:50:30.193
110.0, -37991.66238208561, -14899.561095185412, -87026.42762976023, -81417.63733835665, -26399.310099996343, -55561.40757339091, -157816.21281101857, -72984.03358269138, -1851.3502897441733, -187500.02235174447, -85612.76919993988, -79408.1931600801, -59195.48829740147, -57582.56406576205, -83173.8809554435, -84292.18343403142, -0.032, 0.93, 0.396, 192.0, 0.0, 0.0, 0.0, 0.0, 0.0, 0.0, 0.0, 0.0, 0.0, 1.695415830193314E9, 0.0, 2023-09-22 15:50:30.193
112.0, -37994.99279200945, -14909.28410402347, -87023.76777217005, -81400.1135707037, -26384.781466100394, -55556.244320421734, -157774.01271748694, -72975.472864565, -1877.747699945891, -187500.02235174447, -85594.21725204197, -79386.31080225835, -59191.28616944387, -57561.620481207436, -83156.22307732381, -84274.97259080084, -0.032, 0.93, 0.396, 192.0, 0.0, 0.0, 0.0, 0.0, 0.0, 0.0, 0.0, 0.0, 0.0, 1.695415830193318E9, 0.0, 2023-09-22 15:50:30.193
114.0, -37994.277536186884, -14900.276351007982, -87036.82119093195, -81407.84727428523, -26408.921350112123, -55567.4648961383, -157793.9504735411, -73003.39019338969, -1858.4804962254163, -187500.02235174447, -85614.3561737962, -79407.70142170208, -59205.01014053943, -57586.45326929728, -83177.79251072319, -84293.05515206518, -0.032, 0.93, 0.396, 192.0, 0.0, 0.0, 0.0, 0.0, 0.0, 0.0, 0.0, 0.0, 0.0, 1.695415830193321E9, 0.0, 2023-09-22 15:50:30.193
116.0, -37994.3669431647, -14907.00422608903, -87040.68804272272, -81401.34291664875, -26405.054498321355, -55565.02855599267, -157774.8844355207, -72991.36495487273, -1865.4989439843828, -187500.02235174447, -85607.36007778169, -79399.67714544263, -59195.4212421681, -57572.70694645726, -83171.89165018698, -84287.2436985068, -0.032, 0.93, 0.396, 192.0, 0.0, 0.0, 0.0, 0.0, 0.0, 0.0, 0.0, 0.0, 0.0, 1.695415830193324E9, 0.0, 2023-09-22 15:50:30.193
118.0, -37988.17550995058, -14903.89733360974, -87047.17004861475, -81405.76856205089, -26423.628797963716, -55567.643710093944, -157768.42478137312, -72984.90530072515, -1888.811813451268, -187500.02235174447, -85619.63118548765, -79411.38945953721, -59206.842983584764, -57584.10633612947, -83180.94410669139, -84290.66351540847, -0.03, 0.924, 0.396, 192.0, 127.5, 8.0, 14.0, 112.0, 6.0, 48.0, 0.0, 0.0, 0.0, 1.695415830193328E9, 0.0, 2023-09-22 15:50:30.193
120.0, -37982.453463370024, -14900.298702752436, -87022.31490878045, -81385.96491646349, -26389.229463247, -55544.82257900508, -157771.5987290858, -72957.30089632283, -1857.809943891757, -187500.02235174447, -85611.07046736128, -79399.744200676, -59189.56508512081, -57573.15398134637, -83161.16281284843, -84272.78211984423, -0.03, 0.924, 0.396, 192.0, 0.0, 0.0, 0.0, 0.0, 0.0, 0.0, 0.0, 0.0, 0.0, 1.695415830252808E9, 0.0, 2023-09-22 15:50:30.252
122.0, -37972.61869580969, -14889.055775291417, -87020.75028666858, -81382.38863735064, -26386.055515534346, -55551.170474430386, -157751.70567652056, -72965.34752432675, -1865.3648335176508, -187500.02235174447, -85612.41157202859, -79398.42544775314, -59166.07340169828, -57568.86244641095, -83154.97137963431, -84270.07755876513, -0.03, 0.924, 0.396, 192.0, 0.0, 0.0, 0.0, 0.0, 0.0, 0.0, 0.0, 0.0, 0.0, 1.695415830252822E9, 0.0, 2023-09-22 15:50:30.252
124.0, -37953.865582211685, -14876.158818740705, -87002.71242889315, -81365.62482900916, -26367.324753680798, -55531.25507012071, -157792.0505752624, -72949.45543401902, -1792.296980893252, -187500.02235174447, -85589.21046128399, -79371.35748521776, -59154.67401202608, -57558.111257327946, -83133.40194623494, -84247.94933175437, -0.03, 0.924, 0.396, 192.0, 0.0, 0.0, 0.0, 0.0, 0.0, 0.0, 0.0, 0.0, 0.0, 1.695415830252825E9, 0.0, 2023-09-22 15:50:30.252
126.0, -37954.156154889606, -14878.349289697326, -87017.01754534454, -81372.62092502367, -26381.69692536556, -55549.87407325197, -157741.84855721577, -72970.95781218504, -1833.6030046466597, -187500.02235174447, -85603.18030156854, -79383.85211036827, -59163.502951085924, -57555.85373113796, -83149.29403654266, -84266.43422441892, -0.03, 0.924, 0.396, 192.0, 0.0, 0.0, 0.0, 0.0, 0.0, 0.0, 0.0, 0.0, 0.0, 1.695415830252829E9, 0.0, 2023-09-22 15:50:30.252
128.0, -37938.26406458188, -14861.719591822577, -86992.54238516599, -81348.41398577858, -26357.534689609372, -55521.59911651601, -157803.44996493458, -72944.60510547222, -1754.5672362526939, -187500.02235174447, -85591.37858049615, -79374.19615676357, -59158.116180672194, -57553.05976308105, -83142.05207133915, -84259.72870108232, -0.032, 0.924, 0.396, 192.0, 127.5, 0.0, 14.0, 112.0, 6.0, 48.0, 0.0, 0.0, 0.0, 1.695415830252833E9, 0.0, 2023-09-22 15:50:30.252
130.0, -37936.27475932536, -14857.785684798442, -86992.34121946589, -81347.45286076699, -26359.680457077084, -55520.9062124379, -157748.46467357455, -72937.92193388009, -1843.4824756959054, -187500.02235174447, -85569.58562965223, -79356.47122341052, -59144.23574736545, -57522.102597010446, -83123.20955076332, -84238.80746827215, -0.032, 0.924, 0.396, 192.0, 0.0, 0.0, 0.0, 0.0, 0.0, 0.0, 0.0, 0.0, 0.0, 1.695415830252836E9, 0.0, 2023-09-22 15:50:30.252
132.0, -37944.902532685104, -14866.70403083611, -86991.7824258545, -81346.82701192224, -26358.004076242934, -55519.60981125949, -157824.21473553358, -72942.52639323789, -1758.3446810656408, -187500.02235174447, -85577.6993128895, -79360.89686881268, -59132.188157104036, -57528.405788946846, -83133.26783576822, -84244.01542473024, -0.032, 0.924, 0.396, 192.0, 0.0, 0.0, 0.0, 0.0, 0.0, 0.0, 0.0, 0.0, 0.0, 1.695415830252846E9, 0.0, 2023-09-22 15:50:30.252
134.0, -37962.89568697163, -14891.313301481403, -87016.54815871098, -81368.37409357716, -26386.770771356914, -55535.770122500675, -157737.04293215787, -72954.59633524375, -1856.3123770132515, -187500.02235174447, -85597.74882766591, -79377.41480796513, -59145.263927610395, -57548.50000721217, -83137.38055674799, -84251.07857597811, -0.032, 0.924, 0.396, 192.0, 0.0, 0.0, 0.0, 0.0, 0.0, 0.0, 0.0, 0.0, 0.0, 1.695415830252849E9, 0.0, 2023-09-22 15:50:30.252
136.0, -37956.14546014613, -14879.712746109099, -87008.34506849588, -81356.52766901585, -26380.400524187153, -55523.49901479471, -157823.007741333, -72947.68964620706, -1766.1230881360875, -187500.02235174447, -85597.16768231007, -79379.80644462186, -59150.628346279664, -57551.539844458086, -83147.86352489752, -84253.87254403502, -0.032, 0.924, 0.396, 192.0, 0.0, 0.0, 0.0, 0.0, 0.0, 0.0, 0.0, 0.0, 0.0, 1.695415830313742E9, 0.0, 2023-09-22 15:50:30.313
138.0, -37965.399082350625, -14890.70980438111, -87029.19924607269, -81382.56745130628, -26394.727992383003, -55546.07427669457, -157722.5813534953, -72962.86648069222, -1873.5679237327486, -187500.02235174447, -85603.38146726864, -79389.84237788229, -59163.54765457483, -57571.96933889024, -83149.78577492067, -84259.84045980459, -0.026000000000000002, 0.92, 0.398, 192.0, 127.5, 24.0, 14.0, 96.0, 6.0, 56.0, 0.0, 0.0, 0.0, 1.695415830313754E9, 0.0, 2023-09-22 15:50:30.313
140.0, -37962.18043114906, -14884.540722911444, -87019.1409610678, -81383.01448619539, -26391.50934118144, -55534.607831789, -157808.61321790377, -72952.0705881203, -1774.1920678844533, -187500.02235174447, -85604.83433065824, -79394.37978200673, -59171.974262234486, -57569.66710921134, -83160.76048144823, -84266.61303837455, -0.026000000000000002, 0.92, 0.398, 192.0, 0.0, 0.0, 0.0, 0.0, 0.0, 0.0, 0.0, 0.0, 0.0, 1.695415830313758E9, 0.0, 2023-09-22 15:50:30.313
142.0, -38004.536986891864, -14931.613496734322, -87058.45767956469, -81419.00079476844, -26419.203152561564, -55570.57178861759, -157690.75246939092, -72984.9276524696, -1878.328845301729, -187500.02235174447, -85627.70016523602, -79418.63142474073, -59188.738070575964, -57592.59999902249, -83167.130728618, -84278.45946293586, -0.026000000000000002, 0.92, 0.398, 192.0, 0.0, 0.0, 0.0, 0.0, 0.0, 0.0, 0.0, 0.0, 0.0, 1.695415830313761E9, 0.0, 2023-09-22 15:50:30.313
144.0, -37971.59051556474, -14898.354100984825, -87018.9844988566, -81378.18650939304, -26389.56473941383, -55530.13748289794, -157782.72989782452, -72944.80627117232, -1794.979190227889, -187500.02235174447, -85643.27933112138, -79435.68580576012, -59195.93533229057, -57613.16360392137, -83181.65936251395, -84289.27770725223, -0.026000000000000002, 0.92, 0.398, 192.0, 0.0, 0.0, 0.0, 0.0, 0.0, 0.0, 0.0, 0.0, 0.0, 1.695415830313765E9, 0.0, 2023-09-22 15:50:30.313
146.0, -37974.60800106621, -14911.7204441691, -87026.9864233716, -81388.66947754259, -26400.740611641482, -55544.24143364924, -157698.44146948357, -72960.83247194678, -1888.3200750732512, -187500.02235174447, -85593.88197587515, -79392.52458721693, -59139.385418818645, -57556.859559638455, -83135.39125149147, -84244.32834915261, -0.026000000000000002, 0.92, 0.398, 192.0, 0.0, 0.0, 0.0, 0.0, 0.0, 0.0, 0.0, 0.0, 0.0, 1.695415830313768E9, 0.0, 2023-09-22 15:50:30.313
148.0, -37970.69644578653, -14901.66215916421, -87029.95920538416, -81390.54702407683, -26416.118611826732, -55555.864340766, -157783.42280190263, -72980.83728323427, -1792.2522774043416, -187500.02235174447, -85626.962557669, -79422.00653815348, -59182.92661701758, -57591.97415017774, -83181.2793828582, -84289.21065201887, -0.024, 0.93, 0.404, 192.0, 127.5, 32.0, 14.5, 8.0, 6.0, 80.0, 0.0, 0.0, 0.0, 1.695415830313771E9, 0.0, 2023-09-22 15:50:30.313
150.0, -37982.49816685893, -14914.670874437199, -87039.7939729445, -81404.69567831703, -26412.74349841398, -55578.976044532785, -157698.55322820583, -73004.15015270116, -1878.4182522795502, -187500.02235174447, -85618.93828140954, -79412.52939850443, -59177.070459970295, -57597.539734547114, -83175.08794964409, -84294.55271894368, -0.024, 0.93, 0.404, 192.0, 0.0, 0.0, 0.0, 0.0, 0.0, 0.0, 0.0, 0.0, 0.0, 1.695415830373137E9, 0.0, 2023-09-22 15:50:30.373
152.0, -37966.33785561775, -14884.18309500016, -87022.44901924719, -81387.21661415299, -26408.496666967472, -55562.50280886923, -157782.2381594465, -72983.00540244645, -1805.462158377428, -187500.02235174447, -85629.0636216478, -79422.11829687575, -59179.238579182456, -57606.18985965131, -83185.57091779362, -84307.31556502767, -0.024, 0.93, 0.404, 192.0, 0.0, 0.0, 0.0, 0.0, 0.0, 0.0, 0.0, 0.0, 0.0, 1.695415830373149E9, 0.0, 2023-09-22 15:50:30.373
154.0, -37985.26978317139, -14909.261752279015, -87033.62489147484, -81398.83952126975, -26406.619120433228, -55571.68937584035, -157718.15570809314, -72992.79546651787, -1869.0975748416872, -187500.02235174447, -85589.59044093972, -79386.35550574727, -59149.600166034725, -57573.95864414676, -83143.19201030636, -84266.97066628584, -0.024, 0.93, 0.404, 192.0, 0.0, 0.0, 0.0, 0.0, 0.0, 0.0, 0.0, 0.0, 0.0, 1.695415830373153E9, 0.0, 2023-09-22 15:50:30.373
156.0, -37984.30865815981, -14913.66504593671, -87040.66569097826, -81404.56156785031, -26416.543294971383, -55569.32009092809, -157765.96608948303, -72997.53403634239, -1817.8450248056681, -187500.02235174447, -85636.14912464013, -79438.72564300605, -59195.51064914592, -57623.959496493284, -83192.03057194121, -84309.68484993993, -0.024, 0.93, 0.404, 192.0, 0.0, 0.0, 0.0, 0.0, 0.0, 0.0, 0.0, 0.0, 0.0, 1.695415830373157E9, 0.0, 2023-09-22 15:50:30.373
158.0, -37995.70804783202, -14928.931287399684, -87046.36538581437, -81398.1689689361, -26414.822210648326, -55557.63012857797, -157705.3705102647, -72984.32415536931, -1874.9313801445223, -187500.02235174447, -85620.72642096596, -79423.63821549872, -59184.80416355183, -57594.07521415654, -83169.70117923035, -84280.87345133704, -0.03, 0.93, 0.4, 192.0, 127.5, 8.0, 14.5, 8.0, 6.0, 64.0, 0.0, 0.0, 0.0, 1.69541583037316E9, 0.0, 2023-09-22 15:50:30.373
160.0, -37991.37180940769, -14915.140261070761, -87048.55585677098, -81401.7675997934, -26424.70168169757, -55556.110209955004, -157736.79706296886, -72972.54478604136, -1856.3794322466174, -187500.02235174447, -85634.11511589469, -79431.17075338015, -59198.595189880754, -57598.92554270334, -83179.62535376851, -84284.36032347206, -0.03, 0.93, 0.4, 192.0, 0.0, 0.0, 0.0, 0.0, 0.0, 0.0, 0.0, 0.0, 0.0, 1.695415830373164E9, 0.0, 2023-09-22 15:50:30.373
162.0, -37989.158986706614, -14916.593124460356, -87032.26143506306, -81399.7112393035, -26403.400469231663, -55546.968346472786, -157694.68637641508, -72959.93840216857, -1856.3794322466174, -187500.02235174447, -85627.23077860246, -79421.8947794312, -59183.99950075144, -57590.409528065866, -83170.59524900858, -84276.11252976806, -0.03, 0.93, 0.4, 192.0, 0.0, 0.0, 0.0, 0.0, 0.0, 0.0, 0.0, 0.0, 0.0, 1.695415830373167E9, 0.0, 2023-09-22 15:50:30.373
164.0, -37992.77996930837, -14915.341426770858, -87041.64916773429, -81411.80353305383, -26427.406242776662, -55570.884713039966, -157697.8156206388, -72985.01705944742, -1830.8313883342014, -187500.02235174447, -85631.52231353788, -79425.42635505514, -59178.90330301563, -57590.56599027706, -83173.94801067688, -84284.2932682387, -0.03, 0.93, 0.4, 192.0, 0.0, 0.0, 0.0, 0.0, 0.0, 0.0, 0.0, 0.0, 0.0, 1.695415830373171E9, 0.0, 2023-09-22 15:50:30.373
166.0, -37966.69548352903, -14898.465859707101, -87010.49083596359, -81388.22244265348, -26394.213902260533, -55552.24335816424, -157681.99058556446, -72960.5195475244, -1806.9150217670228, -187500.02235174447, -85621.709897722, -79422.56533176487, -59177.3163291593, -57605.40754859538, -83175.5349845332, -84289.81414911916, -0.03, 0.93, 0.4, 192.0, 0.0, 0.0, 0.0, 0.0, 0.0, 0.0, 0.0, 0.0, 0.0, 1.69541583043309E9, 0.0, 2023-09-22 15:50:30.433
168.0, -37946.62361700817, -14876.047060018429, -87002.37715272632, -81384.69086702954, -26394.482123193997, -55550.723439541274, -157671.61937613718, -72969.10261739524, -1809.7313415683916, -187500.02235174447, -85586.39414148261, -79389.06006682635, -59148.77315148988, -57584.68748148531, -83149.94223713187, -84268.24471571979, -0.03, 0.928, 0.4, 192.0, 127.5, 8.0, 14.5, 0.0, 6.0, 64.0, 0.0, 0.0, 0.0, 1.695415830433103E9, 0.0, 2023-09-22 15:50:30.433
170.0, -37929.323366799756, -14859.193844699126, -86974.66098960173, -81354.02427363685, -26371.50452989394, -55519.60981125949, -157696.58627469378, -72937.67606469108, -1762.9267886789787, -187500.02235174447, -85570.7479203639, -79375.22433700852, -59138.29018334034, -57567.767210932645, -83137.626425937, -84260.26514294924, -0.03, 0.928, 0.4, 192.0, 0.0, 0.0, 0.0, 0.0, 0.0, 0.0, 0.0, 0.0, 0.0, 1.695415830433106E9, 0.0, 2023-09-22 15:50:30.433
172.0, -37944.455497796, -14869.721516337577, -86994.62109740032, -81375.30313435831, -26383.55212015535, -55528.55050904161, -157668.60189063573, -72950.99770438645, -1821.8906905520787, -187500.02235174447, -85563.5953621382, -79369.47993868351, -59129.3047820693, -57560.72641142922, -83123.56717867461, -84242.40609912945, -0.03, 0.928, 0.4, 192.0, 0.0, 0.0, 0.0, 0.0, 0.0, 0.0, 0.0, 0.0, 0.0, 1.69541583043311E9, 0.0, 2023-09-22 15:50:30.433
174.0, -37968.0142364519, -14894.531952682968, -87006.95926033966, -81380.60049779422, -26390.59291965877, -55524.169567128374, -157703.11298407472, -72954.21635558801, -1785.6138093011152, -187500.02235174447, -85580.6497431576, -79389.70826741557, -59144.52632004337, -57563.140399830394, -83140.0180625937, -84254.83366904661, -0.03, 0.928, 0.4, 192.0, 0.0, 0.0, 0.0, 0.0, 0.0, 0.0, 0.0, 0.0, 0.0, 1.695415830433113E9, 0.0, 2023-09-22 15:50:30.433
176.0, -37967.09781492923, -14897.6164934178, -87018.58216745642, -81391.3069833883, -26402.70756515355, -55533.51259631069, -157644.12673045715, -72967.53799528338, -1865.4095370065615, -187500.02235174447, -85606.64482195913, -79415.56923575036, -59170.70021280053, -57587.3920425644, -83161.20751633734, -84274.81612858965, -0.03, 0.928, 0.4, 192.0, 0.0, 0.0, 0.0, 0.0, 0.0, 0.0, 0.0, 0.0, 0.0, 1.695415830433122E9, 0.0, 2023-09-22 15:50:30.433
178.0, -37961.88985847114, -14892.408536959712, -87008.36742024033, -81383.17094840658, -26398.393678473676, -55534.33961085554, -157704.6329026977, -72955.53510851087, -1792.9898849713666, -187500.02235174447, -85590.59626944021, -79400.77238092094, -59154.94223295954, -57583.279321584625, -83152.84796391106, -84264.98136102932, -0.028, 0.928, 0.406, 192.0, 127.5, 16.0, 14.5, 0.0, 6.0, 88.0, 0.0, 0.0, 0.0, 1.695415830433125E9, 0.0, 2023-09-22 15:50:30.433
180.0, -37957.41950958008, -14891.04508054794, -87014.51414996554, -81389.27297464288, -26412.676443180615, -55550.56697733009, -157634.448425108, -72971.82953021879, -1887.9847989064217, -187500.02235174447, -85593.77021715287, -79402.44876175509, -59171.46017211201, -57587.95083617578, -83155.01608312322, -84271.21749773234, -0.028, 0.928, 0.406, 192.0, 0.0, 0.0, 0.0, 0.0, 0.0, 0.0, 0.0, 0.0, 0.0, 1.695415830493178E9, 0.0, 2023-09-22 15:50:30.493
182.0, -37960.83932648174, -14890.598045658833, -87008.30036500697, -81385.94256471904, -26410.41891699063, -55558.74771580073, -157710.71257718952, -72986.00053620346, -1794.8897832500677, -187500.02235174447, -85584.38248448164, -79394.80446515138, -59164.64289005315, -57584.2404465962, -83153.49616450026, -84271.39631168799, -0.028, 0.928, 0.406, 192.0, 0.0, 0.0, 0.0, 0.0, 0.0, 0.0, 0.0, 0.0, 0.0, 1.695415830493191E9, 0.0, 2023-09-22 15:50:30.493
184.0, -37975.85969875571, -14906.490135966556, -87025.60061521539, -81399.9124050036, -26431.161335845154, -55569.92358802839, -157611.47083180796, -72974.77996048689, -1889.3482553181955, -187500.02235174447, -85601.34745852322, -79407.85788391327, -59176.04227972535, -57597.07034791355, -83164.94025766138, -84282.61688740455, -0.028, 0.928, 0.406, 192.0, 0.0, 0.0, 0.0, 0.0, 0.0, 0.0, 0.0, 0.0, 0.0, 1.695415830493195E9, 0.0, 2023-09-22 15:50:30.493
186.0, -37966.874297484675, -14888.251112491025, -87003.87471960482, -81382.63450653965, -26394.638585405184, -55547.50478833971, -157702.64359744117, -72954.79750094384, -1780.271742376297, -187500.02235174447, -85588.67401941706, -79390.9376133606, -59157.08800042725, -57581.804106450574, -83144.55546671814, -84260.80158481617, -0.028, 0.928, 0.406, 192.0, 0.0, 0.0, 0.0, 0.0, 0.0, 0.0, 0.0, 0.0, 0.0, 1.695415830493198E9, 0.0, 2023-09-22 15:50:30.493
188.0, -37971.70227428702, -14905.886638866263, -87007.47335046213, -81385.98726820794, -26397.65607090665, -55560.021765234684, -157596.33870081173, -72974.2211668755, -1876.9653888899552, -187500.02235174447, -85614.84791217423, -79411.43416302612, -59168.28622439936, -57591.84003971101, -83157.27360931321, -84284.65089615, -0.026000000000000002, 0.932, 0.406, 192.0, 127.5, 24.0, 14.5, 16.0, 6.0, 88.0, 0.0, 0.0, 0.0, 1.695415830493201E9, 0.0, 2023-09-22 15:50:30.493
190.0, -37947.09300364173, -14881.858513576808, -86978.23726871458, -81362.8532126967, -26383.194492244067, -55531.05390442061, -157698.44146948357, -72943.39811127164, -1781.5681435547046, -187500.02235174447, -85576.82759485574, -79382.91333710114, -59140.592413019236, -57571.99169063469, -83125.06474555311, -84253.85019229057, -0.026000000000000002, 0.932, 0.406, 192.0, 0.0, 0.0, 0.0, 0.0, 0.0, 0.0, 0.0, 0.0, 0.0, 1.695415830493204E9, 0.0, 2023-09-22 15:50:30.493
192.0, -37971.92579173158, -14908.725310412088, -87009.39560048528, -81394.83855901225, -26404.875684365714, -55551.68456455285, -157584.73814543942, -72967.5156435389, -1873.0538336102766, -187500.02235174447, -85588.0481705723, -79399.3418692758, -59155.411619593106, -57583.279321584625, -83140.95683586084, -84266.5906866301, -0.026000000000000002, 0.932, 0.406, 192.0, 0.0, 0.0, 0.0, 0.0, 0.0, 0.0, 0.0, 0.0, 0.0, 1.695415830493208E9, 0.0, 2023-09-22 15:50:30.493
194.0, -37965.84611723973, -14897.482382951068, -87001.46073120365, -81372.26329711238, -26401.791143630882, -55532.484416065745, -157674.97213780548, -72959.82664344629, -1782.238695888364, -187500.02235174447, -85590.01512408437, -79396.95023261908, -59159.8149132508, -57583.48048728472, -83149.29403654266, -84269.45170992038, -0.026000000000000002, 0.932, 0.406, 192.0, 0.0, 0.0, 0.0, 0.0, 0.0, 0.0, 0.0, 0.0, 0.0, 1.695415830493211E9, 0.0, 2023-09-22 15:50:30.493
196.0, -37996.04332399885, -14937.447302037157, -87028.6404524613, -81400.04651547033, -26426.489821253996, -55554.88086400997, -157570.96947085494, -72983.60889954673, -1882.262752325863, -187500.02235174447, -85594.28430727533, -79401.19706406559, -59161.3124801293, -57580.887684927904, -83153.45146101135, -84267.26123896375, -0.026000000000000002, 0.932, 0.406, 192.0, 0.0, 0.0, 0.0, 0.0, 0.0, 0.0, 0.0, 0.0, 0.0, 1.695415830553584E9, 0.0, 2023-09-22 15:50:30.553
198.0, -38005.319297947804, -14941.515319528024, -87027.47816174963, -81404.13688470566, -26427.965036388046, -55553.78562853165, -157636.03539896433, -72981.7760565014, -1813.173510214509, -187500.02235174447, -85626.29200533534, -79435.73050924904, -59188.02281475339, -57613.20830741028, -83182.3299148476, -84294.12803579903, -0.018000000000000002, 0.926, 0.406, 192.0, 127.5, 56.0, 14.0, 120.0, 6.0, 88.0, 0.0, 0.0, 0.0, 1.695415830553612E9, 0.0, 2023-09-22 15:50:30.553
200.0, -38009.655536372135, -14950.187796376682, -87009.21678652964, -81391.57520432177, -26397.61136741774, -55541.7603900147, -157545.80140659827, -72965.63809700467, -1872.2268190654302, -187500.02235174447, -85607.6059469707, -79420.71013697507, -59168.37563137718, -57599.864315970466, -83154.9266761454, -84274.61496288955, -0.018000000000000002, 0.926, 0.406, 192.0, 0.0, 0.0, 0.0, 0.0, 0.0, 0.0, 0.0, 0.0, 0.0, 1.695415830553621E9, 0.0, 2023-09-22 15:50:30.553
202.0, -37982.20759418102, -14923.768034430508, -86971.777614567, -81360.9086109291, -26368.732913581483, -55508.568049498565, -157626.6029628042, -72919.54879993782, -1788.2960186357523, -187500.02235174447, -85591.93737410753, -79408.48373275802, -59149.68957301255, -57591.191839121806, -83131.9714345898, -84252.91141902345, -0.018000000000000002, 0.926, 0.406, 192.0, 0.0, 0.0, 0.0, 0.0, 0.0, 0.0, 0.0, 0.0, 0.0, 1.695415830553625E9, 0.0, 2023-09-22 15:50:30.553
204.0, -37998.61377461121, -14948.556119031444, -86957.8748295158, -81353.66664572558, -26354.316038407807, -55510.44559603281, -157567.77317139783, -72921.87338136118, -1830.2278912339082, -187500.02235174447, -85562.58953363771, -79386.04258132489, -59113.43504350603, -57553.707963670255, -83102.53418714216, -84231.65491004645, -0.018000000000000002, 0.926, 0.406, 192.0, 0.0, 0.0, 0.0, 0.0, 0.0, 0.0, 0.0, 0.0, 0.0, 1.695415830553632E9, 0.0, 2023-09-22 15:50:30.553
206.0, -37990.567146607296, -14932.440511279168, -86936.55126530543, -81337.84161065122, -26340.07797718978, -55498.442709260315, -157641.2657071669, -72905.86953233118, -1786.8655069906124, -187500.02235174447, -85554.92288528955, -79379.73938938849, -59104.49434572391, -57555.27258578213, -83097.50504463972, -84227.22926464431, -0.018000000000000002, 0.926, 0.406, 192.0, 0.0, 0.0, 0.0, 0.0, 0.0, 0.0, 0.0, 0.0, 0.0, 1.695415830553635E9, 0.0, 2023-09-22 15:50:30.553
208.0, -38059.701092207564, -15008.414090682756, -86987.62500138581, -81389.49649208743, -26384.22267248901, -55539.70402952481, -157596.15988685607, -72961.99476265845, -1834.6758883805144, -187500.02235174447, -85560.33200744772, -79384.50031095748, -59108.562363214776, -57559.34060327299, -83105.48461741026, -84236.14761068198, -0.026000000000000002, 0.93, 0.406, 192.0, 127.5, 24.0, 14.5, 8.0, 6.0, 88.0, 0.0, 0.0, 0.0, 1.695415830553639E9, 0.0, 2023-09-22 15:50:30.553
210.0, -38086.23261287601, -15030.877593860341, -87007.29453650648, -81400.1135707037, -26401.567626186326, -55547.795361017634, -157633.73316928543, -72987.05106819286, -1841.0908390391874, -187500.02235174447, -85608.8576446602, -79429.94140743511, -59152.103561413714, -57594.477545556736, -83143.7731556622, -84280.85109959259, -0.026000000000000002, 0.93, 0.406, 192.0, 0.0, 0.0, 0.0, 0.0, 0.0, 0.0, 0.0, 0.0, 0.0, 1.695415830613809E9, 0.0, 2023-09-22 15:50:30.613
212.0, -38115.22282543455, -15068.607338500899, -87017.35282151138, -81407.02025974038, -26397.65607090665, -55537.08887542354, -157613.72835799796, -72957.36795155621, -1871.265694053852, -187500.02235174447, -85626.49317103543, -79443.73243376403, -59162.07243944078, -57592.62235076694, -83146.9247516304, -84277.18541350191, -0.026000000000000002, 0.93, 0.406, 192.0, 0.0, 0.0, 0.0, 0.0, 0.0, 0.0, 0.0, 0.0, 0.0, 1.695415830613823E9, 0.0, 2023-09-22 15:50:30.613
214.0, -38117.45799988008, -15066.059239632994, -87015.67644067723, -81403.2651666719, -26406.37325124422, -55533.110264910494, -157623.943105214, -72951.06475961981, -1897.976028677944, -187500.02235174447, -85646.90031372313, -79463.82665202935, -59182.18900945056, -57603.753519505684, -83157.49712675776, -84282.75099787129, -0.026000000000000002, 0.93, 0.406, 192.0, 0.0, 0.0, 0.0, 0.0, 0.0, 0.0, 0.0, 0.0, 0.0, 1.695415830613827E9, 0.0, 2023-09-22 15:50:30.613
216.0, -38130.734936086534, -15084.36531834189, -87022.60548145838, -81408.07079172978, -26410.284806523898, -55536.261860878694, -157626.58061105976, -72954.50692826592, -1887.6942262285027, -187500.02235174447, -85629.15302862562, -79445.18529715363, -59172.041317467854, -57591.795336222094, -83142.94614111735, -84259.81810806014, -0.026000000000000002, 0.93, 0.406, 192.0, 0.0, 0.0, 0.0, 0.0, 0.0, 0.0, 0.0, 0.0, 0.0, 1.69541583061383E9, 0.0, 2023-09-22 15:50:30.613
218.0, -38133.68536635463, -15080.65492876231, -87028.30517629447, -81412.09410573174, -26427.7862224324, -55542.274480137174, -157602.44072704803, -72965.25811734893, -1929.1567121930973, -187500.02235174447, -85653.78465101536, -79467.93937300914, -59194.32600668979, -57605.31814161756, -83169.72353097482, -84282.86275659356, -0.028, 0.932, 0.394, 192.0, 127.5, 16.0, 14.5, 16.0, 6.0, 40.0, 0.0, 0.0, 0.0, 1.695415830613833E9, 0.0, 2023-09-22 15:50:30.613
220.0, -38154.159564275695, -15102.738452284153, -87038.00583338807, -81429.14848675115, -26431.161335845154, -55561.94401525784, -157623.13844241362, -72977.35041109925, -1898.713636244969, -187500.02235174447, -85639.56894154179, -79453.34368387982, -59184.49123912946, -57593.60582752297, -83157.20655407984, -84274.41379718945, -0.028, 0.932, 0.394, 192.0, 0.0, 0.0, 0.0, 0.0, 0.0, 0.0, 0.0, 0.0, 0.0, 1.695415830613836E9, 0.0, 2023-09-22 15:50:30.613
222.0, -38155.970055576574, -15104.861868007407, -87050.50045853859, -81453.73540565198, -26451.769644232947, -55577.634939865464, -157573.27170053383, -73002.60788233374, -1957.38696544015, -187500.02235174447, -85673.25302043594, -79493.59917564383, -59206.932390562586, -57644.27723220316, -83197.66321154394, -84321.06188786768, -0.028, 0.932, 0.394, 192.0, 0.0, 0.0, 0.0, 0.0, 0.0, 0.0, 0.0, 0.0, 0.0, 1.69541583061384E9, 0.0, 2023-09-22 15:50:30.613
224.0, -38154.89717184272, -15105.800641274529, -87032.1943798297, -81432.70241411954, -26419.963111873047, -55560.804076290624, -157619.0033696894, -72980.8819867232, -1898.1548426335864, -187500.02235174447, -85657.78561327286, -79483.25031796102, -59189.27451244289, -57638.93516527834, -83182.37461833651, -84307.2932132832, -0.028, 0.932, 0.394, 192.0, 0.0, 0.0, 0.0, 0.0, 0.0, 0.0, 0.0, 0.0, 0.0, 1.695415830613843E9, 0.0, 2023-09-22 15:50:30.613
226.0, -38169.3587505053, -15118.429376891778, -87060.96107494368, -81465.93945812457, -26448.349827331287, -55594.28698948467, -157550.47292118942, -73016.10833598475, -1974.5307534373705, -187500.02235174447, -85659.30553189582, -79490.02289653098, -59189.74389907646, -57641.41620891288, -83176.6302200115, -84304.92392837095, -0.028, 0.932, 0.394, 192.0, 0.0, 0.0, 0.0, 0.0, 0.0, 0.0, 0.0, 0.0, 0.0, 1.695415830673333E9, 0.0, 2023-09-22 15:50:30.673
228.0, -38176.511308731, -15128.487661896666, -87053.27207485105, -81466.14062382467, -26446.986370919512, -55589.54841966015, -157600.33966306923, -73012.1297254717, -1892.969237919955, -187500.02235174447, -85684.2277269635, -79513.93926309816, -59218.667056401624, -57660.258729488705, -83200.92656623443, -84337.37866132005, -0.022, 0.922, 0.4, 192.0, 127.5, 40.0, 14.0, 104.0, 6.0, 64.0, 0.0, 0.0, 0.0, 1.69541583067336E9, 0.0, 2023-09-22 15:50:30.673
230.0, -38149.398642706714, -15101.4644028502, -87038.4975717661, -81442.82775435779, -26439.632646993716, -55571.018823506696, -157511.3350166482, -72995.74589678597, -1963.4666399319935, -187500.02235174447, -85672.6718750801, -79497.13075126776, -59206.708873118034, -57652.81559858508, -83181.2793828582, -84320.01135587828, -0.022, 0.922, 0.4, 192.0, 0.0, 0.0, 0.0, 0.0, 0.0, 0.0, 0.0, 0.0, 0.0, 1.695415830673364E9, 0.0, 2023-09-22 15:50:30.673
232.0, -38135.38409893323, -15087.785135243552, -87021.8902256358, -81425.8180768273, -26413.36934725873, -55544.42024760488, -157587.62152047415, -72970.15314938464, -1835.8605308366457, -187500.02235174447, -85643.4134415881, -79468.8557945318, -59184.71475657401, -57605.988693951214, -83154.30082730066, -84286.90842233997, -0.022, 0.922, 0.4, 192.0, 0.0, 0.0, 0.0, 0.0, 0.0, 0.0, 0.0, 0.0, 0.0, 1.695415830673367E9, 0.0, 2023-09-22 15:50:30.673
234.0, -38124.230578450035, -15077.659795005298, -87021.15261806878, -81414.91042553312, -26415.60452170426, -55527.43292181885, -157499.6674060425, -72958.84316669026, -1918.1820056655415, -187500.02235174447, -85649.53781956885, -79477.48356789156, -59186.927579275085, -57611.75544402069, -83158.63706572498, -84282.8404048491, -0.022, 0.922, 0.4, 192.0, 0.0, 0.0, 0.0, 0.0, 0.0, 0.0, 0.0, 0.0, 0.0, 1.69541583067337E9, 0.0, 2023-09-22 15:50:30.673
236.0, -38119.626119092245, -15058.839626173929, -87013.15069355378, -81408.13784696316, -26410.955358857558, -55517.28522983614, -157601.43489854754, -72936.15614606811, -1827.3445161991735, -187500.02235174447, -85629.46595304798, -79454.19305016912, -59162.385363863155, -57575.92559765883, -83140.35333876054, -84253.51491612375, -0.022, 0.922, 0.4, 192.0, 0.0, 0.0, 0.0, 0.0, 0.0, 0.0, 0.0, 0.0, 0.0, 1.695415830673373E9, 0.0, 2023-09-22 15:50:30.673
238.0, -38129.23736920802, -15073.70353623671, -87030.40624027327, -81428.83556232876, -26430.75900444496, -55547.41538136189, -157506.99877822385, -72973.3270970973, -1939.326755920262, -187500.02235174447, -85639.88186596417, -79469.16871895418, -59168.24152091045, -57597.539734547114, -83154.16671683392, -84273.89970706699, -0.026000000000000002, 0.92, 0.398, 192.0, 127.5, 24.0, 14.0, 96.0, 6.0, 56.0, 0.0, 0.0, 0.0, 1.695415830673377E9, 0.0, 2023-09-22 15:50:30.673
240.0, -38128.18683721863, -15069.277890834557, -87021.95728086916, -81431.0707367743, -26431.250742822976, -55556.892521010945, -157593.05299437678, -72973.43885581956, -1849.0704118097321, -187500.02235174447, -85653.15880217061, -79479.74109408153, -59194.258951456424, -57629.52508086265, -83178.8877462015, -84304.92392837095, -0.026000000000000002, 0.92, 0.398, 192.0, 0.0, 0.0, 0.0, 0.0, 0.0, 0.0, 0.0, 0.0, 0.0, 1.695415830733E9, 0.0, 2023-09-22 15:50:30.733
242.0, -38100.15774967167, -15052.759951682086, -87005.97578358362, -81417.19030346755, -26413.928140870114, -55547.236567406246, -157512.69847305995, -72959.29020157937, -1946.1216862346753, -187500.02235174447, -85609.68465920504, -79441.16198315167, -59158.29499462784, -57610.41433935337, -83131.50204795624, -84267.21653547484, -0.026000000000000002, 0.92, 0.398, 192.0, 0.0, 0.0, 0.0, 0.0, 0.0, 0.0, 0.0, 0.0, 0.0, 1.695415830733016E9, 0.0, 2023-09-22 15:50:30.733
244.0, -38089.36185709976, -15036.912564863273, -86998.19737651317, -81414.08341098827, -26412.050594335866, -55541.46981733678, -157605.81584046077, -72947.44377701805, -1843.6836413960032, -187500.02235174447, -85619.02768838736, -79451.82376525686, -59171.16959943409, -57624.093606960014, -83143.63904519546, -84279.13001526952, -0.026000000000000002, 0.92, 0.398, 192.0, 0.0, 0.0, 0.0, 0.0, 0.0, 0.0, 0.0, 0.0, 0.0, 1.695415830733019E9, 0.0, 2023-09-22 15:50:30.733
246.0, -38118.17325570265, -15073.614129258887, -87034.38485078631, -81458.96571385453, -26444.773548218436, -55581.65825386742, -157501.38849036559, -72998.0257747204, -1929.3355261487397, -187500.02235174447, -85632.50579029392, -79473.2590881895, -59180.780849549876, -57636.32001117707, -83152.26681855522, -84295.17856778843, -0.026000000000000002, 0.92, 0.398, 192.0, 0.0, 0.0, 0.0, 0.0, 0.0, 0.0, 0.0, 0.0, 0.0, 1.695415830733023E9, 0.0, 2023-09-22 15:50:30.733
248.0, -38113.747610300496, -15061.275966319557, -87040.75509795608, -81453.91421960763, -26461.202080393086, -55583.602855635036, -157570.3883254991, -73002.56317884484, -1864.493115483894, -187500.02235174447, -85651.39301435865, -79490.71580060909, -59201.120937004205, -57646.53475839314, -83175.84790895556, -84318.1561610885, -0.022, 0.926, 0.402, 192.0, 127.5, 40.0, 14.0, 120.0, 6.0, 72.0, 0.0, 0.0, 0.0, 1.695415830733026E9, 0.0, 2023-09-22 15:50:30.733
250.0, -38109.746648042994, -15057.073838361961, -87039.07871712193, -81453.51188820743, -26458.13989140271, -55585.61451263601, -157482.03187966728, -73006.25121667996, -1932.777694794857, -187500.02235174447, -85649.33665386876, -79486.71483835159, -59193.67780610059, -57655.09547651953, -83176.13848163349, -84314.53517848674, -0.022, 0.926, 0.402, 192.0, 0.0, 0.0, 0.0, 0.0, 0.0, 0.0, 0.0, 0.0, 0.0, 1.695415830733029E9, 0.0, 2023-09-22 15:50:30.733
252.0, -38102.25881365047, -15041.338210265425, -87049.11465038237, -81463.74898716796, -26469.159301419175, -55589.07903302658, -157530.08813024618, -73013.47083013902, -1865.1413160730979, -187500.02235174447, -85656.89154349465, -79491.83338783185, -59199.019873025405, -57666.51721793619, -83192.83523474161, -84327.34272805962, -0.022, 0.926, 0.402, 192.0, 0.0, 0.0, 0.0, 0.0, 0.0, 0.0, 0.0, 0.0, 0.0, 1.695415830733032E9, 0.0, 2023-09-22 15:50:30.733
254.0, -38091.73114201202, -15048.468416746668, -87036.55296999848, -81447.78984162687, -26450.38383607672, -55572.29287294065, -157471.97359466238, -72993.93540548508, -1918.070246943265, -187500.02235174447, -85640.15008689763, -79472.6108876003, -59198.68459685858, -57639.561014123086, -83173.74684497678, -84304.5439487152, -0.022, 0.926, 0.402, 192.0, 0.0, 0.0, 0.0, 0.0, 0.0, 0.0, 0.0, 0.0, 0.0, 1.695415830733035E9, 0.0, 2023-09-22 15:50:30.733
0.0, -38110.77482828794, -15055.50921625009, -87067.04074943552, -81472.75674018345, -26478.636441068225, -55595.09165228506, -157497.78985950828, -73018.72349008602, -1874.7078626999692, -187500.02235174447, -85658.79144177336, -79489.15117849722, -59214.755501121945, -57655.631918386454, -83190.80122599617, -84315.92098664296, -0.022, 0.926, 0.402, 192.0, 0.0, 0.0, 0.0, 0.0, 0.0, 0.0, 0.0, 0.0, 0.0, 1.695415830793349E9, 0.0, 2023-09-22 15:50:30.793
2.0, -38081.40463607367, -15030.139986293316, -87031.7920484295, -81431.78599259687, -26438.492708026497, -55563.08395422506, -157447.72195192837, -72977.976259944, -1878.105327857176, -187500.02235174447, -85664.42408137608, -79487.34068719634, -59216.18601276708, -57656.79420909813, -83193.41638009743, -84315.78687617622, -0.028, 0.926, 0.406, 192.0, 127.5, 16.0, 14.0, 120.0, 6.0, 88.0, 0.0, 0.0, 0.0, 1.695415830793378E9, 0.0, 2023-09-22 15:50:30.793
4.0, -38051.229781059, -14995.047747498484, -87018.26924303404, -81422.53237039238, -26428.523829999427, -55554.8138087766, -157469.9619376614, -72974.73525699798, -1841.9849088173996, -187500.02235174447, -85632.19286587153, -79449.38742511123, -59179.28328267137, -57630.73207506324, -83165.32023731712, -84291.08819855312, -0.028, 0.926, 0.406, 192.0, 0.0, 0.0, 0.0, 0.0, 0.0, 0.0, 0.0, 0.0, 0.0, 1.695415830793382E9, 0.0, 2023-09-22 15:50:30.793
6.0, -38036.90231286315, -14988.074003228427, -86998.53265268, -81419.73840233545, -26409.189571045586, -55545.31431738309, -157460.17187358998, -72975.53991979836, -1813.5534898702492, -187500.02235174447, -85600.09576083372, -79421.13482011973, -59142.93934618704, -57607.039225940614, -83134.81010613563, -84270.7928145877, -0.028, 0.926, 0.406, 192.0, 0.0, 0.0, 0.0, 0.0, 0.0, 0.0, 0.0, 0.0, 0.0, 1.695415830793385E9, 0.0, 2023-09-22 15:50:30.793
8.0, -38035.941187851575, -14981.480238614111, -87009.26149001856, -81426.35451869424, -26422.108879340754, -55555.70787855481, -157437.35074250112, -72968.78969297287, -1808.1890712009754, -187500.02235174447, -85623.6097960007, -79450.52736407846, -59170.11906744469, -57636.409418154886, -83152.9820743778, -84295.62560267754, -0.028, 0.926, 0.406, 192.0, 0.0, 0.0, 0.0, 0.0, 0.0, 0.0, 0.0, 0.0, 0.0, 1.695415830793389E9, 0.0, 2023-09-22 15:50:30.793
10.0, -37998.3679054222, -14951.260680110538, -86964.80387029695, -81388.64712579813, -26377.159521241134, -55515.564145513075, -157466.65387948204, -72940.80530891482, -1774.9296754514785, -187500.02235174447, -85578.97336232345, -79410.6965554591, -59125.77320644537, -57593.85169671199, -83109.99966979024, -84253.87254403502, -0.028, 0.926, 0.406, 192.0, 0.0, 0.0, 0.0, 0.0, 0.0, 0.0, 0.0, 0.0, 0.0, 1.695415830793392E9, 0.0, 2023-09-22 15:50:30.793
12.0, -38005.78868458136, -14948.757284731542, -86979.15369023725, -81398.52659684737, -26397.298442995365, -55521.08502639354, -157440.14471055803, -72935.4185385011, -1824.6623068645367, -187500.02235174447, -85591.3562287517, -79422.65473874268, -59128.52247101337, -57600.266647370656, -83116.68284138237, -84261.91917203894, -0.024, 0.924, 0.406, 192.0, 127.5, 32.0, 14.0, 112.0, 6.0, 88.0, 0.0, 0.0, 0.0, 1.695415830793395E9, 0.0, 2023-09-22 15:50:30.793
14.0, -38003.12882699118, -14947.706752742142, -86976.78440532499, -81393.83273051176, -26399.60067267426, -55517.32993332505, -157488.80445823722, -72943.68868394956, -1781.299922621241, -187500.02235174447, -85564.53413540532, -79393.6868779286, -59126.84609017922, -57577.98195814872, -83096.78978881714, -84233.95713972535, -0.024, 0.924, 0.406, 192.0, 0.0, 0.0, 0.0, 0.0, 0.0, 0.0, 0.0, 0.0, 0.0, 1.695415830853563E9, 0.0, 2023-09-22 15:50:30.853
16.0, -38026.44169645807, -14971.19843616467, -87014.55885345447, -81430.221370485, -26435.721091714036, -55553.29389015364, -157428.72296914138, -72966.57687027179, -1842.163722773042, -187500.02235174447, -85606.28719404784, -79436.91515170517, -59162.13949467415, -57631.514386119175, -83149.27168479821, -84277.87831758003, -0.024, 0.924, 0.406, 192.0, 0.0, 0.0, 0.0, 0.0, 0.0, 0.0, 0.0, 0.0, 0.0, 1.695415830853577E9, 0.0, 2023-09-22 15:50:30.853
18.0, -38018.66328938762, -14968.180950663203, -87000.96899282563, -81404.36040215021, -26419.38196651721, -55541.53687257015, -157489.58676929318, -72955.04337013286, -1777.7459952528473, -187500.02235174447, -85599.44756024452, -79425.11343063277, -59162.49712258543, -57610.14611841991, -83147.9752836198, -84270.34577969859, -0.024, 0.924, 0.406, 192.0, 0.0, 0.0, 0.0, 0.0, 0.0, 0.0, 0.0, 0.0, 0.0, 1.695415830853581E9, 0.0, 2023-09-22 15:50:30.853
20.0, -38016.472818431, -14965.25287213956, -87005.72991439461, -81415.62568135568, -26426.534524742907, -55552.623337819976, -157424.14086152802, -72975.29405060936, -1864.8730951396342, -187500.02235174447, -85597.07827533226, -79424.55463702139, -59158.74202951694, -57614.57176382205, -83146.14244057446, -84271.55277389918, -0.024, 0.924, 0.406, 192.0, 0.0, 0.0, 0.0, 0.0, 0.0, 0.0, 0.0, 0.0, 0.0, 1.695415830853584E9, 0.0, 2023-09-22 15:50:30.853
22.0, -38012.69537361805, -14954.635793523288, -86998.44324570218, -81408.54017836336, -26424.299350297377, -55549.38233487396, -157497.99102520838, -72977.93155645509, -1779.109451664621, -187500.02235174447, -85604.81197891379, -79429.98611092403, -59171.90720700112, -57616.38225512293, -83157.2289058243, -84289.41181771897, -0.024, 0.928, 0.402, 192.0, 127.5, 32.0, 14.5, 0.0, 6.0, 72.0, 0.0, 0.0, 0.0, 1.695415830853587E9, 0.0, 2023-09-22 15:50:30.853
24.0, -38012.71772536251, -14952.601784777855, -87010.9378708527, -81421.59359712525, -26435.274056824932, -55556.736058799754, -157414.52961141226, -72988.43687634908, -1877.4124237790613, -187500.02235174447, -85587.10939730519, -79409.33309904732, -59145.64390726613, -57605.6981212733, -83145.89657138546, -84274.41379718945, -0.024, 0.928, 0.402, 192.0, 0.0, 0.0, 0.0, 0.0, 0.0, 0.0, 0.0, 0.0, 0.0, 1.695415830853591E9, 0.0, 2023-09-22 15:50:30.853
26.0, -38005.36400143671, -14949.6290027653, -87001.4830829481, -81406.14854170663, -26414.442230992587, -55551.304584897116, -157484.7140890019, -72970.89075695166, -1773.4097568285176, -187500.02235174447, -85606.91304289259, -79429.47202080155, -59165.0675731978, -57622.7525022927, -83158.54765874716, -84291.46817820886, -0.024, 0.928, 0.402, 192.0, 0.0, 0.0, 0.0, 0.0, 0.0, 0.0, 0.0, 0.0, 0.0, 1.695415830853594E9, 0.0, 2023-09-22 15:50:30.853
28.0, -38050.98391187, -14997.886419044307, -87050.76867947205, -81459.30099002135, -26459.65981002567, -55599.249076753746, -157367.143913167, -73013.9849202615, -1871.623321965137, -187500.02235174447, -85615.8537406747, -79444.33593086433, -59172.55540759032, -57643.94195603633, -83157.31831280212, -84295.22327127734, -0.024, 0.928, 0.402, 192.0, 0.0, 0.0, 0.0, 0.0, 0.0, 0.0, 0.0, 0.0, 0.0, 1.695415830853597E9, 0.0, 2023-09-22 15:50:30.853
30.0, -38044.79247865587, -14985.436497382701, -87035.32362405345, -81443.31949273581, -26458.452815825083, -55573.18694271886, -157447.5207862283, -72997.62344332022, -1785.949085467945, -187500.02235174447, -85644.62043578869, -79475.40485565721, -59198.48343115848, -57675.45791571831, -83187.9402027059, -84322.29123381272, -0.024, 0.928, 0.402, 192.0, 0.0, 0.0, 0.0, 0.0, 0.0, 0.0, 0.0, 0.0, 0.0, 1.695415830913908E9, 0.0, 2023-09-22 15:50:30.913
32.0, -38043.138449566184, -14988.230465439614, -87041.96209215667, -81444.50413519194, -26457.62580128024, -55579.19956197734, -157340.54533726518, -73001.31148115534, -1892.9915896644104, -187500.02235174447, -85627.14137162465, -79458.5516403379, -59176.35520414772, -57650.49101716173, -83164.40381579445, -84302.33112601413, -0.024, 0.932, 0.404, 192.0, 127.5, 32.0, 14.5, 16.0, 6.0, 80.0, 0.0, 0.0, 0.0, 1.69541583091392E9, 0.0, 2023-09-22 15:50:30.913
34.0, -38000.40191416763, -14948.869043453818, -87009.75322839657, -81402.57226259378, -26431.3401498008, -55547.12480868397, -157438.49068146833, -72968.9685069285, -1788.3183703802074, -187500.02235174447, -85605.63899345863, -79435.86461971577, -59159.54669231734, -57628.00516223969, -83153.6749784559, -84287.08723629561, -0.024, 0.932, 0.404, 192.0, 0.0, 0.0, 0.0, 0.0, 0.0, 0.0, 0.0, 0.0, 0.0, 1.695415830913923E9, 0.0, 2023-09-22 15:50:30.913
36.0, -38005.587518881264, -14961.96716570463, -87021.53259772451, -81410.55183536433, -26442.47131853954, -55568.42602114988, -157331.55993599416, -72981.82075999031, -1877.680644712525, -187500.02235174447, -85602.37563876816, -79430.7460702355, -59154.38343934816, -57630.70972331879, -83146.99180686376, -84285.81318686166, -0.024, 0.932, 0.404, 192.0, 0.0, 0.0, 0.0, 0.0, 0.0, 0.0, 0.0, 0.0, 0.0, 1.695415830913926E9, 0.0, 2023-09-22 15:50:30.913
38.0, -37994.74692282044, -14948.310249842436, -87021.95728086916, -81401.99111723795, -26445.309990085363, -55572.73990782975, -157410.68511136595, -72989.50976008293, -1784.5632773117159, -187500.02235174447, -85596.8547578877, -79427.01332891147, -59146.80619797781, -57624.11595870447, -83146.43301325239, -84287.15429152898, -0.024, 0.932, 0.404, 192.0, 0.0, 0.0, 0.0, 0.0, 0.0, 0.0, 0.0, 0.0, 0.0, 1.695415830913929E9, 0.0, 2023-09-22 15:50:30.913
40.0, -37975.65853305561, -14939.23544159358, -87001.036048059, -81381.02518093887, -26427.965036388046, -55555.37260238798, -157317.85831664305, -72971.36014358523, -1837.6263186486149, -187500.02235174447, -85603.89555739112, -79434.0541284149, -59152.260023624905, -57632.09553147502, -83150.7245481878, -84287.400160718, -0.024, 0.932, 0.404, 192.0, 0.0, 0.0, 0.0, 0.0, 0.0, 0.0, 0.0, 0.0, 0.0, 1.695415830913933E9, 0.0, 2023-09-22 15:50:30.913
42.0, -37934.06193662428, -14890.955673570119, -86969.56479186592, -81330.93492161452, -26405.32271925482, -55518.11224438099, -157398.36930017106, -72938.54778272484, -1739.4798087453614, -187500.02235174447, -85563.30478946028, -79385.19321503559, -59102.907371867586, -57583.36872856245, -83110.73727735726, -84245.84826777557, -0.032, 0.932, 0.402, 192.0, 127.5, 0.0, 14.5, 16.0, 6.0, 72.0, 0.0, 0.0, 0.0, 1.695415830913936E9, 0.0, 2023-09-22 15:50:30.913
44.0, -37939.29224482683, -14903.562057442912, -86978.39373092577, -81341.59670371971, -26403.780448887403, -55528.95284044181, -157319.53469747718, -72949.90246890813, -1776.4272423299842, -187500.02235174447, -85557.00159752388, -79374.37497071922, -59101.09688056671, -57584.463964040755, -83105.97635578828, -84233.71127053634, -0.032, 0.932, 0.402, 192.0, 0.0, 0.0, 0.0, 0.0, 0.0, 0.0, 0.0, 0.0, 0.0, 1.695415830973213E9, 0.0, 2023-09-22 15:50:30.973
46.0, -37921.12027658466, -14876.024708273973, -86966.34614066436, -81332.67835768203, -26395.197379016565, -55527.0082386742, -157380.71142205136, -72949.25426831892, -1724.4594364713953, -187500.02235174447, -85556.10752774567, -79370.53047067291, -59093.385528729625, -57579.81480119405, -83111.60899539101, -84243.8813142635, -0.032, 0.932, 0.402, 192.0, 0.0, 0.0, 0.0, 0.0, 0.0, 0.0, 0.0, 0.0, 0.0, 1.695415830973258E9, 0.0, 2023-09-22 15:50:30.973
48.0, -37916.538168971325, -14878.08106876386, -86953.38212888029, -81315.31105224027, -26377.248928218953, -55511.33966581103, -157336.9914098968, -72935.32913152328, -1780.562315054216, -187500.02235174447, -85541.690652572, -79352.87259255322, -59077.582845399724, -57564.16858007534, -83102.15420748643, -84233.86773274753, -0.032, 0.932, 0.402, 192.0, 0.0, 0.0, 0.0, 0.0, 0.0, 0.0, 0.0, 0.0, 0.0, 1.695415830973262E9, 0.0, 2023-09-22 15:50:30.973
50.0, -37910.592604946214, -14863.954766268107, -86949.6717393007, -81314.86401735115, -26389.60944290274, -55508.03160763164, -157379.32561389514, -72937.3631402687, -1758.9705299103894, -187500.02235174447, -85527.16201867606, -79337.31577841232, -59068.82096157324, -57553.75266715916, -83091.20185270332, -84221.21664538582, -0.032, 0.932, 0.402, 192.0, 0.0, 0.0, 0.0, 0.0, 0.0, 0.0, 0.0, 0.0, 0.0, 1.695415830973265E9, 0.0, 2023-09-22 15:50:30.973
52.0, -37936.542980258826, -14892.721461382087, -86956.44431787066, -81327.51510471286, -26388.156579513143, -55512.68077047834, -157348.5919652691, -72939.73242518096, -1773.8567917176238, -187500.02235174447, -85539.81310603775, -79356.71709259953, -59086.36708097066, -57566.11318184295, -83096.02982950567, -84226.51400882173, -0.028, 0.928, 0.404, 192.0, 127.5, 16.0, 14.5, 0.0, 6.0, 80.0, 0.0, 0.0, 0.0, 1.695415830973268E9, 0.0, 2023-09-22 15:50:30.973
54.0, -37954.22321012297, -14910.37933950178, -86982.14882399427, -81360.5062795289, -26417.906751383158, -55534.65253527791, -157349.0837036471, -72964.1181783817, -1783.7809662557802, -187500.02235174447, -85573.698350632, -79393.61982269524, -59109.72465392645, -57601.42893808233, -83115.60995764851, -84251.07857597811, -0.028, 0.928, 0.404, 192.0, 0.0, 0.0, 0.0, 0.0, 0.0, 0.0, 0.0, 0.0, 0.0, 1.695415830973272E9, 0.0, 2023-09-22 15:50:30.973
56.0, -37961.44282358204, -14926.047912364951, -86979.779539082, -81353.95721840349, -26408.22844603401, -55536.7088957678, -157343.31695357765, -72960.45249229104, -1778.0812714196768, -187500.02235174447, -85581.0520745578, -79403.45459025557, -59107.93651437003, -57599.88666771492, -83116.34756521555, -84254.43133764641, -0.028, 0.928, 0.404, 192.0, 0.0, 0.0, 0.0, 0.0, 0.0, 0.0, 0.0, 0.0, 0.0, 1.695415830973275E9, 0.0, 2023-09-22 15:50:30.973
58.0, -37958.31357935829, -14915.833165148875, -86991.62596364331, -81362.74145397442, -26420.79012641789, -55544.48730283824, -157331.69404646088, -72968.67793425059, -1802.2435071758637, -187500.02235174447, -85578.19105126752, -79399.87831114273, -59107.020092847364, -57603.44059508331, -83114.17944600337, -84251.30209342267, -0.028, 0.928, 0.404, 192.0, 0.0, 0.0, 0.0, 0.0, 0.0, 0.0, 0.0, 0.0, 0.0, 1.695415830973278E9, 0.0, 2023-09-22 15:50:30.973
60.0, -37963.163907905095, -14924.23742106407, -86993.16823401074, -81357.46644228297, -26420.767774673437, -55543.8614539935, -157344.00985765576, -72971.2260331185, -1770.7498992383362, -187500.02235174447, -85587.93641185002, -79404.6392327117, -59131.919936170576, -57609.20734515278, -83132.35141424554, -84264.95900928487, -0.028, 0.928, 0.404, 192.0, 0.0, 0.0, 0.0, 0.0, 0.0, 0.0, 0.0, 0.0, 0.0, 1.695415831032972E9, 0.0, 2023-09-22 15:50:31.032
62.0, -37979.212460424, -14935.48034852509, -87018.87274013433, -81385.1602536631, -26453.177804133633, -55579.15485848843, -157290.99151980778, -73009.87219928172, -1824.1482167420647, -187500.02235174447, -85593.41258924158, -79408.1484565912, -59135.38445656115, -57627.669886072865, -83150.0763475986, -84278.43711119141, -0.026000000000000002, 0.928, 0.402, 192.0, 127.5, 24.0, 14.5, 0.0, 6.0, 72.0, 0.0, 0.0, 0.0, 1.695415831032984E9, 0.0, 2023-09-22 15:50:31.032
64.0, -37945.72954722995, -14906.624246433288, -86975.80092856896, -81345.57531423274, -26419.672539195126, -55541.22394814777, -157335.04680812918, -72968.36500982822, -1762.9267886789787, -187500.02235174447, -85586.3494379937, -79403.43223851112, -59136.77026471738, -57626.59700233901, -83152.7809086777, -84283.15332927147, -0.026000000000000002, 0.928, 0.402, 192.0, 0.0, 0.0, 0.0, 0.0, 0.0, 0.0, 0.0, 0.0, 0.0, 1.695415831032987E9, 0.0, 2023-09-22 15:50:31.032
66.0, -37947.428279808555, -14911.496926724545, -86994.62109740032, -81365.24484935342, -26433.530620757418, -55547.68360229536, -157282.38609819248, -72995.58943457478, -1820.326068440207, -187500.02235174447, -85565.31644646126, -79384.32149700183, -59108.4506044925, -57611.28605738712, -83129.22217002179, -84262.09798599458, -0.026000000000000002, 0.928, 0.402, 192.0, 0.0, 0.0, 0.0, 0.0, 0.0, 0.0, 0.0, 0.0, 0.0, 1.69541583103299E9, 0.0, 2023-09-22 15:50:31.032
68.0, -37947.852962953206, -14917.844822149853, -86996.36453346784, -81369.46932905547, -26433.57532424633, -55538.22881439076, -157343.60752625557, -72966.6215737607, -1740.396230268029, -187500.02235174447, -85579.86743210166, -79402.20289256607, -59111.98218011644, -57615.8011097671, -83144.33194927359, -84274.52555591174, -0.026000000000000002, 0.928, 0.402, 192.0, 0.0, 0.0, 0.0, 0.0, 0.0, 0.0, 0.0, 0.0, 0.0, 1.695415831032993E9, 0.0, 2023-09-22 15:50:31.032
70.0, -37971.16583242009, -14940.28597358298, -87036.62002523185, -81401.61113758221, -26468.66756304116, -55574.25982645272, -157254.58052809007, -73001.3785363887, -1827.1209987546206, -187500.02235174447, -85599.91694687807, -79420.35250906378, -59134.80331120531, -57629.480377373744, -83159.128804103, -84284.53913742771, -0.026000000000000002, 0.928, 0.402, 192.0, 0.0, 0.0, 0.0, 0.0, 0.0, 0.0, 0.0, 0.0, 0.0, 1.695415831032997E9, 0.0, 2023-09-22 15:50:31.032
72.0, -37980.84413776924, -14943.996363162561, -87036.62002523185, -81403.04164922735, -26467.90760372968, -55573.3657566745, -157310.81751713963, -73006.07240272431, -1739.0327738562553, -187500.02235174447, -85617.9101011646, -79438.18920113912, -59168.73325928846, -57638.62224085596, -83178.59717352357, -84301.90644286948, -0.028, 0.934, 0.402, 192.0, 127.5, 16.0, 14.5, 24.0, 6.0, 72.0, 0.0, 0.0, 0.0, 1.695415831033E9, 0.0, 2023-09-22 15:50:31.033
74.0, -37957.73243400246, -14927.344313543359, -87008.65799291826, -81378.74530300443, -26449.66858025415, -55554.366773887494, -157214.28033283717, -72994.47184735202, -1821.2424899628747, -187500.02235174447, -85615.74198195244, -79438.47977381705, -59148.16965438958, -57633.92837452035, -83174.17152812143, -84293.85981486557, -0.028, 0.934, 0.402, 192.0, 0.0, 0.0, 0.0, 0.0, 0.0, 0.0, 0.0, 0.0, 0.0, 1.69541583109327E9, 0.0, 2023-09-22 15:50:31.093
76.0, -37925.702384198, -14888.742850869043, -86957.4724981156, -81337.1487065731, -26401.52292269742, -55519.16277637038, -157314.0361683412, -72945.09684385025, -1704.208755994887, -187500.02235174447, -85567.86454532917, -79391.94344186109, -59105.56722945777, -57602.16654564936, -83128.43985896587, -84255.28070393571, -0.028, 0.934, 0.402, 192.0, 0.0, 0.0, 0.0, 0.0, 0.0, 0.0, 0.0, 0.0, 0.0, 1.695415831093284E9, 0.0, 2023-09-22 15:50:31.093
78.0, -37937.302939570305, -14897.884714351263, -86969.34127442137, -81356.99705564941, -26404.94273959908, -55539.189939402335, -157221.43289106284, -72965.88396619368, -1775.9578556964227, -187500.02235174447, -85554.5429056338, -79381.25930801146, -59091.46327870647, -57599.30552235908, -83107.98801278925, -84242.67432006291, -0.028, 0.934, 0.402, 192.0, 0.0, 0.0, 0.0, 0.0, 0.0, 0.0, 0.0, 0.0, 0.0, 1.695415831093287E9, 0.0, 2023-09-22 15:50:31.093
80.0, -37893.42646520454, -14853.471798118568, -86928.75050649054, -81322.15068604359, -26363.971992012503, -55495.67109294786, -157336.3879127965, -72925.67317791858, -1659.8405432511024, -187500.02235174447, -85539.23196068192, -79368.5858689053, -59076.93464481052, -57593.65053101189, -83098.95790802932, -84240.43914561739, -0.028, 0.934, 0.402, 192.0, 0.0, 0.0, 0.0, 0.0, 0.0, 0.0, 0.0, 0.0, 0.0, 1.695415831093291E9, 0.0, 2023-09-22 15:50:31.093
82.0, -37893.337058226716, -14859.327955165858, -86936.39480309426, -81327.38099424612, -26366.520090880407, -55499.26972380516, -157265.37642066198, -72927.72953840847, -1760.3563380666183, -187500.02235174447, -85510.71113475694, -79337.98633074597, -59048.726743307925, -57568.795391177584, -83067.86663149198, -84213.95232843785, -0.026000000000000002, 0.928, 0.398, 192.0, 127.5, 24.0, 14.5, 0.0, 6.0, 56.0, 0.0, 0.0, 0.0, 1.695415831093294E9, 0.0, 2023-09-22 15:50:31.093
84.0, -37908.782113645335, -14865.094705235328, -86955.527896348, -81336.16522981707, -26390.682326636594, -55508.07631112055, -157363.00884044278, -72938.92776238058, -1672.0892992126107, -187500.02235174447, -85532.72760304542, -79356.76179608844, -59071.12319125214, -57578.5407517601, -83098.55557662912, -84233.7336222808, -0.026000000000000002, 0.928, 0.398, 192.0, 0.0, 0.0, 0.0, 0.0, 0.0, 0.0, 0.0, 0.0, 0.0, 1.695415831093297E9, 0.0, 2023-09-22 15:50:31.093
86.0, -37944.36609081818, -14907.138336555761, -86987.06620777443, -81366.67536099856, -26413.257588536453, -55527.49997705221, -157267.90216778545, -72962.12887312518, -1767.464192803406, -187500.02235174447, -85549.8937427871, -79372.3856654627, -59101.32039801126, -57595.70689150177, -83114.60412914802, -84240.84147701759, -0.026000000000000002, 0.928, 0.398, 192.0, 0.0, 0.0, 0.0, 0.0, 0.0, 0.0, 0.0, 0.0, 0.0, 1.6954158310933E9, 0.0, 2023-09-22 15:50:31.093
88.0, -37958.42533808057, -14915.699054682143, -87002.57831842641, -81376.59953553672, -26440.32555107183, -55529.981020686755, -157344.72511347831, -72974.5787947868, -1706.6227443960602, -187500.02235174447, -85588.91988860606, -79407.7908286799, -59125.01324713389, -57615.3987783669, -83150.43397550989, -84271.15044249898, -0.026000000000000002, 0.928, 0.398, 192.0, 0.0, 0.0, 0.0, 0.0, 0.0, 0.0, 0.0, 0.0, 0.0, 1.695415831093304E9, 0.0, 2023-09-22 15:50:31.093
90.0, -37944.54490477382, -14902.489173709057, -86979.37720768181, -81359.74632021741, -26415.828039148815, -55507.048130875606, -157276.373478934, -72947.77905318487, -1801.1482716975538, -187500.02235174447, -85580.13565303513, -79394.91622387365, -59103.35440675669, -57597.58443803602, -83135.30184451364, -84252.2855701787, -0.026000000000000002, 0.928, 0.398, 192.0, 0.0, 0.0, 0.0, 0.0, 0.0, 0.0, 0.0, 0.0, 0.0, 1.695415831153651E9, 0.0, 2023-09-22 15:50:31.153
92.0, -37937.861733181686, -14883.13256301076, -86975.26448670203, -81352.83963118073, -26421.505382240462, -55511.47377627776, -157352.86114846007, -72960.98893415797, -1737.3787447665627, -187500.02235174447, -85571.93256282003, -79385.97552609153, -59097.98998808742, -57589.090775143006, -83121.91314958491, -84244.30599740816, -0.022, 0.93, 0.394, 192.0, 127.5, 40.0, 14.5, 8.0, 6.0, 40.0, 0.0, 0.0, 0.0, 1.695415831153662E9, 0.0, 2023-09-22 15:50:31.153
94.0, -37953.306788600305, -14908.121813311795, -86981.05358851595, -81360.68509348454, -26427.65211196567, -55527.43292181885, -157292.71260413082, -72972.23186161899, -1787.6478180465483, -187500.02235174447, -85559.86262081416, -79373.25738349646, -59099.08522356573, -57583.1899146068, -83116.30286172662, -84240.19327642838, -0.022, 0.93, 0.394, 192.0, 0.0, 0.0, 0.0, 0.0, 0.0, 0.0, 0.0, 0.0, 0.0, 1.695415831153666E9, 0.0, 2023-09-22 15:50:31.153
96.0, -37925.16594233107, -14881.098554265327, -86949.4705736006, -81342.64723570911, -26408.921350112123, -55512.45725303379, -157343.0934361331, -72942.99577987145, -1751.5273990067722, -187500.02235174447, -85565.24939122789, -79388.76949414844, -59103.6002759457, -57604.28996137261, -83124.23773100827, -84254.34193066858, -0.022, 0.93, 0.394, 192.0, 0.0, 0.0, 0.0, 0.0, 0.0, 0.0, 0.0, 0.0, 0.0, 1.695415831153669E9, 0.0, 2023-09-22 15:50:31.153
98.0, -37928.071669110264, -14896.52125793949, -86946.60955031033, -81335.53938097232, -26404.495704709974, -55515.139462368425, -157306.4365752264, -72947.57788748477, -1778.1259749085875, -187500.02235174447, -85528.97250997693, -79363.9367060586, -59087.64113040461, -57579.52422851614, -83089.45841663581, -84224.90468322096, -0.022, 0.93, 0.394, 192.0, 0.0, 0.0, 0.0, 0.0, 0.0, 0.0, 0.0, 0.0, 0.0, 1.695415831153672E9, 0.0, 2023-09-22 15:50:31.153
100.0, -37923.735430685934, -14883.914874066697, -86948.30828288893, -81343.98834037643, -26414.129306570212, -55520.86150894898, -157345.75329372328, -72948.31549505181, -1759.0822886326657, -187500.02235174447, -85531.40885012256, -79373.79382536338, -59079.23687448942, -57597.092699658, -83098.86850105149, -84235.05237520365, -0.022, 0.93, 0.394, 192.0, 0.0, 0.0, 0.0, 0.0, 0.0, 0.0, 0.0, 0.0, 0.0, 1.695415831153676E9, 0.0, 2023-09-22 15:50:31.153
102.0, -37966.20374515102, -14929.244211822059, -86990.95541130965, -81383.55092806232, -26438.2915423264, -55555.59611983253, -157315.28786603067, -72975.56227154282, -1761.5856840116603, -187500.02235174447, -85549.13378347561, -79384.03092432392, -59086.36708097066, -57601.47364157125, -83113.55359715862, -84246.74233755379, -0.024, 0.928, 0.396, 192.0, 127.5, 32.0, 14.5, 0.0, 6.0, 48.0, 0.0, 0.0, 0.0, 1.695415831153679E9, 0.0, 2023-09-22 15:50:31.153
104.0, -37976.932582489564, -14942.05176139495, -86994.91167007825, -81390.23409965445, -26442.22544935053, -55557.67483206688, -157300.24514201225, -72985.64290829217, -1778.1036231641322, -187500.02235174447, -85601.10158933421, -79432.6012650253, -59129.48359602495, -57655.8107323421, -83149.07051909811, -84287.1989950179, -0.024, 0.928, 0.396, 192.0, 0.0, 0.0, 0.0, 0.0, 0.0, 0.0, 0.0, 0.0, 0.0, 1.695415831213822E9, 0.0, 2023-09-22 15:50:31.213
106.0, -37972.48458534296, -14943.102293384349, -86987.71440836364, -81379.41585533808, -26428.546181743885, -55548.220044162284, -157299.01579606722, -72974.0200011754, -1759.1269921215764, -187500.02235174447, -85577.87812684514, -79408.5954914803, -59108.58471495924, -57629.72624656275, -83125.37766997548, -84262.88029705052, -0.024, 0.928, 0.396, 192.0, 0.0, 0.0, 0.0, 0.0, 0.0, 0.0, 0.0, 0.0, 0.0, 1.695415831213835E9, 0.0, 2023-09-22 15:50:31.213
108.0, -38001.74301883495, -14973.835942010397, -87028.30517629447, -81420.05132675784, -26466.767664762458, -55585.838030080566, -157251.83126352206, -73017.3376819298, -1791.5146698373164, -187500.02235174447, -85607.94122313753, -79438.45742207259, -59134.982125160954, -57662.98564231225, -83147.86352489752, -84288.18247177392, -0.024, 0.928, 0.396, 192.0, 0.0, 0.0, 0.0, 0.0, 0.0, 0.0, 0.0, 0.0, 0.0, 1.695415831213839E9, 0.0, 2023-09-22 15:50:31.213
110.0, -37968.684788785555, -14944.264584096025, -86996.56569916794, -81391.08346594375, -26433.910600413157, -55545.71664878329, -157277.08873475657, -72988.97331821601, -1747.9064164050124, -187500.02235174447, -85606.93539463704, -79436.78104123844, -59144.839244465744, -57658.26942423218, -83149.71871968731, -84289.76944563026, -0.024, 0.928, 0.396, 192.0, 0.0, 0.0, 0.0, 0.0, 0.0, 0.0, 0.0, 0.0, 0.0, 1.695415831213842E9, 0.0, 2023-09-22 15:50:31.213
112.0, -37945.37191931867, -14916.838993649364, -86989.39078919779, -81379.48291057145, -26442.940705173103, -55532.37265734347, -157226.2608678652, -72972.99182093046, -1771.174582382987, -187500.02235174447, -85584.74011239292, -79415.61393923927, -59116.63134296314, -57632.922546019865, -83139.63808293798, -84271.59747738809, -0.024, 0.93, 0.394, 192.0, 127.5, 32.0, 14.5, 8.0, 6.0, 40.0, 0.0, 0.0, 0.0, 1.695415831213845E9, 0.0, 2023-09-22 15:50:31.213
114.0, -37928.83162842174, -14896.744775384042, -86958.59008533836, -81347.27404681135, -26408.60842568975, -55505.729377952746, -157274.58533937758, -72943.55457348282, -1680.6500173389934, -187500.02235174447, -85554.63231261162, -79390.04354358239, -59086.680005393035, -57598.27734211414, -83121.55552167362, -84250.36332015555, -0.024, 0.93, 0.394, 192.0, 0.0, 0.0, 0.0, 0.0, 0.0, 0.0, 0.0, 0.0, 0.0, 1.695415831213849E9, 0.0, 2023-09-22 15:50:31.213
116.0, -37921.20968356248, -14888.251112491025, -86945.8719427433, -81333.17009606006, -26408.94370185658, -55496.22988655924, -157210.4581845353, -72931.9093146216, -1742.720811691381, -187500.02235174447, -85541.75770780537, -79372.54212767388, -59083.99779605839, -57589.89543794339, -83101.39424817494, -84227.58689255558, -0.024, 0.93, 0.394, 192.0, 0.0, 0.0, 0.0, 0.0, 0.0, 0.0, 0.0, 0.0, 0.0, 1.695415831213852E9, 0.0, 2023-09-22 15:50:31.213
118.0, -37908.60329968969, -14875.75648734051, -86915.22770109508, -81304.2916422238, -26381.451056176553, -55472.581740925525, -157285.13536276048, -72909.5128666774, -1669.5859038336164, -187500.02235174447, -85521.8423034957, -79351.82206056382, -59065.915234794054, -57571.16467608985, -83077.76845428569, -84203.6258224995, -0.024, 0.93, 0.394, 192.0, 0.0, 0.0, 0.0, 0.0, 0.0, 0.0, 0.0, 0.0, 0.0, 1.695415831213855E9, 0.0, 2023-09-22 15:50:31.213
120.0, -37930.7538784449, -14901.885676608763, -86940.41811709621, -81338.22159030696, -26404.22748377651, -55511.33966581103, -157191.05687034808, -72935.95498036803, -1764.6925764909479, -187500.02235174447, -85517.55076856026, -79352.80553731984, -59064.35061268218, -57581.468830283746, -83070.86176524899, -84200.78715095368, -0.024, 0.93, 0.394, 192.0, 0.0, 0.0, 0.0, 0.0, 0.0, 0.0, 0.0, 0.0, 0.0, 1.69541583127415E9, 0.0, 2023-09-22 15:50:31.274
122.0, -37936.386518047635, -14905.640769677255, -86942.38507060827, -81353.48783176993, -26403.288710509387, -55519.81097695959, -157265.86815904, -72942.6158002157, -1681.2535144392866, -187500.02235174447, -85532.23586466741, -79374.79965386387, -59088.445793205, -57613.275362643646, -83090.73246606976, -84228.07863093361, -0.02, 0.928, 0.398, 192.0, 127.5, 48.0, 14.5, 0.0, 6.0, 56.0, 0.0, 0.0, 0.0, 1.695415831274161E9, 0.0, 2023-09-22 15:50:31.274
124.0, -37924.160113830585, -14898.644673662744, -86943.25678864203, -81355.03010213735, -26395.93498658359, -55509.283305321136, -157180.81977138756, -72939.71007343651, -1798.197841429453, -187500.02235174447, -85532.50408560087, -79377.61597366523, -59077.694604122, -57619.24327841321, -83090.68776258086, -84234.24771240327, -0.02, 0.928, 0.398, 192.0, 0.0, 0.0, 0.0, 0.0, 0.0, 0.0, 0.0, 0.0, 0.0, 1.695415831274165E9, 0.0, 2023-09-22 15:50:31.274
126.0, -37948.32234958677, -14914.134432570272, -86968.04487324296, -81366.45184355401, -26411.89413212468, -55516.88289843594, -157256.86040602453, -72947.48848050696, -1696.0056657797893, -187500.02235174447, -85550.51959163185, -79387.85307262577, -59084.847162347694, -57630.08387447404, -83096.49921613923, -84239.70153805036, -0.02, 0.928, 0.398, 192.0, 0.0, 0.0, 0.0, 0.0, 0.0, 0.0, 0.0, 0.0, 0.0, 1.695415831274168E9, 0.0, 2023-09-22 15:50:31.274
128.0, -37950.021082165375, -14914.603819203832, -86977.11968149182, -81368.46350055498, -26410.776544901913, -55522.53788978313, -157154.66823037484, -72957.25619283393, -1805.685675821981, -187500.02235174447, -85557.47098415745, -79386.55667144737, -59080.55562741228, -57608.648551541395, -83100.09784699653, -84235.00767171475, -0.02, 0.928, 0.398, 192.0, 0.0, 0.0, 0.0, 0.0, 0.0, 0.0, 0.0, 0.0, 0.0, 1.695415831274171E9, 0.0, 2023-09-22 15:50:31.274
130.0, -37967.298980629326, -14924.818566419908, -86993.92819332221, -81388.91534673159, -26440.861992938757, -55539.03347719115, -157216.47080379378, -72977.3280593548, -1710.8025206092025, -187500.02235174447, -85585.43301647104, -79410.0930583588, -59115.6031627182, -57634.107188475995, -83135.54771370265, -84267.57416338613, -0.02, 0.928, 0.398, 192.0, 0.0, 0.0, 0.0, 0.0, 0.0, 0.0, 0.0, 0.0, 0.0, 1.695415831274174E9, 0.0, 2023-09-22 15:50:31.274
132.0, -37965.3096753728, -14933.088711868371, -86995.9398503232, -81393.85508225621, -26443.18657436211, -55543.90615748241, -157105.29322687307, -72979.74204775596, -1821.0860277516877, -187500.02235174447, -85581.58851642473, -79408.93076764712, -59126.48846226794, -57637.59406061102, -83135.92769335839, -84270.27872446523, -0.028, 0.928, 0.398, 192.0, 127.5, 16.0, 14.5, 0.0, 6.0, 56.0, 0.0, 0.0, 0.0, 1.695415831274177E9, 0.0, 2023-09-22 15:50:31.274
134.0, -37968.528326574364, -14927.43372052118, -86997.81739685744, -81399.35361139222, -26462.52083331595, -55545.82840750556, -157167.31931773655, -72986.49227458147, -1736.1270470770655, -187500.02235174447, -85585.4553682155, -79414.07166887184, -59134.80331120531, -57641.17033972387, -83150.29986504315, -84281.4993001818, -0.028, 0.928, 0.398, 192.0, 0.0, 0.0, 0.0, 0.0, 0.0, 0.0, 0.0, 0.0, 0.0, 1.69541583133299E9, 0.0, 2023-09-22 15:50:31.332
136.0, -37979.50303310192, -14953.942889445174, -87001.86306260385, -81405.63445158416, -26471.550938075896, -55555.551416343624, -157047.37985698937, -72999.32217589882, -1814.4028561595508, -187500.02235174447, -85587.13174904964, -79420.86659918627, -59136.032657150354, -57647.093552004524, -83158.54765874716, -84287.22134676235, -0.028, 0.928, 0.398, 192.0, 0.0, 0.0, 0.0, 0.0, 0.0, 0.0, 0.0, 0.0, 0.0, 1.695415831333003E9, 0.0, 2023-09-22 15:50:31.333
138.0, -37946.42245130807, -14916.459013993624, -86964.73681506357, -81371.0563029118, -26440.414958049652, -55529.84691022002, -157108.02013969663, -72964.94519292655, -1727.7451429063253, -187500.02235174447, -85574.65947564358, -79411.1435903482, -59119.827642420256, -57644.254880458706, -83146.83534465259, -84277.96772455785, -0.028, 0.928, 0.398, 192.0, 0.0, 0.0, 0.0, 0.0, 0.0, 0.0, 0.0, 0.0, 0.0, 1.695415831333006E9, 0.0, 2023-09-22 15:50:31.333
140.0, -37945.17075361857, -14923.924496641695, -86956.04198647046, -81369.17875637756, -26423.27117005243, -55523.90134619491, -157019.77545258708, -72957.90439342313, -1767.3524340811293, -187500.02235174447, -85530.64889081108, -79365.8813078262, -59077.82871458873, -57601.56304854907, -83091.47007363678, -84228.70447977836, -0.028, 0.928, 0.398, 192.0, 0.0, 0.0, 0.0, 0.0, 0.0, 0.0, 0.0, 0.0, 0.0, 1.695415831333009E9, 0.0, 2023-09-22 15:50:31.333
142.0, -37913.63244219213, -14886.32886246787, -86931.70093675863, -81346.89406715562, -26409.815419890336, -55499.51559299417, -157068.569310733, -72936.49142223495, -1694.6198576235602, -187500.02235174447, -85553.91705678905, -79393.61982269524, -59101.36510150017, -57627.535775606135, -83123.81304786362, -84256.17477371392, -0.03, 0.932, 0.402, 192.0, 127.5, 8.0, 14.5, 16.0, 6.0, 72.0, 0.0, 0.0, 0.0, 1.695415831333013E9, 0.0, 2023-09-22 15:50:31.333
144.0, -37942.22032335047, -14918.582429716878, -86953.65034981375, -81374.25260236891, -26419.404318261662, -55526.85177646301, -156989.5558940835, -72959.17844285708, -1719.6091079245937, -187500.02235174447, -85512.76749524684, -79356.87355481072, -59072.82192383074, -57599.7972607371, -83081.52354735417, -84220.90372096346, -0.03, 0.932, 0.402, 192.0, 0.0, 0.0, 0.0, 0.0, 0.0, 0.0, 0.0, 0.0, 0.0, 1.695415831333016E9, 0.0, 2023-09-22 15:50:31.333
146.0, -37933.97252964646, -14904.590237687855, -86952.19748642415, -81371.0563029118, -26407.02145183342, -55520.43682580433, -157005.22446694667, -72947.35437004022, -1677.85604928208, -187500.02235174447, -85556.66632135706, -79398.55955821986, -59118.33007554175, -57633.66015358689, -83119.14153327246, -84262.25444820577, -0.03, 0.932, 0.402, 192.0, 0.0, 0.0, 0.0, 0.0, 0.0, 0.0, 0.0, 0.0, 0.0, 1.695415831333019E9, 0.0, 2023-09-22 15:50:31.333
148.0, -37904.579985687735, -14884.317205466892, -86913.77483770548, -81333.90770362708, -26359.1216634657, -55477.70029040579, -156989.37708012786, -72909.46816318849, -1709.014381052778, -187500.02235174447, -85517.90839647155, -79359.3769501897, -59072.10666800817, -57606.99452245171, -83067.66546579188, -84218.60149128456, -0.03, 0.932, 0.402, 192.0, 0.0, 0.0, 0.0, 0.0, 0.0, 0.0, 0.0, 0.0, 0.0, 1.695415831333022E9, 0.0, 2023-09-22 15:50:31.333
150.0, -37934.08428836874, -14899.605798674322, -86946.83306775488, -81365.44601505352, -26397.343146484276, -55503.78477618513, -157008.13019372587, -72927.461317475, -1716.8598433565908, -187500.02235174447, -85518.02015519384, -79357.78997633338, -59066.56343538326, -57604.98286545073, -83066.4584715913, -84214.22054937131, -0.03, 0.932, 0.402, 192.0, 0.0, 0.0, 0.0, 0.0, 0.0, 0.0, 0.0, 0.0, 0.0, 1.695415831393237E9, 0.0, 2023-09-22 15:50:31.393
152.0, -37951.630407766155, -14916.660179693721, -86958.97006499411, -81369.53638428883, -26413.27994028091, -55516.36880831347, -156984.97378647016, -72945.70034095054, -1726.5381487057386, -187500.02235174447, -85541.98122524993, -79383.49448245698, -59099.86753462166, -57613.409473110376, -83099.49434989624, -84237.42166011593, -0.026000000000000002, 0.932, 0.396, 192.0, 127.5, 24.0, 14.5, 16.0, 6.0, 48.0, 0.0, 0.0, 0.0, 1.695415831393249E9, 0.0, 2023-09-22 15:50:31.393
154.0, -37947.09300364173, -14906.803060388931, -86972.91755353422, -81376.62188728117, -26441.912524928157, -55525.33185784005, -156959.09046639092, -72967.98503017248, -1762.9491404234338, -187500.02235174447, -85551.68188234352, -79392.1893110501, -59112.63038070565, -57639.628069356455, -83123.85775135252, -84254.00665450176, -0.026000000000000002, 0.932, 0.396, 192.0, 0.0, 0.0, 0.0, 0.0, 0.0, 0.0, 0.0, 0.0, 0.0, 1.695415831393253E9, 0.0, 2023-09-22 15:50:31.393
156.0, -37941.39330880562, -14909.194697045648, -86956.3772626373, -81366.22832610946, -26429.90963815566, -55514.804186201596, -156968.2993851065, -72957.16678585611, -1736.8646546440907, -187500.02235174447, -85528.77134427683, -79363.5343746584, -59105.94720911351, -57611.30840913158, -83102.13185574197, -84232.99601471378, -0.026000000000000002, 0.932, 0.396, 192.0, 0.0, 0.0, 0.0, 0.0, 0.0, 0.0, 0.0, 0.0, 0.0, 1.695415831393256E9, 0.0, 2023-09-22 15:50:31.393
158.0, -37945.08134664075, -14915.00615060403, -86962.05460572895, -81376.93481170354, -26442.516022028452, -55522.71670373878, -156923.57354445144, -72950.70713170852, -1784.5409255672605, -187500.02235174447, -85559.30382720278, -79392.88221512821, -59127.51664251288, -57642.08676124654, -83129.84801886654, -84261.49448889428, -0.026000000000000002, 0.932, 0.396, 192.0, 0.0, 0.0, 0.0, 0.0, 0.0, 0.0, 0.0, 0.0, 0.0, 1.695415831393259E9, 0.0, 2023-09-22 15:50:31.393
160.0, -37967.36603586269, -14943.974011418106, -86974.70569309064, -81395.73262879046, -26441.957228417068, -55540.37458185847, -156947.78048369652, -72966.71098073853, -1729.2650615292862, -187500.02235174447, -85544.73048981793, -79386.44491272508, -59122.15222384361, -57638.68929608933, -83113.10656226952, -84250.139802711, -0.026000000000000002, 0.932, 0.396, 192.0, 0.0, 0.0, 0.0, 0.0, 0.0, 0.0, 0.0, 0.0, 0.0, 1.695415831393262E9, 0.0, 2023-09-22 15:50:31.393
162.0, -37969.377692863665, -14953.182930133693, -86981.16534723823, -81410.61889059769, -26454.407150078674, -55552.9139104979, -156881.6416718533, -72986.00053620346, -1797.750806540347, -187500.02235174447, -85565.696426117, -79419.54784626339, -59134.44568329403, -57670.62993891596, -83133.33489100158, -84275.8890123235, -0.024, 0.934, 0.394, 192.0, 127.5, 32.0, 14.5, 24.0, 6.0, 40.0, 0.0, 0.0, 0.0, 1.695415831393266E9, 0.0, 2023-09-22 15:50:31.393
164.0, -37972.55164057632, -14954.725200501109, -86960.6240940838, -81389.13886417614, -26443.968885418046, -55542.4085906039, -156930.52493697705, -72973.5282627974, -1720.3914189805294, -187500.02235174447, -85548.79850730879, -79408.7966571804, -59120.52054649837, -57663.969119068286, -83128.48456245477, -84270.70340760988, -0.024, 0.934, 0.394, 192.0, 0.0, 0.0, 0.0, 0.0, 0.0, 0.0, 0.0, 0.0, 0.0, 1.695415831453597E9, 0.0, 2023-09-22 15:50:31.453
166.0, -37978.87718425717, -14963.755305261053, -86956.84664927085, -81391.53050083286, -26447.500461041986, -55546.00722146121, -156861.2121774211, -72982.24544313496, -1809.396065401562, -187500.02235174447, -85540.2377891824, -79400.50415998747, -59116.6536947076, -57655.2072352418, -83117.6216146495, -84261.58389587211, -0.024, 0.934, 0.394, 192.0, 0.0, 0.0, 0.0, 0.0, 0.0, 0.0, 0.0, 0.0, 0.0, 1.69541583145361E9, 0.0, 2023-09-22 15:50:31.453
168.0, -37989.740132062456, -14972.15956117625, -86937.31122461692, -81374.85609946921, -26423.159411330154, -55526.18122412935, -156934.92823063472, -72953.00936138742, -1725.5770236941605, -187500.02235174447, -85549.37965266463, -79407.05322111287, -59122.73336919944, -57662.67271788987, -83127.81401012112, -84269.47406166483, -0.024, 0.934, 0.394, 192.0, 0.0, 0.0, 0.0, 0.0, 0.0, 0.0, 0.0, 0.0, 0.0, 1.695415831453614E9, 0.0, 2023-09-22 15:50:31.453
170.0, -38023.46891444551, -15007.967055793652, -86960.2217626836, -81394.2127101675, -26430.624893978227, -55541.87214873698, -156852.8749767393, -72969.66141100663, -1825.3552109426512, -187500.02235174447, -85541.75770780537, -79398.17957856412, -59104.47199397946, -57651.18392123985, -83101.0142685192, -84249.9833404998, -0.024, 0.934, 0.394, 192.0, 0.0, 0.0, 0.0, 0.0, 0.0, 0.0, 0.0, 0.0, 0.0, 1.695415831453617E9, 0.0, 2023-09-22 15:50:31.453
172.0, -38059.634036974196, -15043.774550411053, -86981.00888502704, -81400.73941954845, -26440.14673711619, -55545.04609644963, -156930.9943236106, -72972.76830348591, -1730.0473725852219, -187500.02235174447, -85566.05405402828, -79419.77136370794, -59135.38445656115, -57660.035212044146, -83118.78390536117, -84265.87543080753, -0.028, 0.93, 0.394, 192.0, 127.5, 16.0, 14.5, 8.0, 6.0, 40.0, 0.0, 0.0, 0.0, 1.69541583145362E9, 0.0, 2023-09-22 15:50:31.453
174.0, -38113.92642425614, -15102.336120883958, -87006.31105975046, -81419.13490523517, -26453.0436936669, -55553.33859364255, -156818.65445597822, -72987.40869610413, -1853.1384293005979, -187500.02235174447, -85600.05105734481, -79447.28636113243, -59158.071477183286, -57671.36754648299, -83133.26783576822, -84275.8443088346, -0.028, 0.93, 0.394, 192.0, 0.0, 0.0, 0.0, 0.0, 0.0, 0.0, 0.0, 0.0, 0.0, 1.695415831453624E9, 0.0, 2023-09-22 15:50:31.453
176.0, -38136.43463092263, -15120.731606570675, -87012.65895517576, -81426.08629776076, -26459.078664669833, -55547.84006450654, -156891.76701209153, -72977.79744598836, -1773.4544603174284, -187500.02235174447, -85628.70599373651, -79472.90146027821, -59158.38440160566, -57689.338349025056, -83147.3717865195, -84285.3438002281, -0.028, 0.93, 0.394, 192.0, 0.0, 0.0, 0.0, 0.0, 0.0, 0.0, 0.0, 0.0, 0.0, 1.695415831453627E9, 0.0, 2023-09-22 15:50:31.453
178.0, -38129.01385176347, -15120.32927517048, -86989.6366583868, -81397.27489915787, -26447.478109297528, -55527.61173577449, -156782.42227821617, -72967.13566388318, -1872.8526679101788, -187500.02235174447, -85623.1627611116, -79464.83248052985, -59154.45049458152, -57662.65036614542, -83136.55354220314, -84266.03189301872, -0.028, 0.93, 0.394, 192.0, 0.0, 0.0, 0.0, 0.0, 0.0, 0.0, 0.0, 0.0, 0.0, 1.69541583145363E9, 0.0, 2023-09-22 15:50:31.453
180.0, -38120.251967936994, -15105.13008894087, -86964.02155924101, -81386.56841356379, -26432.99417889049, -55513.060750134086, -156855.78070351848, -72938.30191353583, -1756.1989135979313, -187500.02235174447, -85603.22500505747, -79443.91124771968, -59134.95977341649, -57643.539624636134, -83117.6663181384, -84249.4916021218, -0.028, 0.93, 0.394, 192.0, 0.0, 0.0, 0.0, 0.0, 0.0, 0.0, 0.0, 0.0, 0.0, 1.695415831513745E9, 0.0, 2023-09-22 15:50:31.513
182.0, -38138.73686060153, -15126.677170595787, -86975.44330065767, -81407.80257079632, -26457.290525113407, -55541.1121894255, -156727.8840217452, -72969.01321041743, -1834.9664610584332, -187500.02235174447, -85596.0053915984, -79445.92290472066, -59137.39611356212, -57656.973023053775, -83110.62551863499, -84246.51882010924, -0.028, 0.928, 0.394, 192.0, 127.5, 16.0, 14.5, 0.0, 6.0, 40.0, 0.0, 0.0, 0.0, 1.695415831513757E9, 0.0, 2023-09-22 15:50:31.513
184.0, -38082.5892785298, -15070.149608868314, -86914.28892782795, -81348.52574450085, -26417.057385093856, -55490.41843300086, -156801.42126100318, -72924.08620406226, -1741.2903000462413, -187500.02235174447, -85585.63418217114, -79441.54196280742, -59139.36306707419, -57653.86613057448, -83118.51568442771, -84254.49839287977, -0.028, 0.928, 0.394, 192.0, 0.0, 0.0, 0.0, 0.0, 0.0, 0.0, 0.0, 0.0, 0.0, 1.695415831513761E9, 0.0, 2023-09-22 15:50:31.513
186.0, -38094.34629611329, -15088.008652688106, -86927.5658640344, -81359.6569132396, -26415.671576937628, -55510.55735475509, -156719.6809315301, -72940.60414321472, -1816.5486236272602, -187500.02235174447, -85530.11244894416, -79384.34384874628, -59087.95405482699, -57607.86624048546, -83062.34575061152, -84202.46353178783, -0.028, 0.928, 0.394, 192.0, 0.0, 0.0, 0.0, 0.0, 0.0, 0.0, 0.0, 0.0, 0.0, 1.695415831513764E9, 0.0, 2023-09-22 15:50:31.513
188.0, -38079.86236570625, -15062.371201797869, -86913.59602374984, -81339.83091590773, -26400.427687219108, -55489.83728764502, -156795.6098074448, -72914.85493360221, -1761.20570435592, -187500.02235174447, -85554.36409167816, -79405.28743330091, -59101.007473588885, -57637.97404026676, -83083.28933516615, -84223.38476459798, -0.028, 0.928, 0.394, 192.0, 0.0, 0.0, 0.0, 0.0, 0.0, 0.0, 0.0, 0.0, 0.0, 1.695415831513767E9, 0.0, 2023-09-22 15:50:31.513
190.0, -38137.97690129005, -15125.604286861932, -86976.8291088139, -81407.86962602969, -26445.801728463382, -55544.62141330498, -156704.72761448953, -72973.5282627974, -1831.3901819455841, -187500.02235174447, -85568.13276626263, -79415.97156715054, -59121.57107848777, -57645.93126129285, -83083.49050086625, -84227.22926464431, -0.028, 0.928, 0.394, 192.0, 0.0, 0.0, 0.0, 0.0, 0.0, 0.0, 0.0, 0.0, 0.0, 1.69541583151377E9, 0.0, 2023-09-22 15:50:31.513
192.0, -38117.63681383572, -15099.251580149124, -86964.24507668556, -81396.00084972392, -26437.71039697056, -55524.34838108401, -156755.1978534696, -72954.8198526883, -1806.1774141999979, -187500.02235174447, -85611.13752259464, -79458.79750952692, -59150.851863724216, -57674.36268024, -83126.36114673152, -84269.31759945364, -0.032, 0.928, 0.4, 192.0, 127.5, 0.0, 14.5, 0.0, 6.0, 64.0, 0.0, 0.0, 0.0, 1.695415831513773E9, 0.0, 2023-09-22 15:50:31.513
194.0, -38113.38998238921, -15103.69957729573, -86961.45110862865, -81381.69573327253, -26415.805687404358, -55506.01995063066, -156713.40009133818, -72933.65275068913, -1844.041269307288, -187500.02235174447, -85582.5496414363, -79435.5516952934, -59117.10072959671, -57644.14312173642, -83090.08426548056, -84232.05724144664, -0.032, 0.928, 0.4, 192.0, 0.0, 0.0, 0.0, 0.0, 0.0, 0.0, 0.0, 0.0, 0.0, 1.69541583157418E9, 0.0, 2023-09-22 15:50:31.574
196.0, -38119.626119092245, -15100.838554005451, -86992.20710899915, -81409.56835860829, -26451.05438841038, -55528.438750319336, -156734.20956542608, -72973.26004186393, -1825.3105074537407, -187500.02235174447, -85603.02383935737, -79452.82959375734, -59142.13468338665, -57654.246110230226, -83114.7158878703, -84249.69276782189, -0.032, 0.928, 0.4, 192.0, 0.0, 0.0, 0.0, 0.0, 0.0, 0.0, 0.0, 0.0, 0.0, 1.695415831574194E9, 0.0, 2023-09-22 15:50:31.574
198.0, -38114.57462484534, -15101.710272039209, -86985.36747519583, -81404.40510563912, -26434.75996670246, -55528.52815729716, -156706.02401566794, -72946.9743903845, -1840.844969850179, -187500.02235174447, -85608.58942372673, -79452.06963444587, -59142.02292466437, -57663.70089813482, -83118.94036757236, -84254.40898590196, -0.032, 0.928, 0.4, 192.0, 0.0, 0.0, 0.0, 0.0, 0.0, 0.0, 0.0, 0.0, 0.0, 1.695415831574197E9, 0.0, 2023-09-22 15:50:31.574
200.0, -38109.03139222043, -15093.820106246485, -86997.81739685744, -81421.25832095843, -26456.307048357376, -55547.68360229536, -156701.6877772436, -72980.41260008962, -1833.491245924383, -187500.02235174447, -85624.8614936902, -79466.39710264171, -59149.68957301255, -57682.27519777718, -83131.5691031896, -84272.87152682204, -0.032, 0.928, 0.4, 192.0, 0.0, 0.0, 0.0, 0.0, 0.0, 0.0, 0.0, 0.0, 0.0, 1.6954158315742E9, 0.0, 2023-09-22 15:50:31.574
202.0, -38092.714618768056, -15081.683109007254, -86982.95348679465, -81407.35553590722, -26442.739539473005, -55533.534948055145, -156695.96573066304, -72966.93449818308, -1811.1171497246207, -187500.02235174447, -85600.83336840074, -79441.51961106296, -59137.19494786203, -57663.27621499017, -83118.11335302751, -84262.09798599458, -0.028, 0.926, 0.404, 192.0, 127.5, 16.0, 14.0, 120.0, 6.0, 80.0, 0.0, 0.0, 0.0, 1.695415831574203E9, 0.0, 2023-09-22 15:50:31.574
204.0, -38072.75451096946, -15061.097152363916, -86980.02540827102, -81402.16993119358, -26457.13406290222, -55532.99850618822, -156669.34480301678, -72970.06374240683, -1830.5408156562826, -187500.02235174447, -85600.90042363411, -79444.96177970908, -59159.54669231734, -57681.87286637699, -83131.30088225614, -84268.2894192087, -0.028, 0.926, 0.404, 192.0, 0.0, 0.0, 0.0, 0.0, 0.0, 0.0, 0.0, 0.0, 0.0, 1.695415831574207E9, 0.0, 2023-09-22 15:50:31.574
206.0, -38059.58933348529, -15051.083570847937, -86971.82231805591, -81398.23602416946, -26449.80269072088, -55531.791511987634, -156691.83065793882, -72959.29020157937, -1777.7012917639365, -187500.02235174447, -85570.14442326361, -79418.9443491631, -59130.53412801435, -57650.91570030638, -83108.14447500044, -84247.52464860972, -0.028, 0.926, 0.404, 192.0, 0.0, 0.0, 0.0, 0.0, 0.0, 0.0, 0.0, 0.0, 0.0, 1.69541583157421E9, 0.0, 2023-09-22 15:50:31.574
208.0, -38059.74579569647, -15043.461625988679, -86983.64639087277, -81405.25447192842, -26470.634516553226, -55550.254052907716, -156636.75595960094, -72987.78867575988, -1825.690487109481, -187500.02235174447, -85592.49616771891, -79437.54100054991, -59149.64486952363, -57675.904950607415, -83129.80331537763, -84270.32342795414, -0.028, 0.926, 0.404, 192.0, 0.0, 0.0, 0.0, 0.0, 0.0, 0.0, 0.0, 0.0, 0.0, 1.695415831574213E9, 0.0, 2023-09-22 15:50:31.574
210.0, -38057.30945555084, -15039.147739308804, -86967.91076277623, -81389.65295429861, -26463.481958327528, -55535.97128820077, -156674.3739455192, -72962.66531499212, -1761.853904945124, -187500.02235174447, -85572.78192910933, -79413.84815142729, -59135.38445656115, -57654.581386397054, -83114.73823961476, -84250.47507887782, -0.028, 0.926, 0.404, 192.0, 0.0, 0.0, 0.0, 0.0, 0.0, 0.0, 0.0, 0.0, 0.0, 1.695415831633391E9, 0.0, 2023-09-22 15:50:31.633
212.0, -38081.7399122405, -15062.728829709153, -87006.26635626153, -81425.4157454271, -26500.80937156789, -55576.09266949805, -156582.5082758079, -73007.4358591361, -1827.813902832735, -187500.02235174447, -85595.71481892047, -79437.74216625001, -59165.045221453336, -57695.32861653908, -83138.49814397075, -84269.65287562048, -0.024, 0.93, 0.4, 192.0, 127.5, 32.0, 14.5, 8.0, 6.0, 64.0, 0.0, 0.0, 0.0, 1.695415831633402E9, 0.0, 2023-09-22 15:50:31.633
214.0, -38070.7875574574, -15051.485902248134, -86999.62788815831, -81417.8161523123, -26498.77536282246, -55562.972195502785, -156621.44501464904, -72986.46992283702, -1744.754820436814, -187500.02235174447, -85604.90138589162, -79451.22026815657, -59177.53984660385, -57708.80671844563, -83156.84892616856, -84285.58966941711, -0.024, 0.93, 0.4, 192.0, 0.0, 0.0, 0.0, 0.0, 0.0, 0.0, 0.0, 0.0, 0.0, 1.695415831633406E9, 0.0, 2023-09-22 15:50:31.633
216.0, -38024.29592899036, -15015.566648908454, -86978.9301727927, -81389.94352697654, -26466.72296127355, -55533.043209677126, -156539.2576502869, -72963.69349523705, -1816.9956585163663, -187500.02235174447, -85578.16869952306, -79424.28641608793, -59157.40092484962, -57683.12456406648, -83135.1677340469, -84261.89682029448, -0.024, 0.93, 0.4, 192.0, 0.0, 0.0, 0.0, 0.0, 0.0, 0.0, 0.0, 0.0, 0.0, 1.695415831633409E9, 0.0, 2023-09-22 15:50:31.633
218.0, -38025.324109235306, -15011.878611073329, -86982.37234143882, -81397.52076834689, -26467.885251985223, -55533.08791316604, -156599.69676729402, -72961.12304462469, -1695.178651234943, -187500.02235174447, -85572.96074306498, -79418.60907299627, -59156.439799838045, -57666.964252825295, -83137.40290849244, -84262.27679995022, -0.024, 0.93, 0.4, 192.0, 0.0, 0.0, 0.0, 0.0, 0.0, 0.0, 0.0, 0.0, 0.0, 1.695415831633412E9, 0.0, 2023-09-22 15:50:31.633
220.0, -37983.90632675962, -14976.518151345033, -86947.9730067221, -81369.7599017334, -26424.634626464205, -55502.37661628445, -156521.51036518937, -72929.78589889835, -1778.2600853753192, -187500.02235174447, -85548.35147241969, -79396.41379075215, -59132.09875012621, -57645.841854315026, -83106.55750114411, -84237.24284616028, -0.024, 0.93, 0.4, 192.0, 0.0, 0.0, 0.0, 0.0, 0.0, 0.0, 0.0, 0.0, 0.0, 1.695415831633415E9, 0.0, 2023-09-22 15:50:31.633
222.0, -37983.90632675962, -14962.548311060467, -86942.25096014154, -81353.13020385864, -26414.017547847936, -55493.547677224604, -156628.88814555266, -72927.97540759748, -1673.631569580027, -187500.02235174447, -85535.67803331352, -79381.57223243383, -59108.96469461497, -57611.28605738712, -83089.32430616907, -84221.39545934147, -0.024, 0.9380000000000001, 0.396, 192.0, 127.5, 32.0, 14.5, 40.0, 6.0, 48.0, 0.0, 0.0, 0.0, 1.695415831633418E9, 0.0, 2023-09-22 15:50:31.633
224.0, -38015.891673075166, -14993.259607942058, -86981.50062340507, -81385.54023331884, -26447.81338546436, -55530.6068695315, -156523.946705335, -72958.57494575679, -1784.9209052230008, -187500.02235174447, -85549.2902456868, -79394.75976166246, -59109.47878473745, -57634.19659545382, -83091.15714921441, -84228.03392744469, -0.024, 0.9380000000000001, 0.396, 192.0, 0.0, 0.0, 0.0, 0.0, 0.0, 0.0, 0.0, 0.0, 0.0, 1.695415831693399E9, 0.0, 2023-09-22 15:50:31.693
226.0, -38003.26293745791, -14981.547293847478, -86981.54532689397, -81378.8570617267, -26454.161280889664, -55526.98588692974, -156607.58693308674, -72956.98797190047, -1694.0610640121777, -187500.02235174447, -85574.39125471012, -79418.36320380727, -59128.92480241357, -57661.04104054464, -83117.46515243831, -84254.36428241305, -0.024, 0.9380000000000001, 0.396, 192.0, 0.0, 0.0, 0.0, 0.0, 0.0, 0.0, 0.0, 0.0, 0.0, 1.695415831693416E9, 0.0, 2023-09-22 15:50:31.693
228.0, -37999.75371357843, -14986.487029372101, -86982.9311350502, -81378.92411696007, -26461.8949844712, -55529.08695090854, -156500.5891323792, -72962.03946614737, -1793.235754160375, -187500.02235174447, -85563.28243771582, -79406.6955932016, -59113.99383711742, -57654.3578689525, -83108.09977151154, -84243.45663111885, -0.024, 0.9380000000000001, 0.396, 192.0, 0.0, 0.0, 0.0, 0.0, 0.0, 0.0, 0.0, 0.0, 0.0, 1.695415831693421E9, 0.0, 2023-09-22 15:50:31.693
230.0, -37988.6672483286, -14967.82332275192, -86974.14689947927, -81366.54125053182, -26457.022304179944, -55524.39308457293, -156583.49175256395, -72944.24747756094, -1691.9376482889234, -187500.02235174447, -85561.2484289704, -79401.26411929895, -59117.10072959671, -57661.97981381176, -83100.12019874099, -84244.12718345251, -0.024, 0.9380000000000001, 0.396, 192.0, 0.0, 0.0, 0.0, 0.0, 0.0, 0.0, 0.0, 0.0, 0.0, 1.695415831693424E9, 0.0, 2023-09-22 15:50:31.693
232.0, -37990.05305648483, -14979.423878124224, -86971.86702154482, -81362.02619815186, -26445.980542419024, -55525.80124447361, -156485.54640836077, -72937.34078852425, -1777.2542568748304, -187500.02235174447, -85553.73824283341, -79394.44683724009, -59114.41852026207, -57643.65138335841, -83083.9598874998, -84229.86677049003, -0.034, 0.934, 0.392, 192.0, 127.0, 120.0, 14.5, 24.0, 6.0, 32.0, 0.0, 0.0, 0.0, 1.695415831693428E9, 0.0, 2023-09-22 15:50:31.693
234.0, -37963.56623930529, -14950.232499865593, -86948.44239335567, -81339.69680544101, -26431.608370734262, -55501.236677317225, -156572.38293556965, -72922.47687846147, -1693.5469738897054, -187500.02235174447, -85543.45644038398, -79389.59650869328, -59103.734386412434, -57648.32289794957, -83074.23687866174, -84220.07670641861, -0.034, 0.934, 0.392, 192.0, 0.0, 0.0, 0.0, 0.0, 0.0, 0.0, 0.0, 0.0, 0.0, 1.695415831693432E9, 0.0, 2023-09-22 15:50:31.693
236.0, -37997.04915249934, -14991.717337574642, -86979.01957977052, -81360.48392778444, -26463.124330416245, -55534.607831789, -156484.182951949, -72947.2202595735, -1748.1969890829314, -187500.02235174447, -85546.11629797415, -79387.22722378102, -59098.39231948761, -57642.623203113464, -83080.1153874535, -84212.99120342627, -0.034, 0.934, 0.392, 192.0, 0.0, 0.0, 0.0, 0.0, 0.0, 0.0, 0.0, 0.0, 0.0, 1.695415831693436E9, 0.0, 2023-09-22 15:50:31.693
238.0, -38002.05594325733, -14989.01277649555, -86995.47046368962, -81368.37409357716, -26494.550883120406, -55551.68456455285, -156530.2051937825, -72977.70803901054, -1698.5537646476944, -187500.02235174447, -85594.3066590198, -79430.96958768005, -59140.23478510795, -57683.258674533216, -83136.03945208067, -84260.57806737162, -0.034, 0.934, 0.392, 192.0, 0.0, 0.0, 0.0, 0.0, 0.0, 0.0, 0.0, 0.0, 0.0, 1.69541583169344E9, 0.0, 2023-09-22 15:50:31.693
240.0, -37969.33298937476, -14965.409334350747, -86969.16246046573, -81332.9465786155, -26458.452815825083, -55523.387256072434, -156477.32096640122, -72949.3213235523, -1755.237788586353, -187500.02235174447, -85572.62546689814, -79406.82970366832, -59122.71101745499, -57661.82335160057, -83122.00255656273, -84244.59657008608, -0.034, 0.934, 0.392, 192.0, 0.0, 0.0, 0.0, 0.0, 0.0, 0.0, 0.0, 0.0, 0.0, 1.695415831754442E9, 0.0, 2023-09-22 15:50:31.754
242.0, -37984.95685874902, -14969.097372185872, -86995.40340845626, -81355.16421260408, -26474.23314741053, -55550.030535463164, -156521.3986064671, -72984.05593443585, -1714.691724144426, -187500.02235174447, -85560.197896981, -79390.5352819604, -59103.71203466798, -57642.06440950208, -83110.53611165716, -84240.32738689511, -0.03, 0.926, 0.398, 192.0, 127.5, 8.0, 14.0, 120.0, 6.0, 56.0, 0.0, 0.0, 0.0, 1.695415831754454E9, 0.0, 2023-09-22 15:50:31.754
244.0, -38000.223100211995, -14983.491895615089, -87000.56666142544, -81361.78032896285, -26483.73263880404, -55556.28902391065, -156460.06541968172, -72985.95583271455, -1729.823855140669, -187500.02235174447, -85597.65942068808, -79423.25823584298, -59140.03361940785, -57681.850514632526, -83139.45926898233, -84276.0901780236, -0.03, 0.926, 0.398, 192.0, 0.0, 0.0, 0.0, 0.0, 0.0, 0.0, 0.0, 0.0, 0.0, 1.695415831754458E9, 0.0, 2023-09-22 15:50:31.754
246.0, -37951.04926241031, -14932.19464209016, -86961.16053595074, -81323.87177036665, -26449.892097698703, -55518.38046531445, -156485.7922775498, -72951.26592531991, -1708.4555874413954, -187500.02235174447, -85578.41456871208, -79400.48180824301, -59129.237726835934, -57656.41422944239, -83119.16388501691, -84258.83463130411, -0.03, 0.926, 0.398, 192.0, 0.0, 0.0, 0.0, 0.0, 0.0, 0.0, 0.0, 0.0, 0.0, 1.695415831754461E9, 0.0, 2023-09-22 15:50:31.754
