%OpenBCI Raw EXG Data
%Number of channels = 16
%Sample Rate = 125 Hz
%Board = OpenBCI_GUI$BoardCytonSerialDaisy
Sample Index, EXG Channel 0, EXG Channel 1, EXG Channel 2, EXG Channel 3, EXG Channel 4, EXG Channel 5, EXG Channel 6, EXG Channel 7, EXG Channel 8, EXG Channel 9, EXG Channel 10, EXG Channel 11, EXG Channel 12, EXG Channel 13, EXG Channel 14, EXG Channel 15, Accel Channel 0, Accel Channel 1, Accel Channel 2, Other, Other, Other, Other, Other, Other, Other, Analog Channel 0, Analog Channel 1, Analog Channel 2, Timestamp, Other, Timestamp (Formatted)
0.0, -51109.27535406058, -27239.53452581579, -43668.06670046648, -28629.94714140262, -11510.522545638389, -14914.648522692743, -187500.02235174447, -10655.411858011706, 0.0, 0.0, 0.0, 0.0, 0.0, 0.0, 0.0, 0.0, 0.0, 0.0, 0.0, 192.0, 0.0, 0.0, 0.0, 0.0, 0.0, 0.0, 0.0, 0.0, 0.0, 1.696032614898615E9, 0.0, 2023-09-29 19:10:14.898
194.0, -51096.333694020956, -27401.875245794687, -43666.703244054705, -28672.34840063434, -11510.768414827397, -14914.939095370662, -187500.02235174447, -10651.030916098467, -16394.24459865625, 12264.111609949066, -26336.74756726594, -25211.069013007764, 16.562642641382535, -9176.016947748298, -23859.615488006533, -40715.9600515318, 0.152, 1.01, 0.148, 192.0, 2.0, 96.0, 15.5, 72.0, 2.0, 80.0, 0.0, 0.0, 0.0, 1.696032614898623E9, 0.0, 2023-09-29 19:10:14.898
196.0, -51109.45416801622, -27236.561743803235, -43669.54191560053, -28635.57978100536, -11514.65761836262, -14899.941074841152, -187500.02235174447, -10642.783122394458, -16373.658642012912, 12304.903543580001, -26281.91873811707, -25210.063184507275, 24.542215411927156, -9153.195816659429, -23849.959534401838, -40688.71327504078, 0.152, 1.01, 0.148, 192.0, 0.0, 0.0, 0.0, 0.0, 0.0, 0.0, 0.0, 0.0, 0.0, 1.696032614898627E9, 0.0, 2023-09-29 19:10:14.898
198.0, -51099.10531033341, -27394.834446291265, -43673.073491224466, -28680.037400726964, -11517.764510841907, -14900.321054496892, -187500.02235174447, -10650.181549809164, -16392.344700377547, 12304.300046479708, -26325.88461946066, -25209.99612927391, 18.842520575823855, -9161.19774117443, -23860.688371740387, -40702.906632769904, 0.152, 1.01, 0.148, 192.0, 0.0, 0.0, 0.0, 0.0, 0.0, 0.0, 0.0, 0.0, 0.0, 1.69603261489863E9, 0.0, 2023-09-29 19:10:14.898
200.0, -51099.15001382232, -27227.95632218794, -43669.988950489635, -28624.91799890018, -11505.18047871357, -14889.592217158344, -187500.02235174447, -10645.621793940281, -16367.489560543247, 12310.491479693828, -26289.71949693197, -25196.383916900628, 27.40323870220646, -9131.46992104887, -23842.784624431686, -40678.87850748045, 0.152, 1.01, 0.148, 192.0, 0.0, 0.0, 0.0, 0.0, 0.0, 0.0, 0.0, 0.0, 0.0, 1.696032614898634E9, 0.0, 2023-09-29 19:10:14.898
202.0, -51107.15193833732, -27345.772367211863, -43680.918953528286, -28682.45138912814, -11517.89862130864, -14907.38420574477, -187500.02235174447, -10659.323413291386, -16392.188238166364, 12275.734517065826, -26302.750563949416, -25202.441239648015, 13.746322840013844, -9150.178331157962, -23853.24524083677, -40702.213728691786, 0.152, 1.01, 0.148, 192.0, 0.0, 0.0, 0.0, 0.0, 0.0, 0.0, 0.0, 0.0, 0.0, 1.696032614898637E9, 0.0, 2023-09-29 19:10:14.898
204.0, -51099.73115917816, -27218.747403472353, -43669.787784789536, -28636.965589161588, -11500.576019355776, -14893.52612418248, -187500.02235174447, -10651.410895754207, -16370.060011155609, 12294.599389386105, -26299.330747047752, -25205.70459433849, 17.635526375237273, -9143.964546199388, -23844.215136076826, -40691.373132630964, 0.148, 1.002, 0.154, 192.0, 2.0, 80.0, 15.5, 40.0, 2.0, 104.0, 0.0, 0.0, 0.0, 1.69603261489864E9, 0.0, 2023-09-29 19:10:14.898
206.0, -51105.87788890337, -27321.096041333207, -43683.556459374005, -28697.091781746363, -11511.796595072341, -14918.247153550048, -187500.02235174447, -10665.716012205603, -16387.449668341837, 12286.128078237543, -26297.319090046774, -25217.79688808881, 13.299287950907702, -9157.95673822841, -23851.77002570272, -40701.43141763585, 0.148, 1.002, 0.154, 192.0, 0.0, 0.0, 0.0, 0.0, 0.0, 0.0, 0.0, 0.0, 0.0, 1.696032614898643E9, 0.0, 2023-09-29 19:10:14.898
208.0, -51120.69709547724, -27226.5258105428, -43672.648808079815, -28647.940295689143, -11497.133850709659, -14901.818621375398, -187500.02235174447, -10650.449770742629, -16367.824836710077, 12294.19705798591, -26315.915741433593, -25216.165210743573, 17.613174630781966, -9156.95090972792, -23843.90221165445, -40701.43141763585, 0.148, 1.002, 0.154, 192.0, 0.0, 0.0, 0.0, 0.0, 0.0, 0.0, 0.0, 0.0, 0.0, 1.696032614898647E9, 0.0, 2023-09-29 19:10:14.898
210.0, -51099.52999347806, -27324.26998904586, -43682.81885180698, -28693.649613100246, -11512.265981705903, -14911.385168002269, -187500.02235174447, -10655.747134178537, -16376.273796114183, 12278.595540356106, -26297.363793535686, -25212.18660023053, 14.30511645139652, -9160.996575474332, -23851.747673958263, -40707.868720038976, 0.148, 1.002, 0.154, 192.0, 0.0, 0.0, 0.0, 0.0, 0.0, 0.0, 0.0, 0.0, 0.0, 1.69603261489865E9, 0.0, 2023-09-29 19:10:14.898
0.0, -25494.355022234326, -13552.220291163958, -21855.066341765683, -14301.07078565011, -5742.677240690857, -7478.401956367727, -93750.01117587223, -5303.107834232787, -8193.993055104382, 6130.301193034791, -13183.304748929115, -12603.20992508053, 9.365380926773659, -4576.296159779568, -11925.594440173441, -20353.900832402807, 0.147, 1.005, 0.157, 192.0, 2.0, 72.0, 15.5, 64.0, 2.5, 0.0, 0.0, 0.0, 0.0, 1.696032615048489E9, 0.0, 2023-09-29 19:10:15.048
2.0, -50980.618712975825, -27264.479072627913, -43715.65356441183, -28642.7099874866, -11492.283522162857, -14963.263566883037, -187500.02235174447, -10612.652970868705, -16262.12343718093, 12190.194391035366, -26323.135354892656, -25172.959288711463, -91.66450401121426, -9185.762308330812, -23864.62227876452, -40731.650976139426, 0.147, 1.005, 0.157, 192.0, 0.0, 0.0, 0.0, 0.0, 0.0, 0.0, 0.0, 0.0, 0.0, 1.696032615048519E9, 0.0, 2023-09-29 19:10:15.048
4.0, -50974.51668673953, -27183.94573735544, -43703.002477050126, -28590.38455371673, -11484.952149981518, -14947.90791844224, -187500.02235174447, -10603.555810875394, -16244.487910805692, 12198.643350439472, -26339.295666133843, -25165.225585129927, -93.63145752328128, -9163.924653997976, -23864.15289213096, -40725.92892955887, 0.147, 1.005, 0.157, 192.0, 0.0, 0.0, 0.0, 0.0, 0.0, 0.0, 0.0, 0.0, 0.0, 1.696032615048523E9, 0.0, 2023-09-29 19:10:15.048
6.0, -50976.52834374051, -27248.832851509196, -43712.010230065614, -28636.831478694854, -11496.508001864911, -14965.588148306388, -187500.02235174447, -10619.805529094403, -16256.69196327829, 12189.501486957251, -26306.371546551174, -25164.17505314053, -92.11153890032041, -9158.761401028802, -23863.795264219676, -40727.24768248173, 0.147, 1.005, 0.157, 192.0, 0.0, 0.0, 0.0, 0.0, 0.0, 0.0, 0.0, 0.0, 0.0, 1.696032615048526E9, 0.0, 2023-09-29 19:10:15.048
8.0, -50967.36412851383, -27186.24796703434, -43692.564212389494, -28588.41760020466, -11475.631472543655, -14947.39382831977, -187500.02235174447, -10597.923171272656, -16255.529672566614, 12184.181771776888, -26341.664951046107, -25168.98067819842, -88.2670388540076, -9167.188008688452, -23856.15096761596, -40723.51494115769, 0.14400000000000002, 1.014, 0.156, 192.0, 2.0, 64.0, 15.5, 88.0, 2.0, 112.0, 0.0, 0.0, 0.0, 1.696032615048529E9, 0.0, 2023-09-29 19:10:15.048
10.0, -50967.45353549165, -27234.415976335524, -43705.46116894021, -28634.19397284913, -11489.780126783864, -14959.329659858902, -187500.02235174447, -10610.618962123272, -16251.238137631195, 12193.70361491485, -26294.122790589667, -25174.568614312248, -90.36810283280646, -9168.90909301151, -23854.13931061498, -40722.24089172374, 0.14400000000000002, 1.014, 0.156, 192.0, 0.0, 0.0, 0.0, 0.0, 0.0, 0.0, 0.0, 0.0, 0.0, 1.696032615048532E9, 0.0, 2023-09-29 19:10:15.048
12.0, -50981.44572752067, -27207.90680741153, -43693.88296531236, -28589.870463594256, -11480.37004236818, -14948.131435886793, -187500.02235174447, -10606.86386905478, -16251.439303331294, 12185.120545044012, -26348.661047060617, -25166.946669452987, -91.75391098903549, -9180.777869317279, -23852.820557692117, -40726.5100749147, 0.14400000000000002, 1.014, 0.156, 192.0, 0.0, 0.0, 0.0, 0.0, 0.0, 0.0, 0.0, 0.0, 0.0, 1.696032615048536E9, 0.0, 2023-09-29 19:10:15.048
14.0, -50980.73047169811, -27187.432609490468, -43711.00440156513, -28627.33198730135, -11501.246571689437, -14963.665898283232, -187500.02235174447, -10621.951296562112, -16253.808588243555, 12202.353740019053, -26282.321069517264, -25170.36648635465, -102.8627279833231, -9181.113145484107, -23858.207328105847, -40720.519807400684, 0.14400000000000002, 1.014, 0.156, 192.0, 0.0, 0.0, 0.0, 0.0, 0.0, 0.0, 0.0, 0.0, 0.0, 1.696032615048539E9, 0.0, 2023-09-29 19:10:15.048
16.0, -50974.829611161906, -27214.500572025845, -43697.90627931432, -28601.962757344576, -11486.539123837843, -14948.422008564712, -187500.02235174447, -10604.606342864794, -16268.471332606237, 12189.590893935072, -26363.994343756956, -25175.529739323825, -99.3535041038399, -9190.791450833256, -23862.700028741365, -40732.58974940655, 0.14400000000000002, 1.014, 0.156, 192.0, 0.0, 0.0, 0.0, 0.0, 0.0, 0.0, 0.0, 0.0, 0.0, 1.69603261510877E9, 0.0, 2023-09-29 19:10:15.108
18.0, -50969.19697155917, -27183.543405955246, -43707.204605007726, -28618.257179052496, -11502.542972867845, -14960.894281970774, -187500.02235174447, -10617.615058137782, -16250.969916697732, 12192.094289314067, -26294.167494078578, -25168.64540203159, -98.0794546698874, -9166.964491243898, -23859.414322306435, -40714.373077675475, 0.148, 1.012, 0.154, 192.0, 2.0, 80.0, 15.5, 80.0, 2.0, 104.0, 0.0, 0.0, 0.0, 1.696032615108779E9, 0.0, 2023-09-29 19:10:15.108
20.0, -50984.61967523333, -27248.654037553555, -43693.39122693434, -28597.358297986782, -11486.89675174913, -14946.812682963931, -187500.02235174447, -10603.444052153118, -16275.713297809756, 12168.848475080547, -26372.73387583898, -25171.372314855136, -97.43125408068349, -9187.550447887237, -23859.704894984352, -40724.45371442482, 0.148, 1.012, 0.154, 192.0, 0.0, 0.0, 0.0, 0.0, 0.0, 0.0, 0.0, 0.0, 0.0, 1.696032615108782E9, 0.0, 2023-09-29 19:10:15.108
22.0, -50971.94623612717, -27184.593937944646, -43699.13562525936, -28602.85682712279, -11495.524525108878, -14951.752418488553, -187500.02235174447, -10608.272028955464, -16254.8367684885, 12198.777460906203, -26284.243319540423, -25165.78437874131, -96.26896336900752, -9165.444572620938, -23851.702970469352, -40705.74530431572, 0.148, 1.012, 0.154, 192.0, 0.0, 0.0, 0.0, 0.0, 0.0, 0.0, 0.0, 0.0, 0.0, 1.696032615108785E9, 0.0, 2023-09-29 19:10:15.108
24.0, -50980.12697459781, -27277.040753011795, -43688.22797396517, -28589.51283568297, -11484.058080203306, -14943.035238150984, -187500.02235174447, -10605.85804055429, -16266.102047693974, 12177.83387635158, -26368.88937579267, -25161.850471717178, -97.72182675860248, -9185.315273441705, -23850.652438479956, -40716.138865487446, 0.148, 1.012, 0.154, 192.0, 0.0, 0.0, 0.0, 0.0, 0.0, 0.0, 0.0, 0.0, 0.0, 1.696032615108788E9, 0.0, 2023-09-29 19:10:15.108
26.0, -50976.30482629596, -27149.434643916447, -43701.79548284954, -28594.966661330065, -11502.900600779129, -14959.91080521474, -187500.02235174447, -10622.979476807055, -16248.243003874184, 12206.488812743284, -26274.185034535534, -25165.7396752524, -103.66739078371415, -9172.708889568912, -23848.685484967886, -40700.671458324374, 0.148, 1.012, 0.154, 192.0, 0.0, 0.0, 0.0, 0.0, 0.0, 0.0, 0.0, 0.0, 0.0, 1.696032615108792E9, 0.0, 2023-09-29 19:10:15.108
28.0, -50960.904474366245, -27241.568534561222, -43692.02777052257, -28596.53128344194, -11496.776222798375, -14957.474465069112, -187500.02235174447, -10616.989209293033, -16268.22546341723, 12190.194391035366, -26356.953544253534, -25169.584175298714, -101.74514076055775, -9209.008122564332, -23861.71655198533, -40724.67723186937, 0.14400000000000002, 1.012, 0.158, 192.0, 2.0, 64.0, 15.5, 80.0, 2.0, 120.0, 0.0, 0.0, 0.0, 1.696032615108795E9, 0.0, 2023-09-29 19:10:15.108
30.0, -50950.08623004988, -27134.23545768684, -43688.093863498434, -28584.148417013697, -11496.351539653724, -14951.618308021822, -187500.02235174447, -10616.363360448286, -16241.984515426699, 12214.669551213927, -26278.118941559667, -25153.98265766891, -93.05031216744331, -9167.120953455085, -23850.183051846394, -40704.40419964841, 0.14400000000000002, 1.012, 0.158, 192.0, 0.0, 0.0, 0.0, 0.0, 0.0, 0.0, 0.0, 0.0, 0.0, 1.696032615168167E9, 0.0, 2023-09-29 19:10:15.168
32.0, -50967.4311837472, -27278.98535477941, -43686.37277917538, -28599.481713710036, -11495.926856509073, -14961.453075582156, -187500.02235174447, -10630.400255966219, -16251.93104170931, 12186.551056689152, -26360.507471621928, -25154.608506513658, -87.52943128698246, -9189.852677566132, -23851.501804769257, -40723.06790626859, 0.14400000000000002, 1.012, 0.158, 192.0, 0.0, 0.0, 0.0, 0.0, 0.0, 0.0, 0.0, 0.0, 0.0, 1.696032615168179E9, 0.0, 2023-09-29 19:10:15.168
34.0, -50968.21349480313, -27120.802059269197, -43692.63126762286, -28580.41567568966, -11503.951132768529, -14963.732953516597, -187500.02235174447, -10639.743285148536, -16238.721160736224, 12203.024292352711, -26281.695220672515, -25165.11382640765, -98.14650990325332, -9177.916846027, -23854.519290270724, -40710.10389448451, 0.14400000000000002, 1.012, 0.158, 192.0, 0.0, 0.0, 0.0, 0.0, 0.0, 0.0, 0.0, 0.0, 0.0, 1.696032615168183E9, 0.0, 2023-09-29 19:10:15.168
36.0, -50975.00842511755, -27286.20496823847, -43688.74206408764, -28612.691594683125, -11503.74996706843, -14969.745572775075, -187500.02235174447, -10637.664572914193, -16262.212844158752, 12183.421812465407, -26358.629925087684, -25165.717323507946, -101.65573378273652, -9201.609695149624, -23864.01878166423, -40734.19907500733, 0.14400000000000002, 1.012, 0.158, 192.0, 0.0, 0.0, 0.0, 0.0, 0.0, 0.0, 0.0, 0.0, 0.0, 1.696032615168186E9, 0.0, 2023-09-29 19:10:15.168
38.0, -50977.78004143001, -27116.711690033877, -43697.30278221402, -28579.387495444716, -11501.961827512006, -14965.163465161737, -187500.02235174447, -10634.602383923815, -16248.824149230022, 12212.99317037978, -26298.48138075845, -25165.225585129927, -94.6372860237701, -9190.947913044443, -23857.67088623892, -40716.541196887636, 0.14400000000000002, 1.002, 0.16, 192.0, 2.0, 64.0, 15.5, 40.0, 2.5, 0.0, 0.0, 0.0, 0.0, 1.69603261516819E9, 0.0, 2023-09-29 19:10:15.168
40.0, -50960.278625521496, -27277.420732667535, -43700.65554388232, -28620.537056986937, -11499.03374898836, -14969.142075674783, -187500.02235174447, -10636.256413013509, -16259.865910990944, 12172.737678615771, -26356.193584942055, -25167.88544272011, -100.53814655997117, -9204.15779401753, -23866.186900876393, -40735.80840060811, 0.14400000000000002, 1.002, 0.16, 192.0, 0.0, 0.0, 0.0, 0.0, 0.0, 0.0, 0.0, 0.0, 0.0, 1.696032615168193E9, 0.0, 2023-09-29 19:10:15.168
42.0, -50974.74020418408, -27120.913817991477, -43698.75564560362, -28581.220338490053, -11493.736385552453, -14962.168331404726, -187500.02235174447, -10630.467311199583, -16243.415027071838, 12205.684149942894, -26309.076107630266, -25167.863090975654, -98.34767560335108, -9189.316235699205, -23861.62714500751, -40716.5635486321, 0.14400000000000002, 1.002, 0.16, 192.0, 0.0, 0.0, 0.0, 0.0, 0.0, 0.0, 0.0, 0.0, 0.0, 1.696032615168196E9, 0.0, 2023-09-29 19:10:15.168
44.0, -50969.21932330362, -27263.137967960593, -43706.24347999615, -28628.874257668765, -11503.66056009061, -14976.987537978595, -187500.02235174447, -10635.116474046288, -16266.236158160706, 12165.205140734333, -26345.062416203313, -25169.517120065346, -105.65669604023648, -9207.8234801082, -23867.2821363547, -40731.00277555022, 0.14400000000000002, 1.002, 0.16, 192.0, 0.0, 0.0, 0.0, 0.0, 0.0, 0.0, 0.0, 0.0, 0.0, 1.696032615168199E9, 0.0, 2023-09-29 19:10:15.168
46.0, -50983.032701377, -27100.819599726154, -43700.00734329312, -28579.298088466894, -11498.921990266084, -14970.684346042199, -187500.02235174447, -10628.969744321079, -16252.914518465344, 12195.424699237908, -26317.88269494566, -25172.154625911073, -111.57990832089286, -9192.82545957869, -23862.901194441463, -40717.2117492213, 0.14400000000000002, 1.002, 0.16, 192.0, 0.0, 0.0, 0.0, 0.0, 0.0, 0.0, 0.0, 0.0, 0.0, 1.696032615227984E9, 0.0, 2023-09-29 19:10:15.227
48.0, -50973.73437568359, -27232.58313329019, -43702.10840727192, -28632.47288852607, -11508.17561247058, -14981.05555546946, -187500.02235174447, -10643.520729961483, -16266.593786071991, 12187.1769055339, -26329.147974151132, -25168.712457264955, -109.05416119744316, -9208.359921975127, -23869.226738122314, -40738.62472040948, 0.14200000000000002, 1.01, 0.154, 192.0, 2.0, 56.0, 15.5, 72.0, 2.0, 104.0, 0.0, 0.0, 0.0, 1.696032615227993E9, 0.0, 2023-09-29 19:10:15.227
50.0, -50970.359262270846, -27133.251980930803, -43693.59239263444, -28588.08232403783, -11493.915199508096, -14974.372383877324, -187500.02235174447, -10641.933756105156, -16250.254660875162, 12193.837725381582, -26332.657198030618, -25162.163396139553, -102.97448670559963, -9193.943046801454, -23862.364752574536, -40728.87935982697, 0.14200000000000002, 1.01, 0.154, 192.0, 0.0, 0.0, 0.0, 0.0, 0.0, 0.0, 0.0, 0.0, 0.0, 1.696032615227997E9, 0.0, 2023-09-29 19:10:15.227
52.0, -50963.89960812326, -27237.411110092537, -43706.37759046288, -28637.546734517426, -11502.967656012495, -14984.453020626668, -187500.02235174447, -10650.561529464905, -16254.322678366028, 12175.844571095058, -26324.63292177116, -25173.69689627849, -109.21062340863031, -9219.267573269317, -23877.608642293053, -40746.805458880124, 0.14200000000000002, 1.01, 0.154, 192.0, 0.0, 0.0, 0.0, 0.0, 0.0, 0.0, 0.0, 0.0, 0.0, 1.696032615228E9, 0.0, 2023-09-29 19:10:15.228
54.0, -50983.01034963255, -27143.064396746686, -43689.278505954564, -28576.280602965428, -11479.230103400958, -14949.517244043023, -187500.02235174447, -10622.979476807055, -16265.45384710477, 12198.17396380591, -26341.463785346008, -25164.331515351718, -102.77332100550187, -9200.894439327054, -23860.017819406727, -40722.129133001465, 0.14200000000000002, 1.01, 0.154, 192.0, 0.0, 0.0, 0.0, 0.0, 0.0, 0.0, 0.0, 0.0, 0.0, 1.696032615228003E9, 0.0, 2023-09-29 19:10:15.228
56.0, -50962.78202090049, -27228.090432654673, -43709.66329689781, -28628.360167546296, -11500.576019355776, -14967.666860540732, -187500.02235174447, -10639.34095374834, -16266.258509905161, 12197.928094616902, -26322.710671748006, -25169.07008517624, -108.897698986256, -9199.575686404192, -23861.560089774142, -40720.877435311966, 0.14200000000000002, 1.01, 0.154, 192.0, 0.0, 0.0, 0.0, 0.0, 0.0, 0.0, 0.0, 0.0, 0.0, 1.696032615228006E9, 0.0, 2023-09-29 19:10:15.228
58.0, -50980.0822711089, -27174.692115150945, -43698.77799734807, -28580.08039952283, -11493.401109385624, -14949.740761487576, -187500.02235174447, -10623.381808207252, -16256.06611443354, 12200.36443476253, -26361.334486166776, -25165.449102574483, -102.61685879431472, -9193.272494467796, -23863.594098519578, -40715.848292809525, 0.146, 1.002, 0.158, 192.0, 2.0, 72.0, 15.5, 40.0, 2.0, 120.0, 0.0, 0.0, 0.0, 1.696032615228009E9, 0.0, 2023-09-29 19:10:15.228
60.0, -50973.08617509439, -27206.699813210944, -43708.389247463856, -28617.117240085274, -11508.555592126322, -14966.236348895593, -187500.02235174447, -10634.1106455458, -16253.361553354449, 12195.290588771175, -26313.837029199247, -25160.710532749956, -98.48178607008292, -9192.333721200672, -23863.839967708587, -40713.27784219717, 0.146, 1.002, 0.158, 192.0, 0.0, 0.0, 0.0, 0.0, 0.0, 0.0, 0.0, 0.0, 0.0, 1.696032615288175E9, 0.0, 2023-09-29 19:10:15.288
62.0, -50975.92484664021, -27185.4656559784, -43690.329037943964, -28578.873405322243, -11494.339882652746, -14953.317040600425, -187500.02235174447, -10618.598534893816, -16260.491759835693, 12190.931998602391, -26366.430683902585, -25164.420922329537, -100.9851814490773, -9201.453232938436, -23861.180110118403, -40721.212711478795, 0.146, 1.002, 0.158, 192.0, 0.0, 0.0, 0.0, 0.0, 0.0, 0.0, 0.0, 0.0, 0.0, 1.696032615288186E9, 0.0, 2023-09-29 19:10:15.288
64.0, -50966.626520946804, -27185.80093214523, -43693.57004088999, -28610.94815861561, -11501.403033900624, -14965.610500050843, -187500.02235174447, -10627.449825698117, -16253.83093998801, 12211.026216867713, -26301.476514515463, -25164.063294418254, -94.52552730149357, -9190.277360710783, -23858.363790317035, -40719.87160681148, 0.146, 1.002, 0.158, 192.0, 0.0, 0.0, 0.0, 0.0, 0.0, 0.0, 0.0, 0.0, 0.0, 1.69603261528819E9, 0.0, 2023-09-29 19:10:15.288
66.0, -50961.37386099981, -27214.00883364783, -43678.326151171466, -28577.66641112166, -11484.37100462568, -14952.355915588847, -187500.02235174447, -10609.881354556246, -16254.74736151068, 12213.440205268886, -26371.236308960477, -25167.17018689754, -87.41767256470592, -9199.218058492906, -23855.234546093292, -40725.77246734768, 0.146, 1.002, 0.158, 192.0, 0.0, 0.0, 0.0, 0.0, 0.0, 0.0, 0.0, 0.0, 0.0, 1.696032615288193E9, 0.0, 2023-09-29 19:10:15.288
68.0, -50973.82378266141, -27167.204280758415, -43700.02969503757, -28596.95596658659, -11505.806327558319, -14969.499703586067, -187500.02235174447, -10624.901726830212, -16247.415989329338, 12216.79296693718, -26299.420154025574, -25171.08174217722, -91.4633383111165, -9181.493125139848, -23858.162624616936, -40717.591728877036, 0.148, 1.014, 0.154, 192.0, 2.0, 80.0, 15.5, 88.0, 2.0, 104.0, 0.0, 0.0, 0.0, 1.696032615288196E9, 0.0, 2023-09-29 19:10:15.288
70.0, -50985.022006633524, -27226.503458798346, -43694.30764845701, -28585.04248679191, -11495.971559997985, -14955.462808068134, -187500.02235174447, -10612.876488313257, -16271.555873341069, 12183.913550843425, -26376.533672396385, -25178.346059125193, -75.05715788092111, -9187.975131031888, -23865.806921220654, -40730.62279589448, 0.148, 1.014, 0.154, 192.0, 0.0, 0.0, 0.0, 0.0, 0.0, 0.0, 0.0, 0.0, 0.0, 1.696032615288199E9, 0.0, 2023-09-29 19:10:15.288
72.0, -50973.51085823904, -27140.22572520086, -43709.66329689781, -28596.12895204174, -11499.03374898836, -14961.25190988206, -187500.02235174447, -10608.450842911107, -16257.630736545414, 12210.243905811776, -26289.361869020686, -25178.658983547568, -65.64707346523684, -9149.977165457865, -23862.67767699691, -40714.082504997554, 0.148, 1.014, 0.154, 192.0, 0.0, 0.0, 0.0, 0.0, 0.0, 0.0, 0.0, 0.0, 0.0, 1.696032615288203E9, 0.0, 2023-09-29 19:10:15.288
74.0, -50966.76063141354, -27243.557839817746, -43704.254174739624, -28592.17269327315, -11484.393356370134, -14941.448264294657, -187500.02235174447, -10580.801735019892, -16268.918367495344, 12204.410100508941, -26372.93504153908, -25174.278041634327, -60.66263445170337, -9148.770171257278, -23863.10236014156, -40726.21950223679, 0.148, 1.014, 0.154, 192.0, 0.0, 0.0, 0.0, 0.0, 0.0, 0.0, 0.0, 0.0, 0.0, 1.696032615288206E9, 0.0, 2023-09-29 19:10:15.288
76.0, -50973.82378266141, -27122.970178481362, -43722.96258484871, -28597.42535322015, -11490.361272139702, -14937.179081103694, -187500.02235174447, -10582.701633298593, -16242.006867171154, 12233.266202600742, -26278.856549126693, -25171.908756722067, -57.48868673904977, -9115.130795852041, -23860.375447318012, -40709.34393517303, 0.148, 1.014, 0.154, 192.0, 0.0, 0.0, 0.0, 0.0, 0.0, 0.0, 0.0, 0.0, 0.0, 1.696032615348532E9, 0.0, 2023-09-29 19:10:15.348
78.0, -50966.3806517578, -27263.607354594154, -43721.12974180338, -28617.29605404092, -11480.593559812733, -14934.027485135495, -187500.02235174447, -10577.09134544031, -16257.943660967787, 12203.94071387538, -26366.229518202486, -25172.73577126691, -62.9648641306, -9126.217261101874, -23863.527043286213, -40731.00277555022, 0.152, 1.016, 0.15, 192.0, 2.0, 96.0, 15.5, 96.0, 2.0, 88.0, 0.0, 0.0, 0.0, 1.696032615348542E9, 0.0, 2023-09-29 19:10:15.348
80.0, -50984.70908221115, -27097.13156189103, -43738.005308867134, -28612.110449327287, -11492.887019263151, -14942.521148028512, -187500.02235174447, -10593.989264248523, -16247.304230607062, 12222.872641429025, -26276.71078165898, -25179.441294603505, -63.00956761951061, -9117.768301697768, -23866.96921193233, -40716.317679443084, 0.152, 1.016, 0.15, 192.0, 0.0, 0.0, 0.0, 0.0, 0.0, 0.0, 0.0, 0.0, 0.0, 1.696032615348546E9, 0.0, 2023-09-29 19:10:15.348
82.0, -50972.66149194974, -27266.088398228694, -43728.34935526244, -28641.458289797105, -11478.917178978585, -14934.273354324503, -187500.02235174447, -10585.629711822237, -16276.875588521432, 12187.51218170073, -26358.719332065506, -25175.88736723511, -59.32152978438494, -9128.586546014136, -23876.289889370193, -40745.10672630152, 0.152, 1.016, 0.15, 192.0, 0.0, 0.0, 0.0, 0.0, 0.0, 0.0, 0.0, 0.0, 0.0, 1.69603261534855E9, 0.0, 2023-09-29 19:10:15.348
84.0, -50968.34760526987, -27117.35989062308, -43728.103486073436, -28614.278568539452, -11476.346728366225, -14931.837014178875, -187500.02235174447, -10588.71425255707, -16239.302306092062, 12233.176795622921, -26288.132523075645, -25168.98067819842, -53.71124192610287, -9102.390301512516, -23864.06348515314, -40720.89978705642, 0.152, 1.016, 0.15, 192.0, 0.0, 0.0, 0.0, 0.0, 0.0, 0.0, 0.0, 0.0, 0.0, 1.696032615348554E9, 0.0, 2023-09-29 19:10:15.348
86.0, -50978.83057341941, -27258.62291558062, -43732.66324194232, -28651.20365037962, -11478.17957141156, -14937.424950292701, -187500.02235174447, -10597.900819528202, -16260.223538902228, 12207.293475543676, -26342.044930701846, -25171.12644566613, -58.40510826171735, -9117.321266808662, -23871.6854300124, -40743.028014067175, 0.152, 1.016, 0.15, 192.0, 0.0, 0.0, 0.0, 0.0, 0.0, 0.0, 0.0, 0.0, 0.0, 1.696032615348557E9, 0.0, 2023-09-29 19:10:15.348
88.0, -50982.093928109876, -27106.899274217998, -43735.68072744378, -28620.067670353375, -11478.648958045122, -14930.585316489378, -187500.02235174447, -10595.598589849305, -16244.17498638332, 12218.759920449249, -26286.992584108422, -25169.47241657644, -66.20586707661953, -9093.56136245267, -23866.00808692075, -40724.788990591645, 0.146, 1.01, 0.146, 192.0, 2.0, 72.0, 15.5, 72.0, 2.0, 72.0, 0.0, 0.0, 0.0, 1.696032615348561E9, 0.0, 2023-09-29 19:10:15.348
90.0, -50967.58764595838, -27255.426616123514, -43733.91493963182, -28657.976228949577, -11474.98327195445, -14934.42981653569, -187500.02235174447, -10591.687034569626, -16258.480102834716, 12201.526725474207, -26336.54640156584, -25168.64540203159, -65.98234963206644, -9115.533127252236, -23869.137331144495, -40742.78214487817, 0.146, 1.01, 0.146, 192.0, 0.0, 0.0, 0.0, 0.0, 0.0, 0.0, 0.0, 0.0, 0.0, 1.696032615408738E9, 0.0, 2023-09-29 19:10:15.408
92.0, -50973.5332099835, -27086.15685536347, -43734.96547162122, -28616.24552205152, -11474.22331264297, -14928.059569365929, -187500.02235174447, -10591.418813636163, -16236.485986290692, 12224.481967029807, -26287.841950397727, -25169.986506698908, -62.89780889723407, -9099.439871244416, -23857.559127516644, -40725.280728969665, 0.146, 1.01, 0.146, 192.0, 0.0, 0.0, 0.0, 0.0, 0.0, 0.0, 0.0, 0.0, 0.0, 1.69603261540875E9, 0.0, 2023-09-29 19:10:15.408
94.0, -50964.43604999019, -27238.43929033748, -43735.47956174369, -28668.43684535466, -11473.351594609214, -14932.529918256989, -187500.02235174447, -10588.71425255707, -16259.284765635106, 12196.452879482851, -26320.430793813564, -25172.400495100082, -60.14854432923131, -9120.830490688144, -23860.978944418308, -40740.12228728799, 0.146, 1.01, 0.146, 192.0, 0.0, 0.0, 0.0, 0.0, 0.0, 0.0, 0.0, 0.0, 0.0, 1.696032615408754E9, 0.0, 2023-09-29 19:10:15.408
96.0, -50978.62940771931, -27116.51052433378, -43727.92467211779, -28623.42043202167, -11464.366193338179, -14921.219935562603, -187500.02235174447, -10578.432450107628, -16239.458768303248, 12227.164176364444, -26301.521218004375, -25167.371352597638, -63.47895425307206, -9101.742100923313, -23853.021723392216, -40718.217577721785, 0.146, 1.01, 0.146, 192.0, 0.0, 0.0, 0.0, 0.0, 0.0, 0.0, 0.0, 0.0, 0.0, 1.696032615408757E9, 0.0, 2023-09-29 19:10:15.408
98.0, -50977.46711700763, -27239.981560704895, -43735.568968721505, -28672.236641912063, -11477.956053967006, -14940.978877661095, -187500.02235174447, -10596.693825327615, -16254.479140577216, 12201.79494640767, -26308.40555529661, -25163.571556040235, -65.71412869860276, -9114.750816196301, -23860.77777871821, -40732.58974940655, 0.146, 1.002, 0.148, 192.0, 2.0, 72.0, 15.5, 40.0, 2.0, 80.0, 0.0, 0.0, 0.0, 1.69603261540876E9, 0.0, 2023-09-29 19:10:15.408
100.0, -50974.49433499508, -27128.602818084102, -43724.3707447494, -28619.642987208725, -11463.65093751561, -14927.344313543359, -187500.02235174447, -10586.054394966888, -16247.594803284981, 12213.32844654661, -26311.423040798076, -25161.135215894607, -66.27292230998545, -9097.674083432446, -23858.028514150206, -40723.470237668786, 0.146, 1.002, 0.148, 192.0, 0.0, 0.0, 0.0, 0.0, 0.0, 0.0, 0.0, 0.0, 0.0, 1.696032615408763E9, 0.0, 2023-09-29 19:10:15.408
102.0, -50969.442840748176, -27216.355766815635, -43736.44068675527, -28668.19097616565, -11479.766545267887, -14944.778674218498, -187500.02235174447, -10603.868735297769, -16248.846500974478, 12205.773556920714, -26301.096534859724, -25167.728980508924, -75.10186136983172, -9109.833432416133, -23863.974078175317, -40733.70733662931, 0.146, 1.002, 0.148, 192.0, 0.0, 0.0, 0.0, 0.0, 0.0, 0.0, 0.0, 0.0, 0.0, 1.696032615408766E9, 0.0, 2023-09-29 19:10:15.408
104.0, -50977.534172240994, -27112.755431265286, -43725.443628483255, -28615.23969355103, -11472.703394020009, -14940.174214860705, -187500.02235174447, -10601.588857363327, -16246.633678273402, 12227.208879853355, -26322.688320003548, -25170.545300310292, -74.92304741418927, -9112.806214428689, -23864.778740975707, -40733.796743607134, 0.146, 1.002, 0.148, 192.0, 0.0, 0.0, 0.0, 0.0, 0.0, 0.0, 0.0, 0.0, 0.0, 1.69603261540877E9, 0.0, 2023-09-29 19:10:15.408
106.0, -50969.95693087065, -27186.42678098998, -43729.08696282947, -28661.418397595695, -11481.062946446295, -14950.366610332325, -187500.02235174447, -10609.255505711497, -16262.414009858849, 12215.116586103033, -26292.647575455616, -25170.45589333247, -77.47114628209428, -9115.33196155214, -23867.14802588797, -40737.507133186715, 0.146, 1.002, 0.148, 192.0, 0.0, 0.0, 0.0, 0.0, 0.0, 0.0, 0.0, 0.0, 0.0, 1.696032615468035E9, 0.0, 2023-09-29 19:10:15.468
108.0, -50984.30675081095, -27150.95456253941, -43716.346468489945, -28613.876237139255, -11467.428382328557, -14932.731083957087, -187500.02235174447, -10595.129203215743, -16248.377114340916, 12185.679338655395, -26345.241230158954, -25166.54433805279, -67.83754442185693, -9113.722635951357, -23859.95076417336, -40733.84144709605, 0.148, 1.006, 0.148, 192.0, 2.0, 80.0, 15.5, 56.0, 2.0, 80.0, 0.0, 0.0, 0.0, 1.696032615468044E9, 0.0, 2023-09-29 19:10:15.468
110.0, -50972.303864038455, -27170.24411800434, -43729.39988725184, -28654.28819111445, -11488.75194653892, -14950.992459177072, -187500.02235174447, -10609.635485367238, -16253.69682952128, 12202.42079525242, -26285.897348630115, -25168.578346798226, -80.22041085009705, -9119.13175810954, -23867.192729376882, -40735.47312444128, 0.148, 1.006, 0.148, 192.0, 0.0, 0.0, 0.0, 0.0, 0.0, 0.0, 0.0, 0.0, 0.0, 1.696032615468048E9, 0.0, 2023-09-29 19:10:15.468
112.0, -50972.84030590538, -27188.125513568582, -43710.98204982067, -28609.6517574372, -11471.406992841601, -14928.23838332157, -187500.02235174447, -10589.138935701721, -16256.133169666908, 12205.304170287154, -26355.63479133067, -25161.69400950599, -76.71118697061384, -9111.912144650478, -23865.225775864816, -40739.02705180968, 0.148, 1.006, 0.148, 192.0, 0.0, 0.0, 0.0, 0.0, 0.0, 0.0, 0.0, 0.0, 0.0, 1.696032615468051E9, 0.0, 2023-09-29 19:10:15.468
114.0, -50976.2824745515, -27146.014827014784, -43729.69045992976, -28635.468022283083, -11490.450679117523, -14943.929307929197, -187500.02235174447, -10601.52180212996, -16242.319791593527, 12228.058246142657, -26275.369676991664, -25168.801864242778, -73.67134972469208, -9099.663388688969, -23865.29283109818, -40726.57713014807, 0.148, 1.006, 0.148, 192.0, 0.0, 0.0, 0.0, 0.0, 0.0, 0.0, 0.0, 0.0, 0.0, 1.696032615468054E9, 0.0, 2023-09-29 19:10:15.468
116.0, -50973.30969253894, -27188.10316182413, -43720.03450632507, -28615.37380401776, -11475.184437654549, -14932.708732212632, -187500.02235174447, -10586.657892067182, -16261.966974969742, 12218.692865215882, -26361.312134422322, -25177.45198934698, -78.18640210466411, -9119.243516831817, -23872.132464901504, -40742.53627568916, 0.148, 1.006, 0.148, 192.0, 0.0, 0.0, 0.0, 0.0, 0.0, 0.0, 0.0, 0.0, 0.0, 1.696032615468057E9, 0.0, 2023-09-29 19:10:15.468
118.0, -50978.09296585238, -27142.75147232431, -43732.50677973113, -28634.77511820497, -11485.80151627082, -14942.208223606138, -187500.02235174447, -10602.214706208075, -16241.492777048681, 12218.1340716045, -26283.52806371785, -25170.902928221578, -77.33703581536244, -9100.155127066986, -23864.510520042244, -40727.89588307094, 0.15, 1.004, 0.152, 192.0, 2.0, 88.0, 15.5, 48.0, 2.0, 96.0, 0.0, 0.0, 0.0, 1.69603261546806E9, 0.0, 2023-09-29 19:10:15.468
120.0, -50977.02008211853, -27200.217807318906, -43734.63019545439, -28623.576894232858, -11490.294216906335, -14945.248060852058, -187500.02235174447, -10610.261334211986, -16262.101085436474, 12181.052527553145, -26360.686285577573, -25175.283870134816, -86.50125104203833, -9121.210470343885, -23873.63003178001, -40747.16308679141, 0.15, 1.004, 0.152, 192.0, 0.0, 0.0, 0.0, 0.0, 0.0, 0.0, 0.0, 0.0, 0.0, 1.696032615527794E9, 0.0, 2023-09-29 19:10:15.527
122.0, -50970.5827797154, -27105.871093973055, -43737.78179142258, -28636.071519383375, -11494.876324519673, -14957.116837157828, -187500.02235174447, -10620.386674450241, -16236.933021179799, 12219.765748949738, -26276.82254038126, -25167.371352597638, -89.80930922142377, -9113.163842339975, -23875.641688780986, -40742.9162553449, 0.15, 1.004, 0.152, 192.0, 0.0, 0.0, 0.0, 0.0, 0.0, 0.0, 0.0, 0.0, 0.0, 1.696032615527805E9, 0.0, 2023-09-29 19:10:15.527
124.0, -50988.01714039053, -27218.590941261165, -43724.32604126049, -28639.08900488484, -11481.666443546586, -14946.477406797101, -187500.02235174447, -10604.271066697964, -16259.642393546392, 12178.1244490295, -26368.308230436833, -25173.831006745222, -89.38462607677295, -9142.04229617623, -23873.942956202383, -40756.10378457353, 0.15, 1.004, 0.152, 192.0, 0.0, 0.0, 0.0, 0.0, 0.0, 0.0, 0.0, 0.0, 0.0, 1.696032615527808E9, 0.0, 2023-09-29 19:10:15.527
126.0, -50983.32327405492, -27101.691317759913, -43730.36101226342, -28636.85383043931, -11490.69654830653, -14947.662049253233, -187500.02235174447, -10604.80750856489, -16241.537480537592, 12207.025254610213, -26286.83612189724, -25178.234300402917, -87.57413477589307, -9122.976258155853, -23874.747619002774, -40735.67429014138, 0.15, 1.004, 0.152, 192.0, 0.0, 0.0, 0.0, 0.0, 0.0, 0.0, 0.0, 0.0, 0.0, 1.696032615527812E9, 0.0, 2023-09-29 19:10:15.527
128.0, -50974.471983250616, -27234.684197268987, -43719.006326080125, -28642.75469097551, -11483.991024969939, -14948.354953331347, -187500.02235174447, -10598.012578250478, -16261.095256935985, 12178.012690307223, -26379.439399175575, -25177.65315504708, -87.50707954252715, -9146.423238089472, -23876.558110303657, -40746.78310713567, 0.14200000000000002, 1.014, 0.156, 192.0, 2.0, 56.0, 15.5, 88.0, 2.0, 112.0, 0.0, 0.0, 0.0, 1.696032615527819E9, 0.0, 2023-09-29 19:10:15.527
130.0, -50983.837364177394, -27077.059695370164, -43724.28133777158, -28620.693519198125, -11484.013376714394, -14952.713543500131, -187500.02235174447, -10601.09711898531, -16243.12445439392, 12204.544210975673, -26295.1062673457, -25183.621070816647, -92.64798076724777, -9125.122025623563, -23868.802054977663, -40723.87256906898, 0.14200000000000002, 1.014, 0.156, 192.0, 0.0, 0.0, 0.0, 0.0, 0.0, 0.0, 0.0, 0.0, 0.0, 1.696032615527824E9, 0.0, 2023-09-29 19:10:15.527
132.0, -50996.71196898365, -27209.359670801125, -43723.36491624891, -28644.498127043025, -11487.477897104967, -14956.24511912407, -187500.02235174447, -10601.499450385505, -16268.31487039505, 12166.523893657195, -26368.442340903563, -25190.527759853336, -95.08432091287625, -9149.977165457865, -23877.452180081866, -40747.14073504695, 0.14200000000000002, 1.014, 0.156, 192.0, 0.0, 0.0, 0.0, 0.0, 0.0, 0.0, 0.0, 0.0, 0.0, 1.696032615527827E9, 0.0, 2023-09-29 19:10:15.527
134.0, -50993.78389046001, -27042.526250186715, -43731.61270995292, -28617.564274974382, -11492.909371007607, -14954.613441778833, -187500.02235174447, -10603.62286610876, -16240.844576459478, 12201.392615007475, -26305.186904095044, -25190.21483543096, -96.1795563911863, -9132.207528615896, -23872.758313746253, -40729.59461564954, 0.14200000000000002, 1.014, 0.156, 192.0, 0.0, 0.0, 0.0, 0.0, 0.0, 0.0, 0.0, 0.0, 0.0, 1.69603261552783E9, 0.0, 2023-09-29 19:10:15.527
136.0, -50977.73533794109, -27202.609443975623, -43728.52816921809, -28649.661380012203, -11482.26994064688, -14955.306345856947, -187500.02235174447, -10601.231229452042, -16266.973765727731, 12177.319786229109, -26358.607573343226, -25189.007841230374, -89.13875688776457, -9154.134589926553, -23874.792322491685, -40750.940531604356, 0.14200000000000002, 1.014, 0.156, 192.0, 0.0, 0.0, 0.0, 0.0, 0.0, 0.0, 0.0, 0.0, 0.0, 1.696032615588142E9, 0.0, 2023-09-29 19:10:15.588
138.0, -50974.248465806064, -27060.161776561952, -43730.71864017471, -28608.690632425623, -11479.6100830567, -14951.730066744098, -187500.02235174447, -10597.789060805924, -16242.655067760357, 12196.36347250503, -26311.91477917609, -25183.352849883184, -80.55568701692665, -9131.38051407105, -23862.990601419282, -40733.43911569585, 0.14, 1.016, 0.15, 192.0, 2.0, 48.0, 15.5, 96.0, 2.0, 88.0, 0.0, 0.0, 0.0, 1.696032615588151E9, 0.0, 2023-09-29 19:10:15.588
140.0, -50975.92484664021, -27199.211978818417, -43742.31919554701, -28655.7634062485, -11494.161068697103, -14962.570662804923, -187500.02235174447, -10612.831784824346, -16264.358611626461, 12180.761954875226, -26346.64939005964, -25194.349908155193, -96.96186744712203, -9145.171540399973, -23881.29668012818, -40754.38270025048, 0.14, 1.016, 0.15, 192.0, 0.0, 0.0, 0.0, 0.0, 0.0, 0.0, 0.0, 0.0, 0.0, 1.696032615588155E9, 0.0, 2023-09-29 19:10:15.588
142.0, -50989.917038669235, -27059.580631206114, -43735.59132046597, -28606.902492869198, -11489.847182017229, -14951.126569643804, -187500.02235174447, -10607.959104533089, -16243.92911719431, 12209.685112200394, -26323.64944501513, -25183.46460860546, -89.78695747696847, -9126.217261101874, -23876.848682981574, -40742.402165222426, 0.14, 1.016, 0.15, 192.0, 0.0, 0.0, 0.0, 0.0, 0.0, 0.0, 0.0, 0.0, 0.0, 1.696032615588158E9, 0.0, 2023-09-29 19:10:15.588
144.0, -50981.42337577622, -27201.581263730677, -43738.653509456344, -28654.66817077019, -11492.4623361185, -14958.189720891682, -187500.02235174447, -10611.267162712475, -16260.134131924407, 12192.429565480896, -26339.49683183394, -25180.447123103993, -91.73155924458018, -9139.538900797237, -23885.83408425261, -40758.83069739708, 0.14, 1.016, 0.15, 192.0, 0.0, 0.0, 0.0, 0.0, 0.0, 0.0, 0.0, 0.0, 0.0, 1.696032615588161E9, 0.0, 2023-09-29 19:10:15.588
146.0, -50982.11627985434, -27073.97515463533, -43734.02669835409, -28606.634271935734, -11483.521638336379, -14946.253889352547, -187500.02235174447, -10600.694787585115, -16245.113759650441, 12203.828955153103, -26326.89044796115, -25184.64925106159, -91.41863482220589, -9126.463130290882, -23876.40164809247, -40744.77145013469, 0.14, 1.016, 0.15, 192.0, 0.0, 0.0, 0.0, 0.0, 0.0, 0.0, 0.0, 0.0, 0.0, 1.696032615588164E9, 0.0, 2023-09-29 19:10:15.588
148.0, -50970.068689592925, -27192.6182142041, -43747.50480026064, -28663.653572041225, -11492.507039607412, -14960.424895337213, -187500.02235174447, -10612.742377846525, -16254.322678366028, 12190.08263231309, -26329.326788106777, -25185.833893517723, -85.96480917511096, -9139.360086841594, -23881.609604550555, -40757.95897936332, 0.134, 1.008, 0.154, 192.0, 2.0, 24.0, 15.5, 64.0, 2.0, 104.0, 0.0, 0.0, 0.0, 1.696032615588167E9, 0.0, 2023-09-29 19:10:15.588
150.0, -50982.67507346572, -27097.869169458052, -43737.804143167035, -28614.747955173014, -11483.365176125191, -14947.416180064223, -187500.02235174447, -10606.14861323221, -16247.55009979607, 12201.862001641037, -26345.84472725925, -25179.061314947765, -85.7859952194685, -9135.314421095183, -23877.295717870682, -40750.00175833723, 0.134, 1.008, 0.154, 192.0, 0.0, 0.0, 0.0, 0.0, 0.0, 0.0, 0.0, 0.0, 0.0, 1.696032615648421E9, 0.0, 2023-09-29 19:10:15.648
152.0, -50985.603151989366, -27177.396676230037, -43748.08594561648, -28665.598173808838, -11496.262132675904, -14966.616328551332, -187500.02235174447, -10622.621848895771, -16260.871739491433, 12199.492716728773, -26322.59891302573, -25185.856245262177, -91.1280621442869, -9134.934441439444, -23886.05760169716, -40753.48863047226, 0.134, 1.008, 0.154, 192.0, 0.0, 0.0, 0.0, 0.0, 0.0, 0.0, 0.0, 0.0, 0.0, 1.696032615648434E9, 0.0, 2023-09-29 19:10:15.648
154.0, -50990.00644564706, -27107.92745446294, -43733.13262857588, -28619.352414530804, -11483.968673225483, -14949.606651020844, -187500.02235174447, -10611.267162712475, -16253.450960332271, 12197.41400449443, -26352.751416295938, -25178.74839052539, -88.82583246539026, -9135.850862962112, -23879.30737487166, -40749.06298507011, 0.134, 1.008, 0.154, 192.0, 0.0, 0.0, 0.0, 0.0, 0.0, 0.0, 0.0, 0.0, 0.0, 1.696032615648438E9, 0.0, 2023-09-29 19:10:15.648
156.0, -50973.622616961315, -27162.063379533694, -43737.84884665595, -28666.24637439804, -11490.294216906335, -14961.497779071067, -187500.02235174447, -10625.929907075157, -16260.111780179952, 12188.763879390226, -26307.01974714038, -25178.32370738074, -96.2019081356416, -9137.214319373885, -23879.44148533839, -40750.87347637099, 0.134, 1.008, 0.154, 192.0, 0.0, 0.0, 0.0, 0.0, 0.0, 0.0, 0.0, 0.0, 0.0, 1.696032615648441E9, 0.0, 2023-09-29 19:10:15.648
158.0, -50977.10948909634, -27118.499829590302, -43731.031564597084, -28623.778059932956, -11481.5099813354, -14953.093523155872, -187500.02235174447, -10618.732645360547, -16258.077771434519, 12184.897027599458, -26356.30534366433, -25179.217777158952, -91.91037320022264, -9145.260947377796, -23875.82050273663, -40752.66161592741, 0.14, 1.004, 0.156, 192.0, 2.0, 48.0, 15.5, 48.0, 2.0, 112.0, 0.0, 0.0, 0.0, 1.696032615648444E9, 0.0, 2023-09-29 19:10:15.648
160.0, -50973.57791347241, -27140.717463578876, -43737.55827397803, -28663.117130174298, -11487.433193616056, -14963.710601772143, -187500.02235174447, -10624.097064029822, -16253.607422543459, 12203.27016154172, -26299.263691814387, -25180.760047526368, -94.21260287911927, -9141.058819420197, -23878.927395215916, -40753.64509268345, 0.14, 1.004, 0.156, 192.0, 0.0, 0.0, 0.0, 0.0, 0.0, 0.0, 0.0, 0.0, 0.0, 1.696032615648448E9, 0.0, 2023-09-29 19:10:15.648
162.0, -50985.29022756699, -27157.213050986895, -43725.93536686127, -28622.81693492138, -11472.457524831001, -14951.171273132715, -187500.02235174447, -10610.350741189808, -16249.718219008235, 12195.983492849291, -26369.738742081972, -25175.909718979565, -88.66937025420312, -9139.963583941888, -23868.422075321923, -40753.13100256098, 0.14, 1.004, 0.156, 192.0, 0.0, 0.0, 0.0, 0.0, 0.0, 0.0, 0.0, 0.0, 0.0, 1.696032615648451E9, 0.0, 2023-09-29 19:10:15.648
164.0, -50988.82180319093, -27110.296739375204, -43748.26475957212, -28653.774100991977, -11496.709167565008, -14973.143037932283, -187500.02235174447, -10626.399293708719, -16256.937832467298, 12193.41304223693, -26291.418229510575, -25186.70561155148, -101.63338203828121, -9142.221110131874, -23874.501749813768, -40743.5644559341, 0.14, 1.004, 0.156, 192.0, 0.0, 0.0, 0.0, 0.0, 0.0, 0.0, 0.0, 0.0, 0.0, 1.696032615648454E9, 0.0, 2023-09-29 19:10:15.648
166.0, -50982.40685253225, -27172.52399593878, -43731.858579141925, -28626.817897178877, -11478.201923156015, -14954.993421434572, -187500.02235174447, -10613.189412735632, -16260.044724946587, 12174.525818172195, -26376.89130030767, -25180.26830914835, -104.22618439509684, -9144.836264233145, -23876.58046204811, -40754.13683106146, 0.14, 1.004, 0.156, 192.0, 0.0, 0.0, 0.0, 0.0, 0.0, 0.0, 0.0, 0.0, 0.0, 1.69603261570866E9, 0.0, 2023-09-29 19:10:15.708
168.0, -50968.79464015897, -27101.713669504366, -43738.40764026733, -28632.00350189251, -11490.473030861978, -14961.207206393148, -187500.02235174447, -10623.784139607447, -16247.326582351518, 12217.709388459849, -26291.015898110378, -25172.422846844536, -99.82289073740134, -9127.536014024738, -23866.76804623223, -40729.616967393995, 0.146, 1.01, 0.148, 192.0, 2.0, 72.0, 15.5, 72.0, 2.0, 80.0, 0.0, 0.0, 0.0, 1.696032615708669E9, 0.0, 2023-09-29 19:10:15.708
170.0, -50977.48946875209, -27197.55794972872, -43729.60105295194, -28626.862600667788, -11485.108612192704, -14962.302441871458, -187500.02235174447, -10624.499395430017, -16262.525768581125, 12172.894140826958, -26380.109951509232, -25182.54818708279, -102.39334134976166, -9159.09667719563, -23876.222834136825, -40750.78406939317, 0.146, 1.01, 0.148, 192.0, 0.0, 0.0, 0.0, 0.0, 0.0, 0.0, 0.0, 0.0, 0.0, 1.696032615708672E9, 0.0, 2023-09-29 19:10:15.708
172.0, -50973.622616961315, -27094.114076389564, -43734.40667800983, -28627.37669079026, -11496.351539653724, -14967.91272972974, -187500.02235174447, -10630.467311199583, -16237.894146191376, 12208.589876722084, -26288.288985286832, -25176.244995146393, -95.12902440178686, -9130.039409403731, -23872.06540966814, -40735.9648628193, 0.146, 1.01, 0.148, 192.0, 0.0, 0.0, 0.0, 0.0, 0.0, 0.0, 0.0, 0.0, 0.0, 1.696032615708675E9, 0.0, 2023-09-29 19:10:15.708
174.0, -50984.9325996557, -27206.43159227748, -43725.018945338605, -28636.85383043931, -11484.952149981518, -14964.671726783721, -187500.02235174447, -10622.57714540686, -16257.854253989966, 12172.536512915673, -26369.35876242623, -25182.74935278289, -97.67712326969186, -9161.912996997, -23879.665002782942, -40755.09795607304, 0.146, 1.01, 0.148, 192.0, 0.0, 0.0, 0.0, 0.0, 0.0, 0.0, 0.0, 0.0, 0.0, 1.696032615708679E9, 0.0, 2023-09-29 19:10:15.708
176.0, -50984.50791651105, -27075.897404658488, -43727.16471280631, -28627.667263468178, -11492.216466929493, -14973.411258865746, -187500.02235174447, -10630.690828644138, -16248.31005910755, 12215.094234358578, -26287.909005631092, -25181.497655093393, -104.7626262620242, -9152.257043392307, -23872.579499790612, -40741.217522766296, 0.146, 1.01, 0.148, 192.0, 0.0, 0.0, 0.0, 0.0, 0.0, 0.0, 0.0, 0.0, 0.0, 1.696032615708682E9, 0.0, 2023-09-29 19:10:15.708
178.0, -50977.48946875209, -27193.08760083766, -43721.442666225754, -28637.725548473067, -11490.450679117523, -14974.998232722073, -187500.02235174447, -10628.947392576623, -16263.97863197072, 12193.882428870491, -26367.97295427, -25181.520006837847, -102.1921756496639, -9160.974223729876, -23875.865206225542, -40758.45071774134, 0.15, 1.01, 0.154, 192.0, 2.0, 88.0, 15.5, 72.0, 2.0, 104.0, 0.0, 0.0, 0.0, 1.696032615708685E9, 0.0, 2023-09-29 19:10:15.708
180.0, -50970.001634359556, -27058.44069223889, -43717.37464873489, -28612.445725494115, -11488.081394205261, -14971.667822798232, -187500.02235174447, -10632.702485645115, -16237.916497935832, 12208.612228466538, -26295.173322579067, -25175.820312001742, -103.71209427262477, -9138.980107185855, -23875.865206225542, -40741.77631637768, 0.15, 1.01, 0.154, 192.0, 0.0, 0.0, 0.0, 0.0, 0.0, 0.0, 0.0, 0.0, 0.0, 1.69603261576901E9, 0.0, 2023-09-29 19:10:15.769
182.0, -50978.04826236347, -27219.75323197284, -43712.61372716591, -28638.99959790702, -11485.577998826266, -14977.993366479084, -187500.02235174447, -10632.300154244918, -16254.479140577216, 12164.668698867405, -26361.960335011525, -25175.105056179174, -94.39141683476173, -9171.390136646049, -23871.86424396804, -40754.40505199493, 0.15, 1.01, 0.154, 192.0, 0.0, 0.0, 0.0, 0.0, 0.0, 0.0, 0.0, 0.0, 0.0, 1.696032615769024E9, 0.0, 2023-09-29 19:10:15.769
184.0, -50971.16392507123, -27060.74292191779, -43719.341602246954, -28612.95981561659, -11486.762641282397, -14977.72514554562, -187500.02235174447, -10633.797721123425, -16227.701750719758, 12190.641425924472, -26294.882749901146, -25181.095323693196, -98.66060002572537, -9161.264796407795, -23867.34919158807, -40736.99304306424, 0.15, 1.01, 0.154, 192.0, 0.0, 0.0, 0.0, 0.0, 0.0, 0.0, 0.0, 0.0, 0.0, 1.696032615769027E9, 0.0, 2023-09-29 19:10:15.769
186.0, -50970.694538437674, -27230.7279385004, -43723.14139880436, -28652.164775391197, -11485.645054059632, -14980.206189180159, -187500.02235174447, -10630.1096832883, -16243.906765449854, 12172.245940237754, -26362.541480367363, -25183.01757371635, -99.39820759275051, -9184.57766587468, -23874.859377725053, -40760.507078231225, 0.15, 1.01, 0.154, 192.0, 0.0, 0.0, 0.0, 0.0, 0.0, 0.0, 0.0, 0.0, 0.0, 1.69603261576903E9, 0.0, 2023-09-29 19:10:15.769
188.0, -50981.1328030983, -27061.16760506244, -43719.006326080125, -28610.031737092944, -11485.5109435929, -14974.886473999797, -187500.02235174447, -10627.24865999802, -16228.282896075594, 12175.26342573922, -26310.30545357531, -25185.565672584256, -104.87438498430073, -9174.988767503353, -23874.993488191783, -40741.26222625521, 0.146, 1.012, 0.16, 192.0, 2.0, 72.0, 15.5, 80.0, 2.5, 0.0, 0.0, 0.0, 0.0, 1.696032615769034E9, 0.0, 2023-09-29 19:10:15.769
190.0, -50967.29707328047, -27216.24400809336, -43716.07824755648, -28652.18712713565, -11491.009472728905, -14979.222712424125, -187500.02235174447, -10627.829805353858, -16250.813454486544, 12160.332460443076, -26343.140166180154, -25183.911643494564, -101.56632680491529, -9178.050956493731, -23876.088723670095, -40753.667444427905, 0.146, 1.012, 0.16, 192.0, 0.0, 0.0, 0.0, 0.0, 0.0, 0.0, 0.0, 0.0, 0.0, 1.696032615769037E9, 0.0, 2023-09-29 19:10:15.769
192.0, -50973.980244872604, -27071.78468367871, -43710.13268353137, -28598.453533465094, -11482.068774946783, -14968.829151252408, -187500.02235174447, -10622.979476807055, -16223.678436717802, 12182.706556642837, -26319.804944968815, -25178.860149247666, -94.3020098569405, -9160.616595818592, -23866.075142154117, -40736.83658085306, 0.146, 1.012, 0.16, 192.0, 0.0, 0.0, 0.0, 0.0, 0.0, 0.0, 0.0, 0.0, 0.0, 1.69603261576904E9, 0.0, 2023-09-29 19:10:15.769
194.0, -50957.909340609236, -27191.61238570361, -43721.04033482556, -28649.81784222339, -11494.429289630567, -14982.374308392324, -187500.02235174447, -10635.451750213117, -16246.45486431776, 12182.997129320756, -26324.699977004526, -25182.056448704774, -106.88604198527837, -9182.476601895882, -23876.87103472603, -40751.09699381555, 0.146, 1.012, 0.16, 192.0, 0.0, 0.0, 0.0, 0.0, 0.0, 0.0, 0.0, 0.0, 0.0, 1.696032615769044E9, 0.0, 2023-09-29 19:10:15.769
196.0, -50976.03660536249, -27079.83131168262, -43712.18904402126, -28597.42535322015, -11485.108612192704, -14965.878720984307, -187500.02235174447, -10629.014447809988, -16232.529727522104, 12194.396518992964, -26329.438546829053, -25176.155588168574, -103.30976287242925, -9173.468848880393, -23868.220909621825, -40735.85310409703, 0.146, 1.012, 0.16, 192.0, 0.0, 0.0, 0.0, 0.0, 0.0, 0.0, 0.0, 0.0, 0.0, 1.696032615827871E9, 0.0, 2023-09-29 19:10:15.827
198.0, -50968.21349480313, -27178.491911708345, -43720.92857610328, -28649.48256605656, -11497.759699554408, -14975.802895522464, -187500.02235174447, -10634.311811245896, -16247.036009673599, 12168.31203321362, -26321.034290913856, -25171.104093921673, -108.09303618586496, -9180.934331528466, -23873.33945910209, -40743.22917976727, 0.146, 1.01, 0.156, 192.0, 2.0, 72.0, 15.5, 72.0, 2.0, 112.0, 0.0, 0.0, 0.0, 1.69603261582788E9, 0.0, 2023-09-29 19:10:15.827
200.0, -50971.61095996034, -27073.326954046126, -43712.07728529898, -28605.963719602078, -11482.94049298054, -14971.377250120313, -187500.02235174447, -10625.10289253031, -16241.895108448876, 12184.382937476987, -26340.972046967992, -25173.339268367206, -104.4497018396499, -9186.566971131202, -23866.67863925441, -40740.34580473254, 0.146, 1.01, 0.156, 192.0, 0.0, 0.0, 0.0, 0.0, 0.0, 0.0, 0.0, 0.0, 0.0, 1.696032615827883E9, 0.0, 2023-09-29 19:10:15.827
202.0, -50963.40786974524, -27154.910821307996, -43720.66035516982, -28656.94804870463, -11492.596446585232, -14984.520075860033, -187500.02235174447, -10639.00567758151, -16239.324657836516, 12197.302245772153, -26317.614474012196, -25178.70368703648, -106.37195186280631, -9185.00234901933, -23870.67960151191, -40749.51001995922, 0.146, 1.01, 0.156, 192.0, 0.0, 0.0, 0.0, 0.0, 0.0, 0.0, 0.0, 0.0, 0.0, 1.696032615827886E9, 0.0, 2023-09-29 19:10:15.827
204.0, -50973.24263730558, -27110.36379460857, -43708.590413163955, -28608.914149870176, -11481.733498779953, -14971.891340242784, -187500.02235174447, -10634.557680434906, -16232.30621007755, 12188.093327056567, -26358.384055898674, -25172.534605566812, -96.60423953583712, -9183.750651329834, -23865.33753458709, -40746.49253445775, 0.146, 1.01, 0.156, 192.0, 0.0, 0.0, 0.0, 0.0, 0.0, 0.0, 0.0, 0.0, 0.0, 1.696032615827889E9, 0.0, 2023-09-29 19:10:15.827
206.0, -50980.64106472029, -27117.583408067636, -43728.28230002908, -28654.355246347815, -11510.388435171657, -14998.86989580034, -187500.02235174447, -10656.797666167935, -16244.040875916586, 12169.697841369849, -26301.320052304276, -25184.22456791694, -117.59252757937045, -9191.998445033842, -23885.67762204142, -40756.48376422927, 0.146, 1.01, 0.156, 192.0, 0.0, 0.0, 0.0, 0.0, 0.0, 0.0, 0.0, 0.0, 0.0, 1.696032615827893E9, 0.0, 2023-09-29 19:10:15.827
208.0, -50972.03564310499, -27097.198617124395, -43711.07145679849, -28616.066708095874, -11496.329187909269, -14976.898131000773, -187500.02235174447, -10641.732590405058, -16244.286745105595, 12168.714364613816, -26364.843710046258, -25180.98356497092, -109.30003038645154, -9197.742843358856, -23884.716497029844, -40762.049348598644, 0.146, 1.006, 0.15, 192.0, 2.0, 72.0, 15.5, 56.0, 2.0, 88.0, 0.0, 0.0, 0.0, 1.696032615827896E9, 0.0, 2023-09-29 19:10:15.827
210.0, -50967.52059072502, -27101.13252414853, -43722.8731778709, -28652.25418236902, -11505.493403135944, -14992.387889908301, -187500.02235174447, -10656.77531442348, -16246.857195717956, 12184.114716543523, -26298.079049358257, -25182.54818708279, -108.92005073071131, -9196.468793924903, -23884.940014474396, -40754.67327292839, 0.146, 1.006, 0.15, 192.0, 0.0, 0.0, 0.0, 0.0, 0.0, 0.0, 0.0, 0.0, 0.0, 1.696032615888158E9, 0.0, 2023-09-29 19:10:15.888
212.0, -50977.08713735189, -27120.51148659128, -43715.98884057866, -28613.0045191055, -11492.194115185037, -14980.094430457882, -187500.02235174447, -10644.593613695337, -16247.55009979607, 12186.439297966874, -26376.086637507276, -25182.324669638238, -111.3787426207951, -9214.327837744695, -23878.793284749187, -40758.98715960827, 0.146, 1.006, 0.15, 192.0, 0.0, 0.0, 0.0, 0.0, 0.0, 0.0, 0.0, 0.0, 0.0, 1.696032615888169E9, 0.0, 2023-09-29 19:10:15.888
214.0, -50967.85586689185, -27076.36679129205, -43726.56121570602, -28631.310597814394, -11501.693606578543, -14991.225599196625, -187500.02235174447, -10661.044497614444, -16232.194451355273, 12183.26535025422, -26298.011994124892, -25186.347983640193, -113.94919323315541, -9185.449383908437, -23879.44148533839, -40747.47601121378, 0.146, 1.006, 0.15, 192.0, 0.0, 0.0, 0.0, 0.0, 0.0, 0.0, 0.0, 0.0, 0.0, 1.696032615888172E9, 0.0, 2023-09-29 19:10:15.888
216.0, -50975.81308791794, -27131.732062307845, -43715.81002662302, -28612.468077238573, -11490.294216906335, -14983.357785148357, -187500.02235174447, -10650.785046909457, -16243.325620094016, 12151.503521383229, -26376.22074797401, -25182.056448704774, -107.35542861883982, -9203.040206794763, -23876.848682981574, -40755.81321189561, 0.146, 1.006, 0.15, 192.0, 0.0, 0.0, 0.0, 0.0, 0.0, 0.0, 0.0, 0.0, 0.0, 1.696032615888175E9, 0.0, 2023-09-29 19:10:15.888
218.0, -50949.594491671865, -27051.981038091308, -43717.35229699043, -28621.542885487426, -11497.335016409757, -14984.542427604489, -187500.02235174447, -10655.30009928943, -16226.740625708178, 12195.514106215729, -26288.44544749802, -25178.211948658463, -112.9657164771219, -9183.750651329834, -23874.568805047133, -40741.77631637768, 0.15, 1.008, 0.148, 192.0, 2.0, 88.0, 15.5, 64.0, 2.0, 80.0, 0.0, 0.0, 0.0, 1.696032615888178E9, 0.0, 2023-09-29 19:10:15.888
220.0, -50960.65860517724, -27148.697036349422, -43701.63902063835, -28610.925806871153, -11482.89578949163, -14977.479276356611, -187500.02235174447, -10644.839482884347, -16242.74447473818, 12174.570521661106, -26371.795102571858, -25177.384934113616, -104.06972218390969, -9204.20249750644, -23872.803017235165, -40752.66161592741, 0.15, 1.008, 0.148, 192.0, 0.0, 0.0, 0.0, 0.0, 0.0, 0.0, 0.0, 0.0, 0.0, 1.696032615888182E9, 0.0, 2023-09-29 19:10:15.888
222.0, -50949.013346316024, -27033.33968321558, -43702.75660786112, -28605.069649823865, -11494.116365208194, -14981.457886869657, -187500.02235174447, -10653.400201010729, -16216.414119769826, 12206.064129598633, -26278.275403770855, -25168.108960164664, -104.29323962846276, -9182.141325729051, -23865.896328198472, -40731.360403461505, 0.15, 1.008, 0.148, 192.0, 0.0, 0.0, 0.0, 0.0, 0.0, 0.0, 0.0, 0.0, 0.0, 1.696032615888185E9, 0.0, 2023-09-29 19:10:15.888
224.0, -50943.20189275764, -27168.545385425736, -43688.83147106546, -28609.80821964839, -11486.874400004674, -14974.05945945495, -187500.02235174447, -10648.169892808188, -16226.293590819072, 12188.115678801023, -26362.385018156176, -25159.570593782737, -98.0794546698874, -9212.070311554708, -23862.81178746364, -40747.02897632468, 0.15, 1.008, 0.148, 192.0, 0.0, 0.0, 0.0, 0.0, 0.0, 0.0, 0.0, 0.0, 0.0, 1.696032615888188E9, 0.0, 2023-09-29 19:10:15.888
226.0, -50943.447761946656, -27024.644854622467, -43703.42716019478, -28595.056068307887, -11501.93947576755, -14978.216883923636, -187500.02235174447, -10653.176683566177, -16206.288779531573, 12211.1826790789, -26274.944993847013, -25158.40830307106, -101.43221633818345, -9177.29099718225, -23858.117921128025, -40724.83369408056, 0.15, 1.008, 0.148, 192.0, 0.0, 0.0, 0.0, 0.0, 0.0, 0.0, 0.0, 0.0, 0.0, 1.696032615949284E9, 0.0, 2023-09-29 19:10:15.949
228.0, -50956.590587686376, -27188.6172519466, -43703.56127066151, -28623.152211088207, -11494.339882652746, -14979.066250212938, -187500.02235174447, -10640.39148573774, -16244.867890461433, 12189.568542190616, -26363.435550145576, -25173.965117211952, -109.92587923120013, -9212.047959810252, -23870.970174189828, -40747.364252491505, 0.146, 1.008, 0.15, 192.0, 2.0, 72.0, 15.5, 64.0, 2.0, 88.0, 0.0, 0.0, 0.0, 1.696032615949293E9, 0.0, 2023-09-29 19:10:15.949
230.0, -50962.55850345594, -27039.151136773962, -43711.876119598885, -28595.70426889709, -11501.93947576755, -14979.91561650224, -187500.02235174447, -10650.181549809164, -16221.510317505637, 12188.070975312112, -26290.635918454638, -25170.768817754844, -111.60226006534816, -9198.05576778123, -23869.40555207796, -40726.30890921461, 0.146, 1.008, 0.15, 192.0, 0.0, 0.0, 0.0, 0.0, 0.0, 0.0, 0.0, 0.0, 0.0, 1.696032615949297E9, 0.0, 2023-09-29 19:10:15.949
232.0, -50961.59737844436, -27193.8699118936, -43709.55153817553, -28623.755708188502, -11499.74900481093, -14976.406392622757, -187500.02235174447, -10645.82295964038, -16239.391713069883, 12156.331498185576, -26362.78734955637, -25168.064256675752, -111.26698389851856, -9209.142233031063, -23872.91477595744, -40744.436173967864, 0.146, 1.008, 0.15, 192.0, 0.0, 0.0, 0.0, 0.0, 0.0, 0.0, 0.0, 0.0, 0.0, 1.696032615949301E9, 0.0, 2023-09-29 19:10:15.949
234.0, -50958.3787272428, -27049.455290967857, -43705.68468638476, -28589.289318238418, -11493.155240196615, -14971.757229776053, -187500.02235174447, -10644.280689272964, -16226.673570474813, 12192.65308292545, -26308.606720996708, -25172.333439866718, -112.51868158801575, -9186.455212408926, -23867.840929966085, -40728.499380171226, 0.146, 1.008, 0.15, 192.0, 0.0, 0.0, 0.0, 0.0, 0.0, 0.0, 0.0, 0.0, 0.0, 1.696032615949304E9, 0.0, 2023-09-29 19:10:15.949
236.0, -50954.80244812995, -27211.080755124185, -43706.2658317406, -28635.065690882886, -11500.79953680033, -14986.643491583287, -187500.02235174447, -10651.567357965394, -16245.851367217467, 12191.55784744714, -26360.149843710646, -25177.250823646882, -119.9171090027224, -9220.631029681092, -23875.798150992174, -40750.15822054842, 0.146, 1.008, 0.15, 192.0, 0.0, 0.0, 0.0, 0.0, 0.0, 0.0, 0.0, 0.0, 0.0, 1.696032615949308E9, 0.0, 2023-09-29 19:10:15.949
238.0, -50966.60416920235, -27055.892593370987, -43703.65067763933, -28596.061896808376, -11498.005568743416, -14987.671671828231, -187500.02235174447, -10657.468218501595, -16224.281933818094, 12181.79013512017, -26317.480363545463, -25181.721172537946, -115.40205662275037, -9205.476546940392, -23872.735962001796, -40737.998871564734, 0.148, 1.004, 0.148, 192.0, 2.0, 80.0, 15.5, 48.0, 2.0, 80.0, 0.0, 0.0, 0.0, 1.696032615949311E9, 0.0, 2023-09-29 19:10:15.949
240.0, -50938.195101999656, -27226.168182631518, -43693.905317056815, -28636.540906016937, -11494.451641375023, -14982.754288048065, -187500.02235174447, -10648.594575952839, -16225.310114063039, 12145.960288758313, -26352.72906455148, -25179.30718413677, -108.5624228194264, -9223.78262564929, -23885.990546463796, -40763.07752884359, 0.148, 1.004, 0.148, 192.0, 0.0, 0.0, 0.0, 0.0, 0.0, 0.0, 0.0, 0.0, 0.0, 1.696032616008047E9, 0.0, 2023-09-29 19:10:16.008
242.0, -50955.09302080787, -27095.142256634506, -43680.85189829492, -28570.17857672913, -11479.788897012342, -14959.977860448107, -187500.02235174447, -10624.074712285366, -16209.932113877789, 12208.075786599611, -26318.329729834764, -25152.686256490502, -97.65477152523655, -9185.047052508242, -23846.427958777902, -40717.18939747684, 0.148, 1.004, 0.148, 192.0, 0.0, 0.0, 0.0, 0.0, 0.0, 0.0, 0.0, 0.0, 0.0, 1.696032616008059E9, 0.0, 2023-09-29 19:10:16.008
244.0, -50941.950195068144, -27237.925200215006, -43694.64292462384, -28626.124993100762, -11482.113478435693, -14968.829151252408, -187500.02235174447, -10630.847290855323, -16235.368399067927, 12186.104021800045, -26325.39288108264, -25167.03607643081, -103.24270763906333, -9205.029512051286, -23859.414322306435, -40735.16020001891, 0.148, 1.004, 0.148, 192.0, 0.0, 0.0, 0.0, 0.0, 0.0, 0.0, 0.0, 0.0, 0.0, 1.696032616008063E9, 0.0, 2023-09-29 19:10:16.008
246.0, -50946.33113698139, -27114.32005337716, -43697.973334547685, -28571.139701740707, -11478.17957141156, -14960.804874992953, -187500.02235174447, -10626.086369286344, -16217.218782570219, 12204.119527831022, -26326.73398574996, -25155.480224547413, -101.65573378273652, -9189.53975314376, -23850.67479022441, -40718.17287423288, 0.148, 1.004, 0.148, 192.0, 0.0, 0.0, 0.0, 0.0, 0.0, 0.0, 0.0, 0.0, 0.0, 1.696032616008066E9, 0.0, 2023-09-29 19:10:16.008
248.0, -50936.13874150977, -27189.08663858016, -43714.31245974451, -28625.14151634473, -11502.185344956559, -14983.067212470438, -187500.02235174447, -10647.655802685715, -16231.479195532704, 12208.925152888913, -26302.527046504863, -25164.75619849637, -115.04442871146546, -9203.241372494862, -23870.947822445374, -40735.629586652474, 0.15, 0.996, 0.15, 192.0, 2.0, 88.0, 15.5, 16.0, 2.0, 88.0, 0.0, 0.0, 0.0, 1.696032616008069E9, 0.0, 2023-09-29 19:10:16.008
250.0, -50933.1212560083, -27118.566884823667, -43694.531165901564, -28572.257288963472, -11486.427365115567, -14959.955508703652, -187500.02235174447, -10627.71804663158, -16218.336369792984, 12205.035949353689, -26333.774785253383, -25152.64155300159, -116.1173124453202, -9208.896363842054, -23867.751522988263, -40733.796743607134, 0.15, 0.996, 0.15, 192.0, 0.0, 0.0, 0.0, 0.0, 0.0, 0.0, 0.0, 0.0, 0.0, 1.696032616008072E9, 0.0, 2023-09-29 19:10:16.008
252.0, -50926.90747104972, -27165.483196435358, -43699.359142703914, -28604.242635279017, -11497.200905943026, -14974.461790855144, -187500.02235174447, -10645.577090451372, -16216.436471514282, 12203.001940608257, -26292.312299288787, -25145.131366864607, -107.80246350794596, -9192.154907245029, -23864.354057831057, -40726.24185398124, 0.15, 0.996, 0.15, 192.0, 0.0, 0.0, 0.0, 0.0, 0.0, 0.0, 0.0, 0.0, 0.0, 1.696032616008075E9, 0.0, 2023-09-29 19:10:16.008
254.0, -50938.99976480005, -27118.499829590302, -43675.91216277029, -28559.9414777686, -11484.102783692215, -14962.280090127004, -187500.02235174447, -10636.569337435883, -16220.683302960791, 12218.1340716045, -26338.22278239999, -25144.147890108576, -107.6236495523035, -9194.323026457194, -23860.263688595736, -40725.906577814414, 0.15, 0.996, 0.15, 192.0, 0.0, 0.0, 0.0, 0.0, 0.0, 0.0, 0.0, 0.0, 0.0, 1.696032616008078E9, 0.0, 2023-09-29 19:10:16.008
0.0, -50939.06682003341, -27120.489134846823, -43689.6137821214, -28605.33787075733, -11502.14064146765, -14981.68140431421, -187500.02235174447, -10645.241814284542, -16223.857250673444, 12229.578164765617, -26277.806017137293, -25151.50161403437, -110.88700424277833, -9190.232657221874, -23860.5319095292, -40719.51397890019, 0.15, 0.996, 0.15, 192.0, 0.0, 0.0, 0.0, 0.0, 0.0, 0.0, 0.0, 0.0, 0.0, 1.696032616068438E9, 0.0, 2023-09-29 19:10:16.068
2.0, -50946.778171870494, -27146.640675859533, -43676.26979068158, -28573.441931419606, -11484.41570811459, -14967.644508796277, -187500.02235174447, -10623.784139607447, -16229.489890276182, 12197.279894027699, -26360.59687859975, -25155.815500714245, -97.56536454741533, -9197.541677658759, -23861.113054885038, -40729.79578134963, 0.148, 1.01, 0.156, 192.0, 2.0, 80.0, 15.5, 72.0, 2.0, 112.0, 0.0, 0.0, 0.0, 1.696032616068446E9, 0.0, 2023-09-29 19:10:16.068
4.0, -50944.52064568051, -27118.969216223864, -43695.02290427958, -28605.114353312776, -11499.547839110834, -14981.435535125202, -187500.02235174447, -10632.05428505591, -16233.110872877942, 12205.572391220618, -26288.959537620492, -25164.197404884984, -95.86663196881199, -9180.800221061734, -23866.186900876393, -40726.24185398124, 0.148, 1.01, 0.156, 192.0, 0.0, 0.0, 0.0, 0.0, 0.0, 0.0, 0.0, 0.0, 0.0, 1.696032616068449E9, 0.0, 2023-09-29 19:10:16.068
6.0, -50949.102753293846, -27152.31801895118, -43693.68179961226, -28580.169806500653, -11488.349615138724, -14968.762096019042, -187500.02235174447, -10617.123319759765, -16246.767788740133, 12188.719175901315, -26365.11193097972, -25169.606527043168, -91.01630342201035, -9189.24918046584, -23868.936165444396, -40738.22238900929, 0.148, 1.01, 0.156, 192.0, 0.0, 0.0, 0.0, 0.0, 0.0, 0.0, 0.0, 0.0, 0.0, 1.696032616068453E9, 0.0, 2023-09-29 19:10:16.068
8.0, -50956.09884930836, -27075.11509360255, -43715.228881267176, -28598.31942299836, -11498.094975721238, -14977.076944956416, -187500.02235174447, -10624.67820938566, -16230.026332143108, 12216.07771111461, -26286.34438351922, -25176.93789922451, -90.8374894663679, -9155.520398082781, -23869.114979400038, -40727.784124348655, 0.148, 1.01, 0.156, 192.0, 0.0, 0.0, 0.0, 0.0, 0.0, 0.0, 0.0, 0.0, 0.0, 1.696032616068456E9, 0.0, 2023-09-29 19:10:16.068
10.0, -50946.68876489267, -27131.642655330023, -43715.1171225449, -28585.198949003097, -11485.488591848445, -14956.155712146248, -187500.02235174447, -10606.014502765478, -16252.936870209798, 12208.65693195545, -26362.65323908964, -25182.056448704774, -86.92593418668916, -9156.034488205254, -23876.021668436726, -40744.369118734496, 0.148, 1.01, 0.156, 192.0, 0.0, 0.0, 0.0, 0.0, 0.0, 0.0, 0.0, 0.0, 0.0, 1.696032616068459E9, 0.0, 2023-09-29 19:10:16.068
12.0, -50949.37097422731, -27049.567049690137, -43735.144285576855, -28592.150341528697, -11493.110536707705, -14957.161540646737, -187500.02235174447, -10609.613133622783, -16236.195413612773, 12236.70837124686, -26282.54458696182, -25164.51032930736, -77.62760849328143, -9107.441795759416, -23867.505653799257, -40724.67723186937, 0.146, 1.012, 0.152, 192.0, 2.0, 72.0, 15.5, 80.0, 2.0, 96.0, 0.0, 0.0, 0.0, 1.696032616068462E9, 0.0, 2023-09-29 19:10:16.068
14.0, -50945.1241427808, -27167.718370880888, -43732.12680007539, -28607.260120780484, -11481.88996099114, -14948.153787631249, -187500.02235174447, -10598.504316628494, -16261.31877438054, 12203.98541736429, -26363.234384445477, -25164.398570585083, -81.24859109504118, -9127.84893844711, -23880.15674116096, -40748.1689152919, 0.146, 1.012, 0.152, 192.0, 0.0, 0.0, 0.0, 0.0, 0.0, 0.0, 0.0, 0.0, 0.0, 1.696032616128709E9, 0.0, 2023-09-29 19:10:16.128
16.0, -50948.02986955999, -27042.97328507582, -43736.70890768873, -28611.171676060163, -11483.70045229202, -14952.19945337766, -187500.02235174447, -10600.963008518578, -16233.222631600218, 12238.921193947936, -26271.748694389906, -25156.17312862553, -76.17474510368648, -9103.910220135478, -23875.57463354762, -40731.15923776141, 0.146, 1.012, 0.152, 192.0, 0.0, 0.0, 0.0, 0.0, 0.0, 0.0, 0.0, 0.0, 0.0, 1.69603261612872E9, 0.0, 2023-09-29 19:10:16.128
18.0, -50948.23103526009, -27189.33250776917, -43727.34352676196, -28631.37765304776, -11462.689812504032, -14941.805892205943, -187500.02235174447, -10587.909589756679, -16247.661858518346, 12217.240001826287, -26350.628000572684, -25147.187727354496, -65.22239032058602, -9117.410673786482, -23869.092627655584, -40743.09506930054, 0.146, 1.012, 0.152, 192.0, 0.0, 0.0, 0.0, 0.0, 0.0, 0.0, 0.0, 0.0, 0.0, 1.696032616128724E9, 0.0, 2023-09-29 19:10:16.128
20.0, -50949.9744713276, -27031.283322725692, -43741.69334670226, -28625.432089022648, -11469.149466651616, -14945.560985274433, -187500.02235174447, -10600.471270140562, -16223.410215784339, 12240.865795715546, -26265.57961292024, -25154.183823369007, -70.20682933411949, -9102.256191045784, -23863.63880200849, -40726.465371425795, 0.146, 1.012, 0.152, 192.0, 0.0, 0.0, 0.0, 0.0, 0.0, 0.0, 0.0, 0.0, 0.0, 1.696032616128727E9, 0.0, 2023-09-29 19:10:16.128
22.0, -50932.22718623009, -27171.339353482646, -43739.94991063475, -28654.9140399592, -11462.868626459674, -14939.615421249322, -187500.02235174447, -10597.409081150185, -16248.868852718933, 12206.645274954471, -26340.569715567795, -25152.93212567951, -77.64996023773674, -9127.804234958201, -23870.500787556266, -40750.78406939317, 0.138, 1.0, 0.152, 192.0, 2.0, 40.0, 15.5, 32.0, 2.0, 96.0, 0.0, 0.0, 0.0, 1.69603261612873E9, 0.0, 2023-09-29 19:10:16.128
24.0, -50937.70336362164, -27033.451441937857, -43736.686555944274, -28623.822763421867, -11459.113533391183, -14933.6251537353, -187500.02235174447, -10591.307054913887, -16221.376207038906, 12244.37501959503, -26277.426037481553, -25139.58813423969, -65.53531474296031, -9084.620664670547, -23856.44154029388, -40723.06790626859, 0.138, 1.0, 0.152, 192.0, 0.0, 0.0, 0.0, 0.0, 0.0, 0.0, 0.0, 0.0, 0.0, 1.696032616128733E9, 0.0, 2023-09-29 19:10:16.128
26.0, -50938.35156421085, -27196.865045650607, -43733.065573342516, -28657.886821971755, -11460.74521073642, -14935.569755502911, -187500.02235174447, -10592.916380514667, -16243.683248005302, 12208.589876722084, -26325.68345376056, -25143.142061608087, -70.67621596768093, -9105.765414925268, -23857.156796116447, -40742.64803441144, 0.138, 1.0, 0.152, 192.0, 0.0, 0.0, 0.0, 0.0, 0.0, 0.0, 0.0, 0.0, 0.0, 1.696032616128736E9, 0.0, 2023-09-29 19:10:16.128
28.0, -50962.379689500296, -27011.94906377185, -43738.40764026733, -28621.252312809505, -11462.287481103836, -14932.708732212632, -187500.02235174447, -10588.736604301526, -16217.978741881698, 12228.192356609388, -26266.227813509442, -25154.45204430247, -72.7772799464798, -9096.13181306503, -23849.333685557092, -40720.184531233856, 0.138, 1.0, 0.152, 192.0, 0.0, 0.0, 0.0, 0.0, 0.0, 0.0, 0.0, 0.0, 0.0, 1.69603261612874E9, 0.0, 2023-09-29 19:10:16.128
30.0, -50946.39819221475, -27174.55800468421, -43737.871198400404, -28662.312467373904, -11458.688850246532, -14930.317095555914, -187500.02235174447, -10584.556828088384, -16245.002000928165, 12204.611266209038, -26320.564904280294, -25163.057465917766, -77.98523640456634, -9114.214374329375, -23858.363790317035, -40741.150467532934, 0.138, 1.0, 0.152, 192.0, 0.0, 0.0, 0.0, 0.0, 0.0, 0.0, 0.0, 0.0, 0.0, 1.696032616188979E9, 0.0, 2023-09-29 19:10:16.188
32.0, -50948.70042189365, -27026.522401156715, -43739.078192600995, -28608.556521958893, -11455.604309511698, -14912.5698104584, -187500.02235174447, -10574.52089482795, -16219.655122715847, 12219.497528016273, -26287.86430214218, -25156.955439681464, -75.28067532547419, -9092.197906040896, -23848.797243690165, -40712.31671718558, 0.14, 0.992, 0.152, 192.0, 2.0, 48.0, 15.5, 0.0, 2.0, 96.0, 0.0, 0.0, 0.0, 1.696032616188989E9, 0.0, 2023-09-29 19:10:16.188
34.0, -50940.51968342301, -27162.59982140062, -43746.543675249064, -28654.53406030346, -11466.064925916782, -14929.020694377507, -187500.02235174447, -10592.558752603383, -16232.574431011015, 12204.70067318686, -26310.707784975504, -25161.738712994902, -89.07170165439865, -9117.678894719946, -23864.19759561987, -40729.326394716074, 0.14, 0.992, 0.152, 192.0, 0.0, 0.0, 0.0, 0.0, 0.0, 0.0, 0.0, 0.0, 0.0, 1.696032616188992E9, 0.0, 2023-09-29 19:10:16.188
36.0, -50949.37097422731, -27038.659398395946, -43739.70404144574, -28607.41658299167, -11462.17572238156, -14918.873002394797, -187500.02235174447, -10588.37897639024, -16224.281933818094, 12230.919269432936, -26306.55036050682, -25158.877689704623, -85.18249811917522, -9085.246513515296, -23859.52608102871, -40724.96780454729, 0.14, 0.992, 0.152, 192.0, 0.0, 0.0, 0.0, 0.0, 0.0, 0.0, 0.0, 0.0, 0.0, 1.696032616188996E9, 0.0, 2023-09-29 19:10:16.188
38.0, -50940.81025610093, -27163.628001645568, -43739.636986212376, -28653.48352831406, -11464.813228227285, -14933.692208968665, -187500.02235174447, -10595.978569505045, -16235.12252987892, 12219.050493127168, -26305.67864247306, -25152.97682916842, -85.36131207481768, -9096.645903187502, -23864.82344446462, -40737.2165605088, 0.14, 0.992, 0.152, 192.0, 0.0, 0.0, 0.0, 0.0, 0.0, 0.0, 0.0, 0.0, 0.0, 1.696032616188999E9, 0.0, 2023-09-29 19:10:16.188
40.0, -50957.641119675776, -27063.045151596685, -43725.309518016526, -28597.55946368688, -11451.960975165484, -14925.936153642673, -187500.02235174447, -10584.04273796591, -16211.8767156454, 12222.604420495561, -26314.887561188647, -25142.627971485614, -78.11934687129819, -9086.788783882712, -23850.160700101937, -40725.124266758474, 0.14, 0.992, 0.152, 192.0, 0.0, 0.0, 0.0, 0.0, 0.0, 0.0, 0.0, 0.0, 0.0, 1.696032616189002E9, 0.0, 2023-09-29 19:10:16.189
42.0, -50943.24659624656, -27126.568809338667, -43737.44651525575, -28654.355246347815, -11474.245664387425, -14947.90791844224, -187500.02235174447, -10607.57912487735, -16230.696884476769, 12228.907612431958, -26287.841950397727, -25159.056503660264, -90.05517841043215, -9110.459281260883, -23865.784569476196, -40739.80936286561, 0.14200000000000002, 1.004, 0.152, 192.0, 2.0, 56.0, 15.5, 48.0, 2.0, 96.0, 0.0, 0.0, 0.0, 1.696032616189005E9, 0.0, 2023-09-29 19:10:16.189
44.0, -50940.34086946736, -27071.427055767424, -43720.10156155843, -28606.74603065801, -11455.850178700708, -14931.121758356305, -187500.02235174447, -10585.853229266791, -16226.718273963723, 12212.79200467968, -26334.467689331497, -25150.674599489525, -80.89096318375626, -9107.307685292684, -23860.35309557356, -40738.51296168721, 0.14200000000000002, 1.004, 0.152, 192.0, 0.0, 0.0, 0.0, 0.0, 0.0, 0.0, 0.0, 0.0, 0.0, 1.696032616249349E9, 0.0, 2023-09-29 19:10:16.249
46.0, -50949.28156724949, -27098.204445624884, -43736.194817566255, -28650.130766645765, -11472.993966697928, -14948.220842864615, -187500.02235174447, -10601.298284685408, -16226.40534954135, 12217.84349892658, -26284.33272651824, -25157.78245422631, -92.17859413368633, -9120.986952899331, -23868.802054977663, -40737.082450042064, 0.14200000000000002, 1.004, 0.152, 192.0, 0.0, 0.0, 0.0, 0.0, 0.0, 0.0, 0.0, 0.0, 0.0, 1.69603261624936E9, 0.0, 2023-09-29 19:10:16.249
48.0, -50963.67609067871, -27060.653514939968, -43724.817779638506, -28606.164885302176, -11465.684946261043, -14934.228650835592, -187500.02235174447, -10585.294435655409, -16226.293590819072, 12211.048568612166, -26340.569715567795, -25156.30723909226, -93.43029182318352, -9113.18619408443, -23869.025572422215, -40740.72578438828, 0.14200000000000002, 1.004, 0.152, 192.0, 0.0, 0.0, 0.0, 0.0, 0.0, 0.0, 0.0, 0.0, 0.0, 1.696032616249364E9, 0.0, 2023-09-29 19:10:16.249
50.0, -50949.03569806048, -27058.239526538793, -43732.909111131325, -28640.206592107606, -11475.631472543655, -14945.113950385326, -187500.02235174447, -10593.38576714823, -16231.054512388053, 12215.474214014319, -26275.05675256929, -25157.022494914832, -94.74904474604664, -9105.765414925268, -23871.551319545666, -40735.29431048564, 0.14200000000000002, 1.004, 0.152, 192.0, 0.0, 0.0, 0.0, 0.0, 0.0, 0.0, 0.0, 0.0, 0.0, 1.696032616249367E9, 0.0, 2023-09-29 19:10:16.249
52.0, -50951.98612832858, -27074.82452092463, -43719.90039585834, -28603.08034456734, -11463.025088670862, -14925.511470498022, -187500.02235174447, -10579.505333841484, -16237.40240781336, 12210.780347678703, -26344.771843525392, -25155.12259663613, -89.898716199245, -9112.917973150967, -23865.29283109818, -40739.16116227641, 0.15, 0.998, 0.154, 192.0, 2.0, 88.0, 15.5, 24.0, 2.0, 104.0, 0.0, 0.0, 0.0, 1.696032616249379E9, 0.0, 2023-09-29 19:10:16.249
54.0, -50936.295203720954, -27046.907192099952, -43734.585491965474, -28622.01227212099, -11473.753926009409, -14932.507566512533, -187500.02235174447, -10588.110755456777, -16216.324712792006, 12231.343952577587, -26270.027610066845, -25154.40734081356, -93.43029182318352, -9099.998664855799, -23862.789435719187, -40722.66557486839, 0.15, 0.998, 0.154, 192.0, 0.0, 0.0, 0.0, 0.0, 0.0, 0.0, 0.0, 0.0, 0.0, 1.696032616249382E9, 0.0, 2023-09-29 19:10:16.249
56.0, -50941.99489855706, -27107.32395736265, -43723.49902671564, -28602.72271665606, -11458.711201990987, -14921.443453007158, -187500.02235174447, -10578.432450107628, -16225.69009371878, 12211.115623845533, -26348.88456450517, -25153.334457079705, -96.13485290227568, -9114.080263862643, -23862.364752574536, -40733.50617092921, 0.15, 0.998, 0.154, 192.0, 0.0, 0.0, 0.0, 0.0, 0.0, 0.0, 0.0, 0.0, 0.0, 1.696032616249386E9, 0.0, 2023-09-29 19:10:16.249
58.0, -50952.32140449541, -27032.95970355984, -43732.39502100885, -28624.493315755528, -11473.239835886936, -14939.302496826947, -187500.02235174447, -10592.178772947642, -16209.976817366698, 12220.570411750128, -26263.299734985798, -25164.376218840625, -96.62659128029243, -9114.817871429666, -23859.794301962174, -40720.36334518949, 0.15, 0.998, 0.154, 192.0, 0.0, 0.0, 0.0, 0.0, 0.0, 0.0, 0.0, 0.0, 0.0, 1.696032616249389E9, 0.0, 2023-09-29 19:10:16.249
60.0, -50964.547808712465, -27118.052794701194, -43721.375610992385, -28615.910245884686, -11467.584844539744, -14942.230575350593, -187500.02235174447, -10594.346892159807, -16240.35283808146, 12192.921303858913, -26352.952581996036, -25161.537547294804, -99.24174538156336, -9127.357200069095, -23867.170377632425, -40743.47504895629, 0.15, 0.998, 0.154, 192.0, 0.0, 0.0, 0.0, 0.0, 0.0, 0.0, 0.0, 0.0, 0.0, 1.696032616308194E9, 0.0, 2023-09-29 19:10:16.308
62.0, -50960.345680754865, -27015.771212073712, -43724.84013138296, -28614.43503075064, -11475.631472543655, -14945.650392252255, -187500.02235174447, -10602.326464930353, -16229.467538531726, 12220.726873961316, -26273.983868835436, -25164.376218840625, -102.79567274995718, -9109.408749271483, -23863.459988052844, -40726.64418538144, 0.15, 1.008, 0.15, 192.0, 2.0, 88.0, 15.5, 64.0, 2.0, 88.0, 0.0, 0.0, 0.0, 1.696032616308202E9, 0.0, 2023-09-29 19:10:16.308
64.0, -50952.90254985125, -27118.991567968318, -43724.393096493855, -28626.840248923334, -11471.98813819744, -14949.181967876193, -187500.02235174447, -10598.459613139585, -16250.053495175063, 12185.120545044012, -26361.960335011525, -25167.237242130905, -107.9589257191331, -9133.973316427866, -23871.931299201406, -40745.19613327934, 0.15, 1.008, 0.15, 192.0, 0.0, 0.0, 0.0, 0.0, 0.0, 0.0, 0.0, 0.0, 0.0, 1.696032616308206E9, 0.0, 2023-09-29 19:10:16.308
66.0, -50945.1241427808, -26987.496255337748, -43734.116105331916, -28616.871370896268, -11480.280635390358, -14954.501683056556, -187500.02235174447, -10601.611209107783, -16219.029273871098, 12235.099045646079, -26284.265671284877, -25166.052599674775, -100.02405643749911, -9120.09288312112, -23870.38902883399, -40737.82005760909, 0.15, 1.008, 0.15, 192.0, 0.0, 0.0, 0.0, 0.0, 0.0, 0.0, 0.0, 0.0, 0.0, 1.696032616308209E9, 0.0, 2023-09-29 19:10:16.308
68.0, -50956.90351210875, -27134.213105942385, -43722.292032515055, -28620.738222687036, -11467.495437561922, -14945.538633529977, -187500.02235174447, -10589.295397912909, -16236.843614201978, 12195.447050982362, -26361.155672211135, -25161.492843805892, -95.12902440178686, -9138.801293230212, -23872.5347963017, -40752.460450227314, 0.15, 1.008, 0.15, 192.0, 0.0, 0.0, 0.0, 0.0, 0.0, 0.0, 0.0, 0.0, 0.0, 1.696032616308212E9, 0.0, 2023-09-29 19:10:16.308
70.0, -50960.345680754865, -26981.34952561254, -43731.92563437529, -28597.112428797776, -11482.359347624702, -14956.91567145773, -187500.02235174447, -10605.276895198453, -16210.513259233627, 12209.171022077922, -26280.644688683118, -25161.090512405695, -93.00560867853268, -9115.130795852041, -23864.130540386504, -40727.67236562638, 0.15, 1.008, 0.15, 192.0, 0.0, 0.0, 0.0, 0.0, 0.0, 0.0, 0.0, 0.0, 0.0, 1.696032616308215E9, 0.0, 2023-09-29 19:10:16.308
72.0, -50951.94142483967, -27144.584315369644, -43727.947023862245, -28629.544810002426, -11475.810286499296, -14953.808778978442, -187500.02235174447, -10597.409081150185, -16235.658971745846, 12191.60255093605, -26351.812643028814, -25167.12548340863, -93.11736740080923, -9148.256081134807, -23874.47939806931, -40754.38270025048, 0.154, 1.008, 0.158, 192.0, 2.0, 104.0, 15.5, 64.0, 2.0, 120.0, 0.0, 0.0, 0.0, 1.696032616308218E9, 0.0, 2023-09-29 19:10:16.308
74.0, -50947.336965481874, -26975.649830776434, -43727.097657572944, -28590.541015927916, -11471.27288237487, -14945.181005618693, -187500.02235174447, -10592.737566559026, -16212.21199181223, 12230.449882799374, -26285.673831185562, -25163.30333510677, -90.59162027735952, -9120.249345332306, -23865.04696190917, -40727.515903415195, 0.154, 1.008, 0.158, 192.0, 0.0, 0.0, 0.0, 0.0, 0.0, 0.0, 0.0, 0.0, 0.0, 1.69603261636848E9, 0.0, 2023-09-29 19:10:16.368
76.0, -50943.40305845774, -27130.74858555181, -43733.199683809245, -28641.413586308194, -11475.899693477118, -14959.083790669894, -187500.02235174447, -10600.046586995912, -16240.241079359184, 12198.531591717196, -26342.2684481464, -25165.091474663197, -99.12998665928683, -9134.196833872418, -23876.558110303657, -40744.994967579245, 0.154, 1.008, 0.158, 192.0, 0.0, 0.0, 0.0, 0.0, 0.0, 0.0, 0.0, 0.0, 0.0, 1.696032616368492E9, 0.0, 2023-09-29 19:10:16.368
78.0, -50962.64791043376, -26966.70913299431, -43731.165675063814, -28598.408829976182, -11468.613024784689, -14945.784502718987, -187500.02235174447, -10588.04370022341, -16223.365512295428, 12200.945580118369, -26301.856494171203, -25166.387875841603, -88.49055629856066, -9112.493290006316, -23863.035304908193, -40730.13105751647, 0.154, 1.008, 0.158, 192.0, 0.0, 0.0, 0.0, 0.0, 0.0, 0.0, 0.0, 0.0, 0.0, 1.696032616368496E9, 0.0, 2023-09-29 19:10:16.368
80.0, -50969.62165470382, -27098.673832258446, -43741.4251257688, -28654.981095192565, -11479.453620845512, -14956.736857502086, -187500.02235174447, -10598.884296284235, -16245.225518372717, 12176.962158317823, -26337.97691321098, -25179.843626003698, -97.90064071424493, -9132.408694315995, -23877.76510450424, -40750.225275781784, 0.154, 1.008, 0.158, 192.0, 0.0, 0.0, 0.0, 0.0, 0.0, 0.0, 0.0, 0.0, 0.0, 1.696032616368499E9, 0.0, 2023-09-29 19:10:16.368
82.0, -50967.677052936204, -26937.71892043578, -43734.33962277647, -28603.594434689814, -11465.46142881649, -14941.202395105649, -187500.02235174447, -10590.390633391218, -16225.488928018682, 12204.410100508941, -26312.20535185401, -25174.300393378784, -92.98325693407737, -9114.437891773927, -23866.92450844342, -40732.72385987328, 0.152, 1.008, 0.156, 192.0, 2.0, 96.0, 15.5, 64.0, 2.0, 112.0, 0.0, 0.0, 0.0, 1.696032616368502E9, 0.0, 2023-09-29 19:10:16.368
84.0, -50942.19606425716, -27099.07616365864, -43738.161771078325, -28657.216269638095, -11465.729649749954, -14946.43270330819, -187500.02235174447, -10591.597627591806, -16242.40919857135, 12194.664739926428, -26332.1654596526, -25168.354829353673, -98.45943432562761, -9124.272659334261, -23870.903118956463, -40744.45852571232, 0.152, 1.008, 0.156, 192.0, 0.0, 0.0, 0.0, 0.0, 0.0, 0.0, 0.0, 0.0, 0.0, 1.696032616368505E9, 0.0, 2023-09-29 19:10:16.368
86.0, -50941.681974134684, -26979.09199942255, -43723.32021276, -28597.626518920246, -11455.98428916744, -14930.652371722743, -187500.02235174447, -10581.874618753745, -16217.464651759226, 12226.203051352866, -26325.750508993926, -25163.593907784692, -97.65477152523655, -9115.75664469679, -23864.264650853238, -40728.432324937865, 0.152, 1.008, 0.156, 192.0, 0.0, 0.0, 0.0, 0.0, 0.0, 0.0, 0.0, 0.0, 0.0, 1.696032616368508E9, 0.0, 2023-09-29 19:10:16.368
88.0, -50944.87827359179, -27093.22000661135, -43732.8197041535, -28652.522403302482, -11469.171818396071, -14950.523072543512, -187500.02235174447, -10600.29245618492, -16230.093387376475, 12198.620998695016, -26314.59698851073, -25157.17895712602, -88.40114932073944, -9114.169670840463, -23863.124711886016, -40738.22238900929, 0.152, 1.008, 0.156, 192.0, 0.0, 0.0, 0.0, 0.0, 0.0, 0.0, 0.0, 0.0, 0.0, 1.696032616368512E9, 0.0, 2023-09-29 19:10:16.368
90.0, -50965.3301197684, -26989.57496757209, -43724.1695790493, -28607.86361788078, -11461.013431669884, -14949.405485320745, -187500.02235174447, -10599.95718001809, -16225.421872785315, 12191.200219535855, -26327.851572972726, -25165.069122918743, -86.3894923197618, -9121.545746510714, -23863.99642991977, -40740.01052856571, 0.152, 1.008, 0.156, 192.0, 0.0, 0.0, 0.0, 0.0, 0.0, 0.0, 0.0, 0.0, 0.0, 1.696032616428665E9, 0.0, 2023-09-29 19:10:16.428
92.0, -50948.7227736381, -27053.143328802984, -43726.829436639484, -28647.381502077762, -11471.943434708528, -14959.799046492464, -187500.02235174447, -10607.780290577448, -16230.003980398653, 12210.1321470895, -26297.520255746873, -25156.664867003547, -93.02796042298799, -9127.558365769191, -23867.237432865793, -40744.21265652331, 0.14200000000000002, 1.01, 0.152, 192.0, 2.0, 56.0, 15.5, 72.0, 2.0, 96.0, 0.0, 0.0, 0.0, 1.696032616428674E9, 0.0, 2023-09-29 19:10:16.428
94.0, -50954.333061496385, -26994.000612974243, -43715.318288245, -28601.26985326646, -11458.107704890694, -14942.81172070643, -187500.02235174447, -10591.530572358439, -16221.219744827718, 12201.012635351735, -26331.494907318942, -25159.950573438477, -94.70434125713602, -9131.872252449066, -23863.43763630839, -40737.46242969781, 0.14200000000000002, 1.01, 0.152, 192.0, 0.0, 0.0, 0.0, 0.0, 0.0, 0.0, 0.0, 0.0, 0.0, 1.696032616428678E9, 0.0, 2023-09-29 19:10:16.428
96.0, -50939.29033747796, -27041.006331563753, -43728.19289305126, -28639.49133628504, -11468.657728273598, -14951.238328366082, -187500.02235174447, -10592.826973536847, -16222.87377391741, 12210.46742325633, -26294.279252800854, -25157.536585037302, -102.97448670559963, -9124.876156434555, -23861.738903729787, -40734.2661302407, 0.14200000000000002, 1.01, 0.152, 192.0, 0.0, 0.0, 0.0, 0.0, 0.0, 0.0, 0.0, 0.0, 0.0, 1.696032616428681E9, 0.0, 2023-09-29 19:10:16.428
98.0, -50944.67710789169, -27032.669130881925, -43720.28037551408, -28599.03467882093, -11452.609175754687, -14933.535746757478, -187500.02235174447, -10578.164229174165, -16225.35481755195, 12195.827030638104, -26352.684361062573, -25158.587117026702, -95.19607963515278, -9129.033580903242, -23859.190804861882, -40734.511999429706, 0.14200000000000002, 1.01, 0.152, 192.0, 0.0, 0.0, 0.0, 0.0, 0.0, 0.0, 0.0, 0.0, 0.0, 1.696032616428684E9, 0.0, 2023-09-29 19:10:16.428
100.0, -50955.741221397075, -27029.852811080553, -43733.691422187265, -28630.103603613807, -11468.523617806866, -14950.165444632226, -187500.02235174447, -10594.123374715255, -16219.655122715847, 12212.568487235128, -26287.238453297432, -25156.12842513662, -100.13581515977565, -9121.61280174408, -23860.889537440486, -40729.0134702937, 0.14200000000000002, 1.01, 0.152, 192.0, 0.0, 0.0, 0.0, 0.0, 0.0, 0.0, 0.0, 0.0, 0.0, 1.696032616428687E9, 0.0, 2023-09-29 19:10:16.428
102.0, -50939.78207585598, -27062.195785307384, -43715.161826033815, -28599.03467882093, -11453.592652510722, -14938.654296237744, -187500.02235174447, -10588.870714768258, -16229.44518678727, 12190.84259162457, -26350.180965683576, -25153.960305924455, -98.01239943652146, -9137.326078096161, -23854.34047631508, -40739.541141932146, 0.14, 1.01, 0.162, 192.0, 2.0, 48.0, 15.5, 72.0, 2.5, 8.0, 0.0, 0.0, 0.0, 1.69603261642869E9, 0.0, 2023-09-29 19:10:16.428
104.0, -50944.23007300259, -27020.01804352022, -43729.55634946303, -28622.079327354353, -11471.429344586057, -14951.528901044001, -187500.02235174447, -10601.700616085604, -16214.44716625776, 12234.719065990337, -26269.044133310814, -25153.60267801317, -101.45456808263876, -9119.37762729855, -23850.406569290946, -40730.309871472105, 0.14, 1.01, 0.162, 192.0, 0.0, 0.0, 0.0, 0.0, 0.0, 0.0, 0.0, 0.0, 0.0, 1.696032616488974E9, 0.0, 2023-09-29 19:10:16.488
106.0, -50951.74025913957, -27077.909061659466, -43720.816817381005, -28604.913187612678, -11460.901672947606, -14936.441473536668, -187500.02235174447, -10587.931941501134, -16228.595820497969, 12196.944617860869, -26351.857346517725, -25152.59684951268, -104.67321928420297, -9133.593336772125, -23854.876918182006, -40739.42938320987, 0.14, 1.01, 0.162, 192.0, 0.0, 0.0, 0.0, 0.0, 0.0, 0.0, 0.0, 0.0, 0.0, 1.696032616488986E9, 0.0, 2023-09-29 19:10:16.488
108.0, -50948.49925619355, -27006.718755569313, -43728.90814887383, -28615.61967320677, -11469.171818396071, -14941.783540461487, -187500.02235174447, -10596.872639283258, -16219.632770971391, 12218.04466462668, -26269.222947266455, -25153.22269835743, -112.31751588791799, -9117.120101108563, -23855.525118771213, -40724.14079000244, 0.14, 1.01, 0.162, 192.0, 0.0, 0.0, 0.0, 0.0, 0.0, 0.0, 0.0, 0.0, 0.0, 1.696032616488989E9, 0.0, 2023-09-29 19:10:16.488
110.0, -50941.972546812605, -27109.290910874715, -43719.47571271368, -28612.691594683125, -11463.852103215708, -14938.296668326459, -187500.02235174447, -10590.748261302502, -16235.726026979213, 12194.687091670883, -26361.44624488905, -25163.50450080687, -110.50702458703812, -9134.263889105785, -23859.414322306435, -40741.93277858887, 0.14, 1.01, 0.162, 192.0, 0.0, 0.0, 0.0, 0.0, 0.0, 0.0, 0.0, 0.0, 0.0, 1.696032616488993E9, 0.0, 2023-09-29 19:10:16.488
112.0, -50952.90254985125, -26990.424333861392, -43729.24342504066, -28613.719774928068, -11476.12321092167, -14948.53376728699, -187500.02235174447, -10600.068938740365, -16216.369416280917, 12225.331333319109, -26271.972211834458, -25164.286811862807, -108.49536758606048, -9123.959734911889, -23855.502767026755, -40725.50424641422, 0.14400000000000002, 1.01, 0.16, 192.0, 2.0, 64.0, 15.5, 72.0, 2.5, 0.0, 0.0, 0.0, 0.0, 1.696032616488996E9, 0.0, 2023-09-29 19:10:16.488
114.0, -50962.156172055744, -27094.069372900653, -43725.287166272064, -28625.23092332255, -11474.715051020987, -14953.33939234488, -187500.02235174447, -10605.746281832015, -16234.228460100707, 12182.326576987098, -26354.83012853028, -25168.712457264955, -107.10955942983145, -9147.04908693422, -23861.224813607314, -40748.10186005853, 0.14400000000000002, 1.01, 0.16, 192.0, 0.0, 0.0, 0.0, 0.0, 0.0, 0.0, 0.0, 0.0, 0.0, 1.696032616488999E9, 0.0, 2023-09-29 19:10:16.488
116.0, -50950.779134127995, -26957.43315904536, -43725.37657324989, -28617.51957148547, -11478.22427490047, -14952.132398144293, -187500.02235174447, -10605.14278473172, -16216.838802914477, 12207.695806943872, -26276.017877580867, -25173.451027089483, -109.54589957545991, -9140.500025808815, -23863.281174097203, -40735.003737807725, 0.14400000000000002, 1.01, 0.16, 192.0, 0.0, 0.0, 0.0, 0.0, 0.0, 0.0, 0.0, 0.0, 0.0, 1.696032616489002E9, 0.0, 2023-09-29 19:10:16.489
118.0, -50957.03762257548, -27114.051832443696, -43717.4193522238, -28635.62448449427, -11472.83750448674, -14954.367572589825, -187500.02235174447, -10605.902744043202, -16232.64148624438, 12184.65115841045, -26358.831090787782, -25170.50059682138, -103.84620473935661, -9169.646700578536, -23864.57757527561, -40753.108650816524, 0.14400000000000002, 1.01, 0.16, 192.0, 0.0, 0.0, 0.0, 0.0, 0.0, 0.0, 0.0, 0.0, 0.0, 1.696032616489005E9, 0.0, 2023-09-29 19:10:16.489
120.0, -50934.976450798094, -26970.44187431835, -43710.60207016493, -28594.363164229773, -11472.815152742285, -14945.67274399671, -187500.02235174447, -10603.95814227559, -16205.931151620289, 12227.588859509095, -26279.884729371635, -25160.308201349762, -104.69557102865828, -9134.599165272613, -23855.748636215765, -40729.52756041617, 0.14400000000000002, 1.01, 0.16, 192.0, 0.0, 0.0, 0.0, 0.0, 0.0, 0.0, 0.0, 0.0, 0.0, 1.696032616549295E9, 0.0, 2023-09-29 19:10:16.549
122.0, -50942.84426484636, -27119.88563774653, -43711.674953898786, -28623.643949466223, -11476.436135344045, -14952.467674311123, -187500.02235174447, -10605.276895198453, -16229.802814698556, 12195.22353353781, -26341.195564412545, -25153.89325069109, -108.98710596407724, -9146.28912762274, -23857.91675542793, -40740.658729154915, 0.14, 1.008, 0.166, 192.0, 2.0, 48.0, 15.5, 64.0, 2.5, 24.0, 0.0, 0.0, 0.0, 1.696032616549304E9, 0.0, 2023-09-29 19:10:16.549
124.0, -50945.57117766991, -26968.00553417272, -43709.75270387563, -28583.7460856135, -11477.374908611167, -14948.153787631249, -187500.02235174447, -10604.136956231232, -16203.695977174757, 12213.03787386869, -26282.34342126172, -25159.615297271648, -108.83064375289008, -9141.86348222059, -23856.732112971797, -40723.29142371314, 0.14, 1.008, 0.166, 192.0, 0.0, 0.0, 0.0, 0.0, 0.0, 0.0, 0.0, 0.0, 0.0, 1.696032616549307E9, 0.0, 2023-09-29 19:10:16.549
126.0, -50945.70528813664, -27133.006111741797, -43708.18808176376, -28620.76057443149, -11477.911350478096, -14955.10518015685, -187500.02235174447, -10607.534421388438, -16221.532669250093, 12184.092364799068, -26336.59110505475, -25149.892288433588, -102.34863786085104, -9157.777924272767, -23859.704894984352, -40739.45173495433, 0.14, 1.008, 0.166, 192.0, 0.0, 0.0, 0.0, 0.0, 0.0, 0.0, 0.0, 0.0, 0.0, 1.69603261654931E9, 0.0, 2023-09-29 19:10:16.549
128.0, -50934.64117463126, -26987.406848359926, -43705.997610807135, -28578.359315199774, -11472.010489941895, -14944.801025962954, -187500.02235174447, -10600.404214907196, -16209.172154566308, 12221.464481528341, -26292.73698243344, -25150.69695123398, -102.92978321668902, -9142.936365954443, -23856.44154029388, -40724.47606616927, 0.14, 1.008, 0.166, 192.0, 0.0, 0.0, 0.0, 0.0, 0.0, 0.0, 0.0, 0.0, 0.0, 1.696032616549313E9, 0.0, 2023-09-29 19:10:16.549
130.0, -50939.84913108935, -27125.875905260553, -43716.19000627875, -28625.387385533737, -11479.967710967983, -14957.00507843555, -187500.02235174447, -10608.33908418883, -16228.349951308961, 12198.88921962848, -26323.515334548396, -25152.59684951268, -106.21548965161917, -9156.928557983465, -23860.688371740387, -40739.71995588779, 0.14, 1.008, 0.166, 192.0, 0.0, 0.0, 0.0, 0.0, 0.0, 0.0, 0.0, 0.0, 0.0, 1.696032616549316E9, 0.0, 2023-09-29 19:10:16.549
132.0, -50943.26894799101, -26986.95981347082, -43710.93734633176, -28577.37583844374, -11470.624681785666, -14943.86225269583, -187500.02235174447, -10599.331331173342, -16209.216858055219, 12225.711312974849, -26305.209255839498, -25147.858279688156, -106.39430360726162, -9138.622479274569, -23857.24620309427, -40725.75011560322, 0.138, 1.006, 0.166, 192.0, 2.0, 40.0, 15.5, 56.0, 2.5, 24.0, 0.0, 0.0, 0.0, 1.69603261654932E9, 0.0, 2023-09-29 19:10:16.549
134.0, -50940.81025610093, -27128.289893661728, -43717.37464873489, -28634.641007738235, -11479.4089173566, -14955.57456679041, -187500.02235174447, -10611.535383645938, -16233.535556022593, 12189.389728234975, -26315.35694782221, -25163.035114173308, -116.05025721195427, -9169.62434883408, -23864.82344446462, -40738.848237854036, 0.138, 1.006, 0.166, 192.0, 0.0, 0.0, 0.0, 0.0, 0.0, 0.0, 0.0, 0.0, 0.0, 1.69603261660863E9, 0.0, 2023-09-29 19:10:16.608
136.0, -50966.11243082434, -27006.83051429159, -43717.955794090725, -28583.477864680037, -11482.493458091434, -14953.071171411417, -187500.02235174447, -10609.613133622783, -16210.557962722536, 12196.162306804932, -26323.940017693047, -25159.704704249467, -108.5624228194264, -9157.420296361483, -23862.074179896616, -40728.432324937865, 0.138, 1.006, 0.166, 192.0, 0.0, 0.0, 0.0, 0.0, 0.0, 0.0, 0.0, 0.0, 0.0, 1.696032616608642E9, 0.0, 2023-09-29 19:10:16.608
138.0, -50953.640157418275, -27098.852646214087, -43733.08792508697, -28649.639028267746, -11498.564362354799, -14974.461790855144, -187500.02235174447, -10625.505223930506, -16232.753244966656, 12177.789172862671, -26312.048889642825, -25174.479207334425, -125.19212069417486, -9179.883799539066, -23881.520197572732, -40751.007586837724, 0.138, 1.006, 0.166, 192.0, 0.0, 0.0, 0.0, 0.0, 0.0, 0.0, 0.0, 0.0, 0.0, 1.696032616608646E9, 0.0, 2023-09-29 19:10:16.608
140.0, -50959.56336969893, -27028.310540713137, -43714.871253355894, -28598.408829976182, -11475.586769054744, -14955.82043597942, -187500.02235174447, -10603.95814227559, -16224.237230329185, 12194.374167248508, -26350.87386976169, -25177.07200969124, -113.70332404414702, -9177.827439049177, -23868.10915089955, -40745.93374084637, 0.138, 1.006, 0.166, 192.0, 0.0, 0.0, 0.0, 0.0, 0.0, 0.0, 0.0, 0.0, 0.0, 1.696032616608649E9, 0.0, 2023-09-29 19:10:16.608
142.0, -50962.51379996703, -27091.230701354827, -43723.23080578218, -28641.793565963933, -11489.109574450205, -14969.186779163692, -187500.02235174447, -10616.519822659473, -16234.630791500902, 12177.498600184752, -26313.322939076777, -25181.095323693196, -119.82770202490116, -9173.804125047222, -23872.132464901504, -40746.40312747993, 0.14200000000000002, 1.01, 0.158, 192.0, 2.0, 56.0, 15.5, 72.0, 2.0, 120.0, 0.0, 0.0, 0.0, 1.696032616608653E9, 0.0, 2023-09-29 19:10:16.608
144.0, -50954.623634174306, -27057.233698038304, -43706.31053522951, -28592.61972816226, -11471.27288237487, -14949.897223698763, -187500.02235174447, -10601.924133530156, -16227.075901875009, 12177.990338562768, -26365.64837284665, -25174.16628291205, -109.188271664175, -9168.327947655673, -23864.734037486796, -40736.188380263855, 0.14200000000000002, 1.01, 0.158, 192.0, 0.0, 0.0, 0.0, 0.0, 0.0, 0.0, 0.0, 0.0, 0.0, 1.696032616608656E9, 0.0, 2023-09-29 19:10:16.608
146.0, -50954.7800963855, -27063.246317296784, -43723.85665462693, -28631.198839092118, -11489.243684916937, -14966.795142506975, -187500.02235174447, -10617.168023248676, -16216.548230236558, 12200.31973127362, -26308.20438959651, -25178.94955622549, -121.14645494776428, -9170.943101756942, -23870.05375266716, -40732.09801102853, 0.14200000000000002, 1.01, 0.158, 192.0, 0.0, 0.0, 0.0, 0.0, 0.0, 0.0, 0.0, 0.0, 0.0, 1.696032616608659E9, 0.0, 2023-09-29 19:10:16.608
148.0, -50942.88896833527, -27058.083064327606, -43709.75270387563, -28595.860731108278, -11479.923007479074, -14950.14309288777, -187500.02235174447, -10604.673398098159, -16223.432567528793, 12196.184658549388, -26364.21786120151, -25174.345096867695, -117.97250723511068, -9181.046090250742, -23872.82536897962, -40740.12228728799, 0.14200000000000002, 1.01, 0.158, 192.0, 0.0, 0.0, 0.0, 0.0, 0.0, 0.0, 0.0, 0.0, 0.0, 1.696032616608662E9, 0.0, 2023-09-29 19:10:16.608
150.0, -50944.38653521377, -27046.97424733332, -43719.162788291316, -28620.33589128684, -11498.206734443515, -14964.649375039266, -187500.02235174447, -10624.186471007642, -16219.632770971391, 12202.733719674794, -26295.419191768076, -25166.298468863784, -114.99972522255484, -9159.655470807013, -23868.556185788657, -40731.67332788388, 0.14200000000000002, 1.01, 0.158, 192.0, 0.0, 0.0, 0.0, 0.0, 0.0, 0.0, 0.0, 0.0, 0.0, 1.696032616668361E9, 0.0, 2023-09-29 19:10:16.668
152.0, -50957.95404409815, -27062.575764963123, -43708.63511665286, -28590.18338801663, -11487.522600593878, -14960.53665405949, -187500.02235174447, -10619.559659905393, -16230.920401921321, 12178.258559496231, -26364.06139899032, -25164.64443977409, -116.83256826789001, -9178.967378016398, -23876.848682981574, -40742.133944288966, 0.14200000000000002, 1.012, 0.158, 192.0, 2.0, 56.0, 15.5, 80.0, 2.0, 120.0, 0.0, 0.0, 0.0, 1.69603261666837E9, 0.0, 2023-09-29 19:10:16.668
154.0, -50953.41663997372, -27009.73624107078, -43720.01215458062, -28614.65854819519, -11496.642112331643, -14977.76984903453, -187500.02235174447, -10626.891032086734, -16217.330541292495, 12201.70553942985, -26288.512502731384, -25165.873785719134, -120.98999273657714, -9170.227845934372, -23874.233528880304, -40733.327356973576, 0.14200000000000002, 1.012, 0.158, 192.0, 0.0, 0.0, 0.0, 0.0, 0.0, 0.0, 0.0, 0.0, 0.0, 1.696032616668374E9, 0.0, 2023-09-29 19:10:16.668
156.0, -50946.59935791485, -27083.69816347339, -43711.47378819869, -28605.76255390198, -11484.080431947761, -14974.841770510886, -187500.02235174447, -10622.867718084779, -16232.7308932222, 12182.997129320756, -26373.896166550658, -25175.753256768377, -120.85588226984528, -9201.006198049332, -23877.027496937215, -40753.958017105826, 0.14200000000000002, 1.012, 0.158, 192.0, 0.0, 0.0, 0.0, 0.0, 0.0, 0.0, 0.0, 0.0, 0.0, 1.696032616668377E9, 0.0, 2023-09-29 19:10:16.668
158.0, -50952.43316321768, -26989.39615361645, -43723.5213784601, -28617.631330207747, -11495.725690808975, -14978.19453217918, -187500.02235174447, -10628.634468154249, -16211.720253434212, 12195.044719582167, -26290.188883565534, -25174.300393378784, -117.4360653681833, -9182.409546662515, -23874.47939806931, -40741.709261144315, 0.14200000000000002, 1.012, 0.158, 192.0, 0.0, 0.0, 0.0, 0.0, 0.0, 0.0, 0.0, 0.0, 0.0, 1.69603261666838E9, 0.0, 2023-09-29 19:10:16.668
160.0, -50959.295148765465, -27096.304547346183, -43722.11321855941, -28619.799449419912, -11491.188286684548, -14965.699907028666, -187500.02235174447, -10615.402235436706, -16239.391713069883, 12168.960233802823, -26377.427742174597, -25178.45781784747, -122.44285612617209, -9201.900267827543, -23880.380258605514, -40757.78016540768, 0.14200000000000002, 1.012, 0.158, 192.0, 0.0, 0.0, 0.0, 0.0, 0.0, 0.0, 0.0, 0.0, 0.0, 1.696032616668383E9, 0.0, 2023-09-29 19:10:16.668
162.0, -50949.795657371964, -26979.49433082275, -43724.90718661633, -28607.818914391868, -11487.522600593878, -14961.453075582156, -187500.02235174447, -10609.993113278522, -16214.022483113109, 12193.100117814556, -26293.362831278188, -25178.27900389183, -123.13576020428661, -9185.20351471943, -23871.081932912104, -40733.48381918476, 0.148, 1.006, 0.152, 192.0, 2.0, 80.0, 15.5, 56.0, 2.0, 96.0, 0.0, 0.0, 0.0, 1.696032616668386E9, 0.0, 2023-09-29 19:10:16.668
164.0, -50956.277663264, -27095.924567690443, -43717.195834779246, -28611.104620826798, -11478.470144089479, -14958.949680203163, -187500.02235174447, -10604.271066697964, -16228.931096664799, 12168.513198913717, -26367.61532635872, -25173.853358489676, -121.92876600370003, -9202.280247483284, -23869.71847650033, -40743.49740070074, 0.148, 1.006, 0.152, 192.0, 0.0, 0.0, 0.0, 0.0, 0.0, 0.0, 0.0, 0.0, 0.0, 1.69603261672858E9, 0.0, 2023-09-29 19:10:16.728
166.0, -50952.2767010065, -26972.38647608596, -43712.05493355452, -28588.775228115945, -11474.089202176237, -14953.518206300523, -187500.02235174447, -10603.645217853214, -16219.319846549017, 12208.858097655548, -26296.313261546286, -25170.344134610194, -122.30874565944025, -9167.456229621916, -23857.91675542793, -40724.27490046917, 0.148, 1.006, 0.152, 192.0, 0.0, 0.0, 0.0, 0.0, 0.0, 0.0, 0.0, 0.0, 0.0, 1.696032616728593E9, 0.0, 2023-09-29 19:10:16.728
168.0, -50946.10761953684, -27122.79136452572, -43705.12589277338, -28614.81501040638, -11475.162085910093, -14964.716430272632, -187500.02235174447, -10608.987284778033, -16230.987457154688, 12178.929111829892, -26372.532710138883, -25171.50642532187, -113.74802753305764, -9191.551410144737, -23860.867185696028, -40748.146563547445, 0.148, 1.006, 0.152, 192.0, 0.0, 0.0, 0.0, 0.0, 0.0, 0.0, 0.0, 0.0, 0.0, 1.696032616728596E9, 0.0, 2023-09-29 19:10:16.728
170.0, -50946.24173000357, -26971.313592352104, -43708.232785252665, -28588.015268804465, -11474.89386497663, -14962.123627915817, -187500.02235174447, -10609.188450478132, -16206.646407442859, 12207.338179032586, -26300.850665670714, -25177.65315504708, -108.11538793032027, -9177.067479737698, -23854.318124570626, -40731.986252306255, 0.148, 1.006, 0.152, 192.0, 0.0, 0.0, 0.0, 0.0, 0.0, 0.0, 0.0, 0.0, 0.0, 1.6960326167286E9, 0.0, 2023-09-29 19:10:16.728
172.0, -50952.12023879531, -27116.398765611502, -43719.58747143597, -28625.94617914512, -11482.806382513809, -14972.293671642981, -187500.02235174447, -10618.419720938173, -16230.741587965678, 12169.384916947474, -26357.042951231357, -25172.98164045592, -116.7878647789794, -9198.636913137068, -23870.299621856168, -40753.868610128004, 0.148, 1.008, 0.15, 192.0, 2.0, 80.0, 15.5, 64.0, 2.0, 88.0, 0.0, 0.0, 0.0, 1.696032616728604E9, 0.0, 2023-09-29 19:10:16.728
174.0, -50938.41861944421, -26953.655714232413, -43723.342564504455, -28593.80437061839, -11487.679062805064, -14972.897168743273, -187500.02235174447, -10625.549927419415, -16203.07012833001, 12198.866867884026, -26304.516351761384, -25176.155588168574, -123.15811194874192, -9185.62819786408, -23873.697087013377, -40740.18934252136, 0.148, 1.008, 0.15, 192.0, 0.0, 0.0, 0.0, 0.0, 0.0, 0.0, 0.0, 0.0, 0.0, 1.696032616728608E9, 0.0, 2023-09-29 19:10:16.728
176.0, -50950.287395749976, -27090.537797276713, -43722.40379123733, -28626.214400078585, -11489.757775039408, -14975.288805399992, -187500.02235174447, -10624.34293321883, -16218.582238981991, 12176.738640873271, -26349.26454416091, -25176.46851259095, -122.57696659290393, -9216.026570323298, -23886.30347088617, -40757.33313051857, 0.148, 1.008, 0.15, 192.0, 0.0, 0.0, 0.0, 0.0, 0.0, 0.0, 0.0, 0.0, 0.0, 1.696032616728612E9, 0.0, 2023-09-29 19:10:16.728
178.0, -50966.715927924626, -26931.81805989958, -43717.28524175707, -28570.916184296155, -11477.911350478096, -14961.609537793343, -187500.02235174447, -10617.391540693228, -16228.01467514213, 12187.109850300534, -26312.719441976482, -25170.45589333247, -120.78882703647936, -9181.403718162026, -23867.170377632425, -40727.20297899282, 0.148, 1.008, 0.15, 192.0, 0.0, 0.0, 0.0, 0.0, 0.0, 0.0, 0.0, 0.0, 0.0, 1.696032616728617E9, 0.0, 2023-09-29 19:10:16.728
180.0, -50951.673203906204, -27091.565977521655, -43719.140436546855, -28623.956873888597, -11479.587731312244, -14973.835942010397, -187500.02235174447, -10624.700561130114, -16240.777521226111, 12179.040870552168, -26344.615381314205, -25168.712457264955, -121.16880669221959, -9194.613599135113, -23870.612546278542, -40745.0173193237, 0.148, 1.008, 0.15, 192.0, 0.0, 0.0, 0.0, 0.0, 0.0, 0.0, 0.0, 0.0, 0.0, 1.696032616789076E9, 0.0, 2023-09-29 19:10:16.789
182.0, -50951.58379692838, -26974.129912153472, -43703.628325894875, -28571.363219185263, -11470.155295152104, -14960.559005803945, -187500.02235174447, -10615.357531947797, -16211.317922034017, 12205.103004587056, -26333.148936408634, -25163.45979731796, -114.77620777800176, -9176.843962293144, -23857.581479261098, -40729.482856927265, 0.146, 1.004, 0.146, 192.0, 2.0, 72.0, 15.5, 48.0, 2.0, 72.0, 0.0, 0.0, 0.0, 1.696032616789101E9, 0.0, 2023-09-29 19:10:16.789
184.0, -50955.29418650796, -27092.817675211154, -43714.2677562556, -28629.14247860223, -11484.773336025875, -14979.692099057687, -187500.02235174447, -10625.639334397238, -16232.909707177843, 12178.437373451874, -26335.83114574327, -25176.08853293521, -123.91807126022236, -9194.43478517947, -23870.746656745276, -40744.03384256767, 0.146, 1.004, 0.146, 192.0, 0.0, 0.0, 0.0, 0.0, 0.0, 0.0, 0.0, 0.0, 0.0, 1.696032616789107E9, 0.0, 2023-09-29 19:10:16.789
186.0, -50954.98126208559, -27005.19883694635, -43696.632229880364, -28574.067780264355, -11474.17860915406, -14963.420029094224, -187500.02235174447, -10607.892049299724, -16221.867945416921, 12202.666664441427, -26350.13626219467, -25168.935974709508, -106.88604198527837, -9182.454250151426, -23861.671848496422, -40737.48478144226, 0.146, 1.004, 0.146, 192.0, 0.0, 0.0, 0.0, 0.0, 0.0, 0.0, 0.0, 0.0, 0.0, 1.696032616789112E9, 0.0, 2023-09-29 19:10:16.789
188.0, -50958.13285805379, -27066.710837687355, -43714.35716323342, -28623.442783766128, -11491.858839018207, -14987.671671828231, -187500.02235174447, -10621.236040739543, -16238.07296014702, 12192.697786414361, -26314.328767577266, -25179.55305332578, -104.38264660628398, -9176.799258804234, -23875.217005636336, -40749.822944381594, 0.146, 1.004, 0.146, 192.0, 0.0, 0.0, 0.0, 0.0, 0.0, 0.0, 0.0, 0.0, 0.0, 1.696032616789118E9, 0.0, 2023-09-29 19:10:16.789
190.0, -50948.0745730489, -27005.10942996853, -43704.187119506256, -28574.246594219996, -11474.424478343068, -14963.308270371946, -187500.02235174447, -10596.738528816526, -16229.892221676377, 12196.430527738397, -26348.817509271805, -25179.37423937014, -90.8598412108232, -9161.153037685519, -23873.182996890904, -40750.672310670896, 0.146, 1.004, 0.146, 192.0, 0.0, 0.0, 0.0, 0.0, 0.0, 0.0, 0.0, 0.0, 0.0, 1.696032616789124E9, 0.0, 2023-09-29 19:10:16.789
192.0, -50937.36808745481, -27057.814843394142, -43722.51554995961, -28614.85971389529, -11483.23106565846, -14971.82428500942, -187500.02235174447, -10593.609284592781, -16219.386901782384, 12198.620998695016, -26305.72334596197, -25176.84849224669, -85.29425684145176, -9145.797389244723, -23869.71847650033, -40747.721880402794, 0.148, 1.014, 0.15, 192.0, 2.0, 80.0, 15.5, 88.0, 2.0, 88.0, 0.0, 0.0, 0.0, 1.696032616789129E9, 0.0, 2023-09-29 19:10:16.789
194.0, -50952.030831817494, -27007.63517709198, -43722.31438425951, -28570.98323952952, -11468.635376529142, -14950.120741143315, -187500.02235174447, -10571.324595370841, -16225.26541057413, 12201.280856285199, -26347.923439493592, -25179.485998092416, -80.0863003833652, -9145.640927033535, -23868.82440672212, -40749.68883391486, 0.148, 1.014, 0.15, 192.0, 0.0, 0.0, 0.0, 0.0, 0.0, 0.0, 0.0, 0.0, 0.0, 1.696032616849402E9, 0.0, 2023-09-29 19:10:16.849
196.0, -50948.4769044491, -27026.187124989883, -43748.443573527766, -28622.548713987915, -11479.520676078877, -14960.603709292855, -187500.02235174447, -10585.137973444222, -16228.01467514213, 12214.669551213927, -26289.160703320587, -25177.22847190243, -82.0085504065216, -9117.142452853019, -23875.708744014355, -40749.30885425912, 0.148, 1.014, 0.15, 192.0, 0.0, 0.0, 0.0, 0.0, 0.0, 0.0, 0.0, 0.0, 0.0, 1.696032616849423E9, 0.0, 2023-09-29 19:10:16.849
198.0, -50954.60128242985, -27038.97232281832, -43743.83911416997, -28595.816027619367, -11459.873492702663, -14939.660124738233, -187500.02235174447, -10569.871731981246, -16229.489890276182, 12203.426623752908, -26358.048779731846, -25174.7921317568, -84.511945785516, -9113.789691184724, -23877.116903915037, -40755.88026712898, 0.148, 1.014, 0.15, 192.0, 0.0, 0.0, 0.0, 0.0, 0.0, 0.0, 0.0, 0.0, 0.0, 1.69603261684943E9, 0.0, 2023-09-29 19:10:16.849
200.0, -50942.374878212795, -27003.209531689827, -43753.91975091932, -28630.885914669743, -11473.21748414248, -14944.353991073847, -187500.02235174447, -10578.275987896443, -16222.270276817117, 12214.04370236918, -26284.19861605151, -25166.767855497346, -83.68493124066964, -9095.08128107563, -23875.015839936237, -40745.79963037964, 0.148, 1.014, 0.15, 192.0, 0.0, 0.0, 0.0, 0.0, 0.0, 0.0, 0.0, 0.0, 0.0, 1.696032616849435E9, 0.0, 2023-09-29 19:10:16.849
202.0, -50948.4769044491, -27040.604000163556, -43740.687518201776, -28621.297016298417, -11459.35940258019, -14925.71263619812, -187500.02235174447, -10564.32849935633, -16242.655067760357, 12194.821202137615, -26347.096424948744, -25160.956401938965, -83.14848937374228, -9108.671141704457, -23875.10524691406, -40752.751022905235, 0.14200000000000002, 1.008, 0.148, 192.0, 2.0, 56.0, 15.5, 64.0, 2.0, 80.0, 0.0, 0.0, 0.0, 1.696032616849441E9, 0.0, 2023-09-29 19:10:16.849
204.0, -50945.99586081456, -26944.536202494648, -43752.3774805519, -28634.842173438334, -11467.98717593994, -14931.993476390062, -187500.02235174447, -10568.485923825017, -16231.613305999435, 12225.219574596833, -26265.110226286677, -25154.25087860237, -85.65188475273666, -9085.782955382223, -23862.20829036335, -40726.7112406148, 0.14200000000000002, 1.008, 0.148, 192.0, 0.0, 0.0, 0.0, 0.0, 0.0, 0.0, 0.0, 0.0, 0.0, 1.696032616849446E9, 0.0, 2023-09-29 19:10:16.849
206.0, -50954.91420685223, -27016.82174406311, -43743.72735544769, -28633.210496093096, -11454.821998455764, -14922.538688485467, -187500.02235174447, -10557.42181031964, -16245.985477684198, 12201.504373729751, -26351.253849417433, -25156.575460025724, -83.70728298512495, -9099.976313111343, -23863.05765665265, -40735.897807585934, 0.14200000000000002, 1.008, 0.148, 192.0, 0.0, 0.0, 0.0, 0.0, 0.0, 0.0, 0.0, 0.0, 0.0, 1.696032616849452E9, 0.0, 2023-09-29 19:10:16.849
208.0, -50952.76843938452, -26886.75694307768, -43756.981939909696, -28636.227981594562, -11469.238873629436, -14929.177156588694, -187500.02235174447, -10568.843551736301, -16219.096329104465, 12225.733664719304, -26267.72538038795, -25164.778550240822, -85.7636434750132, -9088.867496117056, -23856.463892038333, -40719.826903322566, 0.14200000000000002, 1.008, 0.148, 192.0, 0.0, 0.0, 0.0, 0.0, 0.0, 0.0, 0.0, 0.0, 0.0, 1.696032616849458E9, 0.0, 2023-09-29 19:10:16.849
210.0, -50940.72084912311, -27021.850886565553, -43741.40277402434, -28638.753728718013, -11453.79381821082, -14917.375435516291, -187500.02235174447, -10560.081667909822, -16249.248832374673, 12209.774519178214, -26362.65323908964, -25160.375256583127, -90.07753015488747, -9104.603124213592, -23863.839967708587, -40740.524618688185, 0.14200000000000002, 1.008, 0.148, 192.0, 0.0, 0.0, 0.0, 0.0, 0.0, 0.0, 0.0, 0.0, 0.0, 1.696032616908624E9, 0.0, 2023-09-29 19:10:16.908
212.0, -50944.207721258135, -26914.003719568696, -43741.89451240236, -28622.682824454645, -11450.977498409451, -14921.532859984978, -187500.02235174447, -10566.541322057405, -16214.53657323558, 12231.880394444514, -26281.181130550045, -25149.35584656666, -80.06394863890989, -9064.705260360868, -23850.38421754649, -40714.32837418656, 0.14200000000000002, 0.996, 0.148, 192.0, 2.0, 56.0, 15.5, 16.0, 2.0, 80.0, 0.0, 0.0, 0.0, 1.696032616908634E9, 0.0, 2023-09-29 19:10:16.908
214.0, -50950.80148587245, -27051.131671802006, -43743.123858347404, -28639.871315940778, -11448.831730941742, -14926.293781553959, -187500.02235174447, -10570.98931920401, -16239.995210170177, 12196.877562627502, -26356.08182621978, -25156.8883844481, -86.27773359748527, -9096.534144465226, -23856.799168205165, -40736.72482213078, 0.14200000000000002, 0.996, 0.148, 192.0, 0.0, 0.0, 0.0, 0.0, 0.0, 0.0, 0.0, 0.0, 0.0, 1.696032616908639E9, 0.0, 2023-09-29 19:10:16.908
216.0, -50959.026927832005, -26895.764696093167, -43750.96932065122, -28618.23482730804, -11453.480893788445, -14933.468691524113, -187500.02235174447, -10576.621958806749, -16218.78340468209, 12220.391597794485, -26277.560147948283, -25162.45396881747, -98.66060002572537, -9080.820868113145, -23855.882746682495, -40726.957109803814, 0.14200000000000002, 0.996, 0.148, 192.0, 0.0, 0.0, 0.0, 0.0, 0.0, 0.0, 0.0, 0.0, 0.0, 1.696032616908645E9, 0.0, 2023-09-29 19:10:16.908
218.0, -50943.06778229091, -27053.590363692092, -43742.363899035925, -28646.778004977466, -11448.02706814135, -14932.820490934908, -187500.02235174447, -10570.51993257045, -16234.563736267537, 12201.057338840645, -26353.64548607415, -25163.772721740334, -94.23495462357458, -9106.19009806992, -23856.44154029388, -40750.672310670896, 0.14200000000000002, 0.996, 0.148, 192.0, 0.0, 0.0, 0.0, 0.0, 0.0, 0.0, 0.0, 0.0, 0.0, 1.69603261690865E9, 0.0, 2023-09-29 19:10:16.908
220.0, -50942.33017472389, -26904.861856086478, -43737.13359083338, -28603.50502771199, -11449.032896641838, -14923.253944308037, -187500.02235174447, -10561.84745572179, -16201.326692262495, 12240.552871293172, -26288.981889364946, -25156.93308793701, -87.55178303143776, -9082.7431181363, -23846.629124478, -40729.52756041617, 0.14200000000000002, 0.996, 0.148, 192.0, 0.0, 0.0, 0.0, 0.0, 0.0, 0.0, 0.0, 0.0, 0.0, 1.696032616908655E9, 0.0, 2023-09-29 19:10:16.908
222.0, -50949.37097422731, -27063.380427763514, -43735.434858254775, -28641.592400263835, -11453.905576933095, -14936.28501132548, -187500.02235174447, -10570.207008148076, -16223.83489892899, 12197.525763216707, -26339.295666133843, -25159.950573438477, -99.0182279370103, -9105.541897480714, -23858.833176950597, -40748.1689152919, 0.146, 1.0, 0.15, 192.0, 2.0, 72.0, 15.5, 32.0, 2.0, 88.0, 0.0, 0.0, 0.0, 1.69603261690866E9, 0.0, 2023-09-29 19:10:16.908
224.0, -50950.421506216706, -26890.13205649043, -43733.73612567617, -28599.146437543208, -11454.911405433584, -14934.027485135495, -187500.02235174447, -10574.27502563894, -16211.899067389855, 12213.127280846511, -26292.982851622448, -25159.41413157155, -104.27088788400745, -9087.258170516274, -23855.323953071114, -40730.22046449428, 0.146, 1.0, 0.15, 192.0, 0.0, 0.0, 0.0, 0.0, 0.0, 0.0, 0.0, 0.0, 0.0, 1.696032616968349E9, 0.0, 2023-09-29 19:10:16.968
226.0, -50948.678070149195, -27065.123863831028, -43724.97424184969, -28639.647798496226, -11453.011507154884, -14937.268488081514, -187500.02235174447, -10577.247807651498, -16220.839765171977, 12189.725004401804, -26338.312189377808, -25158.07302690423, -101.83454773837897, -9118.841185431622, -23863.504691541755, -40752.30398801613, 0.146, 1.0, 0.15, 192.0, 0.0, 0.0, 0.0, 0.0, 0.0, 0.0, 0.0, 0.0, 0.0, 1.696032616968363E9, 0.0, 2023-09-29 19:10:16.968
228.0, -50951.69555565066, -26902.0008327962, -43716.99466907915, -28585.04248679191, -11450.374001309157, -14929.132453099783, -187500.02235174447, -10575.794944261903, -16209.954465622242, 12237.624792769528, -26299.934244148048, -25154.094416391184, -94.59258253485949, -9084.195981525896, -23849.512499512733, -40727.89588307094, 0.146, 1.0, 0.15, 192.0, 0.0, 0.0, 0.0, 0.0, 0.0, 0.0, 0.0, 0.0, 0.0, 1.696032616968369E9, 0.0, 2023-09-29 19:10:16.968
230.0, -50951.18146552819, -27024.53309590019, -43727.83526513997, -28641.70415898611, -11461.706335747998, -14948.779636475998, -187500.02235174447, -10591.463517125072, -16238.452939802759, 12204.432452253397, -26320.78842172485, -25165.963192696952, -105.41082685122811, -9105.966580625365, -23864.711685742343, -40750.18057229288, 0.146, 1.0, 0.15, 192.0, 0.0, 0.0, 0.0, 0.0, 0.0, 0.0, 0.0, 0.0, 0.0, 1.696032616968374E9, 0.0, 2023-09-29 19:10:16.968
232.0, -50953.9754335851, -26893.306004203085, -43724.43779998276, -28589.736353127522, -11453.592652510722, -14940.509491027535, -187500.02235174447, -10585.964987989068, -16223.857250673444, 12206.645274954471, -26317.569770523285, -25161.425788572527, -101.6110302938259, -9095.751833409291, -23858.833176950597, -40740.658729154915, 0.148, 1.004, 0.15, 192.0, 2.0, 80.0, 15.5, 48.0, 2.0, 88.0, 0.0, 0.0, 0.0, 1.69603261696838E9, 0.0, 2023-09-29 19:10:16.968
234.0, -50934.01532578652, -27027.01413953473, -43725.868311627906, -28636.18327810565, -11458.487684546433, -14946.097427141362, -187500.02235174447, -10590.815316535869, -16221.085634360987, 12204.253638297754, -26317.39095656764, -25156.530756536813, -101.02988493798793, -9109.408749271483, -23860.71072348484, -40756.461412484816, 0.148, 1.004, 0.15, 192.0, 0.0, 0.0, 0.0, 0.0, 0.0, 0.0, 0.0, 0.0, 0.0, 1.696032616968385E9, 0.0, 2023-09-29 19:10:16.968
236.0, -50954.333061496385, -26929.76169940969, -43727.27647152859, -28583.7460856135, -11456.78895196783, -14934.80979619143, -187500.02235174447, -10581.248769908998, -16206.847573142955, 12215.317751803132, -26326.64457877214, -25148.707645977458, -101.6110302938259, -9102.256191045784, -23854.854566437552, -40742.7150896448, 0.148, 1.004, 0.15, 192.0, 0.0, 0.0, 0.0, 0.0, 0.0, 0.0, 0.0, 0.0, 0.0, 1.696032616968391E9, 0.0, 2023-09-29 19:10:16.968
238.0, -50942.71015437963, -27011.94906377185, -43732.46207624222, -28633.8586966823, -11463.852103215708, -14949.114912642826, -187500.02235174447, -10591.57527584735, -16222.046759372564, 12212.300266301665, -26298.52608424736, -25147.92533492152, -109.03180945298786, -9107.598257970603, -23859.928412428908, -40747.61012168052, 0.148, 1.004, 0.15, 192.0, 0.0, 0.0, 0.0, 0.0, 0.0, 0.0, 0.0, 0.0, 0.0, 1.696032616968396E9, 0.0, 2023-09-29 19:10:16.968
240.0, -50951.91907309522, -26927.258304030696, -43720.83916912546, -28586.450646692592, -11453.212672854981, -14941.29180208347, -187500.02235174447, -10587.32844440084, -16210.200334811252, 12207.069958099122, -26328.3656630952, -25157.223660614927, -115.15618743374199, -9121.925726166455, -23859.213156606336, -40743.944435589845, 0.148, 1.004, 0.15, 192.0, 0.0, 0.0, 0.0, 0.0, 0.0, 0.0, 0.0, 0.0, 0.0, 1.696032617029621E9, 0.0, 2023-09-29 19:10:17.029
