%OpenBCI Raw EXG Data
%Number of channels = 16
%Sample Rate = 125 Hz
%Board = OpenBCI_GUI$BoardCytonSerialDaisy
Sample Index, EXG Channel 0, EXG Channel 1, EXG Channel 2, EXG Channel 3, EXG Channel 4, EXG Channel 5, EXG Channel 6, EXG Channel 7, EXG Channel 8, EXG Channel 9, EXG Channel 10, EXG Channel 11, EXG Channel 12, EXG Channel 13, EXG Channel 14, EXG Channel 15, Accel Channel 0, Accel Channel 1, Accel Channel 2, Other, Other, Other, Other, Other, Other, Other, Analog Channel 0, Analog Channel 1, Analog Channel 2, Timestamp, Other, Timestamp (Formatted)
208.0, -50824.06709481086, -26551.77134892599, -43809.4414841463, -28618.927731386153, -11495.390414642146, -14995.941817276696, -187500.02235174447, -10565.46843832355, -16097.368728800862, 12139.83591077756, -26294.748639434416, -25151.725131478925, -228.25601437759573, -9049.12609447552, -23866.52217704322, -40811.29024163369, 0.0, 0.0, 0.0, 192.0, 0.0, 0.0, 0.0, 0.0, 0.0, 0.0, 0.0, 0.0, 0.0, 1.69603263139938E9, 0.0, 2023-09-29 19:10:31.399
210.0, -50826.92811810114, -26655.95282983218, -43794.577574083516, -28602.56625444487, -11488.394318627636, -14985.637663082798, -187500.02235174447, -10552.951461428578, -16105.795336460513, 12123.630896047462, -26389.922367325114, -25139.856355173157, -216.7895694720232, -9063.31945220464, -23863.728208986307, -40824.38836388449, 0.0, 0.0, 0.0, 192.0, 0.0, 0.0, 0.0, 0.0, 0.0, 0.0, 0.0, 0.0, 0.0, 1.696032631399387E9, 0.0, 2023-09-29 19:10:31.399
212.0, -50827.28574601242, -26530.15721203771, -43804.211175943754, -28602.23097827804, -11504.308760679813, -14992.96903526414, -187500.02235174447, -10563.61324353376, -16085.164676328264, 12147.83783529256, -26286.34438351922, -25136.391834782582, -217.88480495033323, -9047.248547941274, -23864.845796209076, -40806.55167180916, 0.0, 0.0, 0.0, 192.0, 0.0, 0.0, 0.0, 0.0, 0.0, 0.0, 0.0, 0.0, 0.0, 1.696032631399391E9, 0.0, 2023-09-29 19:10:31.399
214.0, -50819.03795230841, -26654.410559464763, -43793.594097327485, -28601.381611988738, -11494.585751841754, -14988.789259050996, -187500.02235174447, -10553.08557189531, -16096.18408634473, 12129.64351530594, -26376.779541585394, -25125.551238721757, -214.8896711933221, -9062.961824293354, -23862.96824967483, -40817.146398680976, 0.154, 1.008, 0.14400000000000002, 192.0, 2.0, 104.0, 15.5, 64.0, 2.0, 64.0, 0.0, 0.0, 0.0, 1.696032631399394E9, 0.0, 2023-09-29 19:10:31.399
216.0, -50815.03699005092, -26523.96577882359, -43795.404588628364, -28578.42637043314, -11496.79857454283, -14988.945721262184, -187500.02235174447, -10558.494694053496, -16072.804161644479, 12172.69297512686, -26294.368659778676, -25123.673692187513, -221.41638057427176, -9044.387524650994, -23860.129578129003, -40801.00843918425, 0.154, 1.008, 0.14400000000000002, 192.0, 0.0, 0.0, 0.0, 0.0, 0.0, 0.0, 0.0, 0.0, 0.0, 1.696032631399398E9, 0.0, 2023-09-29 19:10:31.399
218.0, -50816.31103948487, -26677.76813242056, -43793.6388008164, -28599.906396854687, -11494.541048352845, -14990.286825929503, -187500.02235174447, -10557.175941130632, -16100.363862557873, 12139.522986355185, -26369.112893237223, -25122.421994498014, -223.00335443059856, -9058.111495746552, -23863.61645026403, -40816.52054983623, 0.154, 1.008, 0.14400000000000002, 192.0, 0.0, 0.0, 0.0, 0.0, 0.0, 0.0, 0.0, 0.0, 0.0, 1.696032631399401E9, 0.0, 2023-09-29 19:10:31.399
220.0, -50817.54038542991, -26526.938560836144, -43795.963382239745, -28578.292259966405, -11502.431214145567, -14992.946683519684, -187500.02235174447, -10561.37806908823, -16072.290071522008, 12163.729925600283, -26295.888578401635, -25120.186820052484, -221.215214874174, -9043.225233939318, -23860.420150806924, -40798.59445078307, 0.154, 1.008, 0.14400000000000002, 192.0, 0.0, 0.0, 0.0, 0.0, 0.0, 0.0, 0.0, 0.0, 0.0, 1.696032631399404E9, 0.0, 2023-09-29 19:10:31.399
222.0, -50808.53263241442, -26669.18506254972, -43789.548431581075, -28608.66828068117, -11499.726653066475, -14994.600712609377, -187500.02235174447, -10561.400420832684, -16094.105374110386, 12132.370428129487, -26359.300477421344, -25126.244142799875, -224.29975560900638, -9068.907388318466, -23864.734037486796, -40822.04143071669, 0.154, 1.008, 0.14400000000000002, 192.0, 0.0, 0.0, 0.0, 0.0, 0.0, 0.0, 0.0, 0.0, 0.0, 1.696032631399407E9, 0.0, 2023-09-29 19:10:31.399
224.0, -50812.39948420519, -26512.231112984555, -43789.21315541425, -28574.6936291091, -11497.044443731838, -14986.53173286101, -187500.02235174447, -10554.069048651345, -16077.18510355772, 12158.41021041992, -26298.190808080533, -25122.846677642665, -225.08206666494212, -9051.562434621148, -23854.876918182006, -40801.85780547355, 0.148, 1.004, 0.146, 192.0, 2.0, 80.0, 15.5, 48.0, 2.0, 72.0, 0.0, 0.0, 0.0, 1.696032631399411E9, 0.0, 2023-09-29 19:10:31.399
0.0, -25347.593468140778, -13065.555759138557, -21898.80870566472, -14285.044584875654, -5727.187481783329, -7541.724448409611, -93750.01117587223, -5264.416964580651, -8044.236367253825, 6070.554980105756, -13162.294109141125, -12562.172122260587, -111.75872227653531, -4538.141731994358, -11928.567222185997, -20405.488658605656, 0.138, 1.004, 0.154, 192.0, 2.0, 40.0, 15.5, 48.0, 2.0, 104.0, 0.0, 0.0, 0.0, 1.696032631560273E9, 0.0, 2023-09-29 19:10:31.560
2.0, -50688.16848852259, -26285.874996885657, -43796.07514096203, -28602.163923044674, -11457.034821156838, -15084.164152641792, -187500.02235174447, -10536.098246109277, -15953.222328808586, 12466.32784203623, -26361.35683791123, -25268.848272424733, -368.9155422348431, -9038.26314667024, -23845.33272329959, -41029.39856402857, 0.138, 1.004, 0.154, 192.0, 0.0, 0.0, 0.0, 0.0, 0.0, 0.0, 0.0, 0.0, 0.0, 1.696032631560284E9, 0.0, 2023-09-29 19:10:31.560
4.0, -50701.55718345132, -26142.667370160507, -43780.42891984331, -28543.64705606068, -11441.232137826937, -15062.862940175884, -187500.02235174447, -10520.56378371284, -15930.803529119914, 12476.810810185769, -26333.0148259419, -25253.827900150765, -353.4481350717706, -9014.167966147419, -23828.546563213655, -41002.10708404864, 0.138, 1.004, 0.154, 192.0, 0.0, 0.0, 0.0, 0.0, 0.0, 0.0, 0.0, 0.0, 0.0, 1.696032631560288E9, 0.0, 2023-09-29 19:10:31.560
6.0, -50693.04116881385, -26290.613566710184, -43784.832213501, -28588.909338582678, -11447.132998363139, -15069.88138793485, -187500.02235174447, -10522.396626758175, -15939.274840268476, 12472.89925490609, -26350.248020916944, -25253.47027223948, -356.8903037178879, -9027.623716309514, -23829.217115547315, -41011.85244463116, 0.138, 1.004, 0.154, 192.0, 0.0, 0.0, 0.0, 0.0, 0.0, 0.0, 0.0, 0.0, 0.0, 1.696032631560291E9, 0.0, 2023-09-29 19:10:31.560
8.0, -50694.65049441463, -26147.383588240577, -43776.45030933026, -28536.51684957944, -11439.153425592593, -15058.437294773734, -187500.02235174447, -10512.517155708929, -15933.552793687915, 12491.294740592808, -26328.07509041728, -25248.128205314664, -355.079812417008, -9010.770500990213, -23819.315292753614, -40995.759188623335, 0.14200000000000002, 1.008, 0.154, 192.0, 2.0, 56.0, 15.5, 64.0, 2.0, 104.0, 0.0, 0.0, 0.0, 1.696032631560295E9, 0.0, 2023-09-29 19:10:31.560
10.0, -50686.89443908864, -26265.02081930886, -43784.161661167345, -28591.56919617286, -11451.402181554102, -15071.177789113259, -187500.02235174447, -10519.289734278886, -15944.572203704383, 12480.252978831886, -26330.131450907167, -25256.979496118965, -360.6677485308348, -9023.890974985477, -23826.691368423864, -41005.59395618367, 0.14200000000000002, 1.008, 0.154, 192.0, 0.0, 0.0, 0.0, 0.0, 0.0, 0.0, 0.0, 0.0, 0.0, 1.696032631560298E9, 0.0, 2023-09-29 19:10:31.560
12.0, -50701.51247996241, -26154.692608677462, -43768.582495282, -28532.292369877385, -11433.006695867383, -15049.764817925075, -187500.02235174447, -10504.023492815912, -15937.352590245318, 12484.723327722946, -26336.077014932278, -25242.495565711924, -345.2897483455835, -9008.155346888941, -23815.113164796017, -40989.83597634268, 0.14200000000000002, 1.008, 0.154, 192.0, 0.0, 0.0, 0.0, 0.0, 0.0, 0.0, 0.0, 0.0, 0.0, 1.696032631560301E9, 0.0, 2023-09-29 19:10:31.560
14.0, -50695.65632291512, -26218.775060030828, -43781.94883846627, -28582.31557396836, -11446.59655649621, -15072.36243156939, -187500.02235174447, -10515.780510399403, -15948.751979917524, 12471.424039772039, -26313.09942163222, -25244.708388413, -353.33637634949406, -9032.675210556414, -23820.209362531827, -40998.86608110262, 0.14200000000000002, 1.008, 0.154, 192.0, 0.0, 0.0, 0.0, 0.0, 0.0, 0.0, 0.0, 0.0, 0.0, 1.696032631560304E9, 0.0, 2023-09-29 19:10:31.560
16.0, -50707.145119565146, -26131.55855316622, -43769.99065518268, -28537.45562284656, -11435.420684268556, -15057.297355806513, -187500.02235174447, -10506.616295172727, -15933.284572754452, 12483.359871311173, -26342.31315163531, -25249.134033815153, -355.92917870630964, -9032.764617534234, -23811.738051383265, -40999.22370901391, 0.14200000000000002, 1.008, 0.154, 192.0, 0.0, 0.0, 0.0, 0.0, 0.0, 0.0, 0.0, 0.0, 0.0, 1.696032631620595E9, 0.0, 2023-09-29 19:10:31.620
18.0, -50676.523229661376, -26202.77121100083, -43779.84777448747, -28584.61780364726, -11443.444960528012, -15070.864864690884, -187500.02235174447, -10519.289734278886, -15935.609154177804, 12478.330728808729, -26314.217008854986, -25250.8104146493, -357.9855391961979, -9024.44976859686, -23816.051938063138, -41005.37043873912, 0.154, 1.004, 0.152, 192.0, 2.0, 104.0, 15.5, 48.0, 2.0, 96.0, 0.0, 0.0, 0.0, 1.696032631620604E9, 0.0, 2023-09-29 19:10:31.620
20.0, -50695.09752930373, -26163.83447215968, -43770.54944879407, -28535.712186779045, -11435.510091246379, -15058.280832562546, -187500.02235174447, -10510.013760329934, -15934.938601844146, 12495.362758083673, -26360.328657666287, -25245.7589204024, -350.6765187593125, -9025.030913952698, -23815.04610956265, -41000.76597938132, 0.154, 1.004, 0.152, 192.0, 0.0, 0.0, 0.0, 0.0, 0.0, 0.0, 0.0, 0.0, 0.0, 1.696032631620608E9, 0.0, 2023-09-29 19:10:31.620
22.0, -50689.01785481189, -26182.676992735505, -43788.14027168039, -28572.36904768575, -11459.180588624547, -15072.451838547211, -187500.02235174447, -10529.929164639612, -15936.503223956017, 12485.28212133433, -26304.04696512782, -25244.507222712902, -359.41605084133755, -9017.386617348984, -23823.875048622496, -41001.25771775934, 0.154, 1.004, 0.152, 192.0, 0.0, 0.0, 0.0, 0.0, 0.0, 0.0, 0.0, 0.0, 0.0, 1.696032631620611E9, 0.0, 2023-09-29 19:10:31.620
24.0, -50692.57178218029, -26176.21733858792, -43779.981884954206, -28537.232105402007, -11450.150483864605, -15060.001916885605, -187500.02235174447, -10522.016647102433, -15941.10768331381, 12472.318109550251, -26368.21882345901, -25245.28953376884, -361.1147834199409, -9032.854024512057, -23828.211287046826, -41010.48898821938, 0.154, 1.004, 0.152, 192.0, 0.0, 0.0, 0.0, 0.0, 0.0, 0.0, 0.0, 0.0, 0.0, 1.696032631620614E9, 0.0, 2023-09-29 19:10:31.620
26.0, -50677.93138956206, -26141.661541660018, -43795.02460897263, -28578.068742521853, -11465.528484049855, -15076.117524637883, -187500.02235174447, -10537.148778098677, -15935.00565707751, 12485.907970179078, -26294.614528967682, -25253.04558909483, -362.0312049426085, -9031.02118146672, -23838.627199963, -41005.50454920585, 0.154, 1.004, 0.152, 192.0, 0.0, 0.0, 0.0, 0.0, 0.0, 0.0, 0.0, 0.0, 0.0, 1.696032631620617E9, 0.0, 2023-09-29 19:10:31.620
28.0, -50690.04603505684, -26192.80233297376, -43783.446405344774, -28552.297181164886, -11453.5032455329, -15065.768666955075, -187500.02235174447, -10524.520042481428, -15930.803529119914, 12479.671833476048, -26384.60265214475, -25253.582030961756, -357.8514287294661, -9045.236890940296, -23832.413415004423, -41013.372363254115, 0.146, 1.002, 0.152, 192.0, 2.0, 72.0, 15.5, 40.0, 2.0, 96.0, 0.0, 0.0, 0.0, 1.69603263162062E9, 0.0, 2023-09-29 19:10:31.620
30.0, -50702.540660207356, -26110.726727333873, -43796.812748529046, -28573.218413975053, -11461.616928770176, -15078.263292105592, -187500.02235174447, -10536.791150187391, -15936.167947789187, 12485.818563201257, -26295.598005723718, -25260.555775231813, -369.11670793494085, -9031.535271589193, -23837.375502273502, -41005.59395618367, 0.146, 1.002, 0.152, 192.0, 0.0, 0.0, 0.0, 0.0, 0.0, 0.0, 0.0, 0.0, 0.0, 1.696032631679983E9, 0.0, 2023-09-29 19:10:31.679
32.0, -50692.214154269, -26206.05691743576, -43786.732111779704, -28562.578983614327, -11447.244757085415, -15066.394515799824, -187500.02235174447, -10521.815481402336, -15950.942450874145, 12463.958557123966, -26392.001079559457, -25253.202051306016, -363.1040886764632, -9039.425437381917, -23834.514478983223, -41014.80287489926, 0.146, 1.002, 0.152, 192.0, 0.0, 0.0, 0.0, 0.0, 0.0, 0.0, 0.0, 0.0, 0.0, 1.696032631679997E9, 0.0, 2023-09-29 19:10:31.679
34.0, -50694.09170080325, -26106.457544142908, -43797.170376440336, -28567.585774372314, -11457.660670001587, -15077.279815349559, -187500.02235174447, -10536.70174320957, -15928.166023274187, 12489.931284181033, -26309.232569841453, -25254.52080422888, -370.3013503910721, -9031.959954733844, -23829.351226014045, -41001.19066252597, 0.146, 1.002, 0.152, 192.0, 0.0, 0.0, 0.0, 0.0, 0.0, 0.0, 0.0, 0.0, 0.0, 1.69603263168E9, 0.0, 2023-09-29 19:10:31.680
36.0, -50670.3094447028, -26229.28037992482, -43781.926486721815, -28567.69753309459, -11449.59169025322, -15068.093248378427, -187500.02235174447, -10527.761045427447, -15944.303982770918, 12465.791400169303, -26392.44811444856, -25254.654914695613, -365.8980567333766, -9052.03182125471, -23830.871144637007, -41017.216863300426, 0.146, 1.002, 0.152, 192.0, 0.0, 0.0, 0.0, 0.0, 0.0, 0.0, 0.0, 0.0, 0.0, 1.696032631680004E9, 0.0, 2023-09-29 19:10:31.680
38.0, -50690.26955250139, -26110.190285466946, -43783.893440233885, -28558.64507659019, -11454.464370544478, -15076.855132204908, -187500.02235174447, -10540.032153133412, -15923.136880771743, 12499.162554641076, -26306.55036050682, -25248.016446592384, -358.49962931867, -9029.948297732866, -23824.746766656255, -40997.83790085768, 0.14200000000000002, 1.002, 0.154, 192.0, 2.0, 56.0, 15.5, 40.0, 2.0, 104.0, 0.0, 0.0, 0.0, 1.696032631680007E9, 0.0, 2023-09-29 19:10:31.680
40.0, -50695.745729892944, -26240.925638786037, -43777.83611748649, -28566.33407668282, -11454.777294966852, -15074.865826948384, -187500.02235174447, -10533.483092008006, -15946.315639771896, 12464.673812946536, -26386.0778672788, -25247.971743103477, -356.6891380177901, -9062.045402770687, -23834.693292938864, -41021.88837789159, 0.14200000000000002, 1.002, 0.154, 192.0, 0.0, 0.0, 0.0, 0.0, 0.0, 0.0, 0.0, 0.0, 0.0, 1.69603263168001E9, 0.0, 2023-09-29 19:10:31.680
42.0, -50682.58055240876, -26094.87934051506, -43782.820556500024, -28540.897791492676, -11459.180588624547, -15074.239978103637, -187500.02235174447, -10536.142949598188, -15916.476060924062, 12503.029406431844, -26305.87980817316, -25242.47321396747, -357.3149868625387, -9035.491530357782, -23830.066481836617, -40999.08959854717, 0.14200000000000002, 1.002, 0.154, 192.0, 0.0, 0.0, 0.0, 0.0, 0.0, 0.0, 0.0, 0.0, 0.0, 1.696032631680014E9, 0.0, 2023-09-29 19:10:31.680
44.0, -50675.405642438614, -26252.30267671379, -43777.791413997584, -28562.310762680863, -11455.69371648952, -15072.295376336024, -187500.02235174447, -10531.583193729306, -15941.554718202917, 12472.60868222817, -26373.98557352848, -25245.84832738022, -358.81255374104427, -9046.60034735207, -23842.158775586937, -41016.948642366966, 0.14200000000000002, 1.002, 0.154, 192.0, 0.0, 0.0, 0.0, 0.0, 0.0, 0.0, 0.0, 0.0, 0.0, 1.696032631680017E9, 0.0, 2023-09-29 19:10:31.680
46.0, -50677.97609305097, -26089.224349167867, -43779.46779483173, -28531.55476231036, -11460.588748525233, -15072.384783313846, -187500.02235174447, -10535.025362375423, -15914.86673532328, 12512.797118758812, -26305.05279362831, -25234.784213874846, -360.93596946429847, -9025.455597097349, -23832.167545815417, -40994.01575255582, 0.14200000000000002, 1.002, 0.154, 192.0, 0.0, 0.0, 0.0, 0.0, 0.0, 0.0, 0.0, 0.0, 0.0, 1.696032631739603E9, 0.0, 2023-09-29 19:10:31.739
48.0, -50657.010156751894, -26247.675865611538, -43773.6339895289, -28565.596469115793, -11457.973594423962, -15073.41296355879, -187500.02235174447, -10531.158510584655, -15934.312752999396, 12476.810810185769, -26366.207166458033, -25239.343969743728, -355.7503647506672, -9050.26603344274, -23835.185031316883, -41010.91367136403, 0.14200000000000002, 1.01, 0.156, 192.0, 2.0, 56.0, 15.5, 72.0, 2.0, 112.0, 0.0, 0.0, 0.0, 1.696032631739615E9, 0.0, 2023-09-29 19:10:31.739
50.0, -50672.74578484843, -26110.480858144863, -43765.29678884707, -28523.30696860635, -11453.704411232999, -15061.231262830648, -187500.02235174447, -10524.452987248062, -15920.007636548, 12501.017749430866, -26321.97306418098, -25231.498507439916, -349.6259867699131, -9026.349666875562, -23827.361920757525, -40990.05949378723, 0.14200000000000002, 1.01, 0.156, 192.0, 0.0, 0.0, 0.0, 0.0, 0.0, 0.0, 0.0, 0.0, 0.0, 1.696032631739619E9, 0.0, 2023-09-29 19:10:31.739
52.0, -50674.01983428238, -26262.830348352236, -43771.220001127724, -28565.41765516015, -11460.678155503054, -15077.928015938762, -187500.02235174447, -10544.860129935758, -15927.853098851812, 12481.772897454846, -26360.753340810938, -25235.968856330976, -352.91169320484323, -9052.478856143816, -23829.798260903153, -41002.5764706822, 0.14200000000000002, 1.01, 0.156, 192.0, 0.0, 0.0, 0.0, 0.0, 0.0, 0.0, 0.0, 0.0, 0.0, 1.696032631739622E9, 0.0, 2023-09-29 19:10:31.739
54.0, -50667.18020047906, -26115.77822158077, -43759.194762610765, -28519.417765071128, -11452.609175754687, -15071.244844346626, -187500.02235174447, -10551.677411994626, -15905.590761374327, 12509.198487901509, -26317.860343201202, -25237.37701623166, -351.45882981524824, -9035.044495468675, -23828.345397513556, -40994.999229311856, 0.14200000000000002, 1.01, 0.156, 192.0, 0.0, 0.0, 0.0, 0.0, 0.0, 0.0, 0.0, 0.0, 0.0, 1.696032631739625E9, 0.0, 2023-09-29 19:10:31.739
56.0, -50658.328909674754, -26248.078197011735, -43773.65634127335, -28575.99003028751, -11470.468219574479, -15091.696690523231, -187500.02235174447, -10571.838685493312, -15923.963895316589, 12495.80979297278, -26341.352026623732, -25247.301190769816, -353.5151903051365, -9063.811190582657, -23840.05771160814, -41016.389848755585, 0.14200000000000002, 1.01, 0.156, 192.0, 0.0, 0.0, 0.0, 0.0, 0.0, 0.0, 0.0, 0.0, 0.0, 1.696032631739628E9, 0.0, 2023-09-29 19:10:31.739
58.0, -50683.63108439816, -26139.761643381316, -43759.91001843334, -28525.251570373963, -11446.529501262845, -15073.770591470075, -187500.02235174447, -10551.23037710552, -15923.20393600511, 12482.935188166522, -26341.530840579373, -25241.355626744706, -343.7921814670779, -9044.812207795645, -23832.726339426797, -41006.957412595446, 0.134, 1.012, 0.146, 192.0, 2.0, 24.0, 15.5, 80.0, 2.0, 72.0, 0.0, 0.0, 0.0, 1.696032631739634E9, 0.0, 2023-09-29 19:10:31.739
60.0, -50676.99261629494, -26252.123862758144, -43768.984826682194, -28572.145530241196, -11461.326356092259, -15087.98630094365, -187500.02235174447, -10560.752220243481, -15934.782139632958, 12482.666967233059, -26340.994398712446, -25245.870679124677, -353.40343158286, -9061.419553925938, -23836.637894706477, -41011.763037653334, 0.134, 1.012, 0.146, 192.0, 0.0, 0.0, 0.0, 0.0, 0.0, 0.0, 0.0, 0.0, 0.0, 1.696032631799942E9, 0.0, 2023-09-29 19:10:31.799
62.0, -50676.858505828204, -26150.781053397783, -43751.84103868497, -28515.50620979145, -11445.747190206908, -15062.728829709153, -187500.02235174447, -10537.975792643523, -15921.14757551522, 12495.85449646169, -26350.248020916944, -25241.914420356086, -349.7600972366449, -9053.395277666483, -23826.66901667941, -40997.83790085768, 0.134, 1.012, 0.146, 192.0, 0.0, 0.0, 0.0, 0.0, 0.0, 0.0, 0.0, 0.0, 0.0, 1.696032631799953E9, 0.0, 2023-09-29 19:10:31.799
64.0, -50668.65541561311, -26230.08504272521, -43763.821573713016, -28566.803463316377, -11460.097010147216, -15079.60439677291, -187500.02235174447, -10548.011725903956, -15933.843366365834, 12484.298644578295, -26328.92445670658, -25239.008693576896, -350.0059664256533, -9055.853969556567, -23828.501859724744, -41001.86121485964, 0.134, 1.012, 0.146, 192.0, 0.0, 0.0, 0.0, 0.0, 0.0, 0.0, 0.0, 0.0, 0.0, 1.696032631799956E9, 0.0, 2023-09-29 19:10:31.799
66.0, -50666.08496500075, -26148.791748141262, -43753.8750474304, -28521.630587772204, -11455.023164155862, -15068.65204198981, -187500.02235174447, -10544.211929346553, -15925.930848828657, 12494.178115627541, -26354.02546572989, -25241.936772100544, -359.1701816523292, -9060.771353336735, -23832.346359771058, -41004.006982327344, 0.134, 1.012, 0.146, 192.0, 0.0, 0.0, 0.0, 0.0, 0.0, 0.0, 0.0, 0.0, 0.0, 1.69603263179996E9, 0.0, 2023-09-29 19:10:31.799
68.0, -50668.43189816856, -26207.80035350327, -43758.300692832556, -28565.26119294896, -11458.241815357425, -15073.301204836513, -187500.02235174447, -10546.871786936736, -15921.125223770765, 12491.697071993003, -26323.805907226313, -25241.80266163381, -352.28584436009464, -9074.003586054276, -23826.154926556937, -41003.20231952695, 0.136, 1.01, 0.148, 192.0, 2.0, 32.0, 15.5, 72.0, 2.0, 80.0, 0.0, 0.0, 0.0, 1.696032631799963E9, 0.0, 2023-09-29 19:10:31.799
70.0, -50669.14715399112, -26187.013231159835, -43751.148134606854, -28518.993081926477, -11439.198129081504, -15056.895024406318, -187500.02235174447, -10531.784359429403, -15923.472156938573, 12483.114002122165, -26375.1255124957, -25241.534440700347, -347.9272541913097, -9059.385545180505, -23816.923656096897, -40996.183871767986, 0.136, 1.01, 0.148, 192.0, 0.0, 0.0, 0.0, 0.0, 0.0, 0.0, 0.0, 0.0, 0.0, 1.696032631799966E9, 0.0, 2023-09-29 19:10:31.799
72.0, -50688.816689111794, -26183.056972391245, -43773.119899406425, -28561.863727791755, -11455.514902533878, -15080.431411317757, -187500.02235174447, -10551.90092943918, -15923.650970894216, 12491.764127226368, -26315.334596077755, -25248.307019270305, -353.35872809394937, -9057.709164346357, -23822.08690906607, -40994.90982233403, 0.136, 1.01, 0.148, 192.0, 0.0, 0.0, 0.0, 0.0, 0.0, 0.0, 0.0, 0.0, 0.0, 1.696032631799969E9, 0.0, 2023-09-29 19:10:31.799
74.0, -50677.17143025058, -26188.17552187151, -43758.85948644394, -28529.721919265023, -11440.963916893474, -15065.053411132505, -187500.02235174447, -10540.412132789152, -15931.161157031198, 12483.784554455824, -26389.095352780267, -25250.832766393756, -349.7600972366449, -9072.953054064878, -23826.132574812484, -41005.41514222803, 0.136, 1.01, 0.148, 192.0, 0.0, 0.0, 0.0, 0.0, 0.0, 0.0, 0.0, 0.0, 0.0, 1.696032631799973E9, 0.0, 2023-09-29 19:10:31.799
76.0, -50664.006252766405, -26161.778111669795, -43770.32593134951, -28557.818062045346, -11451.491588531922, -15078.062126405493, -187500.02235174447, -10547.22941484802, -15922.443976693628, 12507.56681055627, -26313.389994310142, -25249.67047568208, -347.2790536021058, -9056.770391079235, -23823.606827689033, -40994.708656633935, 0.136, 1.01, 0.148, 192.0, 0.0, 0.0, 0.0, 0.0, 0.0, 0.0, 0.0, 0.0, 0.0, 1.696032631860161E9, 0.0, 2023-09-29 19:10:31.860
78.0, -50671.42703192557, -26224.832382778215, -43757.317216076524, -28534.371082111727, -11442.059152371783, -15069.836684445942, -187500.02235174447, -10538.154606599166, -15919.068863280878, 12475.290891562807, -26391.911672581635, -25243.03200757885, -342.1158006329299, -9069.8908650745, -23821.014025332217, -41000.6765724035, 0.146, 1.006, 0.15, 192.0, 2.0, 72.0, 15.5, 56.0, 2.0, 88.0, 0.0, 0.0, 0.0, 1.696032631860171E9, 0.0, 2023-09-29 19:10:31.860
80.0, -50671.1588109921, -26156.145472067055, -43769.94595169377, -28557.08045447832, -11456.02899265635, -15083.113620652393, -187500.02235174447, -10553.0408684064, -15901.276874694453, 12494.222819116452, -26299.554264492308, -25243.61315293469, -346.78731522408907, -9054.646975355981, -23822.91392361092, -40993.88164208909, 0.146, 1.006, 0.15, 192.0, 0.0, 0.0, 0.0, 0.0, 0.0, 0.0, 0.0, 0.0, 0.0, 1.696032631860174E9, 0.0, 2023-09-29 19:10:31.860
82.0, -50668.67776735756, -26268.641801910617, -43756.73607072068, -28551.604277086768, -11442.237966327426, -15071.22249260217, -187500.02235174447, -10544.413095046652, -15922.48868018254, 12483.42692654454, -26387.843655090768, -25249.84928963772, -352.0623269155415, -9085.112403048564, -23830.044130092163, -41014.31113652124, 0.146, 1.006, 0.15, 192.0, 0.0, 0.0, 0.0, 0.0, 0.0, 0.0, 0.0, 0.0, 0.0, 1.696032631860178E9, 0.0, 2023-09-29 19:10:31.860
84.0, -50667.89545630163, -26162.962754125925, -43766.86141095894, -28545.099919450277, -11460.901672947606, -15085.259388120103, -187500.02235174447, -10560.483999310018, -15905.993092774523, 12518.273296150363, -26303.041136627333, -25235.52182144187, -334.7620767071339, -9051.808303810156, -23820.43287997638, -40994.50749093384, 0.146, 1.006, 0.15, 192.0, 0.0, 0.0, 0.0, 0.0, 0.0, 0.0, 0.0, 0.0, 0.0, 1.696032631860181E9, 0.0, 2023-09-29 19:10:31.860
86.0, -50664.09565974423, -26261.802168107293, -43761.89932368986, -28549.436157874607, -11454.911405433584, -15081.526646796066, -187500.02235174447, -10554.9407666851, -15921.52755517096, 12471.066411860755, -26376.824245074302, -25244.194298290528, -347.3014053465611, -9077.557513422671, -23837.688426695877, -41018.468560989924, 0.146, 1.006, 0.15, 192.0, 0.0, 0.0, 0.0, 0.0, 0.0, 0.0, 0.0, 0.0, 0.0, 1.696032631860184E9, 0.0, 2023-09-29 19:10:31.860
88.0, -50671.203514481014, -26128.78693685376, -43759.88766668888, -28535.332207123305, -11454.956108922495, -15084.968815442184, -187500.02235174447, -10552.571481772839, -15910.217572476575, 12495.94390343951, -26298.034345869346, -25243.724911656966, -342.1828558662958, -9051.674193343424, -23832.10049058205, -40995.58037466769, 0.15, 1.012, 0.152, 192.0, 2.0, 88.0, 15.5, 80.0, 2.0, 96.0, 0.0, 0.0, 0.0, 1.696032631860187E9, 0.0, 2023-09-29 19:10:31.860
90.0, -50665.59322662273, -26282.49988347291, -43755.57378000901, -28552.990085243, -11445.009582639883, -15085.594664286931, -187500.02235174447, -10543.295507823887, -15928.121319785276, 12493.440508060517, -26378.83590207528, -25239.81335637729, -335.1867598517847, -9060.570187636637, -23828.65832193593, -41010.62309868611, 0.15, 1.012, 0.152, 192.0, 0.0, 0.0, 0.0, 0.0, 0.0, 0.0, 0.0, 0.0, 0.0, 1.696032631920949E9, 0.0, 2023-09-29 19:10:31.920
92.0, -50673.6622063711, -26136.721806135396, -43768.11310864844, -28534.236971644998, -11447.669440230065, -15086.824010231974, -187500.02235174447, -10535.405342031163, -15918.308903969397, 12505.66691227757, -26305.030441883857, -25244.10489131271, -319.18291082178484, -9031.378809378006, -23823.42801373339, -41001.145959037065, 0.15, 1.012, 0.152, 192.0, 0.0, 0.0, 0.0, 0.0, 0.0, 0.0, 0.0, 0.0, 0.0, 1.696032631920961E9, 0.0, 2023-09-29 19:10:31.920
94.0, -50673.52809590437, -26289.96536612098, -43778.841945986984, -28571.072646507342, -11449.189358853026, -15092.970739957183, -187500.02235174447, -10535.114769353244, -15944.974535104579, 12491.585313270727, -26375.84076831827, -25245.89303086913, -315.74074217566755, -9045.750981062769, -23833.5757057161, -41024.59293897068, 0.15, 1.012, 0.152, 192.0, 0.0, 0.0, 0.0, 0.0, 0.0, 0.0, 0.0, 0.0, 0.0, 1.696032631920965E9, 0.0, 2023-09-29 19:10:31.920
96.0, -50654.05972648379, -26132.474974688885, -43783.51346057814, -28533.07468093332, -11444.942527406518, -15074.999937415116, -187500.02235174447, -10525.771740170925, -15915.336121956841, 12514.674665293058, -26307.91381691859, -25246.89885936962, -307.87292812739946, -9008.088291655577, -23828.971246358306, -41005.43749397248, 0.15, 1.012, 0.152, 192.0, 0.0, 0.0, 0.0, 0.0, 0.0, 0.0, 0.0, 0.0, 0.0, 1.696032631920968E9, 0.0, 2023-09-29 19:10:31.920
98.0, -50665.615578367186, -26283.05867708429, -43796.00808572866, -28574.492463409006, -11450.038725142327, -15074.798771715019, -187500.02235174447, -10524.922373881624, -15937.911383856701, 12487.718461479959, -26357.35587565373, -25244.9095541131, -311.8291868959888, -9012.648047524459, -23837.017874362216, -41017.90976737854, 0.152, 1.01, 0.16, 192.0, 2.0, 96.0, 15.5, 72.0, 2.5, 0.0, 0.0, 0.0, 0.0, 1.696032631920971E9, 0.0, 2023-09-29 19:10:31.920
100.0, -50674.288055215846, -26114.325358191178, -43797.84092877399, -28533.8346402448, -11439.443998270512, -15055.17394008326, -187500.02235174447, -10504.425824216107, -15916.051377779411, 12522.095444452221, -26302.88467441615, -25232.61609466268, -308.5211287166034, -8977.041718607154, -23826.356092257036, -40995.37920896759, 0.152, 1.01, 0.16, 192.0, 0.0, 0.0, 0.0, 0.0, 0.0, 0.0, 0.0, 0.0, 0.0, 1.696032631920974E9, 0.0, 2023-09-29 19:10:31.920
102.0, -50668.610712124195, -26261.77981636284, -43811.92252778084, -28588.797579860402, -11444.74136170642, -15070.060201890494, -187500.02235174447, -10515.93697261059, -15932.703427398614, 12514.629961804148, -26341.776709768383, -25240.439205222036, -312.9914776076648, -8987.368224545506, -23835.989694117274, -41014.154674310055, 0.152, 1.01, 0.16, 192.0, 0.0, 0.0, 0.0, 0.0, 0.0, 0.0, 0.0, 0.0, 0.0, 1.696032631920978E9, 0.0, 2023-09-29 19:10:31.920
104.0, -50669.102450502214, -26096.958052749404, -43810.179091713326, -28548.475032863025, -11433.386675523125, -15053.877538904851, -187500.02235174447, -10504.425824216107, -15925.528517428462, 12512.372435614161, -26308.606720996708, -25240.305094755306, -304.9895530926649, -8972.951349371833, -23832.61458070452, -41001.7271043929, 0.152, 1.01, 0.16, 192.0, 0.0, 0.0, 0.0, 0.0, 0.0, 0.0, 0.0, 0.0, 0.0, 1.696032631920981E9, 0.0, 2023-09-29 19:10:31.920
106.0, -50653.79150555033, -26265.736075131426, -43809.19561495729, -28604.75672540149, -11430.570355721755, -15050.234204558636, -187500.02235174447, -10503.844678860269, -15936.190299533642, 12501.867115720168, -26333.215991642, -25233.97955107445, -306.24125078216207, -8987.278817567685, -23836.973170873305, -41017.06040108924, 0.152, 1.01, 0.16, 192.0, 0.0, 0.0, 0.0, 0.0, 0.0, 0.0, 0.0, 0.0, 0.0, 1.696032631980768E9, 0.0, 2023-09-29 19:10:31.980
108.0, -50676.88085757266, -26142.421500971497, -43808.837987046005, -28559.717960324047, -11429.54217547681, -15042.656963188287, -187500.02235174447, -10500.22369625851, -15919.135918514243, 12519.100310695208, -26331.45020383003, -25232.772556873868, -305.9730298486984, -8959.607357932015, -23823.4727172223, -41000.25188925885, 0.15, 1.004, 0.162, 192.0, 2.0, 88.0, 15.5, 48.0, 2.5, 8.0, 0.0, 0.0, 0.0, 1.696032631980777E9, 0.0, 2023-09-29 19:10:31.980
110.0, -50669.08009875776, -26261.042208795814, -43820.34913544049, -28619.57593197536, -11435.063056357272, -15051.083570847937, -187500.02235174447, -10504.626989916205, -15924.030950549955, 12515.255810648896, -26325.862267716202, -25241.355626744706, -312.0527043405419, -8981.19914307584, -23831.854621393042, -41013.729991165404, 0.15, 1.004, 0.162, 192.0, 0.0, 0.0, 0.0, 0.0, 0.0, 0.0, 0.0, 0.0, 0.0, 1.696032631980781E9, 0.0, 2023-09-29 19:10:31.980
112.0, -50677.75257560642, -26150.959867353424, -43816.90696679437, -28568.94923078409, -11426.301172530792, -15041.897003876808, -187500.02235174447, -10496.088623534277, -15919.806470847901, 12506.471575077961, -26335.764090509903, -25230.649141150614, -308.14114906086314, -8964.189465545353, -23821.639874176966, -41003.44818871596, 0.15, 1.004, 0.162, 192.0, 0.0, 0.0, 0.0, 0.0, 0.0, 0.0, 0.0, 0.0, 0.0, 1.696032631980784E9, 0.0, 2023-09-29 19:10:31.980
114.0, -50658.28420618585, -26243.160813231567, -43820.90792905187, -28619.37476627526, -11430.905631888585, -15048.960155124683, -187500.02235174447, -10503.978789327, -15929.48477619705, 12503.923476210055, -26305.54453200633, -25223.965969558474, -311.5162624736145, -8961.350793999529, -23824.232676533782, -41010.46663647493, 0.15, 1.004, 0.162, 192.0, 0.0, 0.0, 0.0, 0.0, 0.0, 0.0, 0.0, 0.0, 0.0, 1.696032631980787E9, 0.0, 2023-09-29 19:10:31.980
116.0, -50682.06646228629, -26171.769341441315, -43819.00803077317, -28569.08334125082, -11427.575221964744, -15033.582154939433, -187500.02235174447, -10492.802917099347, -15919.046511536422, 12510.137261168631, -26339.608590556218, -25219.36151020068, -310.89041362886593, -8965.083535323565, -23816.297807252147, -40996.809720612735, 0.15, 1.004, 0.162, 192.0, 0.0, 0.0, 0.0, 0.0, 0.0, 0.0, 0.0, 0.0, 0.0, 1.696032631980791E9, 0.0, 2023-09-29 19:10:31.980
118.0, -50661.56991262078, -26207.24155989189, -43832.50848442417, -28617.608978463293, -11446.574204751756, -15050.435370258734, -187500.02235174447, -10505.386949227686, -15928.635409907749, 12506.583333800238, -26291.9546713775, -25228.883353338642, -331.3422598054719, -8968.078669080576, -23832.01108360423, -41003.04585731577, 0.15, 0.986, 0.166, 192.0, 2.0, 88.0, 15.0, 104.0, 2.5, 24.0, 0.0, 0.0, 0.0, 1.696032631980794E9, 0.0, 2023-09-29 19:10:31.980
120.0, -50665.01208126689, -26194.590472530184, -43819.455065662274, -28580.75095185649, -11433.319620289758, -15040.958230609684, -187500.02235174447, -10498.234391001986, -15914.039720778434, 12509.71257802398, -26356.439454131065, -25221.79785034631, -331.0963906164635, -8966.29052952415, -23829.127708569493, -41007.04681957326, 0.15, 0.986, 0.166, 192.0, 0.0, 0.0, 0.0, 0.0, 0.0, 0.0, 0.0, 0.0, 0.0, 1.696032632039693E9, 0.0, 2023-09-29 19:10:32.039
122.0, -50648.87412177016, -26199.016117932337, -43837.917606582356, -28629.254237324505, -11455.738419978432, -15068.160303611792, -187500.02235174447, -10526.755216926958, -15900.986302016534, 12503.543496554315, -26295.329784790254, -25232.236115006937, -328.4812365151926, -8970.760878415213, -23843.276362809702, -41018.826188901214, 0.15, 0.986, 0.166, 192.0, 0.0, 0.0, 0.0, 0.0, 0.0, 0.0, 0.0, 0.0, 0.0, 1.69603263203972E9, 0.0, 2023-09-29 19:10:32.039
124.0, -50675.24918022742, -26215.511705340352, -43804.94878351078, -28573.33017269733, -11424.11070157417, -15036.912564863273, -187500.02235174447, -10494.03226304439, -15929.350665730319, 12493.216990615963, -26366.453035647042, -25226.268199237373, -326.2237103252066, -8971.409079004417, -23836.05674935064, -41020.21199705744, 0.15, 0.986, 0.166, 192.0, 0.0, 0.0, 0.0, 0.0, 0.0, 0.0, 0.0, 0.0, 0.0, 1.696032632039724E9, 0.0, 2023-09-29 19:10:32.039
126.0, -50663.00042426591, -26146.89184986256, -43821.220853474246, -28602.14157130022, -11440.203957581993, -15058.370239540369, -187500.02235174447, -10519.60265870126, -15930.602363419815, 12517.558040327793, -26277.180168292543, -25226.312902726284, -335.29851857406123, -8956.567520686092, -23829.060653336128, -40999.55898518074, 0.15, 0.986, 0.166, 192.0, 0.0, 0.0, 0.0, 0.0, 0.0, 0.0, 0.0, 0.0, 0.0, 1.696032632039727E9, 0.0, 2023-09-29 19:10:32.039
128.0, -50667.716642345986, -26219.19974317548, -43798.04209447409, -28576.213547732063, -11420.82499513924, -15041.852300387896, -187500.02235174447, -10499.150812524655, -15936.413816978196, 12511.411310602583, -26364.843710046258, -25225.642350392623, -335.00794589614225, -8971.409079004417, -23830.200592303347, -41018.5803197122, 0.14, 1.0, 0.164, 192.0, 2.0, 48.0, 15.5, 32.0, 2.5, 16.0, 0.0, 0.0, 0.0, 1.696032632039738E9, 0.0, 2023-09-29 19:10:32.039
130.0, -50662.57574112126, -26157.50892847883, -43803.09358872099, -28580.929765812132, -11436.672381958055, -15052.983469126639, -187500.02235174447, -10508.426786473607, -15915.269066723475, 12534.567717858281, -26283.170435806565, -25220.210876489982, -327.11778010341885, -8956.567520686092, -23822.198667788347, -40998.419046213516, 0.14, 1.0, 0.164, 192.0, 0.0, 0.0, 0.0, 0.0, 0.0, 0.0, 0.0, 0.0, 0.0, 1.696032632039742E9, 0.0, 2023-09-29 19:10:32.039
132.0, -50647.845941525215, -26262.428016952043, -43794.37640838342, -28574.26894596445, -11429.475120243445, -15050.83770165893, -187500.02235174447, -10508.873821362713, -15930.445901208628, 12511.23249664694, -26371.526881638394, -25221.306111968293, -323.8991289018546, -8969.933863870367, -23834.737996427775, -41016.21103479994, 0.14, 1.0, 0.164, 192.0, 0.0, 0.0, 0.0, 0.0, 0.0, 0.0, 0.0, 0.0, 0.0, 1.696032632039745E9, 0.0, 2023-09-29 19:10:32.039
134.0, -50655.84786604022, -26130.284503732266, -43810.35790566896, -28579.812178589367, -11442.461483771978, -15060.136027352337, -187500.02235174447, -10517.74746391147, -15912.765671344481, 12549.923366299077, -26276.91194735908, -25228.391614960627, -333.6221377399132, -8961.596663188537, -23836.593191217566, -41003.4258369715, 0.14, 1.0, 0.164, 192.0, 0.0, 0.0, 0.0, 0.0, 0.0, 0.0, 0.0, 0.0, 0.0, 1.696032632039748E9, 0.0, 2023-09-29 19:10:32.039
136.0, -50659.69236608653, -26273.179206035045, -43789.21315541425, -28583.12023676875, -11424.803605652287, -15045.942669623217, -187500.02235174447, -10500.000178813956, -15933.888069854745, 12505.108118666187, -26375.03610551788, -25229.352739972204, -332.39279179487136, -8975.63355870647, -23841.44351976437, -41024.16825582603, 0.14, 1.0, 0.164, 192.0, 0.0, 0.0, 0.0, 0.0, 0.0, 0.0, 0.0, 0.0, 0.0, 1.696032632099932E9, 0.0, 2023-09-29 19:10:32.099
138.0, -50667.40371792361, -26143.807309127726, -43789.86135600345, -28559.13681496821, -11426.703503930987, -15046.188538812226, -187500.02235174447, -10491.238294987475, -15910.619903876772, 12516.28399089384, -26289.2054068095, -25220.635559634633, -328.6600504708351, -8942.374162956972, -23820.388176487468, -40995.53567117878, 0.148, 1.008, 0.156, 192.0, 2.0, 80.0, 15.5, 64.0, 2.0, 112.0, 0.0, 0.0, 0.0, 1.696032632099943E9, 0.0, 2023-09-29 19:10:32.099
140.0, -50665.481467900456, -26279.63886018263, -43795.38223688391, -28580.125103011742, -11432.224384811449, -15056.4032860283, -187500.02235174447, -10498.45790844654, -15936.816148378392, 12501.934170953533, -26362.429721645087, -25229.28568473884, -331.23050108319535, -8972.079631338076, -23829.127708569493, -41020.234348801896, 0.148, 1.008, 0.156, 192.0, 0.0, 0.0, 0.0, 0.0, 0.0, 0.0, 0.0, 0.0, 0.0, 1.696032632099948E9, 0.0, 2023-09-29 19:10:32.099
142.0, -50656.317252673776, -26114.75004133583, -43807.1392544674, -28554.442948632593, -11438.147597092104, -15058.88432966284, -187500.02235174447, -10507.80093762886, -15914.15147950071, 12537.786369059846, -26292.289947544334, -25232.504335940404, -335.5667395075249, -8964.25652077872, -23830.692330681366, -41008.09735156266, 0.148, 1.008, 0.156, 192.0, 0.0, 0.0, 0.0, 0.0, 0.0, 0.0, 0.0, 0.0, 0.0, 1.696032632099952E9, 0.0, 2023-09-29 19:10:32.099
144.0, -50656.74193581843, -26253.91200231457, -43809.79911205758, -28588.149379271195, -11439.779274437342, -15067.959137911696, -187500.02235174447, -10512.785376642392, -15939.520709457483, 12511.187793158031, -26358.138186709668, -25236.505298197902, -337.44428604177074, -8986.25063732274, -23837.219040062315, -41029.15269483956, 0.148, 1.008, 0.156, 192.0, 0.0, 0.0, 0.0, 0.0, 0.0, 0.0, 0.0, 0.0, 0.0, 1.696032632099957E9, 0.0, 2023-09-29 19:10:32.099
146.0, -50673.50574415991, -26089.11259044559, -43811.52019638064, -28561.55080336938, -11439.399294781602, -15066.014536144083, -187500.02235174447, -10515.668751677127, -15910.284627709942, 12523.794177030824, -26303.041136627333, -25239.589838932734, -346.273225101617, -8974.985358117267, -23837.375502273502, -41015.339316766185, 0.148, 1.008, 0.156, 192.0, 0.0, 0.0, 0.0, 0.0, 0.0, 0.0, 0.0, 0.0, 0.0, 1.696032632099961E9, 0.0, 2023-09-29 19:10:32.099
148.0, -50659.1559242196, -26280.979964849947, -43802.60185034297, -28600.688707910624, -11440.002791881894, -15064.986355899138, -187500.02235174447, -10514.685274921094, -15935.29622975543, 12480.454144531983, -26363.63671584567, -25228.9057050831, -340.8641029434327, -8992.643236236958, -23839.18599357438, -41028.124514594616, 0.148, 1.002, 0.146, 192.0, 2.0, 80.0, 15.5, 40.0, 2.0, 72.0, 0.0, 0.0, 0.0, 1.696032632099965E9, 0.0, 2023-09-29 19:10:32.099
150.0, -50658.84299979723, -26124.115422262603, -43792.61062057145, -28551.850146275778, -11436.493568002412, -15056.69385870622, -187500.02235174447, -10507.26449576193, -15912.430395177651, 12511.344255369218, -26314.52993327736, -25229.151574272106, -331.92340516130986, -8973.197218560841, -23832.5251737267, -41004.11874104962, 0.148, 1.002, 0.146, 192.0, 0.0, 0.0, 0.0, 0.0, 0.0, 0.0, 0.0, 0.0, 0.0, 1.696032632160158E9, 0.0, 2023-09-29 19:10:32.160
152.0, -50659.02181375287, -26262.986810563423, -43807.83215854552, -28602.56625444487, -11446.93183266304, -15069.434353045745, -187500.02235174447, -10520.496728479473, -15933.753959388014, 12515.792252515825, -26341.821413257294, -25227.743414371424, -338.9865564091869, -8990.475117024795, -23839.275400552204, -41021.03901160229, 0.148, 1.002, 0.146, 192.0, 0.0, 0.0, 0.0, 0.0, 0.0, 0.0, 0.0, 0.0, 0.0, 1.696032632160171E9, 0.0, 2023-09-29 19:10:32.160
154.0, -50670.95764529201, -26129.099861276136, -43805.57463235553, -28554.957038755067, -11438.192300581015, -15055.50921625009, -187500.02235174447, -10512.248934775465, -15918.800642347414, 12517.62509556116, -26329.080918917767, -25234.963027830487, -340.2382540986841, -8984.864829166512, -23837.017874362216, -41012.54534870927, 0.148, 1.002, 0.146, 192.0, 0.0, 0.0, 0.0, 0.0, 0.0, 0.0, 0.0, 0.0, 0.0, 1.696032632160176E9, 0.0, 2023-09-29 19:10:32.160
156.0, -50673.55044764882, -26255.610734893173, -43813.107170236966, -28605.159056801687, -11445.702486717999, -15071.155437368803, -187500.02235174447, -10520.608487201749, -15938.514880956995, 12495.921551695055, -26341.08380569027, -25239.500431954915, -341.28878608808355, -8987.390576289961, -23841.376464531, -41020.4802179909, 0.148, 1.002, 0.146, 192.0, 0.0, 0.0, 0.0, 0.0, 0.0, 0.0, 0.0, 0.0, 0.0, 1.696032632160181E9, 0.0, 2023-09-29 19:10:32.160
158.0, -50674.489220915944, -26140.70041664844, -43805.61933584444, -28552.967733498543, -11431.553832477788, -15052.22350981516, -187500.02235174447, -10504.850507360758, -15920.208802248098, 12518.80973801729, -26347.521108093395, -25240.975647088962, -333.5774342510026, -8980.05920410862, -23831.474641737303, -41007.717371906925, 0.148, 1.006, 0.148, 192.0, 2.0, 80.0, 15.5, 56.0, 2.0, 80.0, 0.0, 0.0, 0.0, 1.696032632160186E9, 0.0, 2023-09-29 19:10:32.160
160.0, -50672.45521217051, -26229.05686248027, -43818.829216817525, -28604.667318423668, -11448.183530352537, -15069.03202164555, -187500.02235174447, -10513.36652199823, -15932.323447742874, 12504.705787265992, -26331.383148596666, -25248.508184970404, -347.6143297689354, -8991.458593780828, -23839.43186276339, -41016.90393887806, 0.148, 1.006, 0.148, 192.0, 0.0, 0.0, 0.0, 0.0, 0.0, 0.0, 0.0, 0.0, 0.0, 1.696032632160189E9, 0.0, 2023-09-29 19:10:32.160
162.0, -50690.18014552357, -26121.88024781707, -43809.48618763521, -28547.826832273822, -11438.080541858739, -15058.616108729377, -187500.02235174447, -10503.867030604724, -15933.306924498907, 12500.905990708588, -26350.002151727935, -25243.747263401423, -339.43359129829304, -8975.298282539641, -23835.028569105696, -41004.856348616646, 0.148, 1.006, 0.148, 192.0, 0.0, 0.0, 0.0, 0.0, 0.0, 0.0, 0.0, 0.0, 0.0, 1.696032632160193E9, 0.0, 2023-09-29 19:10:32.160
164.0, -50663.33570043275, -26186.387382315086, -43815.61056561596, -28593.446742707103, -11446.5518530073, -15061.79005644203, -187500.02235174447, -10503.665864904628, -15943.521671714983, 12491.18298187053, -26321.34721533623, -25245.155423302105, -343.0098704111422, -8978.807506419123, -23839.543621485667, -41010.511339963836, 0.148, 1.006, 0.148, 192.0, 0.0, 0.0, 0.0, 0.0, 0.0, 0.0, 0.0, 0.0, 0.0, 1.696032632160197E9, 0.0, 2023-09-29 19:10:32.160
166.0, -50677.014968039395, -26147.98708534087, -43798.422074129834, -28543.959980483054, -11429.341009776714, -15042.433445743734, -187500.02235174447, -10482.431707672085, -15925.237944750543, 12505.756319255392, -26365.536614124372, -25237.42171972057, -335.5220360186143, -8972.951349371833, -23823.785641644674, -40997.05558980174, 0.148, 1.006, 0.148, 192.0, 0.0, 0.0, 0.0, 0.0, 0.0, 0.0, 0.0, 0.0, 0.0, 1.696032632220401E9, 0.0, 2023-09-29 19:10:32.220
168.0, -50659.91588353108, -26204.492295323886, -43804.88172827742, -28588.46230369357, -11439.958088392985, -15054.54809123851, -187500.02235174447, -10495.686292134082, -15929.305962241408, 12524.978819486954, -26317.68152924556, -25233.398405718614, -336.28199533009473, -8969.665642936903, -23824.90322886744, -41001.03420031479, 0.14, 1.014, 0.154, 192.0, 2.0, 48.0, 15.5, 88.0, 2.0, 104.0, 0.0, 0.0, 0.0, 1.696032632220412E9, 0.0, 2023-09-29 19:10:32.220
170.0, -50662.59809286572, -26187.840245704683, -43790.82248101503, -28550.50904160846, -11425.87648938614, -15042.075817832449, -187500.02235174447, -10486.343262951763, -15932.166985531687, 12527.079883465754, -26361.69211407806, -25230.76089987289, -330.694059216268, -8968.078669080576, -23820.589342187566, -41004.2304997719, 0.14, 1.014, 0.154, 192.0, 0.0, 0.0, 0.0, 0.0, 0.0, 0.0, 0.0, 0.0, 0.0, 1.696032632220415E9, 0.0, 2023-09-29 19:10:32.220
172.0, -50653.41152589459, -26156.436044744976, -43807.42982714532, -28582.829664090834, -11442.573242494254, -15056.537396495032, -187500.02235174447, -10499.821364858313, -15924.969723817077, 12518.116833939175, -26288.892482387124, -25231.431452206547, -337.75721046414503, -8965.284701023664, -23825.037339334172, -41001.3247729927, 0.14, 1.014, 0.154, 192.0, 0.0, 0.0, 0.0, 0.0, 0.0, 0.0, 0.0, 0.0, 0.0, 1.696032632220419E9, 0.0, 2023-09-29 19:10:32.220
174.0, -50679.31719771829, -26206.90628372506, -43791.89536474888, -28559.36033241276, -11425.295344030303, -15037.627820685842, -187500.02235174447, -10486.164448996122, -15930.088273297344, 12498.983740685433, -26366.475387391496, -25225.262370736884, -330.1352656048853, -8965.642328934948, -23823.04803407765, -41005.01281082783, 0.14, 1.014, 0.154, 192.0, 0.0, 0.0, 0.0, 0.0, 0.0, 0.0, 0.0, 0.0, 0.0, 1.696032632220422E9, 0.0, 2023-09-29 19:10:32.220
176.0, -50677.41729943959, -26152.99387609886, -43808.636821345906, -28588.32819322684, -11440.248661070904, -15057.587928484432, -187500.02235174447, -10508.963228340535, -15930.20003201962, 12523.660066564093, -26290.92649113256, -25227.296379482315, -332.5716057505138, -8956.276948008173, -23823.204496288836, -40992.339371721675, 0.14, 1.014, 0.154, 192.0, 0.0, 0.0, 0.0, 0.0, 0.0, 0.0, 0.0, 0.0, 0.0, 1.696032632220425E9, 0.0, 2023-09-29 19:10:32.220
178.0, -50671.3599766922, -26220.451440864974, -43797.21507992924, -28573.75485584198, -11426.189413808515, -15045.11565507837, -187500.02235174447, -10501.520097436918, -15945.667439182693, 12508.706749523491, -26372.108026994232, -25230.000940561407, -336.77373370811154, -8979.321596541595, -23829.798260903153, -41007.94088935148, 0.134, 1.012, 0.154, 192.0, 2.0, 24.0, 15.5, 80.0, 2.0, 104.0, 0.0, 0.0, 0.0, 1.696032632220428E9, 0.0, 2023-09-29 19:10:32.220
180.0, -50653.098601472215, -26135.000721812336, -43809.77676031313, -28576.32530645434, -11432.961992378474, -15049.518948736066, -187500.02235174447, -10510.818423130326, -15917.660703380192, 12533.651296335614, -26295.62035746817, -25228.771594616366, -340.17119886531816, -8971.051451093132, -23823.495068966757, -40988.561926908726, 0.134, 1.012, 0.154, 192.0, 0.0, 0.0, 0.0, 0.0, 0.0, 0.0, 0.0, 0.0, 0.0, 1.696032632280643E9, 0.0, 2023-09-29 19:10:32.280
182.0, -50671.471735414474, -26232.789603804304, -43806.893385278396, -28569.955059284577, -11433.274916800847, -15045.987373112128, -187500.02235174447, -10506.0798533058, -15943.72283741508, 12501.084804664231, -26380.60168988725, -25221.08259452374, -353.3810798384047, -8969.240959792252, -23830.804089403642, -41002.21884277092, 0.134, 1.012, 0.154, 192.0, 0.0, 0.0, 0.0, 0.0, 0.0, 0.0, 0.0, 0.0, 0.0, 1.696032632280653E9, 0.0, 2023-09-29 19:10:32.280
184.0, -50663.02277601037, -26108.02216625478, -43806.80397830057, -28561.37198941374, -11439.55575699279, -15046.255594045591, -187500.02235174447, -10506.325722494808, -15914.978494045556, 12527.683380566048, -26282.47753172845, -25214.578236887246, -343.59101576698015, -8947.470360692783, -23826.780775401687, -40985.745607107354, 0.134, 1.012, 0.154, 192.0, 0.0, 0.0, 0.0, 0.0, 0.0, 0.0, 0.0, 0.0, 0.0, 1.696032632280656E9, 0.0, 2023-09-29 19:10:32.280
186.0, -50665.190895222535, -26239.204554462976, -43795.60575432846, -28569.239803462006, -11431.777349922342, -15046.255594045591, -187500.02235174447, -10500.067234047323, -15938.224308279076, 12504.772842499357, -26366.765960069413, -25207.805658317287, -340.08179188749693, -8970.604416204025, -23825.104394567537, -41000.654220659046, 0.134, 1.012, 0.154, 192.0, 0.0, 0.0, 0.0, 0.0, 0.0, 0.0, 0.0, 0.0, 0.0, 1.69603263228066E9, 0.0, 2023-09-29 19:10:32.280
188.0, -50661.94989227652, -26079.00960195179, -43804.54645211058, -28556.164032955654, -11439.64516397061, -15052.245861559613, -187500.02235174447, -10509.633780674194, -15915.559639401394, 12538.613383604692, -26281.53875846133, -25215.09232700972, -350.9447396927762, -8963.25069227823, -23824.411490489423, -40981.63288612758, 0.14400000000000002, 1.014, 0.158, 192.0, 2.0, 64.0, 15.5, 88.0, 2.0, 120.0, 0.0, 0.0, 0.0, 1.696032632280663E9, 0.0, 2023-09-29 19:10:32.280
190.0, -50663.64862485512, -26257.1977087495, -43790.50955659265, -28576.347658198796, -11433.16315807857, -15043.148701566304, -187500.02235174447, -10498.41320495763, -15947.544985716939, 12512.595953058715, -26371.817454316315, -25217.7521845999, -346.9661291797315, -8990.16219260242, -23827.697196924353, -41003.53759569378, 0.14400000000000002, 1.014, 0.158, 192.0, 0.0, 0.0, 0.0, 0.0, 0.0, 0.0, 0.0, 0.0, 0.0, 1.696032632280666E9, 0.0, 2023-09-29 19:10:32.280
192.0, -50671.02470052537, -26090.610157324096, -43791.87301300443, -28541.65775080416, -11433.16315807857, -15043.327515521947, -187500.02235174447, -10498.279094490897, -15914.129127756254, 12521.536650840837, -26289.943014376524, -25213.348890942205, -342.1158006329299, -8963.474209722783, -23814.599074673544, -40973.876830801586, 0.14400000000000002, 1.014, 0.158, 192.0, 0.0, 0.0, 0.0, 0.0, 0.0, 0.0, 0.0, 0.0, 0.0, 1.69603263228067E9, 0.0, 2023-09-29 19:10:32.280
194.0, -50655.91492127359, -26250.559240646275, -43797.57270784053, -28579.99099254501, -11434.325448790247, -15052.961117382183, -187500.02235174447, -10505.096376549767, -15933.463386710095, 12497.821449973757, -26353.77959654088, -25215.919341554563, -351.19060888178456, -8975.432393006373, -23821.371653243503, -40996.13916827908, 0.14400000000000002, 1.014, 0.158, 192.0, 0.0, 0.0, 0.0, 0.0, 0.0, 0.0, 0.0, 0.0, 0.0, 1.696032632280673E9, 0.0, 2023-09-29 19:10:32.280
196.0, -50671.65054937012, -26083.63641305404, -43804.25587943267, -28542.730634538013, -11440.338068048724, -15048.848396402407, -187500.02235174447, -10503.732920137993, -15915.38082544575, 12527.99630498842, -26300.1577615926, -25214.868809565167, -351.6152920264354, -8963.585968445059, -23821.058728821128, -40985.36562745162, 0.14400000000000002, 1.014, 0.158, 192.0, 0.0, 0.0, 0.0, 0.0, 0.0, 0.0, 0.0, 0.0, 0.0, 1.696032632339961E9, 0.0, 2023-09-29 19:10:32.339
198.0, -50667.291959201335, -26242.154984731078, -43801.12663520892, -28586.47299843705, -11440.852158171196, -15052.73759993763, -187500.02235174447, -10504.761100382937, -15943.476968226072, 12491.741775481913, -26348.88456450517, -25222.155478257595, -349.6036350254578, -8989.715157713314, -23830.245295792258, -41006.7785986398, 0.146, 1.014, 0.158, 192.0, 2.0, 72.0, 15.5, 88.0, 2.0, 120.0, 0.0, 0.0, 0.0, 1.696032632339979E9, 0.0, 2023-09-29 19:10:32.339
200.0, -50658.66418584159, -26113.565398879695, -43796.23160317321, -28534.974579212023, -11433.185509823026, -15038.991277097617, -187500.02235174447, -10493.294655477364, -15917.928924313657, 12538.412217904595, -26322.241285114444, -25213.61711187567, -341.93698667728745, -8969.017442347698, -23813.257970006227, -40981.31996170521, 0.146, 1.014, 0.158, 192.0, 0.0, 0.0, 0.0, 0.0, 0.0, 0.0, 0.0, 0.0, 0.0, 1.696032632339982E9, 0.0, 2023-09-29 19:10:32.339
202.0, -50648.87412177016, -26259.47758668394, -43800.54548985309, -28578.8957570667, -11436.068884857761, -15053.676373204753, -187500.02235174447, -10504.403472471651, -15926.48964244004, 12507.700921023003, -26340.748529523436, -25217.08163226624, -352.531713549103, -8988.77638444619, -23819.80703113163, -40990.998267054354, 0.146, 1.014, 0.158, 192.0, 0.0, 0.0, 0.0, 0.0, 0.0, 0.0, 0.0, 0.0, 0.0, 1.696032632339986E9, 0.0, 2023-09-29 19:10:32.339
204.0, -50658.775944563866, -26137.481765446875, -43794.2870014056, -28523.396375584172, -11429.07278884325, -15050.055390602995, -187500.02235174447, -10502.213001515032, -15912.765671344481, 12514.115871681675, -26324.65527351562, -25206.822181561256, -350.16242863684045, -8970.045622592643, -23810.866333349506, -40979.956505293434, 0.146, 1.014, 0.158, 192.0, 0.0, 0.0, 0.0, 0.0, 0.0, 0.0, 0.0, 0.0, 0.0, 1.696032632339989E9, 0.0, 2023-09-29 19:10:32.339
206.0, -50657.725412574466, -26250.402778435087, -43801.90894626486, -28573.106655252774, -11440.181605837537, -15058.705515707197, -187500.02235174447, -10511.578382441805, -15930.848232608823, 12508.036197189833, -26321.324863591777, -25210.55492288529, -351.3023676040611, -8992.799698448145, -23819.359996242525, -40992.317019977214, 0.146, 1.014, 0.158, 192.0, 0.0, 0.0, 0.0, 0.0, 0.0, 0.0, 0.0, 0.0, 0.0, 1.696032632339992E9, 0.0, 2023-09-29 19:10:32.339
208.0, -50668.14132549064, -26122.953131550927, -43793.41528337184, -28518.63545401519, -11434.437207512523, -15049.228376058147, -187500.02235174447, -10505.252838760953, -15912.743319600026, 12523.950639242012, -26325.07995666027, -25210.51021939638, -352.28584436009464, -8975.991186617755, -23814.487315951268, -40980.78351983828, 0.146, 1.006, 0.166, 192.0, 2.0, 72.0, 15.5, 56.0, 2.5, 24.0, 0.0, 0.0, 0.0, 1.696032632339995E9, 0.0, 2023-09-29 19:10:32.339
210.0, -50651.24340668242, -26213.947083228482, -43799.271440419136, -28576.951155299088, -11444.249623328404, -15068.160303611792, -187500.02235174447, -10518.328609267308, -15935.452691966617, 12505.778670999845, -26312.607683254206, -25208.476210650948, -360.91361771984316, -8991.413890291917, -23821.550467199144, -40993.7251798779, 0.146, 1.006, 0.166, 192.0, 0.0, 0.0, 0.0, 0.0, 0.0, 0.0, 0.0, 0.0, 0.0, 1.696032632399863E9, 0.0, 2023-09-29 19:10:32.399
212.0, -50659.40179340861, -26162.60512621464, -43780.71949252123, -28534.773413511924, -11422.926059118041, -15049.384838269334, -187500.02235174447, -10500.871896847713, -15921.594610404327, 12512.439490847528, -26344.257753402922, -25212.678338608544, -353.0905071604857, -9000.712215985324, -23810.352243227037, -40990.171252509506, 0.146, 1.006, 0.166, 192.0, 0.0, 0.0, 0.0, 0.0, 0.0, 0.0, 0.0, 0.0, 0.0, 1.696032632399875E9, 0.0, 2023-09-29 19:10:32.399
214.0, -50670.06357551379, -26213.298882639276, -43802.64655383189, -28586.0483152924, -11441.07567561575, -15068.249710589615, -187500.02235174447, -10515.400530743664, -15922.086348782344, 12497.240304617919, -26307.846761685225, -25225.57529515926, -354.5433705500806, -8996.219515349809, -23812.90034209494, -40990.528880420796, 0.146, 1.006, 0.166, 192.0, 0.0, 0.0, 0.0, 0.0, 0.0, 0.0, 0.0, 0.0, 0.0, 1.696032632399878E9, 0.0, 2023-09-29 19:10:32.399
216.0, -50683.11699427569, -26160.705227935938, -43802.62420208743, -28550.106710208263, -11432.917288889563, -15057.207948828693, -187500.02235174447, -10505.610466672239, -15931.071750053377, 12488.500772535894, -26358.16053845412, -25232.437280707036, -361.87474273142135, -9005.227268365297, -23821.03637707667, -40998.32963923569, 0.146, 1.006, 0.166, 192.0, 0.0, 0.0, 0.0, 0.0, 0.0, 0.0, 0.0, 0.0, 0.0, 1.696032632399881E9, 0.0, 2023-09-29 19:10:32.399
218.0, -50665.30265394481, -26198.882007465603, -43809.30737367956, -28592.41856246216, -11441.522710504856, -15064.852245432407, -187500.02235174447, -10517.233373788999, -15935.922078600179, 12495.407461572584, -26317.905046690114, -25248.32937101476, -364.8251729995219, -9014.950277203356, -23828.5242114692, -41001.838863115176, 0.14200000000000002, 1.006, 0.166, 192.0, 2.0, 56.0, 15.5, 56.0, 2.5, 24.0, 0.0, 0.0, 0.0, 1.696032632399884E9, 0.0, 2023-09-29 19:10:32.399
220.0, -50679.60777039621, -26196.780943486803, -43801.4395596313, -28551.783091042413, -11433.36432377867, -15058.839626173929, -187500.02235174447, -10518.038036589389, -15936.033837322455, 12492.635845260125, -26384.69205912257, -25239.299266254817, -359.01371944114203, -9007.976532933299, -23823.070385822106, -41001.0789038037, 0.14200000000000002, 1.006, 0.166, 192.0, 0.0, 0.0, 0.0, 0.0, 0.0, 0.0, 0.0, 0.0, 0.0, 1.696032632399887E9, 0.0, 2023-09-29 19:10:32.399
222.0, -50677.55140990632, -26171.009382129836, -43807.80980680106, -28581.399152445694, -11441.947393649507, -15070.417829801778, -187500.02235174447, -10530.644420462182, -15936.480872211561, 12506.940961711522, -26308.226741340965, -25234.404234219102, -367.9097137343542, -9007.127166643997, -23828.881839380487, -41000.29659274776, 0.14200000000000002, 1.006, 0.166, 192.0, 0.0, 0.0, 0.0, 0.0, 0.0, 0.0, 0.0, 0.0, 0.0, 1.696032632399891E9, 0.0, 2023-09-29 19:10:32.399
224.0, -50670.085927258246, -26223.156001944066, -43784.27341988962, -28545.904582250667, -11420.31090501677, -15051.396495270312, -187500.02235174447, -10508.98558008499, -15930.647066908727, 12479.8953509206, -26385.40731494514, -25223.89891432511, -360.6230450419242, -9010.278762612195, -23820.589342187566, -41001.7271043929, 0.14200000000000002, 1.006, 0.166, 192.0, 0.0, 0.0, 0.0, 0.0, 0.0, 0.0, 0.0, 0.0, 0.0, 1.696032632399894E9, 0.0, 2023-09-29 19:10:32.399
226.0, -50673.729261604465, -26142.13092829358, -43801.57367009803, -28558.46626263455, -11439.108722103683, -15066.327460566457, -187500.02235174447, -10524.832966903803, -15914.15147950071, 12516.686322294036, -26288.981889364946, -25217.863943322176, -362.56764680953586, -8987.748204201247, -23812.721528139296, -40983.06339777272, 0.14200000000000002, 1.006, 0.166, 192.0, 0.0, 0.0, 0.0, 0.0, 0.0, 0.0, 0.0, 0.0, 0.0, 1.696032632460205E9, 0.0, 2023-09-29 19:10:32.460
228.0, -50666.08496500075, -26196.110391153146, -43790.107225192456, -28548.542088096394, -11433.096102845206, -15063.667602976277, -187500.02235174447, -10518.999161600967, -15941.934697858656, 12484.656272489581, -26373.27031770591, -25230.805603361798, -364.467545088237, -9020.717027272824, -23823.96445560032, -41002.55411893775, 0.146, 1.006, 0.16, 192.0, 2.0, 72.0, 15.5, 56.0, 2.5, 0.0, 0.0, 0.0, 0.0, 1.696032632460214E9, 0.0, 2023-09-29 19:10:32.460
230.0, -50649.678784570555, -26114.191247724444, -43792.52121359363, -28554.711169566057, -11440.762751193375, -15061.812408186486, -187500.02235174447, -10515.355827254753, -15921.48285168205, 12532.600764346214, -26290.85943589919, -25225.37412945916, -363.9981584546755, -8998.007654906232, -23818.33181599758, -40985.65620012954, 0.146, 1.006, 0.16, 192.0, 0.0, 0.0, 0.0, 0.0, 0.0, 0.0, 0.0, 0.0, 0.0, 1.696032632460217E9, 0.0, 2023-09-29 19:10:32.460
232.0, -50669.236560968944, -26247.362941189163, -43770.75061449416, -28545.12227119473, -11423.5966114517, -15051.530605737044, -187500.02235174447, -10506.12455679471, -15932.703427398614, 12497.352063340195, -26378.522977652905, -25208.476210650948, -355.4150885838376, -9008.512974800227, -23810.441650204855, -40994.37338046711, 0.146, 1.006, 0.16, 192.0, 0.0, 0.0, 0.0, 0.0, 0.0, 0.0, 0.0, 0.0, 0.0, 1.696032632460221E9, 0.0, 2023-09-29 19:10:32.460
234.0, -50653.27741542786, -26140.096919548145, -43776.31619886353, -28532.895866977677, -11430.905631888585, -15062.527664009056, -187500.02235174447, -10519.647362190171, -15890.883313522734, 12520.664932807082, -26288.19957830901, -25200.6978035805, -343.1216291334187, -8989.983378646777, -23800.13749601096, -40975.50850814683, 0.146, 1.006, 0.16, 192.0, 0.0, 0.0, 0.0, 0.0, 0.0, 0.0, 0.0, 0.0, 0.0, 1.696032632460224E9, 0.0, 2023-09-29 19:10:32.460
236.0, -50657.2560259409, -26274.363848491175, -43782.9323152223, -28553.16889919864, -11433.431379012034, -15066.126294866359, -187500.02235174447, -10526.17407157112, -15931.138805286742, 12487.986682413422, -26366.9224222806, -25209.14676298461, -352.30819610454995, -9021.700504028859, -23815.023757818195, -41004.18579628298, 0.146, 1.006, 0.16, 192.0, 0.0, 0.0, 0.0, 0.0, 0.0, 0.0, 0.0, 0.0, 0.0, 1.696032632460227E9, 0.0, 2023-09-29 19:10:32.460
238.0, -50663.82743881076, -26113.99008202435, -43802.37833289842, -28540.383701370207, -11450.798684453808, -15067.445047789222, -187500.02235174447, -10534.80184493087, -15920.946409815124, 12533.740703313435, -26291.038249854835, -25223.027196291354, -366.30038813357214, -9005.96487593232, -23821.95279859934, -40990.662990887526, 0.15, 1.008, 0.162, 192.0, 2.0, 88.0, 15.5, 64.0, 2.5, 8.0, 0.0, 0.0, 0.0, 1.69603263246023E9, 0.0, 2023-09-29 19:10:32.460
240.0, -50673.863372071195, -26258.896441328103, -43802.9371265098, -28572.793730830403, -11447.289460574326, -15066.908605922295, -187500.02235174447, -10529.482129750506, -15949.48958748455, 12478.196618341997, -26376.913652052124, -25225.061205036785, -370.368405624438, -9041.325335660618, -23831.56404871512, -41012.612403942636, 0.15, 1.008, 0.162, 192.0, 0.0, 0.0, 0.0, 0.0, 0.0, 0.0, 0.0, 0.0, 0.0, 1.696032632520522E9, 0.0, 2023-09-29 19:10:32.520
242.0, -50687.31912223329, -26109.944416277936, -43802.71360906525, -28547.42450087363, -11444.02610588385, -15057.051486617505, -187500.02235174447, -10524.02830410341, -15923.248639494019, 12508.527935567849, -26314.14995362162, -25228.548077171814, -362.92527472082077, -9007.954181188845, -23825.372615501, -40991.53470892128, 0.15, 1.008, 0.162, 192.0, 0.0, 0.0, 0.0, 0.0, 0.0, 0.0, 0.0, 0.0, 0.0, 1.696032632520534E9, 0.0, 2023-09-29 19:10:32.520
244.0, -50667.783697579354, -26264.327915230744, -43796.52217585113, -28582.38262920173, -11435.375980779647, -15058.54905349601, -187500.02235174447, -10523.60362095876, -15940.213613535598, 12482.555208510783, -26373.538538639372, -25235.320655741772, -366.38979511139337, -9034.038666968187, -23825.01498758972, -41007.80677888475, 0.15, 1.008, 0.162, 192.0, 0.0, 0.0, 0.0, 0.0, 0.0, 0.0, 0.0, 0.0, 0.0, 1.696032632520537E9, 0.0, 2023-09-29 19:10:32.520
246.0, -50672.969302292986, -26121.589675139152, -43799.29379216359, -28545.770471783933, -11431.978515622439, -15053.922242393763, -187500.02235174447, -10520.832004646303, -15926.221421506576, 12512.797118758812, -26326.24224737194, -25235.03008306385, -364.0428619435861, -9015.509070814738, -23815.71666189631, -40987.8243193417, 0.15, 1.008, 0.162, 192.0, 0.0, 0.0, 0.0, 0.0, 0.0, 0.0, 0.0, 0.0, 0.0, 1.69603263252054E9, 0.0, 2023-09-29 19:10:32.520
248.0, -50677.75257560642, -26290.54651147682, -43802.91477476535, -28586.65181239269, -11443.579070994743, -15068.36146931189, -187500.02235174447, -10532.477263507517, -15950.316602029396, 12472.921606650545, -26373.583242128283, -25229.88918183913, -362.9476264652761, -9030.350629133061, -23824.61265618952, -41005.37043873912, 0.15, 1.006, 0.158, 192.0, 2.0, 88.0, 15.5, 56.0, 2.0, 120.0, 0.0, 0.0, 0.0, 1.696032632520544E9, 0.0, 2023-09-29 19:10:32.520
250.0, -50673.729261604465, -26147.249477773843, -43795.538699095094, -28539.333169380807, -11442.036800627327, -15065.656908232799, -187500.02235174447, -10534.17599608612, -15921.013465048489, 12499.922513952555, -26336.278180632376, -25229.66566439458, -354.789239739089, -9016.604306293048, -23820.119955554004, -40992.473482188405, 0.15, 1.006, 0.158, 192.0, 0.0, 0.0, 0.0, 0.0, 0.0, 0.0, 0.0, 0.0, 0.0, 1.696032632520547E9, 0.0, 2023-09-29 19:10:32.520
252.0, -50659.178275964056, -26294.97215687897, -43799.65142007487, -28591.81506536187, -11453.12326587716, -15080.27494910657, -187500.02235174447, -10548.816388704347, -15927.741340129536, 12488.478420791438, -26352.41614012911, -25238.38284473215, -362.9923299541867, -9055.988080023299, -23832.301656282147, -41012.41123824254, 0.15, 1.006, 0.158, 192.0, 0.0, 0.0, 0.0, 0.0, 0.0, 0.0, 0.0, 0.0, 0.0, 1.69603263252055E9, 0.0, 2023-09-29 19:10:32.520
254.0, -50665.79439232283, -26158.73827442387, -43787.08973969099, -28524.290445362385, -11445.724838462453, -15070.84251294643, -187500.02235174447, -10542.0885136233, -15910.619903876772, 12513.33356062574, -26342.894296991148, -25226.98345505994, -358.49962931867, -9025.187376163885, -23821.72928115479, -40993.74753162236, 0.15, 1.006, 0.158, 192.0, 0.0, 0.0, 0.0, 0.0, 0.0, 0.0, 0.0, 0.0, 0.0, 1.696032632520553E9, 0.0, 2023-09-29 19:10:32.520
0.0, -50660.11704923118, -26255.52132791535, -43788.90023099187, -28565.12708248223, -11456.140751378627, -15077.548036283022, -187500.02235174447, -10549.218720104542, -15929.82005236388, 12493.57461852725, -26325.549343293827, -25219.450917178503, -355.4597920727482, -9028.115454687531, -23828.591266702566, -41000.31894449222, 0.15, 1.006, 0.158, 192.0, 0.0, 0.0, 0.0, 0.0, 0.0, 0.0, 0.0, 0.0, 0.0, 1.696032632580715E9, 0.0, 2023-09-29 19:10:32.580
2.0, -50649.83524678174, -26161.152262825046, -43760.51351553363, -28501.849293929256, -11434.616021468166, -15049.653059202798, -187500.02235174447, -10525.391760515186, -15915.492584168029, 12520.039083962332, -26335.29470387634, -25207.000995516897, -347.1672948798293, -9014.9279254589, -23810.95574032733, -40985.410330940525, 0.15, 1.008, 0.154, 192.0, 2.0, 88.0, 15.5, 64.0, 2.0, 104.0, 0.0, 0.0, 0.0, 1.696032632580731E9, 0.0, 2023-09-29 19:10:32.580
4.0, -50646.41542988008, -26237.751691073383, -43774.6845215183, -28554.532355610416, -11452.229196098948, -15080.476114806666, -187500.02235174447, -10542.289679323398, -15908.787060831435, 12515.52403158236, -26310.0595843863, -25211.448992663503, -346.4967425461701, -9027.69077154288, -23807.93825482586, -40987.936078063976, 0.15, 1.008, 0.154, 192.0, 0.0, 0.0, 0.0, 0.0, 0.0, 0.0, 0.0, 0.0, 0.0, 1.696032632580736E9, 0.0, 2023-09-29 19:10:32.580
6.0, -50664.006252766405, -26153.84324238816, -43773.92456220681, -28513.896884190668, -11435.5994982242, -15071.64717574682, -187500.02235174447, -10525.99525761548, -15912.676264366659, 12496.65915926208, -26349.175137183087, -25220.344986956716, -349.87185595892146, -9043.225233939318, -23806.91007458092, -40992.741703121865, 0.15, 1.008, 0.154, 192.0, 0.0, 0.0, 0.0, 0.0, 0.0, 0.0, 0.0, 0.0, 0.0, 1.696032632580741E9, 0.0, 2023-09-29 19:10:32.580
8.0, -50658.82064805277, -26200.111353410644, -43786.24037340169, -28572.257288963472, -11447.691791974521, -15084.052393919515, -187500.02235174447, -10530.264440806443, -15928.255430252007, 12499.85545871919, -26314.328767577266, -25241.087405811242, -368.2226381567286, -9061.79953358168, -23815.13551654047, -40997.100293290656, 0.15, 1.008, 0.154, 192.0, 0.0, 0.0, 0.0, 0.0, 0.0, 0.0, 0.0, 0.0, 0.0, 1.696032632580747E9, 0.0, 2023-09-29 19:10:32.580
10.0, -50670.06357551379, -26191.260062606343, -43765.2297336137, -28526.726785508014, -11428.268126042858, -15059.621937229866, -187500.02235174447, -10506.392777728173, -15923.807433105403, 12482.644615488603, -26375.684306107083, -25234.739510385934, -346.6085012684466, -9068.773277851735, -23801.255083233726, -40987.75726410833, 0.15, 1.008, 0.154, 192.0, 0.0, 0.0, 0.0, 0.0, 0.0, 0.0, 0.0, 0.0, 0.0, 1.696032632580751E9, 0.0, 2023-09-29 19:10:32.580
12.0, -50674.24335172694, -26187.70613523795, -43781.211230899244, -28560.053236490876, -11443.601422739199, -15073.994108914627, -187500.02235174447, -10528.498652994473, -15921.013465048489, 12486.08678413472, -26315.44635480003, -25233.443109207525, -349.87185595892146, -9032.004658222755, -23803.870237334995, -40982.43754892797, 0.146, 1.012, 0.154, 192.0, 2.0, 72.0, 15.5, 80.0, 2.0, 104.0, 0.0, 0.0, 0.0, 1.696032632580756E9, 0.0, 2023-09-29 19:10:32.580
14.0, -50662.84396205473, -26192.46705680693, -43770.392986582876, -28531.51005882145, -11435.554794735288, -15059.867806418873, -187500.02235174447, -10525.70468493756, -15922.891011582735, 12475.626167729637, -26378.0759427638, -25236.505298197902, -351.3917745818823, -9049.036687497699, -23807.75944087022, -40989.679514131494, 0.146, 1.012, 0.154, 192.0, 0.0, 0.0, 0.0, 0.0, 0.0, 0.0, 0.0, 0.0, 0.0, 1.696032632640112E9, 0.0, 2023-09-29 19:10:32.640
16.0, -50658.86535154168, -26179.815969445226, -43774.505707562654, -28555.337018410806, -11450.753980964897, -15067.93678616724, -187500.02235174447, -10537.70757171006, -15905.411947418685, 12515.926362982556, -26314.284064088355, -25239.32161799927, -356.82324848452197, -9035.022143724222, -23809.14524902645, -40982.9739907949, 0.146, 1.012, 0.154, 192.0, 0.0, 0.0, 0.0, 0.0, 0.0, 0.0, 0.0, 0.0, 0.0, 1.696032632640124E9, 0.0, 2023-09-29 19:10:32.640
18.0, -50667.51547664589, -26238.48929864041, -43754.97028290872, -28521.004738927455, -11431.553832477788, -15053.050524360006, -187500.02235174447, -10525.883498893201, -15928.456595952106, 12487.584351013227, -26387.441323690575, -25223.876562580655, -339.3665360649271, -9042.755847305758, -23797.634100631967, -40985.81266234072, 0.146, 1.012, 0.154, 192.0, 0.0, 0.0, 0.0, 0.0, 0.0, 0.0, 0.0, 0.0, 0.0, 1.696032632640127E9, 0.0, 2023-09-29 19:10:32.640
20.0, -50660.988767264935, -26154.379684255087, -43776.76323375264, -28538.99789321398, -11445.277803573348, -15068.786152456541, -187500.02235174447, -10540.590946744795, -15915.984322546044, 12497.75439474039, -26291.73115393295, -25224.971798058963, -348.240178613684, -9029.769483777223, -23796.337699453557, -40976.91666804751, 0.146, 1.012, 0.154, 192.0, 0.0, 0.0, 0.0, 0.0, 0.0, 0.0, 0.0, 0.0, 0.0, 1.696032632640131E9, 0.0, 2023-09-29 19:10:32.640
22.0, -50654.97614800646, -26250.112205757167, -43777.791413997584, -28542.998855471476, -11433.029047611839, -15061.298318064013, -187500.02235174447, -10529.348019283774, -15928.098968040822, 12489.32778708074, -26384.625003889207, -25229.88918183913, -352.0623269155415, -9062.827713826622, -23807.267702492205, -40999.49192994737, 0.146, 1.008, 0.15, 192.0, 2.0, 72.0, 15.5, 64.0, 2.0, 88.0, 0.0, 0.0, 0.0, 1.696032632640134E9, 0.0, 2023-09-29 19:10:32.640
24.0, -50647.93534850304, -26118.393375682044, -43794.443463616786, -28544.07173920533, -11445.590727995721, -15072.004803658105, -187500.02235174447, -10543.161397357155, -15903.646159606715, 12518.966200228477, -26291.641746955127, -25233.33135048525, -357.2032281402622, -9037.905518758955, -23807.178295514383, -40982.7728250948, 0.146, 1.008, 0.15, 192.0, 0.0, 0.0, 0.0, 0.0, 0.0, 0.0, 0.0, 0.0, 0.0, 1.696032632640137E9, 0.0, 2023-09-29 19:10:32.640
26.0, -50655.17731370656, -26256.705970371484, -43782.52998382211, -28546.664541562146, -11433.967820878963, -15058.236129073637, -187500.02235174447, -10530.0856268508, -15917.52659291346, 12489.528952780838, -26386.12257076771, -25231.18558301754, -348.46369605823713, -9047.919100274934, -23814.599074673544, -41004.34225849417, 0.146, 1.008, 0.15, 192.0, 0.0, 0.0, 0.0, 0.0, 0.0, 0.0, 0.0, 0.0, 0.0, 1.69603263264014E9, 0.0, 2023-09-29 19:10:32.640
28.0, -50657.859523041196, -26120.3156257052, -43793.70585604976, -28526.615026785737, -11448.36234430818, -15066.79684720002, -187500.02235174447, -10536.768798442936, -15901.992130517023, 12510.360778613183, -26294.949805134514, -25227.363434715684, -352.93404494929854, -9027.02021920922, -23810.285187993668, -40972.73689183437, 0.146, 1.008, 0.15, 192.0, 0.0, 0.0, 0.0, 0.0, 0.0, 0.0, 0.0, 0.0, 0.0, 1.696032632640143E9, 0.0, 2023-09-29 19:10:32.640
30.0, -50657.63600559664, -26271.033438567334, -43785.52511757912, -28542.149489182175, -11442.617945983166, -15063.086457620439, -187500.02235174447, -10532.477263507517, -15919.873526081268, 12477.70487996398, -26382.009849787933, -25227.56460041578, -358.05259442956384, -9057.329184690618, -23816.878952607985, -40994.73100837839, 0.146, 1.008, 0.15, 192.0, 0.0, 0.0, 0.0, 0.0, 0.0, 0.0, 0.0, 0.0, 0.0, 1.696032632699969E9, 0.0, 2023-09-29 19:10:32.699
32.0, -50659.02181375287, -26131.670311888494, -43783.64757104487, -28514.209808613043, -11450.262242586881, -15061.588890741932, -187500.02235174447, -10531.31497279584, -15910.172868987665, 12519.636752562137, -26309.34432856373, -25220.501449167903, -353.7387077496896, -9030.26122215524, -23808.56410367061, -40972.84865055665, 0.15, 1.002, 0.152, 192.0, 2.0, 88.0, 15.5, 40.0, 2.0, 96.0, 0.0, 0.0, 0.0, 1.696032632699979E9, 0.0, 2023-09-29 19:10:32.699
34.0, -50656.250197440415, -26290.881787643648, -43769.476565060206, -28541.501288592972, -11449.524635019856, -15060.091323863428, -187500.02235174447, -10525.36940877073, -15928.747168630025, 12505.890429722123, -26378.187701486077, -25219.383861945138, -362.90292297636546, -9060.994870781287, -23818.063595064115, -40989.120720520106, 0.15, 1.002, 0.152, 192.0, 0.0, 0.0, 0.0, 0.0, 0.0, 0.0, 0.0, 0.0, 0.0, 1.696032632699982E9, 0.0, 2023-09-29 19:10:32.699
36.0, -50653.90326427261, -26142.801480627237, -43757.33956782098, -28502.050459629354, -11440.650992471099, -15054.570442982966, -187500.02235174447, -10517.099263322267, -15900.874543294258, 12515.166403671075, -26313.09942163222, -25212.85715256419, -346.273225101617, -9031.959954733844, -23803.937292568364, -40966.09842373114, 0.15, 1.002, 0.152, 192.0, 0.0, 0.0, 0.0, 0.0, 0.0, 0.0, 0.0, 0.0, 0.0, 1.696032632699985E9, 0.0, 2023-09-29 19:10:32.699
38.0, -50649.03058398135, -26287.126694575156, -43765.09562314697, -28542.529468837914, -11450.374001309157, -15071.133085624348, -187500.02235174447, -10524.251821547965, -15929.283610496952, 12492.14410688211, -26361.088616977766, -25230.447975450516, -346.9661291797315, -9060.480780658816, -23815.403737473935, -40989.478348431396, 0.15, 1.002, 0.152, 192.0, 0.0, 0.0, 0.0, 0.0, 0.0, 0.0, 0.0, 0.0, 0.0, 1.696032632699989E9, 0.0, 2023-09-29 19:10:32.699
40.0, -50643.26383391188, -26149.08232081918, -43768.649550515365, -28494.33910779227, -11442.640297727621, -15061.767704697575, -187500.02235174447, -10511.019588830422, -15914.91143881219, 12520.799043273813, -26325.43758457155, -25223.94361781402, -338.45011454225954, -9009.854079467545, -23810.531057182678, -40970.47936564438, 0.15, 1.002, 0.152, 192.0, 0.0, 0.0, 0.0, 0.0, 0.0, 0.0, 0.0, 0.0, 0.0, 1.696032632699992E9, 0.0, 2023-09-29 19:10:32.699
42.0, -50660.89936028712, -26285.115037574178, -43787.04503620208, -28544.161146183153, -11450.776332709353, -15077.324518838468, -187500.02235174447, -10514.998199343467, -15939.319543757385, 12515.52403158236, -26365.670724591106, -25232.549039429312, -337.6007482529579, -9016.179623148397, -23820.455231720833, -40990.797101354256, 0.15, 1.014, 0.158, 192.0, 2.0, 88.0, 15.5, 88.0, 2.0, 120.0, 0.0, 0.0, 0.0, 1.696032632699995E9, 0.0, 2023-09-29 19:10:32.699
44.0, -50680.993578552436, -26137.727634635885, -43792.94589673828, -28503.34686080776, -11437.208823824982, -15055.866844161374, -187500.02235174447, -10499.150812524655, -15929.373017474774, 12535.037104491843, -26336.144070165643, -25231.364396973182, -326.3354690474831, -8986.340044300561, -23813.772060128696, -40976.42492966949, 0.15, 1.014, 0.158, 192.0, 0.0, 0.0, 0.0, 0.0, 0.0, 0.0, 0.0, 0.0, 0.0, 1.696032632760124E9, 0.0, 2023-09-29 19:10:32.760
46.0, -50667.67193885708, -26251.788586591316, -43814.090646993005, -28559.98618125751, -11448.161178608081, -15064.829893687951, -187500.02235174447, -10502.03418755939, -15944.885128126756, 12505.868077977668, -26349.286895905367, -25238.539306943334, -331.6551842278462, -8990.87744842499, -23820.879914865487, -40990.528880420796, 0.15, 1.014, 0.158, 192.0, 0.0, 0.0, 0.0, 0.0, 0.0, 0.0, 0.0, 0.0, 0.0, 1.696032632760146E9, 0.0, 2023-09-29 19:10:32.760
48.0, -50665.70498534501, -26124.338939707155, -43809.262670190656, -28514.07569814631, -11434.057227856783, -15043.394570755312, -187500.02235174447, -10486.902056563147, -15935.743264644536, 12523.749473541913, -26346.962314482014, -25233.934847585544, -316.7465706761564, -8964.144762056441, -23816.00723457423, -40980.47059541591, 0.15, 1.014, 0.158, 192.0, 0.0, 0.0, 0.0, 0.0, 0.0, 0.0, 0.0, 0.0, 0.0, 1.696032632760151E9, 0.0, 2023-09-29 19:10:32.760
50.0, -50658.28420618585, -26244.18899347651, -43821.19850172979, -28575.61005063177, -11432.604364467188, -15046.948498123706, -187500.02235174447, -10496.401547956651, -15949.936622373656, 12516.395749616117, -26336.389939354653, -25229.46449869448, -313.6173264524134, -8963.854189378522, -23818.912961353417, -40992.56288916623, 0.15, 1.014, 0.158, 192.0, 0.0, 0.0, 0.0, 0.0, 0.0, 0.0, 0.0, 0.0, 0.0, 1.696032632760156E9, 0.0, 2023-09-29 19:10:32.760
52.0, -50663.53686613284, -26157.173652312, -43815.99054527171, -28532.02414894392, -11418.276896271336, -15030.229393271136, -187500.02235174447, -10483.862219317225, -15925.595572661827, 12551.53269189986, -26346.85055575974, -25222.200181746506, -306.21889903770676, -8959.24973002073, -23809.90520833793, -40983.175156494995, 0.14200000000000002, 1.012, 0.154, 192.0, 2.0, 56.0, 15.5, 80.0, 2.0, 104.0, 0.0, 0.0, 0.0, 1.696032632760161E9, 0.0, 2023-09-29 19:10:32.760
54.0, -50657.2560259409, -26214.572932073228, -43834.38603095842, -28586.763571114967, -11428.82691965424, -15046.099131834404, -187500.02235174447, -10502.280056748397, -15925.729683128558, 12525.939944498534, -26308.87494193017, -25223.451879436005, -317.953564876743, -8947.045677548133, -23821.885743365972, -40993.18873801098, 0.14200000000000002, 1.012, 0.154, 192.0, 0.0, 0.0, 0.0, 0.0, 0.0, 0.0, 0.0, 0.0, 0.0, 1.696032632760168E9, 0.0, 2023-09-29 19:10:32.760
56.0, -50655.22201719547, -26162.202794814446, -43822.85253081948, -28546.441024117594, -11413.895954358097, -15027.815404869963, -187500.02235174447, -10483.996329783957, -15929.305962241408, 12517.446281605517, -26350.605648828227, -25208.4985623954, -314.2878787860726, -8948.275023493174, -23815.739013640763, -40988.33840946417, 0.14200000000000002, 1.012, 0.154, 192.0, 0.0, 0.0, 0.0, 0.0, 0.0, 0.0, 0.0, 0.0, 0.0, 1.696032632760187E9, 0.0, 2023-09-29 19:10:32.760
58.0, -50646.57189209126, -26184.062800891734, -43839.86220834997, -28595.301937496894, -11433.16315807857, -15043.305163777492, -187500.02235174447, -10496.334492723287, -15927.71898838508, 12518.09448219472, -26298.704898203006, -25217.9533503, -323.98853587967585, -8947.604471159515, -23821.32694975459, -40989.746569364856, 0.14200000000000002, 1.012, 0.154, 192.0, 0.0, 0.0, 0.0, 0.0, 0.0, 0.0, 0.0, 0.0, 0.0, 1.696032632760193E9, 0.0, 2023-09-29 19:10:32.760
60.0, -50666.01790976738, -26181.42529504601, -43826.384106443424, -28559.293277179397, -11415.30411425878, -15023.747387379097, -187500.02235174447, -10484.085736761777, -15926.891973840235, 12528.778616044357, -26356.394750642154, -25211.80662057479, -320.3899050223714, -8948.230320004264, -23820.566990443112, -40994.44043570047, 0.14200000000000002, 1.012, 0.154, 192.0, 0.0, 0.0, 0.0, 0.0, 0.0, 0.0, 0.0, 0.0, 0.0, 1.696032632820552E9, 0.0, 2023-09-29 19:10:32.820
62.0, -50662.37457542117, -26180.642983990074, -43833.71547862476, -28592.999707818, -11426.278820786336, -15040.801768398496, -187500.02235174447, -10495.798050856358, -15912.743319600026, 12556.271261724385, -26289.63008995415, -25211.694861852513, -316.7242189317011, -8940.518968167182, -23817.974188086297, -40989.41129319803, 0.14, 1.0, 0.164, 192.0, 2.0, 48.0, 15.5, 32.0, 2.5, 16.0, 0.0, 0.0, 0.0, 1.696032632820561E9, 0.0, 2023-09-29 19:10:32.820
64.0, -50663.246293454926, -26187.99670791587, -43823.72424885324, -28569.955059284577, -11422.411968995568, -15032.844547372408, -187500.02235174447, -10487.349091452252, -15926.400235462217, 12503.387034343128, -26353.891355263157, -25220.948484057008, -327.0060213811423, -8957.752163142224, -23818.19770553085, -41000.07307530321, 0.14, 1.0, 0.164, 192.0, 0.0, 0.0, 0.0, 0.0, 0.0, 0.0, 0.0, 0.0, 0.0, 1.696032632820565E9, 0.0, 2023-09-29 19:10:32.820
66.0, -50648.04710722531, -26158.850033146147, -43834.25192049169, -28589.870463594256, -11426.50233823089, -15043.014591099572, -187500.02235174447, -10495.708643878537, -15923.71802612758, 12526.118758454175, -26289.406572509597, -25221.484925923938, -329.3306028044943, -8949.817293860591, -23814.263798506716, -40992.406426955036, 0.14, 1.0, 0.164, 192.0, 0.0, 0.0, 0.0, 0.0, 0.0, 0.0, 0.0, 0.0, 0.0, 1.696032632820568E9, 0.0, 2023-09-29 19:10:32.820
68.0, -50668.968340035484, -26215.690519295993, -43829.53570241162, -28577.867576821754, -11418.366303249157, -15041.539375965522, -187500.02235174447, -10490.053652531346, -15936.43616872265, 12497.463822062473, -26371.392771171664, -25227.8551730937, -336.952547663754, -8960.792000388146, -23818.912961353417, -41003.15761603804, 0.14, 1.0, 0.164, 192.0, 0.0, 0.0, 0.0, 0.0, 0.0, 0.0, 0.0, 0.0, 0.0, 1.696032632820571E9, 0.0, 2023-09-29 19:10:32.820
70.0, -50671.38232843666, -26130.083338032167, -43842.052679306595, -28589.37872521624, -11433.36432377867, -15052.558785981988, -187500.02235174447, -10498.904943335647, -15911.513973654983, 12550.325697699272, -26291.015898110378, -25227.832821349242, -342.7863529665891, -8945.548110669626, -23819.695272409353, -40994.10515953364, 0.14, 1.0, 0.164, 192.0, 0.0, 0.0, 0.0, 0.0, 0.0, 0.0, 0.0, 0.0, 0.0, 1.696032632820575E9, 0.0, 2023-09-29 19:10:32.820
72.0, -50674.39981393812, -26222.06076646576, -43824.506559909176, -28578.627536133237, -11420.757939905876, -15043.796902155507, -187500.02235174447, -10482.923446050101, -15928.478947696562, 12494.245170860908, -26371.146901982655, -25230.71619638398, -334.06917262901936, -8971.118506326498, -23818.734147397776, -41007.89618586257, 0.136, 0.998, 0.16, 192.0, 2.0, 32.0, 15.5, 24.0, 2.5, 0.0, 0.0, 0.0, 0.0, 1.696032632820578E9, 0.0, 2023-09-29 19:10:32.820
74.0, -50672.65637787061, -26105.407012153508, -43840.24218800571, -28577.509948910472, -11433.721951689953, -15054.54809123851, -187500.02235174447, -10495.686292134082, -15908.228267220053, 12519.636752562137, -26285.047982340813, -25231.118527784172, -338.83009419799976, -8946.86686359249, -23815.04610956265, -40987.86902283061, 0.136, 0.998, 0.16, 192.0, 0.0, 0.0, 0.0, 0.0, 0.0, 0.0, 0.0, 0.0, 0.0, 1.696032632880806E9, 0.0, 2023-09-29 19:10:32.880
76.0, -50666.33083418976, -26245.932429544024, -43826.741734354706, -28582.51673966846, -11421.02616083934, -15049.720114436164, -187500.02235174447, -10490.321873464809, -15926.690808140136, 12492.300569093297, -26379.68526836458, -25232.817260362775, -340.7970477100668, -8972.861942394013, -23826.914885868417, -41013.39471499857, 0.136, 0.998, 0.16, 192.0, 0.0, 0.0, 0.0, 0.0, 0.0, 0.0, 0.0, 0.0, 0.0, 1.696032632880816E9, 0.0, 2023-09-29 19:10:32.880
78.0, -50666.800220823316, -26122.12611700608, -43825.400629687385, -28566.64700110519, -11420.243849783403, -15044.78037891154, -187500.02235174447, -10487.505553663439, -15906.306017196897, 12523.280086908351, -26299.91189240359, -25234.493641196925, -335.07500112950817, -8960.792000388146, -23818.600036931042, -40989.70186587595, 0.136, 0.998, 0.16, 192.0, 0.0, 0.0, 0.0, 0.0, 0.0, 0.0, 0.0, 0.0, 0.0, 1.696032632880819E9, 0.0, 2023-09-29 19:10:32.880
80.0, -50671.1588109921, -26285.115037574178, -43814.53768188211, -28584.394286202707, -11418.723931160443, -15046.233242301136, -187500.02235174447, -10495.865106089725, -15919.806470847901, 12501.151859897598, -26381.249890476454, -25228.03398704934, -336.08082962999697, -8979.16513433041, -23822.37748174399, -41005.59395618367, 0.136, 0.998, 0.16, 192.0, 0.0, 0.0, 0.0, 0.0, 0.0, 0.0, 0.0, 0.0, 0.0, 1.696032632880822E9, 0.0, 2023-09-29 19:10:32.880
82.0, -50671.58349413675, -26113.140715735044, -43819.16449298435, -28558.600373101282, -11425.07182658575, -15051.709419692686, -187500.02235174447, -10501.296579992364, -15891.822086789858, 12526.252868920907, -26298.0566976138, -25227.788117860335, -332.39279179487136, -8945.637517647448, -23817.460097963824, -40986.48321467438, 0.14, 1.008, 0.158, 192.0, 2.0, 48.0, 15.5, 64.0, 2.0, 120.0, 0.0, 0.0, 0.0, 1.696032632880826E9, 0.0, 2023-09-29 19:10:32.880
84.0, -50641.87802575565, -26265.847833853702, -43809.97792601323, -28586.808274603878, -11416.555811948278, -15050.390666769823, -187500.02235174447, -10496.669768890115, -15930.177680275165, 12488.299606835797, -26362.2732594339, -25229.620960905668, -336.7290302192009, -8978.069898852098, -23822.489240466268, -41009.796084141264, 0.14, 1.008, 0.158, 192.0, 0.0, 0.0, 0.0, 0.0, 0.0, 0.0, 0.0, 0.0, 0.0, 1.696032632880829E9, 0.0, 2023-09-29 19:10:32.880
86.0, -50661.59226436523, -26086.139808433036, -43805.37346665543, -28532.247666388474, -11415.706445658976, -15044.78037891154, -187500.02235174447, -10486.767946096415, -15899.645197349215, 12522.095444452221, -26300.738906948438, -25219.22739973395, -329.0400301265753, -8948.096209537533, -23800.38336519997, -40976.24611571385, 0.14, 1.008, 0.158, 192.0, 0.0, 0.0, 0.0, 0.0, 0.0, 0.0, 0.0, 0.0, 0.0, 1.696032632880832E9, 0.0, 2023-09-29 19:10:32.880
88.0, -50670.77883133636, -26241.305618441776, -43807.76510331215, -28569.820948817844, -11423.551907962788, -15048.803692913496, -187500.02235174447, -10489.986597297979, -15923.069825538378, 12496.927380195544, -26344.078939447278, -25221.08259452374, -342.0263936551087, -8976.862904651513, -23813.794411873154, -40994.93217407849, 0.14, 1.008, 0.158, 192.0, 0.0, 0.0, 0.0, 0.0, 0.0, 0.0, 0.0, 0.0, 0.0, 1.696032632880835E9, 0.0, 2023-09-29 19:10:32.880
90.0, -50666.84492431223, -26085.893939244026, -43806.75927481166, -28523.754003495458, -11418.07573057124, -15043.014591099572, -187500.02235174447, -10483.21401872802, -15908.138860242232, 12523.928287497556, -26306.93034016256, -25217.685129366535, -339.6347569983908, -8965.15059055693, -23807.804144359132, -40974.525031390796, 0.14, 1.008, 0.158, 192.0, 0.0, 0.0, 0.0, 0.0, 0.0, 0.0, 0.0, 0.0, 0.0, 1.696032632940244E9, 0.0, 2023-09-29 19:10:32.940
92.0, -50660.206456209, -26233.75072881588, -43810.871995791436, -28574.604222131282, -11419.729759660931, -15053.318745293469, -187500.02235174447, -10489.293693219865, -15912.251581222008, 12491.294740592808, -26340.904991734624, -25221.864905579678, -341.7358209771897, -8982.406137276428, -23813.05680430613, -40989.880679831585, 0.138, 1.01, 0.154, 192.0, 2.0, 40.0, 15.5, 72.0, 2.0, 104.0, 0.0, 0.0, 0.0, 1.696032632940254E9, 0.0, 2023-09-29 19:10:32.940
94.0, -50667.38136617916, -26067.4537500684, -43812.72719058123, -28532.940570466588, -11426.658800442077, -15056.537396495032, -187500.02235174447, -10495.216905500522, -15910.016406776478, 12515.635790304637, -26324.767032237894, -25230.112699283683, -345.08858264548576, -8966.670509179892, -23809.18995251536, -40980.20237448244, 0.138, 1.01, 0.154, 192.0, 0.0, 0.0, 0.0, 0.0, 0.0, 0.0, 0.0, 0.0, 0.0, 1.696032632940258E9, 0.0, 2023-09-29 19:10:32.940
96.0, -50675.11506976069, -26187.57202477122, -43817.801036572586, -28594.810199118878, -11432.894937145107, -15069.859036190395, -187500.02235174447, -10508.113862051232, -15932.457558209606, 12481.705842221481, -26334.422985842586, -25241.5567924448, -360.4218793418264, -8997.024178150199, -23831.027606848194, -41009.036124829785, 0.138, 1.01, 0.154, 192.0, 0.0, 0.0, 0.0, 0.0, 0.0, 0.0, 0.0, 0.0, 0.0, 1.696032632940261E9, 0.0, 2023-09-29 19:10:32.940
98.0, -50675.539752905344, -26084.575186321163, -43811.11786498045, -28541.434233359607, -11426.815262653263, -15057.632631973343, -187500.02235174447, -10503.822327115813, -15917.593648146827, 12508.729101267947, -26347.766977282405, -25232.929019085055, -348.6872135027902, -8984.39544253295, -23821.975150343795, -40995.49096768987, 0.138, 1.01, 0.154, 192.0, 0.0, 0.0, 0.0, 0.0, 0.0, 0.0, 0.0, 0.0, 0.0, 1.696032632940264E9, 0.0, 2023-09-29 19:10:32.940
100.0, -50662.21811320998, -26198.4349725765, -43811.18492021381, -28583.589623402313, -11430.145672577104, -15062.661774475788, -187500.02235174447, -10503.755271882448, -15921.304037726408, 12490.177153370041, -26335.87584923218, -25232.683149896046, -342.853408199955, -8986.787079189668, -23826.6243131905, -40999.84955785866, 0.138, 1.01, 0.154, 192.0, 0.0, 0.0, 0.0, 0.0, 0.0, 0.0, 0.0, 0.0, 0.0, 1.696032632940267E9, 0.0, 2023-09-29 19:10:32.940
102.0, -50666.59905512322, -26130.77624211028, -43799.85258577497, -28530.236009387496, -11415.035893325317, -15047.037905101528, -187500.02235174447, -10489.31604496432, -15911.469270166073, 12508.57263905676, -26354.517204107906, -25232.169059773572, -331.0740388720082, -8981.10973609802, -23813.995577573252, -40986.170290252005, 0.148, 1.01, 0.154, 192.0, 2.0, 80.0, 15.5, 72.0, 2.0, 104.0, 0.0, 0.0, 0.0, 1.69603263294027E9, 0.0, 2023-09-29 19:10:32.940
104.0, -50651.22105493797, -26193.428181818508, -43817.28694645011, -28578.98516404452, -11434.92894589054, -15062.907643664796, -187500.02235174447, -10501.296579992364, -15910.821069576868, 12515.009941459888, -26321.861305458704, -25230.984417317442, -339.52299827611427, -8977.0193668627, -23820.209362531827, -40988.8748513311, 0.148, 1.01, 0.154, 192.0, 0.0, 0.0, 0.0, 0.0, 0.0, 0.0, 0.0, 0.0, 0.0, 1.696032633000579E9, 0.0, 2023-09-29 19:10:33.000
106.0, -50673.706909860004, -26137.45941370242, -43810.447312646786, -28540.562515325848, -11426.50233823089, -15057.520873251067, -187500.02235174447, -10490.612446142728, -15916.09608126832, 12504.772842499357, -26358.69698032105, -25232.95137082951, -343.65807100034607, -8990.676282724891, -23819.80703113163, -40992.56288916623, 0.148, 1.01, 0.154, 192.0, 0.0, 0.0, 0.0, 0.0, 0.0, 0.0, 0.0, 0.0, 0.0, 1.696032633000591E9, 0.0, 2023-09-29 19:10:33.000
108.0, -50661.88283704315, -26161.152262825046, -43819.9915075292, -28583.81314084687, -11433.386675523125, -15068.942614667729, -187500.02235174447, -10501.095414292266, -15915.805508590402, 12510.271371635363, -26304.516351761384, -25238.606362176703, -343.8145332115332, -8994.341968815563, -23824.702063167344, -41001.61534567062, 0.148, 1.01, 0.154, 192.0, 0.0, 0.0, 0.0, 0.0, 0.0, 0.0, 0.0, 0.0, 0.0, 1.696032633000594E9, 0.0, 2023-09-29 19:10:33.000
110.0, -50660.49702888692, -26157.79950115675, -43805.70874282226, -28541.613047315248, -11418.031027082328, -15050.636535958833, -187500.02235174447, -10484.152791995144, -15910.016406776478, 12499.631941274636, -26369.425817659598, -25228.03398704934, -332.68336447279034, -8977.175829073885, -23815.38138572948, -40998.150825280056, 0.148, 1.01, 0.154, 192.0, 0.0, 0.0, 0.0, 0.0, 0.0, 0.0, 0.0, 0.0, 0.0, 1.696032633000598E9, 0.0, 2023-09-29 19:10:33.000
112.0, -50660.63113935365, -26119.01922452679, -43819.65623136237, -28574.671277364647, -11437.991134880916, -15066.416867544278, -187500.02235174447, -10504.425824216107, -15909.412909676184, 12516.418101360572, -26298.034345869346, -25227.56460041578, -332.951585406254, -8967.475171980283, -23820.455231720833, -40992.54053742177, 0.138, 1.006, 0.154, 192.0, 2.0, 40.0, 15.5, 56.0, 2.0, 104.0, 0.0, 0.0, 0.0, 1.696032633000601E9, 0.0, 2023-09-29 19:10:33.000
114.0, -50650.796371793316, -26158.648867446052, -43803.47356837673, -28547.580963084816, -11418.388654993612, -15044.534509722533, -187500.02235174447, -10488.623140886206, -15921.684017382147, 12497.150897640098, -26372.08567524978, -25226.536420170836, -335.41027729633777, -8975.544151728649, -23820.254066020738, -41002.24119451537, 0.138, 1.006, 0.154, 192.0, 0.0, 0.0, 0.0, 0.0, 0.0, 0.0, 0.0, 0.0, 0.0, 1.696032633000604E9, 0.0, 2023-09-29 19:10:33.000
116.0, -50662.1063544877, -26116.381718681067, -43816.14700748289, -28572.637268619215, -11430.391541766114, -15055.240995316624, -187500.02235174447, -10501.140117781177, -15899.220514204564, 12532.265488179386, -26292.58052022225, -25224.56946665877, -335.29851857406123, -8953.371221228985, -23820.164659042915, -40988.15959550853, 0.138, 1.006, 0.154, 192.0, 0.0, 0.0, 0.0, 0.0, 0.0, 0.0, 0.0, 0.0, 0.0, 1.696032633000607E9, 0.0, 2023-09-29 19:10:33.000
118.0, -50661.74872657642, -26201.586568544695, -43810.04498124659, -28563.22718420353, -11421.272030028347, -15046.099131834404, -187500.02235174447, -10486.387966440674, -15929.48477619705, 12517.08865369423, -26377.517149152416, -25223.585989902735, -329.1294371043965, -8976.594683718049, -23822.198667788347, -41004.36461023863, 0.138, 1.006, 0.154, 192.0, 0.0, 0.0, 0.0, 0.0, 0.0, 0.0, 0.0, 0.0, 0.0, 1.69603263300061E9, 0.0, 2023-09-29 19:10:33.000
120.0, -50664.2074184665, -26106.032860998257, -43830.25095823419, -28577.264079721463, -11434.191338323515, -15062.572367497965, -187500.02235174447, -10499.910771836136, -15922.466328438084, 12512.774767014358, -26288.06546784228, -25225.105908525697, -339.724163976212, -8965.217645790297, -23824.836173634074, -40994.641601400566, 0.138, 1.006, 0.154, 192.0, 0.0, 0.0, 0.0, 0.0, 0.0, 0.0, 0.0, 0.0, 0.0, 1.696032633060926E9, 0.0, 2023-09-29 19:10:33.060
122.0, -50658.418316652576, -26233.3931009046, -43820.25972846267, -28575.341829698307, -11428.201070809493, -15052.670544704264, -187500.02235174447, -10490.903018820647, -15938.336067001352, 12486.779688212835, -26386.74841961246, -25231.61026616219, -342.6969459887679, -8975.745317428746, -23831.117013826017, -41016.34514526667, 0.14, 1.012, 0.152, 192.0, 2.0, 48.0, 15.5, 80.0, 2.0, 96.0, 0.0, 0.0, 0.0, 1.696032633060936E9, 0.0, 2023-09-29 19:10:33.060
124.0, -50671.38232843666, -26108.35744242161, -43830.58623440102, -28566.736408083012, -11442.193262838515, -15059.443123274223, -187500.02235174447, -10499.106109035743, -15908.854116064802, 12534.09833122472, -26298.10140110271, -25233.644274907623, -343.52396053361423, -8951.896006094934, -23826.6243131905, -40994.32867697819, 0.14, 1.012, 0.152, 192.0, 0.0, 0.0, 0.0, 0.0, 0.0, 0.0, 0.0, 0.0, 0.0, 1.696032633060942E9, 0.0, 2023-09-29 19:10:33.060
126.0, -50678.691348873544, -26224.51945835584, -43832.15085651289, -28586.42829494814, -11445.926004162551, -15068.517931523078, -187500.02235174447, -10507.443309717573, -15934.49156695504, 12494.312226094275, -26380.199358487054, -25241.04270232233, -349.11189664744103, -8979.031023863678, -23840.95178138635, -41018.06622958973, 0.14, 1.012, 0.152, 192.0, 0.0, 0.0, 0.0, 0.0, 0.0, 0.0, 0.0, 0.0, 0.0, 1.696032633060945E9, 0.0, 2023-09-29 19:10:33.060
128.0, -50668.051918512814, -26062.514014543776, -43835.97300481475, -28566.289373193908, -11450.93279492054, -15068.74144896763, -187500.02235174447, -10512.114824308734, -15923.248639494019, 12494.71455749447, -26302.88467441615, -25242.719083156477, -359.12547816341856, -8962.893064366945, -23838.403682518445, -41002.621174171116, 0.14, 1.012, 0.152, 192.0, 0.0, 0.0, 0.0, 0.0, 0.0, 0.0, 0.0, 0.0, 0.0, 1.696032633060963E9, 0.0, 2023-09-29 19:10:33.060
130.0, -50652.27158692737, -26224.228885677923, -43820.90792905187, -28582.628498390735, -11440.874509915651, -15055.59862322791, -187500.02235174447, -10504.068196304823, -15930.870584353279, 12483.493981777905, -26378.590032886274, -25227.542248671325, -351.3023676040611, -8980.77445993119, -23838.71660694082, -41019.07205809022, 0.14, 1.012, 0.152, 192.0, 0.0, 0.0, 0.0, 0.0, 0.0, 0.0, 0.0, 0.0, 0.0, 1.696032633060966E9, 0.0, 2023-09-29 19:10:33.060
132.0, -50660.83230505375, -26069.577165791652, -43825.66885062085, -28546.37396888423, -11446.30598381829, -15054.011649371583, -187500.02235174447, -10504.60463817175, -15900.896895038713, 12533.42777889106, -26302.459991271495, -25220.36733870117, -348.84367571397735, -8954.131180540464, -23822.399833488445, -40989.43364494248, 0.146, 1.008, 0.152, 192.0, 2.0, 72.0, 15.5, 64.0, 2.0, 96.0, 0.0, 0.0, 0.0, 1.69603263306097E9, 0.0, 2023-09-29 19:10:33.060
134.0, -50662.57574112126, -26221.65843506556, -43822.15962674137, -28576.258251220974, -11444.964879150974, -15056.090361605928, -187500.02235174447, -10505.990446327978, -15910.306979454397, 12518.13918568363, -26358.093483220757, -25219.763841600878, -357.42674558481525, -8975.320634284095, -23830.178240558893, -41011.96420335343, 0.146, 1.008, 0.152, 192.0, 0.0, 0.0, 0.0, 0.0, 0.0, 0.0, 0.0, 0.0, 0.0, 1.696032633120433E9, 0.0, 2023-09-29 19:10:33.120
136.0, -50659.82647655326, -26078.2049391514, -43819.455065662274, -28534.684006534102, -11439.756922692886, -15050.390666769823, -187500.02235174447, -10502.213001515032, -15917.0572062799, 12515.52403158236, -26306.0586221288, -25208.23034146194, -348.06136465804155, -8945.481055436261, -23820.410528231925, -40989.00896179783, 0.146, 1.008, 0.152, 192.0, 0.0, 0.0, 0.0, 0.0, 0.0, 0.0, 0.0, 0.0, 0.0, 1.696032633120442E9, 0.0, 2023-09-29 19:10:33.120
138.0, -50658.82064805277, -26236.23177245042, -43824.43950467581, -28577.912280310666, -11447.222405340959, -15061.320669808469, -187500.02235174447, -10504.492879449474, -15938.403122234718, 12508.460880334484, -26352.72906455148, -25210.8007920743, -351.6152920264354, -8970.380898759473, -23828.367749258014, -41007.80677888475, 0.146, 1.008, 0.152, 192.0, 0.0, 0.0, 0.0, 0.0, 0.0, 0.0, 0.0, 0.0, 0.0, 1.696032633120445E9, 0.0, 2023-09-29 19:10:33.120
140.0, -50653.36682240568, -26079.367229863077, -43819.05273426208, -28531.621817543724, -11440.069847115261, -15053.11757959337, -187500.02235174447, -10502.883553848691, -15915.336121956841, 12524.19650843102, -26320.58725602475, -25211.94073104152, -350.9670914372315, -8959.652061420926, -23820.745804398754, -40991.15472926554, 0.146, 1.008, 0.152, 192.0, 0.0, 0.0, 0.0, 0.0, 0.0, 0.0, 0.0, 0.0, 0.0, 1.696032633120448E9, 0.0, 2023-09-29 19:10:33.120
142.0, -50657.61365385219, -26215.578760573717, -43822.56195814157, -28590.339850227818, -11445.255451828893, -15069.389649556835, -187500.02235174447, -10512.539507453384, -15926.847270351323, 12517.647447305615, -26346.69409354855, -25226.067033537274, -360.9583212087538, -8991.704462969836, -23831.452289992845, -41009.70667716345, 0.148, 1.004, 0.152, 192.0, 2.0, 80.0, 15.5, 48.0, 2.0, 96.0, 0.0, 0.0, 0.0, 1.696032633120451E9, 0.0, 2023-09-29 19:10:33.120
144.0, -50665.30265394481, -26067.92313670196, -43810.804940558075, -28540.003721714464, -11439.443998270512, -15060.873634919362, -187500.02235174447, -10508.471489962518, -15907.714177097581, 12512.28302863634, -26328.946808451037, -25216.32167295476, -353.0905071604857, -8977.555808729627, -23821.125784054493, -40993.99340081136, 0.148, 1.004, 0.152, 192.0, 0.0, 0.0, 0.0, 0.0, 0.0, 0.0, 0.0, 0.0, 0.0, 1.696032633120454E9, 0.0, 2023-09-29 19:10:33.120
146.0, -50650.81872353777, -26182.408771802042, -43818.38218192842, -28597.782981131433, -11445.478969273445, -15074.821123459475, -187500.02235174447, -10521.860184891246, -15923.181584260654, 12492.278217348841, -26324.364700837697, -25221.529629412846, -356.3091583620499, -8992.486774025772, -23830.066481836617, -41007.00211608435, 0.148, 1.004, 0.152, 192.0, 0.0, 0.0, 0.0, 0.0, 0.0, 0.0, 0.0, 0.0, 0.0, 1.696032633120458E9, 0.0, 2023-09-29 19:10:33.120
148.0, -50668.767174335386, -26059.29536334221, -43811.29667893609, -28537.053291446366, -11429.87745164364, -15054.5033877496, -187500.02235174447, -10504.60463817175, -15908.183563731143, 12504.19169714352, -26339.250962644932, -25216.94752179951, -350.85533271495495, -8990.20689609133, -23816.76719388571, -40992.11585427712, 0.148, 1.004, 0.152, 192.0, 0.0, 0.0, 0.0, 0.0, 0.0, 0.0, 0.0, 0.0, 0.0, 1.696032633120461E9, 0.0, 2023-09-29 19:10:33.120
150.0, -50653.14330496112, -26154.357332510634, -43818.04690576159, -28581.175635001142, -11441.187434338026, -15064.136989609837, -187500.02235174447, -10511.108995808245, -15921.77342435997, 12510.51724082437, -26320.453145558018, -25222.13312651314, -362.83586774299954, -8983.25550356573, -23824.210324789325, -40998.01671481332, 0.148, 1.004, 0.152, 192.0, 0.0, 0.0, 0.0, 0.0, 0.0, 0.0, 0.0, 0.0, 0.0, 1.69603263318022E9, 0.0, 2023-09-29 19:10:33.180
152.0, -50663.26864519938, -26070.49358731432, -43806.6922195783, -28524.715128507036, -11439.622812226155, -15052.201158070704, -187500.02235174447, -10494.166373511121, -15915.537287656938, 12533.271316679873, -26344.615381314205, -25214.399422931605, -357.627911284913, -8976.594683718049, -23813.66030140642, -40981.11879600511, 0.152, 1.006, 0.15, 192.0, 2.0, 96.0, 15.5, 56.0, 2.0, 88.0, 0.0, 0.0, 0.0, 1.696032633180228E9, 0.0, 2023-09-29 19:10:33.180
154.0, -50658.5077236304, -26145.46133821742, -43815.1411789824, -28579.745123356002, -11450.195187353514, -15073.03298390305, -187500.02235174447, -10512.539507453384, -15926.57904941786, 12486.511467279372, -26311.3112820758, -25217.595722388713, -360.3771758529158, -8987.658797223425, -23824.38913874497, -40990.931211820985, 0.152, 1.006, 0.15, 192.0, 0.0, 0.0, 0.0, 0.0, 0.0, 0.0, 0.0, 0.0, 0.0, 1.696032633180231E9, 0.0, 2023-09-29 19:10:33.180
156.0, -50684.68161638756, -26109.162105222, -43807.47453063423, -28543.825870016324, -11437.253527313893, -15070.84251294643, -187500.02235174447, -10508.69500740707, -15918.688883625136, 12493.731080738437, -26365.156634468633, -25215.986396787932, -352.0846786599968, -9002.388596819472, -23818.86825786451, -40994.61924965611, 0.152, 1.006, 0.15, 192.0, 0.0, 0.0, 0.0, 0.0, 0.0, 0.0, 0.0, 0.0, 0.0, 1.696032633180234E9, 0.0, 2023-09-29 19:10:33.180
158.0, -50681.93235181956, -26122.908428062015, -43825.22181573175, -28598.14060904272, -11448.02706814135, -15088.70155676622, -187500.02235174447, -10522.553088969362, -15925.215593006087, 12478.911874164567, -26305.410421539596, -25236.28178075335, -368.8931904903878, -9014.570297547614, -23830.491164981268, -41008.4326277295, 0.152, 1.006, 0.15, 192.0, 0.0, 0.0, 0.0, 0.0, 0.0, 0.0, 0.0, 0.0, 0.0, 1.696032633180238E9, 0.0, 2023-09-29 19:10:33.180
160.0, -50686.46975594399, -26148.88115511908, -43812.14604522539, -28565.32824818233, -11438.907556403585, -15070.775457713064, -187500.02235174447, -10514.148833054165, -15940.548889702428, 12477.034327630321, -26389.900015580657, -25236.505298197902, -368.5579143235582, -9026.148501175465, -23828.591266702566, -41013.21590104293, 0.152, 1.006, 0.15, 192.0, 0.0, 0.0, 0.0, 0.0, 0.0, 0.0, 0.0, 0.0, 0.0, 1.696032633180241E9, 0.0, 2023-09-29 19:10:33.180
162.0, -50692.19180252455, -26119.667425115997, -43824.93124305383, -28588.439951949116, -11462.756867737398, -15082.376013085368, -187500.02235174447, -10527.336362282796, -15929.77534887497, 12496.480345306438, -26311.601854753717, -25243.166118045585, -366.434498600304, -9010.770500990213, -23833.553353971645, -41002.3753049821, 0.15, 1.008, 0.152, 192.0, 2.0, 88.0, 15.5, 64.0, 2.0, 96.0, 0.0, 0.0, 0.0, 1.696032633180244E9, 0.0, 2023-09-29 19:10:33.180
164.0, -50686.62621815517, -26175.546786254265, -43808.56976611254, -28556.83458528931, -11450.30694607579, -15067.132123366848, -187500.02235174447, -10513.36652199823, -15945.39921824923, 12459.108228577164, -26393.051611548857, -25233.510164440893, -364.31108287704984, -9018.750073760757, -23832.77104291571, -41006.42097072852, 0.15, 1.008, 0.152, 192.0, 0.0, 0.0, 0.0, 0.0, 0.0, 0.0, 0.0, 0.0, 0.0, 1.6960326332405E9, 0.0, 2023-09-29 19:10:33.240
166.0, -50696.77391013788, -26096.980404493857, -43820.14796974039, -28568.32338193934, -11467.495437561922, -15081.392536329335, -187500.02235174447, -10522.150757569165, -15928.858927352301, 12487.539647524316, -26313.524104776872, -25227.832821349242, -369.49668759068106, -9001.181602618886, -23834.760348172233, -40998.73197063589, 0.15, 1.008, 0.152, 192.0, 0.0, 0.0, 0.0, 0.0, 0.0, 0.0, 0.0, 0.0, 0.0, 1.696032633240511E9, 0.0, 2023-09-29 19:10:33.240
168.0, -50683.586380909255, -26169.04242861777, -43815.31999293804, -28567.31755343885, -11454.665536244576, -15077.101001393916, -187500.02235174447, -10513.232411531499, -15945.734494416058, 12467.333670536718, -26392.626928404206, -25233.5548679298, -383.399472641882, -9029.143634932476, -23838.806013918642, -41016.389848755585, 0.15, 1.008, 0.152, 192.0, 0.0, 0.0, 0.0, 0.0, 0.0, 0.0, 0.0, 0.0, 0.0, 1.696032633240515E9, 0.0, 2023-09-29 19:10:33.240
170.0, -50686.581514666264, -26100.02024173978, -43816.21406271626, -28562.64603884769, -11455.514902533878, -15069.210835601192, -187500.02235174447, -10508.382082984697, -15917.504241169006, 12511.031330946844, -26314.932264677558, -25227.40813820459, -371.06130970255253, -9005.674303254402, -23829.351226014045, -40995.31215373423, 0.15, 1.008, 0.152, 192.0, 0.0, 0.0, 0.0, 0.0, 0.0, 0.0, 0.0, 0.0, 0.0, 1.696032633240519E9, 0.0, 2023-09-29 19:10:33.240
172.0, -50701.60188694023, -26224.05007172228, -43807.9886207567, -28559.293277179397, -11445.568376251267, -15064.293451821024, -187500.02235174447, -10505.856335861246, -15952.372962519285, 12469.479438004428, -26403.51222795394, -25220.702614868, -361.6512252868683, -9024.628582552503, -23822.556295699633, -41001.36947648162, 0.146, 1.01, 0.156, 192.0, 2.0, 72.0, 15.5, 72.0, 2.0, 112.0, 0.0, 0.0, 0.0, 1.696032633240522E9, 0.0, 2023-09-29 19:10:33.240
174.0, -50710.006142855425, -26079.2554711408, -43825.80296108758, -28559.807367301866, -11464.634414271643, -15077.570388027478, -187500.02235174447, -10521.390798257686, -15946.874433383278, 12493.149935382598, -26318.910875190602, -25242.00382733391, -372.53652483660284, -9005.83076546559, -23824.76911840071, -40988.36076120863, 0.146, 1.01, 0.156, 192.0, 0.0, 0.0, 0.0, 0.0, 0.0, 0.0, 0.0, 0.0, 0.0, 1.696032633240526E9, 0.0, 2023-09-29 19:10:33.240
176.0, -50704.73113116397, -26214.394118117587, -43815.92349003834, -28569.642134862203, -11454.93375717804, -15070.484885035145, -187500.02235174447, -10508.203269029054, -15965.180512092176, 12454.436713986006, -26411.60355944676, -25249.737530915445, -378.1691644393402, -9036.765579791734, -23829.373577758503, -41008.63379342959, 0.146, 1.01, 0.156, 192.0, 0.0, 0.0, 0.0, 0.0, 0.0, 0.0, 0.0, 0.0, 0.0, 1.696032633240529E9, 0.0, 2023-09-29 19:10:33.240
178.0, -50700.908982862114, -26071.87939547055, -43821.31026045207, -28548.20681192956, -11457.83948395723, -15069.635518745843, -187500.02235174447, -10505.342245738775, -15936.905555356212, 12496.65915926208, -26334.35593060922, -25250.22926929346, -379.06323421755246, -9010.815204479124, -23821.70692941033, -40981.18585123847, 0.146, 1.01, 0.156, 192.0, 0.0, 0.0, 0.0, 0.0, 0.0, 0.0, 0.0, 0.0, 0.0, 1.696032633240532E9, 0.0, 2023-09-29 19:10:33.240
180.0, -50707.70391317653, -26199.351394099165, -43822.22668197473, -28578.202852988587, -11460.901672947606, -15078.240940361136, -187500.02235174447, -10511.958362097546, -15960.911328901211, 12462.170417567542, -26405.143905299177, -25253.559679217302, -394.86591754745456, -9041.817074038634, -23832.39106325997, -41003.649354416055, 0.146, 1.01, 0.156, 192.0, 0.0, 0.0, 0.0, 0.0, 0.0, 0.0, 0.0, 0.0, 0.0, 1.696032633300686E9, 0.0, 2023-09-29 19:10:33.300
182.0, -50717.15870108113, -26059.809453464684, -43816.81755981655, -28553.638285832203, -11457.750076979408, -15071.468361791178, -187500.02235174447, -10513.299466764864, -15939.900689113223, 12484.678624234037, -26346.939962737557, -25248.79875764832, -379.1079377064631, -9029.255393654752, -23824.3220835116, -40989.031313542284, 0.146, 1.01, 0.158, 192.0, 2.0, 72.0, 15.5, 72.0, 2.0, 120.0, 0.0, 0.0, 0.0, 1.696032633300696E9, 0.0, 2023-09-29 19:10:33.300
184.0, -50715.66113420262, -26215.802278018273, -43820.95263254078, -28591.41273396167, -11460.02995491385, -15081.4595915627, -187500.02235174447, -10525.011780859444, -15975.30585233043, 12459.085876832709, -26412.22940829151, -25254.34199027324, -382.08071971901893, -9040.051286226664, -23828.27834228019, -41009.460807974436, 0.146, 1.01, 0.158, 192.0, 0.0, 0.0, 0.0, 0.0, 0.0, 0.0, 0.0, 0.0, 0.0, 1.6960326333007E9, 0.0, 2023-09-29 19:10:33.300
186.0, -50706.429863742575, -26051.785177205227, -43819.67858310683, -28550.799614286378, -11454.263204844381, -15073.390611814335, -187500.02235174447, -10520.362618012741, -15959.927852145178, 12503.610551787682, -26357.93702100957, -25264.75790318941, -381.9913127411977, -9023.153367418452, -23821.684577665877, -40992.764054866326, 0.146, 1.01, 0.158, 192.0, 0.0, 0.0, 0.0, 0.0, 0.0, 0.0, 0.0, 0.0, 0.0, 1.696032633300703E9, 0.0, 2023-09-29 19:10:33.300
188.0, -50714.074160346296, -26214.550580328774, -43821.75729534117, -28587.90351008219, -11458.688850246532, -15079.760858984097, -187500.02235174447, -10521.927240124613, -15969.11441911631, 12458.437676243506, -26411.022414090923, -25248.597591948223, -376.0904522049966, -9030.887070999988, -23824.478545722788, -41009.34904925216, 0.146, 1.01, 0.158, 192.0, 0.0, 0.0, 0.0, 0.0, 0.0, 0.0, 0.0, 0.0, 0.0, 1.696032633300706E9, 0.0, 2023-09-29 19:10:33.300
190.0, -50719.97502088249, -26037.837688665117, -43821.73494359672, -28541.747157781978, -11462.063963659282, -15072.831818202952, -187500.02235174447, -10521.904888380157, -15947.835558394858, 12489.864228947668, -26366.31892518031, -25253.47027223948, -384.33824590900497, -9018.235983638286, -23825.774946901198, -40992.13820602158, 0.146, 1.01, 0.158, 192.0, 0.0, 0.0, 0.0, 0.0, 0.0, 0.0, 0.0, 0.0, 0.0, 1.69603263330071E9, 0.0, 2023-09-29 19:10:33.300
192.0, -50693.17527928058, -26196.75859174235, -43819.49976915119, -28594.27375725195, -11464.50030380491, -15081.593702029431, -187500.02235174447, -10526.822272160325, -15960.687811456659, 12479.872999176145, -26395.845579605768, -25255.593687962733, -386.4616616322591, -9041.12416996052, -23833.262781293724, -41009.77373239681, 0.138, 1.006, 0.164, 192.0, 2.0, 40.0, 15.5, 56.0, 2.5, 16.0, 0.0, 0.0, 0.0, 1.696032633300713E9, 0.0, 2023-09-29 19:10:33.300
194.0, -50703.010046840915, -26075.07569492766, -43805.95461201127, -28537.433271102105, -11456.945414179017, -15069.07672513446, -187500.02235174447, -10514.0817778208, -15941.308849013907, 12502.872944220657, -26379.193529986565, -25245.84832738022, -376.0233969716307, -9025.746169775268, -23820.835211376576, -40992.58524091068, 0.138, 1.006, 0.164, 192.0, 0.0, 0.0, 0.0, 0.0, 0.0, 0.0, 0.0, 0.0, 0.0, 1.696032633361051E9, 0.0, 2023-09-29 19:10:33.361
196.0, -50711.66017194512, -26174.764475198328, -43826.11588550996, -28591.971527573056, -11473.284539375847, -15089.975606200172, -187500.02235174447, -10531.829062918314, -15965.359326047817, 12470.306452549274, -26369.917556037613, -25259.393484520137, -383.9359145088094, -9043.806379295156, -23828.323045769102, -41001.95062183745, 0.138, 1.006, 0.164, 192.0, 0.0, 0.0, 0.0, 0.0, 0.0, 0.0, 0.0, 0.0, 0.0, 1.696032633361061E9, 0.0, 2023-09-29 19:10:33.361
198.0, -50716.24227955846, -26072.59465129312, -43807.720399823236, -28534.01345420044, -11453.436190299535, -15063.958175654196, -187500.02235174447, -10506.951571339558, -15962.230081824075, 12478.397784042096, -26396.449076706063, -25259.639353709146, -380.18082144031786, -9035.111550702042, -23822.221019532804, -40993.166386266515, 0.138, 1.006, 0.164, 192.0, 0.0, 0.0, 0.0, 0.0, 0.0, 0.0, 0.0, 0.0, 0.0, 1.696032633361064E9, 0.0, 2023-09-29 19:10:33.361
200.0, -50694.42697697008, -26170.830568174195, -43811.564899869554, -28578.158149499675, -11456.230158356448, -15067.065068133483, -187500.02235174447, -10508.583248684794, -15962.230081824075, 12483.561037011272, -26366.765960069413, -25255.839557151743, -374.59288532649106, -9032.675210556414, -23823.00333058874, -40986.14793850755, 0.138, 1.006, 0.164, 192.0, 0.0, 0.0, 0.0, 0.0, 0.0, 0.0, 0.0, 0.0, 0.0, 1.696032633361068E9, 0.0, 2023-09-29 19:10:33.361
202.0, -50713.2694975459, -26091.72774454686, -43809.10620797947, -28531.51005882145, -11449.994021653418, -15062.304146564502, -187500.02235174447, -10506.616295172727, -15958.474988755583, 12485.907970179078, -26400.69590815257, -25251.682132683058, -375.0175684711419, -9029.255393654752, -23816.700138652344, -40978.280124459285, 0.146, 1.008, 0.16, 192.0, 2.0, 72.0, 15.5, 64.0, 2.5, 0.0, 0.0, 0.0, 0.0, 1.696032633361071E9, 0.0, 2023-09-29 19:10:33.361
204.0, -50704.03822708586, -26114.88415180256, -43823.67954536433, -28590.161036272173, -11469.03770792934, -15087.762783499096, -187500.02235174447, -10532.387856529696, -15967.259224326519, 12490.914760937067, -26352.103215706735, -25257.337124030248, -396.96698152625345, -9040.140693204487, -23828.032473091185, -40992.80875835523, 0.146, 1.008, 0.16, 192.0, 0.0, 0.0, 0.0, 0.0, 0.0, 0.0, 0.0, 0.0, 0.0, 1.696032633361075E9, 0.0, 2023-09-29 19:10:33.361
206.0, -50706.94395386505, -26111.93372153446, -43798.645591574386, -28552.677160820625, -11446.462446029478, -15067.579158255954, -187500.02235174447, -10512.740673153481, -15970.299061572441, 12481.75054571039, -26412.542332713885, -25250.341028015737, -378.34797839498265, -9055.988080023299, -23818.644740419953, -41002.196491026465, 0.146, 1.008, 0.16, 192.0, 0.0, 0.0, 0.0, 0.0, 0.0, 0.0, 0.0, 0.0, 0.0, 1.696032633361078E9, 0.0, 2023-09-29 19:10:33.361
208.0, -50704.26174453041, -26105.384660409054, -43810.156739968865, -28578.672239622145, -11464.03091717135, -15075.670489748776, -187500.02235174447, -10520.452024990562, -15957.782084677468, 12490.154801625587, -26350.49389010595, -25250.318676271283, -381.6783883188234, -9045.482760129305, -23816.029586318684, -40988.85249958665, 0.146, 1.008, 0.16, 192.0, 0.0, 0.0, 0.0, 0.0, 0.0, 0.0, 0.0, 0.0, 0.0, 1.696032633361081E9, 0.0, 2023-09-29 19:10:33.361
210.0, -50707.79332015435, -26127.110556019612, -43797.013914229145, -28542.17184092663, -11447.02123964086, -15055.710381950186, -187500.02235174447, -10501.65420790365, -15962.922985902189, 12479.045984631299, -26419.069042094834, -25250.09515882673, -377.8562400169659, -9038.151387947964, -23813.257970006227, -40989.41129319803, 0.146, 1.008, 0.16, 192.0, 0.0, 0.0, 0.0, 0.0, 0.0, 0.0, 0.0, 0.0, 0.0, 1.696032633420397E9, 0.0, 2023-09-29 19:10:33.420
212.0, -50688.70493038952, -26105.585826109153, -43814.76119932666, -28569.016286017453, -11457.83948395723, -15065.321632065969, -187500.02235174447, -10512.181879542099, -15956.373924776784, 12498.246133118408, -26349.465709861008, -25255.593687962733, -377.2527429166726, -9028.718951787825, -23813.593246173055, -40979.755339593336, 0.14, 1.004, 0.156, 192.0, 2.0, 48.0, 15.5, 48.0, 2.0, 112.0, 0.0, 0.0, 0.0, 1.696032633420413E9, 0.0, 2023-09-29 19:10:33.420
214.0, -50700.55135495083, -26155.83254764468, -43815.968193527246, -28555.89581202219, -11447.825902441253, -15061.343021552924, -187500.02235174447, -10510.930181852602, -15970.120247616798, 12477.168438097053, -26425.863972409246, -25261.33808628775, -385.7464058096893, -9052.724725332824, -23821.416356732414, -40991.06532228772, 0.14, 1.004, 0.156, 192.0, 0.0, 0.0, 0.0, 0.0, 0.0, 0.0, 0.0, 0.0, 0.0, 1.696032633420417E9, 0.0, 2023-09-29 19:10:33.420
216.0, -50696.46098571551, -26106.256378442813, -43816.884615049916, -28565.775283071434, -11454.866701944675, -15067.780323956053, -187500.02235174447, -10519.490899978984, -15955.30104104293, 12505.71161576648, -26351.946753495547, -25262.790949677343, -379.2196964287396, -9033.189300678885, -23818.957664842328, -40986.662028630024, 0.14, 1.004, 0.156, 192.0, 0.0, 0.0, 0.0, 0.0, 0.0, 0.0, 0.0, 0.0, 0.0, 1.69603263342042E9, 0.0, 2023-09-29 19:10:33.420
218.0, -50712.15191032313, -26167.56721348372, -43816.01289701616, -28552.096015464787, -11448.988193152929, -15065.902777421807, -187500.02235174447, -10516.540469710884, -15962.744171946548, 12483.359871311173, -26418.71141418355, -25247.61411519219, -372.04478645858603, -9046.130960718509, -23817.504801452735, -40996.452092701446, 0.14, 1.004, 0.156, 192.0, 0.0, 0.0, 0.0, 0.0, 0.0, 0.0, 0.0, 0.0, 0.0, 1.696032633420423E9, 0.0, 2023-09-29 19:10:33.420
220.0, -50707.3686370097, -26057.104892385592, -43828.21694948876, -28563.204832459072, -11460.722858991965, -15074.262329848092, -187500.02235174447, -10523.357751769752, -15953.512901486505, 12488.32195858025, -26337.462823088506, -25259.14761533113, -384.29354242009435, -9053.305870688662, -23826.736071912776, -40994.75336012284, 0.14, 1.004, 0.156, 192.0, 0.0, 0.0, 0.0, 0.0, 0.0, 0.0, 0.0, 0.0, 0.0, 1.696032633420426E9, 0.0, 2023-09-29 19:10:33.420
222.0, -50697.489165960455, -26193.383478329597, -43816.12465573844, -28561.08141673582, -11447.468274529967, -15064.74048671013, -187500.02235174447, -10508.046806817867, -15969.360288305317, 12471.915778150056, -26431.51896375644, -25252.263278038896, -383.08654821950773, -9050.020164253732, -23823.986807344772, -41005.03516257228, 0.138, 0.998, 0.158, 192.0, 2.0, 40.0, 15.5, 24.0, 2.0, 120.0, 0.0, 0.0, 0.0, 1.696032633420429E9, 0.0, 2023-09-29 19:10:33.420
224.0, -50686.46975594399, -26071.991154192827, -43812.81659755905, -28542.574172326826, -11448.854082686197, -15066.528626266556, -187500.02235174447, -10519.714417423536, -15949.891918884745, 12510.584296057737, -26343.207221413522, -25245.08836806874, -376.1798591828179, -9026.349666875562, -23814.174391528893, -40982.81752858371, 0.138, 0.998, 0.158, 192.0, 0.0, 0.0, 0.0, 0.0, 0.0, 0.0, 0.0, 0.0, 0.0, 1.696032633480171E9, 0.0, 2023-09-29 19:10:33.480
226.0, -50685.039244298845, -26212.583626816708, -43802.15481545387, -28556.85693703377, -11446.417742540569, -15074.575254270465, -187500.02235174447, -10523.782434914403, -15966.007526637022, 12499.788403485823, -26413.324643769818, -25244.10489131271, -378.63855107290163, -9047.114437474542, -23814.33085374008, -41000.56481368122, 0.138, 0.998, 0.158, 192.0, 0.0, 0.0, 0.0, 0.0, 0.0, 0.0, 0.0, 0.0, 0.0, 1.696032633480182E9, 0.0, 2023-09-29 19:10:33.480
228.0, -50689.28607574536, -26057.77544471925, -43799.405550885866, -28534.01345420044, -11449.859911186686, -15078.263292105592, -187500.02235174447, -10523.17893781411, -15943.991058348545, 12517.200412416509, -26338.893334733646, -25241.445033722524, -363.88639973239896, -9019.577088305603, -23807.558275170122, -40984.91859256251, 0.138, 0.998, 0.158, 192.0, 0.0, 0.0, 0.0, 0.0, 0.0, 0.0, 0.0, 0.0, 0.0, 1.696032633480186E9, 0.0, 2023-09-29 19:10:33.480
230.0, -50678.9148663181, -26220.652606565072, -43797.84092877399, -28563.562460370358, -11446.12716986265, -15080.140838639838, -187500.02235174447, -10515.713455166037, -15970.477875528084, 12490.825353959246, -26410.284806523898, -25239.411024977093, -355.1468676503739, -9034.709219301847, -23812.386251972468, -41001.19066252597, 0.138, 0.998, 0.158, 192.0, 0.0, 0.0, 0.0, 0.0, 0.0, 0.0, 0.0, 0.0, 0.0, 1.696032633480189E9, 0.0, 2023-09-29 19:10:33.480
232.0, -50681.53002041936, -26055.58497376263, -43801.640725331396, -28524.625721529213, -11445.009582639883, -15070.328422823957, -187500.02235174447, -10507.26449576193, -15940.727703658069, 12528.219822432975, -26344.078939447278, -25241.7579581449, -343.0545739000528, -9009.429396322894, -23809.301711237636, -40987.33258096368, 0.14200000000000002, 1.012, 0.156, 192.0, 2.0, 56.0, 15.5, 80.0, 2.0, 112.0, 0.0, 0.0, 0.0, 1.696032633480193E9, 0.0, 2023-09-29 19:10:33.480
234.0, -50682.75936636441, -26194.52341729682, -43815.29764119359, -28565.46235864906, -11447.512978018878, -15068.853207689906, -187500.02235174447, -10503.867030604724, -15965.314622558908, 12493.395804571606, -26385.049687033857, -25246.09419656923, -344.66389950083493, -9006.747186988257, -23819.18118228688, -41003.44818871596, 0.14200000000000002, 1.012, 0.156, 192.0, 0.0, 0.0, 0.0, 0.0, 0.0, 0.0, 0.0, 0.0, 0.0, 1.696032633480196E9, 0.0, 2023-09-29 19:10:33.480
236.0, -50687.497936188935, -26028.24879029379, -43818.829216817525, -28519.797744726868, -11434.683076701533, -15052.69289644872, -187500.02235174447, -10487.21498098552, -15945.9133083717, 12525.314095653785, -26345.375340625687, -25238.360492987693, -337.22076859721767, -8967.944558613844, -23806.753612369732, -40981.565830894215, 0.14200000000000002, 1.012, 0.156, 192.0, 0.0, 0.0, 0.0, 0.0, 0.0, 0.0, 0.0, 0.0, 0.0, 1.6960326334802E9, 0.0, 2023-09-29 19:10:33.480
238.0, -50679.451308185024, -26187.50496953785, -43833.82723734704, -28579.566309400358, -11438.751094192397, -15062.237091331137, -187500.02235174447, -10488.489030419472, -15975.082334885878, 12501.978874442444, -26378.165349741623, -25242.115586056185, -340.0594401430416, -8977.980491874278, -23819.71762415381, -41003.805816627246, 0.14200000000000002, 1.012, 0.156, 192.0, 0.0, 0.0, 0.0, 0.0, 0.0, 0.0, 0.0, 0.0, 0.0, 1.696032633480203E9, 0.0, 2023-09-29 19:10:33.480
240.0, -50682.58055240876, -26065.710314000884, -43827.32287971054, -28533.566419311337, -11424.043646340806, -15043.461625988679, -187500.02235174447, -10468.707736576527, -15946.606212449815, 12544.804816818812, -26359.233422187976, -25230.246809750417, -323.563852735025, -8947.380953714963, -23810.084022293573, -40987.019656541306, 0.14200000000000002, 1.012, 0.156, 192.0, 0.0, 0.0, 0.0, 0.0, 0.0, 0.0, 0.0, 0.0, 0.0, 1.696032633541427E9, 0.0, 2023-09-29 19:10:33.541
242.0, -50670.421203425074, -26186.14151312608, -43840.04102230562, -28593.42439096265, -11434.750131934898, -15060.895986663818, -187500.02235174447, -10484.063385017322, -15956.709200943615, 12517.71450253898, -26359.79221579936, -25236.9076295981, -323.63090796839094, -8967.586930702559, -23823.51742071121, -41003.247023015865, 0.14200000000000002, 1.012, 0.156, 192.0, 2.0, 56.0, 15.5, 80.0, 2.0, 112.0, 0.0, 0.0, 0.0, 1.696032633541436E9, 0.0, 2023-09-29 19:10:33.541
