%OpenBCI Raw EXG Data
%Number of channels = 16
%Sample Rate = 125 Hz
%Board = OpenBCI_GUI$BoardCytonSerialDaisy
Sample Index, EXG Channel 0, EXG Channel 1, EXG Channel 2, EXG Channel 3, EXG Channel 4, EXG Channel 5, EXG Channel 6, EXG Channel 7, EXG Channel 8, EXG Channel 9, EXG Channel 10, EXG Channel 11, EXG Channel 12, EXG Channel 13, EXG Channel 14, EXG Channel 15, Accel Channel 0, Accel Channel 1, Accel Channel 2, Other, Other, Other, Other, Other, Other, Other, Analog Channel 0, Analog Channel 1, Analog Channel 2, Timestamp, Other, Timestamp (Formatted)
0.0, -50207.11424435547, -25113.749517649358, -43789.973114725726, -28052.065140255112, -11448.518806519367, -15154.125112786904, -187500.02235174447, -10291.570161768219, 0.0, 0.0, 0.0, 0.0, 0.0, 0.0, 0.0, 0.0, 0.0, 0.0, 0.0, 192.0, 0.0, 0.0, 0.0, 0.0, 0.0, 0.0, 0.0, 0.0, 0.0, 1.696032664920993E9, 0.0, 2023-09-29 19:11:04.920
224.0, -50208.611811233975, -24944.256239444763, -43803.942955010294, -28033.759061546214, -11446.462446029478, -15142.725723114698, -187500.02235174447, -10282.495353519364, -15385.085688243591, 12753.078371653364, -26517.081441531354, -25270.99403989244, -438.16124655738435, -8811.951734060256, -23806.127763524983, -41136.28460601385, 0.138, 1.006, 0.17200000000000001, 192.0, 2.0, 40.0, 15.5, 56.0, 2.5, 48.0, 0.0, 0.0, 0.0, 1.696032664921003E9, 0.0, 2023-09-29 19:11:04.921
226.0, -50186.14830805639, -25102.595997166158, -43809.329725424024, -28078.060219056635, -11441.5003587604, -15135.975496289195, -187500.02235174447, -10282.115373863624, -15413.293589746188, 12702.60813267328, -26582.79557022996, -25275.374981805682, -441.60341520350164, -8824.736931888692, -23819.203534031338, -41158.926923147075, 0.138, 1.006, 0.17200000000000001, 192.0, 0.0, 0.0, 0.0, 0.0, 0.0, 0.0, 0.0, 0.0, 0.0, 1.696032664921007E9, 0.0, 2023-09-29 19:11:04.921
228.0, -50209.32706705655, -24957.846100073588, -43810.62612660243, -28045.292561685153, -11436.605326724688, -15125.000789761638, -187500.02235174447, -10282.137725608078, -15396.507429660252, 12739.488511024538, -26533.44291847264, -25265.42845552307, -431.9027581098984, -8793.533896629084, -23809.547580426646, -41133.89296935713, 0.138, 1.006, 0.17200000000000001, 192.0, 0.0, 0.0, 0.0, 0.0, 0.0, 0.0, 0.0, 0.0, 0.0, 1.696032664921011E9, 0.0, 2023-09-29 19:11:04.921
230.0, -50210.578764746046, -25085.452209168936, -43817.42105691684, -28088.632594183993, -11439.801626181797, -15131.23692646467, -187500.02235174447, -10287.435089043985, -15421.295514261188, 12701.736414639523, -26570.703276479635, -25268.08831311325, -437.24482503471677, -8818.74666437467, -23815.671958407398, -41151.662606199105, 0.138, 1.006, 0.17200000000000001, 192.0, 0.0, 0.0, 0.0, 0.0, 0.0, 0.0, 0.0, 0.0, 0.0, 1.696032664921014E9, 0.0, 2023-09-29 19:11:04.921
232.0, -50211.048151379604, -24941.104643476563, -43810.6931818358, -28049.651151853937, -11429.45276849899, -15113.4672896227, -187500.02235174447, -10271.74416443636, -15394.13814474799, 12736.918060412176, -26533.152345794722, -25261.293382798838, -432.8415313770213, -8792.885696039879, -23800.651586133434, -41132.12718154516, 0.138, 1.006, 0.17200000000000001, 192.0, 0.0, 0.0, 0.0, 0.0, 0.0, 0.0, 0.0, 0.0, 0.0, 1.696032664921017E9, 0.0, 2023-09-29 19:11:04.921
234.0, -50194.776081416145, -25053.422159364483, -43820.505597651674, -28096.85803614355, -11443.623774483654, -15133.159176487825, -187500.02235174447, -10289.267932089322, -15417.272200259235, 12719.059016592386, -26557.15811933972, -25268.5129962579, -446.654909450401, -8823.641696410383, -23810.933388582875, -41148.153382319615, 0.136, 0.996, 0.168, 192.0, 2.0, 32.0, 15.5, 16.0, 2.5, 32.0, 0.0, 0.0, 0.0, 1.696032664921021E9, 0.0, 2023-09-29 19:11:04.921
236.0, -50196.65362795039, -24914.014329196732, -43805.37346665543, -28042.252724439233, -11423.68601842952, -15112.461461122211, -187500.02235174447, -10271.632405714085, -15386.359737677543, 12742.796569203922, -26540.371959253785, -25259.371132775683, -431.6792406653453, -8798.943018787268, -23797.142362253948, -41133.35652749021, 0.136, 0.996, 0.168, 192.0, 0.0, 0.0, 0.0, 0.0, 0.0, 0.0, 0.0, 0.0, 0.0, 1.696032664921024E9, 0.0, 2023-09-29 19:11:04.921
238.0, -50197.81591866206, -25034.914914955487, -43813.2412807037, -28092.253576785755, -11432.11262608917, -15124.4196444058, -187500.02235174447, -10283.300016319754, -15409.918476333438, 12698.964798327066, -26552.061921603912, -25258.119435086184, -448.0854210955407, -8798.227762964698, -23797.321176209593, -41142.09605957223, 0.136, 0.996, 0.168, 192.0, 0.0, 0.0, 0.0, 0.0, 0.0, 0.0, 0.0, 0.0, 0.0, 1.696032664921027E9, 0.0, 2023-09-29 19:11:04.921
0.0, -25068.77780780528, -12200.051510340156, -21917.874743685097, -13929.85301373637, -5715.251650244195, -7574.5591610144575, -93750.01117587223, -5121.321096577775, -7693.582200238968, 6364.1898470151245, -13254.942089908373, -12630.680219016102, -221.32697359645053, -4391.514288367544, -11896.045434003525, -20565.057762272092, 0.134, 0.996, 0.17400000000000002, 192.0, 2.0, 24.0, 15.5, 16.0, 2.5, 56.0, 0.0, 0.0, 0.0, 1.696032665072294E9, 0.0, 2023-09-29 19:11:05.072
2.0, -50137.5332638661, -24201.73128863946, -43838.275234493645, -27815.89660834034, -11436.113588346672, -15146.749037116651, -187500.02235174447, -10248.051315313734, -15302.65245469242, 12714.745129912511, -26561.851985675334, -25357.31647697884, -543.2815007306934, -8765.21423640421, -23785.005365014717, -41166.8170889398, 0.134, 0.996, 0.17400000000000002, 192.0, 0.0, 0.0, 0.0, 0.0, 0.0, 0.0, 0.0, 0.0, 0.0, 1.696032665072305E9, 0.0, 2023-09-29 19:11:05.072
4.0, -50130.5818713405, -24319.70379587457, -43836.08476353702, -27864.019914152614, -11439.533405248334, -15156.04736281006, -187500.02235174447, -10254.488617716863, -15316.644646721441, 12713.828708389845, -26568.512805523016, -25362.658543903657, -545.2037507538498, -8785.956655258735, -23793.81195233011, -41182.39625482515, 0.134, 0.996, 0.17400000000000002, 192.0, 0.0, 0.0, 0.0, 0.0, 0.0, 0.0, 0.0, 0.0, 0.0, 1.696032665072309E9, 0.0, 2023-09-29 19:11:05.072
6.0, -50141.26600519014, -24224.261847050413, -43820.25972846267, -27810.331023970968, -11426.614096953166, -15143.619792892909, -187500.02235174447, -10243.849187356138, -15299.344396513034, 12741.254298836506, -26575.01716315951, -25351.460319931546, -541.8509890855538, -8766.667099793804, -23784.04424000314, -41170.97451340849, 0.134, 0.996, 0.17400000000000002, 192.0, 0.0, 0.0, 0.0, 0.0, 0.0, 0.0, 0.0, 0.0, 0.0, 1.696032665072312E9, 0.0, 2023-09-29 19:11:05.072
8.0, -50128.25728991715, -24335.126499548736, -43829.111019266966, -27858.85666118344, -11440.919213404562, -15154.080409297992, -187500.02235174447, -10254.443914227953, -15307.07810009457, 12709.268952520963, -26559.63916297426, -25351.30385772036, -540.3534222070482, -8777.21712317671, -23791.6661848624, -41180.89868794664, 0.132, 1.002, 0.176, 192.0, 2.0, 16.0, 15.5, 40.0, 2.5, 64.0, 0.0, 0.0, 0.0, 1.696032665072315E9, 0.0, 2023-09-29 19:11:05.072
10.0, -50140.39428715638, -24260.538728301377, -43819.29860345109, -27801.88206456686, -11432.269088300358, -15136.131958500382, -187500.02235174447, -10239.401190209532, -15301.423108747376, 12720.489528237526, -26587.377677843295, -25352.06381703184, -537.8500268280538, -8774.981948731178, -23783.060763247107, -41172.136804120164, 0.132, 1.002, 0.176, 192.0, 0.0, 0.0, 0.0, 0.0, 0.0, 0.0, 0.0, 0.0, 0.0, 1.696032665072318E9, 0.0, 2023-09-29 19:11:05.072
12.0, -50119.45070260176, -24326.565781422352, -43830.18390300082, -27841.198783063744, -11441.567413993766, -15147.084313283482, -187500.02235174447, -10242.061047799712, -15311.928428641371, 12710.408891488183, -26550.385540769763, -25356.623572900724, -538.6323378839896, -8771.02568996259, -23789.028679016672, -41172.76265296491, 0.132, 1.002, 0.176, 192.0, 0.0, 0.0, 0.0, 0.0, 0.0, 0.0, 0.0, 0.0, 0.0, 1.696032665072322E9, 0.0, 2023-09-29 19:11:05.072
14.0, -50128.413752128334, -24277.704868043053, -43825.6464988764, -27791.98024177316, -11433.766655178864, -15143.686848126275, -187500.02235174447, -10242.396323966543, -15302.339530270045, 12729.609039975292, -26598.26297739303, -25352.309686220848, -542.2756722302047, -8769.617530061905, -23780.289146934647, -41165.699501717034, 0.132, 1.002, 0.176, 192.0, 0.0, 0.0, 0.0, 0.0, 0.0, 0.0, 0.0, 0.0, 0.0, 1.696032665072325E9, 0.0, 2023-09-29 19:11:05.072
16.0, -50133.599356841965, -24292.255853683455, -43838.72226938275, -27836.54962021704, -11451.133960620638, -15158.886034355884, -187500.02235174447, -10260.344774764155, -15310.095585596036, 12728.133824841241, -26544.194107555642, -25349.694532119578, -547.6847943883889, -8772.992643474656, -23789.22984471677, -41172.89676343164, 0.132, 1.002, 0.176, 192.0, 0.0, 0.0, 0.0, 0.0, 0.0, 0.0, 0.0, 0.0, 0.0, 1.696032665131192E9, 0.0, 2023-09-29 19:11:05.131
18.0, -50141.44481914578, -24304.057574755858, -43824.93124305383, -27809.25814023711, -11431.799701666798, -15151.71112438573, -187500.02235174447, -10256.053239828736, -15315.303542054124, 12714.186336301129, -26606.287253652485, -25344.39716868367, -547.1707042659169, -8786.247227936654, -23787.866388304996, -41178.68586524557, 0.136, 1.002, 0.178, 192.0, 2.0, 32.0, 15.5, 40.0, 2.5, 72.0, 0.0, 0.0, 0.0, 1.696032665131211E9, 0.0, 2023-09-29 19:11:05.131
20.0, -50131.87827251891, -24275.581452319795, -43837.917606582356, -27845.110338343424, -11449.010544897385, -15167.3796972489, -187500.02235174447, -10274.26991155981, -15305.379367515967, 12723.238792805529, -26535.432223729164, -25358.456415946057, -561.4758207173135, -8782.849762779446, -23793.09669650754, -41180.42930131308, 0.136, 1.002, 0.178, 192.0, 0.0, 0.0, 0.0, 0.0, 0.0, 0.0, 0.0, 0.0, 0.0, 1.696032665131214E9, 0.0, 2023-09-29 19:11:05.131
22.0, -50145.04345000308, -24344.491880475507, -43815.45410340477, -27828.41358523531, -11432.179681322537, -15159.690697156275, -187500.02235174447, -10267.564388223218, -15313.247181564235, 12691.9463505681, -26623.207524205154, -25364.960773582552, -543.7061838753443, -8807.324922958007, -23790.86152206201, -41193.34860960825, 0.136, 1.002, 0.178, 192.0, 0.0, 0.0, 0.0, 0.0, 0.0, 0.0, 0.0, 0.0, 0.0, 1.696032665131218E9, 0.0, 2023-09-29 19:11:05.131
24.0, -50137.95794701075, -24294.42397289562, -43826.83114133253, -27844.529192987586, -11442.148559349604, -15171.403011250855, -187500.02235174447, -10277.957949394937, -15291.633044675953, 12717.89672588071, -26544.261162789007, -25366.950078839076, -544.6002536535566, -8792.572771617504, -23791.554426140123, -41182.86564145871, 0.136, 1.002, 0.178, 192.0, 0.0, 0.0, 0.0, 0.0, 0.0, 0.0, 0.0, 0.0, 0.0, 1.696032665131221E9, 0.0, 2023-09-29 19:11:05.131
26.0, -50135.05222023156, -24337.272267016444, -43824.573615142544, -27822.132745043367, -11436.292402302313, -15166.887958870884, -187500.02235174447, -10269.55369347974, -15316.622294976985, 12693.198048257596, -26617.217256691132, -25362.07739854782, -547.5059804327465, -8810.118891014921, -23792.09086800705, -41187.15717639413, 0.136, 1.002, 0.178, 192.0, 0.0, 0.0, 0.0, 0.0, 0.0, 0.0, 0.0, 0.0, 0.0, 1.696032665131225E9, 0.0, 2023-09-29 19:11:05.131
28.0, -50134.7839992981, -24235.124794855692, -43832.262615235166, -27827.072480567993, -11440.852158171196, -15171.313604273035, -187500.02235174447, -10274.247559815354, -15313.537754242154, 12717.382635758238, -26538.740281908547, -25367.888852106196, -551.4398874568806, -8801.535821144083, -23792.962586040805, -41175.489565788455, 0.138, 1.004, 0.17400000000000002, 192.0, 2.0, 40.0, 15.5, 48.0, 2.5, 56.0, 0.0, 0.0, 0.0, 1.696032665131228E9, 0.0, 2023-09-29 19:11:05.131
30.0, -50138.60614759996, -24330.454984957574, -43830.25095823419, -27824.904361355828, -11436.78414068033, -15163.33403150249, -187500.02235174447, -10262.64700444305, -15327.619353248998, 12711.727644411045, -26622.84989629387, -25367.039485816895, -557.9665968378303, -8801.938152544279, -23791.04033601765, -41183.15621413663, 0.138, 1.004, 0.17400000000000002, 192.0, 0.0, 0.0, 0.0, 0.0, 0.0, 0.0, 0.0, 0.0, 0.0, 1.696032665190615E9, 0.0, 2023-09-29 19:11:05.190
32.0, -50144.01526975814, -24181.59236688523, -43838.141124026915, -27815.203704262225, -11446.775370451853, -15164.183397791792, -187500.02235174447, -10260.83651314217, -15303.211248303802, 12723.350551527805, -26538.069729574887, -25368.22412827303, -550.5681694231235, -8777.127716198887, -23786.77115282669, -41165.40892903911, 0.138, 1.004, 0.17400000000000002, 192.0, 0.0, 0.0, 0.0, 0.0, 0.0, 0.0, 0.0, 0.0, 0.0, 1.696032665190626E9, 0.0, 2023-09-29 19:11:05.190
34.0, -50137.39915339937, -24349.52102297795, -43831.03326929013, -27831.83340213697, -11433.051399356294, -15158.036668066583, -187500.02235174447, -10249.83945487016, -15319.259800822712, 12699.121260538252, -26618.044271235976, -25361.608011914257, -548.5565124221459, -8800.172364732309, -23787.665222604897, -41182.485661802966, 0.138, 1.004, 0.17400000000000002, 192.0, 0.0, 0.0, 0.0, 0.0, 0.0, 0.0, 0.0, 0.0, 0.0, 1.696032665190629E9, 0.0, 2023-09-29 19:11:05.190
36.0, -50139.23199644471, -24215.164687057102, -43842.63382466243, -27809.2134367482, -11442.21561458297, -15169.436057738789, -187500.02235174447, -10260.03185034178, -15293.622349932475, 12729.609039975292, -26550.989037870055, -25358.098788034775, -539.0123175397298, -8774.244341164153, -23781.093809735037, -41167.26412382891, 0.138, 1.004, 0.17400000000000002, 192.0, 0.0, 0.0, 0.0, 0.0, 0.0, 0.0, 0.0, 0.0, 0.0, 1.696032665190632E9, 0.0, 2023-09-29 19:11:05.190
38.0, -50140.41663890084, -24331.81844136935, -43845.83012411954, -27848.060768611525, -11444.540196006323, -15181.014261366638, -187500.02235174447, -10264.502199232842, -15333.207289362825, 12693.980359313531, -26608.343614142374, -25370.526357951923, -551.8645706015313, -8810.811795093035, -23798.371708198993, -41197.170757910106, 0.138, 1.0, 0.17400000000000002, 192.0, 2.0, 40.0, 15.5, 32.0, 2.5, 56.0, 0.0, 0.0, 0.0, 1.696032665190636E9, 0.0, 2023-09-29 19:11:05.190
40.0, -50137.44385688828, -24193.617605402185, -43837.984661815724, -27820.434012464764, -11436.560623235777, -15169.212540294237, -187500.02235174447, -10255.31563226171, -15303.635931448453, 12743.981211660053, -26550.050264602934, -25364.044352059886, -548.5565124221459, -8799.010074020634, -23791.688536606853, -41186.64308627166, 0.138, 1.0, 0.17400000000000002, 192.0, 0.0, 0.0, 0.0, 0.0, 0.0, 0.0, 0.0, 0.0, 0.0, 1.696032665190639E9, 0.0, 2023-09-29 19:11:05.190
42.0, -50131.27477541861, -24356.71828469256, -43833.313147224566, -27847.65843721133, -11438.304059303291, -15171.268900784124, -187500.02235174447, -10257.819027640704, -15317.158736843914, 12695.477926192038, -26611.204637432653, -25353.963715310543, -538.1182477615175, -8793.600951862449, -23789.363955183504, -41193.70623751953, 0.138, 1.0, 0.17400000000000002, 192.0, 0.0, 0.0, 0.0, 0.0, 0.0, 0.0, 0.0, 0.0, 0.0, 1.696032665190642E9, 0.0, 2023-09-29 19:11:05.190
44.0, -50135.47690337621, -24203.83235261826, -43834.58719665852, -27804.519570412587, -11436.225347068948, -15159.489531456178, -187500.02235174447, -10253.058106071723, -15291.923617353872, 12713.716949667567, -26559.125072851788, -25355.215413000038, -539.0346692841852, -8771.986814974167, -23787.687574349355, -41174.55079252134, 0.138, 1.0, 0.17400000000000002, 192.0, 0.0, 0.0, 0.0, 0.0, 0.0, 0.0, 0.0, 0.0, 0.0, 1.696032665190645E9, 0.0, 2023-09-29 19:11:05.190
46.0, -50132.21354868574, -24361.546261494907, -43837.02353680415, -27845.4232627658, -11441.45565527149, -15158.595461677965, -187500.02235174447, -10249.772399636793, -15313.113071097503, 12702.809298373379, -26601.392221616774, -25350.901526320165, -541.0910297740734, -8788.50475412664, -23792.5155511517, -41187.29128686086, 0.138, 1.0, 0.17400000000000002, 192.0, 0.0, 0.0, 0.0, 0.0, 0.0, 0.0, 0.0, 0.0, 0.0, 1.6960326652503E9, 0.0, 2023-09-29 19:11:05.250
48.0, -50140.6848598343, -24196.23275950346, -43840.48805719472, -27799.199855232222, -11437.007658124883, -15148.850101095451, -187500.02235174447, -10248.811274625215, -15299.858486635505, 12749.278575095961, -26568.512805523016, -25354.343694966283, -543.6167768975231, -8781.374547645397, -23787.352298182526, -41167.35353080673, 0.132, 1.0, 0.17, 192.0, 2.0, 16.0, 15.5, 32.0, 2.5, 40.0, 0.0, 0.0, 0.0, 1.696032665250309E9, 0.0, 2023-09-29 19:11:05.250
50.0, -50120.43417935779, -24339.373330995244, -43840.95744382828, -27847.50197500014, -11440.98626863793, -15157.14259828837, -187500.02235174447, -10253.281623516277, -15312.755443186217, 12725.406912017694, -26589.16581739972, -25359.752817124467, -551.8422188570761, -8796.774899575103, -23798.95285355483, -41185.25727811543, 0.132, 1.0, 0.17, 192.0, 0.0, 0.0, 0.0, 0.0, 0.0, 0.0, 0.0, 0.0, 0.0, 1.696032665250313E9, 0.0, 2023-09-29 19:11:05.250
52.0, -50133.62170858643, -24221.2667132934, -43823.67954536433, -27782.436046890743, -11432.090274344717, -15138.434188179279, -187500.02235174447, -10240.317611732198, -15294.31525401059, 12727.28445855194, -26579.912195195222, -25340.955000037553, -535.167817493417, -8762.73319276967, -23783.28428069166, -41160.22332432548, 0.132, 1.0, 0.17, 192.0, 0.0, 0.0, 0.0, 0.0, 0.0, 0.0, 0.0, 0.0, 0.0, 1.696032665250316E9, 0.0, 2023-09-29 19:11:05.250
54.0, -50109.9288594638, -24342.323761263342, -43841.67269965085, -27839.07536734049, -11446.708315218488, -15157.52257794411, -187500.02235174447, -10258.288414274266, -15301.691329680842, 12711.884106622232, -26569.295116578953, -25342.96665703853, -547.6847943883889, -8773.819658019502, -23786.12295223748, -41171.84623144224, 0.132, 1.0, 0.17, 192.0, 0.0, 0.0, 0.0, 0.0, 0.0, 0.0, 0.0, 0.0, 0.0, 1.696032665250319E9, 0.0, 2023-09-29 19:11:05.250
56.0, -50130.91714750733, -24256.381303832688, -43833.06727803556, -27796.74116334214, -11434.303097045791, -15146.100836527448, -187500.02235174447, -10251.024097326292, -15290.247236519723, 12748.831540206855, -26592.719744768114, -25353.337866465794, -547.0812972880957, -8778.580579588483, -23795.309519208615, -41176.405987311126, 0.132, 1.0, 0.17, 192.0, 0.0, 0.0, 0.0, 0.0, 0.0, 0.0, 0.0, 0.0, 0.0, 1.696032665250322E9, 0.0, 2023-09-29 19:11:05.250
58.0, -50140.662508089845, -24328.018644811946, -43837.783496115626, -27842.070501097503, -11439.01931512586, -15161.836464623984, -187500.02235174447, -10265.664489944516, -15311.749614685728, 12710.408891488183, -26561.807282186426, -25356.712979878543, -542.007451296741, -8791.276370439098, -23789.542769139145, -41178.775272223385, 0.14200000000000002, 1.0, 0.17400000000000002, 192.0, 2.0, 56.0, 15.5, 32.0, 2.5, 56.0, 0.0, 0.0, 0.0, 1.696032665250325E9, 0.0, 2023-09-29 19:11:05.250
60.0, -50132.571176597026, -24265.99255394847, -43820.1926732293, -27795.712983097197, -11425.78708240832, -15154.259223253635, -187500.02235174447, -10255.941481106458, -15301.110184325004, 12709.067786820864, -26595.044326191466, -25355.103654277762, -542.2533204857493, -8785.30845466953, -23782.23374870226, -41176.02600765539, 0.14200000000000002, 1.0, 0.17400000000000002, 192.0, 0.0, 0.0, 0.0, 0.0, 0.0, 0.0, 0.0, 0.0, 0.0, 1.6960326653119E9, 0.0, 2023-09-29 19:11:05.311
62.0, -50119.38364736839, -24313.110031260258, -43826.07118202105, -27841.55641097503, -11439.332239548236, -15167.446752482267, -187500.02235174447, -10270.201894068945, -15296.036338333648, 12701.80346987289, -26550.407892514217, -25358.836395601797, -544.3767362090035, -8792.84099255097, -23783.23957720275, -41177.74709197845, 0.14200000000000002, 1.0, 0.17400000000000002, 192.0, 0.0, 0.0, 0.0, 0.0, 0.0, 0.0, 0.0, 0.0, 0.0, 1.696032665311912E9, 0.0, 2023-09-29 19:11:05.311
64.0, -50114.75683626614, -24291.652356583163, -43811.87782429193, -27797.16584648679, -11425.36239926367, -15155.265051754124, -187500.02235174447, -10255.941481106458, -15291.051899320115, 12712.062920577875, -26598.799419259958, -25348.420482685626, -545.0025850537521, -8798.183059475787, -23779.909167278907, -41179.199955368036, 0.14200000000000002, 1.0, 0.17400000000000002, 192.0, 0.0, 0.0, 0.0, 0.0, 0.0, 0.0, 0.0, 0.0, 0.0, 1.696032665311917E9, 0.0, 2023-09-29 19:11:05.311
66.0, -50117.327286878506, -24263.824434736307, -43823.18780698631, -27823.295035755044, -11439.01931512586, -15165.613909436932, -187500.02235174447, -10263.764591665817, -15282.088849793536, 12728.178528330152, -26528.883162603757, -25352.06381703184, -545.9860618097856, -8789.64469309386, -23777.204606199815, -41168.69463547404, 0.14200000000000002, 1.0, 0.17400000000000002, 192.0, 0.0, 0.0, 0.0, 0.0, 0.0, 0.0, 0.0, 0.0, 0.0, 1.696032665311921E9, 0.0, 2023-09-29 19:11:05.311
68.0, -50119.45070260176, -24274.352106374754, -43814.11299873746, -27795.69063135274, -11426.524689975346, -15153.186339519782, -187500.02235174447, -10250.64411767055, -15283.921692838872, 12696.103775036785, -26598.55355007095, -25354.746026366476, -550.8363903565872, -8809.716559614726, -23776.28818467715, -41174.77430996589, 0.136, 1.006, 0.18, 192.0, 2.0, 32.0, 15.5, 56.0, 2.5, 80.0, 0.0, 0.0, 0.0, 1.696032665311938E9, 0.0, 2023-09-29 19:11:05.311
70.0, -50121.931746236296, -24228.955713386025, -43826.76408609916, -27816.857733351917, -11444.428437284047, -15169.167836805325, -187500.02235174447, -10263.496370732353, -15285.910998095394, 12726.680961451646, -26531.900648105224, -25350.052160030864, -558.2795212602045, -8801.133489743888, -23776.80227479962, -41166.16888835059, 0.136, 1.006, 0.18, 192.0, 0.0, 0.0, 0.0, 0.0, 0.0, 0.0, 0.0, 0.0, 0.0, 1.696032665311942E9, 0.0, 2023-09-29 19:11:05.311
72.0, -50133.86757777543, -24290.892397271684, -43816.21406271626, -27800.518608155086, -11433.45373075649, -15160.160083789837, -187500.02235174447, -10254.578024694685, -15307.905114639416, 12690.828763345333, -26608.567131586926, -25352.667314132133, -555.2396840142827, -8811.12471951541, -23779.61859460099, -41181.72570249149, 0.136, 1.006, 0.18, 192.0, 0.0, 0.0, 0.0, 0.0, 0.0, 0.0, 0.0, 0.0, 0.0, 1.696032665311945E9, 0.0, 2023-09-29 19:11:05.311
74.0, -50122.5799468255, -24215.812887646305, -43828.976908800236, -27815.091945539945, -11445.568376251267, -15173.079392085005, -187500.02235174447, -10266.379745767086, -15288.704966152307, 12731.441883020627, -26525.843325357837, -25358.6352299017, -564.0462713296737, -8796.730196086191, -23781.78671381315, -41170.01338839691, 0.136, 1.006, 0.18, 192.0, 0.0, 0.0, 0.0, 0.0, 0.0, 0.0, 0.0, 0.0, 0.0, 1.696032665311948E9, 0.0, 2023-09-29 19:11:05.311
76.0, -50125.217452671226, -24324.598827910286, -43816.459931905265, -27811.046279793536, -11433.252565056393, -15166.820903637517, -187500.02235174447, -10260.188312552968, -15294.695233666329, 12690.627597645236, -26616.83727703539, -25353.516680421435, -553.0268613132073, -8820.870080097924, -23779.32802192307, -41185.12316764869, 0.136, 1.006, 0.18, 192.0, 0.0, 0.0, 0.0, 0.0, 0.0, 0.0, 0.0, 0.0, 0.0, 1.696032665370923E9, 0.0, 2023-09-29 19:11:05.370
78.0, -50113.34867636546, -24231.056777364825, -43818.38218192842, -27811.314500727, -11432.827881911742, -15170.28542402809, -187500.02235174447, -10264.882178888582, -15269.54952115411, 12711.28060952194, -26531.297151004932, -25356.176538011616, -547.7071461328443, -8801.245248466164, -23771.817835786085, -41169.02991164087, 0.14, 1.002, 0.184, 192.0, 2.0, 48.0, 15.5, 40.0, 2.5, 96.0, 0.0, 0.0, 0.0, 1.696032665370931E9, 0.0, 2023-09-29 19:11:05.370
80.0, -50117.57315606751, -24351.331514278834, -43814.47062664874, -27818.73527988616, -11428.469291742957, -15174.889883385884, -187500.02235174447, -10268.972548123902, -15288.97318708577, 12695.746147125501, -26613.0821839669, -25359.574003168822, -551.5739979236124, -8837.388019250397, -23775.6623358324, -41188.78885373937, 0.14, 1.002, 0.184, 192.0, 0.0, 0.0, 0.0, 0.0, 0.0, 0.0, 0.0, 0.0, 0.0, 1.696032665370935E9, 0.0, 2023-09-29 19:11:05.370
82.0, -50130.179539940305, -24197.08212579276, -43827.03230703263, -27804.653680879317, -11440.449826771, -15172.833522895995, -187500.02235174447, -10266.715021933916, -15278.266701491679, 12712.75582465599, -26528.279665503465, -25359.64105840219, -557.0725270596179, -8818.009056807645, -23772.488388119746, -41168.33700756276, 0.14, 1.002, 0.184, 192.0, 0.0, 0.0, 0.0, 0.0, 0.0, 0.0, 0.0, 0.0, 0.0, 1.696032665370938E9, 0.0, 2023-09-29 19:11:05.370
84.0, -50115.94147872228, -24343.083720574825, -43820.1926732293, -27821.909227598815, -11434.571317979255, -15165.837426881484, -187500.02235174447, -10259.026021841291, -15304.373539015478, 12690.56054241187, -26609.215332176133, -25357.763511867943, -561.6993381618665, -8832.738856403692, -23781.85376904652, -41184.229097870484, 0.14, 1.002, 0.184, 192.0, 0.0, 0.0, 0.0, 0.0, 0.0, 0.0, 0.0, 0.0, 0.0, 1.696032665370941E9, 0.0, 2023-09-29 19:11:05.370
86.0, -50129.50898760665, -24185.772143098373, -43827.68050762183, -27796.025907519568, -11445.769541951364, -15174.308738030046, -187500.02235174447, -10270.447763257953, -15277.327928224557, 12715.415682246172, -26540.48371797606, -25358.59052641279, -565.3203207636262, -8808.375454947407, -23772.98012649776, -41161.1173941037, 0.14, 1.002, 0.184, 192.0, 0.0, 0.0, 0.0, 0.0, 0.0, 0.0, 0.0, 0.0, 0.0, 1.696032665370944E9, 0.0, 2023-09-29 19:11:05.370
88.0, -50122.73640903669, -24339.66390367316, -43821.62318487444, -27829.195896291247, -11445.322507062258, -15180.81309566654, -187500.02235174447, -10270.2242458134, -15294.471716221777, 12667.024155500432, -26601.436925105685, -25366.6371544167, -566.9967015977743, -8835.666934927338, -23785.251234203726, -41187.09012116076, 0.138, 1.004, 0.184, 192.0, 2.0, 40.0, 15.5, 48.0, 2.5, 96.0, 0.0, 0.0, 0.0, 1.696032665370948E9, 0.0, 2023-09-29 19:11:05.370
90.0, -50120.23301365769, -24196.45627694801, -43818.87392030644, -27794.08130575196, -11444.964879150974, -15173.615833951932, -187500.02235174447, -10268.637271957074, -15273.97516655626, 12709.760690898978, -26550.273782047487, -25359.506947935457, -560.134716049995, -8820.914783586835, -23775.639984087942, -41164.55956274981, 0.138, 1.004, 0.184, 192.0, 0.0, 0.0, 0.0, 0.0, 0.0, 0.0, 0.0, 0.0, 0.0, 1.696032665431206E9, 0.0, 2023-09-29 19:11:05.431
92.0, -50135.47690337621, -24358.10409284879, -43817.2422429612, -27839.723567929694, -11449.256414086392, -15180.835447410995, -187500.02235174447, -10268.74903067935, -15301.087832580548, 12686.671338876646, -26602.286291394987, -25361.943288081085, -563.6886434183888, -8848.966222878245, -23783.37368766948, -41181.5692402803, 0.138, 1.004, 0.184, 192.0, 0.0, 0.0, 0.0, 0.0, 0.0, 0.0, 0.0, 0.0, 0.0, 1.696032665431218E9, 0.0, 2023-09-29 19:11:05.431
94.0, -50131.855920774455, -24200.814867116795, -43817.55516738357, -27798.529302898565, -11440.36041979318, -15170.486589728189, -187500.02235174447, -10259.875388130593, -15291.45423072031, 12709.917153110166, -26563.707180465124, -25366.59245092779, -570.841201644087, -8835.443417482784, -23780.199739956828, -41163.17375459358, 0.138, 1.004, 0.184, 192.0, 0.0, 0.0, 0.0, 0.0, 0.0, 0.0, 0.0, 0.0, 0.0, 1.696032665431222E9, 0.0, 2023-09-29 19:11:05.431
96.0, -50131.6324033299, -24347.174089810145, -43822.18197848582, -27843.18808832027, -11445.769541951364, -15181.751868933663, -187500.02235174447, -10266.26798704481, -15307.88276289496, 12674.355527681771, -26605.41553561873, -25366.12306429423, -577.2114488138496, -8845.345240276485, -23785.742972581742, -41181.658647258126, 0.138, 1.004, 0.184, 192.0, 0.0, 0.0, 0.0, 0.0, 0.0, 0.0, 0.0, 0.0, 0.0, 1.696032665431225E9, 0.0, 2023-09-29 19:11:05.431
98.0, -50130.9842027407, -24213.421250989588, -43806.20048120028, -27783.97831725816, -11431.486777244423, -15166.329165259502, -187500.02235174447, -10256.164998551012, -15283.74287888323, 12695.835554103322, -26578.772256228003, -25368.335886995304, -562.3251870066151, -8832.805911637059, -23772.98012649776, -41164.716024961, 0.136, 1.006, 0.184, 192.0, 2.0, 32.0, 15.5, 56.0, 2.5, 96.0, 0.0, 0.0, 0.0, 1.696032665431228E9, 0.0, 2023-09-29 19:11:05.431
100.0, -50127.72084805022, -24332.466641958552, -43818.80686507307, -27839.008312107126, -11451.69275423202, -15191.944264405283, -187500.02235174447, -10272.1241440921, -15302.071309336581, 12675.584873626814, -26587.93647145468, -25369.721695151533, -564.1133265630397, -8847.558062977561, -23777.27166143318, -41177.54592627835, 0.136, 1.006, 0.184, 192.0, 0.0, 0.0, 0.0, 0.0, 0.0, 0.0, 0.0, 0.0, 0.0, 1.696032665431232E9, 0.0, 2023-09-29 19:11:05.431
102.0, -50128.8831387619, -24217.064585335804, -43814.984716771214, -27796.249424964124, -11442.886166916629, -15181.260130555645, -187500.02235174447, -10267.586739967674, -15290.180181286358, 12679.18350448412, -26588.56232029943, -25371.666296919146, -568.4942684762798, -8852.833074669014, -23782.144341724437, -41179.11054839022, 0.136, 1.006, 0.184, 192.0, 0.0, 0.0, 0.0, 0.0, 0.0, 0.0, 0.0, 0.0, 0.0, 1.696032665431235E9, 0.0, 2023-09-29 19:11:05.431
104.0, -50124.05516195955, -24314.607598138762, -43823.5454348976, -27851.70410295774, -11453.83852169973, -15199.05211914207, -187500.02235174447, -10280.707213962938, -15298.427974990365, 12685.151420253686, -26578.88401495028, -25372.850939375276, -575.8703441465311, -8871.22856035573, -23790.213321472806, -41191.2698973739, 0.136, 1.006, 0.184, 192.0, 0.0, 0.0, 0.0, 0.0, 0.0, 0.0, 0.0, 0.0, 0.0, 1.696032665431238E9, 0.0, 2023-09-29 19:11:05.431
106.0, -50138.87436853342, -24230.07330060879, -43814.515330137656, -27797.903454053816, -11437.857024414185, -15179.986081121693, -187500.02235174447, -10267.787905667772, -15293.823515632574, 12690.202914500585, -26600.565207071926, -25369.788750384898, -571.2658847887379, -8870.647414999892, -23780.98205101276, -41183.29032460336, 0.136, 1.006, 0.184, 192.0, 0.0, 0.0, 0.0, 0.0, 0.0, 0.0, 0.0, 0.0, 0.0, 1.69603266549145E9, 0.0, 2023-09-29 19:11:05.491
108.0, -50128.570214339525, -24308.326757946823, -43821.220853474246, -27839.90238188534, -11447.490626274423, -15187.04923236957, -187500.02235174447, -10280.1260686071, -15304.462945993298, 12666.621824100235, -26569.83155844588, -25375.063762076352, -576.0938615910842, -8854.777676436624, -23783.79837081413, -41182.686827503065, 0.14200000000000002, 1.004, 0.18, 192.0, 2.0, 56.0, 15.5, 48.0, 2.5, 80.0, 0.0, 0.0, 0.0, 1.69603266549146E9, 0.0, 2023-09-29 19:11:05.491
110.0, -50130.44776087377, -24249.921649685104, -43815.29764119359, -27790.505026639108, -11439.667515715066, -15175.269863041623, -187500.02235174447, -10271.520646991808, -15306.899286138927, 12687.252484232484, -26609.55060834296, -25370.235785274006, -572.1152510780396, -8853.503627002672, -23777.27166143318, -41176.49539428895, 0.14200000000000002, 1.004, 0.18, 192.0, 0.0, 0.0, 0.0, 0.0, 0.0, 0.0, 0.0, 0.0, 0.0, 1.696032665491464E9, 0.0, 2023-09-29 19:11:05.491
112.0, -50140.05901098955, -24286.980841992005, -43829.2451297337, -27840.483527241176, -11454.956108922495, -15191.877209171917, -187500.02235174447, -10287.03275764379, -15303.233600048257, 12675.741335838002, -26565.048285132445, -25374.54967195388, -578.6866639478999, -8858.443362527296, -23784.871254547987, -41180.250487357436, 0.14200000000000002, 1.004, 0.18, 192.0, 0.0, 0.0, 0.0, 0.0, 0.0, 0.0, 0.0, 0.0, 0.0, 1.696032665491468E9, 0.0, 2023-09-29 19:11:05.491
114.0, -50131.6324033299, -24284.477446613007, -43809.77676031313, -27794.774209830073, -11435.085408101728, -15174.353441518957, -187500.02235174447, -10274.582835982184, -15303.591227959541, 12676.456591660572, -26631.544724886982, -25374.035581831406, -569.8130213991429, -8868.300481832086, -23775.394114898936, -41179.423472812596, 0.14200000000000002, 1.004, 0.18, 192.0, 0.0, 0.0, 0.0, 0.0, 0.0, 0.0, 0.0, 0.0, 0.0, 1.696032665491471E9, 0.0, 2023-09-29 19:11:05.491
116.0, -50122.132911936395, -24287.114952458734, -43809.97792601323, -27824.613788677907, -11438.684038959032, -15186.870418413928, -187500.02235174447, -10283.210609341933, -15295.83517263355, 12696.684920392623, -26557.046360617445, -25367.106541050263, -566.2590940307491, -8852.363688035452, -23771.75078055272, -41169.45459478552, 0.14200000000000002, 1.004, 0.18, 192.0, 0.0, 0.0, 0.0, 0.0, 0.0, 0.0, 0.0, 0.0, 0.0, 1.696032665491475E9, 0.0, 2023-09-29 19:11:05.491
118.0, -50124.83747301549, -24323.99533080999, -43792.118882193434, -27791.332041183956, -11429.408065010079, -15171.671232184319, -187500.02235174447, -10264.435143999475, -15294.40466098841, 12681.776306840935, -26620.927646270713, -25358.6352299017, -564.5380097076904, -8867.51817077615, -23764.41940837138, -41170.01338839691, 0.14200000000000002, 0.998, 0.184, 192.0, 2.0, 56.0, 15.5, 24.0, 2.5, 96.0, 0.0, 0.0, 0.0, 1.696032665491478E9, 0.0, 2023-09-29 19:11:05.491
120.0, -50111.26996413112, -24269.36766736122, -43804.88172827742, -27812.476791438676, -11446.820073940764, -15186.445735269277, -187500.02235174447, -10279.23199882889, -15284.88281785045, 12699.188315771618, -26535.05224407342, -25364.089055548797, -566.1473353084726, -8864.23246434122, -23769.537957851644, -41161.1173941037, 0.14200000000000002, 0.998, 0.184, 192.0, 0.0, 0.0, 0.0, 0.0, 0.0, 0.0, 0.0, 0.0, 0.0, 1.696032665550299E9, 0.0, 2023-09-29 19:11:05.550
122.0, -50113.97452521021, -24320.039072041403, -43795.65045781738, -27791.287337695045, -11440.226309326448, -15183.160028834347, -187500.02235174447, -10283.501182019852, -15291.87891386496, 12675.920149793643, -26608.790649031478, -25362.68089564811, -564.7615271522435, -8865.908845175367, -23774.097713720526, -41177.948257678545, 0.14200000000000002, 0.998, 0.184, 192.0, 0.0, 0.0, 0.0, 0.0, 0.0, 0.0, 0.0, 0.0, 0.0, 1.696032665550325E9, 0.0, 2023-09-29 19:11:05.550
124.0, -50105.05617917254, -24219.098594081235, -43806.6922195783, -27799.22220697668, -11458.308870590792, -15193.777107450618, -187500.02235174447, -10304.243600874377, -15278.981957314249, 12704.195106529607, -26522.468211945084, -25363.217337515038, -571.6011609555675, -8849.770885678636, -23777.22695794427, -41170.8180511973, 0.14200000000000002, 0.998, 0.184, 192.0, 0.0, 0.0, 0.0, 0.0, 0.0, 0.0, 0.0, 0.0, 0.0, 1.69603266555033E9, 0.0, 2023-09-29 19:11:05.550
126.0, -50107.49251931817, -24332.310179747365, -43791.31421939305, -27791.466151650686, -11444.674306473054, -15184.009395123649, -187500.02235174447, -10294.788812969782, -15297.399794745423, 12684.547923153392, -26611.852838021856, -25356.377703711714, -570.6847394329, -8868.90397893238, -23780.825588801574, -41183.26797285891, 0.14200000000000002, 0.998, 0.184, 192.0, 0.0, 0.0, 0.0, 0.0, 0.0, 0.0, 0.0, 0.0, 0.0, 1.696032665550335E9, 0.0, 2023-09-29 19:11:05.550
128.0, -50123.339906136986, -24209.397936987632, -43804.434693388306, -27796.3611836864, -11459.471161302466, -15203.00837791066, -187500.02235174447, -10308.557487554252, -15278.378460213955, 12719.886031137232, -26527.430299214164, -25357.137663023193, -573.5010592342686, -8853.101295602477, -23778.6127661005, -41167.42058604009, 0.14200000000000002, 1.004, 0.178, 192.0, 2.0, 56.0, 15.5, 48.0, 2.5, 72.0, 0.0, 0.0, 0.0, 1.69603266555034E9, 0.0, 2023-09-29 19:11:05.550
130.0, -50104.13975764987, -24365.323706307856, -43792.49886184918, -27808.855808836917, -11442.774408194353, -15192.950092905772, -187500.02235174447, -10289.670263489517, -15300.037300591148, 12676.657757360668, -26615.40676539025, -25362.166805525638, -572.9869691117965, -8884.125516906442, -23785.810027815107, -41187.96183919452, 0.14200000000000002, 1.004, 0.178, 192.0, 0.0, 0.0, 0.0, 0.0, 0.0, 0.0, 0.0, 0.0, 0.0, 1.696032665550345E9, 0.0, 2023-09-29 19:11:05.550
132.0, -50124.21162417074, -24219.41151850361, -43799.29379216359, -27786.861692292892, -11450.150483864605, -15192.838334183496, -187500.02235174447, -10288.016234399824, -15282.468829449277, 12703.211629773574, -26540.148441809233, -25363.843186359787, -571.8023266556653, -8862.019641640145, -23777.741048066742, -41162.212629582005, 0.14200000000000002, 1.004, 0.178, 192.0, 0.0, 0.0, 0.0, 0.0, 0.0, 0.0, 0.0, 0.0, 0.0, 1.69603266555035E9, 0.0, 2023-09-29 19:11:05.550
134.0, -50117.371990367414, -24364.988430141024, -43792.63297231591, -27806.754744858117, -11446.708315218488, -15194.268845828636, -187500.02235174447, -10286.988054154881, -15308.93329488436, 12662.017364742442, -26618.200733447164, -25366.77126488343, -575.5797714686122, -8892.172144910353, -23784.7147923368, -41181.3233710913, 0.14200000000000002, 1.004, 0.178, 192.0, 0.0, 0.0, 0.0, 0.0, 0.0, 0.0, 0.0, 0.0, 0.0, 1.696032665550356E9, 0.0, 2023-09-29 19:11:05.550
136.0, -50115.82972, -24210.716689910496, -43796.321010151034, -27777.742180555128, -11446.529501262845, -15187.42921202531, -187500.02235174447, -10281.400118041054, -15272.20937874429, 12697.690748893112, -26542.808299399414, -25358.6352299017, -571.3776435110144, -8851.111990345955, -23773.270699175682, -41158.12226034669, 0.14200000000000002, 1.004, 0.178, 192.0, 0.0, 0.0, 0.0, 0.0, 0.0, 0.0, 0.0, 0.0, 0.0, 1.696032665610654E9, 0.0, 2023-09-29 19:11:05.610
138.0, -50115.51679557763, -24354.01372361347, -43792.968248482735, -27809.526361170574, -11446.5518530073, -15193.464183028243, -187500.02235174447, -10285.401080298554, -15297.891533123438, 12674.310824192862, -26601.21340766113, -25358.54582292388, -573.7916319121877, -8881.063327916067, -23776.779923055165, -41176.69655998905, 0.134, 1.0, 0.178, 192.0, 2.0, 24.0, 15.5, 32.0, 2.5, 72.0, 0.0, 0.0, 0.0, 1.696032665610663E9, 0.0, 2023-09-29 19:11:05.610
140.0, -50108.81127224103, -24201.530122939366, -43788.14027168039, -27772.48952060813, -11446.440094285022, -15187.093935858482, -187500.02235174447, -10284.216437842422, -15277.998480558215, 12713.269914778462, -26546.094005834344, -25354.142529266184, -572.3387685225927, -8867.205246353775, -23769.739123551743, -41159.977455136475, 0.134, 1.0, 0.178, 192.0, 0.0, 0.0, 0.0, 0.0, 0.0, 0.0, 0.0, 0.0, 0.0, 1.696032665610667E9, 0.0, 2023-09-29 19:11:05.610
142.0, -50085.923085918796, -24368.564709253875, -43784.027550700615, -27811.56036991601, -11444.763713450875, -15190.469049271233, -187500.02235174447, -10286.541019265775, -15289.755498141707, 12670.376917168727, -26586.573015042904, -25348.331075707803, -570.7741464107212, -8892.574476310549, -23776.623460843977, -41177.85885070072, 0.134, 1.0, 0.178, 192.0, 0.0, 0.0, 0.0, 0.0, 0.0, 0.0, 0.0, 0.0, 0.0, 1.696032665610676E9, 0.0, 2023-09-29 19:11:05.610
144.0, -50107.671333273815, -24216.863419635705, -43789.57078332553, -27761.87244199186, -11440.718047704464, -15183.919988145828, -187500.02235174447, -10280.103716862646, -15267.202587986301, 12702.965760584566, -26543.903534877725, -25348.01815128543, -559.6429776719782, -8865.037127141612, -23765.671106060876, -41155.68592020106, 0.134, 1.0, 0.178, 192.0, 0.0, 0.0, 0.0, 0.0, 0.0, 0.0, 0.0, 0.0, 0.0, 1.696032665610681E9, 0.0, 2023-09-29 19:11:05.610
146.0, -50103.759777994135, -24380.500540793008, -43799.36084739696, -27815.60603566242, -11446.484797773934, -15190.737270204696, -187500.02235174447, -10284.171734353511, -15289.5096289527, 12676.054260260375, -26582.080314407387, -25356.31064847835, -566.5720184531234, -8890.85339198749, -23780.5126643792, -41174.506089032424, 0.134, 1.0, 0.178, 192.0, 0.0, 0.0, 0.0, 0.0, 0.0, 0.0, 0.0, 0.0, 0.0, 1.696032665610684E9, 0.0, 2023-09-29 19:11:05.610
148.0, -50120.72475203571, -24225.066509850803, -43806.088722478, -27770.88019500735, -11451.31277457628, -15188.546799248077, -187500.02235174447, -10286.697481476962, -15281.887684093439, 12674.489638148503, -26561.58376474187, -25363.6867241486, -575.1103848350507, -8878.068194159056, -23778.456303889314, -41163.79960343833, 0.134, 0.99, 0.17400000000000002, 192.0, 2.0, 24.0, 15.0, 120.0, 2.5, 56.0, 0.0, 0.0, 0.0, 1.696032665610688E9, 0.0, 2023-09-29 19:11:05.610
150.0, -50109.548879808055, -24348.828118899837, -43804.27823117712, -27825.284341011567, -11454.64318450012, -15198.314511575045, -187500.02235174447, -10291.03371990129, -15299.903190124416, 12682.424507430138, -26571.396180557753, -25366.100712549774, -578.910181392453, -8892.574476310549, -23785.65356560392, -41182.57506878079, 0.134, 0.99, 0.17400000000000002, 192.0, 0.0, 0.0, 0.0, 0.0, 0.0, 0.0, 0.0, 0.0, 0.0, 1.696032665670888E9, 0.0, 2023-09-29 19:11:05.670
152.0, -50103.35744659394, -24249.765187473917, -43793.258821160656, -27771.5060438521, -11436.02418136885, -15181.438944511288, -187500.02235174447, -10277.063879616724, -15271.918806066371, 12686.045490031898, -26572.625526502794, -25356.5341659229, -572.5622859671457, -8880.571589538049, -23773.85184453152, -41170.77334770839, 0.134, 0.99, 0.17400000000000002, 192.0, 0.0, 0.0, 0.0, 0.0, 0.0, 0.0, 0.0, 0.0, 0.0, 1.696032665670899E9, 0.0, 2023-09-29 19:11:05.670
154.0, -50101.301086104046, -24315.412260939152, -43808.3909521569, -27812.78971586105, -11453.637355999632, -15196.615778996442, -187500.02235174447, -10292.397176313065, -15284.592245172531, 12680.41285042916, -26553.53713673796, -25355.05895078885, -574.618646457034, -8886.293636118608, -23779.95387076782, -41170.28160933037, 0.134, 0.99, 0.17400000000000002, 192.0, 0.0, 0.0, 0.0, 0.0, 0.0, 0.0, 0.0, 0.0, 0.0, 1.696032665670903E9, 0.0, 2023-09-29 19:11:05.670
156.0, -50113.34867636546, -24229.536858741863, -43793.01295197165, -27760.441930346722, -11446.976536151951, -15182.735345689696, -187500.02235174447, -10285.199914598456, -15273.058745033592, 12686.716042365557, -26586.036573175978, -25353.516680421435, -568.3825097540033, -8881.42095582735, -23783.172521969384, -41166.95119940653, 0.134, 0.99, 0.17400000000000002, 192.0, 0.0, 0.0, 0.0, 0.0, 0.0, 0.0, 0.0, 0.0, 0.0, 1.696032665670906E9, 0.0, 2023-09-29 19:11:05.670
158.0, -50105.16793789482, -24264.785559747885, -43804.792321299596, -27814.64491065084, -11468.590673040233, -15213.603104782476, -187500.02235174447, -10309.94329571048, -15294.270550521678, 12683.452687675082, -26546.094005834344, -25356.221241500527, -578.2172773143384, -8891.322778621052, -23798.46111517681, -41179.199955368036, 0.14200000000000002, 1.002, 0.178, 192.0, 2.0, 56.0, 15.5, 40.0, 2.5, 72.0, 0.0, 0.0, 0.0, 1.69603266567091E9, 0.0, 2023-09-29 19:11:05.670
160.0, -50099.28942910307, -24253.006190419936, -43775.10920466295, -27765.582831571443, -11444.02610588385, -15184.232912568203, -187500.02235174447, -10284.84228668717, -15284.212265516791, 12684.905551064678, -26602.576864072904, -25347.39230244068, -564.3144922631374, -8892.462717588272, -23796.740030853754, -41190.06290317332, 0.14200000000000002, 1.002, 0.178, 192.0, 0.0, 0.0, 0.0, 0.0, 0.0, 0.0, 0.0, 0.0, 0.0, 1.696032665670913E9, 0.0, 2023-09-29 19:11:05.670
162.0, -50095.6237430124, -24285.684440813595, -43776.271495374625, -27784.291241680534, -11449.16700710857, -15183.540008490088, -187500.02235174447, -10274.739298193372, -15282.64764340492, 12706.117356552764, -26545.53521222296, -25341.424386671115, -549.8082101116431, -8865.528865519627, -23772.264870675193, -41161.18444933706, 0.14200000000000002, 1.002, 0.178, 192.0, 0.0, 0.0, 0.0, 0.0, 0.0, 0.0, 0.0, 0.0, 0.0, 1.696032665670916E9, 0.0, 2023-09-29 19:11:05.670
164.0, -50107.13489140689, -24284.298632657366, -43774.10337616246, -27744.281619105535, -11437.342934291713, -15168.363174004935, -187500.02235174447, -10254.712135161417, -15297.578608701064, 12695.924961081144, -26602.17453267271, -25344.374816939213, -544.8908263314755, -8839.757304162658, -23772.84601603103, -41158.45753651352, 0.14200000000000002, 1.002, 0.178, 192.0, 0.0, 0.0, 0.0, 0.0, 0.0, 0.0, 0.0, 0.0, 0.0, 1.696032665670919E9, 0.0, 2023-09-29 19:11:05.670
166.0, -50109.3253623635, -24250.23457410748, -43803.451216632275, -27782.234881190645, -11450.910443176084, -15179.896674143873, -187500.02235174447, -10255.69561191745, -15296.97511160077, 12719.70721718159, -26533.174697539176, -25356.06477928934, -546.813076354632, -8822.74762663217, -23777.383420155456, -41152.44491725504, 0.14200000000000002, 1.002, 0.178, 192.0, 0.0, 0.0, 0.0, 0.0, 0.0, 0.0, 0.0, 0.0, 0.0, 1.696032665731217E9, 0.0, 2023-09-29 19:11:05.731
168.0, -50108.990086196674, -24288.94779550407, -43803.92060326584, -27765.426369360255, -11435.5994982242, -15165.435095481289, -187500.02235174447, -10238.149492520035, -15308.486259995254, 12697.601341915291, -26609.68471880969, -25365.430160216114, -540.6886983738779, -8826.592126678483, -23778.52335912268, -41165.81126043931, 0.15, 1.01, 0.18, 192.0, 2.0, 88.0, 15.5, 72.0, 2.5, 80.0, 0.0, 0.0, 0.0, 1.696032665731228E9, 0.0, 2023-09-29 19:11:05.731
170.0, -50121.97644972521, -24213.063623078302, -43826.04883027659, -27785.677049836762, -11440.002791881894, -15171.067735084027, -187500.02235174447, -10243.960946078414, -15298.606788946008, 12732.335952798838, -26526.893857347233, -25360.959811325054, -535.4360384268807, -8794.74089082967, -23775.058838732104, -41158.8151644248, 0.15, 1.01, 0.18, 192.0, 0.0, 0.0, 0.0, 0.0, 0.0, 0.0, 0.0, 0.0, 0.0, 1.696032665731231E9, 0.0, 2023-09-29 19:11:05.731
172.0, -50116.6790862893, -24300.66010959865, -43829.42394368934, -27785.945270770226, -11434.750131934898, -15160.4283047233, -187500.02235174447, -10236.473111685886, -15317.02462637718, 12691.521667423447, -26613.059832222443, -25362.367971225736, -543.7061838753443, -8805.045045023566, -23787.933443538364, -41177.85885070072, 0.15, 1.01, 0.18, 192.0, 0.0, 0.0, 0.0, 0.0, 0.0, 0.0, 0.0, 0.0, 0.0, 1.696032665731234E9, 0.0, 2023-09-29 19:11:05.731
174.0, -50100.98816168168, -24209.152067798623, -43841.58329267303, -27791.466151650686, -11438.527576747845, -15158.014316322127, -187500.02235174447, -10237.948326819936, -15293.801163888118, 12730.726627198057, -26532.951180094624, -25350.946229809077, -527.814093567621, -8775.764259787114, -23782.121989979983, -41162.413795282104, 0.15, 1.01, 0.18, 192.0, 0.0, 0.0, 0.0, 0.0, 0.0, 0.0, 0.0, 0.0, 0.0, 1.696032665731238E9, 0.0, 2023-09-29 19:11:05.731
176.0, -50109.481824574694, -24306.739784090496, -43838.67756589384, -27798.238730220644, -11431.3973702666, -15149.207729006735, -187500.02235174447, -10230.661658127507, -15308.55331522862, 12704.306865251883, -26602.532160583993, -25342.78784308289, -531.0774482580958, -8777.351233643441, -23791.174446484383, -41178.10471988973, 0.15, 1.01, 0.18, 192.0, 0.0, 0.0, 0.0, 0.0, 0.0, 0.0, 0.0, 0.0, 0.0, 1.696032665731241E9, 0.0, 2023-09-29 19:11:05.731
178.0, -50108.364237351925, -24168.337782423234, -43843.371432229455, -27798.618709876384, -11432.537309233823, -15153.029877308594, -187500.02235174447, -10237.210719252911, -15283.944044583326, 12742.416589548182, -26517.260255487, -25338.49630814747, -529.490474401769, -8747.82457921798, -23783.91012953641, -41162.52555400438, 0.14400000000000002, 1.006, 0.17400000000000002, 192.0, 2.0, 64.0, 15.5, 56.0, 2.5, 56.0, 0.0, 0.0, 0.0, 1.696032665731244E9, 0.0, 2023-09-29 19:11:05.731
180.0, -50096.98719942418, -24313.2888452159, -43830.228606489734, -27817.68474789676, -11419.372131749646, -15148.336010972978, -187500.02235174447, -10229.432312182464, -15301.736033169751, 12709.581876943335, -26595.379602358295, -25333.10953773374, -523.9695935213082, -8776.233646420676, -23778.456303889314, -41180.89868794664, 0.14400000000000002, 1.006, 0.17400000000000002, 192.0, 0.0, 0.0, 0.0, 0.0, 0.0, 0.0, 0.0, 0.0, 0.0, 1.696032665791337E9, 0.0, 2023-09-29 19:11:05.791
182.0, -50109.10184491895, -24142.566221066263, -43842.38795547342, -27797.88110230936, -11428.849271398696, -15150.705295885242, -187500.02235174447, -10239.557652420719, -15273.036393289138, 12732.00067663201, -26510.308862961396, -25327.029863241896, -528.4399424123695, -8750.417381574796, -23770.923766007872, -41159.64217896965, 0.14400000000000002, 1.006, 0.17400000000000002, 192.0, 0.0, 0.0, 0.0, 0.0, 0.0, 0.0, 0.0, 0.0, 0.0, 1.696032665791354E9, 0.0, 2023-09-29 19:11:05.791
184.0, -50099.28942910307, -24286.176179191614, -43846.657138664385, -27838.60598070693, -11428.446939998501, -15159.087200055981, -187500.02235174447, -10246.307879246222, -15305.848754149529, 12706.27381876395, -26576.715895738114, -25333.82479355631, -541.940396063375, -8776.524219098595, -23786.905263293418, -41185.23492637097, 0.14400000000000002, 1.006, 0.17400000000000002, 192.0, 0.0, 0.0, 0.0, 0.0, 0.0, 0.0, 0.0, 0.0, 0.0, 1.696032665791358E9, 0.0, 2023-09-29 19:11:05.791
186.0, -50107.827795485, -24134.810165740273, -43844.33255724103, -27810.398079204333, -11428.73751267642, -15153.789836620073, -187500.02235174447, -10243.111579789113, -15277.797314858117, 12749.14446462923, -26527.34089223634, -25340.329151192804, -533.558491892635, -8767.181189916277, -23780.244443445736, -41171.220382597494, 0.14400000000000002, 1.006, 0.17400000000000002, 192.0, 0.0, 0.0, 0.0, 0.0, 0.0, 0.0, 0.0, 0.0, 0.0, 1.696032665791361E9, 0.0, 2023-09-29 19:11:05.791
188.0, -50105.88319371739, -24295.80978105185, -43833.67077513585, -27838.06953884, -11421.696713172998, -15150.817054607518, -187500.02235174447, -10239.200024509433, -15290.224884775269, 12703.010464073475, -26582.9743841856, -25336.39524416867, -532.3067942031377, -8770.0198614621, -23780.244443445736, -41186.01723742691, 0.138, 1.0, 0.178, 192.0, 2.0, 40.0, 15.5, 32.0, 2.5, 72.0, 0.0, 0.0, 0.0, 1.696032665791369E9, 0.0, 2023-09-29 19:11:05.791
190.0, -50113.21456589873, -24132.35147385019, -43838.78932461612, -27798.305785454013, -11424.893012630107, -15139.954106802239, -187500.02235174447, -10229.07468427118, -15285.955701584304, 12709.626580432247, -26533.30880800591, -25339.122156992216, -536.4642186718248, -8750.015050174601, -23770.812007285596, -41159.93275164757, 0.138, 1.0, 0.178, 192.0, 0.0, 0.0, 0.0, 0.0, 0.0, 0.0, 0.0, 0.0, 0.0, 1.696032665791372E9, 0.0, 2023-09-29 19:11:05.791
192.0, -50106.50904256214, -24287.941967003582, -43843.863170607474, -27837.55544871753, -11426.681152186531, -15145.564394660521, -187500.02235174447, -10225.341942947143, -15308.84388790654, 12696.528458181438, -26582.370887085308, -25346.185308240096, -543.6391286419783, -8770.176323673288, -23776.13172246596, -41173.1649843651, 0.138, 1.0, 0.178, 192.0, 0.0, 0.0, 0.0, 0.0, 0.0, 0.0, 0.0, 0.0, 0.0, 1.696032665791376E9, 0.0, 2023-09-29 19:11:05.791
194.0, -50111.4264263423, -24154.12207294966, -43841.136257783925, -27780.960831756693, -11420.847346883696, -15130.164042730814, -187500.02235174447, -10213.160242219, -15282.625291660464, 12732.470063265571, -26555.772311183493, -25339.189212225585, -546.8801315879979, -8746.572881528484, -23766.453417116812, -41150.09798408723, 0.138, 1.0, 0.178, 192.0, 0.0, 0.0, 0.0, 0.0, 0.0, 0.0, 0.0, 0.0, 0.0, 1.696032665791379E9, 0.0, 2023-09-29 19:11:05.791
196.0, -50095.86961220141, -24300.525999131918, -43834.38603095842, -27821.931579343272, -11424.6471434411, -15144.558566160033, -187500.02235174447, -10223.509099901808, -15289.956663841805, 12743.489473282038, -26569.473930534594, -25333.131889478194, -539.6605181289337, -8757.458181078218, -23770.633193329955, -41164.872487172186, 0.138, 1.0, 0.178, 192.0, 0.0, 0.0, 0.0, 0.0, 0.0, 0.0, 0.0, 0.0, 0.0, 1.696032665850708E9, 0.0, 2023-09-29 19:11:05.850
198.0, -50100.71994074821, -24184.27457621987, -43824.081876764525, -27768.17563392826, -11418.656875927076, -15134.455577666233, -187500.02235174447, -10220.491614400342, -15269.303651965101, 12734.258202821995, -26551.54783148144, -25323.6771015736, -538.4758756728024, -8742.415457059797, -23762.385399625946, -41152.26610329939, 0.14200000000000002, 1.002, 0.18, 192.0, 2.0, 56.0, 15.5, 40.0, 2.5, 80.0, 0.0, 0.0, 0.0, 1.696032665850717E9, 0.0, 2023-09-29 19:11:05.850
200.0, -50106.30787686204, -24285.79619953587, -43829.4462954338, -27819.137611286358, -11429.251602798891, -15152.04640055256, -187500.02235174447, -10234.84143434065, -15282.379422471455, 12714.119281067764, -26549.29030529145, -25328.706244076046, -545.069640287118, -8767.78468701657, -23767.61570782849, -41165.81126043931, 0.14200000000000002, 1.002, 0.18, 192.0, 0.0, 0.0, 0.0, 0.0, 0.0, 0.0, 0.0, 0.0, 0.0, 1.696032665850721E9, 0.0, 2023-09-29 19:11:05.850
202.0, -50111.00174319765, -24191.762410612395, -43817.33164993902, -27773.204776430703, -11415.348817747692, -15138.009505034626, -187500.02235174447, -10225.07372201368, -15283.094678294025, 12723.931696883643, -26562.16491009771, -25330.38262491019, -538.7217448618109, -8767.494114338651, -23760.127873435962, -41162.972588893484, 0.14200000000000002, 1.002, 0.18, 192.0, 0.0, 0.0, 0.0, 0.0, 0.0, 0.0, 0.0, 0.0, 0.0, 1.696032665850724E9, 0.0, 2023-09-29 19:11:05.850
204.0, -50107.6266297849, -24266.573699304307, -43819.94680404029, -27815.65073915133, -11423.842480640707, -15152.605194163943, -187500.02235174447, -10237.545995419741, -15291.700099909318, 12729.676095208657, -26545.848136645334, -25334.71886333452, -545.1143437760286, -8772.679719052281, -23763.480635104257, -41168.87344942969, 0.14200000000000002, 1.002, 0.18, 192.0, 0.0, 0.0, 0.0, 0.0, 0.0, 0.0, 0.0, 0.0, 0.0, 1.696032665850727E9, 0.0, 2023-09-29 19:11:05.850
206.0, -50119.24953690166, -24198.60204441572, -43816.61639411645, -27771.237822918636, -11417.762806148865, -15137.562470145522, -187500.02235174447, -10228.806463337716, -15283.295843994123, 12732.693580710124, -26582.661459763225, -25335.657636601645, -548.5788641666012, -8767.02472770509, -23763.50298684871, -41165.09600461674, 0.14200000000000002, 1.002, 0.18, 192.0, 0.0, 0.0, 0.0, 0.0, 0.0, 0.0, 0.0, 0.0, 0.0, 1.69603266585073E9, 0.0, 2023-09-29 19:11:05.850
208.0, -50105.5255658061, -24229.31334129731, -43828.90985356687, -27817.014195563104, -11433.699599945498, -15154.505092442643, -187500.02235174447, -10245.547919934741, -15289.241408019234, 12726.211574818084, -26535.454575473617, -25344.330113450305, -548.3776984665035, -8768.566998072505, -23775.930556765863, -41167.599399995735, 0.14200000000000002, 1.01, 0.176, 192.0, 2.0, 56.0, 15.5, 72.0, 2.5, 64.0, 0.0, 0.0, 0.0, 1.696032665850733E9, 0.0, 2023-09-29 19:11:05.850
210.0, -50110.64411528637, -24207.051003819826, -43818.11396099496, -27769.11440719538, -11422.031989339828, -15142.882185325883, -187500.02235174447, -10237.79186460875, -15286.805067873607, 12706.050301319397, -26591.758619756536, -25340.329151192804, -548.9588438223415, -8779.631111577883, -23774.500045120723, -41172.9191151761, 0.14200000000000002, 1.01, 0.176, 192.0, 0.0, 0.0, 0.0, 0.0, 0.0, 0.0, 0.0, 0.0, 0.0, 1.696032665910635E9, 0.0, 2023-09-29 19:11:05.910
212.0, -50094.99789416765, -24211.431945733064, -43826.942900054804, -27793.07547725147, -11435.398332524102, -15151.733476130186, -187500.02235174447, -10248.096018802646, -15282.334718982545, 12721.808281160389, -26531.118337049287, -25337.468127902524, -552.8033438686542, -8767.650576549839, -23775.08119047656, -41163.35256854923, 0.14200000000000002, 1.01, 0.176, 192.0, 0.0, 0.0, 0.0, 0.0, 0.0, 0.0, 0.0, 0.0, 0.0, 1.696032665910648E9, 0.0, 2023-09-29 19:11:05.910
214.0, -50104.586792538976, -24239.729254213486, -43815.565862127056, -27757.69266577872, -11425.36239926367, -15138.300077712545, -187500.02235174447, -10238.283602986767, -15288.526152196664, 12717.18147005814, -26595.401954102752, -25329.91323827663, -552.0433845571738, -8776.658329565327, -23774.79061779864, -41168.359359307215, 0.14200000000000002, 1.01, 0.176, 192.0, 0.0, 0.0, 0.0, 0.0, 0.0, 0.0, 0.0, 0.0, 0.0, 1.696032665910652E9, 0.0, 2023-09-29 19:11:05.910
216.0, -50101.27873435959, -24210.873152121683, -43826.78643784361, -27786.88404403735, -11435.130111590637, -15158.059019811039, -187500.02235174447, -10253.058106071723, -15280.479524192755, 12727.597382974314, -26519.42837469916, -25329.86853478772, -558.0783555601067, -8776.792440032059, -23776.355239910514, -41162.14557434864, 0.14200000000000002, 1.01, 0.176, 192.0, 0.0, 0.0, 0.0, 0.0, 0.0, 0.0, 0.0, 0.0, 0.0, 1.696032665910655E9, 0.0, 2023-09-29 19:11:05.910
218.0, -50111.716999020224, -24273.56979531882, -43817.085780750014, -27774.411770631286, -11423.708370173976, -15152.515787186121, -187500.02235174447, -10245.279699001278, -15289.710794652796, 12712.912286867177, -26604.253244907053, -25337.334017435795, -561.0734893171178, -8796.394919919363, -23780.535016123657, -41183.58089728128, 0.14200000000000002, 1.01, 0.17400000000000002, 192.0, 2.0, 56.0, 15.5, 72.0, 2.5, 56.0, 0.0, 0.0, 0.0, 1.696032665910658E9, 0.0, 2023-09-29 19:11:05.910
220.0, -50102.351618093446, -24187.11324776569, -43819.745638340195, -27794.282471452058, -11436.4488645135, -15160.987098334683, -187500.02235174447, -10259.964795108413, -15284.033451561148, 12729.117301597274, -26523.317578234386, -25338.339845936283, -559.6653294164336, -8787.431870392784, -23776.824626544076, -41169.700463974536, 0.14200000000000002, 1.01, 0.17400000000000002, 192.0, 0.0, 0.0, 0.0, 0.0, 0.0, 0.0, 0.0, 0.0, 0.0, 1.696032665910662E9, 0.0, 2023-09-29 19:11:05.910
222.0, -50112.4769583317, -24287.740801303484, -43803.56297535455, -27782.59250910193, -11421.048512583795, -15150.414723207323, -187500.02235174447, -10244.229167011878, -15301.043129091637, 12692.192219757108, -26615.51852411253, -25331.857840044242, -549.3388234780817, -8799.50181239865, -23777.964565511294, -41184.05028391484, 0.14200000000000002, 1.01, 0.17400000000000002, 192.0, 0.0, 0.0, 0.0, 0.0, 0.0, 0.0, 0.0, 0.0, 0.0, 1.696032665910665E9, 0.0, 2023-09-29 19:11:05.910
224.0, -50102.95511519374, -24165.521462621866, -43817.10813249447, -27782.12312246837, -11438.50522500339, -15159.087200055981, -187500.02235174447, -10258.020193340803, -15280.658338148396, 12742.99773490402, -26523.96577882359, -25337.423424413613, -555.3514427365593, -8778.088841210467, -23779.395077156434, -41164.76072844991, 0.14200000000000002, 1.01, 0.17400000000000002, 192.0, 0.0, 0.0, 0.0, 0.0, 0.0, 0.0, 0.0, 0.0, 0.0, 1.696032665910668E9, 0.0, 2023-09-29 19:11:05.910
226.0, -50106.59844953995, -24289.417182137633, -43803.83119628802, -27778.770360800074, -11419.528593960833, -15147.620755150409, -187500.02235174447, -10241.278736743778, -15295.432841233354, 12699.456536705082, -26616.300835168462, -25340.127985492705, -553.652710157956, -8799.390053676374, -23779.059800989606, -41180.0716734018, 0.14200000000000002, 1.01, 0.17400000000000002, 192.0, 0.0, 0.0, 0.0, 0.0, 0.0, 0.0, 0.0, 0.0, 0.0, 1.696032665970934E9, 0.0, 2023-09-29 19:11:05.970
228.0, -50122.46818810322, -24151.01518047037, -43818.53864413961, -27771.39428512982, -11439.153425592593, -15156.606156421443, -187500.02235174447, -10256.120295062101, -15270.801218843606, 12722.277667793951, -26526.469174202583, -25342.564325638334, -556.7596026372436, -8776.233646420676, -23771.32609740807, -41155.75297543442, 0.14400000000000002, 1.01, 0.17400000000000002, 192.0, 2.0, 64.0, 15.5, 72.0, 2.5, 56.0, 0.0, 0.0, 0.0, 1.696032665970943E9, 0.0, 2023-09-29 19:11:05.970
230.0, -50111.225260642204, -24297.352051419264, -43816.05760050507, -27789.633308605353, -11431.866756900163, -15153.365153475423, -187500.02235174447, -10244.139760034057, -15291.945969098328, 12696.595513414803, -26608.25420716455, -25340.507965148445, -552.713936890833, -8805.626190379404, -23780.825588801574, -41177.791795467354, 0.14400000000000002, 1.01, 0.17400000000000002, 192.0, 0.0, 0.0, 0.0, 0.0, 0.0, 0.0, 0.0, 0.0, 0.0, 1.696032665970946E9, 0.0, 2023-09-29 19:11:05.970
232.0, -50111.49348157567, -24125.042453413305, -43820.46089416277, -27761.02307570256, -11430.749169677398, -15143.105702770437, -187500.02235174447, -10232.27098372829, -15273.55048341161, 12732.134787098741, -26522.222342756075, -25336.484651146493, -548.9141403334309, -8787.051890737044, -23771.057876474606, -41151.439088754545, 0.14400000000000002, 1.01, 0.17400000000000002, 192.0, 0.0, 0.0, 0.0, 0.0, 0.0, 0.0, 0.0, 0.0, 0.0, 1.696032665970949E9, 0.0, 2023-09-29 19:11:05.970
234.0, -50105.39145533937, -24274.75443777495, -43819.41036217337, -27791.890834795337, -11426.16706206406, -15145.318525471512, -187500.02235174447, -10231.2651552278, -15303.010082603703, 12708.240772276018, -26592.093895923364, -25339.45743315905, -550.6799281454001, -8794.36091117393, -23776.981088755263, -41165.1183563612, 0.14400000000000002, 1.01, 0.17400000000000002, 192.0, 0.0, 0.0, 0.0, 0.0, 0.0, 0.0, 0.0, 0.0, 0.0, 1.696032665970953E9, 0.0, 2023-09-29 19:11:05.970
236.0, -50106.889022217874, -24125.91417144706, -43821.354963940976, -27754.071683176957, -11426.681152186531, -15140.445845180255, -187500.02235174447, -10225.341942947143, -15275.986823557238, 12740.8072639474, -26537.980322597068, -25336.17172672412, -542.0298030411963, -8768.276425394586, -23768.5097776067, -41146.49935322993, 0.14400000000000002, 1.01, 0.17400000000000002, 192.0, 0.0, 0.0, 0.0, 0.0, 0.0, 0.0, 0.0, 0.0, 0.0, 1.696032665970956E9, 0.0, 2023-09-29 19:11:05.970
238.0, -50109.75004550815, -24272.452208096052, -43825.06535352056, -27796.517645897587, -11435.018352868361, -15154.527444187099, -187500.02235174447, -10232.963887806403, -15298.830306390562, 12699.300074493894, -26586.93064295419, -25342.430215171604, -552.6021781685565, -8786.0237104921, -23784.603033614523, -41168.67228372959, 0.14, 1.008, 0.18, 192.0, 2.0, 48.0, 15.5, 64.0, 2.5, 80.0, 0.0, 0.0, 0.0, 1.696032665970959E9, 0.0, 2023-09-29 19:11:05.970
240.0, -50116.63438280039, -24142.36505536617, -43815.36469642696, -27749.668389519262, -11426.010599852872, -15134.097949754949, -187500.02235174447, -10217.78705332125, -15272.701117122308, 12737.90153716821, -26556.465215261607, -25327.946284764563, -546.7013176323554, -8762.956710214223, -23767.973335739774, -41149.51683873139, 0.14, 1.008, 0.18, 192.0, 0.0, 0.0, 0.0, 0.0, 0.0, 0.0, 0.0, 0.0, 0.0, 1.696032666031073E9, 0.0, 2023-09-29 19:11:06.031
242.0, -50107.40311234035, -24254.70492299854, -43822.00316453018, -27792.494331895632, -11434.683076701533, -15148.514824928621, -187500.02235174447, -10235.959021563414, -15304.41824250439, 12717.472042736059, -26571.97732591359, -25329.242685942972, -554.9267595919084, -8780.011091233622, -23777.204606199815, -41162.1679260931, 0.14, 1.008, 0.18, 192.0, 0.0, 0.0, 0.0, 0.0, 0.0, 0.0, 0.0, 0.0, 0.0, 1.696032666031086E9, 0.0, 2023-09-29 19:11:06.031
244.0, -50102.75394949364, -24112.369014307144, -43814.783551071116, -27753.714055265675, -11423.753073662887, -15131.505147398133, -187500.02235174447, -10224.313762702199, -15281.105373037502, 12746.61871750578, -26549.893802391747, -25326.001682996954, -547.1483525214616, -8766.912968982813, -23774.611803843, -41155.03771961185, 0.14, 1.008, 0.18, 192.0, 0.0, 0.0, 0.0, 0.0, 0.0, 0.0, 0.0, 0.0, 0.0, 1.69603266603109E9, 0.0, 2023-09-29 19:11:06.031
246.0, -50098.73063549169, -24252.961486931024, -43819.49976915119, -27810.68865188225, -11427.68698068702, -15141.071694025004, -187500.02235174447, -10229.477015671375, -15291.186009786847, 12732.313601054384, -26559.39329378525, -25328.236857442484, -544.3990879534588, -8791.701053583749, -23781.04910624613, -41168.716987218504, 0.14, 1.008, 0.18, 192.0, 0.0, 0.0, 0.0, 0.0, 0.0, 0.0, 0.0, 0.0, 0.0, 1.696032666031093E9, 0.0, 2023-09-29 19:11:06.031
248.0, -50122.714057292236, -24117.06288064276, -43812.749542325684, -27754.675180277252, -11423.440149240512, -15129.024103763593, -187500.02235174447, -10219.329323688666, -15271.851750833006, 12736.292211567428, -26559.326238551886, -25333.958904023042, -538.4758756728024, -8771.495076596151, -23765.536995594146, -41147.48282998596, 0.136, 1.004, 0.176, 192.0, 2.0, 32.0, 15.5, 48.0, 2.5, 64.0, 0.0, 0.0, 0.0, 1.696032666031096E9, 0.0, 2023-09-29 19:11:06.031
250.0, -50102.86570821592, -24223.188963316556, -43811.67665859183, -27796.428238919765, -11420.713236416965, -15127.906516540828, -187500.02235174447, -10216.267134698288, -15286.156867284402, 12721.495356738014, -26548.932677380166, -25328.572133609312, -548.4000502109587, -8767.11413468291, -23765.246422916225, -41151.014405609894, 0.136, 1.004, 0.176, 192.0, 0.0, 0.0, 0.0, 0.0, 0.0, 0.0, 0.0, 0.0, 0.0, 1.6960326660311E9, 0.0, 2023-09-29 19:11:06.031
252.0, -50108.230126885195, -24132.642046528108, -43814.04594350409, -27744.125156894348, -11412.912477602064, -15121.446862393244, -187500.02235174447, -10209.338093917144, -15276.612672401987, 12729.296115552917, -26570.278593334984, -25320.793726538865, -548.1318292774951, -8763.336689869964, -23757.579774568057, -41139.90558861561, 0.136, 1.004, 0.176, 192.0, 0.0, 0.0, 0.0, 0.0, 0.0, 0.0, 0.0, 0.0, 0.0, 1.696032666031103E9, 0.0, 2023-09-29 19:11:06.031
254.0, -50098.03773141358, -24209.12971605417, -43827.00995528817, -27793.902491796314, -11422.702541673487, -15138.389484690368, -187500.02235174447, -10223.978486535369, -15276.098582279514, 12736.023990633965, -26545.714026178604, -25327.141621964172, -550.7246316343108, -8777.015957476611, -23769.13562645145, -41147.99692010843, 0.136, 1.004, 0.176, 192.0, 0.0, 0.0, 0.0, 0.0, 0.0, 0.0, 0.0, 0.0, 0.0, 1.696032666031106E9, 0.0, 2023-09-29 19:11:06.031
0.0, -50108.90067921885, -24166.147311466615, -43814.26946094864, -27746.807366228983, -11413.091291557705, -15132.555679387533, -187500.02235174447, -10220.312800444699, -15273.751649111708, 12727.70914169659, -26582.326183596397, -25323.83356378479, -548.8694368445202, -8775.54074234256, -23759.949059480317, -41144.66651018459, 0.136, 1.004, 0.176, 192.0, 0.0, 0.0, 0.0, 0.0, 0.0, 0.0, 0.0, 0.0, 0.0, 1.696032666091422E9, 0.0, 2023-09-29 19:11:06.091
2.0, -50082.704434717234, -24199.764335127395, -43816.728152838725, -27789.432142905254, -11427.105835331182, -15148.71599062872, -187500.02235174447, -10232.36039070611, -15266.979070541749, 12724.915173639676, -26529.53136319296, -25323.945322507065, -552.7586403797436, -8783.766184302114, -23765.469940360777, -41151.08146084326, 0.136, 1.002, 0.17400000000000002, 192.0, 2.0, 32.0, 15.5, 40.0, 2.5, 56.0, 0.0, 0.0, 0.0, 1.696032666091436E9, 0.0, 2023-09-29 19:11:06.091
4.0, -50112.11933042042, -24160.78289279734, -43807.161606211856, -27748.86372671887, -11418.299248015792, -15141.250507980647, -187500.02235174447, -10224.090245257647, -15277.864370091484, 12729.22906031955, -26575.866529448813, -25324.749985307455, -552.9821578242967, -8784.660254080327, -23760.060818202594, -41149.203914309015, 0.136, 1.002, 0.17400000000000002, 192.0, 0.0, 0.0, 0.0, 0.0, 0.0, 0.0, 0.0, 0.0, 0.0, 1.696032666091442E9, 0.0, 2023-09-29 19:11:06.091
6.0, -50114.510967077134, -24149.137633936123, -43817.152835983376, -27791.086171994946, -11436.202995324493, -15157.634336666386, -187500.02235174447, -10238.55182392023, -15283.049974805115, 12726.882127151744, -26518.28843573194, -25335.657636601645, -570.4388702438915, -8783.117983712911, -23772.98012649776, -41151.170867821085, 0.136, 1.002, 0.17400000000000002, 192.0, 0.0, 0.0, 0.0, 0.0, 0.0, 0.0, 0.0, 0.0, 0.0, 1.696032666091447E9, 0.0, 2023-09-29 19:11:06.091
8.0, -50110.39824609736, -24196.255111247912, -43797.19272818479, -27754.83164248844, -11416.712274159465, -15136.355475944934, -187500.02235174447, -10219.239916710845, -15284.413431216888, 12711.101795566297, -26599.961709971634, -25328.080395231296, -550.8810938454978, -8799.635922865382, -23764.665277560387, -41154.881257400666, 0.136, 1.002, 0.17400000000000002, 192.0, 0.0, 0.0, 0.0, 0.0, 0.0, 0.0, 0.0, 0.0, 0.0, 1.696032666091451E9, 0.0, 2023-09-29 19:11:06.091
10.0, -50110.80057749755, -24136.933581463527, -43808.30154517908, -27768.488558350633, -11431.062094099772, -15151.174682518804, -187500.02235174447, -10230.348733705132, -15268.16371299788, 12724.646952706213, -26515.00272929701, -25330.650845843655, -552.713936890833, -8778.155896443832, -23764.218242671282, -41139.43620198205, 0.136, 1.002, 0.17400000000000002, 192.0, 0.0, 0.0, 0.0, 0.0, 0.0, 0.0, 0.0, 0.0, 0.0, 1.696032666091456E9, 0.0, 2023-09-29 19:11:06.091
12.0, -50101.63636227088, -24218.42804174758, -43797.81857702954, -27753.35642735439, -11414.767672391854, -15139.194147490758, -187500.02235174447, -10220.73748358935, -15294.851695877516, 12711.973513600055, -26602.420401861717, -25328.683892331588, -553.58565492459, -8796.21610596372, -23763.659449059898, -41151.21557130999, 0.134, 1.004, 0.176, 192.0, 2.0, 24.0, 15.5, 48.0, 2.5, 64.0, 0.0, 0.0, 0.0, 1.696032666091461E9, 0.0, 2023-09-29 19:11:06.091
14.0, -50095.221411612205, -24141.828613499238, -43810.648478346884, -27772.24365141912, -11427.195242309004, -15151.442903452267, -187500.02235174447, -10236.78603610826, -15273.68459387834, 12737.633316234746, -26521.52943867796, -25326.783994052887, -561.9452073508749, -8788.817678549014, -23761.781902525654, -41138.76564964839, 0.134, 1.004, 0.176, 192.0, 0.0, 0.0, 0.0, 0.0, 0.0, 0.0, 0.0, 0.0, 0.0, 1.696032666150848E9, 0.0, 2023-09-29 19:11:06.150
16.0, -50106.196118139764, -24245.18307986058, -43802.66890557634, -27759.570212312963, -11411.996056079395, -15147.352534216945, -187500.02235174447, -10237.210719252911, -15288.570855685575, 12717.449690991603, -26608.522428098015, -25323.185363195582, -557.3183962486263, -8807.794309591569, -23761.401922869914, -41156.62469346818, 0.134, 1.004, 0.176, 192.0, 0.0, 0.0, 0.0, 0.0, 0.0, 0.0, 0.0, 0.0, 0.0, 1.696032666150862E9, 0.0, 2023-09-29 19:11:06.150
18.0, -50098.73063549169, -24125.467136557956, -43813.35303942598, -27759.68197103524, -11425.764730663865, -15151.822883108007, -187500.02235174447, -10247.403114724531, -15261.63700361693, 12736.42632203416, -26516.34383396433, -25336.95403778005, -566.3485010085703, -8786.493097125662, -23761.625440314467, -41143.16894330608, 0.134, 1.004, 0.176, 192.0, 0.0, 0.0, 0.0, 0.0, 0.0, 0.0, 0.0, 0.0, 0.0, 1.696032666150866E9, 0.0, 2023-09-29 19:11:06.150
20.0, -50114.086283932484, -24246.27831533889, -43807.228661445224, -27772.06483746348, -11420.154442805582, -15156.04736281006, -187500.02235174447, -10252.3204985047, -15290.895437108928, 12694.650911647192, -26603.69445129567, -25336.127023235207, -568.9636551098413, -8815.282143984097, -23767.101617706016, -41165.16305985011, 0.134, 1.004, 0.176, 192.0, 0.0, 0.0, 0.0, 0.0, 0.0, 0.0, 0.0, 0.0, 0.0, 1.696032666150869E9, 0.0, 2023-09-29 19:11:06.150
22.0, -50116.612031055934, -24096.365165277144, -43816.54933888309, -27760.196061157712, -11433.185509823026, -15161.344726245969, -187500.02235174447, -10260.545940464252, -15270.555349654598, 12721.920039882665, -26526.20095326912, -25342.25140121596, -563.77805039621, -8795.143222229866, -23767.392190383936, -41150.99205386544, 0.136, 1.002, 0.176, 192.0, 2.0, 32.0, 15.5, 40.0, 2.5, 64.0, 0.0, 0.0, 0.0, 1.696032666150872E9, 0.0, 2023-09-29 19:11:06.150
24.0, -50109.973562952706, -24259.644658523164, -43808.86033879046, -27780.536148612042, -11427.664628942566, -15157.902557599851, -187500.02235174447, -10253.84041712766, -15304.395890759934, 12688.727699366535, -26606.9801577306, -25345.134776250696, -570.2824080327044, -8823.731103388203, -23775.751742810222, -41176.33893207776, 0.136, 1.002, 0.176, 192.0, 0.0, 0.0, 0.0, 0.0, 0.0, 0.0, 0.0, 0.0, 0.0, 1.696032666150875E9, 0.0, 2023-09-29 19:11:06.150
26.0, -50111.4264263423, -24090.77722916332, -43813.040115003605, -27752.52941280954, -11436.404161024591, -15164.943357103271, -187500.02235174447, -10263.60812945463, -15275.226864245757, 12736.649839478712, -26539.187316797656, -25339.05510175885, -569.6118556990452, -8800.708806599238, -23765.738161294244, -41151.39438526564, 0.136, 1.002, 0.176, 192.0, 0.0, 0.0, 0.0, 0.0, 0.0, 0.0, 0.0, 0.0, 0.0, 1.696032666150878E9, 0.0, 2023-09-29 19:11:06.150
28.0, -50110.62176354191, -24243.551402515342, -43809.329725424024, -27789.49919813862, -11437.231175569437, -15170.888921128384, -187500.02235174447, -10265.88800738907, -15303.16654481489, 12698.741280882512, -26599.537026826983, -25345.02301752842, -574.7751086682212, -8846.306365288063, -23782.345507424536, -41183.69265600356, 0.136, 1.002, 0.176, 192.0, 0.0, 0.0, 0.0, 0.0, 0.0, 0.0, 0.0, 0.0, 0.0, 1.696032666150881E9, 0.0, 2023-09-29 19:11:06.150
30.0, -50105.30204836155, -24082.4847319704, -43805.4405218888, -27749.221354630157, -11429.899803388096, -15162.082333812992, -187500.02235174447, -10260.657699186528, -15272.231730488746, 12727.239755063028, -26543.031816843966, -25333.981255767496, -570.7741464107212, -8809.023655536612, -23766.78869328364, -41156.60234172372, 0.136, 1.002, 0.176, 192.0, 0.0, 0.0, 0.0, 0.0, 0.0, 0.0, 0.0, 0.0, 0.0, 1.696032666210656E9, 0.0, 2023-09-29 19:11:06.210
32.0, -50095.10965288993, -24254.593164276263, -43807.921565523335, -27791.376744672867, -11430.771521421853, -15174.398145007866, -187500.02235174447, -10267.944367878958, -15284.413431216888, 12698.741280882512, -26591.26688137852, -25330.561438865836, -569.3212830211262, -8822.12177778742, -23771.527263108168, -41173.5673157653, 0.132, 0.998, 0.18, 192.0, 2.0, 16.0, 15.5, 24.0, 2.5, 80.0, 0.0, 0.0, 0.0, 1.696032666210666E9, 0.0, 2023-09-29 19:11:06.210
34.0, -50102.66454251582, -24099.695575200985, -43811.18492021381, -27748.796671485507, -11425.854137641685, -15170.441886239278, -187500.02235174447, -10266.93853937847, -15269.393058942922, 12717.51674622497, -26560.265011819007, -25340.530316892902, -567.9801783538078, -8820.914783586835, -23771.169635196882, -41164.783080194364, 0.132, 0.998, 0.18, 192.0, 0.0, 0.0, 0.0, 0.0, 0.0, 0.0, 0.0, 0.0, 0.0, 1.696032666210669E9, 0.0, 2023-09-29 19:11:06.210
36.0, -50102.575135538, -24257.364780588723, -43814.76119932666, -27800.920939555283, -11428.849271398696, -15174.755772919152, -187500.02235174447, -10270.2242458134, -15301.691329680842, 12695.030891302931, -26589.389334844273, -25343.905430305655, -577.8596494030535, -8841.567795463538, -23781.00440275722, -41177.18829836706, 0.132, 0.998, 0.18, 192.0, 0.0, 0.0, 0.0, 0.0, 0.0, 0.0, 0.0, 0.0, 0.0, 1.696032666210673E9, 0.0, 2023-09-29 19:11:06.210
38.0, -50106.553746051046, -24151.864546759673, -43799.04792297458, -27742.337017337923, -11411.884297357119, -15153.722781386708, -187500.02235174447, -10251.64994617104, -15272.522303166665, 12726.99388587402, -26580.515692295518, -25335.903505790655, -566.7731841532212, -8817.226745751708, -23767.03456247265, -41158.05520511332, 0.132, 0.998, 0.18, 192.0, 0.0, 0.0, 0.0, 0.0, 0.0, 0.0, 0.0, 0.0, 0.0, 1.696032666210676E9, 0.0, 2023-09-29 19:11:06.210
40.0, -50111.13585366438, -24274.5309203304, -43808.16743471235, -27792.78490457355, -11433.11845458966, -15172.274729284612, -187500.02235174447, -10260.41182999752, -15288.2579312632, 12704.686844907625, -26578.861663205822, -25342.09493900477, -574.104556334562, -8834.169368048832, -23774.56710035409, -41166.14653660614, 0.132, 0.998, 0.18, 192.0, 0.0, 0.0, 0.0, 0.0, 0.0, 0.0, 0.0, 0.0, 0.0, 1.696032666210679E9, 0.0, 2023-09-29 19:11:06.210
42.0, -50107.89485071837, -24163.666267832075, -43801.841891031494, -27741.711168493173, -11426.904669631085, -15161.300022757057, -187500.02235174447, -10248.878329858582, -15274.958643312293, 12713.046397333908, -26583.711991752625, -25340.798537826366, -573.4116522564474, -8831.84478662548, -23772.019001486184, -41159.64217896965, 0.134, 1.002, 0.17400000000000002, 192.0, 2.0, 24.0, 15.5, 40.0, 2.5, 56.0, 0.0, 0.0, 0.0, 1.696032666210682E9, 0.0, 2023-09-29 19:11:06.210
44.0, -50116.20969965574, -24243.931382171082, -43808.56976611254, -27791.533206884054, -11441.299193060302, -15178.95790087675, -187500.02235174447, -10266.871484145104, -15292.527114454166, 12707.749033898, -26569.362171812318, -25352.712017621045, -581.2794663047155, -8841.254871041165, -23782.077286491072, -41173.455557043024, 0.134, 1.002, 0.17400000000000002, 192.0, 0.0, 0.0, 0.0, 0.0, 0.0, 0.0, 0.0, 0.0, 0.0, 1.696032666271036E9, 0.0, 2023-09-29 19:11:06.271
46.0, -50109.571231552516, -24152.982133982438, -43803.33945791, -27744.549840039, -11433.11845458966, -15168.676098427308, -187500.02235174447, -10265.575082966696, -15290.381346986456, 12701.334083239328, -26589.009355188533, -25344.77714833941, -578.843126159087, -8830.0342953246, -23773.42716138687, -41164.33604530526, 0.134, 1.002, 0.17400000000000002, 192.0, 0.0, 0.0, 0.0, 0.0, 0.0, 0.0, 0.0, 0.0, 0.0, 1.696032666271048E9, 0.0, 2023-09-29 19:11:06.271
48.0, -50106.86667047342, -24212.370719000188, -43803.607678843466, -27791.287337695045, -11444.227271583948, -15184.411726523844, -187500.02235174447, -10283.679995975495, -15284.592245172531, 12705.022121074453, -26562.790758942458, -25352.846128087775, -581.7041494493664, -8839.153807062365, -23783.70896383631, -41174.2155163545, 0.134, 1.002, 0.17400000000000002, 192.0, 0.0, 0.0, 0.0, 0.0, 0.0, 0.0, 0.0, 0.0, 0.0, 1.696032666271051E9, 0.0, 2023-09-29 19:11:06.271
50.0, -50114.68978103278, -24162.906308520593, -43771.19764938327, -27722.220447328145, -11413.895954358097, -15149.297135984558, -187500.02235174447, -10251.068800815201, -15286.514495195688, 12711.03474033293, -26599.738192527082, -25333.355406922747, -564.0015678407631, -8832.828263381512, -23758.4067891129, -41154.724795189475, 0.134, 1.002, 0.17400000000000002, 192.0, 0.0, 0.0, 0.0, 0.0, 0.0, 0.0, 0.0, 0.0, 0.0, 1.696032666271055E9, 0.0, 2023-09-29 19:11:06.271
52.0, -50092.44979529975, -24204.88288460766, -43779.24427738718, -27753.065854676468, -11423.26133528487, -15159.109551800437, -187500.02235174447, -10259.406001497031, -15276.500913679709, 12726.189223073628, -26544.797604655934, -25317.329206148293, -557.7207276488218, -8811.75056836016, -23751.142472164927, -41138.76564964839, 0.138, 1.004, 0.17, 192.0, 2.0, 40.0, 15.5, 48.0, 2.5, 40.0, 0.0, 0.0, 0.0, 1.696032666271058E9, 0.0, 2023-09-29 19:11:06.271
54.0, -50087.71122547522, -24208.950902098528, -43780.00423669866, -27726.176706096736, -11419.5956491942, -15152.359324974934, -187500.02235174447, -10254.868597372604, -15275.964471812782, 12720.020141603964, -26597.681832037193, -25314.75875553593, -564.8956376189753, -8830.302516258063, -23757.825643757064, -41147.751050919425, 0.138, 1.004, 0.17, 192.0, 0.0, 0.0, 0.0, 0.0, 0.0, 0.0, 0.0, 0.0, 0.0, 1.696032666271061E9, 0.0, 2023-09-29 19:11:06.271
56.0, -50074.70251020223, -24181.83823607424, -43794.24229791669, -27762.990029214627, -11434.303097045791, -15169.324299016513, -187500.02235174447, -10263.876350388093, -15268.007250786693, 12739.689676724634, -26526.178601524665, -25319.810249782833, -571.6011609555675, -8823.306420243553, -23763.95002173782, -41144.890027629146, 0.138, 1.004, 0.17, 192.0, 0.0, 0.0, 0.0, 0.0, 0.0, 0.0, 0.0, 0.0, 0.0, 1.696032666271064E9, 0.0, 2023-09-29 19:11:06.271
58.0, -50083.53144926208, -24235.951809400536, -43779.11016692044, -27742.180555126735, -11419.461538727468, -15154.035705809083, -187500.02235174447, -10251.627594426584, -15280.2560067482, 12709.961856599077, -26603.873265251314, -25326.761642308433, -573.165783067439, -8849.502664745172, -23764.195890926825, -41158.47988825797, 0.138, 1.004, 0.17, 192.0, 0.0, 0.0, 0.0, 0.0, 0.0, 0.0, 0.0, 0.0, 0.0, 1.696032666271068E9, 0.0, 2023-09-29 19:11:06.271
60.0, -50071.70737644522, -24161.07346547526, -43784.11695767844, -27748.61785752986, -11433.297268545302, -15157.991964577672, -187500.02235174447, -10257.55080670724, -15261.860521061484, 12752.966612931086, -26516.522647919974, -25320.279636416395, -565.6108934415453, -8817.919649829824, -23756.57394606757, -41137.044565325334, 0.138, 1.004, 0.17, 192.0, 0.0, 0.0, 0.0, 0.0, 0.0, 0.0, 0.0, 0.0, 0.0, 1.696032666331079E9, 0.0, 2023-09-29 19:11:06.331
62.0, -50097.50128954665, -24237.717597212508, -43775.220963385225, -27740.705339992684, -11428.536346976322, -15146.749037116651, -187500.02235174447, -10251.78405663777, -15280.188951514836, 12708.732510654034, -26598.64295704877, -25326.6275318417, -573.2998935341709, -8845.03231585411, -23761.64779205892, -41149.136859075654, 0.138, 1.004, 0.17400000000000002, 192.0, 2.0, 40.0, 15.5, 48.0, 2.5, 56.0, 0.0, 0.0, 0.0, 1.696032666331088E9, 0.0, 2023-09-29 19:11:06.331
64.0, -50068.95811187722, -24171.712895835986, -43767.95664643725, -27734.960941667672, -11432.067922600261, -15144.80443534904, -187500.02235174447, -10262.065859087214, -15256.987840770227, 12726.23392656254, -26518.556656665405, -25314.088203202275, -563.1522015514614, -8815.796234106569, -23754.718751277775, -41127.455666954, 0.138, 1.004, 0.17400000000000002, 192.0, 0.0, 0.0, 0.0, 0.0, 0.0, 0.0, 0.0, 0.0, 0.0, 1.696032666331092E9, 0.0, 2023-09-29 19:11:06.331
66.0, -50056.17291404879, -24281.214091922535, -43762.23459985669, -27728.948322409193, -11426.032951597328, -15146.592574905466, -187500.02235174447, -10262.334080020677, -15260.899396049905, 12721.920039882665, -26589.724611011105, -25304.00756645293, -558.4136317269364, -8827.955583090255, -23753.399998354915, -41136.79869613632, 0.138, 1.004, 0.17400000000000002, 192.0, 0.0, 0.0, 0.0, 0.0, 0.0, 0.0, 0.0, 0.0, 0.0, 1.696032666331095E9, 0.0, 2023-09-29 19:11:06.331
68.0, -50071.90854214532, -24149.025875213847, -43777.456137830755, -27734.737424223116, -11441.187434338026, -15160.405952978845, -187500.02235174447, -10279.723737206905, -15242.63802082992, 12755.134732143251, -26499.043583755923, -25306.376851365192, -563.8898091184866, -8821.853556853957, -23758.98793446874, -41128.595605921226, 0.138, 1.004, 0.17400000000000002, 192.0, 0.0, 0.0, 0.0, 0.0, 0.0, 0.0, 0.0, 0.0, 0.0, 1.696032666331098E9, 0.0, 2023-09-29 19:11:06.331
70.0, -50076.96003639222, -24297.66497584164, -43778.79724249807, -27756.217450644668, -11438.237004069926, -15163.758714647141, -187500.02235174447, -10273.46524875942, -15274.131628767447, 12724.46813875057, -26590.93160521169, -25307.62854905469, -567.3990329979698, -8841.053705341066, -23769.04621947363, -41155.17183007859, 0.138, 1.004, 0.17400000000000002, 192.0, 0.0, 0.0, 0.0, 0.0, 0.0, 0.0, 0.0, 0.0, 0.0, 1.696032666331101E9, 0.0, 2023-09-29 19:11:06.331
72.0, -50092.29333308856, -24167.39900915611, -43791.26951590413, -27750.271886619557, -11443.422608783558, -15169.279595527601, -187500.02235174447, -10274.247559815354, -15260.653526860897, 12720.847156148811, -26527.743223636535, -25327.521601619912, -571.7352714222993, -8838.885586128901, -23771.840187530543, -41148.175734064076, 0.14, 1.006, 0.17400000000000002, 192.0, 2.0, 48.0, 15.5, 56.0, 2.5, 56.0, 0.0, 0.0, 0.0, 1.696032666331106E9, 0.0, 2023-09-29 19:11:06.331
74.0, -50092.71801623321, -24324.084737787813, -43785.212193156745, -27771.617802574376, -11437.007658124883, -15169.748982161163, -187500.02235174447, -10271.185370824978, -15288.146172540924, 12697.37782447074, -26606.801343774958, -25335.434119157093, -577.8596494030535, -8862.131400362421, -23775.6623358324, -41165.09600461674, 0.14, 1.006, 0.17400000000000002, 192.0, 0.0, 0.0, 0.0, 0.0, 0.0, 0.0, 0.0, 0.0, 0.0, 1.696032666391586E9, 0.0, 2023-09-29 19:11:06.391
76.0, -50092.04746389955, -24162.5039771204, -43787.20149841327, -27736.592619012907, -11440.516882004367, -15161.05415356805, -187500.02235174447, -10270.447763257953, -15263.000460028705, 12727.083292851841, -26540.88604937626, -25332.23781969998, -576.0491581021736, -8833.23059478171, -23768.576832840066, -41142.72190841698, 0.14, 1.006, 0.17400000000000002, 192.0, 0.0, 0.0, 0.0, 0.0, 0.0, 0.0, 0.0, 0.0, 0.0, 1.696032666391598E9, 0.0, 2023-09-29 19:11:06.391
78.0, -50082.54797250604, -24303.47642940002, -43784.63104780091, -27768.1532821838, -11444.651954728599, -15163.892825113873, -187500.02235174447, -10274.314615048721, -15285.106335295002, 12699.769461127456, -26594.48553258008, -25329.86853478772, -587.7614721967545, -8861.416144539851, -23778.679821333866, -41160.0668621143, 0.14, 1.006, 0.17400000000000002, 192.0, 0.0, 0.0, 0.0, 0.0, 0.0, 0.0, 0.0, 0.0, 0.0, 1.696032666391601E9, 0.0, 2023-09-29 19:11:06.391
80.0, -50085.63251324088, -24152.78096828234, -43780.741844265685, -27723.986235140113, -11444.137864606128, -15153.52161568661, -187500.02235174447, -10267.162056823023, -15260.184140227335, 12735.442845278127, -26545.222287800585, -25322.33599690628, -579.2454575592825, -8835.756341905158, -23768.375667139968, -41138.296263014825, 0.14, 1.006, 0.17400000000000002, 192.0, 0.0, 0.0, 0.0, 0.0, 0.0, 0.0, 0.0, 0.0, 0.0, 1.696032666391604E9, 0.0, 2023-09-29 19:11:06.391
82.0, -50078.27878931508, -24328.19745876759, -43773.99161744018, -27759.212584401677, -11443.288498316824, -15159.422476222811, -187500.02235174447, -10272.012385369824, -15283.564064927587, 12708.37488274275, -26593.971442457612, -25316.077508458795, -581.6594459604557, -8856.364650292951, -23772.711905564298, -41154.38951902265, 0.138, 1.01, 0.17400000000000002, 192.0, 2.0, 40.0, 15.5, 72.0, 2.5, 56.0, 0.0, 0.0, 0.0, 1.696032666391608E9, 0.0, 2023-09-29 19:11:06.391
84.0, -50091.645132499354, -24188.521407666376, -43768.40368132635, -27712.67625244573, -11437.87937615864, -15155.823845365507, -187500.02235174447, -10271.520646991808, -15259.245366960213, 12730.748978942513, -26552.44190125965, -25311.8753805012, -574.1939633123832, -8832.627097681416, -23761.781902525654, -41134.317652501784, 0.138, 1.01, 0.17400000000000002, 192.0, 0.0, 0.0, 0.0, 0.0, 0.0, 0.0, 0.0, 0.0, 0.0, 1.696032666391611E9, 0.0, 2023-09-29 19:11:06.391
86.0, -50092.31568483302, -24316.28397897291, -43779.333684365, -27767.885061250337, -11446.194225096015, -15165.748019903664, -187500.02235174447, -10278.382632539588, -15283.944044583326, 12708.643103676213, -26573.452541047638, -25329.041520242874, -584.6769314619221, -8865.841789942002, -23772.667202075387, -41154.92596088957, 0.138, 1.01, 0.17400000000000002, 192.0, 0.0, 0.0, 0.0, 0.0, 0.0, 0.0, 0.0, 0.0, 0.0, 1.696032666391614E9, 0.0, 2023-09-29 19:11:06.391
88.0, -50090.751062721145, -24191.114210023192, -43774.6845215183, -27716.923083892238, -11431.240908055415, -15150.705295885242, -187500.02235174447, -10266.17858006699, -15274.221035745268, 12725.831595162344, -26565.137692110264, -25321.620741083712, -580.295989548682, -8840.494911729684, -23763.838263015543, -41141.49256247194, 0.138, 1.01, 0.17400000000000002, 192.0, 0.0, 0.0, 0.0, 0.0, 0.0, 0.0, 0.0, 0.0, 0.0, 1.696032666391617E9, 0.0, 2023-09-29 19:11:06.391
90.0, -50088.60529525344, -24287.561987347843, -43784.1840129118, -27772.422465374766, -11443.802588439297, -15166.709144915241, -187500.02235174447, -10280.617806985118, -15287.900303351917, 12708.37488274275, -26566.903479922235, -25331.366101666226, -576.3397307800926, -8852.028411868621, -23769.672068318378, -41154.34481553374, 0.138, 1.01, 0.17400000000000002, 192.0, 0.0, 0.0, 0.0, 0.0, 0.0, 0.0, 0.0, 0.0, 0.0, 1.696032666450847E9, 0.0, 2023-09-29 19:11:06.450
92.0, -50080.603370738434, -24173.903366792605, -43774.81863198503, -27724.477973518133, -11430.615059210666, -15151.219386007713, -187500.02235174447, -10275.946292393959, -15276.97030031327, 12708.598400187302, -26581.9238521962, -25338.54101163638, -574.7751086682212, -8857.191664837797, -23761.826606014565, -41147.125202074676, 0.138, 1.006, 0.17200000000000001, 192.0, 2.0, 40.0, 15.5, 56.0, 2.5, 48.0, 0.0, 0.0, 0.0, 1.696032666450856E9, 0.0, 2023-09-29 19:11:06.450
94.0, -50090.41578655432, -24275.045010452868, -43783.312294878044, -27764.800520515506, -11441.857986671685, -15161.43413322379, -187500.02235174447, -10285.55754250974, -15283.273492249667, 12700.998807072498, -26569.965668912613, -25327.76747080892, -578.2843325477044, -8863.293691074097, -23763.52533859317, -41152.981359121964, 0.138, 1.006, 0.17200000000000001, 192.0, 0.0, 0.0, 0.0, 0.0, 0.0, 0.0, 0.0, 0.0, 0.0, 1.69603266645086E9, 0.0, 2023-09-29 19:11:06.450
96.0, -50101.90458320434, -24201.79834387283, -43777.67965527531, -27713.324453034933, -11430.056265599284, -15150.57118541851, -187500.02235174447, -10279.70138546245, -15278.601977658509, 12719.32723752585, -26595.893692480768, -25318.335034648782, -572.6293412005116, -8848.273318800131, -23759.03263795765, -41144.48769622895, 0.138, 1.006, 0.17200000000000001, 192.0, 0.0, 0.0, 0.0, 0.0, 0.0, 0.0, 0.0, 0.0, 0.0, 1.696032666450863E9, 0.0, 2023-09-29 19:11:06.450
98.0, -50100.92110644831, -24235.28125706688, -43791.068350204034, -27770.053180462502, -11449.703448975499, -15164.071639069516, -187500.02235174447, -10291.413699557032, -15291.11895455348, 12704.262161762974, -26548.329180279874, -25335.702340090556, -586.8674024185423, -8861.304385817575, -23776.914033521898, -41155.39534752314, 0.138, 1.006, 0.17200000000000001, 192.0, 0.0, 0.0, 0.0, 0.0, 0.0, 0.0, 0.0, 0.0, 0.0, 1.696032666450866E9, 0.0, 2023-09-29 19:11:06.450
100.0, -50096.137833134875, -24209.822620132283, -43772.51640230613, -27726.66844447475, -11436.806492424786, -15151.33114472999, -187500.02235174447, -10276.1251063496, -15288.50380045221, 12713.60519094529, -26610.064698465434, -25337.378720924702, -574.4845359903021, -8855.783504937113, -23772.823664286574, -41158.14461209114, 0.138, 1.006, 0.17200000000000001, 192.0, 0.0, 0.0, 0.0, 0.0, 0.0, 0.0, 0.0, 0.0, 0.0, 1.696032666450869E9, 0.0, 2023-09-29 19:11:06.450
102.0, -50083.66555972881, -24211.722518410985, -43778.79724249807, -27760.73250302464, -11442.372076794158, -15158.327240744502, -187500.02235174447, -10280.640158729573, -15280.233655003745, 12719.640161948224, -26549.625581458284, -25343.458395416546, -569.3659865100368, -8846.149903076875, -23769.962640996295, -41146.87933288566, 0.138, 1.012, 0.17200000000000001, 192.0, 2.0, 40.0, 15.5, 80.0, 2.5, 48.0, 0.0, 0.0, 0.0, 1.696032666450872E9, 0.0, 2023-09-29 19:11:06.450
104.0, -50088.024149897596, -24242.85849843723, -43769.00717842665, -27723.20392408418, -11426.412931253068, -15144.46915918221, -187500.02235174447, -10264.010460854824, -15292.97414934327, 12703.189278029118, -26624.235704450097, -25342.452566916058, -555.038518314185, -8836.292783772085, -23765.022905471673, -41151.26027479891, 0.138, 1.012, 0.17200000000000001, 192.0, 0.0, 0.0, 0.0, 0.0, 0.0, 0.0, 0.0, 0.0, 0.0, 1.696032666510626E9, 0.0, 2023-09-29 19:11:06.510
106.0, -50093.85795520043, -24204.59231192974, -43792.87884150491, -27749.578982541443, -11444.227271583948, -15157.85785411094, -187500.02235174447, -10271.40888826953, -15294.82934413306, 12722.791757916422, -26543.434148244163, -25342.385511682693, -549.1153060335286, -8809.381283447896, -23769.761475296196, -41147.259312541406, 0.138, 1.012, 0.17200000000000001, 192.0, 0.0, 0.0, 0.0, 0.0, 0.0, 0.0, 0.0, 0.0, 0.0, 1.696032666510654E9, 0.0, 2023-09-29 19:11:06.510
108.0, -50093.65678950033, -24251.08394039678, -43793.28117290511, -27726.53433400802, -11429.45276849899, -15142.837481836974, -187500.02235174447, -10255.405039239531, -15297.489201723243, 12702.18344952863, -26618.22308519162, -25334.87532554571, -543.39325945297, -8805.156803745844, -23771.817835786085, -41159.418661525095, 0.138, 1.012, 0.17200000000000001, 192.0, 0.0, 0.0, 0.0, 0.0, 0.0, 0.0, 0.0, 0.0, 0.0, 1.696032666510658E9, 0.0, 2023-09-29 19:11:06.510
110.0, -50076.557704992025, -24177.2561284609, -43804.56880385504, -27745.57802028394, -11430.838576655218, -15143.195109748258, -187500.02235174447, -10249.75004789234, -15282.290015493634, 12748.228043106563, -26529.710177148605, -25332.461337144538, -533.9608232928305, -8775.764259787114, -23769.783827040654, -41151.729661432466, 0.138, 1.012, 0.17200000000000001, 192.0, 0.0, 0.0, 0.0, 0.0, 0.0, 0.0, 0.0, 0.0, 0.0, 1.696032666510661E9, 0.0, 2023-09-29 19:11:06.510
112.0, -50073.87549565739, -24284.94683324657, -43793.594097327485, -27736.68202599073, -11408.710349644465, -15122.89972578284, -187500.02235174447, -10223.330285946166, -15277.774963113663, 12733.47589176606, -26606.555474585948, -25319.229104426995, -520.1250934749953, -8772.813829519013, -23756.5068908342, -41161.89970515963, 0.14, 1.008, 0.17400000000000002, 192.0, 2.0, 48.0, 15.5, 64.0, 2.5, 56.0, 0.0, 0.0, 0.0, 1.696032666510664E9, 0.0, 2023-09-29 19:11:06.510
114.0, -50077.0717951145, -24174.618622615173, -43811.81076905856, -27744.818060972462, -11419.21566953846, -15127.526536885089, -187500.02235174447, -10227.01832378129, -15270.39888744341, 12749.658554751702, -26511.24763622852, -25318.558552093335, -521.4885498867691, -8741.25316634812, -23752.304762876603, -41140.03969908234, 0.14, 1.008, 0.17400000000000002, 192.0, 0.0, 0.0, 0.0, 0.0, 0.0, 0.0, 0.0, 0.0, 0.0, 1.696032666510668E9, 0.0, 2023-09-29 19:11:06.510
116.0, -50082.88324867288, -24268.071266182815, -43813.800074315084, -27757.53620356753, -11415.617038681155, -15123.726740327686, -187500.02235174447, -10220.40220742252, -15295.16462029989, 12731.732455698546, -26590.484570322584, -25317.776241037398, -523.9025382879422, -8767.561169572016, -23763.480635104257, -41160.02215862538, 0.14, 1.008, 0.17400000000000002, 192.0, 0.0, 0.0, 0.0, 0.0, 0.0, 0.0, 0.0, 0.0, 0.0, 1.696032666510671E9, 0.0, 2023-09-29 19:11:06.510
118.0, -50100.36231283693, -24137.62648554164, -43816.97402202774, -27751.612991286875, -11420.713236416965, -15120.508089126122, -187500.02235174447, -10226.437178425453, -15277.082059035547, 12754.106551898307, -26515.494467675027, -25319.229104426995, -534.5419686486684, -8730.97136389868, -23766.4087136279, -41144.15242006212, 0.14, 1.008, 0.17400000000000002, 192.0, 0.0, 0.0, 0.0, 0.0, 0.0, 0.0, 0.0, 0.0, 0.0, 1.696032666510674E9, 0.0, 2023-09-29 19:11:06.510
120.0, -50100.42936807029, -24261.097521912758, -43825.33357445402, -27776.11050320989, -11422.479024228935, -15126.677170595787, -187500.02235174447, -10232.718018617394, -15290.694271408829, 12719.126071825753, -26594.26201513553, -25314.490534602468, -524.9307185328863, -8751.82554147548, -23770.297917163127, -41161.83264992627, 0.14, 1.008, 0.17400000000000002, 192.0, 0.0, 0.0, 0.0, 0.0, 0.0, 0.0, 0.0, 0.0, 0.0, 1.696032666570758E9, 0.0, 2023-09-29 19:11:06.570
122.0, -50090.08051038749, -24102.578950235722, -43837.20235075979, -27769.919069995773, -11421.87552712864, -15127.504185140633, -187500.02235174447, -10234.573213407186, -15270.041259532127, 12737.14157785673, -26515.114488019288, -25325.644055085668, -535.0560587711404, -8745.947032683735, -23774.23182418726, -41153.696614944536, 0.138, 0.998, 0.178, 192.0, 2.0, 40.0, 15.5, 24.0, 2.5, 72.0, 0.0, 0.0, 0.0, 1.696032666570768E9, 0.0, 2023-09-29 19:11:06.570
124.0, -50079.06110037102, -24258.929402700593, -43839.884560094426, -27803.670204123286, -11417.11460555966, -15126.096025239949, -187500.02235174447, -10228.158262748511, -15280.434820703844, 12727.575031229859, -26591.736268012082, -25326.96280800853, -535.3913349379701, -8753.88190196537, -23770.27556541867, -41166.50416451743, 0.138, 0.998, 0.178, 192.0, 0.0, 0.0, 0.0, 0.0, 0.0, 0.0, 0.0, 0.0, 0.0, 1.696032666570771E9, 0.0, 2023-09-29 19:11:06.570
126.0, -50091.309856332526, -24108.837438683207, -43840.66687115036, -27776.177558443258, -11417.628695682133, -15119.61401934791, -187500.02235174447, -10223.889079557548, -15266.621442630463, 12735.264031322484, -26533.68878766165, -25329.890886532176, -536.9559570498416, -8739.509730280606, -23763.12300719297, -41151.75201317692, 0.138, 0.998, 0.178, 192.0, 0.0, 0.0, 0.0, 0.0, 0.0, 0.0, 0.0, 0.0, 0.0, 1.696032666570774E9, 0.0, 2023-09-29 19:11:06.570
128.0, -50093.56738252251, -24251.12864388569, -43837.783496115626, -27805.50304716862, -11418.701579415987, -15118.161155958314, -187500.02235174447, -10217.87646029907, -15293.577646443564, 12700.12708903874, -26589.97048020011, -25326.49342137497, -538.1853029948835, -8758.754582256626, -23767.41454212839, -41168.11349011821, 0.138, 0.998, 0.178, 192.0, 0.0, 0.0, 0.0, 0.0, 0.0, 0.0, 0.0, 0.0, 0.0, 1.696032666570777E9, 0.0, 2023-09-29 19:11:06.570
130.0, -50102.30691460454, -24063.843377094672, -43844.10903979648, -27768.510910095087, -11418.858041627174, -15115.858926279418, -187500.02235174447, -10221.251573711823, -15267.806085086595, 12734.794644688922, -26535.611037684805, -25331.25434294395, -536.9559570498416, -8749.813884474503, -23762.251289159216, -41151.729661432466, 0.138, 0.998, 0.178, 192.0, 0.0, 0.0, 0.0, 0.0, 0.0, 0.0, 0.0, 0.0, 0.0, 1.696032666570781E9, 0.0, 2023-09-29 19:11:06.570
132.0, -50100.22820237019, -24199.51846593839, -43848.44527822081, -27816.88008509637, -11423.037817840317, -15127.817109563008, -187500.02235174447, -10231.399265694532, -15286.626253917964, 12711.638237433224, -26581.387410329273, -25334.003607511953, -545.941358320875, -8754.708916510215, -23775.483521876755, -41173.187336109564, 0.136, 0.998, 0.17400000000000002, 192.0, 2.0, 32.0, 15.5, 24.0, 2.5, 56.0, 0.0, 0.0, 0.0, 1.696032666570784E9, 0.0, 2023-09-29 19:11:06.570
134.0, -50104.56444079452, -24055.394417690568, -43840.62216766145, -27765.046389704516, -11415.058245069773, -15117.959990258216, -187500.02235174447, -10221.653905112018, -15258.68657334883, 12745.992868661031, -26553.760654182515, -25330.852011543753, -543.2815007306934, -8748.83040771847, -23767.481597361755, -41159.128088847174, 0.136, 0.998, 0.17400000000000002, 192.0, 0.0, 0.0, 0.0, 0.0, 0.0, 0.0, 0.0, 0.0, 0.0, 1.696032666631225E9, 0.0, 2023-09-29 19:11:06.631
136.0, -50089.87934468739, -24210.80609688832, -43837.0458885486, -27804.944253557238, -11417.628695682133, -15129.493490397155, -187500.02235174447, -10228.69470461544, -15281.865332348983, 12711.928810111143, -26574.458369548127, -25320.637264327677, -542.812114097132, -8747.198730373231, -23771.79548404163, -41174.19316461005, 0.136, 0.998, 0.17400000000000002, 192.0, 0.0, 0.0, 0.0, 0.0, 0.0, 0.0, 0.0, 0.0, 0.0, 1.696032666631236E9, 0.0, 2023-09-29 19:11:06.631
138.0, -50104.83266172799, -24099.069726356236, -43828.48517042222, -27749.377816841345, -11409.73852988941, -15113.690807067253, -187500.02235174447, -10223.196175479434, -15274.422201445366, 12724.132862583741, -26568.57986075638, -25322.850087028753, -544.9131780759309, -8737.00633490161, -23763.860614759997, -41158.52459174688, 0.136, 0.998, 0.17400000000000002, 192.0, 0.0, 0.0, 0.0, 0.0, 0.0, 0.0, 0.0, 0.0, 0.0, 1.696032666631239E9, 0.0, 2023-09-29 19:11:06.631
140.0, -50085.923085918796, -24225.468841250997, -43827.926376810836, -27796.31648019749, -11416.6452189261, -15121.759786815619, -187500.02235174447, -10227.2641929703, -15278.154942769403, 12727.776196929955, -26565.383561299273, -25320.324339905303, -540.4651809293248, -8745.052962905522, -23767.012210728197, -41164.69367321655, 0.136, 0.998, 0.17400000000000002, 192.0, 0.0, 0.0, 0.0, 0.0, 0.0, 0.0, 0.0, 0.0, 0.0, 1.696032666631242E9, 0.0, 2023-09-29 19:11:06.631
142.0, -50091.868649943906, -24111.363185806655, -43823.9924697867, -27739.677159747742, -11416.868736370652, -15111.098004710437, -187500.02235174447, -10219.754006833316, -15258.843035560018, 12739.779083702457, -26572.78198871398, -25316.368081136716, -536.5312739051907, -8736.983983157157, -23758.8091205131, -41147.8628096417, 0.138, 1.002, 0.178, 192.0, 2.0, 40.0, 15.5, 40.0, 2.5, 72.0, 0.0, 0.0, 0.0, 1.696032666631246E9, 0.0, 2023-09-29 19:11:06.631
144.0, -50078.68112071528, -24182.866416319182, -43827.5463971551, -27791.622613861873, -11425.965896363961, -15124.173775216792, -187500.02235174447, -10222.413864423497, -15267.090829264025, 12726.077464351352, -26548.35153202433, -25325.085261474283, -554.3679659805258, -8756.497056066639, -23779.864463789996, -41163.93371390506, 0.138, 1.002, 0.178, 192.0, 0.0, 0.0, 0.0, 0.0, 0.0, 0.0, 0.0, 0.0, 0.0, 1.696032666631249E9, 0.0, 2023-09-29 19:11:06.631
146.0, -50090.326379576494, -24132.597343039197, -43812.682487092316, -27734.53625852302, -11415.058245069773, -15107.789946531053, -187500.02235174447, -10199.838602523638, -15261.458189661289, 12736.895708667722, -26589.992831944568, -25313.283540401884, -543.0132797972298, -8739.845006447436, -23769.828530529565, -41152.847248655235, 0.138, 1.002, 0.178, 192.0, 0.0, 0.0, 0.0, 0.0, 0.0, 0.0, 0.0, 0.0, 0.0, 1.696032666631252E9, 0.0, 2023-09-29 19:11:06.631
148.0, -50089.00762665363, -24148.48943334692, -43820.81852207405, -27778.21156718869, -11431.68794294452, -15127.168908973803, -187500.02235174447, -10216.200079464923, -15275.651547390407, 12730.927792898154, -26534.649912673227, -25325.353482407747, -557.0501753151626, -8745.701163494727, -23780.646774845933, -41156.64704521264, 0.138, 1.002, 0.178, 192.0, 0.0, 0.0, 0.0, 0.0, 0.0, 0.0, 0.0, 0.0, 0.0, 1.696032666631255E9, 0.0, 2023-09-29 19:11:06.631
150.0, -50109.7276937637, -24127.67995925903, -43812.03428650311, -27733.910409678272, -11417.986323593417, -15114.47311812319, -187500.02235174447, -10208.376968905564, -15277.305576480101, 12725.60807771779, -26596.765410514523, -25321.285464916884, -544.9802333092968, -8749.031573418568, -23770.476731118768, -41157.49641150194, 0.138, 1.002, 0.178, 192.0, 0.0, 0.0, 0.0, 0.0, 0.0, 0.0, 0.0, 0.0, 0.0, 1.696032666691585E9, 0.0, 2023-09-29 19:11:06.691
152.0, -50090.92987667679, -24109.61974973914, -43827.83696983301, -27772.198947930214, -11429.855099899185, -15135.349647444446, -187500.02235174447, -10231.175748249978, -15277.305576480101, 12729.832557419844, -26528.592589925836, -25325.711110319033, -552.713936890833, -8748.718648996193, -23774.075361976073, -41156.02119636789, 0.14400000000000002, 1.012, 0.176, 192.0, 2.0, 64.0, 15.5, 80.0, 2.5, 64.0, 0.0, 0.0, 0.0, 1.696032666691594E9, 0.0, 2023-09-29 19:11:06.691
154.0, -50086.23601034117, -24161.408741642088, -43813.33068768152, -27739.699511492196, -11405.78227112082, -15119.32344666999, -187500.02235174447, -10218.077625999169, -15274.019870045171, 12717.248525291507, -26615.74204155708, -25321.73249980599, -544.48849493128, -8757.145256655844, -23768.688591562342, -41164.9171906611, 0.14400000000000002, 1.012, 0.176, 192.0, 0.0, 0.0, 0.0, 0.0, 0.0, 0.0, 0.0, 0.0, 0.0, 1.696032666691598E9, 0.0, 2023-09-29 19:11:06.691
156.0, -50107.96190595173, -24100.030851367814, -43835.81654260356, -27771.662506063287, -11427.955201620485, -15139.082388768482, -187500.02235174447, -10238.708286131417, -15259.625346615952, 12735.62165923377, -26534.895781862233, -25330.33792142128, -558.4806869603023, -8751.132637397366, -23768.308611906603, -41158.34577779124, 0.14400000000000002, 1.012, 0.176, 192.0, 0.0, 0.0, 0.0, 0.0, 0.0, 0.0, 0.0, 0.0, 0.0, 1.696032666691601E9, 0.0, 2023-09-29 19:11:06.691
158.0, -50118.377818867906, -24148.243564157914, -43819.76799008465, -27752.574116298452, -11412.756015390876, -15123.167946716303, -187500.02235174447, -10221.899774301026, -15293.93527435485, 12699.791812871912, -26617.910160769246, -25344.710093106045, -558.9500735938637, -8778.558227844027, -23773.538920109146, -41175.288400088364, 0.14400000000000002, 1.012, 0.176, 192.0, 0.0, 0.0, 0.0, 0.0, 0.0, 0.0, 0.0, 0.0, 0.0, 1.696032666691604E9, 0.0, 2023-09-29 19:11:06.691
160.0, -50111.31466762003, -24052.779263589295, -43824.01482153116, -27766.521604838563, -11423.127224818138, -15132.890955554361, -187500.02235174447, -10228.515890659797, -15278.847846847517, 12730.368999286771, -26526.223305013576, -25341.379683182204, -565.1415068079838, -8756.87703572238, -23773.13658870895, -41155.28358880086, 0.14400000000000002, 1.012, 0.176, 192.0, 0.0, 0.0, 0.0, 0.0, 0.0, 0.0, 0.0, 0.0, 0.0, 1.696032666691607E9, 0.0, 2023-09-29 19:11:06.691
162.0, -50111.15820540884, -24165.58851785523, -43812.682487092316, -27750.897735464307, -11409.4926607004, -15126.051321751038, -187500.02235174447, -10220.804538822716, -15291.722451653774, 12701.021158816953, -26626.381471917808, -25336.797575568864, -550.3446519785705, -8776.904198754335, -23772.868367775485, -41167.48764127346, 0.14, 1.012, 0.17400000000000002, 192.0, 2.0, 48.0, 15.5, 80.0, 2.5, 56.0, 0.0, 0.0, 0.0, 1.696032666691611E9, 0.0, 2023-09-29 19:11:06.691
164.0, -50109.414769341325, -24041.983371017384, -43827.52404541064, -27756.373912855855, -11428.424588254045, -15137.160138745325, -187500.02235174447, -10233.857957584614, -15273.237558989234, 12725.42926376215, -26541.467194732097, -25339.725654092512, -560.6264544280117, -8762.912006725313, -23772.533091608657, -41152.26610329939, 0.14, 1.012, 0.17400000000000002, 192.0, 0.0, 0.0, 0.0, 0.0, 0.0, 0.0, 0.0, 0.0, 0.0, 1.696032666751912E9, 0.0, 2023-09-29 19:11:06.751
166.0, -50106.73256000669, -24159.307677663288, -43819.94680404029, -27762.63240130334, -11417.06990207075, -15129.359379930424, -187500.02235174447, -10229.767588349294, -15296.50572496721, 12688.191257499608, -26627.633169607303, -25341.31262794884, -562.5487044511682, -8787.543629115062, -23780.110332979006, -41171.06392038631, 0.14, 1.012, 0.17400000000000002, 192.0, 0.0, 0.0, 0.0, 0.0, 0.0, 0.0, 0.0, 0.0, 0.0, 1.696032666751923E9, 0.0, 2023-09-29 19:11:06.751
168.0, -50108.6771617743, -24019.095184695147, -43823.38897268641, -27745.44390981721, -11423.21663179596, -15136.936621300772, -187500.02235174447, -10235.98137330787, -15275.562140412587, 12729.005542874998, -26552.061921603912, -25338.697473847566, -570.2153527993385, -8761.97323345819, -23775.774094554676, -41155.48475450096, 0.14, 1.012, 0.17400000000000002, 192.0, 0.0, 0.0, 0.0, 0.0, 0.0, 0.0, 0.0, 0.0, 0.0, 1.696032666751927E9, 0.0, 2023-09-29 19:11:06.751
170.0, -50098.39535932486, -24154.770273538863, -43811.699010336284, -27760.486633835633, -11418.58982069371, -15137.540118401066, -187500.02235174447, -10233.142701762044, -15286.492143451233, 12707.391405986717, -26611.94224499968, -25335.501174390458, -554.7702973807213, -8783.743832557659, -23778.545710867133, -41173.00852215392, 0.14, 1.012, 0.17400000000000002, 192.0, 0.0, 0.0, 0.0, 0.0, 0.0, 0.0, 0.0, 0.0, 0.0, 1.69603266675193E9, 0.0, 2023-09-29 19:11:06.751
172.0, -50083.822021939995, -23996.02818441727, -43810.0896847355, -27729.44006078721, -11414.141823547105, -15131.549850887044, -187500.02235174447, -10226.705399358916, -15256.49610239221, 12738.57208950187, -26530.716005649094, -25329.086223731785, -549.8305618560985, -8768.611701561416, -23768.28626016215, -41154.166001578094, 0.146, 1.014, 0.17200000000000001, 192.0, 2.0, 72.0, 15.5, 88.0, 2.5, 48.0, 0.0, 0.0, 0.0, 1.696032666751934E9, 0.0, 2023-09-29 19:11:06.751
174.0, -50087.6218184974, -24166.929622522548, -43808.212138201256, -27763.772340270563, -11414.790024136308, -15139.082388768482, -187500.02235174447, -10231.55572790572, -15274.243387489723, 12707.369054242261, -26595.089029680377, -25322.939494006576, -549.4058787114476, -8778.178248188287, -23768.196853184327, -41171.443900042046, 0.146, 1.014, 0.17200000000000001, 192.0, 0.0, 0.0, 0.0, 0.0, 0.0, 0.0, 0.0, 0.0, 0.0, 1.696032666751937E9, 0.0, 2023-09-29 19:11:06.751
176.0, -50098.82004246951, -23999.358594341113, -43815.00706851567, -27730.20002009869, -11421.227326539438, -15140.959935302728, -187500.02235174447, -10231.622783139084, -15266.755553097197, 12728.044417863419, -26535.49927896253, -25323.364177151227, -545.6731373874113, -8760.073335179488, -23766.8110450281, -41156.35647253472, 0.146, 1.014, 0.17200000000000001, 192.0, 0.0, 0.0, 0.0, 0.0, 0.0, 0.0, 0.0, 0.0, 0.0, 1.69603266675194E9, 0.0, 2023-09-29 19:11:06.751
178.0, -50094.573211023, -24160.179395697047, -43816.52698713863, -27776.22226193217, -11419.93092536103, -15145.18441500478, -187500.02235174447, -10230.080512771669, -15288.280283007656, 12708.598400187302, -26583.801398730448, -25323.8782672737, -559.3524049940593, -8788.772975060103, -23776.28818467715, -41176.18246986657, 0.146, 1.014, 0.17200000000000001, 192.0, 0.0, 0.0, 0.0, 0.0, 0.0, 0.0, 0.0, 0.0, 0.0, 1.696032666751943E9, 0.0, 2023-09-29 19:11:06.751
180.0, -50102.06104541553, -24021.91150449652, -43807.11690272295, -27728.43423228672, -11416.39934973709, -15129.202917719236, -187500.02235174447, -10220.961001033904, -15262.97810828425, 12743.80239770441, -26554.87824140528, -25321.553685850347, -546.9471868213639, -8762.643785791848, -23765.715809549787, -41155.19418182304, 0.146, 1.014, 0.17200000000000001, 192.0, 0.0, 0.0, 0.0, 0.0, 0.0, 0.0, 0.0, 0.0, 0.0, 1.696032666810569E9, 0.0, 2023-09-29 19:11:06.810
182.0, -50099.065911658516, -24159.285325918834, -43812.97305977024, -27770.187290929236, -11427.485814986923, -15139.104740512937, -187500.02235174447, -10227.174785992478, -15276.54561716862, 12706.452632719593, -26576.134750382276, -25326.04638648586, -548.4671054443247, -8779.921684255802, -23769.739123551743, -41165.58774299476, 0.146, 1.016, 0.178, 192.0, 2.0, 72.0, 15.5, 96.0, 2.5, 72.0, 0.0, 0.0, 0.0, 1.696032666810578E9, 0.0, 2023-09-29 19:11:06.810
184.0, -50110.26413563063, -24011.78616425826, -43809.55324286858, -27722.890999661806, -11421.182623050527, -15126.364246173413, -187500.02235174447, -10221.519794645286, -15266.152055996903, 12710.878278121743, -26556.956953639623, -25329.309741176337, -549.0258990557073, -8774.914893497813, -23762.586565326044, -41147.8628096417, 0.146, 1.016, 0.178, 192.0, 0.0, 0.0, 0.0, 0.0, 0.0, 0.0, 0.0, 0.0, 0.0, 1.696032666810582E9, 0.0, 2023-09-29 19:11:06.810
186.0, -50094.23793485617, -24125.467136557956, -43822.98664128622, -27773.048314219515, -11425.988248108417, -15136.04255152256, -187500.02235174447, -10226.459530169908, -15293.465887721288, 12698.160135526674, -26566.657610733226, -25334.58475286779, -553.7421171357772, -8771.629187062883, -23768.152149695416, -41162.346740048735, 0.146, 1.016, 0.178, 192.0, 0.0, 0.0, 0.0, 0.0, 0.0, 0.0, 0.0, 0.0, 0.0, 1.696032666810585E9, 0.0, 2023-09-29 19:11:06.810
188.0, -50088.225315597694, -24017.6199695611, -43818.78451332862, -27728.30012181999, -11419.238021282914, -15121.335103670968, -187500.02235174447, -10214.523698630775, -15276.031527046149, 12723.261144549984, -26572.804340458435, -25325.398185896658, -558.7936113826765, -8762.554378814028, -23766.006382227708, -41149.270969542384, 0.146, 1.016, 0.178, 192.0, 0.0, 0.0, 0.0, 0.0, 0.0, 0.0, 0.0, 0.0, 0.0, 1.696032666810588E9, 0.0, 2023-09-29 19:11:06.810
190.0, -50102.75394949364, -24102.757764191363, -43828.060487277566, -27773.24947991961, -11428.6481056986, -15136.735455600674, -187500.02235174447, -10224.604335380118, -15278.423163702866, 12720.064845092875, -26558.87920366278, -25326.024034741407, -561.4981724617687, -8771.495076596151, -23771.616670085987, -41154.47892600047, 0.146, 1.016, 0.178, 192.0, 0.0, 0.0, 0.0, 0.0, 0.0, 0.0, 0.0, 0.0, 0.0, 1.696032666810591E9, 0.0, 2023-09-29 19:11:06.810
192.0, -50097.322475591005, -24028.997007488848, -43814.69414409329, -27722.511020006066, -11411.839593868208, -15120.37397865939, -187500.02235174447, -10210.656846840007, -15274.39984970091, 12730.100778353308, -26577.364096327317, -25317.150392192652, -554.6361869139895, -8767.11413468291, -23765.291126405136, -41146.85698114121, 0.15, 1.014, 0.176, 192.0, 2.0, 88.0, 15.5, 88.0, 2.5, 64.0, 0.0, 0.0, 0.0, 1.696032666810594E9, 0.0, 2023-09-29 19:11:06.810
194.0, -50092.2709813441, -24088.273833784322, -43819.81269357356, -27770.67902930725, -11418.031027082328, -15136.668400367309, -187500.02235174447, -10227.375951692577, -15280.814800359583, 12706.854964119788, -26536.259238274008, -25320.816078283322, -558.4806869603023, -8770.064564951012, -23763.860614759997, -41150.14268757614, 0.15, 1.014, 0.176, 192.0, 0.0, 0.0, 0.0, 0.0, 0.0, 0.0, 0.0, 0.0, 0.0, 1.696032666870863E9, 0.0, 2023-09-29 19:11:06.870
196.0, -50100.608182025935, -24031.500402867845, -43807.45217888978, -27720.588769982907, -11406.430471710024, -15130.722836342196, -187500.02235174447, -10220.133986489056, -15275.718602623774, 12715.974475857554, -26581.029782417987, -25309.997833966954, -557.9889485822855, -8771.271559151597, -23754.338771622035, -41146.45464974101, 0.15, 1.014, 0.176, 192.0, 0.0, 0.0, 0.0, 0.0, 0.0, 0.0, 0.0, 0.0, 0.0, 1.696032666870874E9, 0.0, 2023-09-29 19:11:06.870
198.0, -50085.27488532959, -24052.354580444644, -43812.123693480935, -27764.44289260422, -11418.321599760247, -15145.989077805172, -187500.02235174447, -10232.69566687294, -15271.874102577462, 12723.819938161367, -26524.479868946062, -25313.97644448, -554.5244281917129, -8775.518390598107, -23757.333905379048, -41152.646082955136, 0.15, 1.014, 0.176, 192.0, 0.0, 0.0, 0.0, 0.0, 0.0, 0.0, 0.0, 0.0, 0.0, 1.696032666870878E9, 0.0, 2023-09-29 19:11:06.870
200.0, -50085.87838242989, -24055.081493268193, -43801.081931720015, -27724.477973518133, -11411.012579323362, -15131.639257864865, -187500.02235174447, -10219.977524277869, -15271.382364199444, 12720.42247300416, -26587.35532609884, -25318.089165459773, -551.328128734604, -8786.403690147841, -23756.909222234397, -41155.73062368997, 0.15, 1.014, 0.176, 192.0, 0.0, 0.0, 0.0, 0.0, 0.0, 0.0, 0.0, 0.0, 0.0, 1.696032666870881E9, 0.0, 2023-09-29 19:11:06.870
202.0, -50096.137833134875, -24053.360408945133, -43815.58821387151, -27754.63047678834, -11427.843442898207, -15140.244679480158, -187500.02235174447, -10228.895870315537, -15263.894529806916, 12727.262106807484, -26529.888991104246, -25318.580903837792, -564.7168236633329, -8768.835219005969, -23760.440797858337, -41147.0134433524, 0.146, 1.01, 0.18, 192.0, 2.0, 72.0, 15.5, 72.0, 2.5, 80.0, 0.0, 0.0, 0.0, 1.696032666870884E9, 0.0, 2023-09-29 19:11:06.870
204.0, -50103.335094849484, -24092.3865547641, -43804.97113525523, -27725.282636318523, -11418.008675337873, -15129.940525286262, -187500.02235174447, -10216.40124516502, -15274.645718889918, 12712.107624066786, -26604.812038518434, -25314.11055494673, -564.5380097076904, -8784.190867446765, -23759.725542035765, -41148.645120697634, 0.146, 1.01, 0.18, 192.0, 0.0, 0.0, 0.0, 0.0, 0.0, 0.0, 0.0, 0.0, 0.0, 1.696032666870887E9, 0.0, 2023-09-29 19:11:06.870
206.0, -50098.44006281377, -24014.602484059633, -43822.45019941928, -27749.958962197183, -11442.863815172173, -15149.990040062672, -187500.02235174447, -10245.234995512366, -15273.97516655626, 12724.132862583741, -26521.998825311523, -25321.218409683515, -570.036538843696, -8779.54170460006, -23767.168672939384, -41143.0124810949, 0.146, 1.01, 0.18, 192.0, 0.0, 0.0, 0.0, 0.0, 0.0, 0.0, 0.0, 0.0, 0.0, 1.696032666870891E9, 0.0, 2023-09-29 19:11:06.870
208.0, -50088.4711847867, -24105.57408399273, -43802.758312554164, -27741.91233419327, -11419.26037302737, -15133.405045676835, -187500.02235174447, -10225.341942947143, -15284.50283819471, 12699.61299891627, -26609.349442642862, -25321.263113172427, -571.3999952554698, -8807.168460746821, -23772.622498586476, -41161.69853945953, 0.146, 1.01, 0.18, 192.0, 0.0, 0.0, 0.0, 0.0, 0.0, 0.0, 0.0, 0.0, 0.0, 1.696032666870894E9, 0.0, 2023-09-29 19:11:06.870
210.0, -50084.13494636237, -24021.03978646276, -43811.40843765836, -27751.814156986973, -11429.743341176909, -15144.402103948845, -187500.02235174447, -10233.053294784224, -15256.741971581218, 12743.33301107085, -26523.652854401214, -25328.929761520598, -571.3776435110144, -8781.352195900941, -23761.84895775902, -41139.078574070765, 0.146, 1.01, 0.18, 192.0, 0.0, 0.0, 0.0, 0.0, 0.0, 0.0, 0.0, 0.0, 0.0, 1.696032666931002E9, 0.0, 2023-09-29 19:11:06.931
212.0, -50111.31466762003, -24144.376712367146, -43809.55324286858, -27750.16012789728, -11421.227326539438, -15142.189281247769, -187500.02235174447, -10227.443006925942, -15280.613634659487, 12696.41669945916, -26619.899466025767, -25331.187287710585, -574.1492598234726, -8805.872059568414, -23765.469940360777, -41159.463365014, 0.14400000000000002, 1.006, 0.17200000000000001, 192.0, 2.0, 64.0, 15.5, 56.0, 2.5, 48.0, 0.0, 0.0, 0.0, 1.696032666931011E9, 0.0, 2023-09-29 19:11:06.931
214.0, -50104.36327509442, -24013.730766025874, -43819.34330694, -27742.87345920485, -11426.815262653263, -15146.503167927644, -187500.02235174447, -10231.332210461165, -15275.539788668131, 12713.51578396747, -26532.995883583535, -25331.142584221674, -573.8586871455535, -8787.968312259713, -23764.75468453821, -41143.88419912865, 0.14400000000000002, 1.006, 0.17200000000000001, 192.0, 0.0, 0.0, 0.0, 0.0, 0.0, 0.0, 0.0, 0.0, 0.0, 1.696032666931015E9, 0.0, 2023-09-29 19:11:06.931
216.0, -50113.54984206556, -24125.28832260231, -43817.13048423892, -27752.819985487462, -11419.327428260736, -15144.46915918221, -187500.02235174447, -10227.55476564822, -15298.450326734821, 12694.047414546898, -26612.0316519775, -25332.48368888899, -573.2775417897155, -8804.307437456542, -23765.84992001652, -41159.79864118083, 0.14400000000000002, 1.006, 0.17200000000000001, 192.0, 0.0, 0.0, 0.0, 0.0, 0.0, 0.0, 0.0, 0.0, 0.0, 1.696032666931018E9, 0.0, 2023-09-29 19:11:06.931
218.0, -50104.72090300571, -23983.824131944675, -43820.90792905187, -27733.888057933815, -11428.625753954144, -15143.642144637364, -187500.02235174447, -10237.970678564392, -15265.772076341162, 12720.243659048518, -26535.879258618268, -25334.383587167693, -581.9053151494641, -8782.760355801625, -23762.56421358159, -41145.3147107738, 0.14400000000000002, 1.006, 0.17200000000000001, 192.0, 0.0, 0.0, 0.0, 0.0, 0.0, 0.0, 0.0, 0.0, 0.0, 1.696032666931021E9, 0.0, 2023-09-29 19:11:06.931
220.0, -50104.40797858334, -24147.751825779895, -43812.30250743658, -27756.128043666846, -11421.696713172998, -15147.307830728036, -187500.02235174447, -10241.949289077436, -15298.182105801357, 12716.935600869132, -26616.25613167955, -25334.607104612245, -583.0005506277741, -8810.990609048678, -23769.068571218082, -41165.25246682793, 0.14400000000000002, 1.006, 0.17200000000000001, 192.0, 0.0, 0.0, 0.0, 0.0, 0.0, 0.0, 0.0, 0.0, 0.0, 1.696032666931024E9, 0.0, 2023-09-29 19:11:06.931
222.0, -50109.146548407865, -23981.23132958786, -43812.414266158856, -27718.01831937055, -11428.268126042858, -15151.979345319194, -187500.02235174447, -10242.373972222087, -15274.39984970091, 12746.66342099469, -26545.043473844944, -25320.927837005598, -572.9422656228859, -8784.88377152488, -23763.70415254881, -41144.13006831766, 0.138, 1.008, 0.17400000000000002, 192.0, 2.0, 40.0, 15.5, 64.0, 2.5, 56.0, 0.0, 0.0, 0.0, 1.696032666931027E9, 0.0, 2023-09-29 19:11:06.931
224.0, -50091.95805692173, -24136.307732618778, -43811.564899869554, -27754.429311088243, -11427.061131842273, -15154.14746453136, -187500.02235174447, -10241.971640821892, -15292.16948654288, 12687.587760399314, -26597.525369826006, -25322.000720739452, -578.910181392453, -8812.93521081629, -23774.522396865177, -41163.48667901596, 0.138, 1.008, 0.17400000000000002, 192.0, 0.0, 0.0, 0.0, 0.0, 0.0, 0.0, 0.0, 0.0, 0.0, 1.696032666991508E9, 0.0, 2023-09-29 19:11:06.991
226.0, -50099.04355991406, -24004.521847310287, -43815.07412374904, -27724.187400840212, -11432.291440044813, -15151.040572052072, -187500.02235174447, -10242.441027455454, -15263.805122829095, 12713.694597923113, -26558.34276179585, -25326.96280800853, -576.4738412468245, -8797.98189377569, -23769.85088227402, -41146.85698114121, 0.138, 1.008, 0.17400000000000002, 192.0, 0.0, 0.0, 0.0, 0.0, 0.0, 0.0, 0.0, 0.0, 0.0, 1.696032666991528E9, 0.0, 2023-09-29 19:11:06.991
228.0, -50082.011530639116, -24160.917003264072, -43813.800074315084, -27764.286430393033, -11433.610192967677, -15154.773313376107, -187500.02235174447, -10239.378838465076, -15276.947948568815, 12700.976455328042, -26599.179398915698, -25335.367063923724, -585.325132051126, -8834.594051193482, -23782.166693468895, -41163.08434761576, 0.138, 1.008, 0.17400000000000002, 192.0, 0.0, 0.0, 0.0, 0.0, 0.0, 0.0, 0.0, 0.0, 0.0, 1.696032666991531E9, 0.0, 2023-09-29 19:11:06.991
230.0, -50097.814213969024, -24015.831830004674, -43809.888519035405, -27716.654862958774, -11433.543137734312, -15147.151368516848, -187500.02235174447, -10236.607222152617, -15265.190930985324, 12726.189223073628, -26562.097854864343, -25328.16980220912, -584.2746000617266, -8799.926495543301, -23769.493254362733, -41136.12814380266, 0.138, 1.008, 0.17400000000000002, 192.0, 0.0, 0.0, 0.0, 0.0, 0.0, 0.0, 0.0, 0.0, 0.0, 1.696032666991534E9, 0.0, 2023-09-29 19:11:06.991
232.0, -50097.79186222456, -24168.963631267983, -43803.40651314337, -27764.420540859766, -11439.153425592593, -15152.784008119585, -187500.02235174447, -10239.624707654084, -15283.11703003848, 12715.549792712904, -26590.39516334476, -25328.125098720207, -587.1579750964612, -8822.524109187616, -23774.611803843, -41155.68592020106, 0.14, 1.006, 0.176, 192.0, 2.0, 48.0, 15.5, 56.0, 2.5, 64.0, 0.0, 0.0, 0.0, 1.696032666991538E9, 0.0, 2023-09-29 19:11:06.991
234.0, -50090.92987667679, -24035.814289547718, -43791.42597811532, -27702.796781396482, -11424.177756807538, -15139.149444001849, -187500.02235174447, -10231.287506972254, -15264.989765285227, 12714.096929323308, -26574.391314314762, -25322.87243877321, -573.1881348118943, -8817.003228307156, -23762.07247520357, -41137.51395195889, 0.14, 1.006, 0.176, 192.0, 0.0, 0.0, 0.0, 0.0, 0.0, 0.0, 0.0, 0.0, 0.0, 1.696032666991542E9, 0.0, 2023-09-29 19:11:06.991
236.0, -50087.21948709721, -24154.837328772228, -43800.724303808725, -27754.02697968805, -11431.732646433431, -15151.33114472999, -187500.02235174447, -10245.50321644583, -15271.73999211073, 12698.6965773936, -26568.468102034105, -25322.492459117468, -582.7993849276763, -8819.953658575256, -23764.732332793756, -41148.779231164364, 0.14, 1.006, 0.176, 192.0, 0.0, 0.0, 0.0, 0.0, 0.0, 0.0, 0.0, 0.0, 0.0, 1.696032666991561E9, 0.0, 2023-09-29 19:11:06.991
