%OpenBCI Raw EXG Data
%Number of channels = 16
%Sample Rate = 125 Hz
%Board = OpenBCI_GUI$BoardCytonSerialDaisy
Sample Index, EXG Channel 0, EXG Channel 1, EXG Channel 2, EXG Channel 3, EXG Channel 4, EXG Channel 5, EXG Channel 6, EXG Channel 7, EXG Channel 8, EXG Channel 9, EXG Channel 10, EXG Channel 11, EXG Channel 12, EXG Channel 13, EXG Channel 14, EXG Channel 15, Accel Channel 0, Accel Channel 1, Accel Channel 2, Other, Other, Other, Other, Other, Other, Other, Analog Channel 0, Analog Channel 1, Analog Channel 2, Timestamp, Other, Timestamp (Formatted)
0.0, -51628.59578473518, -28873.603507709922, -43440.03420353344, -28699.617528869814, -11485.84621975973, -14751.726657358011, -187500.02235174447, -10929.73481771169, 0.0, 0.0, 0.0, 0.0, 0.0, 0.0, 0.0, 0.0, 0.0, 0.0, 0.0, 192.0, 0.0, 0.0, 0.0, 0.0, 0.0, 0.0, 0.0, 0.0, 0.0, 1.696032581765638E9, 0.0, 2023-09-29 19:09:41.765
194.0, -51614.06715083923, -28953.645104604377, -43451.14302052773, -28753.35112254037, -11502.364158912202, -14775.084230313807, -187500.02235174447, -10953.137094156396, -16706.342006485702, 12085.364709539976, -26111.486686645352, -25448.04220772293, 262.6777008387686, -9464.220340755028, -23872.154816645958, -40632.856265646966, 0.158, 1.01, 0.138, 192.0, 2.0, 120.0, 15.5, 72.0, 2.0, 40.0, 0.0, 0.0, 0.0, 1.696032581765663E9, 0.0, 2023-09-29 19:09:41.765
196.0, -51639.12345637363, -28864.19342329424, -43431.8534650628, -28691.50384563254, -11476.346728366225, -14752.464264925036, -187500.02235174447, -10930.561832256537, -16700.53055292732, 12071.327814022043, -26139.672236403494, -25445.09177745483, 272.93715154375457, -9454.229110983504, -23855.234546093292, -40619.646384673884, 0.158, 1.01, 0.138, 192.0, 0.0, 0.0, 0.0, 0.0, 0.0, 0.0, 0.0, 0.0, 0.0, 1.696032581765666E9, 0.0, 2023-09-29 19:09:41.765
198.0, -51629.42279928003, -28890.166150351306, -43450.338357727334, -28744.723349180622, -11493.870496019184, -14774.570140191334, -187500.02235174447, -10947.102123153463, -16712.6451984221, 12070.143171565911, -26090.856026513105, -25452.71372231409, 261.2695409380843, -9467.081364045307, -23857.42501704991, -40622.97679459772, 0.158, 1.01, 0.138, 192.0, 0.0, 0.0, 0.0, 0.0, 0.0, 0.0, 0.0, 0.0, 0.0, 1.69603258176567E9, 0.0, 2023-09-29 19:09:41.765
200.0, -51638.92229067353, -28871.56949896449, -43439.229540733046, -28703.707898105135, -11477.330205122258, -14756.420523693625, -187500.02235174447, -10924.415102531328, -16698.653006393077, 12054.049915558091, -26154.782015655284, -25454.054826981406, 270.05377650901994, -9472.177561781116, -23850.786548946686, -40627.7377161667, 0.158, 1.01, 0.138, 192.0, 0.0, 0.0, 0.0, 0.0, 0.0, 0.0, 0.0, 0.0, 0.0, 1.696032581765673E9, 0.0, 2023-09-29 19:09:41.765
202.0, -51622.65022071007, -28892.53543526357, -43451.00891006099, -28742.577581712914, -11491.903542507118, -14764.489503441991, -187500.02235174447, -10935.21099510324, -16691.902779567576, 12056.24038651471, -26094.87934051506, -25456.871146782774, 263.728232828168, -9476.15617229416, -23859.81665370663, -40622.865035875446, 0.158, 1.01, 0.138, 192.0, 0.0, 0.0, 0.0, 0.0, 0.0, 0.0, 0.0, 0.0, 0.0, 1.696032581765676E9, 0.0, 2023-09-29 19:09:41.765
204.0, -51628.70754345746, -28913.23315062918, -43433.93217729714, -28697.024726513, -11475.050327187817, -14748.932689301097, -187500.02235174447, -10917.307247794539, -16685.39842193108, 12064.622290685451, -26158.045370345757, -25441.470794853067, 275.82052657848914, -9469.54005593539, -23854.787511204187, -40619.087591062496, 0.156, 1.012, 0.138, 192.0, 2.0, 112.0, 15.5, 80.0, 2.0, 40.0, 0.0, 0.0, 0.0, 1.696032581765679E9, 0.0, 2023-09-29 19:09:41.765
206.0, -51621.17500557602, -28882.90183340333, -43452.39471821722, -28731.289950762985, -11493.691682063543, -14766.523512187423, -187500.02235174447, -10932.595841001968, -16689.91347431105, 12076.334604780031, -26082.362363620086, -25449.78564379044, 271.2384189651512, -9451.882177815698, -23862.610621763542, -40611.17507352532, 0.156, 1.012, 0.138, 192.0, 0.0, 0.0, 0.0, 0.0, 0.0, 0.0, 0.0, 0.0, 0.0, 1.696032581765682E9, 0.0, 2023-09-29 19:09:41.765
208.0, -51622.62786896561, -28933.036796216584, -43435.675613364656, -28708.379412696293, -11482.091126691239, -14757.404000449658, -187500.02235174447, -10925.465634520726, -16697.35660521467, 12062.610633684473, -26161.152262825046, -25452.423149636168, 274.47942191117073, -9467.036660556396, -23861.805958963152, -40625.74841091018, 0.156, 1.012, 0.138, 192.0, 0.0, 0.0, 0.0, 0.0, 0.0, 0.0, 0.0, 0.0, 0.0, 1.696032581765685E9, 0.0, 2023-09-29 19:09:41.765
0.0, -25784.81594143104, -14170.737763731215, -21735.77508160771, -14335.380713389006, -5765.654833990912, -7401.623714163747, -93750.01117587223, -5447.477751669616, -8347.75070521244, 6033.182863376483, -13044.768636795121, -12722.031798604941, 132.74701032006865, -4727.46100753081, -11932.367018743398, -20313.62298889434, 0.156, 1.012, 0.14200000000000002, 192.0, 2.0, 112.0, 15.5, 80.0, 2.0, 72.0, 0.0, 0.0, 0.0, 1.696032581934141E9, 0.0, 2023-09-29 19:09:41.934
2.0, -51563.99924325934, -28213.40003173352, -43485.81057617791, -28671.00729596702, -11540.295069252858, -14802.778041693931, -187500.02235174447, -10897.615360929414, -16613.112880362616, 12587.094317328254, -26189.695440494474, -25647.7550444311, 306.3530095044386, -9365.693851196034, -23814.777888629185, -40782.50119477525, 0.156, 1.012, 0.14200000000000002, 192.0, 0.0, 0.0, 0.0, 0.0, 0.0, 0.0, 0.0, 0.0, 0.0, 1.696032581934153E9, 0.0, 2023-09-29 19:09:41.934
4.0, -51556.44435363345, -28377.551243013295, -43484.380064532765, -28700.15397073674, -11537.90343259614, -14802.331006804825, -187500.02235174447, -10890.932189337276, -16637.543337052266, 12571.783372376369, -26270.72051414496, -25647.531526986546, 309.5493089615475, -9377.204999590516, -23823.293903266658, -40797.2309943713, 0.156, 1.012, 0.14200000000000002, 192.0, 0.0, 0.0, 0.0, 0.0, 0.0, 0.0, 0.0, 0.0, 0.0, 1.696032581934158E9, 0.0, 2023-09-29 19:09:41.934
6.0, -51563.75337407034, -28215.411688734497, -43485.788224433454, -28670.828482011377, -11536.070589550805, -14804.812050439365, -187500.02235174447, -10891.11100329292, -16614.632798985578, 12607.97084664951, -26201.988899944892, -25648.22443106466, 305.3918844928604, -9364.263339550895, -23817.86242936402, -40775.86272667202, 0.156, 1.012, 0.14200000000000002, 192.0, 0.0, 0.0, 0.0, 0.0, 0.0, 0.0, 0.0, 0.0, 0.0, 1.696032581934162E9, 0.0, 2023-09-29 19:09:41.934
8.0, -51555.03619373276, -28382.15570237109, -43481.943724387136, -28706.7253836066, -11529.320362725302, -14802.331006804825, -187500.02235174447, -10886.663006146313, -16631.463662560425, 12558.931119314566, -26261.53394717383, -25651.08545435494, 301.4803292131817, -9384.938703172053, -23821.46106022132, -40795.196985625866, 0.158, 1.002, 0.158, 192.0, 2.0, 120.0, 15.5, 40.0, 2.0, 120.0, 0.0, 0.0, 0.0, 1.696032581934167E9, 0.0, 2023-09-29 19:09:41.934
10.0, -51565.765031071314, -28219.211485291897, -43480.7143784421, -28663.7653307635, -11528.627458647188, -14797.63714046921, -187500.02235174447, -10888.473497447194, -16604.641569214054, 12617.8279659543, -26204.80521974626, -25637.160317559283, 313.5502712190475, -9371.818229176788, -23801.925635567386, -40773.15816559293, 0.158, 1.002, 0.158, 192.0, 0.0, 0.0, 0.0, 0.0, 0.0, 0.0, 0.0, 0.0, 0.0, 1.696032581934171E9, 0.0, 2023-09-29 19:09:41.934
12.0, -51552.30928090922, -28358.66401894856, -43484.35771278831, -28710.324014463906, -11534.19304301656, -14813.328065076837, -187500.02235174447, -10902.219820287208, -16630.033150915286, 12565.8154566068, -26235.896496283593, -25641.429500750244, 307.984686849676, -9393.7676422319, -23813.213266517316, -40792.112444891034, 0.158, 1.002, 0.158, 192.0, 0.0, 0.0, 0.0, 0.0, 0.0, 0.0, 0.0, 0.0, 0.0, 1.696032581934174E9, 0.0, 2023-09-29 19:09:41.934
14.0, -51552.57750184268, -28209.48847645384, -43475.32760802837, -28652.276534113473, -11526.146415012649, -14798.419451525147, -187500.02235174447, -10887.95940732472, -16616.10801411963, 12590.625892952192, -26206.302786624765, -25635.08160532494, 316.56775672051396, -9356.775505158366, -23804.965472813306, -40776.60033423905, 0.158, 1.002, 0.158, 192.0, 0.0, 0.0, 0.0, 0.0, 0.0, 0.0, 0.0, 0.0, 0.0, 1.696032581934179E9, 0.0, 2023-09-29 19:09:41.934
16.0, -51546.14019943956, -28330.94785582398, -43480.9155441422, -28701.472723659605, -11528.292182480358, -14808.857716185776, -187500.02235174447, -10887.132392779875, -16618.7231682209, 12585.663805683114, -26217.14338268559, -25641.183631561238, 313.05853284103074, -9369.560702986802, -23811.939217083363, -40789.92197393441, 0.158, 1.002, 0.158, 192.0, 0.0, 0.0, 0.0, 0.0, 0.0, 0.0, 0.0, 0.0, 0.0, 1.696032581994411E9, 0.0, 2023-09-29 19:09:41.994
18.0, -51552.48809486486, -28228.375700518573, -43473.494764983036, -28647.00152242202, -11513.13769973966, -14790.596340965789, -187500.02235174447, -10865.026517513576, -16613.38110129608, 12606.45092802655, -26216.09285069619, -25635.573343702956, 335.34322206297185, -9343.051534062808, -23800.38336519997, -40777.360293550526, 0.16, 1.0, 0.168, 192.0, 2.5, 0.0, 15.5, 32.0, 2.5, 32.0, 0.0, 0.0, 0.0, 1.696032581994421E9, 0.0, 2023-09-29 19:09:41.994
20.0, -51559.73006006838, -28325.203457498963, -43499.914526929206, -28697.00237476854, -11532.963697071516, -14810.198820853093, -187500.02235174447, -10878.884599075867, -16633.20709862794, 12592.771660419901, -26213.120068683635, -25637.49559372611, 332.951585406254, -9336.100141537207, -23810.732222882776, -40786.792729710665, 0.16, 1.0, 0.168, 192.0, 0.0, 0.0, 0.0, 0.0, 0.0, 0.0, 0.0, 0.0, 0.0, 1.696032581994425E9, 0.0, 2023-09-29 19:09:41.994
22.0, -51567.03908050527, -28197.843217592625, -43504.42957930918, -28658.57972604987, -11523.195984744547, -14799.06765211435, -187500.02235174447, -10861.204369211719, -16625.316932835216, 12589.754174918435, -26224.675920567028, -25646.32453278596, 340.7746959656115, -9321.504452407891, -23814.95670258483, -40789.676104745406, 0.16, 1.0, 0.168, 192.0, 0.0, 0.0, 0.0, 0.0, 0.0, 0.0, 0.0, 0.0, 0.0, 1.696032581994429E9, 0.0, 2023-09-29 19:09:41.994
24.0, -51557.9195687675, -28282.668087800514, -43517.84062598236, -28717.074241289407, -11527.688685380064, -14802.487469016012, -187500.02235174447, -10863.10426749042, -16629.04967415925, 12596.839677910768, -26205.98986220239, -25647.062140352984, 343.61336751143546, -9313.055493003785, -23820.27641776519, -40803.288317118684, 0.16, 1.0, 0.168, 192.0, 0.0, 0.0, 0.0, 0.0, 0.0, 0.0, 0.0, 0.0, 0.0, 1.696032581994432E9, 0.0, 2023-09-29 19:09:41.994
26.0, -51561.294682180254, -28236.57879073367, -43513.3702770913, -28674.494168102046, -11507.438004903557, -14783.197913551083, -187500.02235174447, -10849.648517328325, -16617.09149087566, 12601.086509357276, -26244.121938243145, -25643.284695540035, 350.14007689238514, -9303.041911487808, -23818.018891575204, -40804.80823574165, 0.16, 1.0, 0.168, 192.0, 0.0, 0.0, 0.0, 0.0, 0.0, 0.0, 0.0, 0.0, 0.0, 1.69603258199444E9, 0.0, 2023-09-29 19:09:41.994
28.0, -51554.075068721184, -28280.008230210333, -43534.13504769028, -28724.33855823738, -11520.983162043472, -14792.228018311027, -187500.02235174447, -10860.667927344792, -16621.271267088803, 12608.753157705445, -26191.148303884067, -25646.391588019324, 338.8971494313657, -9298.437452130014, -23823.785641644674, -40809.725619521814, 0.166, 1.01, 0.17, 192.0, 2.5, 24.0, 15.5, 72.0, 2.5, 40.0, 0.0, 0.0, 0.0, 1.696032581994444E9, 0.0, 2023-09-29 19:09:41.994
30.0, -51566.52499038279, -28263.713808502416, -43526.8707307423, -28687.078200230386, -11506.633342103165, -14767.596395921279, -187500.02235174447, -10841.512482346592, -16616.599752497645, 12610.094262372764, -26254.38138894813, -25650.12432934336, 336.7066784747456, -9303.757167310378, -23825.909057367928, -40810.30676487765, 0.166, 1.01, 0.17, 192.0, 0.0, 0.0, 0.0, 0.0, 0.0, 0.0, 0.0, 0.0, 0.0, 1.696032582054826E9, 0.0, 2023-09-29 19:09:42.054
32.0, -51572.06822300771, -28228.509810985306, -43542.80752453894, -28728.764203639534, -11521.810176588318, -14783.510837973457, -187500.02235174447, -10857.605738354414, -16622.23239210038, 12595.431518010082, -26184.331021825197, -25654.661733467787, 335.4326290407931, -9289.966140981453, -23833.28513303818, -40802.528357807205, 0.166, 1.01, 0.17, 192.0, 0.0, 0.0, 0.0, 0.0, 0.0, 0.0, 0.0, 0.0, 0.0, 1.696032582054839E9, 0.0, 2023-09-29 19:09:42.054
34.0, -51566.07795549369, -28261.277468356788, -43526.51310283102, -28703.73024984959, -11505.94043802505, -14762.477846441014, -187500.02235174447, -10841.691296302235, -16620.064272888216, 12581.148753303141, -26267.568918176763, -25653.54414624502, 337.6678034863238, -9295.799946284289, -23833.79922316065, -40810.709096277846, 0.166, 1.01, 0.17, 192.0, 0.0, 0.0, 0.0, 0.0, 0.0, 0.0, 0.0, 0.0, 0.0, 1.696032582054842E9, 0.0, 2023-09-29 19:09:42.054
36.0, -51562.30051068074, -28205.040479307234, -43540.86292277133, -28731.53581995199, -11522.257211477425, -14771.485599456502, -187500.02235174447, -10847.748619049624, -16613.20228734044, 12612.508250773937, -26184.17455961401, -25649.319666542968, 333.823303440011, -9282.12067867764, -23831.58640045958, -40794.30291584765, 0.166, 1.01, 0.17, 192.0, 0.0, 0.0, 0.0, 0.0, 0.0, 0.0, 0.0, 0.0, 0.0, 1.696032582054845E9, 0.0, 2023-09-29 19:09:42.054
38.0, -51563.37339441459, -28244.2677908263, -43537.89014075877, -28717.40951745624, -11508.779109570874, -14762.58960516329, -187500.02235174447, -10838.271479400573, -16622.90294443404, 12586.759041161424, -26264.551432675296, -25652.69477995572, 322.1333410898854, -9300.60557134218, -23834.559182472134, -40809.256232888256, 0.164, 1.002, 0.17, 192.0, 2.5, 16.0, 15.5, 40.0, 2.5, 40.0, 0.0, 0.0, 0.0, 1.696032582054848E9, 0.0, 2023-09-29 19:09:42.054
40.0, -51565.58621711567, -28163.80151078719, -43544.036870483986, -28736.654369432257, -11522.167804499604, -14768.579872677312, -187500.02235174447, -10850.520235362083, -16613.068176873705, 12619.146718877164, -26176.41850428802, -25649.520832243066, 315.6513351978463, -9285.629902557124, -23834.648589449953, -40799.734389750294, 0.164, 1.002, 0.17, 192.0, 0.0, 0.0, 0.0, 0.0, 0.0, 0.0, 0.0, 0.0, 0.0, 1.696032582054851E9, 0.0, 2023-09-29 19:09:42.054
42.0, -51564.982720015374, -28266.306610859232, -43529.262367399024, -28732.184020541197, -11513.718845095498, -14760.44383769558, -187500.02235174447, -10848.821502783478, -16623.506441534333, 12589.374195262695, -26264.77495011985, -25647.084492097438, 320.434608511282, -9294.972931739441, -23832.592228960068, -40811.91609047844, 0.164, 1.002, 0.17, 192.0, 0.0, 0.0, 0.0, 0.0, 0.0, 0.0, 0.0, 0.0, 0.0, 1.696032582054855E9, 0.0, 2023-09-29 19:09:42.054
44.0, -51562.904007781035, -28176.787874315727, -43529.70940228813, -28736.274389776518, -11516.289295707858, -14766.076477298318, -187500.02235174447, -10854.320031919484, -16604.99919712534, 12612.910582174132, -26180.75474271235, -25638.344960015413, 325.10612310244125, -9275.348100107682, -23824.635007933975, -40794.0793984031, 0.164, 1.002, 0.17, 192.0, 0.0, 0.0, 0.0, 0.0, 0.0, 0.0, 0.0, 0.0, 0.0, 1.696032582054858E9, 0.0, 2023-09-29 19:09:42.054
46.0, -51560.937054268965, -28308.7302218354, -43520.34402136136, -28744.723349180622, -11505.828679302775, -14768.937500588598, -187500.02235174447, -10846.653383571314, -16626.836851458174, 12581.372270747695, -26267.077179798747, -25647.620933964365, 321.8427684119664, -9306.17115571155, -23826.646664934953, -40811.826683500614, 0.164, 1.002, 0.17, 192.0, 0.0, 0.0, 0.0, 0.0, 0.0, 0.0, 0.0, 0.0, 0.0, 1.696032582114967E9, 0.0, 2023-09-29 19:09:42.114
48.0, -51572.91758929701, -28154.302019393686, -43527.54128307597, -28724.897351848766, -11512.936534039562, -14768.311651743848, -187500.02235174447, -10845.736962048646, -16602.406394768524, 12606.585038493282, -26182.475827035407, -25647.196250819714, 319.27231779960607, -9287.954483980475, -23816.3201589966, -40788.133834377986, 0.16, 1.0, 0.17400000000000002, 192.0, 2.5, 0.0, 15.5, 32.0, 2.5, 56.0, 0.0, 0.0, 0.0, 1.696032582114977E9, 0.0, 2023-09-29 19:09:42.114
50.0, -51576.00213003184, -28281.59520406666, -43527.720097031604, -28744.857459647355, -11510.097862493738, -14765.271814497926, -187500.02235174447, -10848.553281850014, -16633.184746883482, 12579.986462591465, -26256.907136071582, -25654.952306145708, 313.8855473858771, -9316.944696539009, -23823.38331024448, -40808.049238687665, 0.16, 1.0, 0.17400000000000002, 192.0, 0.0, 0.0, 0.0, 0.0, 0.0, 0.0, 0.0, 0.0, 0.0, 1.696032582114981E9, 0.0, 2023-09-29 19:09:42.114
52.0, -51571.19650497395, -28136.800603485182, -43532.57042557841, -28716.426040700204, -11516.445757919046, -14763.506026685958, -187500.02235174447, -10851.436656884749, -16604.507458747325, 12638.458626086549, -26190.477751550407, -25647.73269268664, 309.0575705835308, -9282.165382166551, -23819.85173462054, -40785.943363421364, 0.16, 1.0, 0.17400000000000002, 192.0, 0.0, 0.0, 0.0, 0.0, 0.0, 0.0, 0.0, 0.0, 0.0, 1.696032582114984E9, 0.0, 2023-09-29 19:09:42.114
54.0, -51561.47349613589, -28307.389117168084, -43521.70747777313, -28750.758320183555, -11515.439929418557, -14770.613881422745, -187500.02235174447, -10850.319069661984, -16622.344150822657, 12588.033090595376, -26260.416359951065, -25648.202079320203, 309.5493089615475, -9308.607495857179, -23829.932371369883, -40806.439913086884, 0.16, 1.0, 0.17400000000000002, 192.0, 0.0, 0.0, 0.0, 0.0, 0.0, 0.0, 0.0, 0.0, 0.0, 1.696032582114988E9, 0.0, 2023-09-29 19:09:42.114
56.0, -51574.862191064625, -28134.23015287282, -43523.607376051834, -28710.480476675093, -11520.51377540991, -14776.850018125775, -187500.02235174447, -10856.868130787389, -16586.76017364981, 12611.927105418099, -26202.70415576746, -25649.61023922089, 324.1002946019524, -9286.948655479986, -23820.969321843306, -40786.88213668849, 0.16, 1.0, 0.17400000000000002, 192.0, 0.0, 0.0, 0.0, 0.0, 0.0, 0.0, 0.0, 0.0, 0.0, 1.696032582114995E9, 0.0, 2023-09-29 19:09:42.114
58.0, -51578.23730447737, -28286.065552957723, -43518.935861460675, -28758.64848597628, -11519.575002142788, -14786.237750797005, -187500.02235174447, -10859.527988377571, -16631.620124771613, 12561.546273415837, -26248.43582492302, -25660.763759704085, 313.68438168577933, -9324.298420464806, -23836.369673773013, -40819.381573126506, 0.156, 0.998, 0.178, 192.0, 2.0, 112.0, 15.5, 24.0, 2.5, 72.0, 0.0, 0.0, 0.0, 1.696032582114999E9, 0.0, 2023-09-29 19:09:42.114
60.0, -51577.25382772134, -28138.678150019427, -43513.34792534685, -28712.58154065389, -11513.584734628766, -14773.25138726847, -187500.02235174447, -10847.346287649429, -16610.47537451689, 12602.069986113309, -26213.343586128187, -25656.98631489114, 315.8748526423994, -9302.84074578771, -23828.7253771693, -40797.499215304764, 0.156, 0.998, 0.178, 192.0, 0.0, 0.0, 0.0, 0.0, 0.0, 0.0, 0.0, 0.0, 0.0, 1.696032582175385E9, 0.0, 2023-09-29 19:09:42.175
62.0, -51566.614397360616, -28292.30168966075, -43521.48396032858, -28753.753453940568, -11525.22999348998, -14791.758631677465, -187500.02235174447, -10863.8642268019, -16625.473395046403, 12588.30131152884, -26242.110281242167, -25653.812367178485, 315.2713555421061, -9314.7989290713, -23836.190859817372, -40813.07838119011, 0.156, 0.998, 0.178, 192.0, 0.0, 0.0, 0.0, 0.0, 0.0, 0.0, 0.0, 0.0, 0.0, 1.696032582175399E9, 0.0, 2023-09-29 19:09:42.175
64.0, -51563.798077559244, -28151.373940870042, -43513.72790500258, -28695.124828234297, -11519.239725975958, -14777.677032670623, -187500.02235174447, -10853.202444696719, -16607.48024075988, 12599.63364596768, -26223.804202533272, -25650.146681087816, 306.46476822671514, -9300.449109130992, -23828.457156235836, -40799.801444983656, 0.156, 0.998, 0.178, 192.0, 0.0, 0.0, 0.0, 0.0, 0.0, 0.0, 0.0, 0.0, 0.0, 1.696032582175402E9, 0.0, 2023-09-29 19:09:42.175
66.0, -51552.264577420305, -28287.205491924942, -43521.41690509521, -28748.724311438124, -11524.715903367509, -14790.842210154799, -187500.02235174447, -10862.724287834679, -16621.114804877616, 12595.20800056553, -26227.089908968203, -25653.432387522746, 308.09644557195253, -9318.665780862068, -23829.194763802858, -40811.51375907824, 0.156, 0.998, 0.178, 192.0, 0.0, 0.0, 0.0, 0.0, 0.0, 0.0, 0.0, 0.0, 0.0, 1.696032582175405E9, 0.0, 2023-09-29 19:09:42.175
68.0, -51568.51429563932, -28171.311696924175, -43517.08066667088, -28691.23562469907, -11521.810176588318, -14785.343681018792, -187500.02235174447, -10860.10913373341, -16604.596865725143, 12599.11955584521, -26233.281342182323, -25648.78322467604, 315.2713555421061, -9310.46269064697, -23819.896438109452, -40802.21543338483, 0.156, 1.002, 0.176, 192.0, 2.0, 112.0, 15.5, 40.0, 2.5, 64.0, 0.0, 0.0, 0.0, 1.696032582175409E9, 0.0, 2023-09-29 19:09:42.175
70.0, -51572.06822300771, -28257.008285165823, -43530.91639648872, -28745.773881170022, -11541.412656475622, -14808.723605719044, -187500.02235174447, -10882.304415977529, -16621.62889500009, 12584.054480082332, -26212.784792516806, -25656.293410813025, 293.88073609837727, -9318.375208184149, -23836.503784239743, -40816.40879111395, 0.156, 1.002, 0.176, 192.0, 0.0, 0.0, 0.0, 0.0, 0.0, 0.0, 0.0, 0.0, 0.0, 1.696032582175412E9, 0.0, 2023-09-29 19:09:42.175
72.0, -51565.54151362676, -28173.569223114162, -43512.632669524275, -28689.939223520665, -11522.950115555539, -14785.634253696711, -187500.02235174447, -10862.545473879038, -16616.10801411963, 12595.163297076619, -26243.38433067612, -25649.923163643263, 298.7310646451789, -9316.832937816733, -23834.827403405598, -40810.910261977944, 0.156, 1.002, 0.176, 192.0, 0.0, 0.0, 0.0, 0.0, 0.0, 0.0, 0.0, 0.0, 0.0, 1.696032582175415E9, 0.0, 2023-09-29 19:09:42.175
74.0, -51554.34328965465, -28248.671084483994, -43509.23520436707, -28736.31909326543, -11525.811138845818, -14799.648797470189, -187500.02235174447, -10871.374412938883, -16618.119671120607, 12595.364462776717, -26210.817839004736, -25647.106843841895, 304.31900075900563, -9321.191527985517, -23832.14519407096, -40804.003572941256, 0.156, 1.002, 0.176, 192.0, 0.0, 0.0, 0.0, 0.0, 0.0, 0.0, 0.0, 0.0, 0.0, 1.696032582175418E9, 0.0, 2023-09-29 19:09:42.175
76.0, -51556.73492631137, -28207.163895030488, -43491.48791926955, -28684.999487996043, -11505.292237435848, -14790.708099688067, -187500.02235174447, -10859.773857566579, -16602.831077913175, 12581.595788192248, -26260.818691351258, -25641.36244551688, 313.9078991303324, -9320.006885529387, -23817.460097963824, -40798.77326473872, 0.156, 1.002, 0.176, 192.0, 0.0, 0.0, 0.0, 0.0, 0.0, 0.0, 0.0, 0.0, 0.0, 1.696032582234842E9, 0.0, 2023-09-29 19:09:42.234
78.0, -51562.45697289193, -28226.29698828423, -43507.80469272193, -28725.903180349254, -11522.681894622076, -14804.163849850162, -187500.02235174447, -10869.385107682361, -16617.024435642295, 12587.809573150824, -26198.747896998873, -25646.97273337516, 310.89041362886593, -9319.93983029602, -23820.23171427628, -40797.141587393475, 0.156, 1.006, 0.17, 192.0, 2.0, 112.0, 15.5, 56.0, 2.5, 40.0, 0.0, 0.0, 0.0, 1.696032582234852E9, 0.0, 2023-09-29 19:09:42.234
80.0, -51565.47445839339, -28218.317415513688, -43494.259535582016, -28685.223005440595, -11504.219353701992, -14792.853867155776, -187500.02235174447, -10859.05860174401, -16610.3189123057, 12582.959244604022, -26260.95280181799, -25648.73852118713, 311.7397799181676, -9326.041856532318, -23815.00140607374, -40799.55557579465, 0.156, 1.006, 0.17, 192.0, 0.0, 0.0, 0.0, 0.0, 0.0, 0.0, 0.0, 0.0, 0.0, 1.696032582234856E9, 0.0, 2023-09-29 19:09:42.234
82.0, -51559.171266457, -28206.560397930196, -43509.39166657825, -28720.06937504642, -11521.94428705505, -14806.019044639952, -187500.02235174447, -10873.29666296204, -16603.054595357728, 12601.578247735293, -26188.37668757161, -25646.391588019324, 319.048800355053, -9313.211955214972, -23814.129688039982, -40797.32040134912, 0.156, 1.006, 0.17, 192.0, 0.0, 0.0, 0.0, 0.0, 0.0, 0.0, 0.0, 0.0, 0.0, 1.696032582234859E9, 0.0, 2023-09-29 19:09:42.234
84.0, -51573.9234177975, -28232.82369766518, -43501.5685560189, -28691.459142143627, -11506.5662868698, -14791.333948532814, -187500.02235174447, -10858.946843021733, -16610.14009835006, 12571.515151442904, -26265.57961292024, -25647.576230475453, 317.59593696545807, -9332.970897313464, -23815.671958407398, -40809.01036369924, 0.156, 1.006, 0.17, 192.0, 0.0, 0.0, 0.0, 0.0, 0.0, 0.0, 0.0, 0.0, 0.0, 1.696032582234862E9, 0.0, 2023-09-29 19:09:42.234
86.0, -51563.55220837024, -28170.842310290613, -43521.12633241729, -28717.096593033864, -11522.011342288417, -14802.845096927298, -187500.02235174447, -10870.68150886077, -16606.787336681766, 12586.669634183603, -26181.00061190136, -25651.331323543945, 305.6377536818688, -9316.251792460895, -23821.32694975459, -40802.237785129284, 0.156, 1.006, 0.17, 192.0, 0.0, 0.0, 0.0, 0.0, 0.0, 0.0, 0.0, 0.0, 0.0, 1.696032582234866E9, 0.0, 2023-09-29 19:09:42.234
88.0, -51555.68439432197, -28271.73808476187, -43505.59187002086, -28705.563092894925, -11506.298065936335, -14791.825686910832, -187500.02235174447, -10857.471627887682, -16615.929200163984, 12577.527770701381, -26277.381333992642, -25640.580134460943, 321.887471900877, -9328.36643795567, -23821.058728821128, -40808.809197999144, 0.156, 1.004, 0.17400000000000002, 192.0, 2.0, 112.0, 15.5, 48.0, 2.5, 56.0, 0.0, 0.0, 0.0, 1.69603258223487E9, 0.0, 2023-09-29 19:09:42.234
90.0, -51561.920531024996, -28166.52842361074, -43520.746352761555, -28716.649558144756, -11523.33009521128, -14809.036530141419, -187500.02235174447, -10876.24709323014, -16606.09443260365, 12602.964055891522, -26183.526359024807, -25641.071872838962, 315.40546600883795, -9300.739681808911, -23823.495068966757, -40793.20768036934, 0.156, 1.004, 0.17400000000000002, 192.0, 0.0, 0.0, 0.0, 0.0, 0.0, 0.0, 0.0, 0.0, 0.0, 1.696032582294584E9, 0.0, 2023-09-29 19:09:42.294
92.0, -51558.992452501356, -28283.338640134174, -43501.769721719, -28722.55041868096, -11508.108557237216, -14801.347530048792, -187500.02235174447, -10869.049831515531, -16620.466604288413, 12576.276073011884, -26269.78174087784, -25644.08935834043, 317.7076956877346, -9331.89801357961, -23833.01691210472, -40821.125009194024, 0.156, 1.004, 0.17400000000000002, 192.0, 0.0, 0.0, 0.0, 0.0, 0.0, 0.0, 0.0, 0.0, 0.0, 1.696032582294596E9, 0.0, 2023-09-29 19:09:42.294
94.0, -51559.39478390155, -28159.554679340683, -43508.229375866584, -28712.15685750924, -11517.161013741616, -14804.901457417185, -187500.02235174447, -10874.749526351634, -16595.611464454112, 12609.78133795039, -26179.592452000674, -25642.323570528457, 319.89816664435466, -9302.907801021076, -23819.695272409353, -40799.3320583501, 0.156, 1.004, 0.17400000000000002, 192.0, 0.0, 0.0, 0.0, 0.0, 0.0, 0.0, 0.0, 0.0, 0.0, 1.6960325822946E9, 0.0, 2023-09-29 19:09:42.294
96.0, -51568.268426450304, -28267.69241901546, -43507.44706481064, -28721.790459369477, -11510.343731682746, -14802.956855649574, -187500.02235174447, -10874.078974017975, -16620.66776998851, 12562.82032284979, -26258.829386094738, -25645.206945563194, 312.5891462074693, -9330.266336234372, -23823.226848033293, -40814.95592772435, 0.156, 1.004, 0.17400000000000002, 192.0, 0.0, 0.0, 0.0, 0.0, 0.0, 0.0, 0.0, 0.0, 0.0, 1.696032582294603E9, 0.0, 2023-09-29 19:09:42.294
98.0, -51551.862246020115, -28113.241864829288, -43511.11275090132, -28701.78564808198, -11512.265981705903, -14793.971454378541, -187500.02235174447, -10861.137313978352, -16599.791240667255, 12599.410128523128, -26180.03948688978, -25641.83183215044, 307.89527987185477, -9308.696902835001, -23820.566990443112, -40792.26890710222, 0.158, 1.006, 0.178, 192.0, 2.0, 120.0, 15.5, 56.0, 2.5, 72.0, 0.0, 0.0, 0.0, 1.696032582294606E9, 0.0, 2023-09-29 19:09:42.294
100.0, -51551.88459776457, -28279.672954043504, -43508.25172761104, -28725.187924526683, -11510.366083427201, -14797.167753835649, -187500.02235174447, -10857.851607543422, -16623.23822060087, 12579.874703869189, -26262.271554740855, -25630.2983320115, 318.0206201101089, -9320.833900074233, -23820.65639742093, -40806.64107878698, 0.158, 1.006, 0.178, 192.0, 0.0, 0.0, 0.0, 0.0, 0.0, 0.0, 0.0, 0.0, 0.0, 1.69603258229461E9, 0.0, 2023-09-29 19:09:42.294
102.0, -51554.27623442128, -28136.95706569637, -43501.70266648563, -28692.86730204431, -11509.13673748216, -14793.055032855873, -187500.02235174447, -10860.980851767166, -16595.09737433164, 12616.218640353518, -26189.538978283286, -25627.5490674435, 313.9302508747877, -9302.50546962088, -23812.565065928113, -40790.61487801253, 0.158, 1.006, 0.178, 192.0, 0.0, 0.0, 0.0, 0.0, 0.0, 0.0, 0.0, 0.0, 0.0, 1.696032582294613E9, 0.0, 2023-09-29 19:09:42.294
104.0, -51553.739792554356, -28288.59130008117, -43508.74346598905, -28729.8817908623, -11516.266943963403, -14805.035567883919, -187500.02235174447, -10872.670814117291, -16610.94476115045, 12578.891227113156, -26240.38919691911, -25626.11855579836, 311.4715589847039, -9324.566641398269, -23819.874086365, -40808.74214276578, 0.158, 1.006, 0.178, 192.0, 0.0, 0.0, 0.0, 0.0, 0.0, 0.0, 0.0, 0.0, 0.0, 1.696032582294616E9, 0.0, 2023-09-29 19:09:42.294
106.0, -51550.58819658616, -28131.302074349176, -43510.397495078745, -28699.885749803278, -11520.267906220903, -14802.845096927298, -187500.02235174447, -10869.921549549288, -16586.626063183077, 12595.58798022127, -26192.109428895645, -25635.26041928058, 305.23542228167327, -9316.899993050098, -23824.255028278236, -40799.175596138906, 0.158, 1.006, 0.178, 192.0, 0.0, 0.0, 0.0, 0.0, 0.0, 0.0, 0.0, 0.0, 0.0, 1.696032582354798E9, 0.0, 2023-09-29 19:09:42.354
108.0, -51543.56974882719, -28285.037372712777, -43503.44610255314, -28741.527049723514, -11520.692589365553, -14812.612809254268, -187500.02235174447, -10873.207255984218, -16610.609484983623, 12582.15458180363, -26241.305618441776, -25632.287637268026, 303.2237652806956, -9338.75999912739, -23826.4231474904, -40817.347564381074, 0.164, 1.004, 0.176, 192.0, 2.5, 16.0, 15.5, 48.0, 2.5, 64.0, 0.0, 0.0, 0.0, 1.696032582354818E9, 0.0, 2023-09-29 19:09:42.354
110.0, -51564.04394674826, -28110.760821194748, -43494.93008791567, -28686.050019985443, -11513.450624162035, -14803.336835305314, -187500.02235174447, -10865.741773336145, -16601.869952901598, 12602.11468960222, -26203.106487167657, -25637.83086989294, 312.34327701846087, -9318.41991167306, -23813.928522339884, -40795.398151325964, 0.164, 1.004, 0.176, 192.0, 0.0, 0.0, 0.0, 0.0, 0.0, 0.0, 0.0, 0.0, 0.0, 1.696032582354822E9, 0.0, 2023-09-29 19:09:42.354
112.0, -51554.7679727993, -28263.579698035683, -43498.19344260615, -28728.987721084086, -11518.837394575763, -14806.086099873317, -187500.02235174447, -10865.227683213674, -16612.263514073315, 12583.58509344877, -26229.05686248027, -25631.147698300803, 314.73491367517875, -9324.32077220926, -23814.08498455107, -40805.56819505313, 0.164, 1.004, 0.176, 192.0, 0.0, 0.0, 0.0, 0.0, 0.0, 0.0, 0.0, 0.0, 0.0, 1.696032582354825E9, 0.0, 2023-09-29 19:09:42.354
114.0, -51569.765993328816, -28129.9386179374, -43499.95923041811, -28678.517482104002, -11509.986103771462, -14793.278550300427, -187500.02235174447, -10859.349174421928, -16601.691138945956, 12596.72791918849, -26216.1375541851, -25636.668579181263, 306.7329891601788, -9313.949562781998, -23807.222999003294, -40788.02207565571, 0.164, 1.004, 0.176, 192.0, 0.0, 0.0, 0.0, 0.0, 0.0, 0.0, 0.0, 0.0, 0.0, 1.696032582354828E9, 0.0, 2023-09-29 19:09:42.354
116.0, -51556.53376061127, -28249.006360650823, -43526.58015806439, -28745.192735814184, -11538.059894807328, -14823.587515781823, -187500.02235174447, -10887.601779413437, -16608.86604891611, 12572.945663088043, -26223.401871133075, -25647.911506642286, 301.77090189110066, -9334.334353725239, -23822.802164888642, -40808.27275613222, 0.164, 1.004, 0.176, 192.0, 0.0, 0.0, 0.0, 0.0, 0.0, 0.0, 0.0, 0.0, 0.0, 1.696032582354831E9, 0.0, 2023-09-29 19:09:42.354
118.0, -51556.62316758909, -28147.75295826828, -43506.01655316551, -28685.625336840792, -11518.65858062012, -14797.726547447033, -187500.02235174447, -10869.049831515531, -16599.05363310023, 12589.150677818141, -26237.461118395462, -25643.530564729044, 293.2325355091734, -9338.961164827486, -23832.748691171255, -40813.8830439905, 0.16, 1.004, 0.17, 192.0, 2.5, 0.0, 15.5, 48.0, 2.5, 40.0, 0.0, 0.0, 0.0, 1.696032582354834E9, 0.0, 2023-09-29 19:09:42.354
120.0, -51542.02747845978, -28243.619590237093, -43498.05933213942, -28718.527104679004, -11520.04438877635, -14799.581742236824, -187500.02235174447, -10864.7135930912, -16613.269342573803, 12604.9757128925, -26206.302786624765, -25620.30710223998, 306.4200647378045, -9317.972876783953, -23813.772060128696, -40791.777168724206, 0.16, 1.004, 0.17, 192.0, 0.0, 0.0, 0.0, 0.0, 0.0, 0.0, 0.0, 0.0, 0.0, 1.696032582415083E9, 0.0, 2023-09-29 19:09:42.415
122.0, -51542.02747845978, -28168.58478410063, -43486.30231455593, -28670.023819210986, -11512.668313106098, -14786.237750797005, -187500.02235174447, -10858.656270343814, -16604.507458747325, 12607.076776871298, -26225.90526651207, -25619.83771560642, 309.34814326144976, -9316.520013394358, -23811.223961260792, -40785.71984597681, 0.16, 1.004, 0.17, 192.0, 0.0, 0.0, 0.0, 0.0, 0.0, 0.0, 0.0, 0.0, 0.0, 1.696032582415105E9, 0.0, 2023-09-29 19:09:42.415
124.0, -51546.609586073115, -28217.892732369037, -43497.00880015002, -28718.728270379102, -11525.94524931255, -14807.226038840538, -187500.02235174447, -10877.901122319832, -16606.295598303746, 12614.654018241647, -26183.258138091343, -25620.575323173445, 307.0012100936425, -9316.475309905447, -23813.503839195233, -40792.29125884667, 0.16, 1.004, 0.17, 192.0, 0.0, 0.0, 0.0, 0.0, 0.0, 0.0, 0.0, 0.0, 0.0, 1.696032582415108E9, 0.0, 2023-09-29 19:09:42.415
126.0, -51550.85641751962, -28191.540025656228, -43488.582192490365, -28684.8206740404, -11518.211545731014, -14806.779003951431, -187500.02235174447, -10881.633863643869, -16608.128441349083, 12605.8250791818, -26242.266743453354, -25631.79589889001, 301.9273641022878, -9339.207034016496, -23820.119955554004, -40806.05993343114, 0.16, 1.004, 0.17, 192.0, 0.0, 0.0, 0.0, 0.0, 0.0, 0.0, 0.0, 0.0, 0.0, 1.696032582415112E9, 0.0, 2023-09-29 19:09:42.415
128.0, -51542.65332730453, -28185.885034309034, -43498.88634668426, -28718.460049445635, -11523.08422602227, -14818.670132001655, -187500.02235174447, -10888.987587569665, -16601.10999359012, 12621.605410767248, -26177.983126399893, -25626.431480220734, 293.74662563164543, -9327.405312944093, -23825.372615501, -40803.37772409651, 0.158, 1.002, 0.17, 192.0, 2.0, 120.0, 15.5, 40.0, 2.5, 40.0, 0.0, 0.0, 0.0, 1.696032582415115E9, 0.0, 2023-09-29 19:09:42.415
130.0, -51553.85155127663, -28216.30575851271, -43487.665770967695, -28683.23370018407, -11511.506022394422, -14801.481640515523, -187500.02235174447, -10868.938072793255, -16606.85439191513, 12611.860050184734, -26257.421226194052, -25619.59184641741, 298.7534163896342, -9332.970897313464, -23815.76136538522, -40803.19891014086, 0.158, 1.002, 0.17, 192.0, 0.0, 0.0, 0.0, 0.0, 0.0, 0.0, 0.0, 0.0, 0.0, 1.696032582415118E9, 0.0, 2023-09-29 19:09:42.415
132.0, -51550.83406577517, -28169.300039923197, -43504.78720722046, -28712.15685750924, -11530.102673781237, -14811.048187142396, -187500.02235174447, -10873.631939128869, -16606.027377370283, 12628.713265504035, -26179.771265956315, -25623.92808484174, 296.0041518216314, -9324.745455353912, -23813.10150779504, -40784.73636922078, 0.158, 1.002, 0.17, 192.0, 0.0, 0.0, 0.0, 0.0, 0.0, 0.0, 0.0, 0.0, 0.0, 1.696032582415121E9, 0.0, 2023-09-29 19:09:42.415
134.0, -51550.655251819524, -28222.787764404748, -43491.68908496965, -28694.96836602311, -11514.970542784995, -14795.849000912787, -187500.02235174447, -10860.556168622514, -16621.137156622073, 12589.44125049606, -26265.713723386973, -25625.448003464702, 293.3219424869946, -9341.822188117765, -23818.063595064115, -40792.73829373578, 0.158, 1.002, 0.17, 192.0, 0.0, 0.0, 0.0, 0.0, 0.0, 0.0, 0.0, 0.0, 0.0, 1.696032582415124E9, 0.0, 2023-09-29 19:09:42.415
136.0, -51552.4657431204, -28149.406987357976, -43501.233279852066, -28706.658328373236, -11520.916106810106, -14804.633236483722, -187500.02235174447, -10871.8661513169, -16622.210040355927, 12602.807593680334, -26191.081248650702, -25637.719111170663, 291.39969246383816, -9329.37226645616, -23816.297807252147, -40781.45066278585, 0.158, 1.002, 0.17, 192.0, 0.0, 0.0, 0.0, 0.0, 0.0, 0.0, 0.0, 0.0, 0.0, 1.696032582475375E9, 0.0, 2023-09-29 19:09:42.475
138.0, -51546.56488258421, -28259.06464565571, -43484.55887848841, -28694.16370322272, -11502.475917634478, -14793.12208808924, -187500.02235174447, -10861.316127933995, -16625.38398806858, 12602.91935240261, -26278.72243865996, -25625.69387265371, 301.4803292131817, -9335.27312699236, -23811.17925777188, -40790.97250592381, 0.154, 0.998, 0.17200000000000001, 192.0, 2.0, 104.0, 15.5, 24.0, 2.5, 48.0, 0.0, 0.0, 0.0, 1.696032582475384E9, 0.0, 2023-09-29 19:09:42.475
140.0, -51543.592100571645, -28154.592592071607, -43497.947573417136, -28695.281290445484, -11515.261115462914, -14797.681843958122, -187500.02235174447, -10870.927378049777, -16601.154697079026, 12629.562631793337, -26180.911204923537, -25619.703605139686, 298.373436733894, -9313.636638359623, -23806.753612369732, -40775.7733196942, 0.154, 0.998, 0.17200000000000001, 192.0, 0.0, 0.0, 0.0, 0.0, 0.0, 0.0, 0.0, 0.0, 0.0, 1.696032582475388E9, 0.0, 2023-09-29 19:09:42.475
142.0, -51539.94876622543, -28291.07234371571, -43490.16916634669, -28696.309470690427, -11508.399129915135, -14794.440841012103, -187500.02235174447, -10870.726212349678, -16616.33153156418, 12610.071910628309, -26277.023706081356, -25615.7473463711, 294.21601226520687, -9333.79791185831, -23813.883818850973, -40798.23682287178, 0.154, 0.998, 0.17200000000000001, 192.0, 0.0, 0.0, 0.0, 0.0, 0.0, 0.0, 0.0, 0.0, 0.0, 1.696032582475391E9, 0.0, 2023-09-29 19:09:42.475
144.0, -51543.323879638185, -28137.80643198567, -43493.94661115964, -28679.478607115583, -11515.46228116301, -14804.744995206, -187500.02235174447, -10883.801982856034, -16592.70573767492, 12636.245803385473, -26186.812065459737, -25612.752212614087, 297.30055300003926, -9312.74256858141, -23813.257970006227, -40782.88117443099, 0.154, 0.998, 0.17200000000000001, 192.0, 0.0, 0.0, 0.0, 0.0, 0.0, 0.0, 0.0, 0.0, 0.0, 1.696032582475394E9, 0.0, 2023-09-29 19:09:42.475
146.0, -51535.47841733437, -28279.650602299047, -43488.22456457908, -28706.85949407333, -11516.110481752215, -14807.717777218555, -187500.02235174447, -10889.948712581243, -16611.458851272924, 12614.139928119175, -26260.885746584627, -25615.657939393277, 294.5512884320365, -9342.380981729148, -23823.696234666855, -40808.89860497697, 0.154, 0.998, 0.17200000000000001, 192.0, 0.0, 0.0, 0.0, 0.0, 0.0, 0.0, 0.0, 0.0, 0.0, 1.696032582475397E9, 0.0, 2023-09-29 19:09:42.475
148.0, -51531.030420187766, -28136.08534766261, -43491.68908496965, -28681.937299005665, -11525.922897568094, -14808.008349896474, -187500.02235174447, -10891.423927715294, -16589.62119694009, 12640.000896453965, -26193.450533562966, -25615.70264288219, 299.4463204677487, -9322.309115208283, -23818.912961353417, -40787.709151233335, 0.154, 1.0, 0.166, 192.0, 2.0, 104.0, 15.5, 32.0, 2.5, 24.0, 0.0, 0.0, 0.0, 1.6960325824754E9, 0.0, 2023-09-29 19:09:42.475
150.0, -51537.82535050218, -28313.60290212666, -43488.91746865719, -28707.150066751252, -11526.99578130195, -14805.840230684309, -187500.02235174447, -10887.490020691159, -16621.00304615534, 12618.990256665977, -26269.558223433283, -25619.189515017217, 296.2723727550951, -9340.168159028073, -23829.48533648078, -40805.09880841956, 0.154, 1.0, 0.166, 192.0, 0.0, 0.0, 0.0, 0.0, 0.0, 0.0, 0.0, 0.0, 0.0, 1.696032582534763E9, 0.0, 2023-09-29 19:09:42.534
152.0, -51544.88850175006, -28154.927868238436, -43487.17403258968, -28672.99660122354, -11527.152243513137, -14805.773175450942, -187500.02235174447, -10882.170305510797, -16602.89813314654, 12637.519852819427, -26204.916978468536, -25619.815363861962, 291.98083781967614, -9329.126397267151, -23823.875048622496, -40782.657656986434, 0.154, 1.0, 0.166, 192.0, 0.0, 0.0, 0.0, 0.0, 0.0, 0.0, 0.0, 0.0, 0.0, 1.696032582534785E9, 0.0, 2023-09-29 19:09:42.534
154.0, -51543.748562782836, -28301.577663609703, -43492.18082334767, -28716.850723844855, -11530.728522625986, -14819.206573868583, -187500.02235174447, -10892.96619808271, -16619.32666532119, 12606.428576282095, -26258.471758183452, -25624.196305775204, 287.8010616065337, -9350.405257988603, -23833.083967338083, -40804.696477019366, 0.154, 1.0, 0.166, 192.0, 0.0, 0.0, 0.0, 0.0, 0.0, 0.0, 0.0, 0.0, 0.0, 1.696032582534789E9, 0.0, 2023-09-29 19:09:42.534
156.0, -51548.06244946271, -28149.362283869064, -43495.82415769388, -28678.226909426085, -11521.720769610498, -14811.986960409518, -187500.02235174447, -10889.635788158868, -16597.265493543804, 12616.799785709356, -26216.025795462825, -25622.654035407788, 289.4997941851371, -9330.13222576764, -23825.23850503427, -40793.54295653617, 0.154, 1.0, 0.166, 192.0, 0.0, 0.0, 0.0, 0.0, 0.0, 0.0, 0.0, 0.0, 0.0, 1.696032582534792E9, 0.0, 2023-09-29 19:09:42.534
158.0, -51543.97208022739, -28304.550445622262, -43500.20509960713, -28727.668968161222, -11522.078397521782, -14824.101605904294, -187500.02235174447, -10902.44333773176, -16616.845621686654, 12596.9737883775, -26257.041246538312, -25631.93000935674, 285.0741487829863, -9353.780371401355, -23831.541696970668, -40814.2853753907, 0.154, 1.002, 0.166, 192.0, 2.0, 104.0, 15.5, 40.0, 2.5, 24.0, 0.0, 0.0, 0.0, 1.696032582534795E9, 0.0, 2023-09-29 19:09:42.534
160.0, -51554.94678675495, -28150.032836202725, -43493.09724487034, -28676.706990803123, -11521.89958356614, -14815.31737033336, -187500.02235174447, -10896.028387073087, -16610.922409405997, 12611.457718784539, -26232.431975893018, -25631.862954123375, 292.9643145757097, -9341.665725906578, -23820.321121254103, -40799.46616881683, 0.154, 1.002, 0.166, 192.0, 0.0, 0.0, 0.0, 0.0, 0.0, 0.0, 0.0, 0.0, 0.0, 1.696032582534798E9, 0.0, 2023-09-29 19:09:42.534
162.0, -51538.652365047026, -28309.065498002234, -43484.76004418851, -28723.377433225804, -11518.256249219925, -14814.423300555147, -187500.02235174447, -10891.982721326676, -16612.643493729054, 12589.105974329232, -26249.218135978954, -25623.391642974813, 302.2626402691174, -9351.969880100474, -23815.157868284925, -40807.80336949866, 0.154, 1.002, 0.166, 192.0, 0.0, 0.0, 0.0, 0.0, 0.0, 0.0, 0.0, 0.0, 0.0, 1.696032582534802E9, 0.0, 2023-09-29 19:09:42.534
164.0, -51554.18682744346, -28179.24656620581, -43480.37910227527, -28667.63218255427, -11505.873382791684, -14800.632274226222, -187500.02235174447, -10877.67760487528, -16595.253836542826, 12614.385797308183, -26236.209420705967, -25625.82798312044, 301.45797746872637, -9342.023353817864, -23804.518437924202, -40788.71497973383, 0.154, 1.002, 0.166, 192.0, 0.0, 0.0, 0.0, 0.0, 0.0, 0.0, 0.0, 0.0, 0.0, 1.696032582534805E9, 0.0, 2023-09-29 19:09:42.534
166.0, -51540.14993192553, -28282.086942444676, -43501.032114151974, -28725.813773371432, -11518.591525386755, -14816.949047678596, -187500.02235174447, -10888.048814302543, -16612.039996628762, 12595.029186609887, -26227.313426412755, -25629.82894537794, 290.8856023413661, -9354.450923735014, -23814.174391528893, -40801.72369500681, 0.154, 1.002, 0.166, 192.0, 0.0, 0.0, 0.0, 0.0, 0.0, 0.0, 0.0, 0.0, 0.0, 1.696032582594553E9, 0.0, 2023-09-29 19:09:42.594
168.0, -51552.80101928723, -28175.223252203854, -43496.89704142774, -28673.063656456907, -11515.79755732984, -14801.593399237801, -187500.02235174447, -10883.422003200294, -16604.350996536137, 12619.213774110529, -26243.026702764833, -25617.893113838807, 293.2325355091734, -9343.364458485183, -23809.122897281995, -40787.93266867789, 0.158, 0.998, 0.17, 192.0, 2.0, 120.0, 15.5, 24.0, 2.5, 40.0, 0.0, 0.0, 0.0, 1.696032582594563E9, 0.0, 2023-09-29 19:09:42.594
170.0, -51528.77289399778, -28245.608895493617, -43497.679352483676, -28722.706880892147, -11526.861670835218, -14812.322236576349, -187500.02235174447, -10896.050738817543, -16603.5686854802, 12608.820212938812, -26209.990824459892, -25617.334320227423, 293.50075644263705, -9349.801760888311, -23820.589342187566, -40799.48852056128, 0.158, 0.998, 0.17, 192.0, 0.0, 0.0, 0.0, 0.0, 0.0, 0.0, 0.0, 0.0, 0.0, 1.696032582594566E9, 0.0, 2023-09-29 19:09:42.594
172.0, -51535.18784465645, -28210.606063676605, -43479.12740458577, -28666.604002309323, -11511.126042738682, -14791.06572759935, -187500.02235174447, -10882.505581677626, -16600.171220322994, 12627.036884669888, -26252.459138924976, -25602.895093309296, 307.11296881591903, -9342.246871262416, -23807.178295514383, -40791.79952046866, 0.158, 0.998, 0.17, 192.0, 0.0, 0.0, 0.0, 0.0, 0.0, 0.0, 0.0, 0.0, 0.0, 1.69603258259457E9, 0.0, 2023-09-29 19:09:42.594
174.0, -51535.00903070081, -28230.365005775097, -43496.7182274721, -28708.267653974017, -11529.47682493649, -14805.236733584015, -187500.02235174447, -10895.983683584176, -16604.552162236236, 12633.74240800648, -26193.65169926306, -25607.052517777982, 298.26167801161745, -9332.501510679902, -23810.6204641605, -40789.184366367386, 0.158, 0.998, 0.17, 192.0, 0.0, 0.0, 0.0, 0.0, 0.0, 0.0, 0.0, 0.0, 0.0, 1.696032582594573E9, 0.0, 2023-09-29 19:09:42.594
176.0, -51534.89727197853, -28235.371796533087, -43474.545296972436, -28670.023819210986, -11507.214487459003, -14784.87429438523, -187500.02235174447, -10872.760221095112, -16609.201325082937, 12610.83186993979, -26255.409569193074, -25603.990328787608, 299.26750651210625, -9342.693906151522, -23804.38432745747, -40789.89962218996, 0.158, 0.998, 0.17, 192.0, 0.0, 0.0, 0.0, 0.0, 0.0, 0.0, 0.0, 0.0, 0.0, 1.696032582594576E9, 0.0, 2023-09-29 19:09:42.594
178.0, -51524.2131381289, -28231.370834275585, -43479.93206738616, -28696.354174179338, -11517.496289908444, -14795.312559045859, -187500.02235174447, -10876.671776374791, -16594.315063275702, 12627.327457347807, -26183.146379369067, -25603.49859040959, 306.0624368265196, -9327.450016433004, -23797.723507609786, -40774.83454642708, 0.162, 1.002, 0.17200000000000001, 192.0, 2.5, 8.0, 15.5, 40.0, 2.5, 48.0, 0.0, 0.0, 0.0, 1.69603258259458E9, 0.0, 2023-09-29 19:09:42.594
180.0, -51535.143141167544, -28267.580660293184, -43467.28098002446, -28668.369790121294, -11501.984179256462, -14789.50110548748, -187500.02235174447, -10869.183941982263, -16598.338377277658, 12605.713320459525, -26253.397912192097, -25602.850389820385, 315.6066317089357, -9337.50830143789, -23792.5155511517, -40783.35056106455, 0.162, 1.002, 0.17200000000000001, 192.0, 0.0, 0.0, 0.0, 0.0, 0.0, 0.0, 0.0, 0.0, 0.0, 1.696032582654931E9, 0.0, 2023-09-29 19:09:42.654
182.0, -51523.83315847316, -28206.739211885837, -43488.06810236789, -28697.047078257452, -11521.296086465847, -14813.88685868822, -187500.02235174447, -10887.981759069176, -16592.124592319084, 12629.719094004524, -26169.109483851134, -25612.036956791515, 313.3267537744944, -9320.409216929582, -23797.120010509494, -40783.3282093201, 0.162, 1.002, 0.17200000000000001, 192.0, 0.0, 0.0, 0.0, 0.0, 0.0, 0.0, 0.0, 0.0, 0.0, 1.696032582654943E9, 0.0, 2023-09-29 19:09:42.654
184.0, -51528.996411442335, -28266.619535281603, -43482.59192497635, -28678.383371637272, -11508.89086829315, -14804.789698694909, -187500.02235174447, -10872.894331561844, -16600.081813345172, 12624.108806146241, -26254.11316801467, -25605.577302643935, 330.60465223844676, -9324.074903020251, -23806.351280969535, -40807.80336949866, 0.162, 1.002, 0.17200000000000001, 192.0, 0.0, 0.0, 0.0, 0.0, 0.0, 0.0, 0.0, 0.0, 0.0, 1.696032582654947E9, 0.0, 2023-09-29 19:09:42.654
186.0, -51549.738830296854, -28164.71793230986, -43508.5199485445, -28696.108304990328, -11518.613877131209, -14818.133690134728, -187500.02235174447, -10875.48713391866, -16601.24410405685, 12636.35756210775, -26166.18140532749, -25622.83284936343, 326.76015219213394, -9302.55017310979, -23808.09471703705, -40795.9792966818, 0.162, 1.002, 0.17200000000000001, 192.0, 0.0, 0.0, 0.0, 0.0, 0.0, 0.0, 0.0, 0.0, 0.0, 1.69603258265495E9, 0.0, 2023-09-29 19:09:42.654
188.0, -51545.15672268352, -28274.286183629774, -43514.97960269208, -28703.39497368276, -11505.783975813863, -14801.682806215622, -187500.02235174447, -10855.750543564624, -16618.544354265257, 12595.096241843254, -26260.394008206607, -25623.570456930454, 338.42776279780423, -9308.808661557277, -23817.080118308084, -40821.952023738864, 0.164, 1.008, 0.17400000000000002, 192.0, 2.5, 16.0, 15.5, 64.0, 2.5, 56.0, 0.0, 0.0, 0.0, 1.696032582654953E9, 0.0, 2023-09-29 19:09:42.654
190.0, -51544.53087383877, -28171.177586457445, -43525.39551560826, -28702.81382832692, -11507.393301414646, -14795.804297423876, -187500.02235174447, -10850.564938850992, -16590.04588008474, 12630.657867271646, -26178.832492689195, -25608.12540151184, 340.8417511989774, -9265.35687033616, -23805.94894956934, -40797.700381004855, 0.164, 1.008, 0.17400000000000002, 192.0, 0.0, 0.0, 0.0, 0.0, 0.0, 0.0, 0.0, 0.0, 0.0, 1.696032582654956E9, 0.0, 2023-09-29 19:09:42.654
192.0, -51545.916681995, -28301.331794420697, -43523.76383826302, -28714.883770332788, -11499.212562944003, -14785.097811829784, -187500.02235174447, -10842.585366080448, -16610.363615794613, 12601.44413726856, -26262.048037296303, -25616.239084749115, 339.0089081536422, -9286.971007224442, -23813.436783961868, -40816.02881145821, 0.164, 1.008, 0.17400000000000002, 192.0, 0.0, 0.0, 0.0, 0.0, 0.0, 0.0, 0.0, 0.0, 0.0, 1.69603258265496E9, 0.0, 2023-09-29 19:09:42.654
194.0, -51552.2198739314, -28140.62275178704, -43528.18948366517, -28699.818694569913, -11506.61099035871, -14779.867503627242, -187500.02235174447, -10840.752523035113, -16592.929255119474, 12640.559690065347, -26175.211510087433, -25614.87562833734, 335.67849822980145, -9258.092553388185, -23811.559237427624, -40792.09009314657, 0.164, 1.008, 0.17400000000000002, 192.0, 0.0, 0.0, 0.0, 0.0, 0.0, 0.0, 0.0, 0.0, 0.0, 1.696032582654963E9, 0.0, 2023-09-29 19:09:42.654
196.0, -51541.513388337306, -28270.240517883365, -43525.350812119344, -28735.469726976127, -11505.336940924757, -14780.091021071796, -187500.02235174447, -10840.551357335014, -16612.084700117673, 12620.73369273349, -26244.367807432154, -25613.534523670023, 326.49193125867026, -9283.282969389316, -23821.438708476868, -40815.62648005802, 0.164, 1.008, 0.17400000000000002, 192.0, 0.0, 0.0, 0.0, 0.0, 0.0, 0.0, 0.0, 0.0, 0.0, 1.696032582715092E9, 0.0, 2023-09-29 19:09:42.715
198.0, -51545.849626761636, -28102.960062379847, -43527.78715226497, -28718.527104679004, -11505.828679302775, -14775.754782647466, -187500.02235174447, -10842.227738169162, -16599.321854033693, 12643.666582544636, -26175.904414165547, -25617.02139580505, 323.98853587967585, -9263.278158101817, -23820.455231720833, -40801.36606709553, 0.16, 1.0, 0.17400000000000002, 192.0, 2.5, 0.0, 15.5, 32.0, 2.5, 56.0, 0.0, 0.0, 0.0, 1.696032582715101E9, 0.0, 2023-09-29 19:09:42.715
200.0, -51536.57365281268, -28273.146244662556, -43528.59181506537, -28763.23059358962, -11504.755795568919, -14773.765477390943, -187500.02235174447, -10844.887595759345, -16624.199345612447, 12595.900904643644, -26248.3464179452, -25617.133154527328, 322.69213470126806, -9281.338367621705, -23824.545600956157, -40823.80721852866, 0.16, 1.0, 0.17400000000000002, 192.0, 0.0, 0.0, 0.0, 0.0, 0.0, 0.0, 0.0, 0.0, 0.0, 1.696032582715104E9, 0.0, 2023-09-29 19:09:42.715
202.0, -51561.13821996906, -28109.822047927624, -43534.33621339038, -28737.72725316611, -11510.924877038584, -14771.329137245315, -187500.02235174447, -10844.820540525978, -16595.969092365398, 12612.664712985124, -26193.741106240883, -25621.424689462747, 322.06628585651947, -9265.334518591704, -23821.61752243251, -40804.1823868969, 0.16, 1.0, 0.17400000000000002, 192.0, 0.0, 0.0, 0.0, 0.0, 0.0, 0.0, 0.0, 0.0, 0.0, 1.696032582715108E9, 0.0, 2023-09-29 19:09:42.715
204.0, -51559.327728668184, -28273.280355129285, -43539.29830065946, -28782.69896301019, -11516.781034085874, -14780.739221660999, -187500.02235174447, -10851.704877818212, -16619.86310718812, 12598.20313432254, -26244.278400454332, -25628.152564543794, 319.048800355053, -9291.55311483778, -23832.726339426797, -40828.054049975166, 0.16, 1.0, 0.17400000000000002, 192.0, 0.0, 0.0, 0.0, 0.0, 0.0, 0.0, 0.0, 0.0, 0.0, 1.696032582715111E9, 0.0, 2023-09-29 19:09:42.715
206.0, -51553.62803383208, -28127.010539413757, -43533.822123267906, -28725.299683248963, -11507.460356648011, -14761.695535385077, -187500.02235174447, -10839.14319743433, -16608.32960704918, 12624.801710224356, -26209.409679104054, -25624.576285430943, 316.3218875315055, -9259.947748177976, -23822.824516633096, -40804.87529097501, 0.16, 1.0, 0.17400000000000002, 192.0, 0.0, 0.0, 0.0, 0.0, 0.0, 0.0, 0.0, 0.0, 0.0, 1.696032582715114E9, 0.0, 2023-09-29 19:09:42.715
208.0, -51564.44627814845, -28253.83433745317, -43538.33717564788, -28775.16642512875, -11515.238763718458, -14778.347585004281, -187500.02235174447, -10851.168435951286, -16626.211002613425, 12613.715244974524, -26232.364920659653, -25631.50532621209, 305.81656763751124, -9279.304358876272, -23832.122842326506, -40813.79363701268, 0.158, 0.996, 0.176, 192.0, 2.0, 120.0, 15.5, 16.0, 2.5, 64.0, 0.0, 0.0, 0.0, 1.696032582715117E9, 0.0, 2023-09-29 19:09:42.715
210.0, -51563.44044964796, -28127.27876034722, -43519.628765538786, -28721.96927332512, -11499.36902515519, -14766.545863931879, -187500.02235174447, -10841.490130602138, -16601.579380223677, 12614.296390330363, -26221.837249021202, -25630.54420120051, 311.1362828178743, -9266.966195936942, -23819.38234798698, -40801.6789915179, 0.158, 0.996, 0.176, 192.0, 0.0, 0.0, 0.0, 0.0, 0.0, 0.0, 0.0, 0.0, 0.0, 1.69603258277536E9, 0.0, 2023-09-29 19:09:42.775
212.0, -51547.235434917864, -28243.64194198155, -43537.66662331422, -28773.154768127773, -11515.484632907466, -14784.78488740741, -187500.02235174447, -10853.537720863547, -16618.96903740991, 12611.144794362164, -26219.110336197657, -25619.88241909533, 306.77769264908943, -9278.678510031523, -23828.68067368039, -40815.62648005802, 0.158, 0.996, 0.176, 192.0, 0.0, 0.0, 0.0, 0.0, 0.0, 0.0, 0.0, 0.0, 0.0, 1.696032582775372E9, 0.0, 2023-09-29 19:09:42.775
214.0, -51549.44825761894, -28144.981341955823, -43535.18557967968, -28714.280273232496, -11504.17465021308, -14772.78200063491, -187500.02235174447, -10842.495959102627, -16601.28880754576, 12617.49268978747, -26231.493202625898, -25614.6968143817, 311.3821520068827, -9273.157629151063, -23827.741900413264, -40812.07255268962, 0.158, 0.996, 0.176, 192.0, 0.0, 0.0, 0.0, 0.0, 0.0, 0.0, 0.0, 0.0, 0.0, 1.696032582775376E9, 0.0, 2023-09-29 19:09:42.775
216.0, -51543.27917614928, -28219.904389370015, -43551.345890920864, -28761.844785433386, -11517.85391781973, -14791.624521210733, -187500.02235174447, -10854.230624941663, -16605.222714569893, 12619.88432644419, -26205.833399991203, -25618.58601791692, 304.6542769258353, -9287.015710713353, -23834.827403405598, -40818.44279985938, 0.158, 0.996, 0.176, 192.0, 0.0, 0.0, 0.0, 0.0, 0.0, 0.0, 0.0, 0.0, 0.0, 1.696032582775379E9, 0.0, 2023-09-29 19:09:42.775
218.0, -51558.05367923423, -28124.19421961239, -43535.25263491305, -28706.770087095512, -11507.929743281573, -14774.145457046683, -187500.02235174447, -10835.701028788213, -16605.736804692366, 12623.59471602377, -26236.72351082844, -25617.468430694156, 301.03329432407554, -9291.374300882138, -23831.832269648585, -40813.79363701268, 0.166, 0.992, 0.168, 192.0, 2.5, 24.0, 15.5, 0.0, 2.5, 32.0, 0.0, 0.0, 0.0, 1.696032582775382E9, 0.0, 2023-09-29 19:09:42.775
220.0, -51557.226664689384, -28200.279557738253, -43535.40909712423, -28753.93226789621, -11517.004551530428, -14781.141553061194, -187500.02235174447, -10840.171377679275, -16610.47537451689, 12612.105919373742, -26205.60988254665, -25620.195343517706, 291.39969246383816, -9277.449164086482, -23834.00038886075, -40814.30772713515, 0.166, 0.992, 0.168, 192.0, 0.0, 0.0, 0.0, 0.0, 0.0, 0.0, 0.0, 0.0, 0.0, 1.696032582775385E9, 0.0, 2023-09-29 19:09:42.775
222.0, -51552.59985358713, -28190.690659366926, -43513.50438755803, -28707.30652896244, -11496.530353609367, -14767.39523022118, -187500.02235174447, -10825.463929827683, -16600.797069167744, 12616.59862000926, -26258.29294422781, -25610.40527944628, 310.7115996732235, -9273.202332639972, -23819.516458453712, -40807.08811367609, 0.166, 0.992, 0.168, 192.0, 0.0, 0.0, 0.0, 0.0, 0.0, 0.0, 0.0, 0.0, 0.0, 1.696032582775388E9, 0.0, 2023-09-29 19:09:42.775
224.0, -51543.43563836046, -28197.798514103713, -43534.582082579385, -28752.97114288463, -11514.65761836262, -14793.12208808924, -187500.02235174447, -10845.20052018172, -16597.42195575499, 12626.567498036326, -26195.70805975295, -25614.562703914966, 310.1751578062961, -9274.811658240755, -23820.23171427628, -40808.00453519876, 0.166, 0.992, 0.168, 192.0, 0.0, 0.0, 0.0, 0.0, 0.0, 0.0, 0.0, 0.0, 0.0, 1.696032582775392E9, 0.0, 2023-09-29 19:09:42.775
226.0, -51546.65428956202, -28189.796589588714, -43523.13798941827, -28718.97413956811, -11500.173687955581, -14778.615805937745, -187500.02235174447, -10833.018819453577, -16602.361691279613, 12616.285695586885, -26257.644743638604, -25622.31875924096, 301.9273641022878, -9289.273236903338, -23827.518382968712, -40821.59439582758, 0.166, 0.992, 0.168, 192.0, 0.0, 0.0, 0.0, 0.0, 0.0, 0.0, 0.0, 0.0, 0.0, 1.696032582834918E9, 0.0, 2023-09-29 19:09:42.834
228.0, -51550.67760356398, -28167.66836257796, -43535.11852444631, -28742.622285201825, -11513.920010795595, -14791.669224699644, -187500.02235174447, -10848.933261505756, -16603.076947102185, 12628.132120148197, -26194.501065552362, -25620.26239875107, 300.0721693124973, -9278.544399564791, -23828.85948763603, -40815.71588703583, 0.164, 1.0, 0.166, 192.0, 2.5, 16.0, 15.5, 32.0, 2.5, 24.0, 0.0, 0.0, 0.0, 1.696032582834928E9, 0.0, 2023-09-29 19:09:42.834
230.0, -51559.01480424581, -28216.842200379637, -43515.40428583673, -28715.889598833277, -11503.437042646055, -14782.370899006237, -187500.02235174447, -10844.641726570337, -16615.705682719432, 12604.327512303294, -26276.844892125715, -25622.74344238561, 298.88752685636604, -9287.775670024834, -23831.295827781658, -40824.29895690667, 0.164, 1.0, 0.166, 192.0, 0.0, 0.0, 0.0, 0.0, 0.0, 0.0, 0.0, 0.0, 0.0, 1.696032582834933E9, 0.0, 2023-09-29 19:09:42.834
232.0, -51556.891388522556, -28146.657722789972, -43521.014573695014, -28728.49598270607, -11513.42827241758, -14795.290207301405, -187500.02235174447, -10856.130523220363, -16601.981711623874, 12633.340076606284, -26191.640042262083, -25619.5471429285, 298.7087129007236, -9269.938977949498, -23825.32791201209, -40810.19500615537, 0.164, 1.0, 0.166, 192.0, 0.0, 0.0, 0.0, 0.0, 0.0, 0.0, 0.0, 0.0, 0.0, 1.696032582834936E9, 0.0, 2023-09-29 19:09:42.834
234.0, -51557.83016178968, -28211.813057877192, -43514.37610559179, -28722.528066936502, -11508.644999104143, -14794.038509611906, -187500.02235174447, -10858.253938943619, -16618.164374609518, 12608.35082630525, -26272.843929868213, -25625.649169164797, 296.58529717746944, -9296.068167217752, -23827.026644590696, -40829.372802898026, 0.164, 1.0, 0.166, 192.0, 0.0, 0.0, 0.0, 0.0, 0.0, 0.0, 0.0, 0.0, 0.0, 1.696032582834941E9, 0.0, 2023-09-29 19:09:42.834
236.0, -51538.02651620228, -28121.981396911313, -43517.70651551563, -28723.288026247985, -11510.544897382844, -14794.73141369002, -187500.02235174447, -10862.411363412306, -16595.99144410985, 12630.411998082638, -26193.405830074054, -25620.083584795426, 293.83603260946666, -9286.322806635239, -23825.260856778725, -40816.81112251415, 0.164, 1.0, 0.166, 192.0, 0.0, 0.0, 0.0, 0.0, 0.0, 0.0, 0.0, 0.0, 0.0, 1.696032582834945E9, 0.0, 2023-09-29 19:09:42.834
238.0, -51547.07897270667, -28246.43591003846, -43509.59283227835, -28720.583465168893, -11507.438004903557, -14795.78194567942, -187500.02235174447, -10859.997375011131, -16605.982673881375, 12612.530602518393, -26283.036325339835, -25606.918407311252, 298.082864055975, -9298.012768985363, -23828.90419112494, -40830.3339279096, 0.158, 1.008, 0.164, 192.0, 2.0, 120.0, 15.5, 64.0, 2.5, 16.0, 0.0, 0.0, 0.0, 1.696032582834948E9, 0.0, 2023-09-29 19:09:42.834
240.0, -51556.0196704888, -28105.306995547653, -43519.78522774998, -28713.520313921013, -11521.89958356614, -14804.521477761446, -187500.02235174447, -10867.10522974792, -16592.10224057463, 12633.02715218391, -26186.90147243756, -25613.713337625664, 288.73983487365666, -9289.876734003632, -23836.5261359842, -40810.95496546686, 0.158, 1.008, 0.164, 192.0, 0.0, 0.0, 0.0, 0.0, 0.0, 0.0, 0.0, 0.0, 0.0, 1.696032582894398E9, 0.0, 2023-09-29 19:09:42.894
242.0, -51542.206292415416, -28266.88775621507, -43501.14387287425, -28722.796287869965, -11506.365121169702, -14793.099736344784, -187500.02235174447, -10847.43569462725, -16613.470508273902, 12605.288637314874, -26274.743828146915, -25609.48885792361, 297.59112567795825, -9316.31884769426, -23836.548487728654, -40827.96464299734, 0.158, 1.008, 0.164, 192.0, 0.0, 0.0, 0.0, 0.0, 0.0, 0.0, 0.0, 0.0, 0.0, 1.696032582894409E9, 0.0, 2023-09-29 19:09:42.894
244.0, -51545.11201919461, -28115.27587357472, -43509.70459100063, -28702.992642282563, -11516.155185241127, -14804.92380916164, -187500.02235174447, -10858.924491277277, -16588.302444017227, 12631.842509727778, -26191.41652481753, -25617.49078243861, 295.6241721658912, -9286.680434546523, -23826.177278301395, -40810.0832474331, 0.158, 1.008, 0.164, 192.0, 0.0, 0.0, 0.0, 0.0, 0.0, 0.0, 0.0, 0.0, 0.0, 1.696032582894413E9, 0.0, 2023-09-29 19:09:42.894
246.0, -51533.35500161112, -28282.69043954497, -43501.90383218573, -28725.25497976005, -11506.365121169702, -14808.969474908052, -187500.02235174447, -10856.510502876105, -16607.591999482156, 12600.214791323519, -26270.09466530021, -25617.826058605442, 304.7436839036565, -9307.17698421204, -23827.38427250198, -40835.72069832333, 0.158, 1.008, 0.164, 192.0, 0.0, 0.0, 0.0, 0.0, 0.0, 0.0, 0.0, 0.0, 0.0, 1.696032582894416E9, 0.0, 2023-09-29 19:09:42.894
248.0, -51552.15281869803, -28111.967815395335, -43513.66084976922, -28690.185092709675, -11516.311647452314, -14810.332931319826, -187500.02235174447, -10857.784552310057, -16581.79808638073, 12624.68995150208, -26192.981146929404, -25615.367366715356, 307.3141345160168, -9289.384995625614, -23820.18701078737, -40816.52054983623, 0.16, 1.012, 0.17, 192.0, 2.5, 0.0, 15.5, 80.0, 2.5, 40.0, 0.0, 0.0, 0.0, 1.696032582894419E9, 0.0, 2023-09-29 19:09:42.894
250.0, -51556.24318793335, -28263.199718379943, -43524.166169663215, -28733.39101474178, -11517.295124208347, -14812.83632669882, -187500.02235174447, -10861.67375584528, -16619.103147876638, 12596.191477321563, -26251.453310424487, -25619.524791184045, 296.3617797329163, -9307.534612123325, -23835.609714461534, -40840.07928849212, 0.16, 1.012, 0.17, 192.0, 0.0, 0.0, 0.0, 0.0, 0.0, 0.0, 0.0, 0.0, 0.0, 1.696032582894422E9, 0.0, 2023-09-29 19:09:42.894
252.0, -51545.87197850609, -28121.981396911313, -43522.04275393996, -28695.124828234297, -11513.920010795595, -14801.92867540463, -187500.02235174447, -10853.984755752654, -16601.780545923775, 12637.519852819427, -26214.975263473425, -25611.053480035484, 299.55807919002524, -9281.450126343982, -23827.786603902176, -40819.20275917086, 0.16, 1.012, 0.17, 192.0, 0.0, 0.0, 0.0, 0.0, 0.0, 0.0, 0.0, 0.0, 0.0, 1.696032582894425E9, 0.0, 2023-09-29 19:09:42.894
254.0, -51550.49878960834, -28233.807174421214, -43523.09328592936, -28741.795270656978, -11520.558478898822, -14813.193954610106, -187500.02235174447, -10863.126619234876, -16623.10411013414, 12610.228372839496, -26242.914944042557, -25619.480087695134, 294.52893668758117, -9307.311094678771, -23837.24139180677, -40832.099715721575, 0.16, 1.012, 0.17, 192.0, 0.0, 0.0, 0.0, 0.0, 0.0, 0.0, 0.0, 0.0, 0.0, 1.696032582894428E9, 0.0, 2023-09-29 19:09:42.894
0.0, -51542.54156858225, -28089.593719195575, -43505.88244269877, -28693.627261355792, -11514.009417773417, -14795.714890446056, -187500.02235174447, -10849.357944650406, -16598.517191233303, 12625.427559069105, -26219.155039686568, -25613.758041114575, 293.6795703982795, -9282.724175777934, -23830.08883358107, -40813.011325956744, 0.16, 1.012, 0.17, 192.0, 0.0, 0.0, 0.0, 0.0, 0.0, 0.0, 0.0, 0.0, 0.0, 1.696032582954846E9, 0.0, 2023-09-29 19:09:42.954
2.0, -51537.11009467961, -28224.642959194538, -43515.60545153683, -28743.11402357984, -11518.703284109031, -14798.486506758512, -187500.02235174447, -10853.224796441174, -16611.414147784013, 12610.518945517415, -26233.3931009046, -25612.863971336363, 299.8263001234889, -9295.93405675102, -23831.407586503934, -40817.4369713589, 0.16, 1.004, 0.162, 192.0, 2.5, 0.0, 15.5, 48.0, 2.5, 8.0, 0.0, 0.0, 0.0, 1.696032582954856E9, 0.0, 2023-09-29 19:09:42.954
4.0, -51557.87486527859, -28125.535324279706, -43511.78330323497, -28691.72736307709, -11502.118289723194, -14779.264006526948, -187500.02235174447, -10834.985772965643, -16602.272284301795, 12618.990256665977, -26238.15402247358, -25605.040860777004, 309.7504746616453, -9285.987530468408, -23819.874086365, -40795.755779237246, 0.16, 1.004, 0.162, 192.0, 0.0, 0.0, 0.0, 0.0, 0.0, 0.0, 0.0, 0.0, 0.0, 1.69603258295486E9, 0.0, 2023-09-29 19:09:42.954
6.0, -51543.97208022739, -28248.380511806074, -43527.63069005379, -28748.25492480456, -11512.355388683724, -14798.195934080593, -187500.02235174447, -10852.889520274344, -16618.700816476445, 12620.912506689134, -26234.711853827463, -25609.287692223515, 298.7087129007236, -9298.213934685462, -23827.540734713166, -40807.87042473202, 0.16, 1.004, 0.162, 192.0, 0.0, 0.0, 0.0, 0.0, 0.0, 0.0, 0.0, 0.0, 0.0, 1.696032582954863E9, 0.0, 2023-09-29 19:09:42.954
8.0, -51561.02646124679, -28140.2427721313, -43518.68999227166, -28699.52812189199, -11503.638208346154, -14789.903436887675, -187500.02235174447, -10849.737924306146, -16601.065290101207, 12618.11853863222, -26248.90521155658, -25609.086526523417, 295.44535821024874, -9289.586161325713, -23821.058728821128, -40810.32911662211, 0.16, 1.004, 0.162, 192.0, 0.0, 0.0, 0.0, 0.0, 0.0, 0.0, 0.0, 0.0, 0.0, 1.696032582954866E9, 0.0, 2023-09-29 19:09:42.954
10.0, -51550.789362286254, -28218.943264358433, -43529.66469879922, -28760.21310808815, -11518.077435264282, -14808.969474908052, -187500.02235174447, -10862.925453534777, -16613.314046062715, 12603.411090780628, -26217.1880861745, -25615.792049860007, 293.21018376471807, -9296.60460908468, -23826.71372016832, -40822.71198305035, 0.16, 1.004, 0.162, 192.0, 0.0, 0.0, 0.0, 0.0, 0.0, 0.0, 0.0, 0.0, 0.0, 1.696032582954869E9, 0.0, 2023-09-29 19:09:42.954
12.0, -51540.23933890335, -28171.468159135362, -43510.44219856765, -28712.40272669825, -11501.984179256462, -14791.401003766181, -187500.02235174447, -10848.016839983087, -16607.05555761523, 12600.170087834607, -26261.131615773633, -25609.10887826787, 297.32290474449456, -9301.41023414257, -23822.51159221072, -40823.159017939455, 0.164, 1.0, 0.166, 192.0, 2.5, 16.0, 15.5, 32.0, 2.5, 24.0, 0.0, 0.0, 0.0, 1.696032582954872E9, 0.0, 2023-09-29 19:09:42.954
14.0, -51533.55616731122, -28228.77803191877, -43522.646251040256, -28746.5338404815, -11513.696493351043, -14802.822745182842, -187500.02235174447, -10859.460933144204, -16599.634778456068, 12630.8813847162, -26208.89558898158, -25602.15748574227, 302.1285298023856, -9293.162440438562, -23818.264760764214, -40815.47001784683, 0.164, 1.0, 0.166, 192.0, 0.0, 0.0, 0.0, 0.0, 0.0, 0.0, 0.0, 0.0, 0.0, 1.69603258301511E9, 0.0, 2023-09-29 19:09:43.015
16.0, -51555.125600710584, -28182.062886007177, -43518.68999227166, -28692.77789506649, -11508.17561247058, -14792.45153575558, -187500.02235174447, -10851.369601651384, -16600.819420912198, 12614.609314752737, -26253.688484870017, -25604.660881121265, 298.1722710337962, -9297.386920140616, -23818.510629953224, -40808.07159043212, 0.164, 1.0, 0.166, 192.0, 0.0, 0.0, 0.0, 0.0, 0.0, 0.0, 0.0, 0.0, 0.0, 1.696032583015122E9, 0.0, 2023-09-29 19:09:43.015
18.0, -51549.15768494102, -28182.152292985, -43529.95527147714, -28725.8808286048, -11519.127967253682, -14799.648797470189, -187500.02235174447, -10861.316127933995, -16596.12555457658, 12625.159338135642, -26186.677954993007, -25608.907712567772, 284.15772726031867, -9290.74845203739, -23823.58447594458, -40805.61289854204, 0.164, 1.0, 0.166, 192.0, 0.0, 0.0, 0.0, 0.0, 0.0, 0.0, 0.0, 0.0, 0.0, 1.696032583015126E9, 0.0, 2023-09-29 19:09:43.015
20.0, -51547.86128376261, -28202.49238043933, -43517.885329471275, -28696.264767201515, -11510.14256598265, -14793.569122978346, -187500.02235174447, -10857.829255798968, -16602.7193191909, 12601.69000645757, -26268.574746677252, -25600.05642176347, 295.19948902124037, -9297.811603285267, -23820.14230729846, -40813.79363701268, 0.164, 1.0, 0.166, 192.0, 0.0, 0.0, 0.0, 0.0, 0.0, 0.0, 0.0, 0.0, 0.0, 1.696032583015129E9, 0.0, 2023-09-29 19:09:43.015
22.0, -51540.12758018108, -28183.068714507666, -43522.13216091778, -28733.927456608708, -11517.742159097454, -14813.126899376739, -187500.02235174447, -10877.007052541621, -16600.171220322994, 12612.463547285028, -26190.65656550605, -25609.55591315698, 291.4443959527488, -9298.392748641105, -23829.28417078068, -40817.25815740325, 0.162, 1.004, 0.168, 192.0, 2.5, 8.0, 15.5, 48.0, 2.5, 32.0, 0.0, 0.0, 0.0, 1.696032583015133E9, 0.0, 2023-09-29 19:09:43.015
24.0, -51543.99443197184, -28234.433023265963, -43505.569518276396, -28704.423153927703, -11509.337903182257, -14809.081233630328, -187500.02235174447, -10867.239340214652, -16598.450135999934, 12597.621988966703, -26274.520310702363, -25603.878570065328, 304.54251820355876, -9309.36745516866, -23819.024720075693, -40822.242596416785, 0.162, 1.004, 0.168, 192.0, 0.0, 0.0, 0.0, 0.0, 0.0, 0.0, 0.0, 0.0, 0.0, 1.696032583015136E9, 0.0, 2023-09-29 19:09:43.015
26.0, -51542.16158892651, -28150.18929841391, -43516.052486425935, -28728.093651305873, -11526.436987690568, -14818.044283156907, -187500.02235174447, -10876.001224041132, -16593.063365586208, 12610.407186795139, -26186.588548015185, -25617.06609929396, 280.179116747274, -9309.255696446384, -23826.4231474904, -40821.43793361639, 0.162, 1.004, 0.168, 192.0, 0.0, 0.0, 0.0, 0.0, 0.0, 0.0, 0.0, 0.0, 0.0, 1.696032583015139E9, 0.0, 2023-09-29 19:09:43.015
28.0, -51549.64942331904, -28248.134642617068, -43504.67544849819, -28714.324976721404, -11514.94819104054, -14797.83830616931, -187500.02235174447, -10856.756372065112, -16604.440403513956, 12600.43830876807, -26276.688429914528, -25609.35474745688, 290.63973315235773, -9327.718237366467, -23823.673882922398, -40829.372802898026, 0.162, 1.004, 0.168, 192.0, 0.0, 0.0, 0.0, 0.0, 0.0, 0.0, 0.0, 0.0, 0.0, 1.696032583015143E9, 0.0, 2023-09-29 19:09:43.015
30.0, -51552.622205331594, -28145.696597778395, -43518.26530912701, -28712.536837164982, -11520.714941110009, -14803.828573683331, -187500.02235174447, -10863.998337268631, -16588.436554483957, 12628.959134693043, -26193.428181818508, -25605.152619499284, 291.8467273529443, -9298.660969574568, -23813.347376984046, -40798.750912994255, 0.162, 1.004, 0.168, 192.0, 0.0, 0.0, 0.0, 0.0, 0.0, 0.0, 0.0, 0.0, 0.0, 1.696032583074788E9, 0.0, 2023-09-29 19:09:43.074
32.0, -51555.48322862187, -28254.147261875543, -43510.19632937865, -28723.220971014616, -11513.115347995205, -14807.449556285092, -187500.02235174447, -10866.725250092179, -16613.962246651918, 12577.885398612667, -26278.945956104515, -25616.55200917149, 283.50952667111477, -9339.408199716592, -23821.014025332217, -40822.13083769451, 0.16, 1.006, 0.166, 192.0, 2.5, 0.0, 15.5, 56.0, 2.5, 24.0, 0.0, 0.0, 0.0, 1.6960325830748E9, 0.0, 2023-09-29 19:09:43.074
34.0, -51556.64551933355, -28103.496504246774, -43515.60545153683, -28718.616511656823, -11524.201813245036, -14813.573934265845, -187500.02235174447, -10878.839895586956, -16601.020586612296, 12601.175916335096, -26193.539940540784, -25617.826058605442, 282.0119597926092, -9312.831975559233, -23816.43191771888, -40809.27858463271, 0.16, 1.006, 0.166, 192.0, 0.0, 0.0, 0.0, 0.0, 0.0, 0.0, 0.0, 0.0, 0.0, 1.696032583074803E9, 0.0, 2023-09-29 19:09:43.074
36.0, -51544.53087383877, -28258.572907277696, -43506.44123631016, -28741.728215423613, -11512.265981705903, -14811.472870287047, -187500.02235174447, -10873.363718195405, -16613.895191418553, 12565.368421717694, -26284.019802095867, -25622.27405575205, 285.18590750526283, -9336.077789792751, -23824.836173634074, -40836.503009379274, 0.16, 1.006, 0.166, 192.0, 0.0, 0.0, 0.0, 0.0, 0.0, 0.0, 0.0, 0.0, 0.0, 1.696032583074807E9, 0.0, 2023-09-29 19:09:43.074
38.0, -51538.7641237693, -28111.61018748405, -43510.6210125233, -28705.25016847255, -11517.719807352998, -14808.276570829938, -187500.02235174447, -10874.235436229163, -16586.357842249614, 12598.851334911746, -26207.442725591987, -25611.83579109142, 285.7670528611008, -9311.468519147458, -23813.5708944286, -40810.32911662211, 0.16, 1.006, 0.166, 192.0, 0.0, 0.0, 0.0, 0.0, 0.0, 0.0, 0.0, 0.0, 0.0, 1.69603258307481E9, 0.0, 2023-09-29 19:09:43.074
40.0, -51542.698030793435, -28262.104482901632, -43509.838701467364, -28731.9828548411, -11517.94332479755, -14807.561315007368, -187500.02235174447, -10865.42884891377, -16602.96518837991, 12594.380986020684, -26271.34636298971, -25607.410145689268, 285.7223493721902, -9328.433493189037, -23821.46106022132, -40822.44376211688, 0.16, 1.006, 0.166, 192.0, 0.0, 0.0, 0.0, 0.0, 0.0, 0.0, 0.0, 0.0, 0.0, 1.696032583074813E9, 0.0, 2023-09-29 19:09:43.074
42.0, -51542.273347648785, -28096.567463465628, -43517.61710853781, -28698.321127691404, -11521.027865532384, -14813.149251121195, -187500.02235174447, -10871.642633872347, -16591.923426618985, 12621.940686934076, -26203.911149968048, -25604.97380554364, 288.6280761513801, -9313.904859293087, -23819.62821717599, -40799.868500217024, 0.158, 1.008, 0.17, 192.0, 2.0, 120.0, 15.5, 64.0, 2.5, 40.0, 0.0, 0.0, 0.0, 1.696032583074817E9, 0.0, 2023-09-29 19:09:43.074
44.0, -51540.61931855909, -28265.569003292207, -43521.97569870659, -28741.191773556686, -11523.6206678892, -14826.60500128329, -187500.02235174447, -10883.62316890039, -16614.521040263302, 12583.652148682137, -26262.226851251944, -25600.525808397033, 283.04014003755333, -9340.436379961537, -23829.95472311434, -40825.19302668489, 0.158, 1.008, 0.17, 192.0, 0.0, 0.0, 0.0, 0.0, 0.0, 0.0, 0.0, 0.0, 0.0, 1.696032583134955E9, 0.0, 2023-09-29 19:09:43.134
46.0, -51538.94293772495, -28093.259405286244, -43514.28669861397, -28692.576729366392, -11523.28539172237, -14822.380521581235, -187500.02235174447, -10884.763107867611, -16589.33062426217, 12612.150622862653, -26214.84115300669, -25600.101125252382, 283.6436371378466, -9320.073940762752, -23822.176316043893, -40809.12212242152, 0.158, 1.008, 0.17, 192.0, 0.0, 0.0, 0.0, 0.0, 0.0, 0.0, 0.0, 0.0, 0.0, 1.696032583134968E9, 0.0, 2023-09-29 19:09:43.134
48.0, -51524.74957999583, -28265.189023636463, -43503.35669557533, -28736.766128154533, -11522.5701358998, -14813.372768565747, -187500.02235174447, -10867.932244292766, -16613.895191418553, 12598.20313432254, -26251.945048802503, -25601.06225026396, 284.62711389388016, -9336.770693870867, -23824.635007933975, -40824.27660516222, 0.158, 1.008, 0.17, 192.0, 0.0, 0.0, 0.0, 0.0, 0.0, 0.0, 0.0, 0.0, 0.0, 1.696032583134971E9, 0.0, 2023-09-29 19:09:43.134
50.0, -51537.22185340188, -28142.701464021382, -43495.6676954827, -28686.832331041376, -11519.686760865065, -14795.513724745957, -187500.02235174447, -10852.420133640782, -16586.246083527338, 12612.620009496213, -26231.850830537183, -25594.267319949548, 283.5765819044807, -9314.195431971006, -23811.983920572275, -40793.878232703, 0.158, 1.008, 0.17, 192.0, 0.0, 0.0, 0.0, 0.0, 0.0, 0.0, 0.0, 0.0, 0.0, 1.696032583134975E9, 0.0, 2023-09-29 19:09:43.134
52.0, -51546.20725467292, -28271.06753242821, -43511.00099217904, -28739.202468300162, -11529.275659236391, -14807.606018496279, -187500.02235174447, -10861.137313978352, -16600.19357206745, 12599.141907589665, -26241.23856320841, -25606.091392766404, 279.70973011371257, -9348.013621331886, -23824.120917811506, -40808.58568055459, 0.158, 1.01, 0.168, 192.0, 2.0, 120.0, 15.5, 72.0, 2.5, 32.0, 0.0, 0.0, 0.0, 1.696032583134978E9, 0.0, 2023-09-29 19:09:43.134
54.0, -51549.96234774141, -28145.495432078296, -43509.65988751172, -28686.608813596824, -11519.351484698234, -14796.877181157732, -187500.02235174447, -10859.81856105549, -16590.068231829195, 12596.772622677401, -26238.846926551694, -25609.131230012328, 278.4803841686707, -9328.589955400224, -23822.824516633096, -40797.633325771494, 0.158, 1.01, 0.168, 192.0, 0.0, 0.0, 0.0, 0.0, 0.0, 0.0, 0.0, 0.0, 0.0, 1.696032583134981E9, 0.0, 2023-09-29 19:09:43.134
56.0, -51541.58044357067, -28242.814927436702, -43518.24295738256, -28746.55619222596, -11535.020057561405, -14823.453405315091, -187500.02235174447, -10887.892352091356, -16603.211057568915, 12583.942721360056, -26231.13557471461, -25609.175933501236, 275.19467773374055, -9339.721124138967, -23831.832269648585, -40810.75379976676, 0.158, 1.01, 0.168, 192.0, 0.0, 0.0, 0.0, 0.0, 0.0, 0.0, 0.0, 0.0, 0.0, 1.696032583134984E9, 0.0, 2023-09-29 19:09:43.134
58.0, -51533.57851905567, -28168.361266656077, -43497.92522167268, -28693.068467744408, -11517.496289908444, -14809.952951664085, -187500.02235174447, -10876.269444974596, -16592.772792908287, 12599.566590734315, -26256.43774943802, -25604.482067165623, 282.41429119280474, -9341.285746250838, -23823.58447594458, -40812.8325120011, 0.158, 1.01, 0.168, 192.0, 0.0, 0.0, 0.0, 0.0, 0.0, 0.0, 0.0, 0.0, 0.0, 1.696032583134987E9, 0.0, 2023-09-29 19:09:43.134
60.0, -51542.18394067096, -28242.63611348106, -43507.15649213272, -28739.06835783343, -11524.604144645233, -14828.862527473275, -187500.02235174447, -10891.088651548464, -16600.05946160072, 12594.090413342765, -26217.27749315232, -25595.675479850233, 279.9108958138103, -9343.543272440824, -23820.075252065093, -40814.330078879604, 0.158, 1.01, 0.168, 192.0, 0.0, 0.0, 0.0, 0.0, 0.0, 0.0, 0.0, 0.0, 0.0, 1.696032583195277E9, 0.0, 2023-09-29 19:09:43.195
62.0, -51549.67177506349, -28175.75969407078, -43498.12638737278, -28690.989755510065, -11511.70718809452, -14815.943219178107, -187500.02235174447, -10876.112982763409, -16599.27715054478, 12594.984483120978, -26257.980019805436, -25597.374212428836, 280.38028244737177, -9345.890205608632, -23811.84981010554, -40813.8830439905, 0.16, 1.006, 0.17, 192.0, 2.5, 0.0, 15.5, 56.0, 2.5, 40.0, 0.0, 0.0, 0.0, 1.696032583195287E9, 0.0, 2023-09-29 19:09:43.195
64.0, -51536.64070804605, -28222.83246789366, -43510.017515423, -28738.35310201086, -11526.235821990469, -14827.052036172396, -187500.02235174447, -10884.539590423059, -16596.661996443512, 12599.566590734315, -26209.812010504247, -25598.78237232952, 277.5416109015478, -9344.057362563297, -23814.91199909592, -40815.55942482465, 0.16, 1.006, 0.17, 192.0, 0.0, 0.0, 0.0, 0.0, 0.0, 0.0, 0.0, 0.0, 0.0, 1.69603258319529E9, 0.0, 2023-09-29 19:09:43.195
66.0, -51531.25393763232, -28227.816906907192, -43495.913564671704, -28694.275461944995, -11507.907391537117, -14803.515649260957, -187500.02235174447, -10865.920587291788, -16596.863162143607, 12593.553971475838, -26270.608755422683, -25597.8435990624, 286.3481982169388, -9344.347935241216, -23810.888685093963, -40813.81598875714, 0.16, 1.006, 0.17, 192.0, 0.0, 0.0, 0.0, 0.0, 0.0, 0.0, 0.0, 0.0, 0.0, 1.696032583195294E9, 0.0, 2023-09-29 19:09:43.195
68.0, -51530.49397832084, -28209.466124709386, -43517.79592249345, -28725.16557278223, -11530.214432503513, -14815.02679765544, -187500.02235174447, -10880.404517698827, -16588.90594111752, 12608.30612281634, -26195.864521964137, -25598.78237232952, 286.59406740594716, -9339.587013672235, -23812.788583372665, -40801.0307909287, 0.16, 1.006, 0.17, 192.0, 0.0, 0.0, 0.0, 0.0, 0.0, 0.0, 0.0, 0.0, 0.0, 1.696032583195297E9, 0.0, 2023-09-29 19:09:43.195
70.0, -51550.3646791416, -28244.64777048204, -43505.61422176531, -28692.30850843293, -11521.184327743571, -14798.620617225244, -187500.02235174447, -10872.067317016998, -16599.701833689433, 12580.63466318067, -26278.29775551531, -25596.25662520607, 284.44829993823765, -9341.7551328844, -23816.5213246967, -40806.998706698265, 0.16, 1.006, 0.17, 192.0, 0.0, 0.0, 0.0, 0.0, 0.0, 0.0, 0.0, 0.0, 0.0, 1.6960325831953E9, 0.0, 2023-09-29 19:09:43.195
72.0, -51527.789417241744, -28202.11240078359, -43507.78234097747, -28711.083973775385, -11536.808197117829, -14813.350416821291, -187500.02235174447, -10890.641616659357, -16584.748516648833, 12617.537393276381, -26190.321289339223, -25592.85916004886, 282.6154568929025, -9324.834862331732, -23815.984882829773, -40796.33692459309, 0.16, 1.006, 0.17, 192.0, 2.5, 0.0, 15.5, 56.0, 2.5, 40.0, 0.0, 0.0, 0.0, 1.696032583195303E9, 0.0, 2023-09-29 19:09:43.195
74.0, -51535.836045245655, -28281.684611044482, -43483.21777382109, -28693.895482289256, -11519.485595164966, -14807.226038840538, -187500.02235174447, -10878.281101975574, -16588.95064460643, 12597.44317501106, -26270.653458911594, -25587.897072779786, 295.2218407656957, -9346.538406197835, -23811.492182194255, -40810.03854394419, 0.16, 1.006, 0.17, 192.0, 0.0, 0.0, 0.0, 0.0, 0.0, 0.0, 0.0, 0.0, 0.0, 1.696032583255614E9, 0.0, 2023-09-29 19:09:43.255
76.0, -51531.946841710436, -28201.754772872304, -43494.19248034865, -28706.770087095512, -11529.096845280748, -14818.536021534923, -187500.02235174447, -10884.807811356523, -16584.23442652636, 12605.333340803783, -26187.594376515674, -25598.961186285163, 282.07901502597514, -9337.821225860265, -23810.598112416043, -40798.058008916145, 0.16, 1.006, 0.17, 192.0, 0.0, 0.0, 0.0, 0.0, 0.0, 0.0, 0.0, 0.0, 0.0, 1.696032583255626E9, 0.0, 2023-09-29 19:09:43.255
78.0, -51543.23447266036, -28302.695250832472, -43494.527756515476, -28704.289043460973, -11520.75964459892, -14813.752748221488, -187500.02235174447, -10879.733965365169, -16600.752365678833, 12573.34799448824, -26282.030496839347, -25600.324642696934, 288.3598552179164, -9354.51797896838, -23806.775964114186, -40811.35729686705, 0.16, 1.006, 0.17, 192.0, 0.0, 0.0, 0.0, 0.0, 0.0, 0.0, 0.0, 0.0, 0.0, 1.69603258325563E9, 0.0, 2023-09-29 19:09:43.255
80.0, -51535.52312082328, -28184.63333661954, -43505.86009095432, -28710.458124930636, -11531.823758104296, -14820.927658191642, -187500.02235174447, -10887.311206735518, -16584.48029571537, 12599.030148867387, -26189.94130968348, -25606.6948898667, 276.1110992564081, -9345.197301530518, -23814.017929317706, -40802.662468273935, 0.16, 1.006, 0.17, 192.0, 0.0, 0.0, 0.0, 0.0, 0.0, 0.0, 0.0, 0.0, 0.0, 1.696032583255634E9, 0.0, 2023-09-29 19:09:43.255
82.0, -51554.41034488802, -28312.373556181617, -43503.84843395334, -28720.605816913347, -11530.102673781237, -14826.157966394183, -187500.02235174447, -10889.948712581243, -16610.922409405997, 12582.311044014818, -26273.49213045742, -25600.771677586043, 280.58144814746953, -9369.04661286433, -23820.81285963212, -40825.01421272924, 0.162, 1.006, 0.17200000000000001, 192.0, 2.5, 8.0, 15.5, 56.0, 2.5, 48.0, 0.0, 0.0, 0.0, 1.696032583255637E9, 0.0, 2023-09-29 19:09:43.255
84.0, -51545.223777916886, -28152.15625192598, -43506.28477409897, -28694.655441600735, -11540.205662275037, -14825.867393716264, -187500.02235174447, -10895.49194520616, -16589.934121362465, 12610.11661411722, -26185.493312536873, -25598.469447907144, 277.04987252353106, -9346.583109686746, -23819.24823752025, -40803.89181421898, 0.162, 1.006, 0.17200000000000001, 192.0, 0.0, 0.0, 0.0, 0.0, 0.0, 0.0, 0.0, 0.0, 0.0, 1.69603258325564E9, 0.0, 2023-09-29 19:09:43.255
86.0, -51542.9662517269, -28298.22490194141, -43498.75223621753, -28712.715651120623, -11530.884984837174, -14824.593344282312, -187500.02235174447, -10887.288854991062, -16611.414147784013, 12581.595788192248, -26263.947935575, -25598.357689184868, 272.40070967682715, -9377.00383389042, -23824.500897467246, -40822.33200339461, 0.162, 1.006, 0.17200000000000001, 192.0, 0.0, 0.0, 0.0, 0.0, 0.0, 0.0, 0.0, 0.0, 0.0, 1.69603258325565E9, 0.0, 2023-09-29 19:09:43.255
88.0, -51543.43563836046, -28149.563449569163, -43497.92522167268, -28682.29492691695, -11534.461263950023, -14828.259030372981, -187500.02235174447, -10891.558038182025, -16592.03518534126, 12595.409166265628, -26198.099696409667, -25598.424744418237, 271.2384189651512, -9344.571452685768, -23816.968359585808, -40796.47103505982, 0.162, 1.006, 0.17200000000000001, 192.0, 0.0, 0.0, 0.0, 0.0, 0.0, 0.0, 0.0, 0.0, 0.0, 1.696032583255655E9, 0.0, 2023-09-29 19:09:43.255
90.0, -51526.15773989651, -28316.016890527833, -43495.6676954827, -28715.219046499617, -11528.493348180456, -14828.817823984364, -187500.02235174447, -10889.412270714316, -16602.004063368327, 12575.24789276694, -26265.177281520046, -25592.412125159757, 280.2238202361846, -9364.688022695545, -23820.61169393202, -40817.86165450355, 0.162, 1.006, 0.17200000000000001, 192.0, 0.0, 0.0, 0.0, 0.0, 0.0, 0.0, 0.0, 0.0, 0.0, 1.696032583315031E9, 0.0, 2023-09-29 19:09:43.315
92.0, -51535.992507456845, -28166.997810244302, -43506.37418107679, -28693.470799144605, -11527.6216301467, -14822.559335536878, -187500.02235174447, -10890.798078870544, -16578.199455523427, 12608.551992005348, -26206.526304069317, -25593.194436215694, 285.051797038531, -9347.968917842974, -23819.4717549648, -40808.540977065684, 0.162, 1.0, 0.17, 192.0, 2.5, 8.0, 15.5, 32.0, 2.5, 40.0, 0.0, 0.0, 0.0, 1.696032583315041E9, 0.0, 2023-09-29 19:09:43.315
94.0, -51537.42301910198, -28317.55916089525, -43520.03109693898, -28743.87398289132, -11535.064761050317, -14834.919850220664, -187500.02235174447, -10899.49290746366, -16603.054595357728, 12581.685195170068, -26253.755540103382, -25597.865950806852, 278.8603638244109, -9375.14863910063, -23829.462984736325, -40825.64006157399, 0.162, 1.0, 0.17, 192.0, 0.0, 0.0, 0.0, 0.0, 0.0, 0.0, 0.0, 0.0, 0.0, 1.696032583315045E9, 0.0, 2023-09-29 19:09:43.315
96.0, -51537.55712956872, -28143.52847856623, -43522.15451266224, -28697.181188724186, -11535.042409305861, -14830.136576907227, -187500.02235174447, -10898.44237547426, -16590.24704578484, 12597.510230244427, -26210.259045393355, -25604.996157288097, 271.70780559871264, -9369.605406475712, -23829.597095203055, -40812.72075327882, 0.162, 1.0, 0.17, 192.0, 0.0, 0.0, 0.0, 0.0, 0.0, 0.0, 0.0, 0.0, 0.0, 1.696032583315048E9, 0.0, 2023-09-29 19:09:43.315
98.0, -51537.445370846435, -28287.16078843603, -43523.048582440446, -28737.950770610663, -11535.042409305861, -14837.445597344113, -187500.02235174447, -10898.889410363367, -16610.43067102798, 12589.68711968507, -26241.260914952865, -25598.24593046259, 277.1839829902629, -9366.476162251969, -23833.44159524937, -40822.667279561436, 0.162, 1.0, 0.17, 192.0, 0.0, 0.0, 0.0, 0.0, 0.0, 0.0, 0.0, 0.0, 0.0, 1.696032583315051E9, 0.0, 2023-09-29 19:09:43.315
100.0, -51552.130466953575, -28150.85985074757, -43511.11275090132, -28684.574804851392, -11530.303839481336, -14827.990809439518, -187500.02235174447, -10893.636750416368, -16598.00310111083, 12593.039881353365, -26228.05103397978, -25592.5909391154, 274.3453114444389, -9354.294461523827, -23826.66901667941, -40802.528357807205, 0.162, 1.0, 0.17, 192.0, 0.0, 0.0, 0.0, 0.0, 0.0, 0.0, 0.0, 0.0, 0.0, 1.696032583315054E9, 0.0, 2023-09-29 19:09:43.315
102.0, -51538.18297841346, -28290.334736148685, -43500.89800368524, -28736.430851987705, -11533.746008127453, -14832.103530419296, -187500.02235174447, -10893.524991694092, -16613.694025718454, 12571.001061320432, -26243.2949236983, -25598.916482796252, 287.26461973960636, -9365.313871540293, -23829.015949847217, -40816.36408762504, 0.16, 1.0, 0.166, 192.0, 2.5, 0.0, 15.5, 32.0, 2.5, 24.0, 0.0, 0.0, 0.0, 1.696032583315058E9, 0.0, 2023-09-29 19:09:43.315
104.0, -51532.72915276637, -28190.802418089203, -43479.8650121528, -28680.14915944924, -11520.80434808783, -14816.233791856026, -187500.02235174447, -10879.82337234299, -16598.62894995558, 12591.810535408324, -26247.675865611538, -25600.63756711931, 295.6241721658912, -9350.986403344441, -23821.684577665877, -40802.461302573836, 0.16, 1.0, 0.166, 192.0, 0.0, 0.0, 0.0, 0.0, 0.0, 0.0, 0.0, 0.0, 0.0, 1.696032583374702E9, 0.0, 2023-09-29 19:09:43.374
106.0, -51524.19078638444, -28294.31334666173, -43478.92623888567, -28723.95857858164, -11527.778092357887, -14829.130748406738, -187500.02235174447, -10881.544456666048, -16604.14983083604, 12591.162334819119, -26225.74880430088, -25598.335337440414, 307.22472753819557, -9342.47038870697, -23826.557257957134, -40808.31745962113, 0.16, 1.0, 0.166, 192.0, 0.0, 0.0, 0.0, 0.0, 0.0, 0.0, 0.0, 0.0, 0.0, 1.696032583374715E9, 0.0, 2023-09-29 19:09:43.374
108.0, -51533.64557428904, -28212.863589866593, -43478.2109830631, -28673.95772623512, -11519.306781209325, -14819.31833259086, -187500.02235174447, -10869.742735593645, -16593.823324897687, 12612.284733329385, -26244.636028365618, -25597.709488595665, 317.0147916096201, -9320.453920418491, -23824.34443525606, -40806.79754099817, 0.16, 1.0, 0.166, 192.0, 0.0, 0.0, 0.0, 0.0, 0.0, 0.0, 0.0, 0.0, 0.0, 1.696032583374719E9, 0.0, 2023-09-29 19:09:43.374
110.0, -51538.94293772495, -28250.34746531814, -43505.97184967659, -28723.15391578125, -11526.682856879575, -14835.702161276598, -187500.02235174447, -10878.236398486662, -16600.685310445468, 12608.864916427723, -26204.313481368245, -25605.19732298819, 319.7417044331675, -9307.13228072313, -23826.37844400149, -40814.30772713515, 0.16, 1.0, 0.166, 192.0, 0.0, 0.0, 0.0, 0.0, 0.0, 0.0, 0.0, 0.0, 0.0, 1.696032583374722E9, 0.0, 2023-09-29 19:09:43.374
112.0, -51552.8680745206, -28212.9082933555, -43508.76581773351, -28686.184130452173, -11511.617781116698, -14813.305713332382, -187500.02235174447, -10857.538683121049, -16610.229505327883, 12603.388739036172, -26263.456197196985, -25608.863009078865, 321.93217538978763, -9306.327617922738, -23826.44549923486, -40825.14832319598, 0.164, 1.008, 0.17, 192.0, 2.5, 16.0, 15.5, 64.0, 2.5, 40.0, 0.0, 0.0, 0.0, 1.696032583374725E9, 0.0, 2023-09-29 19:09:43.374
114.0, -51537.42301910198, -28240.199773335433, -43525.52962607499, -28728.69714840617, -11521.85488007723, -14820.279457602437, -187500.02235174447, -10856.041116242543, -16602.361691279613, 12602.584076235782, -26209.990824459892, -25605.331433454925, 321.1051608449413, -9288.64738805859, -23825.372615501, -40823.47194236183, 0.164, 1.008, 0.17, 192.0, 0.0, 0.0, 0.0, 0.0, 0.0, 0.0, 0.0, 0.0, 0.0, 1.696032583374728E9, 0.0, 2023-09-29 19:09:43.374
116.0, -51531.25393763232, -28250.503927529327, -43518.24295738256, -28700.511598648027, -11505.962789769506, -14799.224114325538, -187500.02235174447, -10842.04892421352, -16598.919522633496, 12603.232276824985, -26274.47560721345, -25605.487895666112, 320.8816434003882, -9295.755242795378, -23826.28903702367, -40831.540922110195, 0.164, 1.008, 0.17, 192.0, 0.0, 0.0, 0.0, 0.0, 0.0, 0.0, 0.0, 0.0, 0.0, 1.696032583374731E9, 0.0, 2023-09-29 19:09:43.374
118.0, -51531.47745507687, -28214.897598612024, -43539.477114615096, -28737.146107810273, -11520.603182387733, -14803.336835305314, -187500.02235174447, -10843.837063769945, -16580.635795669055, 12612.530602518393, -26196.289205108787, -25608.460677678668, 320.2781463000949, -9276.197466396985, -23829.798260903153, -40819.381573126506, 0.164, 1.008, 0.17, 192.0, 0.0, 0.0, 0.0, 0.0, 0.0, 0.0, 0.0, 0.0, 0.0, 1.696032583374734E9, 0.0, 2023-09-29 19:09:43.374
120.0, -51541.24516740384, -28245.050101882232, -43532.346908133855, -28718.750622123556, -11507.99679851494, -14792.026852610928, -187500.02235174447, -10835.321049132473, -16595.365595265102, 12604.394567536661, -26272.352191490198, -25603.92327355424, 316.6571636983352, -9294.727062550433, -23829.395929502956, -40823.40488712846, 0.164, 1.008, 0.17, 192.0, 0.0, 0.0, 0.0, 0.0, 0.0, 0.0, 0.0, 0.0, 0.0, 1.696032583434992E9, 0.0, 2023-09-29 19:09:43.434
122.0, -51534.87492023408, -28188.09785701011, -43542.204027438645, -28740.320055522927, -11507.549763625833, -14788.137649075707, -187500.02235174447, -10836.013953210588, -16596.550237721236, 12614.16227986363, -26185.314498581232, -25598.603558373878, 315.2490037976508, -9269.626053527123, -23829.86531613652, -40810.79850325567, 0.16, 0.994, 0.168, 192.0, 2.5, 0.0, 15.5, 8.0, 2.5, 32.0, 0.0, 0.0, 0.0, 1.696032583435E9, 0.0, 2023-09-29 19:09:43.435
124.0, -51535.836045245655, -28255.44366305395, -43536.07964945789, -28726.84195361638, -11494.429289630567, -14786.595378708289, -187500.02235174447, -10838.606755567404, -16596.729051676877, 12604.126346603198, -26268.10536004369, -25591.518055381544, 324.34616379096076, -9289.563809581257, -23818.845906120052, -40817.92870973691, 0.16, 0.994, 0.168, 192.0, 0.0, 0.0, 0.0, 0.0, 0.0, 0.0, 0.0, 0.0, 0.0, 1.696032583435004E9, 0.0, 2023-09-29 19:09:43.435
126.0, -51529.264632375794, -28149.965780969356, -43544.99799549556, -28742.39876775727, -11502.297103678835, -14791.401003766181, -187500.02235174447, -10848.48622661665, -16577.99828982333, 12612.195326351562, -26171.769341441315, -25591.607462359367, 311.67272468480166, -9271.503600061369, -23819.270589264703, -40807.490445076284, 0.16, 0.994, 0.168, 192.0, 0.0, 0.0, 0.0, 0.0, 0.0, 0.0, 0.0, 0.0, 0.0, 1.696032583435007E9, 0.0, 2023-09-29 19:09:43.435
128.0, -51540.26169064781, -28278.488311587374, -43537.06312621393, -28755.183965585707, -11492.618798329688, -14786.796544408387, -187500.02235174447, -10845.37933413736, -16588.95064460643, 12586.021433594398, -26267.90419434359, -25591.428648403722, 327.78833243707805, -9291.709577048967, -23815.4707927073, -40824.94715749588, 0.16, 0.994, 0.168, 192.0, 0.0, 0.0, 0.0, 0.0, 0.0, 0.0, 0.0, 0.0, 0.0, 1.69603258343501E9, 0.0, 2023-09-29 19:09:43.435
130.0, -51546.050792461734, -28123.031928900713, -43552.3293676769, -28756.189794086196, -11505.158126969114, -14792.965625878052, -187500.02235174447, -10855.10234297542, -16580.255816013316, 12603.701663458547, -26179.234824089388, -25600.704622352678, 313.5949747079581, -9282.567713566747, -23817.460097963824, -40811.08907593359, 0.16, 0.994, 0.168, 192.0, 0.0, 0.0, 0.0, 0.0, 0.0, 0.0, 0.0, 0.0, 0.0, 1.696032583435013E9, 0.0, 2023-09-29 19:09:43.435
132.0, -51550.00705123032, -28284.03154421229, -43543.99216699507, -28781.000230431586, -11491.076527962272, -14789.746974676487, -187500.02235174447, -10848.19565393873, -16605.893266903553, 12571.559854931815, -26275.570842691763, -25611.88049458033, 309.63871593936875, -9303.93598126602, -23826.75842365723, -40831.63032908802, 0.154, 0.99, 0.176, 192.0, 2.0, 104.0, 15.0, 120.0, 2.5, 64.0, 0.0, 0.0, 0.0, 1.696032583435017E9, 0.0, 2023-09-29 19:09:43.435
134.0, -51551.25874891982, -28133.67135926144, -43548.060184485934, -28752.993494629085, -11503.66056009061, -14799.224114325538, -187500.02235174447, -10860.712630833701, -16576.99246132284, 12613.40232055215, -26202.2347691339, -25612.5957504029, 307.82822463848885, -9280.421946099037, -23824.5232492117, -40813.011325956744, 0.154, 0.99, 0.176, 192.0, 0.0, 0.0, 0.0, 0.0, 0.0, 0.0, 0.0, 0.0, 0.0, 1.696032583495392E9, 0.0, 2023-09-29 19:09:43.495
136.0, -51544.62028081659, -28296.928500763002, -43540.37118439331, -28771.947773927186, -11498.22908618797, -14792.719756689045, -187500.02235174447, -10852.844816785433, -16599.075984844683, 12570.174046775586, -26274.565014191274, -25612.21577074716, 299.3345617454722, -9299.465632374959, -23833.598057460556, -40835.810105301156, 0.154, 0.99, 0.176, 192.0, 0.0, 0.0, 0.0, 0.0, 0.0, 0.0, 0.0, 0.0, 0.0, 1.696032583495404E9, 0.0, 2023-09-29 19:09:43.495
138.0, -51538.67471679148, -28149.00465595778, -43537.89014075877, -28732.653407174756, -11498.60906584371, -14782.996747850984, -187500.02235174447, -10845.580499837459, -16577.528903189766, 12614.855183941745, -26205.676937780016, -25599.564683385455, 303.6260966808911, -9274.74460300739, -23819.71762415381, -40804.22709038581, 0.154, 0.99, 0.176, 192.0, 0.0, 0.0, 0.0, 0.0, 0.0, 0.0, 0.0, 0.0, 0.0, 1.696032583495408E9, 0.0, 2023-09-29 19:09:43.495
140.0, -51541.155760426016, -28285.93144249099, -43538.04660296996, -28761.755378455568, -11509.829641560274, -14794.97728287903, -187500.02235174447, -10851.48136037366, -16594.493877231347, 12593.531619731382, -26256.124825015646, -25598.424744418237, 299.96041059022076, -9293.698882305489, -23826.490202723766, -40815.09003819109, 0.154, 0.99, 0.176, 192.0, 0.0, 0.0, 0.0, 0.0, 0.0, 0.0, 0.0, 0.0, 0.0, 1.696032583495411E9, 0.0, 2023-09-29 19:09:43.495
142.0, -51538.29473713574, -28108.100963604567, -43534.60443432384, -28720.136430279785, -11510.433138660568, -14803.873277172243, -187500.02235174447, -10862.321956434484, -16583.519170703792, 12606.316817559817, -26202.815914489736, -25600.68227060822, 297.32290474449456, -9292.581295082724, -23826.087871323572, -40806.104636920056, 0.16, 0.996, 0.17400000000000002, 192.0, 2.5, 0.0, 15.5, 16.0, 2.5, 56.0, 0.0, 0.0, 0.0, 1.696032583495414E9, 0.0, 2023-09-29 19:09:43.495
144.0, -51530.33751610965, -28267.31243935972, -43522.065105684414, -28752.88173590681, -11504.04053974635, -14798.777079436431, -187500.02235174447, -10851.280194673562, -16602.071118601696, 12585.44028823856, -26247.206478977976, -25597.26245370656, 296.45118671073755, -9308.071053990252, -23834.760348172233, -40827.09292496359, 0.16, 0.996, 0.17400000000000002, 192.0, 0.0, 0.0, 0.0, 0.0, 0.0, 0.0, 0.0, 0.0, 0.0, 1.696032583495417E9, 0.0, 2023-09-29 19:09:43.495
146.0, -51536.93128072397, -28151.396292614496, -43508.296431099945, -28695.258938701027, -11496.463298376, -14788.137649075707, -187500.02235174447, -10839.746694534624, -16578.5123799458, 12614.765776963923, -26226.039376978802, -25579.403409886767, 311.3821520068827, -9262.160570879052, -23810.732222882776, -40794.615840270024, 0.16, 0.996, 0.17400000000000002, 192.0, 0.0, 0.0, 0.0, 0.0, 0.0, 0.0, 0.0, 0.0, 0.0, 1.69603258349542E9, 0.0, 2023-09-29 19:09:43.495
148.0, -51525.353077096115, -28282.556329078237, -43517.43829458216, -28752.92643939572, -11507.192135714547, -14808.92477141914, -187500.02235174447, -10852.755409807613, -16597.109031332617, 12588.077794084287, -26231.068519481247, -25590.601633858878, 301.2568117686286, -9294.54824859479, -23827.540734713166, -40810.53028232221, 0.16, 0.996, 0.17400000000000002, 192.0, 0.0, 0.0, 0.0, 0.0, 0.0, 0.0, 0.0, 0.0, 0.0, 1.696032583495423E9, 0.0, 2023-09-29 19:09:43.495
150.0, -51532.48328357736, -28156.80541477268, -43513.5714427914, -28702.836180071376, -11500.061929233305, -14801.392233537703, -187500.02235174447, -10845.535796348548, -16581.552217191722, 12604.506326258937, -26229.66035958056, -25589.39463965829, 299.0886925564638, -9295.59878058419, -23820.499935209744, -40800.74021825078, 0.16, 0.996, 0.17400000000000002, 192.0, 0.0, 0.0, 0.0, 0.0, 0.0, 0.0, 0.0, 0.0, 0.0, 1.696032583555565E9, 0.0, 2023-09-29 19:09:43.555
152.0, -51524.459007317906, -28292.54755884976, -43520.94751846165, -28752.211183573152, -11510.634304360665, -14807.874239429742, -187500.02235174447, -10852.777761552068, -16592.973958608385, 12591.810535408324, -26228.00633049087, -25589.6405088473, 297.0770355554862, -9302.55017310979, -23827.80895564663, -40815.76059052475, 0.164, 0.998, 0.166, 192.0, 2.5, 16.0, 15.5, 24.0, 2.5, 24.0, 0.0, 0.0, 0.0, 1.696032583555579E9, 0.0, 2023-09-29 19:09:43.555
154.0, -51538.697068535934, -28166.617830588562, -43522.84741674035, -28693.627261355792, -11510.679007849576, -14793.770288678443, -187500.02235174447, -10848.732095805657, -16585.776696893776, 12606.696797215558, -26241.01504576386, -25592.63564260431, 294.5959919209471, -9291.128431693129, -23823.09273756656, -40801.72369500681, 0.164, 0.998, 0.166, 192.0, 0.0, 0.0, 0.0, 0.0, 0.0, 0.0, 0.0, 0.0, 0.0, 1.696032583555585E9, 0.0, 2023-09-29 19:09:43.555
156.0, -51538.652365047026, -28237.83048842317, -43529.95527147714, -28746.265619548038, -11519.664409120609, -14805.92963766213, -187500.02235174447, -10859.349174421928, -16597.846638899642, 12577.192494534553, -26212.717737283438, -25593.4403054047, 284.15772726031867, -9295.531725350826, -23827.943066113363, -40811.7819800117, 0.164, 0.998, 0.166, 192.0, 0.0, 0.0, 0.0, 0.0, 0.0, 0.0, 0.0, 0.0, 0.0, 1.69603258355559E9, 0.0, 2023-09-29 19:09:43.555
158.0, -51556.84668503365, -28145.42837684493, -43524.032059196485, -28706.85949407333, -11507.28154269237, -14802.554524249379, -187500.02235174447, -10856.555206365014, -16593.84567664214, 12585.239122538464, -26251.38625519112, -25598.804724073976, 287.6669511398019, -9300.538516108814, -23819.60586543153, -40810.23970964429, 0.164, 0.998, 0.166, 192.0, 0.0, 0.0, 0.0, 0.0, 0.0, 0.0, 0.0, 0.0, 0.0, 1.696032583555596E9, 0.0, 2023-09-29 19:09:43.555
160.0, -51530.315164365195, -28200.68188913845, -43533.15157093425, -28762.58239300041, -11517.295124208347, -14817.038454656418, -187500.02235174447, -10871.128543749875, -16604.172182580493, 12583.719203915502, -26212.829496005714, -25609.131230012328, 275.2840847115618, -9310.395635413604, -23832.905153382442, -40824.544826095684, 0.164, 0.998, 0.166, 192.0, 0.0, 0.0, 0.0, 0.0, 0.0, 0.0, 0.0, 0.0, 0.0, 1.6960325835556E9, 0.0, 2023-09-29 19:09:43.555
162.0, -51540.10522843662, -28211.880113110557, -43516.00778293703, -28716.448392444658, -11508.220315959492, -14796.363091035259, -187500.02235174447, -10852.464837129693, -16592.504571974823, 12576.410183478616, -26277.694258415017, -25595.697831594687, 292.5172796866035, -9305.053568488785, -23823.830345133585, -40817.481674847804, 0.168, 1.0, 0.166, 192.0, 2.5, 32.0, 15.5, 32.0, 2.5, 24.0, 0.0, 0.0, 0.0, 1.696032583555603E9, 0.0, 2023-09-29 19:09:43.555
164.0, -51532.32682136617, -28227.72749992937, -43529.64234705477, -28746.243267803584, -11524.313571967314, -14814.959742422074, -187500.02235174447, -10867.954596037222, -16587.967167850395, 12605.534506503882, -26211.667205294038, -25594.669651349745, 290.1703465187963, -9299.845612030698, -23829.306522525138, -40810.7314480223, 0.168, 1.0, 0.166, 192.0, 0.0, 0.0, 0.0, 0.0, 0.0, 0.0, 0.0, 0.0, 0.0, 1.69603258361606E9, 0.0, 2023-09-29 19:09:43.616
166.0, -51537.49007433535, -28204.280519995755, -43521.34984986184, -28707.10536326234, -11517.786862586363, -14812.366940065258, -187500.02235174447, -10864.24420645764, -16593.979787108874, 12579.941759102556, -26268.172415277055, -25595.898997294786, 287.8010616065337, -9318.12933899514, -23829.395929502956, -40811.53611082269, 0.168, 1.0, 0.166, 192.0, 0.0, 0.0, 0.0, 0.0, 0.0, 0.0, 0.0, 0.0, 0.0, 1.696032583616072E9, 0.0, 2023-09-29 19:09:43.616
168.0, -51526.02362942978, -28173.323353925152, -43523.13798941827, -28726.39491872727, -11525.341752212258, -14818.290152345915, -187500.02235174447, -10863.953633779722, -16585.106144560115, 12590.692948185559, -26194.389306830086, -25594.200264716183, 286.95169531723207, -9291.843687515699, -23832.61458070452, -40809.658564288446, 0.168, 1.0, 0.166, 192.0, 0.0, 0.0, 0.0, 0.0, 0.0, 0.0, 0.0, 0.0, 0.0, 1.696032583616075E9, 0.0, 2023-09-29 19:09:43.616
170.0, -51522.15677763901, -28225.984063861855, -43513.549091046945, -28703.104401004843, -11513.450624162035, -14812.009312153974, -187500.02235174447, -10857.113999976398, -16585.195551537938, 12588.055442339832, -26270.117017044668, -25581.10214246537, 287.8010616065337, -9304.494774877403, -23825.43967073437, -40816.20762541385, 0.168, 1.0, 0.166, 192.0, 0.0, 0.0, 0.0, 0.0, 0.0, 0.0, 0.0, 0.0, 0.0, 1.696032583616078E9, 0.0, 2023-09-29 19:09:43.616
172.0, -51531.075123676674, -28152.37976937053, -43525.70844003063, -28720.6281686578, -11518.546821897844, -14822.089948903316, -187500.02235174447, -10861.316127933995, -16586.13432480506, 12599.410128523128, -26181.51470202383, -25578.419933130735, 298.0605123115197, -9292.022501471341, -23822.690406166366, -40809.032715443696, 0.164, 1.002, 0.164, 192.0, 2.5, 16.0, 15.5, 40.0, 2.5, 16.0, 0.0, 0.0, 0.0, 1.696032583616082E9, 0.0, 2023-09-29 19:09:43.616
174.0, -51534.941975467445, -28256.181270620975, -43519.494655072056, -28725.00911057104, -11503.347635668235, -14815.764405222466, -187500.02235174447, -10854.141217963841, -16599.18774356696, 12576.410183478616, -26270.049961811303, -25582.912633766253, 299.4016169788381, -9306.372321411649, -23827.607789946534, -40826.55648309666, 0.164, 1.002, 0.164, 192.0, 0.0, 0.0, 0.0, 0.0, 0.0, 0.0, 0.0, 0.0, 0.0, 1.696032583616085E9, 0.0, 2023-09-29 19:09:43.616
176.0, -51539.94876622543, -28126.742318480294, -43536.683146558185, -28732.519296708026, -11518.904449809128, -14828.46019607308, -187500.02235174447, -10870.301529205028, -16583.206246281417, 12594.895076143155, -26182.967565413426, -25593.619119360344, 295.244192510151, -9296.738719551411, -23823.875048622496, -40809.47975033281, 0.164, 1.002, 0.164, 192.0, 0.0, 0.0, 0.0, 0.0, 0.0, 0.0, 0.0, 0.0, 0.0, 1.696032583616088E9, 0.0, 2023-09-29 19:09:43.616
178.0, -51529.622260287084, -28263.177366635486, -43527.0718964424, -28743.27048579103, -11507.817984559297, -14817.306675589882, -187500.02235174447, -10860.355002922417, -16595.119726076096, 12565.502532184426, -26283.237491039934, -25597.01658451755, 296.8088146220225, -9319.045760517807, -23830.75938591473, -40829.28339592021, 0.164, 1.002, 0.164, 192.0, 0.0, 0.0, 0.0, 0.0, 0.0, 0.0, 0.0, 0.0, 0.0, 1.696032583616091E9, 0.0, 2023-09-29 19:09:43.616
180.0, -51541.222815659385, -28117.533399764707, -43532.65983255623, -28732.92162810822, -11517.876269564185, -14818.647780257199, -187500.02235174447, -10867.8651890594, -16576.344260733636, 12588.927160373589, -26195.37278358612, -25604.3926601878, 292.80785236452255, -9301.566696353757, -23826.601961446046, -40808.608032299046, 0.164, 1.002, 0.164, 192.0, 0.0, 0.0, 0.0, 0.0, 0.0, 0.0, 0.0, 0.0, 0.0, 1.696032583674711E9, 0.0, 2023-09-29 19:09:43.674
182.0, -51539.59113831415, -28262.752683490835, -43519.87463472779, -28748.925477138222, -11506.700397336532, -14806.801355695887, -187500.02235174447, -10850.497883617627, -16605.826211670188, 12575.985500333965, -26264.976115819947, -25602.73863109811, 288.0245790510868, -9312.362588925671, -23830.111185325528, -40824.25425341776, 0.158, 1.0, 0.164, 192.0, 2.0, 120.0, 15.5, 32.0, 2.5, 16.0, 0.0, 0.0, 0.0, 1.69603258367472E9, 0.0, 2023-09-29 19:09:43.674
184.0, -51547.90598725152, -28119.03096664321, -43525.44021909717, -28723.578598925902, -11509.762586326908, -14804.40971903917, -187500.02235174447, -10852.397781896327, -16575.539597933246, 12591.162334819119, -26197.093867909178, -25591.16042747026, 300.20627977922913, -9286.367510124148, -23818.354167742036, -40799.26500311673, 0.158, 1.0, 0.164, 192.0, 0.0, 0.0, 0.0, 0.0, 0.0, 0.0, 0.0, 0.0, 0.0, 1.696032583674723E9, 0.0, 2023-09-29 19:09:43.674
186.0, -51545.290833150255, -28261.88096545708, -43533.71036454563, -28760.34721855488, -11516.579868385777, -14816.010274411474, -187500.02235174447, -10858.455104643715, -16608.933104149473, 12568.20709326352, -26261.66805764056, -25598.380040929325, 295.73593088816773, -9308.65219934609, -23834.6262377055, -40821.99672722778, 0.158, 1.0, 0.164, 192.0, 0.0, 0.0, 0.0, 0.0, 0.0, 0.0, 0.0, 0.0, 0.0, 1.696032583674726E9, 0.0, 2023-09-29 19:09:43.674
188.0, -51542.54156858225, -28100.434315256396, -43533.44214361216, -28720.650520402258, -11515.775205585385, -14810.556448764379, -187500.02235174447, -10856.130523220363, -16585.4637724714, 12584.702680671535, -26204.916978468536, -25595.5413693835, 295.3783029768828, -9290.860210759665, -23830.222944047804, -40805.814064242135, 0.158, 1.0, 0.164, 192.0, 0.0, 0.0, 0.0, 0.0, 0.0, 0.0, 0.0, 0.0, 0.0, 1.696032583674729E9, 0.0, 2023-09-29 19:09:43.674
190.0, -51530.315164365195, -28258.818776466702, -43534.38091687929, -28760.146052854783, -11517.339827697257, -14821.329989591837, -187500.02235174447, -10860.332651177961, -16597.511362732814, 12563.088543783253, -26260.326952973242, -25597.19539847319, 297.0770355554862, -9314.553059882292, -23835.65441795044, -40823.38253538401, 0.158, 1.0, 0.164, 192.0, 0.0, 0.0, 0.0, 0.0, 0.0, 0.0, 0.0, 0.0, 0.0, 1.696032583674732E9, 0.0, 2023-09-29 19:09:43.674
192.0, -51532.0138969438, -28105.0834781031, -43527.49657958705, -28716.716613378125, -11508.4661851485, -14812.344588320804, -187500.02235174447, -10851.928395262767, -16581.70867940291, 12593.553971475838, -26214.95291172897, -25589.57345361393, 293.88073609837727, -9296.336388151216, -23831.04995859265, -40810.88791023349, 0.158, 1.006, 0.162, 192.0, 2.0, 120.0, 15.5, 56.0, 2.5, 8.0, 0.0, 0.0, 0.0, 1.696032583674736E9, 0.0, 2023-09-29 19:09:43.674
194.0, -51536.57365281268, -28249.095767628645, -43528.10007668735, -28764.370532556837, -11518.815042831307, -14831.83530948583, -187500.02235174447, -10865.540607636049, -16595.544409220747, 12582.109878314719, -26246.446519666497, -25585.706601823164, 287.3763784618829, -9306.08174873373, -23834.827403405598, -40830.624500587524, 0.158, 1.006, 0.162, 192.0, 0.0, 0.0, 0.0, 0.0, 0.0, 0.0, 0.0, 0.0, 0.0, 1.696032583735129E9, 0.0, 2023-09-29 19:09:43.735
196.0, -51533.310298122204, -28092.231225041298, -43517.527701559986, -28708.893502818766, -11512.51185089491, -14819.765367479966, -187500.02235174447, -10856.28698543155, -16576.299557244725, 12596.057366854831, -26214.550580328774, -25585.371325656335, 293.16548027580745, -9296.336388151216, -23829.597095203055, -40817.45932310335, 0.158, 1.006, 0.162, 192.0, 0.0, 0.0, 0.0, 0.0, 0.0, 0.0, 0.0, 0.0, 0.0, 1.696032583735141E9, 0.0, 2023-09-29 19:09:43.735
198.0, -51525.88951896304, -28224.642959194538, -43524.74731501905, -28755.40748303026, -11526.884022579674, -14832.572917052856, -187500.02235174447, -10869.608625126913, -16590.269397529293, 12575.449058467038, -26224.675920567028, -25580.051610475974, 284.89533482734385, -9311.870850547653, -23838.783662174184, -40832.01030874375, 0.158, 1.006, 0.162, 192.0, 0.0, 0.0, 0.0, 0.0, 0.0, 0.0, 0.0, 0.0, 0.0, 1.696032583735145E9, 0.0, 2023-09-29 19:09:43.735
200.0, -51517.97700142587, -28117.712213720348, -43513.50438755803, -28694.186054967173, -11515.082301507271, -14815.853812200286, -187500.02235174447, -10858.075124987976, -16571.113952531094, 12583.361576004218, -26223.0889467107, -25578.598747086377, 289.34333197394994, -9304.22655394394, -23831.072310337106, -40814.01715445723, 0.158, 1.006, 0.162, 192.0, 0.0, 0.0, 0.0, 0.0, 0.0, 0.0, 0.0, 0.0, 0.0, 1.696032583735148E9, 0.0, 2023-09-29 19:09:43.735
202.0, -51518.647553759525, -28210.650767165516, -43524.3226318744, -28740.40946250075, -11528.940383069561, -14833.377579853248, -187500.02235174447, -10871.597930383436, -16591.14111556305, 12575.650224167137, -26210.795487260282, -25583.06909597744, 286.63877089485777, -9312.094367992207, -23834.335665027582, -40817.97341322582, 0.168, 1.012, 0.166, 192.0, 2.5, 32.0, 15.5, 80.0, 2.5, 24.0, 0.0, 0.0, 0.0, 1.696032583735152E9, 0.0, 2023-09-29 19:09:43.735
204.0, -51531.83508298815, -28161.119301452556, -43502.17205311919, -28685.73709556307, -11502.364158912202, -14804.253256827982, -187500.02235174447, -10843.121807947375, -16585.41906898249, 12576.767811389902, -26245.932429544024, -25577.950546497173, 295.11008204341914, -9302.88544927662, -23819.516458453712, -40809.14447416597, 0.168, 1.012, 0.166, 192.0, 0.0, 0.0, 0.0, 0.0, 0.0, 0.0, 0.0, 0.0, 0.0, 1.696032583735155E9, 0.0, 2023-09-29 19:09:43.735
206.0, -51534.27142313378, -28216.328110257164, -43523.115637673814, -28736.31909326543, -11519.217374231503, -14824.280419859937, -187500.02235174447, -10858.946843021733, -16584.167371292995, 12586.289654527862, -26203.62057729013, -25582.59970934388, 289.9021255853326, -9297.990417240908, -23819.85173462054, -40806.55167180916, 0.168, 1.012, 0.166, 192.0, 0.0, 0.0, 0.0, 0.0, 0.0, 0.0, 0.0, 0.0, 0.0, 1.696032583735158E9, 0.0, 2023-09-29 19:09:43.735
208.0, -51535.34430686764, -28189.416609932974, -43500.60743100732, -28695.884787545776, -11499.011397243905, -14806.711948718066, -187500.02235174447, -10842.674773058268, -16579.987595079852, 12581.036994580865, -26256.86243258267, -25590.758096070065, 290.1256430298857, -9311.468519147458, -23818.085946808573, -40811.53611082269, 0.168, 1.012, 0.166, 192.0, 0.0, 0.0, 0.0, 0.0, 0.0, 0.0, 0.0, 0.0, 0.0, 1.696032583735161E9, 0.0, 2023-09-29 19:09:43.735
210.0, -51538.495902835835, -28199.497246682316, -43521.48396032858, -28742.599933457368, -11523.71007486702, -14836.12684442125, -187500.02235174447, -10871.843799572445, -16582.75921139231, 12579.651186424637, -26200.491333066388, -25599.899959552284, 287.309323228517, -9313.726045337444, -23822.221019532804, -40811.87138698952, 0.168, 1.012, 0.166, 192.0, 0.0, 0.0, 0.0, 0.0, 0.0, 0.0, 0.0, 0.0, 0.0, 1.696032583795348E9, 0.0, 2023-09-29 19:09:43.795
212.0, -51537.870053991086, -28205.889845596535, -43509.1681491337, -28712.894465076264, -11508.935571782062, -14824.325123348848, -187500.02235174447, -10863.10426749042, -16585.933159104963, 12552.806741333812, -26272.44159846802, -25603.945625298697, 286.4823086836706, -9330.46750193447, -23827.42897599089, -40829.90924476495, 0.16, 1.006, 0.164, 192.0, 2.5, 0.0, 15.5, 56.0, 2.5, 16.0, 0.0, 0.0, 0.0, 1.69603258379536E9, 0.0, 2023-09-29 19:09:43.795
214.0, -51531.365696354595, -28201.263034494288, -43525.507274330535, -28745.572715469923, -11521.318438210303, -14840.17251016766, -187500.02235174447, -10880.024538043088, -16576.27720550027, 12548.33639244275, -26207.688594780993, -25604.750288099087, 288.3151517290058, -9323.672571620056, -23829.15006031395, -40823.24842491728, 0.16, 1.006, 0.164, 192.0, 0.0, 0.0, 0.0, 0.0, 0.0, 0.0, 0.0, 0.0, 0.0, 1.696032583795363E9, 0.0, 2023-09-29 19:09:43.795
216.0, -51543.34623138264, -28234.388319777052, -43510.017515423, -28714.43673544368, -11508.287371192859, -14826.984980939029, -187500.02235174447, -10865.317090191495, -16582.245121269836, 12544.67070635208, -26282.0528485838, -25600.63756711931, 290.43856745226, -9326.265373976872, -23827.317217268614, -40830.19981744287, 0.16, 1.006, 0.164, 192.0, 0.0, 0.0, 0.0, 0.0, 0.0, 0.0, 0.0, 0.0, 0.0, 1.696032583795366E9, 0.0, 2023-09-29 19:09:43.795
218.0, -51538.920585980486, -28189.215444232876, -43518.287660871465, -28732.854572874854, -11520.133795754171, -14832.863489730775, -187500.02235174447, -10866.68054660327, -16577.37244097858, 12580.120573058197, -26197.60795803165, -25596.30132869498, 284.6718173827908, -9307.534612123325, -23822.846868377554, -40814.21832015733, 0.16, 1.006, 0.164, 192.0, 0.0, 0.0, 0.0, 0.0, 0.0, 0.0, 0.0, 0.0, 0.0, 1.696032583795369E9, 0.0, 2023-09-29 19:09:43.795
220.0, -51537.7135917799, -28243.44077628145, -43512.90089045774, -28719.19765701266, -11520.960810299017, -14828.951934451097, -187500.02235174447, -10864.154799479818, -16594.94091212045, 12574.040898566354, -26283.28219452884, -25596.122514739338, 277.96629404619864, -9323.672571620056, -23828.747728913753, -40824.56717784014, 0.16, 1.006, 0.164, 192.0, 0.0, 0.0, 0.0, 0.0, 0.0, 0.0, 0.0, 0.0, 0.0, 1.696032583795372E9, 0.0, 2023-09-29 19:09:43.795
222.0, -51527.36473409709, -28134.81129822866, -43514.733733503075, -28716.850723844855, -11528.113368524715, -14832.148233908205, -187500.02235174447, -10874.39189844035, -16573.99732756583, 12598.538410489371, -26189.13664688309, -25595.474314150135, 272.534820143559, -9308.138109223617, -23834.46977549431, -40809.725619521814, 0.152, 1.004, 0.164, 192.0, 2.0, 96.0, 15.5, 48.0, 2.5, 16.0, 0.0, 0.0, 0.0, 1.696032583795376E9, 0.0, 2023-09-29 19:09:43.795
224.0, -51523.3637718396, -28241.652636725026, -43501.166224618704, -28713.58736915438, -11509.963752027006, -14822.089948903316, -187500.02235174447, -10865.562959380504, -16584.837923626652, 12551.018601777389, -26272.128674045645, -25583.471427377634, 285.52118367209243, -9322.152652997096, -23828.255990535738, -40816.8334742586, 0.152, 1.004, 0.164, 192.0, 0.0, 0.0, 0.0, 0.0, 0.0, 0.0, 0.0, 0.0, 0.0, 1.696032583855574E9, 0.0, 2023-09-29 19:09:43.855
226.0, -51530.22575738737, -28121.89198993349, -43508.09526539985, -28706.233645228585, -11517.22806897498, -14829.846004229308, -187500.02235174447, -10867.462857659204, -16570.08577228615, 12577.304253256829, -26192.779981229305, -25585.594843100887, 288.15868951781863, -9308.629847601635, -23815.984882829773, -40796.67220075992, 0.152, 1.004, 0.164, 192.0, 0.0, 0.0, 0.0, 0.0, 0.0, 0.0, 0.0, 0.0, 0.0, 1.696032583855586E9, 0.0, 2023-09-29 19:09:43.855
228.0, -51539.63584180306, -28240.15506984652, -43506.687105499164, -28716.40368895575, -11512.42244391709, -14828.683713517632, -187500.02235174447, -10859.595043610936, -16596.90786563252, 12555.801875090823, -26273.223909523957, -25595.29550019449, 277.1392795013523, -9345.33141199725, -23825.462022478823, -40815.827645758116, 0.152, 1.004, 0.164, 192.0, 0.0, 0.0, 0.0, 0.0, 0.0, 0.0, 0.0, 0.0, 0.0, 1.696032583855589E9, 0.0, 2023-09-29 19:09:43.855
230.0, -51534.383181856065, -28112.41485028444, -43510.397495078745, -28697.471761402103, -11518.099787008738, -14827.74494025051, -187500.02235174447, -10858.05277324352, -16576.6124816671, 12579.628834680181, -26199.0831731657, -25591.987442015106, 277.921590557288, -9314.642466860112, -23820.075252065093, -40796.64984901546, 0.152, 1.004, 0.164, 192.0, 0.0, 0.0, 0.0, 0.0, 0.0, 0.0, 0.0, 0.0, 0.0, 1.696032583855592E9, 0.0, 2023-09-29 19:09:43.855
232.0, -51525.39778058503, -28283.964488978923, -43502.30616358593, -28724.40561347075, -11512.198926472536, -14827.342608850315, -187500.02235174447, -10852.174264451774, -16591.52109521879, 12560.227520492974, -26281.29288927232, -25589.931081525217, 283.71069237121253, -9346.091371308728, -23825.842002134563, -40818.196930670376, 0.152, 1.006, 0.164, 192.0, 2.0, 96.0, 15.5, 56.0, 2.5, 16.0, 0.0, 0.0, 0.0, 1.696032583855596E9, 0.0, 2023-09-29 19:09:43.855
234.0, -51534.47258883388, -28131.14561213799, -43510.28573635647, -28706.032479528487, -11520.737292854465, -14835.165719409672, -187500.02235174447, -10864.378316924372, -16560.496873914824, 12594.805669165335, -26204.93933021299, -25592.322718181935, 292.8972593423438, -9336.837749104232, -23816.14134504096, -40803.93651770789, 0.152, 1.006, 0.164, 192.0, 0.0, 0.0, 0.0, 0.0, 0.0, 0.0, 0.0, 0.0, 0.0, 1.696032583855599E9, 0.0, 2023-09-29 19:09:43.855
236.0, -51521.2627078608, -28288.501893103352, -43509.03403866697, -28740.297703778473, -11521.94428705505, -14845.693391048122, -187500.02235174447, -10878.906950820321, -16578.601786923624, 12540.692095839036, -26270.452293211496, -25594.624947860833, 285.4541284387265, -9352.685135923044, -23826.4231474904, -40832.591454099595, 0.152, 1.006, 0.164, 192.0, 0.0, 0.0, 0.0, 0.0, 0.0, 0.0, 0.0, 0.0, 0.0, 1.696032583855602E9, 0.0, 2023-09-29 19:09:43.855
238.0, -51544.28500464976, -28117.153420108967, -43515.292527114456, -28702.567959137912, -11527.867499335707, -14842.675905546655, -187500.02235174447, -10881.924436321788, -16574.600824666122, 12567.044802551844, -26213.500048339374, -25600.279939208027, 280.33557895846116, -9334.066132791773, -23825.506725967734, -40818.196930670376, 0.152, 1.006, 0.164, 192.0, 0.0, 0.0, 0.0, 0.0, 0.0, 0.0, 0.0, 0.0, 0.0, 1.696032583855605E9, 0.0, 2023-09-29 19:09:43.855
240.0, -51539.72524878088, -28289.328907648196, -43509.72694274509, -28736.788479898987, -11519.865574820707, -14841.737132279532, -187500.02235174447, -10881.365642710405, -16596.863162143607, 12553.432590178561, -26262.942107074512, -25594.937872283208, 279.888544069355, -9345.04083931933, -23828.546563213655, -40833.82080004463, 0.152, 1.006, 0.164, 192.0, 0.0, 0.0, 0.0, 0.0, 0.0, 0.0, 0.0, 0.0, 0.0, 1.696032583915889E9, 0.0, 2023-09-29 19:09:43.915
242.0, -51542.765086026804, -28131.32442609363, -43509.212852622615, -28686.698220574646, -11519.865574820707, -14834.271649631459, -187500.02235174447, -10879.957482809721, -16572.410353709503, 12592.436384253071, -26221.837249021202, -25596.703660095176, 281.8778493258774, -9331.540385668324, -23819.24823752025, -40811.9831457118, 0.16, 1.01, 0.154, 192.0, 2.5, 0.0, 15.5, 72.0, 2.0, 104.0, 0.0, 0.0, 0.0, 1.696032583915899E9, 0.0, 2023-09-29 19:09:43.915
244.0, -51536.193673156944, -28267.334791104175, -43521.97569870659, -28738.10723282185, -11533.008400560428, -14843.234699158038, -187500.02235174447, -10888.853477102934, -16588.972996350883, 12560.96512806, -26247.38529293362, -25604.683232865722, 272.8030410770227, -9360.575301715768, -23833.262781293724, -40823.18136968391, 0.16, 1.01, 0.154, 192.0, 0.0, 0.0, 0.0, 0.0, 0.0, 0.0, 0.0, 0.0, 0.0, 1.696032583915902E9, 0.0, 2023-09-29 19:09:43.915
