%OpenBCI Raw EXG Data
%Number of channels = 16
%Sample Rate = 125 Hz
%Board = OpenBCI_GUI$BoardCytonSerialDaisy
Sample Index, EXG Channel 0, EXG Channel 1, EXG Channel 2, EXG Channel 3, EXG Channel 4, EXG Channel 5, EXG Channel 6, EXG Channel 7, EXG Channel 8, EXG Channel 9, EXG Channel 10, EXG Channel 11, EXG Channel 12, EXG Channel 13, EXG Channel 14, EXG Channel 15, Accel Channel 0, Accel Channel 1, Accel Channel 2, Other, Other, Other, Other, Other, Other, Other, Analog Channel 0, Analog Channel 1, Analog Channel 2, Timestamp, Other, Timestamp (Formatted)
224.0, -51900.348293822804, -29984.708724583237, -43201.965773339965, -28572.771379085945, -11469.104763162704, -14650.786179397845, -187500.02235174447, -10790.259932310573, -16741.45659702499, 12123.563840814095, -25943.71449276382, -25332.371930166715, 486.68688376985597, -9617.530955973978, -23693.07264007004, -40626.39661149938, 0.15, 0.994, 0.19, 192.0, 2.0, 88.0, 15.5, 8.0, 2.5, 120.0, 0.0, 0.0, 0.0, 1.696032565159788E9, 0.0, 2023-09-29 19:09:25.159
226.0, -51898.31428507737, -30054.334408561517, -43218.103732836695, -28626.57202798987, -11483.4098796141, -14673.294386064337, -187500.02235174447, -10810.37650232035, -16746.239870338424, 12118.758215756205, -25911.997367381737, -25332.997779011464, 478.6179040214901, -9631.724313703098, -23702.88505588592, -40639.09240235, 0.15, 0.994, 0.19, 192.0, 0.0, 0.0, 0.0, 0.0, 0.0, 0.0, 0.0, 0.0, 0.0, 1.696032565159796E9, 0.0, 2023-09-29 19:09:25.159
228.0, -51894.22391584205, -29986.295698439564, -43203.910375107575, -28581.68972512361, -11472.859856231196, -14664.733667937955, -187500.02235174447, -10804.341531317417, -16736.807434178285, 12118.601753545017, -25944.74267300876, -25335.30000869036, 480.718968000289, -9640.307383573936, -23697.610044194465, -40641.21581807325, 0.15, 0.994, 0.19, 192.0, 0.0, 0.0, 0.0, 0.0, 0.0, 0.0, 0.0, 0.0, 0.0, 1.6960325651598E9, 0.0, 2023-09-29 19:09:25.159
230.0, -51877.88479064522, -30026.0371000811, -43211.15234031109, -28619.754745931, -11481.152353424115, -14673.495551764436, -187500.02235174447, -10812.499918043604, -16741.657762725088, 12135.343210142042, -25895.88175962946, -25328.840354542775, 489.3020378711269, -9631.076113113895, -23700.82869539603, -40642.17694308483, 0.15, 0.994, 0.19, 192.0, 0.0, 0.0, 0.0, 0.0, 0.0, 0.0, 0.0, 0.0, 0.0, 1.696032565159804E9, 0.0, 2023-09-29 19:09:25.159
232.0, -51888.41246228367, -30019.55509418906, -43191.952191823984, -28576.12414075424, -11464.053268915804, -14651.99317359843, -187500.02235174447, -10794.819688179456, -16734.84048066622, 12122.401550102419, -25948.341303866066, -25327.49924987546, 492.7889100061548, -9629.19856657965, -23690.613948179955, -40636.007861615166, 0.15, 0.994, 0.19, 192.0, 0.0, 0.0, 0.0, 0.0, 0.0, 0.0, 0.0, 0.0, 0.0, 1.696032565159807E9, 0.0, 2023-09-29 19:09:25.159
234.0, -51886.289046560414, -30042.8903154004, -43199.104750049686, -28606.43310623564, -11473.731574264953, -14657.782275412355, -187500.02235174447, -10791.444574766705, -16731.912402142574, 12121.73099776876, -25891.99255609424, -25323.45358412905, 493.7723867621883, -9621.420159509202, -23689.36225049046, -40621.30041376357, 0.146, 1.002, 0.184, 192.0, 2.0, 72.0, 15.5, 40.0, 2.5, 96.0, 0.0, 0.0, 0.0, 1.69603256515981E9, 0.0, 2023-09-29 19:09:25.159
236.0, -51908.19375612662, -30039.157574076366, -43199.26121226087, -28580.169806500653, -11478.291330133836, -14656.754095167411, -187500.02235174447, -10784.716699685658, -16754.353553575704, 12116.25482037721, -25957.03613245918, -25335.52352613491, 489.43614833785875, -9628.259793312525, -23698.034727339116, -40627.64830918888, 0.146, 1.002, 0.184, 192.0, 0.0, 0.0, 0.0, 0.0, 0.0, 0.0, 0.0, 0.0, 0.0, 1.696032565159814E9, 0.0, 2023-09-29 19:09:25.159
238.0, -51889.41829078416, -30017.096402298976, -43213.36516301217, -28612.33396677184, -11489.46720236149, -14664.487798748947, -187500.02235174447, -10785.163734574764, -16757.527501288354, 12133.108035696512, -25896.731125918763, -25340.843241315277, 493.61592455100117, -9604.43283372317, -23707.422460010348, -40624.49671322069, 0.146, 1.002, 0.184, 192.0, 0.0, 0.0, 0.0, 0.0, 0.0, 0.0, 0.0, 0.0, 0.0, 1.696032565159817E9, 0.0, 2023-09-29 19:09:25.159
240.0, -51896.79436645441, -30058.223612096743, -43206.302011764295, -28586.60710890378, -11477.956053967006, -14655.010659099897, -187500.02235174447, -10769.159885544765, -16766.73642000394, 12130.738750784249, -25978.963193769836, -25342.519622149423, 498.66741879790055, -9607.204450035626, -23709.63528271142, -40635.42671625933, 0.146, 1.002, 0.184, 192.0, 0.0, 0.0, 0.0, 0.0, 0.0, 0.0, 0.0, 0.0, 0.0, 1.69603256515982E9, 0.0, 2023-09-29 19:09:25.159
0.0, -25912.51145750421, -14702.19519164505, -21657.834548692055, -14296.846305948056, -5735.167054553874, -7329.986373184487, -93750.01117587223, -5406.283486638486, -8375.310406125833, 6073.952445262962, -12941.056542522496, -12669.549902623881, 253.91581701228824, -4790.157650727946, -11854.270023616557, -20310.426689437234, 0.166, 1.002, 0.17200000000000001, 192.0, 2.5, 24.0, 15.5, 40.0, 2.5, 48.0, 0.0, 0.0, 0.0, 1.696032565335812E9, 0.0, 2023-09-29 19:09:25.335
2.0, -51827.21338596504, -29322.158315439025, -43334.46691447102, -28615.396155762217, -11487.008510471405, -14678.770563455888, -187500.02235174447, -10827.654400784302, -16749.994963406916, 12322.896697866523, -26006.031156305213, -25570.10508419336, 340.99821341016457, -9571.46401065159, -23760.66431530289, -40636.209027315264, 0.166, 1.002, 0.17200000000000001, 192.0, 0.0, 0.0, 0.0, 0.0, 0.0, 0.0, 0.0, 0.0, 0.0, 1.696032565335833E9, 0.0, 2023-09-29 19:09:25.335
4.0, -51817.80330154936, -29464.4048171526, -43335.67390867161, -28639.983074663054, -11480.101821434715, -14677.965900655498, -187500.02235174447, -10825.03924668303, -16769.530388060855, 12286.23983695982, -26096.421610882477, -25570.77563652702, 344.41803031182656, -9584.5621329024, -23770.65554507441, -40656.75028046969, 0.166, 1.002, 0.17200000000000001, 192.0, 0.0, 0.0, 0.0, 0.0, 0.0, 0.0, 0.0, 0.0, 0.0, 1.696032565335837E9, 0.0, 2023-09-29 19:09:25.335
6.0, -51818.406798649645, -29328.170934697504, -43341.9323971191, -28631.62352223677, -11490.718900050986, -14688.7170897385, -187500.02235174447, -10839.09849394542, -16750.73257097394, 12313.039578561733, -26022.638502435508, -25577.570566841434, 338.49481803117015, -9568.670042594676, -23773.13658870895, -40643.9427308968, 0.166, 1.002, 0.17200000000000001, 192.0, 0.0, 0.0, 0.0, 0.0, 0.0, 0.0, 0.0, 0.0, 0.0, 1.69603256533584E9, 0.0, 2023-09-29 19:09:25.335
8.0, -51819.680848083604, -29461.49909037341, -43335.964481349525, -28662.401874351726, -11489.400147128123, -14696.562552042313, -187500.02235174447, -10842.652421313813, -16780.70626028851, 12284.80932531468, -26094.54406434823, -25585.840712289897, 332.43749528378197, -9598.196697020137, -23787.017022015694, -40673.58114404454, 0.17, 1.002, 0.17400000000000002, 192.0, 2.5, 40.0, 15.5, 40.0, 2.5, 56.0, 0.0, 0.0, 0.0, 1.696032565335844E9, 0.0, 2023-09-29 19:09:25.335
10.0, -51825.73817083099, -29323.432364872977, -43332.03057432539, -28625.610902978293, -11485.913274993096, -14687.420688560092, -187500.02235174447, -10839.344363134429, -16752.02897215235, 12314.559497184695, -26033.613208963063, -25576.318869151935, 342.94281517777625, -9575.599083375822, -23775.774094554676, -40653.28576007912, 0.17, 1.002, 0.17400000000000002, 192.0, 0.0, 0.0, 0.0, 0.0, 0.0, 0.0, 0.0, 0.0, 0.0, 1.696032565335847E9, 0.0, 2023-09-29 19:09:25.335
12.0, -51811.36599914623, -29491.83040759926, -43332.611719681234, -28652.455348069114, -11485.019205214883, -14682.6150635022, -187500.02235174447, -10840.529005590559, -16766.535254303846, 12306.423462202962, -26093.426477125464, -25571.423837116225, 345.04387915657514, -9593.592237662344, -23784.558330125612, -40666.71915849676, 0.17, 1.002, 0.17400000000000002, 192.0, 0.0, 0.0, 0.0, 0.0, 0.0, 0.0, 0.0, 0.0, 0.0, 1.69603256533585E9, 0.0, 2023-09-29 19:09:25.335
14.0, -51811.76833054642, -29336.932818523983, -43335.85272262725, -28615.887894140233, -11492.819964029786, -14676.356575054715, -187500.02235174447, -10838.517348589581, -16744.138806359628, 12323.72371241137, -26031.15451707298, -25569.993325471085, 349.0895449029857, -9565.719612326577, -23778.724524822777, -40645.932036153325, 0.17, 1.002, 0.17400000000000002, 192.0, 0.0, 0.0, 0.0, 0.0, 0.0, 0.0, 0.0, 0.0, 0.0, 1.696032565335853E9, 0.0, 2023-09-29 19:09:25.335
16.0, -51798.6255048067, -29480.45336967151, -43334.53396970439, -28659.20557489462, -11496.887981520651, -14684.112630380707, -187500.02235174447, -10842.518310847081, -16772.257300884405, 12293.638264374527, -26074.583956549643, -25569.25571790406, 342.4287250553042, -9585.94794105863, -23792.068516262596, -40666.339178841015, 0.17, 1.002, 0.17400000000000002, 192.0, 0.0, 0.0, 0.0, 0.0, 0.0, 0.0, 0.0, 0.0, 0.0, 1.696032565396197E9, 0.0, 2023-09-29 19:09:25.396
18.0, -51812.57299334681, -29333.33418766668, -43330.95769059154, -28618.14542033022, -11489.55660933931, -14680.223426845483, -187500.02235174447, -10833.488206087137, -16761.059076912294, 12318.739273397836, -26046.510165513777, -25568.540462081488, 355.4374403282929, -9564.84789429282, -23774.83532128755, -40644.97091114175, 0.17, 1.008, 0.162, 192.0, 2.5, 40.0, 15.5, 64.0, 2.5, 8.0, 0.0, 0.0, 0.0, 1.696032565396207E9, 0.0, 2023-09-29 19:09:25.396
20.0, -51818.96559226103, -29456.06761647077, -43339.76427790693, -28664.52529007498, -11493.669330319088, -14694.126211896684, -187500.02235174447, -10835.276345643562, -16783.299062645325, 12295.426403930951, -26074.11456991608, -25583.046744232983, 359.885437474899, -9583.891580568741, -23782.70313533582, -40668.48494630873, 0.17, 1.008, 0.162, 192.0, 0.0, 0.0, 0.0, 0.0, 0.0, 0.0, 0.0, 0.0, 0.0, 1.696032565396211E9, 0.0, 2023-09-29 19:09:25.396
22.0, -51820.55256611736, -29315.743364780352, -43333.70695515954, -28604.980242846043, -11483.678100547564, -14678.837618689255, -187500.02235174447, -10817.126729145853, -16767.518731059878, 12323.522546711272, -26060.01061916478, -25580.67745932072, 369.80961201305536, -9542.786722515431, -23774.209472442803, -40651.0952891225, 0.17, 1.008, 0.162, 192.0, 0.0, 0.0, 0.0, 0.0, 0.0, 0.0, 0.0, 0.0, 0.0, 1.696032565396214E9, 0.0, 2023-09-29 19:09:25.396
24.0, -51793.596362304255, -29445.20466866549, -43332.835237125786, -28649.28140035646, -11483.007548213905, -14676.37892679917, -187500.02235174447, -10815.517403545071, -16783.343766134236, 12320.505061209806, -26057.9989621638, -25580.699811065177, 377.498612105681, -9532.12494041025, -23780.84794054603, -40664.171059628854, 0.17, 1.008, 0.162, 192.0, 0.0, 0.0, 0.0, 0.0, 0.0, 0.0, 0.0, 0.0, 0.0, 1.696032565396217E9, 0.0, 2023-09-29 19:09:25.396
26.0, -51803.96757173152, -29337.71512957992, -43332.03057432539, -28602.298033511408, -11478.380737111656, -14668.354650539715, -187500.02235174447, -10812.298752343506, -16758.287460599837, 12335.637192206048, -26056.16611911847, -25566.506453336056, 392.13900472390714, -9504.073501118839, -23768.487425862244, -40649.3965565439, 0.17, 1.008, 0.162, 192.0, 0.0, 0.0, 0.0, 0.0, 0.0, 0.0, 0.0, 0.0, 0.0, 1.69603256539622E9, 0.0, 2023-09-29 19:09:25.396
28.0, -51791.227077391995, -29426.362148089665, -43348.52616173341, -28662.11130167381, -11480.392394112634, -14673.361441297704, -187500.02235174447, -10810.085929642431, -16772.79374275133, 12308.323360481663, -26038.262371809768, -25572.29555514998, 385.56759185404684, -9507.202745342582, -23783.79837081413, -40671.07774866554, 0.17400000000000002, 1.014, 0.168, 192.0, 2.5, 56.0, 15.5, 88.0, 2.5, 32.0, 0.0, 0.0, 0.0, 1.696032565396223E9, 0.0, 2023-09-29 19:09:25.396
30.0, -51805.845118265766, -29337.826888302196, -43353.82352516932, -28631.444708281128, -11472.435173086546, -14652.574318954268, -187500.02235174447, -10792.428051522738, -16765.194149636525, 12311.787880872236, -26061.128206387548, -25574.910709251253, 378.4820888617145, -9503.000617384985, -23781.965527768796, -40663.58991427302, 0.17400000000000002, 1.014, 0.168, 192.0, 0.0, 0.0, 0.0, 0.0, 0.0, 0.0, 0.0, 0.0, 0.0, 1.696032565455523E9, 0.0, 2023-09-29 19:09:25.455
32.0, -51806.09098745477, -29399.40594427657, -43369.15682186566, -28685.91590951871, -11479.118344678682, -14649.914461364087, -187500.02235174447, -10793.433880023227, -16774.783048007852, 12321.600296688117, -26037.658874709476, -25580.498645365078, 382.9971412416865, -9502.732396451522, -23788.022850516183, -40668.23907711972, 0.17400000000000002, 1.014, 0.168, 192.0, 0.0, 0.0, 0.0, 0.0, 0.0, 0.0, 0.0, 0.0, 0.0, 1.696032565455534E9, 0.0, 2023-09-29 19:09:25.455
34.0, -51817.69154282708, -29374.617859675633, -43365.84876368628, -28653.68469401416, -11472.703394020009, -14633.396522211615, -187500.02235174447, -10785.476658997139, -16771.407934595103, 12334.027866605267, -26083.97168922087, -25579.91750000924, 374.4587748597592, -9497.435033015614, -23786.77115282669, -40665.04277766261, 0.17400000000000002, 1.014, 0.168, 192.0, 0.0, 0.0, 0.0, 0.0, 0.0, 0.0, 0.0, 0.0, 0.0, 1.696032565455538E9, 0.0, 2023-09-29 19:09:25.455
36.0, -51806.89565025517, -29380.541071956286, -43383.372531339235, -28702.053869015443, -11490.60714132871, -14648.08161831875, -187500.02235174447, -10802.352226060895, -16773.12901891816, 12312.726654139358, -26024.96308385886, -25592.412125159757, 365.5180770776364, -9502.240658073504, -23791.241501717748, -40664.90866719588, 0.17400000000000002, 1.014, 0.168, 192.0, 0.0, 0.0, 0.0, 0.0, 0.0, 0.0, 0.0, 0.0, 0.0, 1.696032565455541E9, 0.0, 2023-09-29 19:09:25.455
38.0, -51810.53898460138, -29400.031793121314, -43371.570810266836, -28674.315354146405, -11474.022146942872, -14632.65891464459, -187500.02235174447, -10791.221057322153, -16766.93758570404, 12306.557572669695, -26096.555721349207, -25580.565700598443, 373.92233299283185, -9501.391291784203, -23782.99370801374, -40668.28378060863, 0.17400000000000002, 0.998, 0.17200000000000001, 192.0, 2.5, 56.0, 15.5, 24.0, 2.5, 48.0, 0.0, 0.0, 0.0, 1.696032565455544E9, 0.0, 2023-09-29 19:09:25.455
40.0, -51815.769292803925, -29370.95217358496, -43391.285048876416, -28702.34444169336, -11486.740289537942, -14648.908632863599, -187500.02235174447, -10812.9022494438, -16758.242757110926, 12320.996799587823, -26021.275046023733, -25580.185720942703, 368.110879434452, -9504.341722052302, -23781.85376904652, -40667.747338741705, 0.17400000000000002, 0.998, 0.17200000000000001, 192.0, 0.0, 0.0, 0.0, 0.0, 0.0, 0.0, 0.0, 0.0, 0.0, 1.696032565455548E9, 0.0, 2023-09-29 19:09:25.455
42.0, -51815.746941059464, -29402.2893193113, -43381.338522593804, -28684.038362984465, -11469.887074218641, -14640.482025203948, -187500.02235174447, -10808.320141830462, -16770.64797528362, 12304.836488346637, -26084.418724109975, -25581.929157010218, 362.6794055318124, -9508.5438500099, -23780.5126643792, -40680.3537226145, 0.17400000000000002, 0.998, 0.17200000000000001, 192.0, 0.0, 0.0, 0.0, 0.0, 0.0, 0.0, 0.0, 0.0, 0.0, 1.696032565455551E9, 0.0, 2023-09-29 19:09:25.455
44.0, -51815.746941059464, -29325.488725362866, -43397.92351697964, -28705.361927194826, -11480.079469690261, -14651.344973009227, -187500.02235174447, -10817.32789484595, -16763.182492635548, 12323.410787988996, -26010.747374385282, -25588.20999720216, 352.0176234266309, -9496.11628009275, -23776.601109099523, -40672.351798099495, 0.17400000000000002, 0.998, 0.17200000000000001, 192.0, 0.0, 0.0, 0.0, 0.0, 0.0, 0.0, 0.0, 0.0, 0.0, 1.696032565455554E9, 0.0, 2023-09-29 19:09:25.455
46.0, -51827.92864178761, -29401.171732088536, -43384.44541507309, -28692.30850843293, -11469.909425963097, -14634.156481523096, -187500.02235174447, -10799.066519625965, -16777.733478275954, 12296.0522527757, -26098.433267883454, -25599.45292466318, 355.30332986156105, -9514.936448924118, -23783.351335925025, -40687.103949439996, 0.17400000000000002, 0.998, 0.17200000000000001, 192.0, 0.0, 0.0, 0.0, 0.0, 0.0, 0.0, 0.0, 0.0, 0.0, 1.696032565515487E9, 0.0, 2023-09-29 19:09:25.515
48.0, -51810.04724622337, -29325.891056763063, -43385.98768544051, -28685.558281607424, -11478.5595510673, -14636.883394346643, -187500.02235174447, -10798.351263803395, -16763.785989735843, 12306.892848836524, -26023.219647791346, -25592.814456559954, 360.6677485308348, -9490.282474789916, -23770.633193329955, -40658.47136479275, 0.176, 0.99, 0.166, 192.0, 2.5, 64.0, 15.0, 120.0, 2.5, 24.0, 0.0, 0.0, 0.0, 1.696032565515496E9, 0.0, 2023-09-29 19:09:25.515
50.0, -51818.563260860836, -29442.745976775408, -43373.06837714534, -28676.952859992132, -11472.03284168635, -14624.74639710741, -187500.02235174447, -10784.984920619121, -16777.64407129813, 12297.236895231832, -26103.775334808273, -25584.097276222383, 362.18766715379564, -9498.396158027192, -23771.50491136371, -40666.406234074384, 0.176, 0.99, 0.166, 192.0, 0.0, 0.0, 0.0, 0.0, 0.0, 0.0, 0.0, 0.0, 0.0, 1.696032565515499E9, 0.0, 2023-09-29 19:09:25.515
52.0, -51818.49620562747, -29314.357556624123, -43376.667008002645, -28666.87222324279, -11478.336033622747, -14632.189528011028, -187500.02235174447, -10789.9470078882, -16755.784065220843, 12317.129947797055, -26015.575351187632, -25588.500569880078, 361.22654214221745, -9483.576951453322, -23766.095789205527, -40644.881504163925, 0.176, 0.99, 0.166, 192.0, 0.0, 0.0, 0.0, 0.0, 0.0, 0.0, 0.0, 0.0, 0.0, 1.696032565515503E9, 0.0, 2023-09-29 19:09:25.515
54.0, -51815.05403698135, -29449.339741389722, -43367.838068942794, -28686.362944407818, -11469.194170140527, -14633.7541501229, -187500.02235174447, -10785.700176441691, -16769.977422949964, 12306.266999991776, -26091.325413146667, -25584.141979711294, 364.40048985487107, -9502.911210407163, -23769.22503342927, -40666.540344541114, 0.176, 0.99, 0.166, 192.0, 0.0, 0.0, 0.0, 0.0, 0.0, 0.0, 0.0, 0.0, 0.0, 1.696032565515506E9, 0.0, 2023-09-29 19:09:25.515
56.0, -51818.29503992737, -29293.346916836133, -43373.20248761207, -28673.801264023932, -11476.726708021964, -14644.930022350554, -187500.02235174447, -10797.9489324032, -16753.727704730954, 12327.031770590756, -26021.967950101847, -25584.141979711294, 360.3548241084605, -9490.327178278825, -23765.894623505428, -40651.2964548226, 0.176, 0.99, 0.166, 192.0, 0.0, 0.0, 0.0, 0.0, 0.0, 0.0, 0.0, 0.0, 0.0, 1.696032565515509E9, 0.0, 2023-09-29 19:09:25.515
58.0, -51810.516632856925, -29431.72656675894, -43366.85459218676, -28704.15493299424, -11478.023109200372, -14650.719124164478, -187500.02235174447, -10805.257952840086, -16782.069716700284, 12292.632435874038, -26084.150503176512, -25589.26052919156, 355.8174199840331, -9519.384446070724, -23775.505873621212, -40675.1010626675, 0.164, 0.99, 0.18, 192.0, 2.5, 16.0, 15.0, 120.0, 2.5, 80.0, 0.0, 0.0, 0.0, 1.696032565515512E9, 0.0, 2023-09-29 19:09:25.515
60.0, -51800.14542342966, -29303.80753324122, -43358.49503976048, -28665.218194153094, -11474.580940554255, -14641.532557193346, -187500.02235174447, -10797.032510880532, -16758.533329788843, 12307.988084314835, -26032.450918251387, -25581.482122121113, 362.16531540934034, -9496.160983581662, -23771.862539274996, -40657.01850140316, 0.164, 0.99, 0.18, 192.0, 0.0, 0.0, 0.0, 0.0, 0.0, 0.0, 0.0, 0.0, 0.0, 1.69603256557571E9, 0.0, 2023-09-29 19:09:25.575
62.0, -51806.44861536606, -29465.88003228665, -43358.7856124384, -28697.605871868836, -11473.485705075946, -14644.058304316797, -187500.02235174447, -10796.876048669345, -16773.12901891816, 12295.404052186495, -26079.076657185156, -25582.64441283279, 364.13226892140733, -9507.113338364761, -23776.936385266352, -40669.15549864239, 0.164, 0.99, 0.18, 192.0, 0.0, 0.0, 0.0, 0.0, 0.0, 0.0, 0.0, 0.0, 0.0, 1.696032565575722E9, 0.0, 2023-09-29 19:09:25.575
64.0, -51820.306696928346, -29310.669518788996, -43360.14906885017, -28652.18712713565, -11477.196094655526, -14642.493682204926, -187500.02235174447, -10797.479545769638, -16751.403123307602, 12329.937497369945, -26032.048586851193, -25582.934985510707, 361.18183865330684, -9486.661492188156, -23772.242518930736, -40653.129297867934, 0.164, 0.99, 0.18, 192.0, 0.0, 0.0, 0.0, 0.0, 0.0, 0.0, 0.0, 0.0, 0.0, 1.696032565575726E9, 0.0, 2023-09-29 19:09:25.575
66.0, -51814.562298603334, -29423.791697477307, -43374.3871300682, -28703.21615972712, -11486.717937793486, -14653.870720132676, -187500.02235174447, -10805.213249351174, -16777.018222453382, 12290.598427128605, -26058.26718309727, -25593.12738098233, 353.64930077186835, -9511.78485295592, -23784.915958036898, -40670.965989943266, 0.164, 0.99, 0.18, 192.0, 0.0, 0.0, 0.0, 0.0, 0.0, 0.0, 0.0, 0.0, 0.0, 1.696032565575729E9, 0.0, 2023-09-29 19:09:25.575
68.0, -51816.35043815976, -29301.907634962517, -43367.61455149824, -28656.76923474899, -11475.497362076923, -14643.119531049673, -187500.02235174447, -10796.27255156905, -16757.706315244, 12314.96182858489, -26048.186546347923, -25591.048668747982, 356.01858568413087, -9497.21151557106, -23780.75853356821, -40664.729853240235, 0.164, 1.002, 0.17400000000000002, 192.0, 2.5, 16.0, 15.5, 40.0, 2.5, 56.0, 0.0, 0.0, 0.0, 1.696032565575732E9, 0.0, 2023-09-29 19:09:25.575
70.0, -51807.92383050011, -29445.271723898855, -43374.94592367958, -28700.221025970106, -11479.766545267887, -14648.014563085386, -187500.02235174447, -10802.799260950002, -16771.989079950938, 12289.816116072669, -26065.307982600687, -25592.479180393122, 351.6152920264354, -9500.541925494901, -23788.80516157212, -40676.129242912444, 0.164, 1.002, 0.17400000000000002, 192.0, 0.0, 0.0, 0.0, 0.0, 0.0, 0.0, 0.0, 0.0, 0.0, 1.696032565575736E9, 0.0, 2023-09-29 19:09:25.575
72.0, -51802.31354264183, -29343.258362204837, -43364.574714252325, -28644.56518227639, -11470.356460852201, -14634.357647223193, -187500.02235174447, -10798.619484736859, -16755.85112045421, 12311.564363427684, -26064.033933166735, -25588.92525302473, 352.7328792492008, -9485.454497987568, -23778.99274575624, -40658.00197815919, 0.164, 1.002, 0.17400000000000002, 192.0, 0.0, 0.0, 0.0, 0.0, 0.0, 0.0, 0.0, 0.0, 0.0, 1.696032565575739E9, 0.0, 2023-09-29 19:09:25.575
74.0, -51818.04917073836, -29443.39417736461, -43373.515412034445, -28690.587424109868, -11479.498324334423, -14649.892109619632, -187500.02235174447, -10813.304580843995, -16768.770428749376, 12308.837450604136, -26060.703523242897, -25588.187645457703, 350.78827748158903, -9503.268838318449, -23781.451437646323, -40665.98155092973, 0.164, 1.002, 0.17400000000000002, 192.0, 0.0, 0.0, 0.0, 0.0, 0.0, 0.0, 0.0, 0.0, 0.0, 1.696032565575742E9, 0.0, 2023-09-29 19:09:25.575
76.0, -51817.46802538253, -29353.316647209722, -43358.85266767177, -28644.63223750976, -11467.137809650638, -14633.485929189435, -187500.02235174447, -10801.592266749414, -16757.728666988452, 12298.868572577068, -26070.91827045897, -25583.896110522284, 350.20713212575106, -9494.149326580684, -23774.03065848716, -40659.27602759314, 0.164, 1.002, 0.17400000000000002, 192.0, 0.0, 0.0, 0.0, 0.0, 0.0, 0.0, 0.0, 0.0, 0.0, 1.696032565635916E9, 0.0, 2023-09-29 19:09:25.635
78.0, -51809.55550784535, -29434.78875574932, -43362.94303690708, -28694.67779334519, -11474.245664387425, -14647.031086329353, -187500.02235174447, -10812.544621532516, -16762.109608901694, 12308.233953503843, -26047.627752736542, -25581.30330816547, 349.17895188080695, -9496.7421289375, -23772.55544335311, -40662.00294041669, 0.164, 1.0, 0.168, 192.0, 2.5, 16.0, 15.5, 32.0, 2.5, 32.0, 0.0, 0.0, 0.0, 1.696032565635931E9, 0.0, 2023-09-29 19:09:25.635
80.0, -51813.668228825125, -29379.512891711343, -43349.77785942291, -28651.20365037962, -11463.673289260065, -14637.08456004674, -187500.02235174447, -10796.585475991425, -16762.69075425753, 12311.117328538578, -26084.3069653877, -25579.761037798053, 349.15660013635164, -9499.871373161242, -23769.09092296254, -40659.11956538195, 0.164, 1.0, 0.168, 192.0, 0.0, 0.0, 0.0, 0.0, 0.0, 0.0, 0.0, 0.0, 0.0, 1.696032565635934E9, 0.0, 2023-09-29 19:09:25.635
82.0, -51815.00933349244, -29403.585720489707, -43364.552362507864, -28692.91200553322, -11477.084335933248, -14659.123380079673, -187500.02235174447, -10810.152984875796, -16766.624661281665, 12303.160107512487, -26040.251677066288, -25584.87958727832, 345.3121000900388, -9503.671169718644, -23774.209472442803, -40659.968931671254, 0.164, 1.0, 0.168, 192.0, 0.0, 0.0, 0.0, 0.0, 0.0, 0.0, 0.0, 0.0, 0.0, 1.696032565635937E9, 0.0, 2023-09-29 19:09:25.635
84.0, -51806.470967110516, -29379.28937426679, -43351.834219912795, -28655.33872310385, -11467.227216628458, -14649.914461364087, -187500.02235174447, -10801.458156282682, -16765.32826010326, 12293.682967863437, -26092.264186413788, -25585.01369774505, 341.0652686435305, -9520.032646659929, -23777.405771899914, -40666.4509375633, 0.164, 1.0, 0.168, 192.0, 0.0, 0.0, 0.0, 0.0, 0.0, 0.0, 0.0, 0.0, 0.0, 1.69603256563594E9, 0.0, 2023-09-29 19:09:25.635
86.0, -51809.756673545446, -29381.14456905658, -43364.75352820796, -28688.799284553446, -11486.092088948739, -14670.232197073961, -187500.02235174447, -10819.227793124652, -16761.03672516784, 12309.597409915616, -26035.736624686317, -25585.907767523262, 343.90394018935444, -9503.939390652107, -23782.70313533582, -40669.46842306476, 0.164, 1.0, 0.168, 192.0, 0.0, 0.0, 0.0, 0.0, 0.0, 0.0, 0.0, 0.0, 0.0, 1.696032565635944E9, 0.0, 2023-09-29 19:09:25.635
88.0, -51829.22504296602, -29367.398246216566, -43367.45808928706, -28659.42909233917, -11480.928835979563, -14661.894996392131, -187500.02235174447, -10818.66899951327, -16763.495417057922, 12276.069793232655, -26099.237930683845, -25593.194436215694, 343.3451465779718, -9517.93158268113, -23790.928577295374, -40679.683170280834, 0.168, 1.008, 0.158, 192.0, 2.5, 32.0, 15.5, 64.0, 2.0, 120.0, 0.0, 0.0, 0.0, 1.696032565635947E9, 0.0, 2023-09-29 19:09:25.635
90.0, -51816.64101083768, -29336.306969679234, -43375.124737635226, -28684.10541821783, -11482.359347624702, -14666.253586560917, -187500.02235174447, -10821.775891992556, -16769.061001427293, 12292.185400984932, -26035.267238052755, -25601.419878175246, 339.09831513146344, -9511.606039000279, -23794.303690708126, -40678.297362124606, 0.168, 1.008, 0.158, 192.0, 0.0, 0.0, 0.0, 0.0, 0.0, 0.0, 0.0, 0.0, 0.0, 1.69603256569773E9, 0.0, 2023-09-29 19:09:25.697
92.0, -51820.46315913954, -29409.01719439235, -43362.96538865154, -28659.451444083625, -11466.914292206084, -14655.457693989003, -187500.02235174447, -10804.98973190662, -16772.234949139947, 12286.306892193186, -26121.097936761136, -25593.149732726783, 349.58128328100247, -9514.914097179664, -23782.27845219117, -40683.684132538336, 0.168, 1.008, 0.158, 192.0, 0.0, 0.0, 0.0, 0.0, 0.0, 0.0, 0.0, 0.0, 0.0, 1.696032565697743E9, 0.0, 2023-09-29 19:09:25.697
94.0, -51821.267821939924, -29332.61893184411, -43376.041159157896, -28673.82361576839, -11479.990062712439, -14664.577205726768, -187500.02235174447, -10810.622371509358, -16762.623699024167, 12318.605162931104, -26042.48685151182, -25598.804724073976, 340.99821341016457, -9503.40294878518, -23780.333850423558, -40669.11079515348, 0.168, 1.008, 0.158, 192.0, 0.0, 0.0, 0.0, 0.0, 0.0, 0.0, 0.0, 0.0, 0.0, 1.696032565697746E9, 0.0, 2023-09-29 19:09:25.697
96.0, -51824.30765918585, -29419.500162541888, -43361.82544968432, -28663.430054596673, -11464.70146950501, -14648.349839252216, -187500.02235174447, -10791.75749918908, -16777.42055385358, 12280.026052001245, -26122.014358283803, -25602.82803807593, 345.8038384680556, -9514.109434379272, -23779.350373667523, -40676.08453942353, 0.168, 1.008, 0.158, 192.0, 0.0, 0.0, 0.0, 0.0, 0.0, 0.0, 0.0, 0.0, 0.0, 1.696032565697749E9, 0.0, 2023-09-29 19:09:25.697
98.0, -51821.558394617845, -29325.153449196037, -43368.553324765366, -28666.268726142494, -11476.100859177215, -14649.266260774883, -187500.02235174447, -10791.981016633632, -16757.952184433005, 12283.691738091915, -26045.794909691205, -25611.947549813696, 339.16537036482936, -9503.492355763, -23778.65746958941, -40658.29255083711, 0.162, 1.01, 0.154, 192.0, 2.5, 8.0, 15.5, 72.0, 2.0, 104.0, 0.0, 0.0, 0.0, 1.696032565697752E9, 0.0, 2023-09-29 19:09:25.697
100.0, -51816.55160385986, -29429.916075458063, -43357.5339147489, -28666.02285695349, -11471.876379475163, -14647.008734584897, -187500.02235174447, -10789.634083465826, -16774.22425439647, 12277.47795313334, -26115.711166347406, -25598.312985695957, 342.6745942443126, -9530.22504213155, -23777.003440499717, -40662.56173402807, 0.162, 1.01, 0.154, 192.0, 0.0, 0.0, 0.0, 0.0, 0.0, 0.0, 0.0, 0.0, 0.0, 1.696032565697756E9, 0.0, 2023-09-29 19:09:25.697
102.0, -51815.81399629283, -29299.337184350155, -43359.79144093888, -28650.801318979422, -11477.799591755818, -14642.739551393934, -187500.02235174447, -10795.646702724303, -16763.137789146636, 12311.810232616692, -26031.556848473174, -25584.29844192248, 340.17119886531816, -9487.846134644287, -23777.361068411003, -40644.97091114175, 0.162, 1.01, 0.154, 192.0, 0.0, 0.0, 0.0, 0.0, 0.0, 0.0, 0.0, 0.0, 0.0, 1.696032565697759E9, 0.0, 2023-09-29 19:09:25.697
104.0, -51823.815920807836, -29408.704269969974, -43362.56305725135, -28676.52817684748, -11474.98327195445, -14652.127284065162, -187500.02235174447, -10800.698196971201, -16786.07067895778, 12280.294272934709, -26095.01345098179, -25591.24983444808, 341.5123035326366, -9508.968533154552, -23782.524321380177, -40663.835783462026, 0.162, 1.01, 0.154, 192.0, 0.0, 0.0, 0.0, 0.0, 0.0, 0.0, 0.0, 0.0, 0.0, 1.696032565697762E9, 0.0, 2023-09-29 19:09:25.697
106.0, -51810.00254273445, -29241.98260807784, -43359.41146128315, -28653.416473080695, -11474.89386497663, -14656.374115511671, -187500.02235174447, -10805.883801684833, -16767.854007226706, 12300.634360389038, -26029.09815658309, -25589.528750125024, 337.3548790639495, -9498.753785938476, -23774.83532128755, -40648.927169910334, 0.162, 1.01, 0.154, 192.0, 0.0, 0.0, 0.0, 0.0, 0.0, 0.0, 0.0, 0.0, 0.0, 1.696032565756617E9, 0.0, 2023-09-29 19:09:25.756
108.0, -51811.94714450207, -29375.71309515394, -43362.183077595604, -28688.15108396424, -11478.514847578388, -14670.165141840595, -187500.02235174447, -10810.085929642431, -16780.37098412168, 12290.464316661873, -26094.946395748426, -25587.7406105686, 336.6172714969244, -9518.423321059146, -23778.098675978028, -40674.11758591147, 0.166, 1.01, 0.162, 192.0, 2.5, 24.0, 15.5, 72.0, 2.5, 8.0, 0.0, 0.0, 0.0, 1.696032565756627E9, 0.0, 2023-09-29 19:09:25.756
110.0, -51819.39027540568, -29228.16923000446, -43354.89640890317, -28655.29401961494, -11465.081449160749, -14660.75505742491, -187500.02235174447, -10800.944066160211, -16759.248585611414, 12297.885095821035, -26036.943618886904, -25585.907767523262, 333.2198063397177, -9505.749881952988, -23773.203643942314, -40657.91257118137, 0.166, 1.01, 0.162, 192.0, 0.0, 0.0, 0.0, 0.0, 0.0, 0.0, 0.0, 0.0, 0.0, 1.696032565756631E9, 0.0, 2023-09-29 19:09:25.756
112.0, -51804.995751976465, -29393.661545951552, -43356.0810513593, -28693.426095655694, -11466.444905572524, -14660.486836491447, -187500.02235174447, -10801.167583604763, -16775.699469530522, 12273.745211809304, -26088.799666023217, -25585.214863445148, 346.09441114597456, -9523.45246356159, -23770.52143460768, -40667.0991381525, 0.166, 1.01, 0.162, 192.0, 0.0, 0.0, 0.0, 0.0, 0.0, 0.0, 0.0, 0.0, 0.0, 1.696032565756635E9, 0.0, 2023-09-29 19:09:25.756
114.0, -51809.041417722874, -29253.69492217242, -43359.05383337186, -28650.53309804596, -11468.233045128947, -14658.005792856908, -187500.02235174447, -10803.738034217124, -16753.437132053034, 12306.356406969597, -26046.30899981368, -25588.3888111578, 344.0827541449969, -9509.862602932764, -23766.542824094635, -40650.558847255576, 0.166, 1.01, 0.162, 192.0, 0.0, 0.0, 0.0, 0.0, 0.0, 0.0, 0.0, 0.0, 0.0, 1.696032565756639E9, 0.0, 2023-09-29 19:09:25.756
116.0, -51806.8285950218, -29407.474924024933, -43363.70299621856, -28702.366793437817, -11476.212617899493, -14668.086429606252, -187500.02235174447, -10816.210307623185, -16776.83940849774, 12269.788953040714, -26085.98334622185, -25595.3402036834, 336.43845754128193, -9526.447597318602, -23775.79644629913, -40674.40815858939, 0.166, 1.01, 0.162, 192.0, 0.0, 0.0, 0.0, 0.0, 0.0, 0.0, 0.0, 0.0, 0.0, 1.696032565756643E9, 0.0, 2023-09-29 19:09:25.756
118.0, -51823.12301672972, -29283.489797531343, -43356.90806590415, -28652.164775391197, -11468.925949207061, -14658.944566124032, -187500.02235174447, -10809.013045908576, -16763.22719612446, 12296.0522527757, -26070.135959403036, -25595.29550019449, 335.1197046184188, -9517.775120469943, -23770.454379374314, -40660.66183574937, 0.166, 1.008, 0.166, 192.0, 2.5, 24.0, 15.5, 64.0, 2.5, 24.0, 0.0, 0.0, 0.0, 1.696032565756646E9, 0.0, 2023-09-29 19:09:25.756
120.0, -51817.95976376054, -29393.05804885126, -43363.61358924074, -28689.335726420373, -11474.089202176237, -14667.013545872396, -187500.02235174447, -10808.700121486203, -16772.257300884405, 12277.969691511356, -26071.58882279263, -25595.72018333914, 326.2460620696619, -9532.437864832624, -23770.432027629857, -40666.42858581884, 0.166, 1.008, 0.166, 192.0, 0.0, 0.0, 0.0, 0.0, 0.0, 0.0, 0.0, 0.0, 0.0, 1.696032565815428E9, 0.0, 2023-09-29 19:09:25.815
122.0, -51815.143443959176, -29278.103027117617, -43353.91293214714, -28643.80522296491, -11468.300100362314, -14657.558757967801, -187500.02235174447, -10804.542697017516, -16762.98132693545, 12282.9988340138, -26066.894956457014, -25601.93396829772, 322.8709486569105, -9524.055960661884, -23768.174501439873, -40658.47136479275, 0.166, 1.008, 0.166, 192.0, 0.0, 0.0, 0.0, 0.0, 0.0, 0.0, 0.0, 0.0, 0.0, 1.696032565815443E9, 0.0, 2023-09-29 19:09:25.815
124.0, -51813.69058056958, -29358.18932750098, -43365.78170845291, -28696.935319535176, -11486.89675174913, -14681.653938490623, -187500.02235174447, -10821.7535402481, -16765.037687425338, 12266.212673927865, -26057.9989621638, -25604.571474143446, 328.63769872637977, -9531.566146798867, -23769.873234018476, -40665.579219529536, 0.166, 1.008, 0.166, 192.0, 0.0, 0.0, 0.0, 0.0, 0.0, 0.0, 0.0, 0.0, 0.0, 1.696032565815447E9, 0.0, 2023-09-29 19:09:25.815
126.0, -51819.189109705585, -29303.092277418647, -43353.868228658226, -28657.372731849282, -11474.379774854156, -14669.628699973668, -187500.02235174447, -10813.841022710923, -16766.98228919295, 12276.38271765503, -26089.224349167867, -25603.677404365233, 332.079867372497, -9541.065638192373, -23768.599184584524, -40670.116623653965, 0.166, 1.008, 0.166, 192.0, 0.0, 0.0, 0.0, 0.0, 0.0, 0.0, 0.0, 0.0, 0.0, 1.696032565815451E9, 0.0, 2023-09-29 19:09:25.815
128.0, -51811.276592168404, -29374.796673631274, -43357.19863858207, -28697.42705791319, -11479.453620845512, -14679.396412300637, -187500.02235174447, -10823.139348404331, -16768.12222816017, 12282.66355784697, -26057.663685996973, -25595.72018333914, 329.64352722686857, -9538.875167235752, -23768.554481095613, -40672.95529519979, 0.168, 1.0, 0.17, 192.0, 2.5, 32.0, 15.5, 32.0, 2.5, 40.0, 0.0, 0.0, 0.0, 1.696032565815454E9, 0.0, 2023-09-29 19:09:25.815
130.0, -51823.659458596645, -29337.782184813284, -43345.44162099858, -28649.236696867552, -11469.060059673795, -14664.66661270459, -187500.02235174447, -10811.80701396549, -16757.616908266176, 12278.90846477848, -26094.432305625953, -25592.568587370944, 329.4200097823155, -9533.667210777667, -23762.050123459117, -40665.221591618254, 0.168, 1.0, 0.17, 192.0, 0.0, 0.0, 0.0, 0.0, 0.0, 0.0, 0.0, 0.0, 0.0, 1.696032565815458E9, 0.0, 2023-09-29 19:09:25.815
132.0, -51811.8800892687, -29346.18644072848, -43366.5863712533, -28688.553415364437, -11484.393356370134, -14680.782220456866, -187500.02235174447, -10831.476549086161, -16760.254414111903, 12284.071717747656, -26033.72496768534, -25591.428648403722, 323.92148064630993, -9530.783835742932, -23768.08509446205, -40656.057376391575, 0.168, 1.0, 0.17, 192.0, 0.0, 0.0, 0.0, 0.0, 0.0, 0.0, 0.0, 0.0, 0.0, 1.696032565815461E9, 0.0, 2023-09-29 19:09:25.815
134.0, -51815.70223757056, -29333.289484177767, -43361.266656072934, -28651.270705612984, -11478.291330133836, -14670.031031373863, -187500.02235174447, -10824.748674005114, -16760.768504234376, 12278.640243845015, -26097.002756238315, -25595.7425350836, 323.0721143570083, -9546.161835928182, -23774.589452098546, -40666.87562070795, 0.168, 1.0, 0.17, 192.0, 0.0, 0.0, 0.0, 0.0, 0.0, 0.0, 0.0, 0.0, 0.0, 1.696032565815464E9, 0.0, 2023-09-29 19:09:25.815
136.0, -51795.138632671675, -29332.14954521055, -43371.123775377724, -28680.685601316167, -11485.779164526364, -14680.29048207885, -187500.02235174447, -10830.850700241412, -16756.4546175545, 12304.0541772907, -26030.34985427259, -25590.22165420314, 323.8991289018546, -9540.372734114258, -23777.361068411003, -40658.76193747067, 0.168, 1.0, 0.17, 192.0, 0.0, 0.0, 0.0, 0.0, 0.0, 0.0, 0.0, 0.0, 0.0, 1.696032565875621E9, 0.0, 2023-09-29 19:09:25.875
138.0, -51807.00740897744, -29378.037676577293, -43349.28612104489, -28656.165737648695, -11470.378812596657, -14669.159313340106, -187500.02235174447, -10812.812842465979, -16756.87930069915, 12267.017336728257, -26105.854047042616, -25580.811569787453, 329.57647199350265, -9547.637051062233, -23774.36593465399, -40666.965027685765, 0.17, 0.994, 0.164, 192.0, 2.5, 40.0, 15.5, 8.0, 2.5, 16.0, 0.0, 0.0, 0.0, 1.696032565875634E9, 0.0, 2023-09-29 19:09:25.875
140.0, -51803.319371142316, -29329.310873664723, -43358.1821153381, -28674.941202991155, -11477.665481289087, -14681.676290235078, -187500.02235174447, -10820.412435580783, -16744.652896482097, 12298.600351643605, -26025.00778734777, -25582.487950621602, 326.84955916995517, -9529.241565375516, -23767.816873528587, -40651.96700715626, 0.17, 0.994, 0.164, 192.0, 0.0, 0.0, 0.0, 0.0, 0.0, 0.0, 0.0, 0.0, 0.0, 1.696032565875638E9, 0.0, 2023-09-29 19:09:25.875
142.0, -51809.53315610089, -29387.783037159807, -43349.55434197836, -28664.56999356389, -11469.730612007454, -14676.401278543626, -187500.02235174447, -10817.372598334861, -16763.853044969208, 12282.060060746679, -26100.579035351162, -25586.019526245538, 318.84763465495524, -9548.464065607079, -23772.354277653012, -40667.322655597054, 0.17, 0.994, 0.164, 192.0, 0.0, 0.0, 0.0, 0.0, 0.0, 0.0, 0.0, 0.0, 0.0, 1.696032565875641E9, 0.0, 2023-09-29 19:09:25.875
144.0, -51798.64785655116, -29305.126286164083, -43352.37066177972, -28673.287173901463, -11470.714088763487, -14684.514961780902, -187500.02235174447, -10824.279287371552, -16750.73257097394, 12303.24951449031, -26019.308092511666, -25589.059363491462, 328.05655337054174, -9538.763408513476, -23770.208510185304, -40657.62199850345, 0.17, 0.994, 0.164, 192.0, 0.0, 0.0, 0.0, 0.0, 0.0, 0.0, 0.0, 0.0, 0.0, 1.696032565875648E9, 0.0, 2023-09-29 19:09:25.875
146.0, -51797.1279379282, -29405.887950168606, -43346.64861519916, -28668.570955821393, -11465.014393927384, -14685.47608679248, -187500.02235174447, -10821.820595481468, -16768.435152582544, 12292.475973662851, -26103.283596430254, -25588.187645457703, 329.84469292696633, -9555.750734299509, -23770.163806696393, -40671.39067308792, 0.17, 0.994, 0.164, 192.0, 0.0, 0.0, 0.0, 0.0, 0.0, 0.0, 0.0, 0.0, 0.0, 1.696032565875653E9, 0.0, 2023-09-29 19:09:25.875
148.0, -51803.78875777588, -29285.389695810045, -43353.77882168041, -28657.61860103829, -11472.278710875358, -14688.04653740484, -187500.02235174447, -10827.833214739945, -16758.488626299935, 12287.469182904862, -26024.896028625495, -25591.562758870456, 320.97105037820944, -9537.869338735263, -23770.968469496784, -40652.61520774546, 0.168, 1.004, 0.158, 192.0, 2.5, 32.0, 15.5, 48.0, 2.0, 120.0, 0.0, 0.0, 0.0, 1.696032565875656E9, 0.0, 2023-09-29 19:09:25.875
150.0, -51802.335894386284, -29407.944310658495, -43341.686527930084, -28662.066598184898, -11468.210693384492, -14682.503304779924, -187500.02235174447, -10825.419226338772, -16775.051268941315, 12261.630566314527, -26104.781163308762, -25596.323680439436, 315.2713555421061, -9561.383373902247, -23778.813931800596, -40666.406234074384, 0.168, 1.004, 0.158, 192.0, 0.0, 0.0, 0.0, 0.0, 0.0, 0.0, 0.0, 0.0, 0.0, 1.696032565935868E9, 0.0, 2023-09-29 19:09:25.935
152.0, -51808.3261619003, -29267.17302407897, -43341.5300657189, -28637.61378975079, -11477.061984188795, -14685.654900748123, -187500.02235174447, -10830.515424074581, -16750.062018640285, 12298.10861326559, -26032.652083951485, -25591.24983444808, 326.3354690474831, -9533.6001555443, -23773.18129219786, -40643.47334426324, 0.168, 1.004, 0.158, 192.0, 0.0, 0.0, 0.0, 0.0, 0.0, 0.0, 0.0, 0.0, 0.0, 1.69603256593588E9, 0.0, 2023-09-29 19:09:25.935
154.0, -51804.995751976465, -29398.4895227539, -43336.947958105564, -28664.614697052803, -11476.637301044144, -14684.649072247634, -187500.02235174447, -10834.784607265545, -16775.78887650834, 12281.501267135296, -26097.82977078316, -25596.077811250427, 319.6746491998016, -9576.113173498294, -23782.546673124634, -40666.0486061631, 0.168, 1.004, 0.158, 192.0, 0.0, 0.0, 0.0, 0.0, 0.0, 0.0, 0.0, 0.0, 0.0, 1.696032565935884E9, 0.0, 2023-09-29 19:09:25.935
156.0, -51799.00548446244, -29261.65214319851, -43337.1267720612, -28631.735280959045, -11477.866646989185, -14679.23995008945, -187500.02235174447, -10832.415322353283, -16748.02800989485, 12311.787880872236, -26033.52380198524, -25590.892206536795, 324.27910855759484, -9538.003449201995, -23774.455341631812, -40648.1448588544, 0.168, 1.004, 0.158, 192.0, 0.0, 0.0, 0.0, 0.0, 0.0, 0.0, 0.0, 0.0, 0.0, 1.696032565935888E9, 0.0, 2023-09-29 19:09:25.935
158.0, -51781.928751698586, -29410.06772638175, -43346.96153962154, -28672.01312446751, -11481.577036568766, -14687.934778682564, -187500.02235174447, -10840.886633501845, -16767.541082804335, 12286.418650915462, -26089.604328823607, -25586.824189045932, 319.4287800107932, -9552.17445518666, -23784.960661525805, -40666.18271662983, 0.164, 1.004, 0.162, 192.0, 2.5, 16.0, 15.5, 48.0, 2.5, 8.0, 0.0, 0.0, 0.0, 1.696032565935891E9, 0.0, 2023-09-29 19:09:25.935
160.0, -51796.77031001691, -29298.912501205505, -43346.313339032335, -28642.084138641854, -11473.955091709506, -14685.140810625651, -187500.02235174447, -10840.95368873521, -16746.59749824971, 12306.602276158605, -26054.73560747333, -25586.377154156824, 322.33450678998315, -9535.902385223197, -23782.546673124634, -40659.52189678215, 0.164, 1.004, 0.162, 192.0, 0.0, 0.0, 0.0, 0.0, 0.0, 0.0, 0.0, 0.0, 0.0, 1.696032565935895E9, 0.0, 2023-09-29 19:09:25.935
162.0, -51817.982115504994, -29448.53507858933, -43344.212275053535, -28676.52817684748, -11472.636338786644, -14695.467316564003, -187500.02235174447, -10841.020743968576, -16773.531350318357, 12274.438115887418, -26093.560587592197, -25598.380040929325, 321.8651201564217, -9563.12680996976, -23780.579719612568, -40670.02721667614, 0.164, 1.004, 0.162, 192.0, 0.0, 0.0, 0.0, 0.0, 0.0, 0.0, 0.0, 0.0, 0.0, 1.696032565935899E9, 0.0, 2023-09-29 19:09:25.935
164.0, -51823.25712719645, -29301.773524495784, -43347.229760555005, -28633.411661793194, -11476.234969643947, -14696.450793320037, -187500.02235174447, -10844.172339936775, -16756.36521057668, 12280.204865956888, -26062.82693896615, -25598.4917996516, 329.1070853599412, -9555.258995921493, -23773.3601061535, -40657.04085314761, 0.164, 1.004, 0.162, 192.0, 0.0, 0.0, 0.0, 0.0, 0.0, 0.0, 0.0, 0.0, 0.0, 1.696032565935902E9, 0.0, 2023-09-29 19:09:25.935
166.0, -51805.01810372092, -29420.327177086736, -43349.80021116736, -28685.312412418418, -11477.397260355623, -14707.91723822561, -187500.02235174447, -10846.04988647102, -16774.648937541122, 12251.840502243103, -26074.29338387172, -25610.941721313207, 318.46765499921503, -9578.236589221548, -23789.453362161323, -40676.844498735016, 0.164, 1.004, 0.162, 192.0, 0.0, 0.0, 0.0, 0.0, 0.0, 0.0, 0.0, 0.0, 0.0, 1.696032565996116E9, 0.0, 2023-09-29 19:09:25.996
168.0, -51799.65368505164, -29302.667594273997, -43339.6301674402, -28637.300865328416, -11471.429344586057, -14690.348767083737, -187500.02235174447, -10835.321049132473, -16748.206823850494, 12294.509982408284, -26068.705447757897, -25602.336299697912, 323.69796320175686, -9566.188998960139, -23777.94221376684, -40659.85717294898, 0.17, 1.008, 0.158, 192.0, 2.5, 40.0, 15.5, 64.0, 2.0, 120.0, 0.0, 0.0, 0.0, 1.696032565996125E9, 0.0, 2023-09-29 19:09:25.996
170.0, -51792.970513459506, -29403.786886189806, -43345.28515878739, -28679.34449664885, -11483.454583103012, -14695.556723541824, -187500.02235174447, -10842.451255613716, -16764.143617647125, 12276.71799382186, -26063.430436066443, -25599.341165940903, 322.98270737918705, -9581.23172297856, -23779.484484134256, -40663.76872822866, 0.17, 1.008, 0.158, 192.0, 0.0, 0.0, 0.0, 0.0, 0.0, 0.0, 0.0, 0.0, 0.0, 1.696032565996128E9, 0.0, 2023-09-29 19:09:25.996
172.0, -51799.38546411818, -29339.793841814262, -43333.170513292614, -28626.99671113452, -11470.423516085568, -14676.893016921642, -187500.02235174447, -10823.921659460266, -16752.453655297002, 12266.57030183915, -26086.45273285541, -25590.64633734779, 327.40835278133784, -9563.41738264768, -23776.243481188238, -40652.10111762299, 0.17, 1.008, 0.158, 192.0, 0.0, 0.0, 0.0, 0.0, 0.0, 0.0, 0.0, 0.0, 0.0, 1.696032565996131E9, 0.0, 2023-09-29 19:09:25.996
174.0, -51799.340760629275, -29423.05408991028, -43344.212275053535, -28669.755598277523, -11480.928835979563, -14689.968787427997, -187500.02235174447, -10838.450293356216, -16761.327297845757, 12272.359403653074, -26057.484872041332, -25593.93204378272, 320.5910707224692, -9560.958690757596, -23779.685649834355, -40650.08946062201, 0.17, 1.008, 0.158, 192.0, 0.0, 0.0, 0.0, 0.0, 0.0, 0.0, 0.0, 0.0, 0.0, 1.696032565996134E9, 0.0, 2023-09-29 19:09:25.996
176.0, -51791.60705704774, -29363.129063025604, -43334.355155748744, -28626.28145531195, -11470.714088763487, -14679.798743700832, -187500.02235174447, -10829.934278718743, -16753.638297753132, 12285.52458113725, -26089.894901501528, -25594.200264716183, 323.5191492461144, -9565.496094882023, -23777.94221376684, -40649.843591433004, 0.17, 1.008, 0.158, 192.0, 0.0, 0.0, 0.0, 0.0, 0.0, 0.0, 0.0, 0.0, 0.0, 1.696032565996138E9, 0.0, 2023-09-29 19:09:25.996
178.0, -51805.86747001022, -29406.20087459098, -43352.14714433517, -28679.635069326767, -11486.18149592656, -14701.591694544757, -187500.02235174447, -10848.441523127738, -16761.863739712684, 12284.250531703297, -26052.43337779443, -25596.97188102864, 317.6853439432793, -9572.671004852176, -23783.440742902847, -40654.98449265772, 0.168, 1.002, 0.162, 192.0, 2.5, 32.0, 15.5, 40.0, 2.5, 8.0, 0.0, 0.0, 0.0, 1.696032565996141E9, 0.0, 2023-09-29 19:09:25.996
180.0, -51808.19205143357, -29367.95703982795, -43339.406649995646, -28638.306693828905, -11472.524580064366, -14689.946435683541, -187500.02235174447, -10838.651459056313, -16765.663536270087, 12248.219519641343, -26104.088259230648, -25601.151657241782, 323.1168178459189, -9578.884789810752, -23779.596242856533, -40661.15357412739, 0.168, 1.002, 0.162, 192.0, 0.0, 0.0, 0.0, 0.0, 0.0, 0.0, 0.0, 0.0, 0.0, 1.696032566056512E9, 0.0, 2023-09-29 19:09:26.056
182.0, -51798.44669085106, -29373.47792070841, -43349.15201057816, -28678.025743725986, -11482.538161580344, -14709.52656382639, -187500.02235174447, -10858.835084299455, -16769.686850272043, 12265.43036287193, -26043.112700356567, -25600.749325841585, 321.37338177840496, -9575.107344997805, -23785.13947548145, -40663.38874857292, 0.168, 1.002, 0.162, 192.0, 0.0, 0.0, 0.0, 0.0, 0.0, 0.0, 0.0, 0.0, 0.0, 1.696032566056524E9, 0.0, 2023-09-29 19:09:26.056
184.0, -51802.24648740846, -29376.651868421064, -43336.255054027446, -28644.25225785402, -11474.804457998807, -14697.881304965176, -187500.02235174447, -10853.9624040082, -16767.429324082055, 12267.24085417281, -26105.049384242226, -25595.474314150135, 328.63769872637977, -9580.628225878267, -23777.09284747754, -40669.73664399823, 0.168, 1.002, 0.162, 192.0, 0.0, 0.0, 0.0, 0.0, 0.0, 0.0, 0.0, 0.0, 0.0, 1.696032566056528E9, 0.0, 2023-09-29 19:09:26.056
186.0, -51795.36215011623, -29349.919182052516, -43346.76037392144, -28668.347438376837, -11490.115402950692, -14701.681101522578, -187500.02235174447, -10862.791343068046, -16758.80155072231, 12270.839485030114, -26035.222534563847, -25599.16235198526, 322.93800389027643, -9576.157876987205, -23782.814894058098, -40660.751242727194, 0.168, 1.002, 0.162, 192.0, 0.0, 0.0, 0.0, 0.0, 0.0, 0.0, 0.0, 0.0, 0.0, 1.696032566056531E9, 0.0, 2023-09-29 19:09:26.056
188.0, -51792.970513459506, -29399.852979165673, -43338.60198719525, -28651.62833352427, -11480.347690623725, -14691.779278728876, -187500.02235174447, -10854.85647378641, -16763.495417057922, 12276.874456033047, -26109.78795406675, -25593.73087808262, 324.6143847244245, -9591.982912061561, -23782.90430103592, -40664.305170095584, 0.164, 1.002, 0.158, 192.0, 2.5, 16.0, 15.5, 40.0, 2.0, 120.0, 0.0, 0.0, 0.0, 1.696032566056534E9, 0.0, 2023-09-29 19:09:26.056
190.0, -51800.19012691858, -29351.819080331217, -43352.43771701309, -28668.123920932285, -11491.590618084743, -14701.748156755944, -187500.02235174447, -10860.220892455685, -16753.057152397294, 12282.842371802613, -26036.027197364238, -25593.48500889361, 314.5560997195363, -9571.732231585054, -23781.518492879688, -40651.49762052269, 0.164, 1.002, 0.158, 192.0, 0.0, 0.0, 0.0, 0.0, 0.0, 0.0, 0.0, 0.0, 0.0, 1.696032566056537E9, 0.0, 2023-09-29 19:09:26.056
192.0, -51808.86260376723, -29425.959816689472, -43345.91100763214, -28665.128787175276, -11480.705318535009, -14698.216581132005, -187500.02235174447, -10852.420133640782, -16777.80053350932, 12237.825958469624, -26119.578018138174, -25606.6948898667, 315.5395764755698, -9594.910990585207, -23783.440742902847, -40664.19341137331, 0.164, 1.002, 0.158, 192.0, 0.0, 0.0, 0.0, 0.0, 0.0, 0.0, 0.0, 0.0, 0.0, 1.696032566056541E9, 0.0, 2023-09-29 19:09:26.056
194.0, -51811.991847990976, -29313.08350719017, -43355.835182170296, -28663.7653307635, -11488.304911649813, -14704.609180046224, -187500.02235174447, -10856.711668576201, -16764.4565420695, 12259.931833735924, -26040.989284633313, -25610.271168979547, 313.3491055189497, -9579.75650784451, -23780.110332979006, -40649.32950131053, 0.164, 1.002, 0.158, 192.0, 0.0, 0.0, 0.0, 0.0, 0.0, 0.0, 0.0, 0.0, 0.0, 1.696032566056544E9, 0.0, 2023-09-29 19:09:26.056
196.0, -51807.38738863318, -29417.443802052, -43344.43579249809, -28666.112263931307, -11474.446830087523, -14702.843392234254, -187500.02235174447, -10849.804979539513, -16788.484667358956, 12243.726819005826, -26120.36032919411, -25609.39945094579, 314.6455066973575, -9595.358025474314, -23783.396039413936, -40666.16036488538, 0.164, 1.002, 0.158, 192.0, 0.0, 0.0, 0.0, 0.0, 0.0, 0.0, 0.0, 0.0, 0.0, 1.696032566115949E9, 0.0, 2023-09-29 19:09:26.115
198.0, -51806.87329851071, -29280.80758819671, -43349.01790011143, -28653.260010869508, -11481.37587086867, -14707.71607252551, -187500.02235174447, -10852.643651085336, -16760.075600156262, 12270.347746652096, -26040.117566599558, -25609.846485834896, 314.6678584418128, -9583.399842190724, -23776.690516077342, -40649.843591433004, 0.164, 1.004, 0.15, 192.0, 2.5, 16.0, 15.5, 48.0, 2.0, 88.0, 0.0, 0.0, 0.0, 1.69603256611596E9, 0.0, 2023-09-29 19:09:26.115
200.0, -51799.0278362069, -29415.946235173495, -43334.3775074932, -28665.933449975666, -11473.373946353668, -14702.91044746762, -187500.02235174447, -10849.603813839414, -16772.03378343985, 12257.115513934556, -26114.638282613552, -25599.788200830008, 323.27328005710604, -9602.175307533182, -23775.03648698765, -40665.10983289598, 0.164, 1.004, 0.15, 192.0, 0.0, 0.0, 0.0, 0.0, 0.0, 0.0, 0.0, 0.0, 0.0, 1.696032566115964E9, 0.0, 2023-09-29 19:09:26.115
202.0, -51788.61192329072, -29311.742402522854, -43329.817751624316, -28638.686673484644, -11469.417687585079, -14689.968787427997, -187500.02235174447, -10840.14902593482, -16744.54113775982, 12261.563511081162, -26044.833784679628, -25589.528750125024, 326.44722776975965, -9577.141353743238, -23767.548652595124, -40645.641463475404, 0.164, 1.004, 0.15, 192.0, 0.0, 0.0, 0.0, 0.0, 0.0, 0.0, 0.0, 0.0, 0.0, 1.696032566115967E9, 0.0, 2023-09-29 19:09:26.115
204.0, -51793.50695532643, -29461.07440722876, -43340.6806994296, -28671.67784830068, -11472.010489941895, -14696.160220642118, -187500.02235174447, -10843.591194580937, -16763.31660310228, 12244.687944017405, -26104.64705284203, -25591.361593170357, 323.8320736684887, -9602.622342422288, -23768.21920492878, -40654.93978916881, 0.164, 1.004, 0.15, 192.0, 0.0, 0.0, 0.0, 0.0, 0.0, 0.0, 0.0, 0.0, 0.0, 1.69603256611597E9, 0.0, 2023-09-29 19:09:26.115
206.0, -51800.950086230056, -29305.148637908536, -43352.750641435465, -28645.369845076784, -11478.60425455621, -14695.981406686475, -187500.02235174447, -10850.363773150895, -16752.16308261908, 12269.565435596161, -26047.58304924763, -25602.716279353655, 325.50845450263677, -9588.674853882178, -23774.008306742708, -40646.15555359788, 0.164, 1.004, 0.15, 192.0, 0.0, 0.0, 0.0, 0.0, 0.0, 0.0, 0.0, 0.0, 0.0, 1.696032566115973E9, 0.0, 2023-09-29 19:09:26.115
208.0, -51793.886934982176, -29447.976284977947, -43354.5834844808, -28685.424171140694, -11481.152353424115, -14701.971674200497, -187500.02235174447, -10855.549377864525, -16773.576053807265, 12246.587842296105, -26103.97650050837, -25601.844561319896, 321.2169195672178, -9601.482403455067, -23788.00049877173, -40670.29543760961, 0.158, 0.996, 0.158, 192.0, 2.0, 120.0, 15.5, 16.0, 2.0, 120.0, 0.0, 0.0, 0.0, 1.696032566115976E9, 0.0, 2023-09-29 19:09:26.115
210.0, -51792.836402992776, -29290.441190056943, -43354.96346413654, -28640.47481304107, -11487.4108418716, -14696.495496808946, -187500.02235174447, -10854.744715064135, -16751.671344241066, 12278.304967678187, -26053.707427228383, -25596.949529284186, 325.77667543610045, -9581.723461356576, -23781.294975435136, -40648.90481816588, 0.158, 0.996, 0.158, 192.0, 0.0, 0.0, 0.0, 0.0, 0.0, 0.0, 0.0, 0.0, 0.0, 1.696032566175772E9, 0.0, 2023-09-29 19:09:26.175
212.0, -51796.16681291662, -29430.743090002907, -43352.549475735366, -28680.171511193697, -11490.629493073166, -14698.350691598736, -187500.02235174447, -10855.527026120071, -16776.124152675173, 12250.074714431134, -26085.82688401066, -25602.291596209005, 318.4005997658491, -9600.409519721214, -23793.32021395209, -40665.42275731835, 0.158, 0.996, 0.158, 192.0, 0.0, 0.0, 0.0, 0.0, 0.0, 0.0, 0.0, 0.0, 0.0, 1.696032566175785E9, 0.0, 2023-09-29 19:09:26.175
214.0, -51800.21247866303, -29282.103989375115, -43347.45327799956, -28630.215362336086, -11484.706280792509, -14693.478011307481, -187500.02235174447, -10853.045982485532, -16757.68396349954, 12263.23989191531, -26061.91051744348, -25594.78141007202, 319.85346315544405, -9587.959598059608, -23784.04424000314, -40645.3955942864, 0.158, 0.996, 0.158, 192.0, 0.0, 0.0, 0.0, 0.0, 0.0, 0.0, 0.0, 0.0, 0.0, 1.696032566175788E9, 0.0, 2023-09-29 19:09:26.175
216.0, -51779.85003946425, -29420.505991042377, -43338.75844940644, -28678.048095470444, -11479.766545267887, -14703.849220734743, -187500.02235174447, -10856.644613342836, -16764.165969391583, 12258.590729068605, -26076.26033738379, -25588.63468034681, 323.7650184351228, -9595.626246407777, -23783.932481280863, -40659.18662061532, 0.158, 0.996, 0.158, 192.0, 0.0, 0.0, 0.0, 0.0, 0.0, 0.0, 0.0, 0.0, 0.0, 1.696032566175791E9, 0.0, 2023-09-29 19:09:26.175
218.0, -51786.957894201034, -29309.820152499695, -43327.26965275641, -28626.840248923334, -11473.396298098123, -14700.362348599714, -187500.02235174447, -10852.978927252165, -16746.508091271888, 12268.023165228746, -26076.707372272896, -25587.3382791684, 328.8388644264775, -9588.294874226436, -23773.78478929815, -40649.26244607716, 0.158, 1.002, 0.156, 192.0, 2.0, 120.0, 15.5, 40.0, 2.0, 112.0, 0.0, 0.0, 0.0, 1.696032566175794E9, 0.0, 2023-09-29 19:09:26.175
220.0, -51778.48658305247, -29412.90639792757, -43324.654498655145, -28667.498072087536, -11476.257321388402, -14708.699549281544, -187500.02235174447, -10851.749581307124, -16758.93566118904, 12255.528540078229, -26068.72779950235, -25591.69686933719, 336.03612614108636, -9600.23070576557, -23778.098675978028, -40662.38292007243, 0.158, 1.002, 0.156, 192.0, 0.0, 0.0, 0.0, 0.0, 0.0, 0.0, 0.0, 0.0, 0.0, 1.696032566175798E9, 0.0, 2023-09-29 19:09:26.175
222.0, -51784.20862963303, -29336.91046677953, -43310.9752310485, -28615.731431929045, -11469.149466651616, -14687.845371704743, -187500.02235174447, -10830.962458963688, -16750.017315151374, 12263.977499482335, -26085.268090399277, -25588.433514646713, 349.0224896696198, -9578.840086321841, -23768.554481095613, -40648.74835595469, 0.158, 1.002, 0.156, 192.0, 0.0, 0.0, 0.0, 0.0, 0.0, 0.0, 0.0, 0.0, 0.0, 1.696032566175801E9, 0.0, 2023-09-29 19:09:26.175
224.0, -51783.85100172174, -29393.370973273635, -43339.20548429555, -28664.10060693033, -11486.852048260218, -14705.391491102158, -187500.02235174447, -10841.065447457488, -16768.16693164908, 12269.43132512943, -26055.83084295164, -25597.418915917748, 348.597806524969, -9580.605874133811, -23779.350373667523, -40654.85038219099, 0.158, 1.002, 0.156, 192.0, 0.0, 0.0, 0.0, 0.0, 0.0, 0.0, 0.0, 0.0, 0.0, 1.696032566175804E9, 0.0, 2023-09-29 19:09:26.175
226.0, -51792.81405124832, -29331.18842019897, -43342.35708026375, -28627.980187890553, -11475.340899865736, -14690.013490916908, -187500.02235174447, -10827.564993806482, -16769.575091549767, 12260.647089558493, -26093.60529108111, -25604.146790998795, 351.16825713732925, -9559.774048301464, -23784.603033614523, -40658.739585726216, 0.158, 1.002, 0.156, 192.0, 0.0, 0.0, 0.0, 0.0, 0.0, 0.0, 0.0, 0.0, 0.0, 1.696032566235967E9, 0.0, 2023-09-29 19:09:26.235
228.0, -51785.37092034471, -29379.91522311154, -43360.41728978363, -28671.655496556225, -11481.46527784649, -14691.198133373038, -187500.02235174447, -10821.57472629246, -16765.32826010326, 12265.363307638563, -26054.86971794006, -25599.095296751893, 358.03024268510853, -9546.27359465046, -23786.6146906155, -40663.478155550736, 0.166, 1.012, 0.154, 192.0, 2.5, 24.0, 15.5, 80.0, 2.0, 104.0, 0.0, 0.0, 0.0, 1.696032566235976E9, 0.0, 2023-09-29 19:09:26.235
230.0, -51787.49433606796, -29351.394397186566, -43361.9372084066, -28636.18327810565, -11467.629548028654, -14676.445982032536, -187500.02235174447, -10807.38136856334, -16763.741286246932, 12260.960013980868, -26103.820038297185, -25600.525808397033, 360.3548241084605, -9533.376638099748, -23782.27845219117, -40661.935885183324, 0.166, 1.012, 0.154, 192.0, 0.0, 0.0, 0.0, 0.0, 0.0, 0.0, 0.0, 0.0, 0.0, 1.696032566235979E9, 0.0, 2023-09-29 19:09:26.235
232.0, -51788.835440735274, -29328.90854226453, -43382.65727551666, -28675.544700091446, -11472.390469597634, -14680.871627434688, -187500.02235174447, -10816.255011112096, -16769.88801597214, 12278.841409545113, -26035.714272941863, -25607.812477089465, 348.53075129160305, -9524.927678695642, -23787.32994643807, -40663.679321250835, 0.166, 1.012, 0.154, 192.0, 0.0, 0.0, 0.0, 0.0, 0.0, 0.0, 0.0, 0.0, 0.0, 1.696032566235982E9, 0.0, 2023-09-29 19:09:26.235
234.0, -51792.143498914666, -29368.448778205966, -43370.721443977534, -28652.365941091295, -11459.292347346825, -14656.508225978403, -187500.02235174447, -10798.306560314484, -16766.93758570404, 12268.581958840128, -26109.162105222, -25586.086581478907, 367.59678931197993, -9518.378617570235, -23777.07049573308, -40665.53451604063, 0.166, 1.012, 0.154, 192.0, 0.0, 0.0, 0.0, 0.0, 0.0, 0.0, 0.0, 0.0, 0.0, 1.696032566235985E9, 0.0, 2023-09-29 19:09:26.235
236.0, -51792.23290589248, -29299.538350050254, -43390.34627560929, -28688.799284553446, -11472.010489941895, -14667.929967395065, -187500.02235174447, -10812.410511065784, -16762.51194030189, 12294.264113219275, -26018.369319244543, -25592.792104815497, 357.2255798847175, -9510.868431433253, -23779.305670178615, -40654.22453334624, 0.166, 1.012, 0.154, 192.0, 0.0, 0.0, 0.0, 0.0, 0.0, 0.0, 0.0, 0.0, 0.0, 1.696032566235989E9, 0.0, 2023-09-29 19:09:26.235
238.0, -51783.24750462145, -29366.750045627363, -43374.34242657929, -28680.238566427062, -11452.810341454786, -14646.002906084408, -187500.02235174447, -10799.55825800398, -16775.073620685773, 12258.970708724346, -26104.73645981985, -25586.4889128791, 358.6337397854018, -9519.40679781518, -23777.13755096645, -40670.80952773208, 0.168, 1.0, 0.158, 192.0, 2.5, 32.0, 15.5, 32.0, 2.0, 120.0, 0.0, 0.0, 0.0, 1.696032566235992E9, 0.0, 2023-09-29 19:09:26.235
240.0, -51788.94719945755, -29269.02821886876, -43387.6417145302, -28695.281290445484, -11467.338975350736, -14657.67051669008, -187500.02235174447, -10809.884763942333, -16762.17666413506, 12278.215560700364, -26025.208953047866, -25584.410200644757, 357.69496651827893, -9501.525402250934, -23768.442722373336, -40651.72113796725, 0.168, 1.0, 0.158, 192.0, 0.0, 0.0, 0.0, 0.0, 0.0, 0.0, 0.0, 0.0, 0.0, 1.696032566296297E9, 0.0, 2023-09-29 19:09:26.296
242.0, -51783.471022066005, -29370.840414862683, -43373.85068820127, -28693.135522977773, -11452.609175754687, -14645.064132817286, -187500.02235174447, -10798.843002181411, -16776.347670119725, 12262.994022726301, -26108.40214591052, -25582.465598877145, 355.95153045076495, -9513.014198900963, -23770.23086192976, -40670.407196331886, 0.168, 1.0, 0.158, 192.0, 0.0, 0.0, 0.0, 0.0, 0.0, 0.0, 0.0, 0.0, 0.0, 1.69603256629631E9, 0.0, 2023-09-29 19:09:26.296
244.0, -51788.500164568446, -29257.6064774521, -43377.5387260364, -28687.279365930484, -11460.208768869492, -14646.248775273416, -187500.02235174447, -10807.180202863241, -16763.27189961337, 12298.57799989915, -26021.610322190565, -25582.890282021795, 349.22365536971756, -9505.191088341606, -23767.123969450473, -40652.90578042338, 0.168, 1.0, 0.158, 192.0, 0.0, 0.0, 0.0, 0.0, 0.0, 0.0, 0.0, 0.0, 0.0, 1.696032566296314E9, 0.0, 2023-09-29 19:09:26.296
246.0, -51779.98414993098, -29380.541071956286, -43364.842935185785, -28688.95574676463, -11451.849216443208, -14644.594746183724, -187500.02235174447, -10801.055824882487, -16773.531350318357, 12282.261226446775, -26096.980404493857, -25575.268337162535, 356.9797106957091, -9506.711006964566, -23763.70415254881, -40662.11469913897, 0.168, 1.0, 0.158, 192.0, 0.0, 0.0, 0.0, 0.0, 0.0, 0.0, 0.0, 0.0, 0.0, 1.696032566296319E9, 0.0, 2023-09-29 19:09:26.296
248.0, -51772.47396379399, -29260.668666442474, -43373.224839356524, -28681.669078072202, -11458.152408379605, -14654.697734677522, -187500.02235174447, -10813.438691310726, -16746.5527947608, 12307.362235470086, -26019.352796000578, -25574.463674362145, 355.63860602839065, -9492.11531783525, -23761.759550781197, -40645.730870453226, 0.166, 0.996, 0.154, 192.0, 2.5, 24.0, 15.5, 16.0, 2.0, 104.0, 0.0, 0.0, 0.0, 1.696032566296322E9, 0.0, 2023-09-29 19:09:26.296
250.0, -51784.27568486639, -29398.869502409638, -43366.943999164585, -28709.027613285496, -11452.832693199241, -14657.648164945624, -187500.02235174447, -10814.913906444777, -16764.903576958608, 12262.658746559471, -26093.717049803385, -25590.534578625513, 354.23044612770633, -9518.26685884796, -23771.013172985695, -40671.36832134346, 0.166, 0.996, 0.154, 192.0, 0.0, 0.0, 0.0, 0.0, 0.0, 0.0, 0.0, 0.0, 0.0, 1.696032566296325E9, 0.0, 2023-09-29 19:09:26.296
252.0, -51780.453536564535, -29254.052550083707, -43370.855554444264, -28686.63116534128, -11454.821998455764, -14655.345935266727, -187500.02235174447, -10815.115072144876, -16744.205861592993, 12280.227217701342, -26022.146764057492, -25597.105991495373, 349.84950421446615, -9504.587591241312, -23766.207547927803, -40655.00684440218, 0.166, 0.996, 0.154, 192.0, 0.0, 0.0, 0.0, 0.0, 0.0, 0.0, 0.0, 0.0, 0.0, 1.696032566296328E9, 0.0, 2023-09-29 19:09:26.296
254.0, -51792.277609381395, -29405.82089493524, -43378.23163011451, -28718.907084334744, -11463.494475304422, -14669.13696159565, -187500.02235174447, -10819.51836580257, -16767.6081380377, 12247.571319052138, -26089.649032312518, -25603.811514831963, 343.8145332115332, -9531.566146798867, -23780.46796089029, -40677.8503272355, 0.166, 0.996, 0.154, 192.0, 0.0, 0.0, 0.0, 0.0, 0.0, 0.0, 0.0, 0.0, 0.0, 1.696032566296331E9, 0.0, 2023-09-29 19:09:26.296
0.0, -51806.2250979215, -29234.36066321858, -43388.267563374946, -28682.9207757617, -11468.434210829046, -14670.008679629407, -187500.02235174447, -10820.546546047515, -16759.337992589237, 12257.920176734946, -26034.730796185828, -25611.187590502213, 334.6056144959467, -9519.563260026367, -23785.206530714815, -40663.835783462026, 0.166, 0.996, 0.154, 192.0, 0.0, 0.0, 0.0, 0.0, 0.0, 0.0, 0.0, 0.0, 0.0, 1.69603256635661E9, 0.0, 2023-09-29 19:09:26.356
2.0, -51794.49043208247, -29380.026981833817, -43385.65240927367, -28720.69522389117, -11465.46142881649, -14671.707412208012, -187500.02235174447, -10815.18212737824, -16778.426382354068, 12235.300211346175, -26090.565453835185, -25609.53356141252, 332.370440050416, -9534.360114855781, -23791.442667417847, -40682.32067612656, 0.164, 0.998, 0.15, 192.0, 2.5, 16.0, 15.5, 24.0, 2.0, 88.0, 0.0, 0.0, 0.0, 1.696032566356619E9, 0.0, 2023-09-29 19:09:26.356
4.0, -51793.70812102653, -29256.73475941834, -43377.51637429195, -28674.605926824326, -11461.572225281267, -14667.125304594674, -187500.02235174447, -10810.622371509358, -16754.46531229798, 12268.0455169732, -26065.844424467618, -25599.25175896308, 345.40150706786005, -9516.277553591437, -23778.255138189215, -40664.23811486222, 0.164, 0.998, 0.15, 192.0, 0.0, 0.0, 0.0, 0.0, 0.0, 0.0, 0.0, 0.0, 0.0, 1.696032566356622E9, 0.0, 2023-09-29 19:09:26.356
6.0, -51783.046338921355, -29395.516740741343, -43377.62813301422, -28714.704956377147, -11467.249568372914, -14674.255511075917, -187500.02235174447, -10821.530022803548, -16769.306870616303, 12255.103856933578, -26084.329317132157, -25606.381965444325, 341.53465527709193, -9532.415513088168, -23790.615652873, -40683.84059474953, 0.164, 0.998, 0.15, 192.0, 0.0, 0.0, 0.0, 0.0, 0.0, 0.0, 0.0, 0.0, 0.0, 1.696032566356626E9, 0.0, 2023-09-29 19:09:26.356
8.0, -51790.601228547246, -29275.309059060703, -43366.98870265349, -28661.306638873415, -11459.873492702663, -14660.75505742491, -187500.02235174447, -10807.493127285616, -16754.5547192758, 12259.529502335728, -26068.12430240206, -25591.093372236894, 344.1051058894522, -9514.377655312735, -23782.613728358, -40665.66862650736, 0.164, 0.998, 0.15, 192.0, 0.0, 0.0, 0.0, 0.0, 0.0, 0.0, 0.0, 0.0, 0.0, 1.696032566356629E9, 0.0, 2023-09-29 19:09:26.356
10.0, -51778.19601037455, -29385.525510969823, -43376.33173183582, -28706.34540395086, -11465.75200149441, -14672.847351175233, -187500.02235174447, -10817.819633223968, -16763.763637991386, 12254.165083666454, -26070.940622203427, -25594.647299605287, 345.02152741211984, -9534.069542177862, -23783.619556858488, -40675.078710923044, 0.164, 0.998, 0.15, 192.0, 0.0, 0.0, 0.0, 0.0, 0.0, 0.0, 0.0, 0.0, 0.0, 1.696032566356632E9, 0.0, 2023-09-29 19:09:26.356
12.0, -51799.51957458491, -29279.89116667404, -43369.06741488784, -28655.361074848304, -11456.990117667929, -14660.308022535804, -187500.02235174447, -10805.347359817906, -16755.82876870975, 12260.334165136119, -26078.651974040506, -25598.24593046259, 344.79800996756677, -9519.607963515278, -23778.6127661005, -40663.90283869539, 0.17200000000000001, 1.004, 0.156, 192.0, 2.5, 48.0, 15.5, 48.0, 2.0, 112.0, 0.0, 0.0, 0.0, 1.696032566356635E9, 0.0, 2023-09-29 19:09:26.356
14.0, -51797.06088269483, -29349.740368096875, -43386.54647905189, -28699.43871491417, -11475.117382421182, -14679.485819278458, -187500.02235174447, -10819.89834545831, -16761.528463545856, 12270.079525718633, -26062.446959310408, -25598.514151396055, 333.9350621622875, -9514.556469268378, -23782.591376613545, -40667.92615269734, 0.17200000000000001, 1.004, 0.156, 192.0, 0.0, 0.0, 0.0, 0.0, 0.0, 0.0, 0.0, 0.0, 0.0, 1.696032566415909E9, 0.0, 2023-09-29 19:09:26.415
16.0, -51792.702292526046, -29285.210881854404, -43370.00618815496, -28657.842118482844, -11459.448809558013, -14665.739496438444, -187500.02235174447, -10804.788566206524, -16759.22623386696, 12258.23310115732, -26087.145636933525, -25605.01850903255, 337.3995825528601, -9525.642934518211, -23781.13851322395, -40670.07192016506, 0.17200000000000001, 1.004, 0.156, 192.0, 0.0, 0.0, 0.0, 0.0, 0.0, 0.0, 0.0, 0.0, 0.0, 1.696032566415922E9, 0.0, 2023-09-29 19:09:26.415
18.0, -51782.48754530997, -29354.724807110408, -43380.42210107113, -28699.52812189199, -11463.941510193528, -14680.558703012313, -187500.02235174447, -10812.678731999247, -16749.950259918005, 12257.18256916792, -26057.708389485884, -25591.92038678174, 343.5016087891589, -9521.686675749621, -23775.304707921114, -40668.84257422001, 0.17200000000000001, 1.004, 0.156, 192.0, 0.0, 0.0, 0.0, 0.0, 0.0, 0.0, 0.0, 0.0, 0.0, 1.696032566415925E9, 0.0, 2023-09-29 19:09:26.415
20.0, -51785.61678953371, -29330.003777742837, -43372.62134225623, -28666.112263931307, -11456.140751378627, -14668.66757496209, -187500.02235174447, -10810.644723253814, -16751.246661096415, 12246.967821951846, -26102.322471418676, -25596.189569972703, 338.53952152008077, -9525.911155451675, -23773.740085809244, -40672.843536477514, 0.17200000000000001, 1.004, 0.156, 192.0, 0.0, 0.0, 0.0, 0.0, 0.0, 0.0, 0.0, 0.0, 0.0, 1.696032566415929E9, 0.0, 2023-09-29 19:09:26.415
22.0, -51792.63523729268, -29343.86185930513, -43382.50081330548, -28704.15493299424, -11469.372984096168, -14683.196208858039, -187500.02235174447, -10829.800168252012, -16751.64899249661, 12249.04653418619, -26049.281781826234, -25602.96214854266, 332.370440050416, -9525.285306606926, -23780.311498679104, -40672.709426010784, 0.17400000000000002, 1.0, 0.16, 192.0, 2.5, 56.0, 15.5, 32.0, 2.5, 0.0, 0.0, 0.0, 0.0, 1.696032566415932E9, 0.0, 2023-09-29 19:09:26.415
24.0, -51784.61096103322, -29360.29039147978, -43372.91191493415, -28676.930508247675, -11463.047440415316, -14677.071830877285, -187500.02235174447, -10831.029514197055, -16745.301097071304, 12249.38181035302, -26111.93372153446, -25599.83290431892, 328.8165126820222, -9533.868376477763, -23787.55346388262, -40682.29832438211, 0.17400000000000002, 1.0, 0.16, 192.0, 0.0, 0.0, 0.0, 0.0, 0.0, 0.0, 0.0, 0.0, 0.0, 1.696032566415935E9, 0.0, 2023-09-29 19:09:26.415
26.0, -51797.26204839493, -29316.12334443609, -43370.60968525525, -28686.653517085735, -11465.997870683417, -14670.120438351685, -187500.02235174447, -10820.255973369596, -16754.621774509167, 12270.414801885463, -26041.39161603351, -25600.324642696934, 327.40835278133784, -9520.323219337848, -23787.441705160345, -40670.29543760961, 0.17400000000000002, 1.0, 0.16, 192.0, 0.0, 0.0, 0.0, 0.0, 0.0, 0.0, 0.0, 0.0, 0.0, 1.696032566415939E9, 0.0, 2023-09-29 19:09:26.415
28.0, -51800.39129261867, -29352.422577431513, -43363.27831307391, -28659.85377548382, -11459.337050835735, -14656.932909123054, -187500.02235174447, -10807.38136856334, -16771.832617739754, 12256.243795900798, -26116.560532636708, -25587.91942452424, 334.6056144959467, -9521.910193194175, -23776.444646888336, -40663.276989850645, 0.17400000000000002, 1.0, 0.16, 192.0, 0.0, 0.0, 0.0, 0.0, 0.0, 0.0, 0.0, 0.0, 0.0, 1.696032566415942E9, 0.0, 2023-09-29 19:09:26.415
30.0, -51796.01035070543, -29284.495626031832, -43380.10917664876, -28685.8712060298, -11474.916216721085, -14677.608272744212, -187500.02235174447, -10820.792415236523, -16769.955071205506, 12274.505171120783, -26041.682188711427, -25596.681308350722, 321.7980649230558, -9520.949068182596, -23787.397001671434, -40660.03598690462, 0.17400000000000002, 1.0, 0.16, 192.0, 0.0, 0.0, 0.0, 0.0, 0.0, 0.0, 0.0, 0.0, 0.0, 1.6960325664757E9, 0.0, 2023-09-29 19:09:26.475
32.0, -51790.10949016923, -29370.639249162585, -43365.44643228608, -28669.174452921685, -11458.89001594663, -14665.203054571517, -187500.02235174447, -10805.257952840086, -16780.37098412168, 12267.03968847271, -26129.949227565437, -25593.887340293808, 325.17317833580717, -9539.344553869314, -23783.172521969384, -40672.17298414386, 0.17200000000000001, 1.004, 0.15, 192.0, 2.5, 48.0, 15.5, 48.0, 2.0, 88.0, 0.0, 0.0, 0.0, 1.696032566475716E9, 0.0, 2023-09-29 19:09:26.475
34.0, -51788.18724014607, -29278.237137584347, -43379.08099640381, -28670.76142677801, -11470.26705387438, -14677.675327977578, -187500.02235174447, -10813.393987821817, -16761.103780401205, 12272.09118271961, -26048.678284725942, -25596.703660095176, 328.36947779291603, -9509.952009910585, -23778.925690522872, -40655.364472313464, 0.17200000000000001, 1.004, 0.15, 192.0, 0.0, 0.0, 0.0, 0.0, 0.0, 0.0, 0.0, 0.0, 0.0, 1.69603256647572E9, 0.0, 2023-09-29 19:09:26.475
36.0, -51794.26691463792, -29367.197080516467, -43372.71074923405, -28671.208461667116, -11463.36036483769, -14676.825961688277, -187500.02235174447, -10807.962513919178, -16780.4603910995, 12245.403199839975, -26122.461393172907, -25604.437363676712, 327.2518905701507, -9531.36498109877, -23782.814894058098, -40674.385806844926, 0.17200000000000001, 1.004, 0.15, 192.0, 0.0, 0.0, 0.0, 0.0, 0.0, 0.0, 0.0, 0.0, 0.0, 1.696032566475723E9, 0.0, 2023-09-29 19:09:26.475
38.0, -51791.696464025554, -29256.086558829138, -43376.6893597471, -28665.8663947423, -11470.22235038547, -14679.172894856083, -187500.02235174447, -10816.545583790015, -16764.568300791776, 12283.177647969444, -26042.956238145383, -25601.822209575443, 329.59882373795796, -9515.294076835404, -23780.646774845933, -40656.839687447515, 0.17200000000000001, 1.004, 0.15, 192.0, 0.0, 0.0, 0.0, 0.0, 0.0, 0.0, 0.0, 0.0, 0.0, 1.696032566475726E9, 0.0, 2023-09-29 19:09:26.475
40.0, -51782.50989705443, -29394.309746540755, -43363.948865407576, -28673.130711690275, -11461.639280514632, -14676.066002376796, -187500.02235174447, -10809.370673819862, -16770.64797528362, 12259.909481991468, -26121.92495130598, -25592.143904226294, 338.87479768691037, -9520.993771671507, -23783.261928947202, -40666.8979724524, 0.17200000000000001, 1.004, 0.15, 192.0, 0.0, 0.0, 0.0, 0.0, 0.0, 0.0, 0.0, 0.0, 0.0, 1.69603256647573E9, 0.0, 2023-09-29 19:09:26.475
42.0, -51785.88501046718, -29244.709520901386, -43373.940095179096, -28657.10451091582, -11469.194170140527, -14675.57426399878, -187500.02235174447, -10813.215173866174, -16755.89582394312, 12281.993005513312, -26041.905706155983, -25598.044764762493, 333.8903586733769, -9505.727530208533, -23782.345507424536, -40652.078765878534, 0.168, 1.004, 0.152, 192.0, 2.5, 32.0, 15.5, 48.0, 2.0, 96.0, 0.0, 0.0, 0.0, 1.696032566475733E9, 0.0, 2023-09-29 19:09:26.475
44.0, -51779.24654236395, -29382.843301635185, -43372.42017655614, -28679.903290260234, -11468.300100362314, -14670.343955796237, -187500.02235174447, -10807.80605170799, -16778.202864909515, 12256.66847904545, -26121.477916416876, -25591.24983444808, 336.75138196365623, -9524.301829850892, -23784.446571403336, -40667.255600363686, 0.168, 1.004, 0.152, 192.0, 0.0, 0.0, 0.0, 0.0, 0.0, 0.0, 0.0, 0.0, 0.0, 1.696032566535951E9, 0.0, 2023-09-29 19:09:26.535
46.0, -51777.5701615298, -29243.45782321189, -43367.97217940953, -28650.778967234968, -11464.522655549366, -14658.452827746014, -187500.02235174447, -10799.04416788151, -16761.483760056944, 12268.201979184387, -26054.78031096224, -25586.645375090287, 334.69502147376795, -9494.395195769692, -23779.37272541198, -40642.579274485026, 0.168, 1.004, 0.152, 192.0, 0.0, 0.0, 0.0, 0.0, 0.0, 0.0, 0.0, 0.0, 0.0, 1.696032566535963E9, 0.0, 2023-09-29 19:09:26.535
48.0, -51780.520591797904, -29418.606092763675, -43363.032443884906, -28689.268671187005, -11461.952204937006, -14659.101028335219, -187500.02235174447, -10798.775946948046, -16778.113457931693, 12272.158237952977, -26115.130020991568, -25580.789218043, 339.0089081536422, -9509.124995365739, -23784.915958036898, -40660.46067004927, 0.168, 1.004, 0.152, 192.0, 0.0, 0.0, 0.0, 0.0, 0.0, 0.0, 0.0, 0.0, 0.0, 1.696032566535967E9, 0.0, 2023-09-29 19:09:26.535
50.0, -51788.67897852409, -29271.26339331429, -43366.385205553204, -28650.063711412397, -11460.633452014143, -14665.024240615874, -187500.02235174447, -10810.175336620252, -16759.427399567056, 12292.498325407307, -26061.642296510017, -25582.085619221405, 339.5900535094802, -9500.519573750445, -23778.925690522872, -40644.94855939729, 0.168, 1.004, 0.152, 192.0, 0.0, 0.0, 0.0, 0.0, 0.0, 0.0, 0.0, 0.0, 0.0, 1.696032566535973E9, 0.0, 2023-09-29 19:09:26.535
52.0, -51782.33108309878, -29401.39524953309, -43379.39392082619, -28703.05969751593, -11472.390469597634, -14679.23995008945, -187500.02235174447, -10822.021761181566, -16779.14163817664, 12255.774409267236, -26095.97457599337, -25594.580244371922, 322.9156521458211, -9519.183280370627, -23798.84109483255, -40672.62001903296, 0.164, 1.006, 0.152, 192.0, 2.5, 16.0, 15.5, 56.0, 2.0, 96.0, 0.0, 0.0, 0.0, 1.696032566535976E9, 0.0, 2023-09-29 19:09:26.535
54.0, -51789.95302795804, -29279.466483529388, -43374.61064751275, -28653.930563203165, -11463.717992748976, -14668.555816239814, -187500.02235174447, -10814.891554700322, -16762.08725715724, 12273.85697053158, -26079.00960195179, -25593.97674727163, 333.1527511063518, -9506.621599986745, -23788.715754594297, -40656.03502464712, 0.164, 1.006, 0.152, 192.0, 0.0, 0.0, 0.0, 0.0, 0.0, 0.0, 0.0, 0.0, 0.0, 1.69603256653598E9, 0.0, 2023-09-29 19:09:26.535
56.0, -51781.079385409284, -29392.275737795324, -43379.30451384837, -28687.94991826414, -11468.367155595679, -14679.172894856083, -187500.02235174447, -10818.199612879707, -16771.765562506385, 12259.149522679989, -26089.604328823607, -25591.07102049244, 328.1906638372736, -9520.189108871116, -23790.950929039827, -40665.4004055739, 0.164, 1.006, 0.152, 192.0, 0.0, 0.0, 0.0, 0.0, 0.0, 0.0, 0.0, 0.0, 0.0, 1.696032566535983E9, 0.0, 2023-09-29 19:09:26.535
58.0, -51783.046338921355, -29252.130300060548, -43371.30258933337, -28640.43010955216, -11463.472123559968, -14670.299252307326, -187500.02235174447, -10814.936258189233, -16766.959937448497, 12270.839485030114, -26076.573261806163, -25589.14877046928, 322.9156521458211, -9512.298943078393, -23784.021888258685, -40650.60355074448, 0.164, 1.006, 0.152, 192.0, 0.0, 0.0, 0.0, 0.0, 0.0, 0.0, 0.0, 0.0, 0.0, 1.696032566535986E9, 0.0, 2023-09-29 19:09:26.535
60.0, -51787.13670815667, -29354.836565832684, -43376.376435324724, -28697.382354424284, -11472.256359130903, -14686.839543204254, -187500.02235174447, -10827.52029031757, -16782.449696356023, 12262.971670981846, -26079.277822885255, -25595.451962405677, 318.4005997658491, -9524.190071128616, -23791.174446484383, -40664.90866719588, 0.164, 1.006, 0.152, 192.0, 0.0, 0.0, 0.0, 0.0, 0.0, 0.0, 0.0, 0.0, 0.0, 1.696032566596398E9, 0.0, 2023-09-29 19:09:26.596
62.0, -51791.852926236745, -29269.989343880337, -43361.40076653967, -28653.550583547425, -11453.749114721908, -14676.37892679917, -187500.02235174447, -10819.317200102472, -16769.5080363164, 12270.906540263479, -26102.680099329962, -25600.101125252382, 323.4073905238379, -9522.334876338826, -23780.42325740138, -40661.175925871845, 0.16, 1.01, 0.158, 192.0, 2.5, 0.0, 15.5, 72.0, 2.0, 120.0, 0.0, 0.0, 0.0, 1.696032566596408E9, 0.0, 2023-09-29 19:09:26.596
64.0, -51776.184353373574, -29358.748121112363, -43365.80406019736, -28696.39887766825, -11464.433248571546, -14688.851200205232, -187500.02235174447, -10831.051865941508, -16767.6081380377, 12264.692755304904, -26079.143712418525, -25598.983538029617, 329.1294371043965, -9529.286268864425, -23778.813931800596, -40666.74151024121, 0.16, 1.01, 0.158, 192.0, 0.0, 0.0, 0.0, 0.0, 0.0, 0.0, 0.0, 0.0, 0.0, 1.696032566596412E9, 0.0, 2023-09-29 19:09:26.596
66.0, -51783.471022066005, -29315.788068269263, -43353.82352516932, -28646.0627491549, -11454.509074033389, -14678.43528728906, -187500.02235174447, -10821.351208847906, -16763.674231013567, 12258.009583712768, -26112.02312851228, -25594.44613390519, 325.2849370580837, -9526.268783362959, -23777.51753062219, -40665.46746080726, 0.16, 1.01, 0.158, 192.0, 0.0, 0.0, 0.0, 0.0, 0.0, 0.0, 0.0, 0.0, 0.0, 1.696032566596416E9, 0.0, 2023-09-29 19:09:26.596
68.0, -51773.99388241695, -29345.359426183633, -43365.5358392639, -28684.463046129116, -11470.579978296755, -14692.203961873527, -187500.02235174447, -10832.840005497934, -16767.026992681862, 12261.0941244476, -26060.1000261426, -25588.679383835723, 326.71544870322333, -9527.006390929984, -23778.344545167038, -40662.87465845045, 0.16, 1.01, 0.158, 192.0, 0.0, 0.0, 0.0, 0.0, 0.0, 0.0, 0.0, 0.0, 0.0, 1.696032566596419E9, 0.0, 2023-09-29 19:09:26.596
70.0, -51776.85490570723, -29323.208847428425, -43351.94597863507, -28646.04039741044, -11458.800608968808, -14678.636452989156, -187500.02235174447, -10821.351208847906, -16763.003678679906, 12268.201979184387, -26107.12809647657, -25584.901939022773, 327.6989254592568, -9535.567109056366, -23780.289146934647, -40664.64044626241, 0.16, 1.01, 0.158, 192.0, 0.0, 0.0, 0.0, 0.0, 0.0, 0.0, 0.0, 0.0, 0.0, 1.696032566596423E9, 0.0, 2023-09-29 19:09:26.596
72.0, -51773.5691992723, -29303.85223673013, -43366.72048172003, -28678.897461759745, -11474.424478343068, -14692.829810718276, -187500.02235174447, -10832.683543286746, -16763.51776880238, 12276.695642077404, -26038.35177878759, -25589.97578501413, 321.95452713424294, -9536.774103256954, -23784.915958036898, -40658.96310317077, 0.16, 1.012, 0.158, 192.0, 2.5, 0.0, 15.5, 80.0, 2.0, 120.0, 0.0, 0.0, 0.0, 1.696032566596426E9, 0.0, 2023-09-29 19:09:26.596
74.0, -51772.33985332726, -29321.80068752774, -43353.22002806902, -28647.828536966867, -11463.65093751561, -14684.693775736545, -187500.02235174447, -10829.710761274191, -16765.3059083588, 12258.590729068605, -26113.721861090882, -25588.567625113443, 321.4404370117709, -9536.528234067946, -23788.80516157212, -40666.540344541114, 0.16, 1.012, 0.158, 192.0, 0.0, 0.0, 0.0, 0.0, 0.0, 0.0, 0.0, 0.0, 0.0, 1.696032566656683E9, 0.0, 2023-09-29 19:09:26.656
76.0, -51787.181411645586, -29262.367399021077, -43366.76518520894, -28670.895537244745, -11476.682004533053, -14701.05525267783, -187500.02235174447, -10847.614508582892, -16764.94828044752, 12273.85697053158, -26040.989284633313, -25594.714354838652, 315.6513351978463, -9529.755655497987, -23792.403792429424, -40661.466498549766, 0.16, 1.012, 0.158, 192.0, 0.0, 0.0, 0.0, 0.0, 0.0, 0.0, 0.0, 0.0, 0.0, 1.696032566656694E9, 0.0, 2023-09-29 19:09:26.656
78.0, -51777.39134757416, -29339.503269136345, -43349.889618145186, -28657.77506324948, -11457.951242679506, -14688.76179322741, -187500.02235174447, -10837.824444511467, -16769.731553760954, 12255.059153444667, -26123.40016644003, -25588.187645457703, 318.9817451216871, -9541.758542270487, -23794.013118030205, -40678.47617608025, 0.16, 1.012, 0.158, 192.0, 0.0, 0.0, 0.0, 0.0, 0.0, 0.0, 0.0, 0.0, 0.0, 1.696032566656697E9, 0.0, 2023-09-29 19:09:26.656
80.0, -51763.756783456425, -29286.93196617746, -43349.71080418954, -28660.412569095206, -11459.247643857914, -14692.203961873527, -187500.02235174447, -10840.95368873521, -16750.106722129192, 12284.876380548047, -26040.743415444307, -25575.089523206894, 332.23632958368415, -9526.961687441075, -23781.65260334642, -40654.78332695762, 0.16, 1.012, 0.158, 192.0, 0.0, 0.0, 0.0, 0.0, 0.0, 0.0, 0.0, 0.0, 0.0, 1.696032566656701E9, 0.0, 2023-09-29 19:09:26.656
82.0, -51770.43995504856, -29377.21066203245, -43349.040251855884, -28653.215307380597, -11449.144655364116, -14683.844409447243, -187500.02235174447, -10836.595098566426, -16763.31660310228, 12266.100915205589, -26111.196113967435, -25576.45297961867, 331.9681086502205, -9538.31637362437, -23783.127818480472, -40666.85326896349, 0.164, 1.008, 0.156, 192.0, 2.5, 16.0, 15.5, 64.0, 2.0, 112.0, 0.0, 0.0, 0.0, 1.696032566656704E9, 0.0, 2023-09-29 19:09:26.656
84.0, -51770.19408585955, -29300.343012850644, -43361.0878421173, -28660.770197006488, -11459.426457813557, -14693.142735140651, -187500.02235174447, -10848.799151039024, -16750.218480851472, 12278.148505467, -26038.999979376793, -25579.850444775875, 326.2684138141172, -9526.000562429495, -23783.820722558587, -40661.8464782055, 0.164, 1.008, 0.156, 192.0, 0.0, 0.0, 0.0, 0.0, 0.0, 0.0, 0.0, 0.0, 0.0, 1.696032566656707E9, 0.0, 2023-09-29 19:09:26.656
86.0, -51781.079385409284, -29423.00938642137, -43356.01399612594, -28667.140444176253, -11465.327318349759, -14689.298235094338, -187500.02235174447, -10842.808883525, -16774.13484741865, 12242.251603871777, -26129.770413609793, -25590.6910408367, 326.13430334738536, -9552.040344719928, -23790.83917031755, -40679.14672841391, 0.164, 1.008, 0.156, 192.0, 0.0, 0.0, 0.0, 0.0, 0.0, 0.0, 0.0, 0.0, 0.0, 1.69603256665671E9, 0.0, 2023-09-29 19:09:26.656
88.0, -51782.35343484324, -29292.69871624693, -43364.59706599678, -28653.57293529188, -11473.910388220596, -14696.562552042313, -187500.02235174447, -10852.062505729498, -16760.03089666735, 12266.793819283703, -26052.92511617245, -25593.395601915792, 323.4297422682932, -9533.376638099748, -23790.503894150723, -40661.108870638476, 0.164, 1.008, 0.156, 192.0, 0.0, 0.0, 0.0, 0.0, 0.0, 0.0, 0.0, 0.0, 0.0, 1.696032566656713E9, 0.0, 2023-09-29 19:09:26.656
90.0, -51791.76351925892, -29404.569197245743, -43361.44547002858, -28680.082104215875, -11475.519713821377, -14700.09412766625, -187500.02235174447, -10854.118866219385, -16785.04249871284, 12241.312830604653, -26125.07654727418, -25600.68227060822, 314.77961716408936, -9560.534007612945, -23801.18802800036, -40681.53836507063, 0.164, 1.008, 0.156, 192.0, 0.0, 0.0, 0.0, 0.0, 0.0, 0.0, 0.0, 0.0, 0.0, 1.696032566716008E9, 0.0, 2023-09-29 19:09:26.716
92.0, -51781.30290285384, -29263.88731764404, -43358.897371160674, -28656.210441137606, -11481.264112146391, -14700.272941621894, -187500.02235174447, -10853.917700519289, -16763.428361824557, 12266.547950094695, -26060.748226731805, -25595.72018333914, 314.73491367517875, -9543.949013227108, -23797.23176923177, -40663.92519043985, 0.164, 1.006, 0.16, 192.0, 2.5, 16.0, 15.5, 56.0, 2.5, 0.0, 0.0, 0.0, 0.0, 1.696032566716018E9, 0.0, 2023-09-29 19:09:26.716
94.0, -51764.33792881226, -29405.35150830168, -43353.57765598031, -28681.557319349926, -11478.872475489674, -14704.989159701963, -187500.02235174447, -10858.14218022134, -16770.715030516985, 12246.744304507292, -26119.175686737977, -25588.522921624535, 317.6182887099134, -9564.691432081632, -23799.6681093774, -40678.18560340233, 0.164, 1.006, 0.16, 192.0, 0.0, 0.0, 0.0, 0.0, 0.0, 0.0, 0.0, 0.0, 0.0, 1.696032566716022E9, 0.0, 2023-09-29 19:09:26.716
96.0, -51772.18339111607, -29259.707541430897, -43354.44937401407, -28647.9626474336, -11478.93953072304, -14704.43036609058, -187500.02235174447, -10861.62905235637, -16754.375905320157, 12261.407048869974, -26060.48000579834, -25580.29747966498, 321.2616230561284, -9538.495187580012, -23797.5670453986, -40662.159402627876, 0.164, 1.006, 0.16, 192.0, 0.0, 0.0, 0.0, 0.0, 0.0, 0.0, 0.0, 0.0, 0.0, 1.696032566716025E9, 0.0, 2023-09-29 19:09:26.716
98.0, -51780.49824005345, -29399.785923932308, -43364.06062412985, -28695.258938701027, -11488.215504671993, -14713.48282259498, -187500.02235174447, -10871.307357705517, -16780.03570795485, 12230.025199654723, -26104.73645981985, -25592.30036643748, 313.48321598568157, -9566.166647215683, -23806.574798414087, -40680.37607435895, 0.164, 1.006, 0.16, 192.0, 0.0, 0.0, 0.0, 0.0, 0.0, 0.0, 0.0, 0.0, 0.0, 1.696032566716029E9, 0.0, 2023-09-29 19:09:26.716
100.0, -51772.04928064934, -29249.157518047992, -43364.842935185785, -28645.48160379906, -11482.113478435693, -14704.855049235231, -187500.02235174447, -10864.557130880015, -16761.483760056944, 12256.690830789905, -26072.34878210411, -25589.931081525217, 317.7300474321899, -9553.359097642791, -23797.723507609786, -40661.98058867223, 0.164, 1.006, 0.16, 192.0, 0.0, 0.0, 0.0, 0.0, 0.0, 0.0, 0.0, 0.0, 0.0, 1.696032566716032E9, 0.0, 2023-09-29 19:09:26.716
102.0, -51784.923885455595, -29367.91233633904, -43367.12281312023, -28692.68848808867, -11481.331167379758, -14716.477956351991, -187500.02235174447, -10871.642633872347, -16781.443867855534, 12234.316734590142, -26098.857951028105, -25600.07877350793, 307.85057638294415, -9573.833295563853, -23803.490257679256, -40681.56071681508, 0.162, 1.0, 0.156, 192.0, 2.5, 8.0, 15.5, 32.0, 2.0, 112.0, 0.0, 0.0, 0.0, 1.696032566716036E9, 0.0, 2023-09-29 19:09:26.716
104.0, -51778.48658305247, -29256.868869885075, -43349.330824533805, -28647.42620556667, -11466.400202083612, -14701.457584078025, -187500.02235174447, -10853.560072608003, -16764.74711474742, 12262.681098303927, -26090.386639879544, -25590.668689092243, 312.9467741187542, -9555.370754643769, -23790.302728450624, -40671.86005972148, 0.162, 1.0, 0.156, 192.0, 0.0, 0.0, 0.0, 0.0, 0.0, 0.0, 0.0, 0.0, 0.0, 1.696032566775701E9, 0.0, 2023-09-29 19:09:26.775
106.0, -51778.59834177475, -29362.547917669766, -43354.1811530806, -28685.133598462773, -11475.631472543655, -14712.38758711667, -187500.02235174447, -10855.370563908884, -16775.006565452404, 12248.353630108075, -26096.3098521602, -25588.098238479884, 320.72518118920107, -9561.98687100254, -23783.03841150265, -40671.39067308792, 0.162, 1.0, 0.156, 192.0, 0.0, 0.0, 0.0, 0.0, 0.0, 0.0, 0.0, 0.0, 0.0, 1.696032566775726E9, 0.0, 2023-09-29 19:09:26.775
108.0, -51773.34568182775, -29254.141957061525, -43345.843952398776, -28631.48941177004, -11471.183475397049, -14694.595598530246, -187500.02235174447, -10843.837063769945, -16768.41280083809, 12239.927022448424, -26093.11355270309, -25591.67451759273, 315.8525008979441, -9561.785705302442, -23783.731315580764, -40662.53938228362, 0.162, 1.0, 0.156, 192.0, 0.0, 0.0, 0.0, 0.0, 0.0, 0.0, 0.0, 0.0, 0.0, 1.69603256677573E9, 0.0, 2023-09-29 19:09:26.775
110.0, -51776.29611209585, -29355.305952466246, -43356.21516182604, -28674.404761124228, -11480.884132490652, -14705.52560156889, -187500.02235174447, -10854.834122041955, -16774.000736951915, 12253.919214477446, -26084.709296787896, -25584.320793666935, 316.94773637625417, -9561.763353557988, -23787.37464992698, -40659.343082826505, 0.162, 1.0, 0.156, 192.0, 0.0, 0.0, 0.0, 0.0, 0.0, 0.0, 0.0, 0.0, 0.0, 1.696032566775733E9, 0.0, 2023-09-29 19:09:26.775
112.0, -51784.58860928877, -29293.101047647127, -43351.05190885686, -28630.796507691924, -11479.163048167593, -14689.164124627607, -187500.02235174447, -10846.608680082403, -16774.336013118747, 12244.911461461958, -26111.55374187872, -25583.896110522284, 313.9302508747877, -9558.924682012163, -23793.94606279684, -40656.16913511385, 0.168, 1.0, 0.156, 192.0, 2.5, 32.0, 15.5, 32.0, 2.0, 112.0, 0.0, 0.0, 0.0, 1.696032566775736E9, 0.0, 2023-09-29 19:09:26.775
114.0, -51783.44867032155, -29354.56834489922, -43363.099499118274, -28675.790569280456, -11487.544952338332, -14706.95611321403, -187500.02235174447, -10859.662098844303, -16778.381678865157, 12248.174816152432, -26082.585881064642, -25584.67842157822, 312.6338496963799, -9562.411554147191, -23804.719603624297, -40664.57339102905, 0.168, 1.0, 0.156, 192.0, 0.0, 0.0, 0.0, 0.0, 0.0, 0.0, 0.0, 0.0, 0.0, 1.696032566775739E9, 0.0, 2023-09-29 19:09:26.775
116.0, -51788.008426190434, -29299.404239583524, -43352.97415888002, -28635.512725771994, -11471.541103308333, -14702.105784667228, -187500.02235174447, -10854.476494130671, -16776.772353264376, 12258.367211624052, -26113.49834364633, -25584.097276222383, 314.48904448617037, -9581.23172297856, -23798.84109483255, -40667.00973117468, 0.168, 1.0, 0.156, 192.0, 0.0, 0.0, 0.0, 0.0, 0.0, 0.0, 0.0, 0.0, 0.0, 1.696032566775742E9, 0.0, 2023-09-29 19:09:26.775
118.0, -51779.53711504187, -29318.894960748552, -43360.57375199482, -28676.8187495254, -11479.744193523431, -14722.11059595473, -187500.02235174447, -10873.140200750853, -16773.598405551722, 12238.876490459024, -26068.236061124335, -25592.50153213758, 309.61636419491344, -9569.698222839621, -23795.644795375443, -40673.78230974464, 0.168, 1.0, 0.156, 192.0, 0.0, 0.0, 0.0, 0.0, 0.0, 0.0, 0.0, 0.0, 0.0, 1.696032566775746E9, 0.0, 2023-09-29 19:09:26.775
120.0, -51786.041472678364, -29320.571341582698, -43348.973196622515, -28642.62058050878, -11465.617891027678, -14712.700511539044, -187500.02235174447, -10866.077049502976, -16779.14163817664, 12230.740455477293, -26129.189268253955, -25590.735744325608, 320.99340212266475, -9584.651539880222, -23785.720620837288, -40679.01261794718, 0.168, 1.0, 0.156, 192.0, 0.0, 0.0, 0.0, 0.0, 0.0, 0.0, 0.0, 0.0, 0.0, 1.696032566835906E9, 0.0, 2023-09-29 19:09:26.835
122.0, -51766.28253057987, -29306.6685565315, -43363.18890609609, -28679.255089671027, -11478.98423421195, -14718.422558119602, -187500.02235174447, -10875.509485663115, -16776.23591139745, 12243.123321905532, -26059.69769474241, -25593.753229827074, 305.7495124041453, -9579.80121133342, -23797.745859354243, -40673.98347544474, 0.162, 1.002, 0.162, 192.0, 2.5, 8.0, 15.5, 40.0, 2.5, 8.0, 0.0, 0.0, 0.0, 1.696032566835915E9, 0.0, 2023-09-29 19:09:26.835
124.0, -51778.24071386346, -29368.426426461512, -43348.66027220014, -28653.57293529188, -11467.830713728752, -14701.658749778122, -187500.02235174447, -10853.738886563646, -16776.124152675173, 12248.800664997181, -26141.08039630418, -25585.617194845345, 321.06045735603067, -9580.605874133811, -23791.4650191623, -40671.658894021384, 0.162, 1.002, 0.162, 192.0, 0.0, 0.0, 0.0, 0.0, 0.0, 0.0, 0.0, 0.0, 0.0, 1.696032566835918E9, 0.0, 2023-09-29 19:09:26.835
126.0, -51787.360225601224, -29292.966937180394, -43368.419214298636, -28681.177339694186, -11487.70141454952, -14715.583886573779, -187500.02235174447, -10865.160627980307, -16768.301042115814, 12238.921193947936, -26051.338142316123, -25598.40239267378, 312.76796016311175, -9579.13065899976, -23799.824571588586, -40663.835783462026, 0.162, 1.002, 0.162, 192.0, 0.0, 0.0, 0.0, 0.0, 0.0, 0.0, 0.0, 0.0, 0.0, 1.696032566835921E9, 0.0, 2023-09-29 19:09:26.835
128.0, -51782.264027865414, -29352.04259777577, -43357.44450777108, -28667.520423831993, -11476.302024877314, -14704.273903879393, -187500.02235174447, -10852.710706318701, -16779.722783532474, 12217.485871015297, -26136.632399157574, -25600.07877350793, 312.0527043405419, -9597.213220264104, -23800.5174756667, -40676.37511210145, 0.162, 1.002, 0.162, 192.0, 0.0, 0.0, 0.0, 0.0, 0.0, 0.0, 0.0, 0.0, 0.0, 1.696032566835924E9, 0.0, 2023-09-29 19:09:26.835
130.0, -51773.43508880557, -29284.249756842826, -43368.35215906527, -28675.790569280456, -11479.095992934226, -14707.850182992242, -187500.02235174447, -10866.546436136538, -16763.249547868916, 12251.214653398354, -26057.86485169707, -25595.5413693835, 312.0303525960866, -9583.869228824286, -23799.243426232748, -40666.31682709656, 0.162, 1.002, 0.162, 192.0, 0.0, 0.0, 0.0, 0.0, 0.0, 0.0, 0.0, 0.0, 0.0, 1.696032566835928E9, 0.0, 2023-09-29 19:09:26.835
132.0, -51769.59058875926, -29383.223281290924, -43358.070356615826, -28665.553470319926, -11474.960920209995, -14709.95124697104, -187500.02235174447, -10870.8156193275, -16775.207731152503, 12234.249679356775, -26138.666407903005, -25592.97091877114, 313.9973061081536, -9594.352196973825, -23803.154981512427, -40680.71135052578, 0.166, 1.004, 0.158, 192.0, 2.5, 24.0, 15.5, 48.0, 2.0, 120.0, 0.0, 0.0, 0.0, 1.696032566835931E9, 0.0, 2023-09-29 19:09:26.835
134.0, -51761.499257266434, -29261.607439709598, -43355.07522285882, -28656.880993471266, -11484.214542414493, -14719.741311042466, -187500.02235174447, -10883.287892733562, -16756.767541976875, 12256.802589512181, -26048.14184285901, -25582.510302366056, 322.2003963232513, -9570.905217040208, -23798.52817041018, -40664.595742773505, 0.166, 1.004, 0.158, 192.0, 0.0, 0.0, 0.0, 0.0, 0.0, 0.0, 0.0, 0.0, 0.0, 1.696032566896402E9, 0.0, 2023-09-29 19:09:26.896
136.0, -51777.592513274256, -29360.51390892433, -43345.86630414323, -28663.452406341126, -11478.93953072304, -14716.097976696252, -187500.02235174447, -10878.281101975574, -16770.066829927782, 12239.569394537139, -26123.534276906765, -25583.762000055554, 321.4851405006815, -9597.861420853307, -23799.6681093774, -40676.30805686809, 0.166, 1.004, 0.158, 192.0, 0.0, 0.0, 0.0, 0.0, 0.0, 0.0, 0.0, 0.0, 0.0, 1.696032566896425E9, 0.0, 2023-09-29 19:09:26.896
138.0, -51768.093021880755, -29247.45878546939, -43345.17340006511, -28646.688597999648, -11471.943434708528, -14704.139793412662, -187500.02235174447, -10864.378316924372, -16757.102818143703, 12250.834673742615, -26056.881374941036, -25585.036049489507, 322.96035563473174, -9570.61464436229, -23791.062687762107, -40657.845515948, 0.166, 1.004, 0.158, 192.0, 0.0, 0.0, 0.0, 0.0, 0.0, 0.0, 0.0, 0.0, 0.0, 1.696032566896429E9, 0.0, 2023-09-29 19:09:26.896
140.0, -51762.50508576693, -29402.959871644962, -43328.09666730126, -28661.328990617872, -11464.455600316001, -14695.042633419353, -187500.02235174447, -10847.726267305168, -16770.08918167224, 12237.065999158145, -26133.32434097819, -25570.172139426726, 328.90591965984345, -9579.644749122233, -23780.42325740138, -40664.43928056232, 0.166, 1.004, 0.158, 192.0, 0.0, 0.0, 0.0, 0.0, 0.0, 0.0, 0.0, 0.0, 0.0, 1.696032566896433E9, 0.0, 2023-09-29 19:09:26.896
142.0, -51774.507972539424, -29253.851384383608, -43332.902292359155, -28630.23771408054, -11473.88803647614, -14697.255456120427, -187500.02235174447, -10847.279232416062, -16750.374943062656, 12258.94835697989, -26055.696732484907, -25571.848520260875, 331.7222394612121, -9566.568978615878, -23773.740085809244, -40642.020480873645, 0.166, 1.006, 0.152, 192.0, 2.5, 24.0, 15.5, 56.0, 2.0, 96.0, 0.0, 0.0, 0.0, 1.696032566896436E9, 0.0, 2023-09-29 19:09:26.896
144.0, -51768.54005676986, -29400.970566388438, -43336.6797371721, -28666.134615675765, -11475.296196376825, -14707.894886481154, -187500.02235174447, -10856.376392409373, -16772.436114840046, 12236.70837124686, -26111.30787268971, -25578.643450575288, 322.4909690011703, -9594.620417907288, -23784.915958036898, -40665.55686778508, 0.166, 1.006, 0.152, 192.0, 0.0, 0.0, 0.0, 0.0, 0.0, 0.0, 0.0, 0.0, 0.0, 1.69603256689644E9, 0.0, 2023-09-29 19:09:26.896
146.0, -51759.37584154318, -29225.44231718091, -43336.612681938735, -28617.363109274283, -11481.912312735596, -14700.161182899617, -187500.02235174447, -10860.511465133604, -16746.016352893872, 12260.557682580673, -26057.082540641135, -25571.982630727605, 323.4297422682932, -9571.240493207037, -23782.121989979983, -40644.47917276373, 0.166, 1.006, 0.152, 192.0, 0.0, 0.0, 0.0, 0.0, 0.0, 0.0, 0.0, 0.0, 0.0, 1.696032566896443E9, 0.0, 2023-09-29 19:09:26.896
148.0, -51759.37584154318, -29379.87051962263, -43340.367775007224, -28659.518499316993, -11482.471106346979, -14702.105784667228, -187500.02235174447, -10865.048869258031, -16764.613004280687, 12236.70837124686, -26098.612081839095, -25565.478273091114, 327.47540801470376, -9586.350272458825, -23786.27941444867, -40660.415966560366, 0.166, 1.006, 0.152, 192.0, 0.0, 0.0, 0.0, 0.0, 0.0, 0.0, 0.0, 0.0, 0.0, 1.696032566896446E9, 0.0, 2023-09-29 19:09:26.896
150.0, -51756.47011476399, -29243.904858100996, -43335.696260416065, -28614.077402839353, -11474.737402765442, -14685.610197259211, -187500.02235174447, -10854.923529019778, -16748.631506995145, 12254.701525533383, -26070.270069869766, -25567.758151025555, 328.05655337054174, -9570.145257728727, -23778.724524822777, -40636.27608254863, 0.166, 1.006, 0.152, 192.0, 0.0, 0.0, 0.0, 0.0, 0.0, 0.0, 0.0, 0.0, 0.0, 1.696032566956674E9, 0.0, 2023-09-29 19:09:26.956
152.0, -51750.65866120561, -29381.122217312124, -43341.15008606316, -28662.04424644044, -11479.475972589968, -14702.53046781188, -187500.02235174447, -10866.546436136538, -16760.16500713408, 12243.838577728102, -26084.06109619869, -25571.24502316058, 329.1294371043965, -9583.176324746171, -23784.625385358977, -40649.44126003281, 0.17, 1.006, 0.152, 192.0, 2.5, 40.0, 15.5, 56.0, 2.0, 96.0, 0.0, 0.0, 0.0, 1.696032566956683E9, 0.0, 2023-09-29 19:09:26.956
154.0, -51770.10467888173, -29244.17307903446, -43339.65251918465, -28619.218304064074, -11473.664519031587, -14696.495496808946, -187500.02235174447, -10864.601834368925, -16750.620812251665, 12252.37694411003, -26070.806511736693, -25570.194491171183, 324.36851553541607, -9577.074298509873, -23784.491274892247, -40640.81348667306, 0.17, 1.006, 0.152, 192.0, 0.0, 0.0, 0.0, 0.0, 0.0, 0.0, 0.0, 0.0, 0.0, 1.696032566956687E9, 0.0, 2023-09-29 19:09:26.956
156.0, -51764.382632301174, -29372.24857476337, -43353.62235946922, -28681.06558097191, -11479.475972589968, -14706.374967858192, -187500.02235174447, -10860.399706411328, -16769.575091549767, 12234.1379206345, -26082.898805487017, -25580.141017453792, 321.03810561157536, -9592.228781250571, -23790.973280784285, -40660.192449115806, 0.17, 1.006, 0.152, 192.0, 0.0, 0.0, 0.0, 0.0, 0.0, 0.0, 0.0, 0.0, 0.0, 1.696032566956692E9, 0.0, 2023-09-29 19:09:26.956
158.0, -51785.996769189456, -29262.41210250999, -43359.187943838595, -28638.463156040092, -11478.850123745218, -14700.831735233276, -187500.02235174447, -10853.537720863547, -16765.730591503452, 12227.879432187014, -26103.350651663623, -25587.651203590776, 315.2043003087402, -9599.157822031715, -23790.973280784285, -40656.705576980785, 0.17, 1.006, 0.152, 192.0, 0.0, 0.0, 0.0, 0.0, 0.0, 0.0, 0.0, 0.0, 0.0, 1.696032566956695E9, 0.0, 2023-09-29 19:09:26.956
160.0, -51774.664434750615, -29342.90073429355, -43367.12281312023, -28683.658383328722, -11487.23202791596, -14709.638322548668, -187500.02235174447, -10859.05860174401, -16777.442905598033, 12217.530574504206, -26089.649032312518, -25592.613290859856, 310.7115996732235, -9604.812813378909, -23800.3163099666, -40665.89214395191, 0.17, 1.006, 0.152, 192.0, 0.0, 0.0, 0.0, 0.0, 0.0, 0.0, 0.0, 0.0, 0.0, 1.696032566956698E9, 0.0, 2023-09-29 19:09:26.956
162.0, -51766.28253057987, -29291.201149368426, -43350.806039667856, -28631.958798403597, -11479.69949003452, -14698.462450321014, -187500.02235174447, -10860.399706411328, -16765.998812436916, 12239.792911981693, -26118.03574777076, -25571.848520260875, 316.7465706761564, -9588.138412015249, -23791.88970230695, -40653.53162926813, 0.17, 1.002, 0.146, 192.0, 2.5, 40.0, 15.5, 40.0, 2.0, 72.0, 0.0, 0.0, 0.0, 1.696032566956702E9, 0.0, 2023-09-29 19:09:26.956
164.0, -51767.802449202834, -29325.488725362866, -43351.45424025706, -28666.291077886952, -11493.199943685526, -14709.839488248765, -187500.02235174447, -10874.704822862725, -16770.670327028078, 12230.56164152165, -26070.381828592042, -25575.558909840456, 317.9759166211983, -9589.6136271493, -23794.348394197037, -40654.00101590169, 0.17, 1.002, 0.146, 192.0, 0.0, 0.0, 0.0, 0.0, 0.0, 0.0, 0.0, 0.0, 0.0, 1.696032567017139E9, 0.0, 2023-09-29 19:09:27.017
166.0, -51768.651815492136, -29302.80170474073, -43326.93437658958, -28617.452516252106, -11474.849161487718, -14690.415822317103, -187500.02235174447, -10855.951709264722, -16766.80347523731, 12232.215670611344, -26116.180552980968, -25567.15465392526, 333.8680069289216, -9583.332786957359, -23786.055897004117, -40647.85428617648, 0.17, 1.002, 0.146, 192.0, 0.0, 0.0, 0.0, 0.0, 0.0, 0.0, 0.0, 0.0, 0.0, 1.696032567017151E9, 0.0, 2023-09-29 19:09:27.017
168.0, -51761.58866424426, -29296.677326759975, -43335.964481349525, -28648.990827678543, -11483.566341825288, -14700.652921277633, -187500.02235174447, -10856.689316831746, -16764.27772811386, 12247.258394629765, -26051.20403184939, -25573.68136330621, 338.919501175821, -9572.22396996307, -23789.766286583697, -40638.243036060696, 0.17, 1.002, 0.146, 192.0, 0.0, 0.0, 0.0, 0.0, 0.0, 0.0, 0.0, 0.0, 0.0, 1.696032567017155E9, 0.0, 2023-09-29 19:09:27.017
170.0, -51770.6187690042, -29292.586957524654, -43330.935338847084, -28608.08713532533, -11467.383678839646, -14688.38181357167, -187500.02235174447, -10837.422113111272, -16773.3078328738, 12246.386676596008, -26123.2660559733, -25574.15074993977, 354.69983276126777, -9563.149161714216, -23787.911091793907, -40642.19929482929, 0.17, 1.002, 0.146, 192.0, 0.0, 0.0, 0.0, 0.0, 0.0, 0.0, 0.0, 0.0, 0.0, 1.696032567017158E9, 0.0, 2023-09-29 19:09:27.017
172.0, -51764.85201893473, -29261.719198431874, -43358.830315927305, -28649.39315907874, -11476.03380394385, -14699.870610221698, -187500.02235174447, -10847.14512194933, -16774.93951021904, 12258.680136046427, -26050.511127771275, -25581.124494209827, 358.6337397854018, -9550.051039463406, -23799.690461121852, -40645.306187308575, 0.17, 1.016, 0.156, 192.0, 2.5, 40.0, 15.5, 96.0, 2.0, 112.0, 0.0, 0.0, 0.0, 1.696032567017161E9, 0.0, 2023-09-29 19:09:27.017
174.0, -51762.57214100029, -29315.206922913425, -43358.60679848275, -28632.450536781616, -11458.711201990987, -14685.252569347927, -187500.02235174447, -10831.14127291933, -16783.723745789976, 12239.837615470602, -26132.20675375542, -25581.370363398837, 366.2333329002062, -9543.837254504831, -23797.120010509494, -40660.974760171746, 0.17, 1.016, 0.156, 192.0, 0.0, 0.0, 0.0, 0.0, 0.0, 0.0, 0.0, 0.0, 0.0, 1.696032567017164E9, 0.0, 2023-09-29 19:09:27.017
176.0, -51774.48562079497, -29247.92817210295, -43382.880792961216, -28658.24444988304, -11469.529446307355, -14693.455659563026, -187500.02235174447, -10839.456121856705, -16776.23591139745, 12243.860929472557, -26053.86388943957, -25578.73285755311, 357.9408357072873, -9520.949068182596, -23797.61174888751, -40655.61034150247, 0.17, 1.016, 0.156, 192.0, 0.0, 0.0, 0.0, 0.0, 0.0, 0.0, 0.0, 0.0, 0.0, 1.696032567017167E9, 0.0, 2023-09-29 19:09:27.017
178.0, -51781.14644064265, -29311.250664144834, -43383.216069128044, -28658.266801627495, -11470.870550974674, -14676.75890645491, -187500.02235174447, -10830.157796163297, -16790.451620871023, 12230.293420588187, -26130.083338032167, -25583.471427377634, 353.29167286058345, -9530.582670042833, -23808.362937970513, -40674.452862078295, 0.17, 1.016, 0.156, 192.0, 0.0, 0.0, 0.0, 0.0, 0.0, 0.0, 0.0, 0.0, 0.0, 1.696032567017171E9, 0.0, 2023-09-29 19:09:27.017
180.0, -51767.98126315848, -29214.19938971989, -43392.62615354373, -28671.9684209786, -11476.793763255331, -14676.468333776991, -187500.02235174447, -10833.845833998423, -16776.124152675173, 12260.557682580673, -26040.944581144406, -25581.39271514329, 345.75913497914496, -9513.572992512345, -23805.926597824884, -40660.21480086027, 0.17, 1.016, 0.156, 192.0, 0.0, 0.0, 0.0, 0.0, 0.0, 0.0, 0.0, 0.0, 0.0, 1.696032567075781E9, 0.0, 2023-09-29 19:09:27.075
182.0, -51763.890893923155, -29336.351673168145, -43378.32103709233, -28672.795435523443, -11463.472123559968, -14663.727839437466, -187500.02235174447, -10823.966362949177, -16785.04249871284, 12241.13401664901, -26129.636303143063, -25572.027334216516, 346.1838181237958, -9513.796509956897, -23802.640891389954, -40669.982513187235, 0.17, 1.016, 0.156, 192.0, 2.5, 40.0, 15.5, 96.0, 2.0, 112.0, 0.0, 0.0, 0.0, 1.696032567075791E9, 0.0, 2023-09-29 19:09:27.075
184.0, -51776.76549872941, -29168.758293242252, -43388.37932209722, -28665.75463602002, -11481.08529819075, -14669.785162184855, -187500.02235174447, -10837.422113111272, -16770.64797528362, 12254.723877277836, -26037.63652296502, -25568.62986905931, 339.47829478720365, -9493.948160880585, -23795.957719797818, -40647.608416987474, 0.17, 1.016, 0.156, 192.0, 0.0, 0.0, 0.0, 0.0, 0.0, 0.0, 0.0, 0.0, 0.0, 1.696032567075795E9, 0.0, 2023-09-29 19:09:27.075
186.0, -51764.36028055671, -29311.384774611568, -43376.510545791454, -28692.979060766585, -11469.104763162704, -14662.90082489262, -187500.02235174447, -10834.38227586535, -16789.959882493007, 12240.463464315351, -26116.98521578136, -25569.322773137425, 342.4510767997595, -9523.40776007268, -23807.826496103586, -40675.59280104552, 0.17, 1.016, 0.156, 192.0, 0.0, 0.0, 0.0, 0.0, 0.0, 0.0, 0.0, 0.0, 0.0, 1.696032567075798E9, 0.0, 2023-09-29 19:09:27.075
188.0, -51758.079440364774, -29182.504616082268, -43381.5396882939, -28663.89944123023, -11467.137809650638, -14656.798798656322, -187500.02235174447, -10835.008124710099, -16758.913309444586, 12274.371060654052, -26042.509203256275, -25551.173156639714, 349.4248210698153, -9483.174620053127, -23794.169580241392, -40651.452917033785, 0.17, 1.016, 0.156, 192.0, 0.0, 0.0, 0.0, 0.0, 0.0, 0.0, 0.0, 0.0, 0.0, 1.696032567075801E9, 0.0, 2023-09-29 19:09:27.075
190.0, -51755.12901009667, -29311.831809500673, -43383.01490342795, -28694.856607300833, -11466.802533483808, -14663.325508037271, -187500.02235174447, -10837.600927066915, -16779.812190510296, 12245.760827751259, -26098.634433583553, -25552.938944451686, 345.02152741211984, -9489.746032922987, -23798.32700471008, -40668.46259456428, 0.17, 1.016, 0.156, 192.0, 0.0, 0.0, 0.0, 0.0, 0.0, 0.0, 0.0, 0.0, 0.0, 1.696032567075804E9, 0.0, 2023-09-29 19:09:27.075
192.0, -51763.30974856731, -29154.430825046402, -43382.50081330548, -28666.20167090913, -11459.784085724841, -14655.837673644743, -187500.02235174447, -10828.928450218255, -16757.527501288354, 12269.923063507445, -26031.95917987337, -25559.15272941026, 345.3121000900388, -9478.883085117708, -23792.247330218237, -40652.995187401204, 0.166, 1.004, 0.16, 192.0, 2.5, 24.0, 15.5, 48.0, 2.5, 0.0, 0.0, 0.0, 0.0, 1.696032567075808E9, 0.0, 2023-09-29 19:09:27.075
194.0, -51757.811219431314, -29307.13794316506, -43380.980894682514, -28704.69137486117, -11454.710239733487, -14663.414915015092, -187500.02235174447, -10832.683543286746, -16774.894806730128, 12252.064019687656, -26092.063020713693, -25565.031238202006, 345.06623090103045, -9495.579838225824, -23793.789600585653, -40668.57435328655, 0.166, 1.004, 0.16, 192.0, 0.0, 0.0, 0.0, 0.0, 0.0, 0.0, 0.0, 0.0, 0.0, 1.696032567136179E9, 0.0, 2023-09-29 19:09:27.136
196.0, -51770.05997539282, -29177.028438690715, -43377.3375603363, -28662.33481911836, -11454.84435020022, -14656.776446911867, -187500.02235174447, -10831.610659552893, -16746.284573827335, 12280.182514212433, -26054.087406884126, -25558.884508476796, 344.26156810063935, -9475.530323449413, -23786.055897004117, -40649.95535015528, 0.166, 1.004, 0.16, 192.0, 0.0, 0.0, 0.0, 0.0, 0.0, 0.0, 0.0, 0.0, 0.0, 1.696032567136192E9, 0.0, 2023-09-29 19:09:27.136
198.0, -51749.71988793849, -29325.354614896136, -43374.23066785702, -28701.83035157089, -11455.179626367048, -14663.52667373737, -187500.02235174447, -10837.958554978199, -16760.433228067544, 12240.910499204458, -26088.129113689556, -25556.71638926463, 351.3917745818823, -9490.751861423476, -23789.028679016672, -40667.85909746398, 0.166, 1.004, 0.16, 192.0, 0.0, 0.0, 0.0, 0.0, 0.0, 0.0, 0.0, 0.0, 0.0, 1.696032567136196E9, 0.0, 2023-09-29 19:09:27.136
200.0, -51765.991957901955, -29166.187842629894, -43381.22676387153, -28659.29498187244, -11456.610138012187, -14664.085467348752, -187500.02235174447, -10836.706857288702, -16751.425475052056, 12254.343897622097, -26051.941639416415, -25562.01375270054, 345.71443149023435, -9487.667320688644, -23789.22984471677, -40654.51510602416, 0.166, 1.004, 0.16, 192.0, 0.0, 0.0, 0.0, 0.0, 0.0, 0.0, 0.0, 0.0, 0.0, 1.696032567136199E9, 0.0, 2023-09-29 19:09:27.136
202.0, -51750.30103329433, -29305.66272803101, -43386.70294126307, -28711.598063897858, -11459.404106069102, -14670.8133424298, -187500.02235174447, -10836.23747065514, -16772.972556706973, 12245.358496351064, -26074.67336352746, -25565.16534866874, 342.1158006329299, -9506.509841264467, -23800.070440777596, -40675.637504534425, 0.166, 1.0, 0.16, 192.0, 2.5, 24.0, 15.5, 32.0, 2.5, 0.0, 0.0, 0.0, 0.0, 1.696032567136202E9, 0.0, 2023-09-29 19:09:27.136
204.0, -51765.52257126839, -29207.806790805673, -43379.21510687055, -28657.730359760568, -11448.965841408473, -14655.100066077717, -187500.02235174447, -10825.396874594317, -16760.54498678982, 12262.167008181455, -26083.12232293157, -25562.192566656184, 344.75330647865616, -9489.053128844873, -23789.520417394688, -40659.343082826505, 0.166, 1.0, 0.16, 192.0, 0.0, 0.0, 0.0, 0.0, 0.0, 0.0, 0.0, 0.0, 0.0, 1.696032567136206E9, 0.0, 2023-09-29 19:09:27.136
206.0, -51771.73635622697, -29296.23029187087, -43385.25007787348, -28701.025688770496, -11462.823922970763, -14668.622871473179, -187500.02235174447, -10837.958554978199, -16777.12998117566, 12242.408066082962, -26066.582032034643, -25565.634735302297, 332.8621784284328, -9497.524439993434, -23796.650623875932, -40663.701672995296, 0.166, 1.0, 0.16, 192.0, 0.0, 0.0, 0.0, 0.0, 0.0, 0.0, 0.0, 0.0, 0.0, 1.696032567136209E9, 0.0, 2023-09-29 19:09:27.136
208.0, -51767.57893175828, -29223.296549713203, -43360.35023455027, -28646.308618343905, -11449.256414086392, -14656.307060278305, -187500.02235174447, -10830.358961863394, -16764.613004280687, 12255.506188333773, -26089.73843929034, -25561.34320036688, 342.0710971440193, -9493.92580913613, -23788.067554005094, -40654.872733935445, 0.166, 1.0, 0.16, 192.0, 0.0, 0.0, 0.0, 0.0, 0.0, 0.0, 0.0, 0.0, 0.0, 1.696032567136212E9, 0.0, 2023-09-29 19:09:27.136
210.0, -51757.7665159424, -29296.073829659683, -43373.18013586762, -28692.710839833122, -11470.021184685373, -14678.815266944799, -187500.02235174447, -10850.922566762278, -16765.976460692462, 12243.905632961469, -26056.277877840745, -25560.15855791075, 336.1925883522735, -9501.97243714004, -23796.583568642567, -40660.30420783809, 0.166, 1.0, 0.16, 192.0, 0.0, 0.0, 0.0, 0.0, 0.0, 0.0, 0.0, 0.0, 0.0, 1.696032567196287E9, 0.0, 2023-09-29 19:09:27.196
212.0, -51763.0191758894, -29240.842669110618, -43368.754490465464, -28648.72260674508, -11468.300100362314, -14670.545121496336, -187500.02235174447, -10843.457084114205, -16767.339917104237, 12254.768580766748, -26095.81811378218, -25558.884508476796, 342.1828558662958, -9493.009387613463, -23802.14915301194, -40665.355702084984, 0.17200000000000001, 1.002, 0.158, 192.0, 2.5, 48.0, 15.5, 40.0, 2.0, 120.0, 0.0, 0.0, 0.0, 1.696032567196295E9, 0.0, 2023-09-29 19:09:27.196
214.0, -51767.26600733591, -29265.474291500366, -43388.22285988604, -28697.382354424284, -11481.442926102034, -14687.823019960288, -187500.02235174447, -10855.638784842347, -16771.65380378411, 12246.632545785016, -26052.701598727894, -25574.64248831779, 329.4200097823155, -9499.625503972233, -23812.140382783462, -40672.48590856623, 0.17200000000000001, 1.002, 0.158, 192.0, 0.0, 0.0, 0.0, 0.0, 0.0, 0.0, 0.0, 0.0, 0.0, 1.696032567196299E9, 0.0, 2023-09-29 19:09:27.196
216.0, -51784.096870910755, -29245.290666257224, -43385.58535404031, -28666.67105754269, -11468.277748617858, -14678.6141012447, -187500.02235174447, -10840.104322445908, -16782.270882400382, 12222.962048406845, -26116.918160547993, -25583.896110522284, 326.13430334738536, -9510.60021049979, -23814.017929317706, -40679.9513912143, 0.17200000000000001, 1.002, 0.158, 192.0, 0.0, 0.0, 0.0, 0.0, 0.0, 0.0, 0.0, 0.0, 0.0, 1.696032567196302E9, 0.0, 2023-09-29 19:09:27.196
218.0, -51784.47685056649, -29247.5034889583, -43396.15772916767, -28701.428020170693, -11476.570245810777, -14686.638377504156, -187500.02235174447, -10848.039191727543, -16778.09110618724, 12235.926060190925, -26066.470273312363, -25589.796971058488, 322.96035563473174, -9505.772233697442, -23813.19091477286, -40676.57627780155, 0.17200000000000001, 1.002, 0.158, 192.0, 0.0, 0.0, 0.0, 0.0, 0.0, 0.0, 0.0, 0.0, 0.0, 1.696032567196305E9, 0.0, 2023-09-29 19:09:27.196
220.0, -51792.29996112585, -29260.758073420297, -43390.569793053844, -28675.187072180164, -11473.776277753865, -14679.754040211921, -187500.02235174447, -10849.447351628227, -16786.02597546887, 12223.543193762684, -26136.07360554619, -25595.228444961125, 320.2781463000949, -9520.412626315669, -23813.168563028405, -40683.32650462705, 0.17200000000000001, 1.002, 0.158, 192.0, 0.0, 0.0, 0.0, 0.0, 0.0, 0.0, 0.0, 0.0, 0.0, 1.696032567196308E9, 0.0, 2023-09-29 19:09:27.196
222.0, -51774.19504811705, -29222.871866568552, -43391.66502853215, -28694.186054967173, -11480.32533887927, -14689.141772883151, -187500.02235174447, -10856.488151131649, -16780.37098412168, 12225.84542344158, -26070.78415999224, -25595.92134903924, 320.1216840889077, -9513.304771578882, -23820.835211376576, -40680.08550168103, 0.17200000000000001, 1.002, 0.16, 192.0, 2.5, 48.0, 15.5, 40.0, 2.5, 0.0, 0.0, 0.0, 0.0, 1.696032567196312E9, 0.0, 2023-09-29 19:09:27.196
224.0, -51772.36220507172, -29283.93683242045, -43378.94688593708, -28671.7672552785, -11464.679117760554, -14677.876493677675, -187500.02235174447, -10848.821502783478, -16782.13677193365, 12226.583031008606, -26144.61197192812, -25579.649279075777, 318.7805794215893, -9515.137614624216, -23816.253103763236, -40683.125338926955, 0.17200000000000001, 1.002, 0.16, 192.0, 0.0, 0.0, 0.0, 0.0, 0.0, 0.0, 0.0, 0.0, 0.0, 1.696032567255943E9, 0.0, 2023-09-29 19:09:27.255
226.0, -51765.72373696849, -29194.596909832588, -43383.61840052824, -28681.40085713874, -11476.704356277509, -14689.767621727899, -187500.02235174447, -10858.589215110447, -16768.681021771554, 12240.999906182278, -26061.195261620913, -25576.520034852034, 312.76796016311175, -9500.966608639552, -23813.61559791751, -40666.540344541114, 0.17200000000000001, 1.002, 0.16, 192.0, 0.0, 0.0, 0.0, 0.0, 0.0, 0.0, 0.0, 0.0, 0.0, 1.696032567255955E9, 0.0, 2023-09-29 19:09:27.255
228.0, -51778.46423130801, -29272.403332281512, -43364.351196807766, -28682.00435423903, -11468.41185908459, -14687.845371704743, -187500.02235174447, -10852.688354574246, -16785.13190569066, 12215.429510525408, -26137.191192768958, -25578.576395341923, 311.33744851797206, -9526.045265918407, -23820.67874916539, -40684.39938836091, 0.17200000000000001, 1.002, 0.16, 192.0, 0.0, 0.0, 0.0, 0.0, 0.0, 0.0, 0.0, 0.0, 0.0, 1.696032567255959E9, 0.0, 2023-09-29 19:09:27.255
230.0, -51769.277664336885, -29146.227734831304, -43365.06645263034, -28673.801264023932, -11473.55276030931, -14690.840505461754, -187500.02235174447, -10850.162607450797, -16776.973518964474, 12238.831786970113, -26048.700636470396, -25572.876700505818, 314.8690241419106, -9509.303809321382, -23809.793449615652, -40663.9475421843, 0.17200000000000001, 1.002, 0.16, 192.0, 0.0, 0.0, 0.0, 0.0, 0.0, 0.0, 0.0, 0.0, 0.0, 1.696032567255962E9, 0.0, 2023-09-29 19:09:27.255
232.0, -51760.2699113214, -29291.312908090702, -43358.65150197167, -28685.692392074157, -11461.996908425917, -14689.320586838794, -187500.02235174447, -10843.814712025489, -16784.997795223928, 12217.619981482028, -26133.056120044723, -25572.519072594532, 317.372419520905, -9523.45246356159, -23812.967397328306, -40682.16421391538, 0.164, 1.006, 0.156, 192.0, 2.5, 16.0, 15.5, 56.0, 2.0, 112.0, 0.0, 0.0, 0.0, 1.696032567255965E9, 0.0, 2023-09-29 19:09:27.255
234.0, -51747.328251281775, -29167.797168230674, -43353.801173424865, -28653.10354865832, -11456.565434523278, -14678.90467392262, -187500.02235174447, -10834.38227586535, -16752.096027385716, 12270.079525718633, -26059.094197642113, -25560.67264803322, 329.6882307157792, -9503.06767261835, -23796.695327364843, -40659.208972359775, 0.164, 1.006, 0.156, 192.0, 0.0, 0.0, 0.0, 0.0, 0.0, 0.0, 0.0, 0.0, 0.0, 1.696032567255968E9, 0.0, 2023-09-29 19:09:27.255
236.0, -51767.176600358085, -29281.858120186105, -43359.50086826097, -28673.309525645916, -11462.22042587047, -14688.47122054949, -187500.02235174447, -10848.061543471998, -16783.18730392305, 12222.269144328731, -26118.70630010442, -25563.31015387895, 328.3471260484607, -9523.631277517234, -23796.918844809396, -40669.44607132031, 0.164, 1.006, 0.156, 192.0, 0.0, 0.0, 0.0, 0.0, 0.0, 0.0, 0.0, 0.0, 0.0, 1.696032567255972E9, 0.0, 2023-09-29 19:09:27.255
238.0, -51763.734431711964, -29149.312275566135, -43366.04992938637, -28645.68276949916, -11462.287481103836, -14681.251607090428, -187500.02235174447, -10848.262709172095, -16760.813207723288, 12250.23117664232, -26055.495566784808, -25561.05262768896, 328.0342016260864, -9492.919980635641, -23796.67297562039, -40655.453879291286, 0.164, 1.006, 0.156, 192.0, 0.0, 0.0, 0.0, 0.0, 0.0, 0.0, 0.0, 0.0, 0.0, 1.696032567255975E9, 0.0, 2023-09-29 19:09:27.255
240.0, -51770.79758295984, -29295.55973953721, -43374.65535100167, -28672.52721458998, -11459.113533391183, -14680.268130334394, -187500.02235174447, -10844.597023081426, -16784.751926034918, 12226.918307175436, -26113.431288412965, -25570.797988271475, 325.08377135798594, -9512.589515756312, -23804.697251879843, -40669.64723702041, 0.164, 1.006, 0.156, 192.0, 0.0, 0.0, 0.0, 0.0, 0.0, 0.0, 0.0, 0.0, 0.0, 1.696032567317245E9, 0.0, 2023-09-29 19:09:27.317
242.0, -51768.29418758085, -29155.660170991443, -43374.275371345924, -28636.652664739213, -11453.771466466364, -14676.893016921642, -187500.02235174447, -10837.533871833548, -16765.08239091425, 12250.208824897865, -26065.844424467618, -25566.417046358234, 332.5269022616032, -9494.953989381074, -23796.13653375346, -40648.23426583222, 0.166, 1.01, 0.154, 192.0, 2.5, 24.0, 15.5, 72.0, 2.0, 104.0, 0.0, 0.0, 0.0, 1.696032567317259E9, 0.0, 2023-09-29 19:09:27.317
244.0, -51762.25921657791, -29294.84448371464, -43376.488194047, -28683.948956006643, -11455.26903334487, -14687.24187460445, -187500.02235174447, -10839.456121856705, -16781.823847511274, 12225.13016761901, -26107.373965665578, -25576.475331363123, 325.50845450263677, -9516.411664058169, -23802.32796696758, -40666.02625441865, 0.166, 1.01, 0.154, 192.0, 0.0, 0.0, 0.0, 0.0, 0.0, 0.0, 0.0, 0.0, 0.0, 1.696032567317263E9, 0.0, 2023-09-29 19:09:27.317
