%OpenBCI Raw EXG Data
%Number of channels = 16
%Sample Rate = 125 Hz
%Board = OpenBCI_GUI$BoardCytonSerialDaisy
Sample Index, EXG Channel 0, EXG Channel 1, EXG Channel 2, EXG Channel 3, EXG Channel 4, EXG Channel 5, EXG Channel 6, EXG Channel 7, EXG Channel 8, EXG Channel 9, EXG Channel 10, EXG Channel 11, EXG Channel 12, EXG Channel 13, EXG Channel 14, EXG Channel 15, Accel Channel 0, Accel Channel 1, Accel Channel 2, Other, Other, Other, Other, Other, Other, Other, Analog Channel 0, Analog Channel 1, Analog Channel 2, Timestamp, Other, Timestamp (Formatted)
0.0, 21433.355979127406, 33169.56408853103, -52513.92603086544, -55224.23150828261, -37473.01250374466, -20846.667390664505, -187500.02235174447, -36092.90404235173, 0.0, 0.0, 0.0, 0.0, 0.0, 0.0, 0.0, 0.0, 0.0, 0.0, 0.0, 192.0, 0.0, 0.0, 0.0, 0.0, 0.0, 0.0, 0.0, 0.0, 0.0, 1.695419831438816E9, 0.0, 2023-09-22 16:57:11.438
210.0, 21482.663927395814, 33221.73306008972, -52522.93378388093, -55247.343212049396, -37468.43039613133, -20871.88015841009, -187500.02235174447, -36109.4219815042, -9547.03355396194, 18653.849500876608, -50362.32475785312, -47129.36843983751, -21189.00670874199, -52387.30339852612, -52502.30312374868, -42429.82476113138, 0.0, 0.0, 0.0, 192.0, 0.0, 0.0, 0.0, 0.0, 0.0, 0.0, 0.0, 0.0, 0.0, 1.695419831438826E9, 0.0, 2023-09-22 16:57:11.438
212.0, 21429.690293036736, 33167.68654199679, -52529.169920583954, -55243.40930502526, -37489.35162894149, -20869.063838608723, -187500.02235174447, -36109.936071626675, -9552.465027864579, 18621.14889873849, -50367.10803116656, -47138.555006808645, -21205.412889172185, -52394.053625351626, -52511.40028374199, -42435.54680771194, 0.0, 0.0, 0.0, 192.0, 0.0, 0.0, 0.0, 0.0, 0.0, 0.0, 0.0, 0.0, 0.0, 1.695419831438846E9, 0.0, 2023-09-22 16:57:11.438
214.0, 21476.0701627815, 33217.10624898747, -52540.03286838924, -55264.4422965577, -37483.85309980549, -20889.716850485427, -187500.02235174447, -36124.21883633362, -9566.41251640469, 18630.000189542796, -50386.93402849842, -47157.5316378512, -21220.947351568622, -52414.259602339225, -52526.44300776041, -42455.21634283261, 0.0, 0.0, 0.0, 192.0, 0.0, 0.0, 0.0, 0.0, 0.0, 0.0, 0.0, 0.0, 0.0, 1.69541983143885E9, 0.0, 2023-09-22 16:57:11.438
216.0, 21441.29084840904, 33180.605850291955, -52512.24965003129, -55224.052694326965, -37477.81812880256, -20849.84133837716, -187500.02235174447, -36092.032324317974, -9543.680792293644, 18626.580372641132, -50362.88355146451, -47138.86793123102, -21205.52464789446, -52390.18677356086, -52510.3944552415, -42435.122124567286, 0.0, 0.0, 0.0, 192.0, 0.0, 0.0, 0.0, 0.0, 0.0, 0.0, 0.0, 0.0, 0.0, 1.695419831438853E9, 0.0, 2023-09-22 16:57:11.438
218.0, 21479.199407005242, 33220.235493211214, -52528.432313016936, -55262.497694790094, -37471.6937508218, -20888.57691151821, -187500.02235174447, -36117.423906019205, -9533.555452055389, 18655.525881710753, -50357.49678105078, -47130.79895148265, -21203.602397871306, -52386.52108747019, -52501.63257141502, -42432.529322210474, -0.002, 0.994, 0.20800000000000002, 192.0, 127.5, 120.0, 15.5, 8.0, 3.0, 64.0, 0.0, 0.0, 0.0, 1.695419831438856E9, 0.0, 2023-09-22 16:57:11.438
220.0, 21436.9099064958, 33179.689428769285, -52536.92597590995, -55251.92531966273, -37499.16404475737, -20876.506969512342, -187500.02235174447, -36113.95938562863, -9567.08306873835, 18615.382148669025, -50385.771737786745, -47162.20315244236, -21221.997883558022, -52413.9243261724, -52531.0474671182, -42461.02779639099, -0.002, 0.994, 0.20800000000000002, 192.0, 0.0, 0.0, 0.0, 0.0, 0.0, 0.0, 0.0, 0.0, 0.0, 1.695419831438859E9, 0.0, 2023-09-22 16:57:11.438
222.0, 21471.68922086826, 33212.92647277433, -52530.42161827345, -55261.871845945345, -37471.067901977054, -20887.168751617523, -187500.02235174447, -36112.9759088726, -9558.410591889691, 18632.436529688424, -50375.691101037395, -47148.255663902244, -21205.323482194362, -52403.24019232276, -52511.19911804189, -42445.0686508499, -0.002, 0.994, 0.20800000000000002, 192.0, 0.0, 0.0, 0.0, 0.0, 0.0, 0.0, 0.0, 0.0, 0.0, 1.695419831438863E9, 0.0, 2023-09-22 16:57:11.438
224.0, 21443.39191238784, 33188.004277706656, -52524.565461226164, -55237.687258444705, -37488.479910907736, -20864.906414140038, -187500.02235174447, -36100.078952321885, -9560.981042502051, 18625.619247629555, -50374.797031259186, -47147.071021446114, -21204.272950204962, -52402.18966033336, -52512.6966849204, -42442.475848493086, -0.002, 0.994, 0.20800000000000002, 192.0, 0.0, 0.0, 0.0, 0.0, 0.0, 0.0, 0.0, 0.0, 0.0, 1.695419831438866E9, 0.0, 2023-09-22 16:57:11.438
0.0, 10708.340788881873, 16580.389926480046, -26224.005368233367, -27573.402532744713, -18737.914411773017, -10456.838960270758, -93750.01117587223, -17906.004834890944, -4775.271388920712, 9329.7522461119, -25183.55401558328, -23567.031153086562, -10600.091290484821, -26195.52924579731, -26248.614638878662, -21216.34289221083, -0.004, 1.0, 0.212, 192.0, 127.5, 112.0, 15.5, 32.0, 3.0, 80.0, 0.0, 0.0, 0.0, 1.695419831599241E9, 0.0, 2023-09-22 16:57:11.599
2.0, 21379.80119941249, 33118.89268385085, -52441.19345440787, -55145.17338814418, -37463.0436257176, -20910.101641428668, -187500.02235174447, -35801.81727431027, -9476.558503694356, 18833.31165710827, -50275.22000971079, -47158.93979775188, -20939.449481898486, -52242.62055666692, -52369.22083726178, -42362.47895508754, -0.004, 1.0, 0.212, 192.0, 0.0, 0.0, 0.0, 0.0, 0.0, 0.0, 0.0, 0.0, 0.0, 1.695419831599254E9, 0.0, 2023-09-22 16:57:11.599
4.0, 21419.117917909374, 33163.93144892829, -52462.002928495756, -55167.86040876632, -37472.14078571091, -20932.18516495051, -187500.02235174447, -35821.50916117539, -9504.051149374383, 18840.799491500795, -50305.32780949209, -47185.7842428427, -20974.027630570847, -52271.92369364783, -52391.90785788392, -42389.65867634519, -0.004, 1.0, 0.212, 192.0, 0.0, 0.0, 0.0, 0.0, 0.0, 0.0, 0.0, 0.0, 0.0, 1.695419831599258E9, 0.0, 2023-09-22 16:57:11.599
6.0, 21371.37459175284, 33116.07636404948, -52457.443172626874, -55150.44839983564, -37477.28168693563, -20911.353339118166, -187500.02235174447, -35808.768666835866, -9499.714910950055, 18814.424433043532, -50298.24230649976, -47182.878516063516, -20970.451351457996, -52262.31244353205, -52392.77957591767, -42382.99785649751, -0.004, 1.0, 0.212, 192.0, 0.0, 0.0, 0.0, 0.0, 0.0, 0.0, 0.0, 0.0, 0.0, 1.695419831599262E9, 0.0, 2023-09-22 16:57:11.599
8.0, 21423.230638889152, 33173.52034729962, -52455.56562609263, -55158.04799295044, -37462.46248036176, -20919.958760733458, -187500.02235174447, -35814.42365818306, -9487.73437592201, 18856.468064363966, -50290.419195940405, -47170.428594401914, -20963.075275787745, -52251.18127479331, -52380.93315135636, -42373.36425463727, -0.004, 1.0, 0.212, 192.0, 0.0, 0.0, 15.0, 112.0, 3.0, 64.0, 0.0, 0.0, 0.0, 1.695419831599265E9, 0.0, 2023-09-22 16:57:11.599
10.0, 21378.16952206725, 33127.22988453268, -52446.490817843776, -55136.34444908434, -37475.046512490095, -20901.76444074684, -187500.02235174447, -35803.13602723313, -9491.176544568127, 18835.30096236479, -50286.485288916265, -47166.69585307787, -20963.321144976755, -52246.44270496878, -52383.36949150199, -42371.66552205867, -0.004, 1.0, 0.212, 192.0, 0.0, 0.0, 0.0, 0.0, 0.0, 0.0, 0.0, 0.0, 0.0, 1.695419831599269E9, 0.0, 2023-09-22 16:57:11.599
12.0, 21424.303522623006, 33173.85562346645, -52448.74834403376, -55153.97997545957, -37460.9425617388, -20918.215324665944, -187500.02235174447, -35808.79101858032, -9490.014253856452, 18860.02199173236, -50289.72629186229, -47166.517039122235, -20962.896461832104, -52245.90626310185, -52377.692148410344, -42370.05619645789, -0.004, 1.0, 0.212, 192.0, 0.0, 0.0, 0.0, 0.0, 0.0, 0.0, 0.0, 0.0, 0.0, 1.695419831599272E9, 0.0, 2023-09-22 16:57:11.599
14.0, 21377.968356367157, 33125.75466939863, -52453.196341180366, -55144.704001510625, -37485.46242540627, -20911.308635629255, -187500.02235174447, -35808.835722069234, -9494.194030069593, 18831.3447035962, -50293.079053530586, -47177.7376148388, -20958.604926896685, -52251.20362653776, -52387.43750899286, -42378.05812097289, -0.004, 1.0, 0.212, 192.0, 0.0, 0.0, 0.0, 0.0, 0.0, 0.0, 0.0, 0.0, 0.0, 1.695419831599275E9, 0.0, 2023-09-22 16:57:11.599
16.0, 21424.102356922907, 33172.201594376755, -52436.85721598354, -55146.49214106705, -37451.66658778985, -20917.14244093209, -187500.02235174447, -35804.298317944806, -9485.901532876675, 18847.706180537483, -50288.586352895065, -47173.62489385902, -20953.91106056107, -52249.95192884826, -52381.961331601306, -42375.04063547142, -0.004, 1.0, 0.212, 192.0, 0.0, 0.0, 0.0, 0.0, 0.0, 0.0, 0.0, 0.0, 0.0, 1.695419831659461E9, 0.0, 2023-09-22 16:57:11.659
18.0, 21398.062574632477, 33150.22982957719, -52419.489910541764, -55115.400864529714, -37458.75209078218, -20889.85096095216, -187500.02235174447, -35784.919355502054, -9469.473000702024, 18851.371866628157, -50269.98970150825, -47157.71045180684, -20940.879993543625, -52231.48938792818, -52368.08089829456, -42358.85797248578, -0.002, 1.0, 0.20800000000000002, 192.0, 127.5, 120.0, 15.5, 32.0, 3.0, 64.0, 0.0, 0.0, 0.0, 1.695419831659473E9, 0.0, 2023-09-22 16:57:11.659
20.0, 21424.57174355647, 33177.54366130158, -52433.14682640396, -55150.94013821366, -37451.845401745486, -20925.501993358375, -187500.02235174447, -35809.14864649161, -9471.596416425278, 18863.665326078575, -50269.09563173004, -47154.558855838644, -20944.366865678654, -52233.50104492916, -52364.63872964844, -42359.3497108638, -0.002, 1.0, 0.20800000000000002, 192.0, 0.0, 0.0, 0.0, 0.0, 0.0, 0.0, 0.0, 0.0, 0.0, 1.695419831659477E9, 0.0, 2023-09-22 16:57:11.659
22.0, 21397.9508159102, 33154.76723370162, -52427.245965867754, -55125.056818134406, -37466.79871878609, -20899.21634187893, -187500.02235174447, -35792.831873039235, -9497.278570804427, 18838.43020658853, -50291.13445176297, -47174.94364678188, -20966.49509268941, -52251.918882360325, -52384.665892680394, -42378.214583184075, -0.002, 1.0, 0.20800000000000002, 192.0, 0.0, 0.0, 0.0, 0.0, 0.0, 0.0, 0.0, 0.0, 0.0, 1.695419831659481E9, 0.0, 2023-09-22 16:57:11.659
24.0, 21415.94397019672, 33169.65349550885, -52438.55594856214, -55156.505722583024, -37454.10292793548, -20929.458252126962, -187500.02235174447, -35808.29928020231, -9481.051204329873, 18855.26107016338, -50278.103384745526, -47159.18566694089, -20944.590383123206, -52238.641946153875, -52371.23249426276, -42365.85406850029, -0.002, 1.0, 0.20800000000000002, 192.0, 0.0, 0.0, 0.0, 0.0, 0.0, 0.0, 0.0, 0.0, 0.0, 1.695419831659484E9, 0.0, 2023-09-22 16:57:11.659
26.0, 21400.454211289194, 33154.65547497934, -52445.507341087745, -55143.586414287856, -37480.32152418155, -20918.349435132677, -187500.02235174447, -35806.30997494578, -9498.999655127485, 18837.223212387948, -50299.09167278906, -47180.57628638462, -20972.217139269967, -52258.40088825237, -52396.914648641905, -42387.021170499465, -0.002, 1.0, 0.20800000000000002, 192.0, 0.0, 0.0, 0.0, 0.0, 0.0, 0.0, 0.0, 0.0, 0.0, 1.695419831659487E9, 0.0, 2023-09-22 16:57:11.659
28.0, 21412.14417363932, 33165.496071040165, -52429.86111996903, -55144.1675596437, -37448.291474377096, -20920.24933341138, -187500.02235174447, -35796.83283529674, -9481.140611307694, 18841.894726979106, -50282.59608538105, -47162.00198674226, -20950.759464592873, -52241.234748510695, -52379.45793622231, -42371.95609473659, -0.002, 1.0, 0.214, 192.0, 127.5, 120.0, 15.5, 32.0, 3.0, 88.0, 0.0, 0.0, 0.0, 1.69541983165949E9, 0.0, 2023-09-22 16:57:11.659
30.0, 21410.311330593984, 33166.256030351644, -52429.74936124675, -55125.16857685668, -37464.854117018476, -20900.177466890513, -187500.02235174447, -35787.13217820313, -9490.528343978924, 18849.024933460347, -50293.347274464046, -47165.06417573264, -20963.20938625448, -52247.49323695818, -52385.96229385881, -42380.0027227405, -0.002, 1.0, 0.214, 192.0, 0.0, 0.0, 0.0, 0.0, 0.0, 0.0, 0.0, 0.0, 0.0, 1.695419831718882E9, 0.0, 2023-09-22 16:57:11.718
32.0, 21415.42988007425, 33168.04416990807, -52414.885451183975, -55123.40278904472, -37426.40911655535, -20895.2824348548, -187500.02235174447, -35773.78818676331, -9463.102753532261, 18859.150273698604, -50262.12188745998, -47129.83782647107, -20929.257086426867, -52215.642001109365, -52356.21212198879, -42354.454678828086, -0.002, 1.0, 0.214, 192.0, 0.0, 0.0, 0.0, 0.0, 0.0, 0.0, 0.0, 0.0, 0.0, 1.695419831718897E9, 0.0, 2023-09-22 16:57:11.718
34.0, 21420.57078129897, 33173.609754277444, -52440.07586718511, -55130.82356820388, -37460.584933827515, -20898.076402911713, -187500.02235174447, -35787.53450960333, -9480.917093863141, 18864.425285390054, -50285.47946041578, -47144.05353594465, -20942.80224356678, -52239.24544325417, -52374.49584895323, -42382.72963556405, -0.002, 1.0, 0.214, 192.0, 0.0, 0.0, 0.0, 0.0, 0.0, 0.0, 0.0, 0.0, 0.0, 1.6954198317189E9, 0.0, 2023-09-22 16:57:11.718
36.0, 21412.322987594962, 33156.93535291378, -52421.65802975393, -55118.977143642565, -37419.345965307475, -20879.50210326935, -187500.02235174447, -35759.25955286736, -9450.697535359566, 18863.3524016562, -50254.611701323, -47110.011829139214, -20912.1356501741, -52210.21052720673, -52341.43761890383, -42351.77246949345, -0.002, 1.0, 0.214, 192.0, 0.0, 0.0, 0.0, 0.0, 0.0, 0.0, 0.0, 0.0, 0.0, 1.695419831718903E9, 0.0, 2023-09-22 16:57:11.718
38.0, 21427.566877313482, 33161.07042563801, -52447.00490796625, -55128.566042013896, -37444.51402956415, -20888.286338840287, -187500.02235174447, -35772.73765477391, -9468.847151857275, 18873.83536980574, -50274.884733543964, -47127.24502411426, -20937.549583619784, -52234.328059474, -52355.47451442177, -42374.168917437666, -0.002, 0.99, 0.214, 192.0, 127.5, 120.0, 15.0, 120.0, 3.0, 88.0, 0.0, 0.0, 0.0, 1.695419831718907E9, 0.0, 2023-09-22 16:57:11.718
40.0, 21396.60971124288, 33113.46120994821, -52456.95143424886, -55143.027620676476, -37440.535419051106, -20901.33975760219, -187500.02235174447, -35780.00197172189, -9459.101791274761, 18850.433093361033, -50261.831314782066, -47117.499663531744, -20931.53696436131, -52227.801350093054, -52345.84091256153, -42365.205867911085, -0.002, 0.99, 0.214, 192.0, 0.0, 0.0, 0.0, 0.0, 0.0, 0.0, 0.0, 0.0, 0.0, 1.69541983171891E9, 0.0, 2023-09-22 16:57:11.718
42.0, 21429.91381048129, 33140.79739341705, -52465.44509714188, -55137.28322235146, -37453.83470700201, -20896.17650463301, -187500.02235174447, -35783.600602579194, -9488.382576511214, 18850.92483173905, -50285.88179181598, -47140.05257368715, -20953.57578439424, -52259.764344664145, -52367.969139572284, -42396.878289804255, -0.002, 0.99, 0.214, 192.0, 0.0, 0.0, 0.0, 0.0, 0.0, 0.0, 0.0, 0.0, 0.0, 1.695419831718913E9, 0.0, 2023-09-22 16:57:11.718
44.0, 21398.33079556594, 33098.64200337434, -52449.88828300098, -55124.34156231184, -37433.22639861422, -20880.17265560301, -187500.02235174447, -35766.1438901596, -9454.609090639246, 18853.472930606953, -50242.8099802506, -47102.188718579855, -20910.57102806223, -52219.7770738336, -52335.76027581219, -42357.67333002965, -0.002, 0.99, 0.214, 192.0, 0.0, 0.0, 0.0, 0.0, 0.0, 0.0, 0.0, 0.0, 0.0, 1.695419831718916E9, 0.0, 2023-09-22 16:57:11.718
46.0, 21437.312237895996, 33133.0189863466, -52463.99223375228, -55138.28905085195, -37442.36826209644, -20891.750859230862, -187500.02235174447, -35781.3430763892, -9469.316538490837, 18873.34363142772, -50257.830352524565, -47117.365553065014, -20926.597228836683, -52239.93834733228, -52347.98668002924, -42375.89000176072, -0.002, 0.99, 0.214, 192.0, 0.0, 0.0, 0.0, 0.0, 0.0, 0.0, 0.0, 0.0, 0.0, 1.695419831778693E9, 0.0, 2023-09-22 16:57:11.778
48.0, 21386.350260537896, 33074.2562501736, -52471.34595767808, -55145.2180916331, -37452.24773314568, -20897.36114708914, -187500.02235174447, -35784.38291363513, -9473.16103853715, 18837.424378088042, -50253.71763154479, -47120.40539031093, -20930.70994981646, -52240.586547921484, -52352.21115973129, -42375.57707733835, -0.002, 0.99, 0.214, 192.0, 0.0, 0.0, 15.0, 96.0, 3.0, 88.0, 0.0, 0.0, 0.0, 1.695419831778704E9, 0.0, 2023-09-22 16:57:11.778
50.0, 21431.791357015536, 33116.54575068304, -52472.217675711836, -55148.43674283466, -37442.547076052084, -20902.680862269506, -187500.02235174447, -35785.075817713245, -9483.06286133085, 18860.603137088197, -50264.87115202798, -47128.16144563693, -20935.940258019004, -52255.428106239815, -52355.876845821964, -42387.311743177386, -0.002, 0.99, 0.214, 192.0, 0.0, 0.0, 0.0, 0.0, 0.0, 0.0, 0.0, 0.0, 0.0, 1.695419831778707E9, 0.0, 2023-09-22 16:57:11.778
52.0, 21381.924615135744, 33062.72275003466, -52474.40814666846, -55145.53101605547, -37453.74530002419, -20899.730432001405, -187500.02235174447, -35782.1477391896, -9476.603207183267, 18833.982209441925, -50257.673890313374, -47125.680402002385, -20947.51846164685, -52249.23667302569, -52355.34040395504, -42379.24276342902, -0.002, 0.99, 0.214, 192.0, 0.0, 0.0, 0.0, 0.0, 0.0, 0.0, 0.0, 0.0, 0.0, 1.695419831778711E9, 0.0, 2023-09-22 16:57:11.778
54.0, 21424.169412156276, 33103.5146836656, -52487.86389683055, -55169.62619657829, -37459.62380881594, -20926.37371139213, -187500.02235174447, -35806.108809245685, -9496.675073704133, 18841.559450812274, -50280.22680046878, -47145.93108247889, -20959.38723795262, -52273.10833610396, -52372.864171607995, -42402.53328115145, -0.002, 0.99, 0.214, 192.0, 0.0, 0.0, 0.0, 0.0, 0.0, 0.0, 0.0, 0.0, 0.0, 1.695419831778714E9, 0.0, 2023-09-22 16:57:11.778
56.0, 21376.426085999738, 33050.76456675107, -52485.58401889611, -55157.60095806134, -37472.967800255756, -20915.600170564674, -187500.02235174447, -35798.75508531989, -9494.842230658798, 18816.994883655894, -50275.599989366536, -47144.54527432266, -20951.0947407597, -52266.51457148964, -52375.54638094263, -42399.85107181681, -0.002, 0.99, 0.214, 192.0, 0.0, 0.0, 0.0, 0.0, 0.0, 0.0, 0.0, 0.0, 0.0, 1.695419831778717E9, 0.0, 2023-09-22 16:57:11.778
58.0, 21431.63489480435, 33098.105561507415, -52473.37996642351, -55155.20932140462, -37448.425584843826, -20915.443708353487, -187500.02235174447, -35793.100093972695, -9495.624541714733, 18840.218346144957, -50283.93719004836, -47148.61329181353, -20950.021857025848, -52272.6389494704, -52377.40157573242, -42403.58381314085, -0.002, 0.988, 0.22, 192.0, 127.5, 120.0, 15.0, 112.0, 3.0, 112.0, 0.0, 0.0, 0.0, 1.695419831778721E9, 0.0, 2023-09-22 16:57:11.778
60.0, 21389.0995251059, 33049.222296383654, -52456.52675110421, -55129.6612774922, -37451.286608134105, -20892.019080164326, -187500.02235174447, -35773.47526234094, -9471.73052689201, 18838.229040888436, -50259.52908510317, -47126.26154735823, -20924.831441024715, -52248.25319626966, -52357.66498537839, -42380.36035065178, -0.002, 0.988, 0.22, 192.0, 0.0, 0.0, 0.0, 0.0, 0.0, 0.0, 0.0, 0.0, 0.0, 1.695419831839018E9, 0.0, 2023-09-22 16:57:11.839
62.0, 21425.890496479333, 33083.21929970018, -52472.03886175619, -55163.59122557536, -37449.207895899766, -20927.714816059448, -187500.02235174447, -35798.196291708504, -9478.033718828407, 18852.69061955102, -50267.687471829355, -47132.16240789442, -20928.027740481823, -52256.52334171812, -52358.469648178776, -42385.076568731856, -0.002, 0.988, 0.22, 192.0, 0.0, 0.0, 0.0, 0.0, 0.0, 0.0, 0.0, 0.0, 0.0, 1.695419831839032E9, 0.0, 2023-09-22 16:57:11.839
64.0, 21382.90809189178, 33041.91327594677, -52466.04859424217, -55139.317231096895, -37463.46830886225, -20904.08902217019, -187500.02235174447, -35783.98058223493, -9490.97537886803, 18824.92975293753, -50278.595123123545, -47144.94760572286, -20943.741016833905, -52265.50874298916, -52372.75241288572, -42392.29618219092, -0.002, 0.988, 0.22, 192.0, 0.0, 0.0, 0.0, 0.0, 0.0, 0.0, 0.0, 0.0, 0.0, 1.695419831839035E9, 0.0, 2023-09-22 16:57:11.839
66.0, 21416.301598108006, 33074.56917459598, -52470.809515811154, -55159.947891229145, -37448.783212755116, -20922.86448751265, -187500.02235174447, -35794.97764050694, -9490.26012304546, 18841.805320001284, -50278.48336440127, -47140.656070787445, -20951.027685526336, -52262.64771969888, -52364.862247093, -42387.378798410755, -0.002, 0.988, 0.22, 192.0, 0.0, 0.0, 0.0, 0.0, 0.0, 0.0, 0.0, 0.0, 0.0, 1.695419831839039E9, 0.0, 2023-09-22 16:57:11.839
68.0, 21387.691365205214, 33044.93076144824, -52455.230349925805, -55126.55438501292, -37457.589800070506, -20892.04143190878, -187500.02235174447, -35774.592849563705, -9489.92484687863, 18835.323314109246, -50274.28123644367, -47138.73382076428, -20942.914002289057, -52255.47280972872, -52363.297624981125, -42384.24955418701, -0.002, 0.988, 0.22, 192.0, 0.0, 0.0, 15.5, 0.0, 3.0, 104.0, 0.0, 0.0, 0.0, 1.695419831839044E9, 0.0, 2023-09-22 16:57:11.839
70.0, 21415.04990041851, 33068.64596231532, -52459.8795127725, -55151.52128356949, -37441.80946848506, -20914.303769386264, -187500.02235174447, -35786.43927412501, -9480.939445607597, 18852.422398617557, -50265.60875959501, -47127.26737585871, -20928.407720137566, -52247.29207125808, -52354.468685921274, -42376.91818200567, -0.002, 0.988, 0.22, 192.0, 0.0, 0.0, 0.0, 0.0, 0.0, 0.0, 0.0, 0.0, 0.0, 1.695419831839048E9, 0.0, 2023-09-22 16:57:11.839
72.0, 21395.42506878675, 33049.89284871732, -52453.196341180366, -55122.888698922245, -37456.22634365873, -20885.022984149815, -187500.02235174447, -35771.17303266204, -9490.014253856452, 18840.93360196753, -50273.72244283229, -47138.46559983082, -20936.43199639702, -52254.91401611734, -52366.40451746041, -42385.85887978779, -0.002, 0.988, 0.22, 192.0, 0.0, 0.0, 0.0, 0.0, 0.0, 0.0, 0.0, 0.0, 0.0, 1.695419831839052E9, 0.0, 2023-09-22 16:57:11.839
74.0, 21411.250103861108, 33066.567250080974, -52454.582149336595, -55143.74287649905, -37432.913474191846, -20907.575894305217, -187500.02235174447, -35779.42082636605, -9466.857846600753, 18859.329087654245, -50251.08012569906, -47116.49383503125, -20916.09190894269, -52233.456341440244, -52343.561034627084, -42366.03288245593, -0.002, 0.988, 0.22, 192.0, 0.0, 0.0, 0.0, 0.0, 0.0, 0.0, 0.0, 0.0, 0.0, 1.695419831839055E9, 0.0, 2023-09-22 16:57:11.839
76.0, 21393.32400480795, 33049.78108999504, -52476.03982401369, -55145.463960822104, -37473.236021189216, -20906.41360359354, -187500.02235174447, -35790.48493987143, -9496.608018470766, 18842.408817101576, -50282.506678403224, -47147.18278016839, -20947.04907501329, -52262.93829237679, -52374.02646231967, -42399.49344390553, -0.002, 0.988, 0.22, 192.0, 0.0, 0.0, 0.0, 0.0, 0.0, 0.0, 0.0, 0.0, 0.0, 1.695419831899374E9, 0.0, 2023-09-22 16:57:11.899
78.0, 21400.36480431137, 33050.988084195626, -52470.76481232224, -55155.16461791571, -37444.446974330785, -20914.86256299765, -187500.02235174447, -35787.66862007006, -9473.719832148532, 18846.230965403436, -50262.591274093546, -47128.966108437315, -20929.23473468241, -52239.62542290991, -52356.726212111265, -42380.449757629605, -0.002, 0.988, 0.22, 192.0, 0.0, 0.0, 15.0, 112.0, 3.0, 112.0, 0.0, 0.0, 0.0, 1.695419831899384E9, 0.0, 2023-09-22 16:57:11.899
80.0, 21396.85558043189, 33046.29421786001, -52489.94260906489, -55153.42118184819, -37484.68011435033, -20914.48258334191, -187500.02235174447, -35801.079666743244, -9504.788756941409, 18839.05605543328, -50295.71655937631, -47157.86691401803, -20961.421246698053, -52269.91203664685, -52388.041006093146, -42410.57990915536, -0.002, 0.988, 0.22, 192.0, 0.0, 0.0, 0.0, 0.0, 0.0, 0.0, 0.0, 0.0, 0.0, 1.695419831899388E9, 0.0, 2023-09-22 16:57:11.899
82.0, 21392.876969918845, 33039.164011378765, -52480.0854897601, -55158.405620861726, -37461.501355350185, -20918.595304321683, -187500.02235174447, -35797.21281495247, -9488.807259655865, 18834.36218909767, -50273.58833236556, -47138.689117275375, -20948.725455847438, -52248.32025150302, -52371.99245357424, -42390.172766467665, -0.002, 0.988, 0.22, 192.0, 0.0, 0.0, 0.0, 0.0, 0.0, 0.0, 0.0, 0.0, 0.0, 1.695419831899391E9, 0.0, 2023-09-22 16:57:11.899
84.0, 21402.957606668188, 33052.97738945215, -52489.07089103114, -55155.03050744897, -37484.85892830598, -20916.114260687144, -187500.02235174447, -35803.0019167664, -9509.16969885465, 18839.63720078912, -50299.20343151134, -47162.47137337582, -20958.761389107873, -52272.01310062565, -52394.00892186272, -42415.407885957706, -0.002, 0.988, 0.22, 192.0, 0.0, 0.0, 0.0, 0.0, 0.0, 0.0, 0.0, 0.0, 0.0, 1.695419831899395E9, 0.0, 2023-09-22 16:57:11.899
86.0, 21388.339565794417, 33032.70435723119, -52462.695832573874, -55142.82645497638, -37444.89400921989, -20903.977263447912, -187500.02235174447, -35780.35959963317, -9474.993881582484, 18839.88306997813, -50264.62528283898, -47132.90001546145, -20922.52921134582, -52237.97139382022, -52362.582369158554, -42381.500289619005, -0.002, 0.988, 0.22, 192.0, 0.0, 0.0, 0.0, 0.0, 0.0, 0.0, 0.0, 0.0, 0.0, 1.695419831899398E9, 0.0, 2023-09-22 16:57:11.899
88.0, 21397.28026357654, 33045.4001480818, -52495.86582134555, -55169.91676925621, -37479.874489292444, -20928.944162004493, -187500.02235174447, -35810.42269592556, -9499.223172572038, 18856.53511959733, -50292.45320468584, -47157.39752738447, -20938.71187433146, -52259.71964117523, -52377.80390713262, -42403.874385818766, -0.002, 0.988, 0.22, 192.0, 0.0, 0.0, 15.0, 96.0, 3.0, 88.0, 0.0, 0.0, 0.0, 1.695419831899401E9, 0.0, 2023-09-22 16:57:11.899
90.0, 21359.6399259138, 33005.14465631779, -52484.801707840175, -55163.83709476436, -37463.62477107344, -20922.685673557007, -187500.02235174447, -35800.36441092067, -9508.253277331982, 18816.23492434441, -50300.03044605618, -47169.28865543469, -20947.317295946756, -52262.58066446551, -52386.34227351454, -42408.79176959894, -0.002, 0.988, 0.22, 192.0, 0.0, 0.0, 0.0, 0.0, 0.0, 0.0, 0.0, 0.0, 0.0, 1.695419831959438E9, 0.0, 2023-09-22 16:57:11.959
92.0, 21378.61655695636, 33027.74226996211, -52494.502364933775, -55169.805010533935, -37478.198108458295, -20929.122975960134, -187500.02235174447, -35807.42756216855, -9525.307658351381, 18835.3456658537, -50318.49298697627, -47184.53254515321, -20965.042229299812, -52275.3882140384, -52393.9642183738, -42419.945290082134, -0.002, 0.988, 0.22, 192.0, 0.0, 0.0, 0.0, 0.0, 0.0, 0.0, 0.0, 0.0, 0.0, 1.695419831959452E9, 0.0, 2023-09-22 16:57:11.959
94.0, 21332.99664652308, 32979.70837112765, -52461.9805767513, -55135.137454883756, -37447.55386681007, -20890.432106308, -187500.02235174447, -35767.68616052701, -9506.59924824229, 18820.414700557554, -50293.59314365306, -47161.420841386425, -20935.984961507915, -52239.401905465355, -52368.37147097248, -42382.550821608405, -0.002, 0.988, 0.22, 192.0, 0.0, 0.0, 0.0, 0.0, 0.0, 0.0, 0.0, 0.0, 0.0, 1.695419831959456E9, 0.0, 2023-09-22 16:57:11.959
96.0, 21343.79253909499, 32995.46635096864, -52501.9454958374, -55178.85746703833, -37481.17089047085, -20931.939295761502, -187500.02235174447, -35806.041754012316, -9532.50492006599, 18838.944296711004, -50321.465768988826, -47183.45966141936, -20951.80999658227, -52259.51847547513, -52380.08378506706, -42398.80053982741, -0.002, 0.988, 0.22, 192.0, 0.0, 0.0, 0.0, 0.0, 0.0, 0.0, 0.0, 0.0, 0.0, 1.695419831959459E9, 0.0, 2023-09-22 16:57:11.959
98.0, 21281.40882032023, 32934.28962639447, -52494.859992845064, -55162.250120908044, -37475.38178865693, -20912.22505715192, -187500.02235174447, -35786.41692238056, -9550.229853419049, 18785.2330547849, -50334.49683600627, -47199.016475560245, -20967.143293278612, -52267.69921394577, -52394.29949454063, -42408.07651377637, -0.002, 0.988, 0.22, 192.0, 0.0, 0.0, 15.0, 112.0, 3.0, 104.0, 0.0, 0.0, 0.0, 1.695419831959462E9, 0.0, 2023-09-22 16:57:11.959
100.0, 21306.64393981027, 32965.44795816517, -52503.82304237164, -55178.7233565716, -37470.442053132305, -20925.680807314016, -187500.02235174447, -35793.21185269497, -9556.622452333266, 18816.033758644317, -50341.20235934286, -47196.96011507036, -20964.081104288234, -52265.24052205569, -52382.654235679416, -42403.382647440754, -0.002, 0.988, 0.22, 192.0, 0.0, 0.0, 0.0, 0.0, 0.0, 0.0, 0.0, 0.0, 0.0, 1.695419831959466E9, 0.0, 2023-09-22 16:57:11.959
102.0, 21240.05809307791, 32898.68329747716, -52507.98046684032, -55176.39877514825, -37484.18837597232, -20923.356225890664, -187500.02235174447, -35793.815349795266, -9569.765278072988, 18773.14076103458, -50349.830132702606, -47206.1913855304, -20974.742886393415, -52270.00144362467, -52392.55605847312, -42408.16592075419, -0.002, 0.988, 0.22, 192.0, 0.0, 0.0, 0.0, 0.0, 0.0, 0.0, 0.0, 0.0, 0.0, 1.695419831959469E9, 0.0, 2023-09-22 16:57:11.959
104.0, 21276.0220499065, 32936.189524673166, -52513.188423298416, -55192.089699755874, -37478.73455032522, -20939.2930196873, -187500.02235174447, -35804.499483644904, -9588.585446904355, 18785.121296062625, -50368.18091490042, -47220.340039770614, -20979.503807962396, -52286.96641766625, -52402.45788126682, -42422.1134092943, -0.002, 0.988, 0.22, 192.0, 0.0, 0.0, 0.0, 0.0, 0.0, 0.0, 0.0, 0.0, 0.0, 1.695419831959473E9, 0.0, 2023-09-22 16:57:11.959
106.0, 21223.83072660336, 32882.05359960241, -52507.86870811805, -55175.68351932568, -37490.156291741885, -20922.640970068096, -187500.02235174447, -35793.77064630636, -9583.109269512805, 18762.635441140585, -50357.96616768434, -47214.886214123515, -20973.558243937285, -52277.42222278383, -52399.95448588783, -42413.26211849, -0.002, 0.988, 0.22, 192.0, 0.0, 0.0, 0.0, 0.0, 0.0, 0.0, 0.0, 0.0, 0.0, 1.695419832018992E9, 0.0, 2023-09-22 16:57:12.018
108.0, 21261.716933455104, 32923.694899522656, -52517.61406870056, -55199.801051592956, -37480.165061970365, -20947.33964769121, -187500.02235174447, -35809.34981219171, -9582.282254967959, 18791.491543232387, -50358.30144385117, -47209.58885068761, -20979.99554634041, -52276.21522858325, -52392.13137532847, -42408.545900409925, -0.002, 0.988, 0.22, 192.0, 0.0, 0.0, 15.0, 112.0, 3.0, 80.0, 0.0, 0.0, 0.0, 1.695419832019004E9, 0.0, 2023-09-22 16:57:12.019
110.0, 21213.638331131737, 32872.55410820891, -52513.56840295415, -55179.43861239417, -37495.43130343334, -20925.546696847287, -187500.02235174447, -35797.726905074946, -9607.316208757902, 18749.24674621186, -50379.73676678381, -47234.533397499734, -20994.21125581399, -52296.957647437775, -52412.717331971806, -42428.26013901951, -0.002, 0.988, 0.22, 192.0, 0.0, 0.0, 0.0, 0.0, 0.0, 0.0, 0.0, 0.0, 0.0, 1.695419832019007E9, 0.0, 2023-09-22 16:57:12.019
112.0, 21252.172738572688, 32913.1672278842, -52523.939612381415, -55209.59111566438, -37481.10383523749, -20953.553432649784, -187500.02235174447, -35815.98828029493, -9586.104403269817, 18788.33994726419, -50360.00017642977, -47214.05919957867, -20968.752618879393, -52277.221057083734, -52388.242171793245, -42407.160092253696, -0.002, 0.988, 0.22, 192.0, 0.0, 0.0, 0.0, 0.0, 0.0, 0.0, 0.0, 0.0, 0.0, 1.695419832019011E9, 0.0, 2023-09-22 16:57:12.019
114.0, 21211.984302042045, 32876.57742221087, -52526.06302810467, -55189.96628403262, -37503.500283181704, -20936.633162097118, -187500.02235174447, -35810.19917848101, -9611.987723349062, 18754.342943947668, -50382.15075518498, -47240.546016758206, -20997.25109305991, -52299.57280153904, -52415.511300028724, -42432.99870884403, -0.002, 0.988, 0.22, 192.0, 0.0, 0.0, 0.0, 0.0, 0.0, 0.0, 0.0, 0.0, 0.0, 1.695419832019014E9, 0.0, 2023-09-22 16:57:12.019
116.0, 21251.09985483883, 32919.336309353865, -52517.301144278186, -55196.00125503555, -37476.23115494623, -20945.32799069023, -187500.02235174447, -35809.953309291996, -9594.75452837402, 18781.05327857176, -50366.92921721092, -47225.48094099533, -20987.796305155316, -52287.435804299814, -52400.200355076835, -42418.24655750353, -0.002, 0.988, 0.22, 192.0, 0.0, 0.0, 0.0, 0.0, 0.0, 0.0, 0.0, 0.0, 0.0, 1.695419832019017E9, 0.0, 2023-09-22 16:57:12.019
118.0, 21229.843345861835, 32899.68912597765, -52509.27686801874, -55167.18985643266, -37492.36911444296, -20919.019987466334, -187500.02235174447, -35794.5976608512, -9582.483420668057, 18778.795752381775, -50356.334490339104, -47216.51789146876, -20977.067467816767, -52278.45040302878, -52399.8203754211, -42412.8597870898, -0.002, 0.988, 0.22, 192.0, 0.0, 0.0, 15.5, 8.0, 3.0, 88.0, 0.0, 0.0, 0.0, 1.69541983201902E9, 0.0, 2023-09-22 16:57:12.019
120.0, 21263.035686377967, 32929.685167036674, -52501.565516181654, -55179.19274320516, -37463.870640262445, -20930.62054283864, -187500.02235174447, -35792.80952129478, -9564.087934981339, 18791.536246721298, -50342.074077376616, -47203.01743781775, -20966.942127578513, -52265.75461217816, -52385.62701769198, -42402.42152242918, -0.002, 0.988, 0.22, 192.0, 0.0, 0.0, 0.0, 0.0, 0.0, 0.0, 0.0, 0.0, 0.0, 1.695419832078654E9, 0.0, 2023-09-22 16:57:12.078
122.0, 21247.657686192713, 32914.70949825162, -52514.82010064365, -55171.50374311254, -37498.068809279066, -20924.786737535804, -187500.02235174447, -35794.62001259566, -9585.187981747149, 18779.511008204343, -50364.89520846549, -47224.16218807247, -20982.9012731196, -52285.35709206547, -52406.481195268774, -42424.30388025092, -0.002, 0.988, 0.22, 192.0, 0.0, 0.0, 0.0, 0.0, 0.0, 0.0, 0.0, 0.0, 0.0, 1.695419832078669E9, 0.0, 2023-09-22 16:57:12.078
124.0, 21269.428285292182, 32934.08846069437, -52495.77641436773, -55174.45417338064, -37460.18260242732, -20930.0393974828, -187500.02235174447, -35787.6462683256, -9552.196806931115, 18800.43224101451, -50334.318022050626, -47194.881402836014, -20955.96742105096, -52254.89166437289, -52376.641616420944, -42393.99491476952, -0.002, 0.988, 0.22, 192.0, 0.0, 0.0, 0.0, 0.0, 0.0, 0.0, 0.0, 0.0, 0.0, 1.695419832078673E9, 0.0, 2023-09-22 16:57:12.078
126.0, 21270.07648588139, 32936.77067002901, -52500.179708025425, -55166.653414565735, -37490.69273360881, -20924.786737535804, -187500.02235174447, -35795.491730629416, -9572.045156007429, 18793.033813599803, -50356.5356560392, -47219.28950778121, -20984.71176442048, -52279.41152804036, -52399.79802367664, -42420.97347032708, -0.002, 0.988, 0.22, 192.0, 0.0, 0.0, 0.0, 0.0, 0.0, 0.0, 0.0, 0.0, 0.0, 1.695419832078676E9, 0.0, 2023-09-22 16:57:12.078
128.0, 21275.57501501739, 32940.61517007532, -52500.447928958885, -55186.993502020065, -37475.60530610148, -20943.942182534003, -187500.02235174447, -35803.02426851085, -9544.753676027498, 18800.566351481244, -50331.166426082425, -47198.591792415595, -20960.013086797368, -52259.741992919684, -52382.54247695714, -42400.47692066156, -0.004, 0.994, 0.214, 192.0, 127.5, 112.0, 15.5, 8.0, 3.0, 88.0, 0.0, 0.0, 0.0, 1.695419832078679E9, 0.0, 2023-09-22 16:57:12.078
130.0, 21281.900558698246, 32950.449937635654, -52511.57909769763, -55186.76998457551, -37503.500283181704, -20943.919830789546, -187500.02235174447, -35815.13891400563, -9582.595179390333, 18784.67426117352, -50369.745537012284, -47235.0474876222, -20998.435735516043, -52299.595153283495, -52419.53461403068, -42441.53707522596, -0.004, 0.994, 0.214, 192.0, 0.0, 0.0, 0.0, 0.0, 0.0, 0.0, 0.0, 0.0, 0.0, 1.695419832078682E9, 0.0, 2023-09-22 16:57:12.078
132.0, 21286.1250384003, 32951.433414391686, -52486.20986774086, -55175.50470537004, -37462.261314661664, -20933.973304506937, -187500.02235174447, -35792.09426547221, -9542.294984137414, 18792.00563335486, -50330.898205148966, -47198.41297845996, -20956.81678734026, -52262.17833306531, -52382.67658742388, -42403.025019529465, -0.004, 0.994, 0.214, 192.0, 0.0, 0.0, 0.0, 0.0, 0.0, 0.0, 0.0, 0.0, 0.0, 1.695419832078686E9, 0.0, 2023-09-22 16:57:12.078
134.0, 21312.96948349112, 32980.91536532824, -52493.742405622295, -55175.951740259145, -37483.093140494006, -20936.499051630384, -187500.02235174447, -35799.38093416464, -9551.101571452806, 18812.05514813127, -50345.7844669562, -47212.6957431669, -20962.404723454085, -52280.529115263125, -52395.52884048568, -42420.235862760055, -0.004, 0.994, 0.214, 192.0, 0.0, 0.0, 0.0, 0.0, 0.0, 0.0, 0.0, 0.0, 0.0, 1.695419832078689E9, 0.0, 2023-09-22 16:57:12.078
136.0, 21307.090974699375, 32966.744359343575, -52475.65984435795, -55167.79335353296, -37465.52466935214, -20930.419377138543, -187500.02235174447, -35788.763855548365, -9524.748864739999, 18802.510953248853, -50320.258774788235, -47191.618048145545, -20946.311467446267, -52259.272606286126, -52379.05560482212, -42400.4098654282, -0.004, 0.994, 0.214, 192.0, 0.0, 0.0, 0.0, 0.0, 0.0, 0.0, 0.0, 0.0, 0.0, 1.695419832138944E9, 0.0, 2023-09-22 16:57:12.138
138.0, 21334.829489568412, 32997.41095273625, -52498.548030680184, -55186.05472875294, -37494.87250982196, -20950.0442087703, -187500.02235174447, -35812.63551862664, -9542.071466692862, 18812.457479531466, -50343.4822372773, -47213.90273736748, -20965.131636277634, -52285.40179555438, -52399.283933554165, -42424.214473273096, -0.002, 0.992, 0.214, 192.0, 127.5, 120.0, 15.5, 0.0, 3.0, 88.0, 0.0, 0.0, 0.0, 1.695419832138973E9, 0.0, 2023-09-22 16:57:12.138
140.0, 21309.16968693372, 32969.694789611676, -52483.66176887295, -55171.63785357927, -37475.60530610148, -20935.694388829994, -187500.02235174447, -35791.647230583105, -9522.513690294469, 18796.453630501466, -50325.82435915761, -47198.43533020441, -20954.223984983444, -52263.76530692164, -52385.805831647616, -42404.72375210807, -0.002, 0.992, 0.214, 192.0, 0.0, 0.0, 0.0, 0.0, 0.0, 0.0, 0.0, 0.0, 0.0, 1.695419832138977E9, 0.0, 2023-09-22 16:57:12.138
142.0, 21350.296896731485, 33018.4439442687, -52500.894963848, -55183.35016767385, -37495.87833832244, -20950.357133192676, -187500.02235174447, -35808.03105926884, -9544.261937649482, 18815.497316777386, -50352.132362381504, -47218.797769403194, -20984.33178476474, -52287.14523162189, -52407.397616791444, -42430.04827857593, -0.002, 0.992, 0.214, 192.0, 0.0, 0.0, 0.0, 0.0, 0.0, 0.0, 0.0, 0.0, 0.0, 1.695419832138981E9, 0.0, 2023-09-22 16:57:12.138
144.0, 21322.290160928984, 32989.43137996571, -52475.25751295776, -55156.12574292729, -37473.05720723358, -20923.66915031304, -187500.02235174447, -35780.0466752108, -9518.423321059146, 18799.448764258475, -50323.63388820099, -47195.19432725839, -20964.841063599713, -52263.027699354614, -52392.444299750845, -42411.29516497793, -0.002, 0.992, 0.214, 192.0, 0.0, 0.0, 0.0, 0.0, 0.0, 0.0, 0.0, 0.0, 0.0, 1.695419832138984E9, 0.0, 2023-09-22 16:57:12.138
146.0, 21365.943117850198, 33036.48180204413, -52493.07185328864, -55182.232580451084, -37484.18837597232, -20947.317295946756, -187500.02235174447, -35799.76091382038, -9515.182318113128, 18834.518651308856, -50326.58431846909, -47197.831833104116, -20960.10249377519, -52267.363937778944, -52390.41029100541, -42415.98903131355, -0.002, 0.992, 0.214, 192.0, 0.0, 0.0, 0.0, 0.0, 0.0, 0.0, 0.0, 0.0, 0.0, 1.695419832138987E9, 0.0, 2023-09-22 16:57:12.138
148.0, 21317.104556215356, 32991.39833347778, -52486.92512356343, -55173.20247569114, -37489.06105626358, -20938.2424876979, -187500.02235174447, -35790.93197476053, -9519.607963515278, 18789.658700187054, -50330.78644642669, -47209.655905920976, -20952.90523206058, -52272.907170403865, -52398.3675120315, -42419.878234848766, -0.004, 0.996, 0.214, 192.0, 127.5, 112.0, 15.5, 16.0, 3.0, 88.0, 0.0, 0.0, 0.0, 1.695419832138991E9, 0.0, 2023-09-22 16:57:12.138
150.0, 21359.997553825087, 33040.19219162371, -52499.28563824721, -55192.49203115607, -37488.56931788556, -20959.05196178579, -187500.02235174447, -35807.94165229102, -9533.577803799844, 18808.925903907526, -50348.980766413304, -47225.41388576197, -20964.371676966155, -52288.68750198931, -52403.486061511765, -42434.94331061165, -0.004, 0.996, 0.214, 192.0, 0.0, 0.0, 0.0, 0.0, 0.0, 0.0, 0.0, 0.0, 0.0, 1.695419832199461E9, 0.0, 2023-09-22 16:57:12.199
152.0, 21330.582658121904, 33005.23406329561, -52470.04955649967, -55152.14713241424, -37471.202012443784, -20920.696368300483, -187500.02235174447, -35775.03988445281, -9511.226059344537, 18799.00172936937, -50323.477425989804, -47204.38089422952, -20948.412531425063, -52265.37463252242, -52388.75626191572, -42414.58087141286, -0.004, 0.996, 0.214, 192.0, 0.0, 0.0, 0.0, 0.0, 0.0, 0.0, 0.0, 0.0, 0.0, 1.695419832199477E9, 0.0, 2023-09-22 16:57:12.199
154.0, 21386.23850181562, 33060.286409889035, -52475.972768780324, -55170.25204542304, -37460.65198906088, -20940.38825516561, -187500.02235174447, -35791.06608522726, -9503.31354180736, 18836.86558447666, -50316.10135031955, -47194.389664458, -20948.09960700269, -52261.79835340958, -52380.39670948943, -42409.77524635497, -0.004, 0.996, 0.214, 192.0, 0.0, 0.0, 0.0, 0.0, 0.0, 0.0, 0.0, 0.0, 0.0, 1.695419832199481E9, 0.0, 2023-09-22 16:57:12.199
156.0, 21334.583620379402, 33008.340955774904, -52495.30702773417, -55171.95077800164, -37493.866681321466, -20946.91496454656, -187500.02235174447, -35805.79588482331, -9518.289210592415, 18801.750993937374, -50323.544481223165, -47205.00674307427, -20967.34445897871, -52271.230789569716, -52400.08859635456, -42421.554615682915, -0.004, 0.996, 0.214, 192.0, 0.0, 0.0, 0.0, 0.0, 0.0, 0.0, 0.0, 0.0, 0.0, 1.695419832199484E9, 0.0, 2023-09-22 16:57:12.199
158.0, 21385.81381867097, 33060.73344477814, -52488.33328346411, -55179.1256879718, -37470.82203278805, -20955.788607095314, -187500.02235174447, -35809.70744010299, -9522.156062383183, 18819.744148223897, -50326.45020800236, -47206.839586119604, -20967.590328167717, -52275.72349020523, -52400.73679694376, -42423.05218256142, -0.004, 0.996, 0.214, 192.0, 0.0, 0.0, 15.0, 120.0, 3.0, 112.0, 0.0, 0.0, 0.0, 1.695419832199488E9, 0.0, 2023-09-22 16:57:12.199
160.0, 21356.242460756595, 33029.06102288497, -52465.5345041197, -55144.34637359934, -37469.1456519539, -20920.584609578207, -187500.02235174447, -35784.092340957206, -9504.83346043032, 18817.978360411926, -50305.97601008129, -47188.82408008863, -20939.9412202765, -52255.830437640005, -52383.704767668816, -42401.12512125076, -0.004, 0.996, 0.214, 192.0, 0.0, 0.0, 0.0, 0.0, 0.0, 0.0, 0.0, 0.0, 0.0, 1.695419832199491E9, 0.0, 2023-09-22 16:57:12.199
162.0, 21394.441592030715, 33069.83060477145, -52470.742460577785, -55170.095583211856, -37457.83566925951, -20946.847909313194, -187500.02235174447, -35797.50338763039, -9507.225097087037, 18833.602229786185, -50308.166481037915, -47189.651094633475, -20941.930525533026, -52260.85958014245, -52377.55803794361, -42397.12415899327, -0.004, 0.996, 0.214, 192.0, 0.0, 0.0, 0.0, 0.0, 0.0, 0.0, 0.0, 0.0, 0.0, 1.695419832199494E9, 0.0, 2023-09-22 16:57:12.199
164.0, 21366.166635294754, 33044.52843004804, -52462.89699827397, -55140.01013517501, -37468.25158217568, -20917.34360663219, -187500.02235174447, -35774.592849563705, -9505.369902297247, 18822.091081391703, -50302.19856526835, -47185.91835330944, -20947.473758157943, -52259.04908884157, -52375.70284315382, -42389.70337983411, -0.004, 0.996, 0.214, 192.0, 0.0, 0.0, 0.0, 0.0, 0.0, 0.0, 0.0, 0.0, 0.0, 1.695419832199498E9, 0.0, 2023-09-22 16:57:12.199
166.0, 21406.176257869753, 33086.32619217947, -52447.451942855354, -55142.62528927628, -37439.954273695264, -20918.12591768812, -187500.02235174447, -35765.71920701495, -9495.915114392652, 18848.73436078243, -50284.89831505994, -47165.265341432736, -20942.511670888864, -52243.02288806711, -52357.24030223374, -42369.65386505769, -0.004, 0.996, 0.214, 192.0, 0.0, 0.0, 0.0, 0.0, 0.0, 0.0, 0.0, 0.0, 0.0, 1.695419832260484E9, 0.0, 2023-09-22 16:57:12.260
168.0, 21381.164655824265, 33065.8519942584, -52453.62102432502, -55134.13162638326, -37465.189393185305, -20909.94517921748, -187500.02235174447, -35766.16624190405, -9489.433108500614, 18850.366038127668, -50276.628169611475, -47158.828039029606, -20931.2910951723, -52237.39024846438, -52353.26169172069, -42362.36719636527, -0.004, 0.992, 0.214, 192.0, 127.5, 112.0, 15.5, 0.0, 3.0, 88.0, 0.0, 0.0, 0.0, 1.695419832260495E9, 0.0, 2023-09-22 16:57:12.260
170.0, 21396.833228687436, 33084.98508751215, -52458.33724240509, -55159.83613250687, -37449.610227299956, -20934.040359740302, -187500.02235174447, -35780.739579288915, -9495.982169626019, 18838.273744377344, -50283.2666377147, -47168.03695774519, -20936.65551384157, -52246.93444334679, -52358.827276090065, -42369.58680982433, -0.004, 0.992, 0.214, 192.0, 0.0, 0.0, 0.0, 0.0, 0.0, 0.0, 0.0, 0.0, 0.0, 1.695419832260499E9, 0.0, 2023-09-22 16:57:12.260
172.0, 21390.641795473315, 33083.24165144464, -52441.104047430046, -55121.704056466115, -37451.82305000103, -20897.316443600233, -187500.02235174447, -35756.465584810445, -9500.608980728268, 18834.4962995644, -50291.22385874079, -47176.26239970475, -20940.43295865452, -52251.851827126964, -52368.684395394856, -42376.91818200567, -0.004, 0.992, 0.214, 192.0, 0.0, 0.0, 0.0, 0.0, 0.0, 0.0, 0.0, 0.0, 0.0, 1.695419832260502E9, 0.0, 2023-09-22 16:57:12.260
174.0, 21397.86140893238, 33087.57788986896, -52437.37130610601, -55143.69817301013, -37425.492695032684, -20917.790641521293, -187500.02235174447, -35762.5899627912, -9460.06291628634, 18858.703238809496, -50256.355137390514, -47141.59484405456, -20901.205647135455, -52216.60312612094, -52327.1995576858, -42339.81428620986, -0.004, 0.992, 0.214, 192.0, 0.0, 0.0, 0.0, 0.0, 0.0, 0.0, 0.0, 0.0, 0.0, 1.695419832260505E9, 0.0, 2023-09-22 16:57:12.260
176.0, 21389.591263483915, 33085.722695079174, -52453.44221036938, -55144.48048406607, -37457.299227392585, -20917.34360663219, -187500.02235174447, -35771.93299197352, -9495.602189970277, 18841.11241592317, -50294.19664075335, -47178.65403636146, -20929.48060387142, -52255.070478328525, -52361.5094854247, -42378.92983900665, -0.004, 0.992, 0.214, 192.0, 0.0, 0.0, 0.0, 0.0, 0.0, 0.0, 0.0, 0.0, 0.0, 1.695419832260508E9, 0.0, 2023-09-22 16:57:12.260
178.0, 21381.768152924556, 33077.25138393061, -52461.75705930675, -55167.05574596593, -37443.77642199712, -20937.86250804216, -187500.02235174447, -35781.298372900295, -9482.660529930656, 18833.15519489708, -50284.0713005151, -47171.054443246656, -20925.09966195818, -52245.280414257104, -52355.83214233305, -42370.458527858085, -0.002, 0.982, 0.214, 192.0, 127.5, 120.0, 15.0, 88.0, 3.0, 88.0, 0.0, 0.0, 0.0, 1.695419832260512E9, 0.0, 2023-09-22 16:57:12.260
180.0, 21394.62040598636, 33093.009363771605, -52462.7852395517, -55151.32011786939, -37460.65198906088, -20924.3397026467, -187500.02235174447, -35779.89021299961, -9504.252315074482, 18834.228078630935, -50302.75735887973, -47188.01941728824, -20946.37852267963, -52263.184161565805, -52375.613436176, -42388.362275166786, -0.002, 0.982, 0.214, 192.0, 0.0, 0.0, 0.0, 0.0, 0.0, 0.0, 0.0, 0.0, 0.0, 1.695419832260515E9, 0.0, 2023-09-22 16:57:12.260
182.0, 21385.299728548496, 33079.28539267604, -52448.81539926713, -55148.30263236793, -37436.9367881938, -20920.9869409784, -187500.02235174447, -35769.13902391661, -9479.575989195822, 18835.882107720627, -50274.057718999116, -47161.845524531076, -20924.876144513626, -52233.36693446242, -52352.05469752011, -42361.96486496507, -0.002, 0.982, 0.214, 192.0, 0.0, 0.0, 0.0, 0.0, 0.0, 0.0, 0.0, 0.0, 0.0, 1.695419832319951E9, 0.0, 2023-09-22 16:57:12.319
184.0, 21405.7515747251, 33104.85578833292, -52468.350823921064, -55156.237501649564, -37468.206878686775, -20930.441728882997, -187500.02235174447, -35787.713323558964, -9501.435995273114, 18844.666343291563, -50301.61741991251, -47187.10299576557, -20945.082121501222, -52258.44559174128, -52377.17805828787, -42390.798615312415, -0.002, 0.982, 0.214, 192.0, 0.0, 0.0, 0.0, 0.0, 0.0, 0.0, 0.0, 0.0, 0.0, 1.695419832319963E9, 0.0, 2023-09-22 16:57:12.319
186.0, 21379.510626734573, 33076.62553508586, -52464.39456515248, -55154.20349290413, -37456.40515761437, -20927.84892652618, -187500.02235174447, -35782.66182931207, -9489.54486722289, 18826.404968071576, -50286.641751127456, -47175.63655086, -20935.60498185217, -52243.42521946731, -52370.40547971791, -42378.3039901619, -0.002, 0.982, 0.214, 192.0, 0.0, 0.0, 0.0, 0.0, 0.0, 0.0, 0.0, 0.0, 0.0, 1.695419832319966E9, 0.0, 2023-09-22 16:57:12.319
188.0, 21408.81376371548, 33110.37666921338, -52463.76871630773, -55148.45909457911, -37458.50622159317, -20922.66332181255, -187500.02235174447, -35780.0466752108, -9491.40006201268, 18855.194014930014, -50291.98381805227, -47178.117594494535, -20935.135595218613, -52245.66039391284, -52370.51723844019, -42380.382702396244, -0.002, 0.984, 0.224, 192.0, 127.5, 120.0, 15.0, 96.0, 3.5, 0.0, 0.0, 0.0, 0.0, 1.69541983231997E9, 0.0, 2023-09-22 16:57:12.319
190.0, 21373.0956760759, 33073.31747690648, -52449.88828300098, -55135.271565350486, -37443.530552808115, -20910.861600740147, -187500.02235174447, -35764.8921924701, -9482.794640397387, 18835.055093175783, -50282.66314061441, -47170.8309258021, -20928.966513748946, -52233.05401004005, -52362.42590694737, -42366.14464117821, -0.002, 0.984, 0.224, 192.0, 0.0, 0.0, 0.0, 0.0, 0.0, 0.0, 0.0, 0.0, 0.0, 1.695419832319974E9, 0.0, 2023-09-22 16:57:12.319
192.0, 21413.70879575119, 33117.28335825007, -52459.16425694994, -55142.55823404292, -37447.82208774353, -20920.115222944645, -187500.02235174447, -35774.928125730534, -9490.170716067638, 18861.743076055416, -50294.64367564245, -47179.14577473948, -20936.767272563848, -52245.548635190564, -52368.393822716935, -42376.29233316092, -0.002, 0.984, 0.224, 192.0, 0.0, 0.0, 0.0, 0.0, 0.0, 0.0, 0.0, 0.0, 0.0, 1.695419832319977E9, 0.0, 2023-09-22 16:57:12.319
194.0, 21371.084019074922, 33072.870442017374, -52444.0768294426, -55130.39888505923, -37434.76866898163, -20907.46413558294, -187500.02235174447, -35758.63370402261, -9466.723736134021, 18843.548756068798, -50267.79923055163, -47157.978672740304, -20917.969455476938, -52221.11817850092, -52347.31612769558, -42349.961978192565, -0.002, 0.984, 0.224, 192.0, 0.0, 0.0, 0.0, 0.0, 0.0, 0.0, 0.0, 0.0, 0.0, 1.695419832319981E9, 0.0, 2023-09-22 16:57:12.319
196.0, 21408.56789452647, 33115.18229427127, -52472.843524556585, -55162.85361800833, -37455.354625624976, -20939.851813298683, -187500.02235174447, -35788.85326252619, -9495.155155081173, 18853.808206773785, -50295.56009716512, -47182.587943385595, -20936.163775463556, -52249.884873614894, -52368.03619480565, -42376.113519205275, -0.002, 0.984, 0.224, 192.0, 0.0, 0.0, 0.0, 0.0, 0.0, 0.0, 0.0, 0.0, 0.0, 1.69541983237972E9, 0.0, 2023-09-22 16:57:12.379
198.0, 21364.22203352714, 33070.903488505304, -52461.19826569537, -55141.59710903134, -37456.71808203674, -20917.120089187632, -187500.02235174447, -35771.39655010659, -9496.272742303938, 18820.10177613518, -50292.40850119692, -47185.29250446469, -20937.23665919741, -52248.834341625494, -52376.55220944312, -42374.41478662667, -0.004, 0.986, 0.224, 192.0, 127.5, 112.0, 15.0, 104.0, 3.5, 0.0, 0.0, 0.0, 0.0, 1.695419832379734E9, 0.0, 2023-09-22 16:57:12.379
200.0, 21408.031452659543, 33121.48548620767, -52463.120515718525, -55153.82351324839, -37448.22441914373, -20927.983036992915, -187500.02235174447, -35779.13025368813, -9493.679939947122, 18856.378657386143, -50291.20150699634, -47180.17395498443, -20928.787699793305, -52245.16865553483, -52369.869037850985, -42368.82685051285, -0.004, 0.986, 0.224, 192.0, 0.0, 0.0, 0.0, 0.0, 0.0, 0.0, 0.0, 0.0, 0.0, 1.695419832379738E9, 0.0, 2023-09-22 16:57:12.379
202.0, 21359.617574169348, 33074.27860191806, -52450.961166734836, -55134.288088594454, -37450.370186611435, -20909.72166177293, -187500.02235174447, -35763.93106745852, -9487.130878821717, 18836.910287965573, -50281.14322199145, -47174.273094448225, -20926.887801514604, -52234.61863215192, -52365.823372104576, -42357.807440496385, -0.004, 0.986, 0.224, 192.0, 0.0, 0.0, 0.0, 0.0, 0.0, 0.0, 0.0, 0.0, 0.0, 1.695419832379741E9, 0.0, 2023-09-22 16:57:12.379
204.0, 21409.61842651587, 33124.05593682003, -52451.49760860176, -55150.76132425801, -37435.8862562044, -20924.362054391153, -187500.02235174447, -35770.61423905066, -9482.749936908476, 18864.78291330134, -50280.04798651314, -47170.33918742409, -20921.143403189588, -52233.83632109599, -52355.78743884414, -42351.638359026714, -0.004, 0.986, 0.224, 192.0, 0.0, 0.0, 0.0, 0.0, 0.0, 0.0, 0.0, 0.0, 0.0, 1.695419832379745E9, 0.0, 2023-09-22 16:57:12.379
206.0, 21359.50581544707, 33077.18432869724, -52464.39456515248, -55145.44160907765, -37470.66557057686, -20921.970417734436, -187500.02235174447, -35774.32462863024, -9499.089062105306, 18823.186316870015, -50296.3200564766, -47191.57334465663, -20953.687543116517, -52249.30372825906, -52378.60856993301, -42367.75396677899, -0.004, 0.986, 0.224, 192.0, 0.0, 0.0, 0.0, 0.0, 0.0, 0.0, 0.0, 0.0, 0.0, 1.695419832379748E9, 0.0, 2023-09-22 16:57:12.379
208.0, 21405.796278214013, 33128.74980315564, -52460.63947208399, -55156.70688828312, -37452.02421570113, -20935.493223129895, -187500.02235174447, -35781.11955894465, -9489.790736411898, 18853.11530269567, -50289.18984999536, -47180.643341617986, -20940.00827550987, -52240.96652757723, -52368.61734016149, -42361.942513220616, -0.006, 0.988, 0.224, 192.0, 127.5, 104.0, 15.0, 112.0, 3.5, 0.0, 0.0, 0.0, 0.0, 1.695419832379752E9, 0.0, 2023-09-22 16:57:12.379
210.0, 21370.94990860819, 33100.8101225865, -52449.24008241178, -55125.30268732342, -37462.57423908404, -20906.592417549185, -187500.02235174447, -35763.260515124864, -9494.797527169887, 18842.878203735138, -50287.98285579478, -47179.54810613968, -20932.94512426199, -52236.76439961963, -52375.814601876096, -42363.52948707694, -0.006, 0.988, 0.224, 192.0, 0.0, 0.0, 0.0, 0.0, 0.0, 0.0, 0.0, 0.0, 0.0, 1.695419832379755E9, 0.0, 2023-09-22 16:57:12.379
212.0, 21407.42795555925, 33136.3717480149, -52452.45873361334, -55146.648603278234, -37443.664663274845, -20931.782833550315, -187500.02235174447, -35777.230355409425, -9481.364128752248, 18869.722648825962, -50277.14225973395, -47166.24881818877, -20921.769252034337, -52223.28629771308, -52362.671776136376, -42353.22533288304, -0.006, 0.988, 0.224, 192.0, 0.0, 0.0, 0.0, 0.0, 0.0, 0.0, 0.0, 0.0, 0.0, 1.695419832440077E9, 0.0, 2023-09-22 16:57:12.440
214.0, 21375.576719710436, 33101.055991775516, -52449.910634745436, -55127.850786191324, -37461.97074198374, -20913.320292630233, -187500.02235174447, -35766.1438901596, -9489.410756756159, 18849.15904392708, -50288.13931800596, -47180.59863812908, -20930.08410097171, -52235.73621937469, -52375.859305365004, -42367.55280107889, -0.006, 0.988, 0.224, 192.0, 0.0, 0.0, 0.0, 0.0, 0.0, 0.0, 0.0, 0.0, 0.0, 1.695419832440088E9, 0.0, 2023-09-22 16:57:12.440
216.0, 21398.308443821483, 33121.35137574093, -52448.61423356703, -55148.906129468225, -37435.64038701539, -20928.85475502667, -187500.02235174447, -35767.68616052701, -9474.099811804273, 18859.999639987906, -50276.359948678015, -47171.36736766903, -20919.265856655344, -52227.600184392955, -52359.18490400135, -42354.96876895056, -0.006, 0.988, 0.224, 192.0, 0.0, 0.0, 0.0, 0.0, 0.0, 0.0, 0.0, 0.0, 0.0, 1.695419832440092E9, 0.0, 2023-09-22 16:57:12.440
218.0, 21370.502873719084, 33094.41752367229, -52458.13607670499, -55142.535882298456, -37464.20591642927, -20921.948065989982, -187500.02235174447, -35768.580230305226, -9488.941370122597, 18845.00161945839, -50293.86136458652, -47189.24876323328, -20938.644819098095, -52242.88877760038, -52373.80294487512, -42370.86085925828, -0.004, 0.984, 0.222, 192.0, 127.5, 112.0, 15.0, 96.0, 3.0, 120.0, 0.0, 0.0, 0.0, 1.695419832440095E9, 0.0, 2023-09-22 16:57:12.440
220.0, 21388.65249021679, 33110.57783491348, -52444.032125953694, -55148.45909457911, -37430.72300323522, -20925.457289869464, -187500.02235174447, -35759.39366333409, -9471.663471658645, 18848.644953804607, -50277.99162602325, -47176.66473110494, -20922.41745262354, -52229.701248371755, -52356.07801152206, -42355.39345209521, -0.004, 0.984, 0.222, 192.0, 0.0, 0.0, 0.0, 0.0, 0.0, 0.0, 0.0, 0.0, 0.0, 1.695419832440099E9, 0.0, 2023-09-22 16:57:12.440
222.0, 21370.592280696903, 33096.51858765109, -52465.86978028653, -55152.70592602562, -37473.168965955854, -20930.46408062745, -187500.02235174447, -35774.27992514133, -9504.989922641507, 18838.92194496655, -50304.27727750269, -47199.86584184955, -20936.52140337484, -52254.444629483776, -52378.250942021725, -42378.751025051, -0.004, 0.984, 0.222, 192.0, 0.0, 0.0, 0.0, 0.0, 0.0, 0.0, 0.0, 0.0, 0.0, 1.695419832440102E9, 0.0, 2023-09-22 16:57:12.440
224.0, 21378.728315678636, 33103.15705575432, -52454.98448073679, -55155.879873738275, -37444.782250497614, -20933.973304506937, -187500.02235174447, -35766.3897593486, -9492.472945746535, 18835.524479809344, -50290.15097500694, -47186.90183006547, -20930.173507949534, -52239.93834733228, -52367.56680817209, -42364.75883302198, -0.004, 0.984, 0.222, 192.0, 0.0, 0.0, 0.0, 0.0, 0.0, 0.0, 0.0, 0.0, 0.0, 1.695419832440105E9, 0.0, 2023-09-22 16:57:12.440
226.0, 21379.018888356553, 33106.80039010053, -52469.71428033284, -55151.34246961385, -37471.38082639943, -20929.927638760524, -187500.02235174447, -35772.71530302946, -9507.985056398518, 18841.559450812274, -50309.3734752385, -47203.687990151404, -20951.206499481978, -52255.584568451, -52383.72711941328, -42382.550821608405, -0.004, 0.984, 0.222, 192.0, 0.0, 0.0, 0.0, 0.0, 0.0, 0.0, 0.0, 0.0, 0.0, 1.695419832500218E9, 0.0, 2023-09-22 16:57:12.500
228.0, 21368.670030673748, 33095.110427750406, -52459.56658835013, -55156.52807432748, -37445.475154575724, -20937.638990597607, -187500.02235174447, -35769.67546578353, -9489.030777100417, 18840.15129091159, -50288.89927731744, -47184.66665561994, -20932.81101379526, -52234.596280407466, -52365.599854660024, -42361.026091697946, -0.01, 0.99, 0.22, 192.0, 127.5, 88.0, 15.0, 120.0, 3.0, 112.0, 0.0, 0.0, 0.0, 1.695419832500231E9, 0.0, 2023-09-22 16:57:12.500
230.0, 21388.205455327687, 33116.43399196077, -52456.10206795956, -55137.68555375166, -37457.992131470695, -20922.506859601363, -187500.02235174447, -35765.11570991465, -9507.515669764956, 18845.560413069776, -50308.21118452683, -47202.88332735102, -20952.257031471378, -52255.986899851196, -52381.02255833418, -42383.91427802018, -0.01, 0.99, 0.22, 192.0, 0.0, 0.0, 0.0, 0.0, 0.0, 0.0, 0.0, 0.0, 0.0, 1.695419832500235E9, 0.0, 2023-09-22 16:57:12.500
232.0, 21380.80702791298, 33100.45249467522, -52433.70562001534, -55128.901318180724, -37426.85615144446, -20911.487449584896, -187500.02235174447, -35743.322759070725, -9463.907416332653, 18855.529291096842, -50261.3619281485, -47160.90675126395, -20912.85090599667, -52212.60216386344, -52343.27046194917, -42341.40126006619, -0.01, 0.99, 0.22, 192.0, 0.0, 0.0, 0.0, 0.0, 0.0, 0.0, 0.0, 0.0, 0.0, 1.695419832500238E9, 0.0, 2023-09-22 16:57:12.500
234.0, 21393.681632719235, 33121.06080306302, -52475.68219610241, -55161.57956857438, -37474.26420143416, -20945.506804645873, -187500.02235174447, -35784.36056189067, -9492.897628891185, 18857.652706820096, -50297.392940210455, -47194.99316155829, -20945.395045923597, -52250.39896373737, -52378.13918329945, -42378.348693650805, -0.01, 0.99, 0.22, 192.0, 0.0, 0.0, 0.0, 0.0, 0.0, 0.0, 0.0, 0.0, 0.0, 1.695419832500242E9, 0.0, 2023-09-22 16:57:12.500
236.0, 21369.027658585033, 33091.5117968931, -52451.09527720157, -55137.03735316246, -37440.17779113982, -20916.85186825417, -187500.02235174447, -35753.98454117591, -9489.20959105606, 18830.58474428472, -50286.977027294284, -47187.39356844349, -20942.779891822327, -52237.43495195329, -52372.61830241899, -42364.155335921685, -0.01, 0.99, 0.22, 192.0, 0.0, 0.0, 0.0, 0.0, 0.0, 0.0, 0.0, 0.0, 0.0, 1.695419832500247E9, 0.0, 2023-09-22 16:57:12.500
238.0, 21392.18406584073, 33122.223093774686, -52477.42563216992, -55163.16654243071, -37465.211744929766, -20938.91304003156, -187500.02235174447, -35777.945611232, -9500.184297583615, 18856.937450997528, -50302.10915829053, -47199.999952316284, -20950.111264003666, -52246.330946246504, -52374.92053209788, -42371.509059847485, -0.004, 0.98, 0.224, 192.0, 127.5, 112.0, 15.0, 80.0, 3.5, 0.0, 0.0, 0.0, 0.0, 1.69541983250025E9, 0.0, 2023-09-22 16:57:12.500
240.0, 21358.432931713218, 33084.73921832314, -52452.57049233562, -55141.284184608965, -37446.86096273195, -20919.154097933068, -187500.02235174447, -35756.26441911035, -9493.165849824649, 18826.472023304945, -50292.47555643029, -47197.00481855927, -20936.879031286124, -52238.30666998705, -52372.55124718562, -42365.67525454465, -0.004, 0.98, 0.224, 192.0, 0.0, 0.0, 0.0, 0.0, 0.0, 0.0, 0.0, 0.0, 0.0, 1.695419832500254E9, 0.0, 2023-09-22 16:57:12.500
242.0, 21403.829324701946, 33127.3192915105, -52458.96309124984, -55154.96345221561, -37456.85219250348, -20937.124900475133, -187500.02235174447, -35770.97186696194, -9487.957893366563, 18861.11722721067, -50291.02269304069, -47197.87653659303, -20929.301789915775, -52241.078286299504, -52368.93026458386, -42367.28458014543, -0.004, 0.98, 0.224, 192.0, 0.0, 0.0, 0.0, 0.0, 0.0, 0.0, 0.0, 0.0, 0.0, 1.695419832560557E9, 0.0, 2023-09-22 16:57:12.560
244.0, 21362.94798409319, 33085.78975031254, -52446.066134699126, -55141.15007414223, -37456.539268081106, -20928.921810260035, -187500.02235174447, -35760.42184357904, -9484.962759609552, 18828.43897681701, -50283.78072783718, -47196.714245881354, -20936.834327797216, -52239.60307116545, -52371.50071519622, -42364.311798132876, -0.004, 0.98, 0.224, 192.0, 0.0, 0.0, 0.0, 0.0, 0.0, 0.0, 0.0, 0.0, 0.0, 1.695419832560569E9, 0.0, 2023-09-22 16:57:12.560
246.0, 21409.014929415578, 33138.13753582687, -52451.96699523533, -55152.54946381444, -37455.66755004734, -20943.562202878264, -187500.02235174447, -35768.915506472054, -9495.40102427018, 18858.34561089821, -50295.76126286522, -47205.92316459694, -20953.48637741642, -52254.60109169497, -52379.6143984335, -42376.404091883196, -0.004, 0.98, 0.224, 192.0, 0.0, 0.0, 0.0, 0.0, 0.0, 0.0, 0.0, 0.0, 0.0, 1.695419832560573E9, 0.0, 2023-09-22 16:57:12.560
248.0, 21360.064609058456, 33091.802369571014, -52444.523864331706, -55138.825492718875, -37460.47317510524, -20929.324141660232, -187500.02235174447, -35753.962189431455, -9490.081309089817, 18836.284439120824, -50282.23845746976, -47193.58500165761, -20939.00244700938, -52239.87129209892, -52370.38312797346, -42358.83562074132, -0.006, 0.988, 0.22, 192.0, 127.5, 104.0, 15.0, 112.0, 3.0, 112.0, 0.0, 0.0, 0.0, 1.695419832560577E9, 0.0, 2023-09-22 16:57:12.560
250.0, 21406.869161947867, 33141.89262889536, -52451.6317190685, -55154.78463825997, -37454.05822444656, -20946.356170935174, -187500.02235174447, -35765.80861399277, -9494.663416703155, 18856.512767852877, -50293.01199829722, -47199.441158704896, -20944.09864474519, -52246.66622241333, -52371.23249426276, -42366.256399900485, -0.006, 0.988, 0.22, 192.0, 0.0, 0.0, 0.0, 0.0, 0.0, 0.0, 0.0, 0.0, 0.0, 1.69541983256058E9, 0.0, 2023-09-22 16:57:12.560
252.0, 21359.930498591722, 33089.567195125484, -52449.821227767614, -55143.92169045469, -37467.022236230645, -20937.124900475133, -187500.02235174447, -35763.10405291367, -9485.521553220935, 18833.803395486284, -50285.34534994905, -47195.37314121403, -20938.15308072008, -52238.41842870932, -52371.90304659642, -42363.70830103258, -0.006, 0.988, 0.22, 192.0, 0.0, 0.0, 0.0, 0.0, 0.0, 0.0, 0.0, 0.0, 0.0, 1.695419832560584E9, 0.0, 2023-09-22 16:57:12.560
254.0, 21397.123801365353, 33128.168657799804, -52468.84256229908, -55176.55523735944, -37467.6927885643, -20969.132598535132, -187500.02235174447, -35788.65209682609, -9508.11916686525, 18842.855851990684, -50312.234498528785, -47216.47318797984, -20959.968383308456, -52261.73129817621, -52391.952561372826, -42389.92689727866, -0.006, 0.988, 0.22, 192.0, 0.0, 0.0, 0.0, 0.0, 0.0, 0.0, 0.0, 0.0, 0.0, 1.695419832560588E9, 0.0, 2023-09-22 16:57:12.560
0.0, 21358.097655546386, 33088.60607011391, -52453.64337606948, -55144.34637359934, -37470.8443845325, -20936.074368485733, -187500.02235174447, -35761.785299990814, -9510.756672710977, 18818.33598832321, -50313.19562354036, -47220.2953362817, -20960.86245308667, -52258.982033608205, -52395.64059920795, -42390.06100774539, -0.006, 0.988, 0.22, 192.0, 0.0, 0.0, 0.0, 0.0, 0.0, 0.0, 0.0, 0.0, 0.0, 1.695419832619893E9, 0.0, 2023-09-22 16:57:12.619
2.0, 21410.154868382797, 33137.91401838232, -52436.25371888324, -55142.35706834282, -37427.95138692277, -20932.274571928334, -187500.02235174447, -35747.1896108615, -9477.027890327918, 18868.582709858743, -50282.32786444758, -47185.65013237597, -20928.18420269301, -52224.806216336045, -52360.03427029065, -42357.56157130737, -0.004, 0.994, 0.22, 192.0, 127.5, 112.0, 15.5, 8.0, 3.0, 112.0, 0.0, 0.0, 0.0, 1.69541983261991E9, 0.0, 2023-09-22 16:57:12.619
4.0, 21370.56992895245, 33097.055029518015, -52452.81636152463, -55142.178254387174, -37463.08832920651, -20930.0393974828, -187500.02235174447, -35752.86695395315, -9488.606093955766, 18848.577898571242, -50292.45320468584, -47195.08256853611, -20940.544717376797, -52234.864501340926, -52374.898180353426, -42371.799632525406, -0.004, 0.994, 0.22, 192.0, 0.0, 0.0, 0.0, 0.0, 0.0, 0.0, 0.0, 0.0, 0.0, 1.695419832619914E9, 0.0, 2023-09-22 16:57:12.619
6.0, 21400.99065315612, 33129.97914910068, -52463.8357715411, -55167.03339422148, -37448.000901699175, -20954.022819283346, -187500.02235174447, -35766.613276793156, -9489.678977689622, 18855.73045679694, -50295.6718558874, -47191.90862082346, -20944.009237767368, -52238.41842870932, -52375.27816000917, -42377.655789572695, -0.004, 0.994, 0.22, 192.0, 0.0, 0.0, 0.0, 0.0, 0.0, 0.0, 0.0, 0.0, 0.0, 1.695419832619917E9, 0.0, 2023-09-22 16:57:12.619
8.0, 21376.582548210925, 33110.488427935656, -52458.67251857192, -55139.63015551927, -37463.78123328462, -20923.356225890664, -187500.02235174447, -35749.335378329204, -9497.949123138085, 18841.73826476792, -50301.28214374568, -47191.34982721208, -20954.67101987255, -52246.64387066888, -52385.090575825045, -42387.445853644116, -0.004, 0.994, 0.22, 192.0, 0.0, 0.0, 0.0, 0.0, 0.0, 0.0, 0.0, 0.0, 0.0, 1.695419832619921E9, 0.0, 2023-09-22 16:57:12.619
10.0, 21405.9527404252, 33134.7177189252, -52448.56953007812, -55144.279318365974, -37428.7336979787, -20923.51268810185, -187500.02235174447, -35740.260570080354, -9471.886989103197, 18859.664363821073, -50276.80698356712, -47162.27020767573, -20923.2891706573, -52224.381533191394, -52358.31318596759, -42367.12811793424, -0.004, 0.994, 0.22, 192.0, 0.0, 0.0, 0.0, 0.0, 0.0, 0.0, 0.0, 0.0, 0.0, 1.695419832619924E9, 0.0, 2023-09-22 16:57:12.619
12.0, 21382.304594791483, 33109.907282579814, -52462.7852395517, -55138.08788515185, -37454.8405355025, -20912.85090599667, -187500.02235174447, -35739.16533460204, -9476.312634505348, 18857.093913208715, -50282.35021619203, -47166.71820482233, -20926.66428407005, -52234.28335598509, -52363.94582557033, -42377.924010506154, -0.004, 0.996, 0.222, 192.0, 127.5, 112.0, 15.5, 16.0, 3.0, 120.0, 0.0, 0.0, 0.0, 1.695419832619928E9, 0.0, 2023-09-22 16:57:12.619
14.0, 21394.441592030715, 33112.34362272544, -52458.89603601647, -55145.68747826666, -37422.45285778676, -20915.130783931112, -187500.02235174447, -35732.92919789901, -9466.746087878477, 18859.59730858771, -50270.66025384191, -47153.06128896014, -20919.84700201118, -52222.59339363497, -52347.763162584684, -42364.8482399998, -0.004, 0.996, 0.222, 192.0, 0.0, 0.0, 0.0, 0.0, 0.0, 0.0, 0.0, 0.0, 0.0, 1.695419832619931E9, 0.0, 2023-09-22 16:57:12.619
16.0, 21382.84103665841, 33095.244538217135, -52482.03009152772, -55145.06162942191, -37454.39350061339, -20914.393176364087, -187500.02235174447, -35744.44034629349, -9487.555561966368, 18856.222195174956, -50290.01686454021, -47168.461640889844, -20936.789624308305, -52241.8829490999, -52361.37537495797, -42383.91427802018, -0.004, 0.996, 0.222, 192.0, 0.0, 0.0, 0.0, 0.0, 0.0, 0.0, 0.0, 0.0, 0.0, 1.695419832679787E9, 0.0, 2023-09-22 16:57:12.679
18.0, 21387.75842043858, 33087.35437242441, -52468.39552740998, -55140.4124665752, -37419.86005542995, -20911.66626354054, -187500.02235174447, -35734.27030256633, -9475.887951360697, 18851.57303232825, -50268.38037590747, -47149.730879036295, -20924.607923580163, -52224.04625702456, -52346.53381663965, -42368.37981562374, -0.004, 0.996, 0.222, 192.0, 0.0, 0.0, 0.0, 0.0, 0.0, 0.0, 0.0, 0.0, 0.0, 1.695419832679798E9, 0.0, 2023-09-22 16:57:12.679
20.0, 21395.358013553385, 33088.44960790272, -52478.14088799249, -55138.31140259641, -37446.190410398296, -20913.81203100825, -187500.02235174447, -35744.172125360026, -9482.034681085906, 18869.029744747848, -50271.80019280913, -47156.235236672794, -20931.38050215012, -52236.00444030815, -52352.814656831586, -42377.9016587617, -0.004, 0.996, 0.222, 192.0, 0.0, 0.0, 0.0, 0.0, 0.0, 0.0, 0.0, 0.0, 0.0, 1.695419832679802E9, 0.0, 2023-09-22 16:57:12.679
22.0, 21380.918786635255, 33064.55559308, -52474.27403620172, -55147.45326607863, -37432.9358259363, -20924.71968230244, -187500.02235174447, -35747.07785213922, -9469.741221635488, 18855.194014930014, -50254.254073411714, -47143.919425477914, -20910.32515887322, -52224.6274023804, -52344.11982823847, -42365.8987719892, -0.002, 0.988, 0.226, 192.0, 127.5, 120.0, 15.0, 112.0, 3.5, 8.0, 0.0, 0.0, 0.0, 1.695419832679805E9, 0.0, 2023-09-22 16:57:12.679
24.0, 21394.66510947527, 33077.54195660853, -52489.137946264505, -55149.39786784624, -37464.51884085165, -20929.61471433815, -187500.02235174447, -35758.23137262242, -9504.989922641507, 18847.90734623758, -50289.70394011783, -47178.92225729493, -20944.52332788984, -52261.79835340958, -52374.808773375604, -42400.11929275028, -0.002, 0.988, 0.226, 192.0, 0.0, 0.0, 0.0, 0.0, 0.0, 0.0, 0.0, 0.0, 0.0, 1.695419832679809E9, 0.0, 2023-09-22 16:57:12.679
26.0, 21370.94990860819, 33045.51190680407, -52476.57626588062, -55145.50866431101, -37443.374090596924, -20923.75855729086, -187500.02235174447, -35744.373291060125, -9483.97928285352, 18840.44186358951, -50265.5640561061, -47157.9339692514, -20924.294999157788, -52235.646812396866, -52356.18977024434, -42372.42548137015, -0.002, 0.988, 0.226, 192.0, 0.0, 0.0, 0.0, 0.0, 0.0, 0.0, 0.0, 0.0, 0.0, 1.695419832679812E9, 0.0, 2023-09-22 16:57:12.679
28.0, 21399.247217088607, 33077.92193626427, -52487.41686194144, -55148.36968760129, -37456.181640169816, -20925.211420680454, -187500.02235174447, -35748.97775041792, -9499.714910950055, 18855.752808541394, -50287.51346916121, -47176.307103193656, -20937.795452808794, -52253.14822830537, -52369.93609308435, -42389.882193789745, -0.002, 0.988, 0.226, 192.0, 0.0, 0.0, 0.0, 0.0, 0.0, 0.0, 0.0, 0.0, 0.0, 1.695419832679815E9, 0.0, 2023-09-22 16:57:12.679
30.0, 21371.955737108678, 33038.80638346748, -52458.89603601647, -55123.40278904472, -37428.845456700976, -20899.4845628124, -187500.02235174447, -35723.764982672335, -9480.425355485124, 18844.085197935725, -50263.10536421602, -47152.90482674895, -20918.550600832772, -52225.0297337806, -52353.708726609795, -42365.78701326693, -0.002, 0.988, 0.226, 192.0, 0.0, 0.0, 0.0, 0.0, 0.0, 0.0, 0.0, 0.0, 0.0, 1.695419832740018E9, 0.0, 2023-09-22 16:57:12.740
32.0, 21406.444478803216, 33076.20085194121, -52472.39648966748, -55141.32888809787, -37443.99993944167, -20921.590438078696, -187500.02235174447, -35743.72509047092, -9485.454497987568, 18871.5554918713, -50271.77784106468, -47160.16914369693, -20926.083138714213, -52236.09384728597, -52357.352060956015, -42377.096995961314, -0.002, 0.994, 0.226, 192.0, 127.5, 120.0, 15.5, 8.0, 3.5, 8.0, 0.0, 0.0, 0.0, 1.695419832740034E9, 0.0, 2023-09-22 16:57:12.740
34.0, 21365.294917260995, 33029.88803742982, -52460.41595463944, -55131.002382159524, -37438.635520772405, -20914.259065897353, -187500.02235174447, -35734.22559907742, -9477.609035683756, 18845.62746830314, -50261.31722465959, -47153.508323849244, -20923.91501950205, -52229.544786160564, -52353.41815393188, -42368.4021673682, -0.002, 0.994, 0.226, 192.0, 0.0, 0.0, 0.0, 0.0, 0.0, 0.0, 0.0, 0.0, 0.0, 1.695419832740038E9, 0.0, 2023-09-22 16:57:12.740
36.0, 21404.47752529115, 33067.9530582372, -52472.46354490084, -55151.61069054731, -37448.89497147739, -20933.123938217635, -187500.02235174447, -35749.58124751822, -9490.394233512192, 18869.11915172567, -50277.477535900776, -47166.71820482233, -20929.570010849242, -52245.705097401755, -52361.3083197246, -42380.27094367397, -0.002, 0.994, 0.226, 192.0, 0.0, 0.0, 0.0, 0.0, 0.0, 0.0, 0.0, 0.0, 0.0, 1.695419832740041E9, 0.0, 2023-09-22 16:57:12.740
38.0, 21356.93536483471, 33015.0911826004, -52462.71818431833, -55132.90228043822, -37449.43141334432, -20915.555467075763, -187500.02235174447, -35733.0856601102, -9490.818916656843, 18831.702331507484, -50277.20931496732, -47170.33918742409, -20926.261952669855, -52243.894606100876, -52365.3092819821, -42379.71215006258, -0.002, 0.994, 0.226, 192.0, 0.0, 0.0, 0.0, 0.0, 0.0, 0.0, 0.0, 0.0, 0.0, 1.695419832740044E9, 0.0, 2023-09-22 16:57:12.740
40.0, 21400.878894433845, 33059.39234011082, -52480.57722813812, -55159.07617319539, -37450.21372440025, -20942.310505188765, -187500.02235174447, -35753.24693360888, -9490.573047467835, 18867.73334356944, -50279.42213766839, -47167.58992285609, -20925.300827658277, -52243.64873691186, -52359.430773190354, -42377.521679105965, -0.002, 0.994, 0.226, 192.0, 0.0, 0.0, 0.0, 0.0, 0.0, 0.0, 0.0, 0.0, 0.0, 1.695419832740051E9, 0.0, 2023-09-22 16:57:12.740
42.0, 21356.711847390157, 33015.113534344855, -52464.21575119683, -55127.26964083548, -37448.090308677, -20912.76149901885, -187500.02235174447, -35729.710546697446, -9496.965646382052, 18833.31165710827, -50284.5183354042, -47173.915466536935, -20934.688560329505, -52246.15213229086, -52370.137258784445, -42379.71215006258, -0.002, 0.994, 0.226, 192.0, 0.0, 0.0, 15.5, 24.0, 3.5, 8.0, 0.0, 0.0, 0.0, 1.695419832740054E9, 0.0, 2023-09-22 16:57:12.740
44.0, 21407.740879981626, 33067.21545067018, -52457.97961449381, -55134.37749557227, -37430.946520679776, -20922.015121223347, -187500.02235174447, -35736.30431131176, -9482.6381781862, 18873.567148872276, -50273.45422189882, -47159.20801868535, -20929.748824804883, -52233.14341701787, -52354.37927894346, -42364.177687666146, -0.002, 0.994, 0.226, 192.0, 0.0, 0.0, 0.0, 0.0, 0.0, 0.0, 0.0, 0.0, 0.0, 1.695419832740058E9, 0.0, 2023-09-22 16:57:12.740
46.0, 21364.825530627433, 33021.841409425906, -52445.127361432, -55112.42808251716, -37441.36243359595, -20903.463173325443, -187500.02235174447, -35723.764982672335, -9477.989015339495, 18848.91317473807, -50266.6145880955, -47156.659919817444, -20925.189068936, -52228.40484719335, -52356.59210164453, -42362.411899854174, -0.002, 0.994, 0.226, 192.0, 0.0, 0.0, 0.0, 0.0, 0.0, 0.0, 0.0, 0.0, 0.0, 1.695419832800405E9, 0.0, 2023-09-22 16:57:12.800
48.0, 21402.823496201458, 33059.83937499993, -52465.80272505316, -55150.73897251356, -37439.14961089488, -20937.929563275524, -187500.02235174447, -35748.2401428509, -9481.095907818784, 18871.667250593575, -50272.35898642051, -47161.04086173068, -20908.537019316795, -52234.10454202945, -52350.46772366378, -42367.75396677899, -0.002, 0.994, 0.226, 192.0, 0.0, 0.0, 0.0, 0.0, 0.0, 0.0, 0.0, 0.0, 0.0, 1.695419832800416E9, 0.0, 2023-09-22 16:57:12.800
50.0, 21359.70698114717, 33017.7957436795, -52474.22933271281, -55137.17146362919, -37461.702521050276, -20922.10452820117, -187500.02235174447, -35742.54044801479, -9494.104623091773, 18842.76644501286, -50288.027559283684, -47178.251704961265, -20928.206554437467, -52246.62151892442, -52372.0595088076, -42384.60718209829, -0.002, 0.994, 0.226, 192.0, 0.0, 0.0, 0.0, 0.0, 0.0, 0.0, 0.0, 0.0, 0.0, 1.69541983280042E9, 0.0, 2023-09-22 16:57:12.800
52.0, 21397.503781021092, 33055.659598786784, -52465.489800630785, -55143.54171079895, -37431.52766603562, -20928.43007188202, -187500.02235174447, -35740.01470089134, -9477.027890327918, 18868.672116836562, -50273.32011143209, -47162.62783558701, -20911.085118184703, -52232.80814085104, -52354.893369065925, -42371.28554240293, -0.004, 0.996, 0.228, 192.0, 127.5, 112.0, 15.5, 16.0, 3.5, 16.0, 0.0, 0.0, 0.0, 1.695419832800423E9, 0.0, 2023-09-22 16:57:12.800
54.0, 21364.333792249417, 33024.16599084926, -52464.796896552674, -55121.43583553265, -37453.20885815726, -20909.676958284017, -187500.02235174447, -35729.710546697446, -9482.325253763825, 18856.691581808518, -50274.683567843866, -47165.399451899466, -20925.122013702636, -52236.71969613072, -52361.24126449123, -42375.5994290828, -0.004, 0.996, 0.228, 192.0, 0.0, 0.0, 0.0, 0.0, 0.0, 0.0, 0.0, 0.0, 0.0, 1.695419832800426E9, 0.0, 2023-09-22 16:57:12.800
56.0, 21397.28026357654, 33055.14550866431, -52457.3314139046, -55134.60101301683, -37423.391631053884, -20923.177411935023, -187500.02235174447, -35732.8844944101, -9469.137724535194, 18877.054021007305, -50260.26669267019, -47150.31202439214, -20916.829516509715, -52222.05695176804, -52344.99154627223, -42361.47312658705, -0.004, 0.996, 0.228, 192.0, 0.0, 0.0, 0.0, 0.0, 0.0, 0.0, 0.0, 0.0, 0.0, 1.69541983280043E9, 0.0, 2023-09-22 16:57:12.800
58.0, 21364.80317888298, 33023.56249374896, -52476.37510018052, -55140.32305959739, -37465.5917245855, -20925.926676503026, -187500.02235174447, -35748.26249459535, -9493.188201569104, 18857.608003331185, -50284.00424528173, -47177.96113228335, -20928.318313159743, -52246.08507705749, -52370.80781111811, -42387.40115015521, -0.004, 0.996, 0.228, 192.0, 0.0, 0.0, 0.0, 0.0, 0.0, 0.0, 0.0, 0.0, 0.0, 1.695419832800433E9, 0.0, 2023-09-22 16:57:12.800
60.0, 21393.36870829686, 33042.96380793617, -52456.258530170744, -55140.211300875104, -37422.74343046468, -20923.937371246502, -187500.02235174447, -35733.331529299205, -9476.15617229416, 18860.603137088197, -50268.00039625173, -47164.66184433244, -20907.352376860665, -52230.99764955016, -52353.641671376434, -42371.33024589184, -0.004, 0.996, 0.228, 192.0, 0.0, 0.0, 0.0, 0.0, 0.0, 0.0, 0.0, 0.0, 0.0, 1.695419832860638E9, 0.0, 2023-09-22 16:57:12.860
62.0, 21376.71665867766, 33025.99883389459, -52470.40718441096, -55138.78078922997, -37459.109718693464, -20925.926676503026, -187500.02235174447, -35743.50157302637, -9483.867524131241, 18861.363096399677, -50278.86334405701, -47177.46939390533, -20915.153135675566, -52241.97235607772, -52362.22474124727, -42379.332170406844, -0.002, 0.992, 0.222, 192.0, 127.5, 120.0, 15.5, 0.0, 3.0, 120.0, 0.0, 0.0, 0.0, 1.695419832860675E9, 0.0, 2023-09-22 16:57:12.860
64.0, 21380.56115872397, 33035.92300843275, -52462.561722107144, -55148.1685219012, -37435.17100038183, -20937.326066175232, -187500.02235174447, -35741.22169509193, -9482.571122952833, 18855.86456726367, -50277.00814926722, -47175.70360609336, -20914.393176364087, -52238.59724266497, -52360.97304355777, -42375.688836060624, -0.002, 0.992, 0.222, 192.0, 0.0, 0.0, 0.0, 0.0, 0.0, 0.0, 0.0, 0.0, 0.0, 1.695419832860679E9, 0.0, 2023-09-22 16:57:12.860
66.0, 21384.852693659388, 33042.87440095835, -52457.443172626874, -55127.090826879845, -37449.45376508877, -20916.56129557625, -187500.02235174447, -35730.761078686846, -9489.276646289427, 18867.59923310271, -50280.539724891154, -47178.02818751671, -20920.964589233947, -52240.05010605456, -52362.112982524995, -42376.15822269419, -0.002, 0.992, 0.222, 192.0, 0.0, 0.0, 0.0, 0.0, 0.0, 0.0, 0.0, 0.0, 0.0, 1.695419832860682E9, 0.0, 2023-09-22 16:57:12.860
68.0, 21373.85563538738, 33028.43517404022, -52463.50049537427, -55148.92848121268, -37438.25554111666, -20938.980095264924, -187500.02235174447, -35741.02052939183, -9479.955968851564, 18855.86456726367, -50271.956655020316, -47165.98059725531, -20913.43205135251, -52228.226033237705, -52354.02165103217, -42366.5022690895, -0.002, 0.992, 0.222, 192.0, 0.0, 0.0, 0.0, 0.0, 0.0, 0.0, 0.0, 0.0, 0.0, 1.695419832860685E9, 0.0, 2023-09-22 16:57:12.860
70.0, 21387.110219849375, 33045.73542424863, -52470.29542568868, -55143.944042199146, -37462.6412943174, -20936.789624308305, -187500.02235174447, -35745.51323002735, -9502.195954584593, 18855.797512030305, -50297.86232684402, -47188.9358388109, -20935.47087138544, -52255.137533561894, -52377.24511352123, -42392.005609513, -0.002, 0.992, 0.222, 192.0, 0.0, 0.0, 0.0, 0.0, 0.0, 0.0, 0.0, 0.0, 0.0, 1.695419832860688E9, 0.0, 2023-09-22 16:57:12.860
72.0, 21373.319193520452, 33028.03284264002, -52452.212864424335, -55138.9148996967, -37436.60151202697, -20932.162813206054, -187500.02235174447, -35731.521037998325, -9471.328195491815, 18856.91509925307, -50266.86045728451, -47157.643396573476, -20918.75176653287, -52223.129835501895, -52351.74177309773, -42362.38954810972, -0.002, 0.994, 0.22, 192.0, 127.5, 120.0, 15.5, 8.0, 3.0, 112.0, 0.0, 0.0, 0.0, 1.695419832860692E9, 0.0, 2023-09-22 16:57:12.860
74.0, 21391.915844907267, 33051.613933040375, -52467.032070998204, -55144.18991138815, -37462.328369895025, -20939.404778409575, -187500.02235174447, -35744.57445676022, -9502.710044707066, 18859.329087654245, -50304.41138796943, -47189.89696382248, -20938.600115609184, -52258.1326673189, -52381.0672618231, -42397.861766560294, -0.002, 0.994, 0.22, 192.0, 0.0, 0.0, 0.0, 0.0, 0.0, 0.0, 0.0, 0.0, 0.0, 1.695419832860695E9, 0.0, 2023-09-22 16:57:12.860
76.0, 21370.927556863735, 33028.94926416269, -52441.5287305747, -55126.733198968555, -37429.56071252355, -20920.9869409784, -187500.02235174447, -35719.24993029236, -9468.467172201536, 18855.037552718826, -50267.0169194957, -47156.70462330635, -20902.457344824954, -52221.11817850092, -52350.02068877467, -42363.01539695447, -0.002, 0.994, 0.22, 192.0, 0.0, 0.0, 0.0, 0.0, 0.0, 0.0, 0.0, 0.0, 0.0, 1.695419832919997E9, 0.0, 2023-09-22 16:57:12.919
78.0, 21401.303577578496, 33060.17465116676, -52454.98448073679, -55136.8138357179, -37444.06699467504, -20933.258048684365, -187500.02235174447, -35735.276131066814, -9487.533210221913, 18874.125942483657, -50283.2666377147, -47171.30031243567, -20911.71096702945, -52241.83824561098, -52358.26848247868, -42379.62274308476, -0.002, 0.994, 0.22, 192.0, 0.0, 0.0, 0.0, 0.0, 0.0, 0.0, 0.0, 0.0, 0.0, 1.695419832920008E9, 0.0, 2023-09-22 16:57:12.920
80.0, 21370.167597552252, 33028.83750544042, -52436.32077411661, -55120.027675631965, -37426.476171788716, -20915.734281031404, -187500.02235174447, -35718.869950636625, -9466.20964601155, 18856.55747134179, -50258.09857345803, -47149.596768569565, -20900.1327634016, -52223.331001201994, -52345.259767205695, -42361.853106242794, -0.002, 0.994, 0.22, 192.0, 0.0, 0.0, 0.0, 0.0, 0.0, 0.0, 0.0, 0.0, 0.0, 1.695419832920012E9, 0.0, 2023-09-22 16:57:12.920
82.0, 21406.04214740302, 33070.769378038574, -52464.4839721303, -55145.620423033295, -37450.101965677975, -20939.13655747611, -187500.02235174447, -35742.763965459344, -9482.21349504155, 18876.83050356275, -50275.10825098852, -47164.348919910066, -20919.958760733458, -52242.084114799996, -52358.961386556795, -42381.00855124099, -0.004, 0.998, 0.222, 192.0, 127.5, 112.0, 15.5, 24.0, 3.0, 120.0, 0.0, 0.0, 0.0, 1.695419832920016E9, 0.0, 2023-09-22 16:57:12.920
84.0, 21360.26577475855, 33028.63633974032, -52459.65599532795, -55134.913937439196, -37450.03491044461, -20928.027740481823, -187500.02235174447, -35732.146886843075, -9483.621654942233, 18847.080331692738, -50270.213218952806, -47162.806649542654, -20922.685673557007, -52235.065667041024, -52362.1576860139, -42376.58290583884, -0.004, 0.998, 0.222, 192.0, 0.0, 0.0, 0.0, 0.0, 0.0, 0.0, 0.0, 0.0, 0.0, 1.695419832920019E9, 0.0, 2023-09-22 16:57:12.920
86.0, 21409.931350938245, 33081.92289852177, -52468.26141694325, -55148.50379806803, -37446.659797031854, -20941.192917966, -187500.02235174447, -35744.19447710449, -9482.124088063729, 18874.707087839495, -50273.16364922091, -47165.175934454914, -20918.79647002178, -52241.59237642198, -52362.42590694737, -42382.79669079741, -0.004, 0.998, 0.222, 192.0, 0.0, 0.0, 0.0, 0.0, 0.0, 0.0, 0.0, 0.0, 0.0, 1.695419832920022E9, 0.0, 2023-09-22 16:57:12.920
88.0, 21366.32309750594, 33038.91814218976, -52459.38777439449, -55128.74485596953, -37447.285645876604, -20922.70802530146, -187500.02235174447, -35729.26351180834, -9480.380651996215, 18844.68869503602, -50270.66025384191, -47164.75125131026, -20914.124955430623, -52236.78675136409, -52365.55515117111, -42379.823908784856, -0.004, 0.998, 0.222, 192.0, 0.0, 0.0, 0.0, 0.0, 0.0, 0.0, 0.0, 0.0, 0.0, 1.695419832920025E9, 0.0, 2023-09-22 16:57:12.920
90.0, 21416.748632997114, 33089.32132593648, -52465.780373308706, -55144.50283581053, -37442.25650337416, -20938.15308072008, -187500.02235174447, -35737.75717470136, -9474.099811804273, 18881.054983264803, -50269.788535808155, -47159.8338675301, -20916.51659208734, -52236.4291234528, -52360.2577877352, -42379.265115173475, -0.004, 0.998, 0.222, 192.0, 0.0, 0.0, 0.0, 0.0, 0.0, 0.0, 0.0, 0.0, 0.0, 1.695419832979894E9, 0.0, 2023-09-22 16:57:12.979
92.0, 21362.36683873735, 33032.950226420195, -52466.60738785355, -55134.62336476128, -37457.96977972624, -20927.066615470245, -187500.02235174447, -35733.063308365745, -9480.49241071849, 18847.97440147095, -50272.53780037616, -47167.2322949448, -20919.84700201118, -52237.36789671992, -52364.772840115176, -42378.90748726219, -0.004, 0.99, 0.218, 192.0, 127.5, 112.0, 15.0, 120.0, 3.0, 104.0, 0.0, 0.0, 0.0, 1.695419832979911E9, 0.0, 2023-09-22 16:57:12.979
94.0, 21408.456135804194, 33081.43116014375, -52470.02720475521, -55152.77298125899, -37442.50237256317, -20945.52915639033, -187500.02235174447, -35745.55793351626, -9478.436050228602, 18873.433038405543, -50273.498925387736, -47166.092355977584, -20912.18035366301, -52235.75857111914, -52358.246130734224, -42375.82294652736, -0.004, 0.99, 0.218, 192.0, 0.0, 0.0, 0.0, 0.0, 0.0, 0.0, 0.0, 0.0, 0.0, 1.695419832979917E9, 0.0, 2023-09-22 16:57:12.979
96.0, 21356.734199134615, 33031.31854907495, -52484.2876177177, -55149.37551610178, -37476.387617157416, -20941.99758076639, -187500.02235174447, -35749.78241321831, -9497.367977782247, 18839.659552533576, -50293.7719576087, -47186.90183006547, -20939.58359236522, -52252.6341381829, -52382.92245661288, -42396.83358631535, -0.004, 0.99, 0.218, 192.0, 0.0, 0.0, 0.0, 0.0, 0.0, 0.0, 0.0, 0.0, 0.0, 1.695419832979922E9, 0.0, 2023-09-22 16:57:12.979
98.0, 21398.107278121388, 33076.53612810804, -52485.360501451556, -55168.91094075572, -37457.05335820358, -20959.90132807509, -187500.02235174447, -35755.68327375451, -9491.265951545949, 18861.273689421858, -50290.37449245149, -47180.285713706704, -20924.004426479867, -52247.96262359174, -52376.306340254116, -42392.29618219092, -0.004, 0.99, 0.218, 192.0, 0.0, 0.0, 0.0, 0.0, 0.0, 0.0, 0.0, 0.0, 0.0, 1.695419832979926E9, 0.0, 2023-09-22 16:57:12.979
100.0, 21359.371704980338, 33040.39335732381, -52477.04565251418, -55140.12189389729, -37469.16800369835, -20931.581667850216, -187500.02235174447, -35737.51130551235, -9502.59828598479, 18839.547793811296, -50298.8234518556, -47188.35469345507, -20936.744920819394, -52252.276510271615, -52388.2645235377, -42398.08528400485, -0.004, 0.99, 0.218, 192.0, 0.0, 0.0, 0.0, 0.0, 0.0, 0.0, 0.0, 0.0, 0.0, 1.695419832979929E9, 0.0, 2023-09-22 16:57:12.979
102.0, 21390.395926284305, 33070.143529193825, -52485.069928773635, -55171.07905996789, -37458.66268380436, -20961.91298507607, -187500.02235174447, -35756.30912259926, -9489.008425355963, 18865.274651679356, -50287.22289648329, -47173.87076304803, -20923.199763679477, -52238.10550428695, -52370.40547971791, -42381.701455319104, -0.004, 0.994, 0.218, 192.0, 127.5, 112.0, 15.5, 8.0, 3.0, 104.0, 0.0, 0.0, 0.0, 1.695419832979932E9, 0.0, 2023-09-22 16:57:12.979
104.0, 21365.116103305354, 33048.10470916089, -52473.96111177935, -55140.926556697676, -37471.760806055165, -20935.76144406336, -187500.02235174447, -35739.74647995788, -9510.868431433253, 18839.43603508902, -50307.00419032624, -47196.26721099224, -20942.62342961114, -52257.35035626297, -52393.5171834847, -42403.67322011867, -0.004, 0.994, 0.218, 192.0, 0.0, 0.0, 0.0, 0.0, 0.0, 0.0, 0.0, 0.0, 0.0, 1.695419832979935E9, 0.0, 2023-09-22 16:57:12.979
106.0, 21397.213208343175, 33076.916107763784, -52457.55493134915, -55141.708867753616, -37434.34398583698, -20937.437824897508, -187500.02235174447, -35729.576436230716, -9482.101736319273, 18873.097762238714, -50273.85655329902, -47159.8338675301, -20918.058862454756, -52222.638097123876, -52357.150895255916, -42364.75883302198, -0.004, 0.994, 0.218, 192.0, 0.0, 0.0, 0.0, 0.0, 0.0, 0.0, 0.0, 0.0, 0.0, 1.695419833040105E9, 0.0, 2023-09-22 16:57:13.040
108.0, 21360.243423014097, 33050.20577313969, -52487.05923403016, -55156.05868769392, -37484.45659690578, -20953.57578439424, -187500.02235174447, -35755.45975630996, -9511.673094233643, 18856.49041610842, -50307.13830079297, -47190.65692313396, -20948.121958747146, -52251.87417887142, -52386.09640432554, -42395.98422002605, -0.004, 0.994, 0.218, 192.0, 0.0, 0.0, 0.0, 0.0, 0.0, 0.0, 0.0, 0.0, 0.0, 1.695419833040117E9, 0.0, 2023-09-22 16:57:13.040
110.0, 21382.058725602477, 33070.97054373867, -52468.75315532126, -55156.97510921659, -37447.41975634334, -20953.57578439424, -187500.02235174447, -35744.82032594924, -9500.40781502817, 18849.762541027372, -50298.2199547553, -47187.0359405322, -20928.67594107103, -52245.81685612403, -52375.74754664273, -42389.99395251202, -0.004, 0.994, 0.218, 192.0, 0.0, 0.0, 0.0, 0.0, 0.0, 0.0, 0.0, 0.0, 0.0, 1.69541983304012E9, 0.0, 2023-09-22 16:57:13.040
112.0, 21375.46496098816, 33059.794671511016, -52472.061213500645, -55145.73218175557, -37472.051378733086, -20942.645781355593, -187500.02235174447, -35743.546276515284, -9502.97826564053, 18853.316468395766, -50303.36085598003, -47193.227373746326, -20931.156984705565, -52254.26581552814, -52383.25773277971, -42395.51483339248, -0.004, 0.994, 0.218, 192.0, 127.5, 112.0, 15.5, 8.0, 3.0, 104.0, 0.0, 0.0, 0.0, 1.695419833040124E9, 0.0, 2023-09-22 16:57:13.040
114.0, 21384.629176214836, 33065.8519942584, -52448.18955042238, -55142.55823404292, -37431.8852939469, -20939.225964453934, -187500.02235174447, -35726.40248851806, -9480.738279907499, 18864.626451090153, -50274.63886435496, -47166.87466703352, -20904.893684970582, -52225.96850704772, -52355.92154931087, -42365.988178967025, -0.004, 0.994, 0.218, 192.0, 0.0, 0.0, 0.0, 0.0, 0.0, 0.0, 0.0, 0.0, 0.0, 1.695419833040127E9, 0.0, 2023-09-22 16:57:13.040
116.0, 21381.723449435645, 33067.751892537104, -52467.99319600978, -55144.23461487706, -37468.765672298156, -20942.466967399952, -187500.02235174447, -35740.99817764737, -9509.572030254845, 18860.156102199093, -50305.90895484793, -47197.98829531531, -20936.968438263946, -52256.188065551294, -52382.654235679416, -42392.78792056894, -0.004, 0.994, 0.218, 192.0, 0.0, 0.0, 0.0, 0.0, 0.0, 0.0, 0.0, 0.0, 0.0, 1.69541983304013E9, 0.0, 2023-09-22 16:57:13.040
118.0, 21378.12481857834, 33061.403997111796, -52446.04378295467, -55134.10927463881, -37430.4324305573, -20933.839194040203, -187500.02235174447, -35724.61434896164, -9476.826724627821, 18862.07835222225, -50271.129640475476, -47165.86883853303, -20905.720699515427, -52218.61478312192, -52352.34527019802, -42359.10384167479, -0.004, 0.994, 0.218, 192.0, 0.0, 0.0, 0.0, 0.0, 0.0, 0.0, 0.0, 0.0, 0.0, 1.695419833040133E9, 0.0, 2023-09-22 16:57:13.040
120.0, 21386.864350660366, 33075.55265135201, -52470.85421930006, -55145.888643966755, -37466.41873913035, -20949.23954596991, -187500.02235174447, -35747.07785213922, -9504.252315074482, 18869.409724403587, -50300.5221844342, -47193.16031851296, -20931.425205639032, -52249.08021081451, -52380.6649304229, -42392.98908626904, -0.004, 0.994, 0.218, 192.0, 0.0, 0.0, 0.0, 0.0, 0.0, 0.0, 0.0, 0.0, 0.0, 1.695419833100397E9, 0.0, 2023-09-22 16:57:13.100
122.0, 21372.693344675703, 33052.5527063075, -52454.06805921413, -55140.27835610847, -37443.97758769722, -20941.57289762174, -187500.02235174447, -35732.705680454455, -9481.028852585418, 18860.044343476813, -50274.84003005506, -47171.412071157945, -20910.638083295595, -52225.38736169188, -52362.872941836475, -42372.42548137015, -0.002, 0.99, 0.222, 192.0, 127.5, 120.0, 15.0, 120.0, 3.0, 120.0, 0.0, 0.0, 0.0, 1.695419833100412E9, 0.0, 2023-09-22 16:57:13.100
124.0, 21399.671900233257, 33079.575965353964, -52462.09233547358, -55141.10537065332, -37457.433337859315, -20940.56706912125, -187500.02235174447, -35736.84075317869, -9489.701329434078, 18878.372773930165, -50287.06643427211, -47183.25849571926, -20922.015121223347, -52237.658469397844, -52370.070203551084, -42384.2048506981, -0.002, 0.99, 0.222, 192.0, 0.0, 0.0, 0.0, 0.0, 0.0, 0.0, 0.0, 0.0, 0.0, 1.695419833100416E9, 0.0, 2023-09-22 16:57:13.100
126.0, 21360.46694045865, 33041.600351524394, -52462.7852395517, -55144.65929802171, -37450.593704055995, -20943.316333689254, -187500.02235174447, -35735.90197991156, -9484.180448553616, 18858.278555664845, -50282.014940025205, -47177.558800883155, -20914.86256299765, -52228.40484719335, -52367.767973872185, -42375.711187805086, -0.002, 0.99, 0.222, 192.0, 0.0, 0.0, 0.0, 0.0, 0.0, 0.0, 0.0, 0.0, 0.0, 1.695419833100419E9, 0.0, 2023-09-22 16:57:13.100
128.0, 21397.839057187924, 33084.02396250057, -52465.24393144178, -55142.87115846529, -37453.70059653528, -20940.745883076892, -187500.02235174447, -35733.487991510396, -9501.145422595195, 18876.897558796118, -50300.45512920083, -47192.53446966821, -20926.887801514604, -52244.028716567605, -52376.775726887674, -42389.16693796718, -0.002, 0.99, 0.222, 192.0, 0.0, 0.0, 0.0, 0.0, 0.0, 0.0, 0.0, 0.0, 0.0, 1.695419833100422E9, 0.0, 2023-09-22 16:57:13.100
130.0, 21356.153053778777, 33040.639226512816, -52460.14773370597, -55138.758437485514, -37450.34783486698, -20934.777967307327, -187500.02235174447, -35726.08956409569, -9487.957893366563, 18861.4525033775, -50283.221934225796, -47180.15160323997, -20910.74984201787, -52224.381533191394, -52366.49392443823, -42368.24570515701, -0.002, 0.99, 0.222, 192.0, 0.0, 0.0, 0.0, 0.0, 0.0, 0.0, 0.0, 0.0, 0.0, 1.695419833100425E9, 0.0, 2023-09-22 16:57:13.100
132.0, 21402.823496201458, 33090.4612649037, -52459.32071916112, -55140.43481831966, -37448.626750543925, -20937.95191501998, -187500.02235174447, -35730.42580252002, -9492.249428301982, 18884.944186800025, -50292.90023957494, -47186.857126576564, -20919.33291188871, -52233.65750714034, -52370.94192158484, -42375.89000176072, 0.004, 0.988, 0.222, 192.0, 0.0, 16.0, 15.0, 112.0, 3.0, 120.0, 0.0, 0.0, 0.0, 1.695419833100429E9, 0.0, 2023-09-22 16:57:13.100
134.0, 21366.814835883957, 33050.295180117515, -52438.310079373136, -55119.06655062039, -37437.20500912726, -20917.187144421, -187500.02235174447, -35709.281052265294, -9472.021099569929, 18869.54383487032, -50269.38620440796, -47167.142887966984, -20901.675033769017, -52211.75279757414, -52353.19463648732, -42355.05817592838, 0.004, 0.988, 0.222, 192.0, 0.0, 0.0, 0.0, 0.0, 0.0, 0.0, 0.0, 0.0, 0.0, 1.695419833100432E9, 0.0, 2023-09-22 16:57:13.100
136.0, 21409.596074771416, 33093.94813703873, -52457.5325796047, -55147.27445212298, -37446.101003420474, -20944.29981044529, -187500.02235174447, -35731.69985195397, -9485.767422409943, 18891.716765369983, -50287.558172650126, -47182.69970210787, -20914.974321719925, -52229.343620460466, -52360.771877857675, -42369.78797552443, 0.004, 0.988, 0.222, 192.0, 0.0, 0.0, 0.0, 0.0, 0.0, 0.0, 0.0, 0.0, 0.0, 1.695419833160725E9, 0.0, 2023-09-22 16:57:13.160
138.0, 21369.36293475186, 33049.512869061575, -52438.19832065086, -55117.97131514208, -37436.668567260334, -20913.923789730525, -187500.02235174447, -35702.866101606625, -9469.54005593539, 18867.979212758448, -50270.414384652904, -47171.09914673557, -20894.634234265595, -52213.65269585284, -52349.35013644101, -42354.40997533917, 0.004, 0.988, 0.222, 192.0, 0.0, 0.0, 0.0, 0.0, 0.0, 0.0, 0.0, 0.0, 0.0, 1.695419833160738E9, 0.0, 2023-09-22 16:57:13.160
140.0, 21412.300635850508, 33096.11625625089, -52455.006832481246, -55146.33567885586, -37442.01063418516, -20943.919830789546, -187500.02235174447, -35728.74942168587, -9482.794640397387, 18891.470896180977, -50280.562076635615, -47176.46356540485, -20906.793583249284, -52223.44275992427, -52353.79813358762, -42363.66359754367, 0.004, 0.988, 0.222, 192.0, 0.0, 0.0, 0.0, 0.0, 0.0, 0.0, 0.0, 0.0, 0.0, 1.695419833160741E9, 0.0, 2023-09-22 16:57:13.160
142.0, 21368.155940551274, 33057.268924387565, -52439.40531485144, -55118.73127445356, -37444.98341619771, -20917.008330465356, -187500.02235174447, -35707.29174700877, -9480.470058974035, 18867.21925344697, -50272.98483526526, -47172.35084442507, -20903.95491170346, -52216.80429182104, -52354.80396208811, -42358.075661429844, 0.004, 0.988, 0.222, 192.0, 0.0, 0.0, 15.0, 104.0, 3.0, 120.0, 0.0, 0.0, 0.0, 1.695419833160745E9, 0.0, 2023-09-22 16:57:13.160
144.0, 21412.792374228524, 33100.72071560869, -52441.26050964124, -55136.14328338424, -37430.231264857204, -20933.414510895553, -187500.02235174447, -35714.75722965685, -9475.597378682778, 18893.79547760433, -50272.60485560952, -47171.14385022448, -20901.876199469116, -52218.05598951054, -52348.254900962704, -42357.33805386282, 0.004, 0.988, 0.222, 192.0, 0.0, 0.0, 0.0, 0.0, 0.0, 0.0, 0.0, 0.0, 0.0, 1.695419833160748E9, 0.0, 2023-09-22 16:57:13.160
146.0, 21363.57383293794, 33052.105671418394, -52454.448038869865, -55134.913937439196, -37460.584933827515, -20933.928601018026, -187500.02235174447, -35721.48510473789, -9481.83351538581, 18867.174549958057, -50278.304550445624, -47180.82215557363, -20909.31933037273, -52227.041390781575, -52358.98373830125, -42364.89294348871, 0.004, 0.988, 0.222, 192.0, 0.0, 0.0, 0.0, 0.0, 0.0, 0.0, 0.0, 0.0, 0.0, 1.695419833160751E9, 0.0, 2023-09-22 16:57:13.160
148.0, 21403.874028190858, 33091.64590735983, -52452.011698724236, -55152.28124288097, -37440.28954986209, -20950.67005761505, -187500.02235174447, -35727.944758885475, -9478.056070572862, 18881.926701298562, -50278.28219870117, -47179.07871950611, -20913.90143798607, -52226.750818103654, -52353.149932998414, -42363.70830103258, 0.004, 0.988, 0.222, 192.0, 0.0, 0.0, 0.0, 0.0, 0.0, 0.0, 0.0, 0.0, 0.0, 1.695419833160755E9, 0.0, 2023-09-22 16:57:13.160
150.0, 21363.484425960116, 33053.69264527472, -52455.58797783709, -55135.31626883939, -37464.45178561828, -20934.733263818416, -187500.02235174447, -35722.088601838186, -9495.423376014636, 18854.992849229915, -50294.97895180929, -47198.81530986015, -20921.769252034337, -52243.22405376721, -52372.730061141265, -42379.08630121783, 0.004, 0.988, 0.222, 192.0, 0.0, 0.0, 0.0, 0.0, 0.0, 0.0, 0.0, 0.0, 0.0, 1.695419833220066E9, 0.0, 2023-09-22 16:57:13.220
152.0, 21399.649548488804, 33090.57302362598, -52457.040841226684, -55152.97414695909, -37446.16805865384, -20953.24050822741, -187500.02235174447, -35730.62696822012, -9478.860733373253, 18882.84312282123, -50279.17626847938, -47180.57628638462, -20905.98892044889, -52224.85091982495, -52356.100363266516, -42360.91433297567, -0.004, 0.99, 0.214, 192.0, 127.5, 112.0, 15.0, 120.0, 3.0, 88.0, 0.0, 0.0, 0.0, 1.695419833220081E9, 0.0, 2023-09-22 16:57:13.220
154.0, 21372.291013275506, 33064.77911052455, -52457.040841226684, -55133.39401881624, -37470.3973496434, -20938.354246420175, -187500.02235174447, -35727.20715131845, -9504.609942985768, 18860.24550917691, -50298.599934411046, -47201.1398912835, -20925.457289869464, -52243.49227470068, -52379.48028796677, -42378.996894240016, -0.004, 0.99, 0.214, 192.0, 0.0, 0.0, 0.0, 0.0, 0.0, 0.0, 0.0, 0.0, 0.0, 1.695419833220084E9, 0.0, 2023-09-22 16:57:13.220
156.0, 21398.57666475495, 33087.22026195768, -52440.92523347441, -55137.88671945176, -37433.3381573365, -20941.103510988178, -187500.02235174447, -35717.97588085841, -9477.698442661576, 18878.909215797095, -50271.15199221993, -47177.134117738504, -20895.12597264361, -52220.58173663399, -52349.75246784121, -42351.19132413761, -0.004, 0.99, 0.214, 192.0, 0.0, 0.0, 0.0, 0.0, 0.0, 0.0, 0.0, 0.0, 0.0, 1.695419833220088E9, 0.0, 2023-09-22 16:57:13.220
158.0, 21376.247272044096, 33070.568212338476, -52461.19826569537, -55140.77009448649, -37473.48189037823, -20943.897479045092, -187500.02235174447, -35730.82813392021, -9498.932599894119, 18866.481645879943, -50294.397806453446, -47200.37993197202, -20924.227943924423, -52242.44174271128, -52371.27719775167, -42372.91721974817, -0.004, 0.99, 0.214, 192.0, 0.0, 0.0, 0.0, 0.0, 0.0, 0.0, 0.0, 0.0, 0.0, 1.695419833220091E9, 0.0, 2023-09-22 16:57:13.220
160.0, 21392.273472818553, 33086.6614683463, -52442.24398639727, -55135.22686186157, -37434.81337247055, -20938.46600514245, -187500.02235174447, -35717.21592154693, -9479.196009540083, 18871.264919193378, -50273.834201554564, -47181.04567301818, -20908.1346879166, -52220.402922678346, -52354.066354521085, -42354.49938231699, -0.004, 0.99, 0.214, 192.0, 0.0, 0.0, 0.0, 0.0, 0.0, 0.0, 0.0, 0.0, 0.0, 1.695419833220094E9, 0.0, 2023-09-22 16:57:13.220
162.0, 21380.67291744625, 33079.88888977634, -52458.20313193836, -55132.99168741604, -37468.43039613133, -20937.549583619784, -187500.02235174447, -35725.284901295294, -9499.893724905698, 18869.812055803784, -50295.24717274275, -47200.424635460935, -20931.738130061403, -52238.41842870932, -52372.77476463017, -42372.11255694778, -0.002, 0.984, 0.226, 192.0, 127.5, 120.0, 15.0, 96.0, 3.5, 8.0, 0.0, 0.0, 0.0, 1.695419833220098E9, 0.0, 2023-09-22 16:57:13.220
164.0, 21385.56794948196, 33078.2572124311, -52438.95827996234, -55130.53299552596, -37436.60151202697, -20933.95095276248, -187500.02235174447, -35707.78348538679, -9474.613901926745, 18872.717782582975, -50269.38620440796, -47175.99417877128, -20899.84219072368, -52213.898565041854, -52351.02651727516, -42347.50328630248, -0.002, 0.984, 0.226, 192.0, 0.0, 0.0, 0.0, 0.0, 0.0, 0.0, 0.0, 0.0, 0.0, 1.695419833220101E9, 0.0, 2023-09-22 16:57:13.220
166.0, 21397.32496706545, 33094.261061461104, -52442.86983524202, -55121.03350413245, -37456.91924773684, -20926.530173603318, -187500.02235174447, -35709.75043889886, -9492.271780046438, 18879.803285575304, -50283.53485864817, -47191.08160627861, -20909.811068750747, -52230.68472512779, -52363.36468021449, -42362.12132717625, -0.002, 0.984, 0.226, 192.0, 0.0, 0.0, 0.0, 0.0, 0.0, 0.0, 0.0, 0.0, 0.0, 1.695419833279756E9, 0.0, 2023-09-22 16:57:13.279
168.0, 21393.256949574585, 33090.10363699241, -52429.19056763537, -55118.50775700901, -37432.42173581383, -20925.926676503026, -187500.02235174447, -35700.04978180525, -9463.952119821563, 18886.508808911898, -50252.46593385529, -47160.45971637484, -20888.08517314019, -52199.01230323462, -52339.29185143612, -42335.96978616354, -0.002, 0.984, 0.226, 192.0, 0.0, 0.0, 0.0, 0.0, 0.0, 0.0, 0.0, 0.0, 0.0, 1.695419833279768E9, 0.0, 2023-09-22 16:57:13.279
170.0, 21412.65826376179, 33118.736221639665, -52437.57247180611, -55117.636038975244, -37457.83566925951, -20928.89945851558, -187500.02235174447, -35711.85150287765, -9476.223227527527, 18904.010224820402, -50268.13450671846, -47171.970864769326, -20901.295054113278, -52213.92091678631, -52350.46772366378, -42350.56547529286, -0.002, 0.984, 0.226, 192.0, 0.0, 0.0, 0.0, 0.0, 0.0, 0.0, 0.0, 0.0, 0.0, 1.695419833279772E9, 0.0, 2023-09-22 16:57:13.279
172.0, 21382.014022113566, 33086.6614683463, -52435.09142817157, -55125.72737046807, -37448.98437845521, -20938.28719118681, -187500.02235174447, -35715.20426454595, -9471.954044336564, 18879.646823364117, -50261.406631637416, -47167.85814378955, -20894.053088909757, -52207.30480042753, -52345.88561605044, -42342.988233922515, -0.002, 0.984, 0.226, 192.0, 0.0, 0.0, 15.0, 120.0, 3.0, 104.0, 0.0, 0.0, 0.0, 1.695419833279775E9, 0.0, 2023-09-22 16:57:13.279
174.0, 21409.774888727057, 33115.40581171582, -52449.17302717841, -55133.77399847198, -37463.84828851799, -20944.81390056776, -187500.02235174447, -35723.38500301659, -9490.058957345362, 18892.45437293701, -50284.83125982658, -47188.91348706645, -20917.61182756565, -52231.28822222808, -52363.09645928103, -42364.937646977625, -0.002, 0.984, 0.226, 192.0, 0.0, 0.0, 0.0, 0.0, 0.0, 0.0, 0.0, 0.0, 0.0, 1.695419833279779E9, 0.0, 2023-09-22 16:57:13.279
176.0, 21376.739010422112, 33078.36897115338, -52438.578300306595, -55124.74389371203, -37447.0397766876, -20935.560278363264, -187500.02235174447, -35707.49291270887, -9481.967625852541, 18868.359192414187, -50271.55432362013, -47178.22935321681, -20914.929618231014, -52215.95492553174, -52355.47451442177, -42350.02903342593, -0.002, 0.984, 0.226, 192.0, 0.0, 0.0, 0.0, 0.0, 0.0, 0.0, 0.0, 0.0, 0.0, 1.695419833279782E9, 0.0, 2023-09-22 16:57:13.279
178.0, 21409.41726081577, 33114.19881751524, -52460.41595463944, -55147.38621084526, -37466.955180997276, -20957.44263618501, -187500.02235174447, -35729.95641588645, -9495.646893459189, 18887.671099623574, -50289.54747790664, -47193.00385630177, -20911.688615284995, -52233.72456237371, -52364.10228778151, -42364.06592894387, -0.002, 0.984, 0.226, 192.0, 0.0, 0.0, 0.0, 0.0, 0.0, 0.0, 0.0, 0.0, 0.0, 1.695419833279785E9, 0.0, 2023-09-22 16:57:13.279
180.0, 21363.909109104767, 33070.143529193825, -52457.80080053816, -55140.88185320877, -37471.38082639943, -20952.43584542702, -187500.02235174447, -35724.681404195, -9500.49722200599, 18849.91900323856, -50290.30743721813, -47197.25068774828, -20920.159926433556, -52232.830492595494, -52368.01384306119, -42366.56932432286, -0.002, 0.984, 0.226, 192.0, 0.0, 0.0, 0.0, 0.0, 0.0, 0.0, 0.0, 0.0, 0.0, 1.695419833340076E9, 0.0, 2023-09-22 16:57:13.340
182.0, 21414.20053412921, 33123.38538448636, -52451.07292545711, -55138.892547952244, -37462.21661117275, -20951.318258204254, -187500.02235174447, -35724.99432861737, -9505.995751141996, 18878.484532652445, -50298.51052743322, -47200.89402209449, -20923.937371246502, -52240.20656826575, -52373.624130919474, -42374.504193604495, -0.004, 0.994, 0.216, 192.0, 127.5, 112.0, 15.5, 8.0, 3.0, 96.0, 0.0, 0.0, 0.0, 1.69541983334009E9, 0.0, 2023-09-22 16:57:13.340
184.0, 21369.072362073945, 33076.13379670784, -52440.56760556312, -55126.62144024628, -37459.6908640493, -20938.845984798194, -187500.02235174447, -35711.91855811102, -9481.788811896899, 18865.92285226856, -50271.64373059794, -47179.726920095316, -20903.32906285871, -52217.54189938807, -52357.106191767, -42353.51590556096, -0.004, 0.994, 0.216, 192.0, 0.0, 0.0, 0.0, 0.0, 0.0, 0.0, 0.0, 0.0, 0.0, 1.695419833340094E9, 0.0, 2023-09-22 16:57:13.340
186.0, 21416.9050952083, 33121.68665190776, -52444.41210560943, -55139.116065396796, -37451.018387200646, -20950.647705870593, -187500.02235174447, -35717.84177039168, -9486.594436954789, 18886.93349205655, -50281.09851850254, -47192.176841756926, -20906.90534197156, -52228.20368149325, -52356.010956288694, -42361.07079518685, -0.004, 0.994, 0.216, 192.0, 0.0, 0.0, 0.0, 0.0, 0.0, 0.0, 0.0, 0.0, 0.0, 1.695419833340097E9, 0.0, 2023-09-22 16:57:13.340
188.0, 21371.486350475116, 33076.40201764131, -52428.69882925735, -55111.57871622786, -37446.86096273195, -20923.602095079674, -187500.02235174447, -35692.83016834619, -9472.423430970124, 18867.39806740261, -50267.88863752945, -47185.3372079536, -20906.167734404535, -52214.63617260888, -52347.18201722885, -42346.56451303536, -0.004, 0.994, 0.216, 192.0, 0.0, 0.0, 0.0, 0.0, 0.0, 0.0, 0.0, 0.0, 0.0, 1.6954198333401E9, 0.0, 2023-09-22 16:57:13.340
190.0, 21406.95856892569, 33120.43495421827, -52449.485951600785, -55145.44160907765, -37454.21468665775, -20959.744865863904, -187500.02235174447, -35722.62504370511, -9491.73533817951, 18887.872265323673, -50285.14418424895, -47198.81530986015, -20909.31933037273, -52231.310573972536, -52358.603758645506, -42361.11549867577, -0.004, 0.994, 0.216, 192.0, 0.0, 0.0, 0.0, 0.0, 0.0, 0.0, 0.0, 0.0, 0.0, 1.695419833340104E9, 0.0, 2023-09-22 16:57:13.340
192.0, 21364.445550971694, 33077.609011841894, -52438.24302413977, -55119.535937253946, -37459.93673323831, -20935.739092318905, -187500.02235174447, -35706.17415978601, -9485.610960198755, 18859.82082603226, -50277.052852756126, -47194.99316155829, -20903.239655880887, -52223.62157387991, -52360.52600866867, -42357.11453641827, -0.004, 0.994, 0.212, 192.0, 127.5, 112.0, 15.5, 8.0, 3.0, 80.0, 0.0, 0.0, 0.0, 1.695419833340107E9, 0.0, 2023-09-22 16:57:13.340
194.0, 21409.640778260324, 33125.26293102061, -52435.359649105034, -55129.10248388082, -37434.14282013688, -20943.00340926688, -187500.02235174447, -35706.33062199719, -9476.089117060796, 18890.241550235933, -50271.35315792003, -47186.231277731815, -20898.501086056363, -52217.76541683262, -52350.69124110833, -42351.21367588206, -0.004, 0.994, 0.212, 192.0, 0.0, 0.0, 0.0, 0.0, 0.0, 0.0, 0.0, 0.0, 0.0, 1.69541983334011E9, 0.0, 2023-09-22 16:57:13.340
196.0, 21359.975202080634, 33079.33009616496, -52445.5296928322, -55123.91687916719, -37463.40125362888, -20937.86250804216, -187500.02235174447, -35710.08571506569, -9484.918056120641, 18868.381544158645, -50274.90708528842, -47192.71328362385, -20909.453440839465, -52219.71001860023, -52356.48034292225, -42352.57713229384, -0.004, 0.994, 0.212, 192.0, 0.0, 0.0, 0.0, 0.0, 0.0, 0.0, 0.0, 0.0, 0.0, 1.695419833400332E9, 0.0, 2023-09-22 16:57:13.400
198.0, 21393.56987399696, 33115.74108788265, -52450.08944870108, -55146.82741723388, -37451.13014592292, -20959.566051908263, -187500.02235174447, -35721.48510473789, -9495.78100392592, 18873.097762238714, -50286.86526857201, -47204.42559771843, -20920.785775278306, -52234.037486796085, -52366.024537804675, -42366.72578653405, -0.004, 0.994, 0.212, 192.0, 0.0, 0.0, 0.0, 0.0, 0.0, 0.0, 0.0, 0.0, 0.0, 1.695419833400345E9, 0.0, 2023-09-22 16:57:13.400
200.0, 21363.75264689358, 33081.051180488015, -52444.43445735389, -55124.67683847867, -37467.11164320847, -20939.114205731657, -187500.02235174447, -35708.386982487085, -9488.293169533394, 18870.661422093086, -50278.93039929037, -47198.34592322659, -20907.620597794128, -52223.91214655783, -52357.86615107849, -42354.43232708363, -0.004, 0.994, 0.212, 192.0, 0.0, 0.0, 0.0, 0.0, 0.0, 0.0, 0.0, 0.0, 0.0, 1.695419833400349E9, 0.0, 2023-09-22 16:57:13.400
202.0, 21389.166580339264, 33107.7168116232, -52450.55883533464, -55144.79340848845, -37453.03004420162, -20960.750694364393, -187500.02235174447, -35720.85925589314, -9500.720739450544, 18867.82275054726, -50291.447376185344, -47207.21956577535, -20922.372749134633, -52235.46799844122, -52367.36564247199, -42364.87059174426, -0.002, 0.992, 0.216, 192.0, 127.5, 120.0, 15.5, 0.0, 3.0, 96.0, 0.0, 0.0, 0.0, 1.695419833400353E9, 0.0, 2023-09-22 16:57:13.400
204.0, 21364.8925858608, 33088.62842185836, -52455.85619877055, -55138.04318166294, -37481.774387571146, -20958.71668561896, -187500.02235174447, -35724.457886750446, -9497.569143482346, 18870.996698259914, -50288.18402149487, -47204.64911516299, -20926.843098025693, -52232.33875421748, -52368.684395394856, -42364.35650162178, -0.002, 0.992, 0.216, 192.0, 0.0, 0.0, 0.0, 0.0, 0.0, 0.0, 0.0, 0.0, 0.0, 1.695419833400356E9, 0.0, 2023-09-22 16:57:13.400
206.0, 21387.914882649766, 33108.67793663478, -52441.461675341336, -55140.88185320877, -37450.727814522725, -20965.06458104427, -187500.02235174447, -35721.48510473789, -9502.508879006968, 18864.246471434413, -50286.39588193845, -47204.87263260754, -20918.2376764104, -52236.09384728597, -52369.89138959544, -42367.82102201236, -0.002, 0.992, 0.216, 192.0, 0.0, 0.0, 0.0, 0.0, 0.0, 0.0, 0.0, 0.0, 0.0, 1.69541983340036E9, 0.0, 2023-09-22 16:57:13.400
208.0, 21376.31432727746, 33100.58660514195, -52449.5306550897, -55133.08109439386, -37478.89101253641, -20959.90132807509, -187500.02235174447, -35724.77081117282, -9503.78292844092, 18868.359192414187, -50288.54164940616, -47208.11363555356, -20929.23473468241, -52242.978184578205, -52378.183886788356, -42374.61595232677, -0.002, 0.992, 0.216, 192.0, 0.0, 0.0, 0.0, 0.0, 0.0, 0.0, 0.0, 0.0, 0.0, 1.695419833400364E9, 0.0, 2023-09-22 16:57:13.400
210.0, 21383.109257591877, 33107.470942434185, -52436.87956772799, -55135.58448977286, -37443.35173885247, -20964.259918243875, -187500.02235174447, -35715.517188968326, -9484.225152042527, 18869.476779636952, -50268.62624509648, -47189.025245788725, -20910.414565851042, -52222.68280061279, -52357.79909584512, -42352.44302182711, -0.002, 0.992, 0.216, 192.0, 0.0, 0.0, 0.0, 0.0, 0.0, 0.0, 0.0, 0.0, 0.0, 1.695419833460655E9, 0.0, 2023-09-22 16:57:13.460
212.0, 21380.404696512785, 33110.42137270229, -52438.60065205106, -55122.24049833304, -37465.9940559857, -20950.468891914952, -187500.02235174447, -35708.56579644272, -9497.077405104328, 18876.11524774018, -50286.15001274944, -47204.760873885265, -20920.47285085593, -52233.43398969579, -52365.46574419329, -42364.26709464396, -0.002, 0.996, 0.224, 192.0, 127.5, 120.0, 15.5, 16.0, 3.5, 0.0, 0.0, 0.0, 0.0, 1.69541983346067E9, 0.0, 2023-09-22 16:57:13.460
214.0, 21373.386248753817, 33105.660451133306, -52429.57054729111, -55130.46594029259, -37444.916360964344, -20960.43776994202, -187500.02235174447, -35704.29661325176, -9477.787849639399, 18876.517579140374, -50269.60972185251, -47187.81825158814, -20892.75668773135, -52210.50109988465, -52351.25003471971, -42347.726803747035, -0.002, 0.996, 0.224, 192.0, 0.0, 0.0, 0.0, 0.0, 0.0, 0.0, 0.0, 0.0, 0.0, 1.695419833460673E9, 0.0, 2023-09-22 16:57:13.460
216.0, 21389.501856506093, 33128.48158222218, -52437.17014040591, -55123.46984427808, -37468.40804438687, -20957.733208862926, -187500.02235174447, -35711.89620636657, -9494.149326580684, 18883.223102476968, -50291.35796920752, -47203.17390002894, -20915.935446731502, -52232.00347805065, -52371.970101829786, -42372.269019158965, -0.002, 0.996, 0.224, 192.0, 0.0, 0.0, 0.0, 0.0, 0.0, 0.0, 0.0, 0.0, 0.0, 1.695419833460677E9, 0.0, 2023-09-22 16:57:13.460
218.0, 21377.029583100033, 33115.00348031562, -52423.91555594392, -55123.760416956, -37442.770593496636, -20960.013086797368, -187500.02235174447, -35705.32479349671, -9468.422468712624, 18887.60404439021, -50259.797306036635, -47172.23908570279, -20896.958815688948, -52199.839317779464, -52348.03138351815, -42347.23506536902, -0.002, 0.996, 0.224, 192.0, 0.0, 0.0, 0.0, 0.0, 0.0, 0.0, 0.0, 0.0, 0.0, 1.69541983346068E9, 0.0, 2023-09-22 16:57:13.460
220.0, 21395.916807164765, 33138.76338467162, -52436.29842237216, -55123.939230911645, -37460.67434080534, -20958.80609259678, -187500.02235174447, -35709.32575575421, -9494.68576844761, 18889.906274069104, -50290.17332675139, -47197.16128077046, -20919.33291188871, -52230.55061466106, -52370.11490703999, -42379.10865296229, -0.002, 0.996, 0.224, 192.0, 0.0, 0.0, 0.0, 0.0, 0.0, 0.0, 0.0, 0.0, 0.0, 1.695419833460683E9, 0.0, 2023-09-22 16:57:13.460
222.0, 21375.822588899446, 33112.74595412564, -52412.04677963815, -55104.44850974662, -37427.593759011485, -20934.777967307327, -187500.02235174447, -35681.319019951705, -9470.836457113797, 18877.836332063238, -50263.507695616216, -47169.08748973459, -20890.677975497005, -52204.13085271488, -52346.53381663965, -42354.789954994914, -0.002, 0.996, 0.224, 192.0, 0.0, 0.0, 15.5, 8.0, 3.5, 8.0, 0.0, 0.0, 0.0, 1.695419833460687E9, 0.0, 2023-09-22 16:57:13.460
224.0, 21404.499877035603, 33141.28913179506, -52438.10891367304, -55122.24049833304, -37443.01646268564, -20946.11030174617, -187500.02235174447, -35693.29955497975, -9476.089117060796, 18907.251227766425, -50271.91195153141, -47168.90867577895, -20892.823742964716, -52211.23870745167, -52342.734020082244, -42361.4507748426, -0.002, 0.996, 0.224, 192.0, 0.0, 0.0, 0.0, 0.0, 0.0, 0.0, 0.0, 0.0, 0.0, 1.69541983346069E9, 0.0, 2023-09-22 16:57:13.460
226.0, 21357.382399723818, 33094.64104111684, -52452.972823735814, -55129.14718736973, -37447.41975634334, -20949.485415158917, -187500.02235174447, -35694.14892126905, -9477.54198045039, 18871.39902966011, -50273.23070445427, -47166.49468737777, -20901.809144235747, -52211.037541751575, -52345.57269162806, -42361.76369926497, -0.002, 0.996, 0.224, 192.0, 0.0, 0.0, 0.0, 0.0, 0.0, 0.0, 0.0, 0.0, 0.0, 1.695419833520158E9, 0.0, 2023-09-22 16:57:13.520
228.0, 21399.358975810883, 33132.48254447967, -52469.848390799576, -55139.83132121937, -37459.959084982765, -20962.874110087647, -187500.02235174447, -35711.40446798855, -9502.531230751423, 18884.31833795528, -50296.81179485462, -47180.95626604036, -20927.491298614896, -52239.893643843374, -52365.733965126754, -42389.748083323015, -0.002, 0.996, 0.224, 192.0, 0.0, 0.0, 0.0, 0.0, 0.0, 0.0, 0.0, 0.0, 0.0, 1.695419833520169E9, 0.0, 2023-09-22 16:57:13.520
230.0, 21362.657411415268, 33081.811139799494, -52455.85619877055, -55119.35712329831, -37449.85609648897, -20942.221098210943, -187500.02235174447, -35694.327735224695, -9484.11339332025, 18871.086105237737, -50267.73217531826, -47153.59773082707, -20905.765403004338, -52216.89369879886, -52349.394839929926, -42366.681083045136, -0.002, 0.996, 0.224, 192.0, 0.0, 0.0, 0.0, 0.0, 0.0, 0.0, 0.0, 0.0, 0.0, 1.695419833520173E9, 0.0, 2023-09-22 16:57:13.520
232.0, 21409.41726081577, 33119.33971873995, -52465.95918726435, -55132.56700427139, -37450.03491044461, -20955.699200117495, -187500.02235174447, -35704.609537674136, -9484.381614253714, 18900.635111407653, -50266.18990495085, -47149.66382380293, -20911.867429240636, -52222.25811746813, -52343.784552071644, -42369.899734246705, -0.002, 0.991, 0.224, 192.0, 127.5, 120.0, 15.0, 104.0, 3.5, 0.0, 0.0, 0.0, 0.0, 1.695419833520184E9, 0.0, 2023-09-22 16:57:13.520
234.0, 21372.581585953427, 33070.210584427194, -52442.80278000865, -55100.71576842258, -37443.038814430096, -20926.910153259058, -187500.02235174447, -35681.58724088517, -9477.676090917123, 18873.58950061673, -50250.54368383213, -47143.49474233326, -20905.56423730424, -52214.457358653235, -52338.50954038019, -42361.13785042022, -0.002, 0.991, 0.224, 192.0, 0.0, 0.0, 0.0, 0.0, 0.0, 0.0, 0.0, 0.0, 0.0, 1.695419833520187E9, 0.0, 2023-09-22 16:57:13.520
236.0, 21419.76611849858, 33110.10844827991, -52459.85716102805, -55127.023771646476, -37442.904703963366, -20949.887746559114, -187500.02235174447, -35700.005078316346, -9473.49631470398, 18910.693396412542, -50244.553416318115, -47137.10214341905, -20887.392269062075, -52215.10555924244, -52329.233566431234, -42357.67333002965, -0.002, 0.991, 0.224, 192.0, 0.0, 0.0, 0.0, 0.0, 0.0, 0.0, 0.0, 0.0, 0.0, 1.69541983352019E9, 0.0, 2023-09-22 16:57:13.520
238.0, 21379.98001336813, 33061.180479667244, -52438.33243111759, -55087.930570594144, -37434.05341315906, -20908.492315827887, -187500.02235174447, -35667.32682792268, -9469.115372790739, 18879.043326263825, -50235.97034644728, -47132.02829742769, -20885.380612061097, -52206.3213236715, -52330.37350539846, -42349.42553632564, -0.002, 0.991, 0.224, 192.0, 0.0, 0.0, 0.0, 0.0, 0.0, 0.0, 0.0, 0.0, 0.0, 1.695419833520194E9, 0.0, 2023-09-22 16:57:13.520
240.0, 21423.789432500536, 33103.26881447659, -52451.944643490875, -55114.46209126259, -37423.30222407606, -20934.487394629406, -187500.02235174447, -35684.91765080901, -9451.345735948771, 18919.678797683573, -50222.46989279627, -47115.57741350859, -20866.716905440917, -52192.99968397614, -52313.16266216787, -42336.66269024166, -0.002, 0.991, 0.224, 192.0, 0.0, 0.0, 0.0, 0.0, 0.0, 0.0, 0.0, 0.0, 0.0, 1.695419833579704E9, 0.0, 2023-09-22 16:57:13.579
242.0, 21360.064609058456, 33042.76264223607, -52483.08062351711, -55132.1646728712, -37467.17869844183, -20952.27938321583, -187500.02235174447, -35709.571624943215, -9482.749936908476, 18873.63420410564, -50251.79538152163, -47147.11572493502, -20901.004481435357, -52222.414579679324, -52346.69027885083, -42369.56445807987, -0.002, 0.991, 0.224, 192.0, 0.0, 0.0, 15.0, 80.0, 3.5, 16.0, 0.0, 0.0, 0.0, 1.695419833579721E9, 0.0, 2023-09-22 16:57:13.579
244.0, 21399.31427232197, 33079.710075820694, -52475.12340249102, -55135.24921360603, -37437.94261669429, -20955.609793139673, -187500.02235174447, -35706.01769757482, -9498.239695816004, 18874.863550050683, -50269.497963130234, -47161.91257976444, -20911.12982167361, -52235.66916414132, -52357.016784789186, -42384.026036742456, -0.002, 0.991, 0.224, 192.0, 0.0, 0.0, 0.0, 0.0, 0.0, 0.0, 0.0, 0.0, 0.0, 1.695419833579724E9, 0.0, 2023-09-22 16:57:13.579
246.0, 21355.817777611945, 33034.17957236523, -52477.82796357012, -55121.16761459919, -37458.014483215156, -20945.10447324568, -187500.02235174447, -35700.74268588337, -9491.556524223868, 18866.280480179845, -50264.37941364997, -47157.28576866219, -20917.589475821194, -52224.04625702456, -52350.37831668596, -42375.085338960336, -0.002, 0.991, 0.224, 192.0, 0.0, 0.0, 0.0, 0.0, 0.0, 0.0, 0.0, 0.0, 0.0, 1.695419833579728E9, 0.0, 2023-09-22 16:57:13.579
248.0, 21394.84392343091, 33066.991933225625, -52465.28863493069, -55129.63892574775, -37431.79588696908, -20955.252165228387, -187500.02235174447, -35698.105180037644, -9481.766460152443, 18878.037497763336, -50259.6631955699, -47153.798896527165, -20903.060841925246, -52220.00059127815, -52341.88465379294, -42367.172821423155, -0.002, 0.991, 0.224, 192.0, 0.0, 0.0, 0.0, 0.0, 0.0, 0.0, 0.0, 0.0, 0.0, 1.695419833579731E9, 0.0, 2023-09-22 16:57:13.579
250.0, 21360.802216625478, 33030.82681069694, -52471.10008848907, -55118.19483258663, -37462.79775652859, -20944.702141845482, -187500.02235174447, -35697.63579340408, -9492.137669579706, 18866.034610990835, -50269.94499801934, -47167.45581238935, -20903.396118092074, -52228.941289060276, -52354.93807255484, -42377.924010506154, -0.002, 0.991, 0.224, 192.0, 0.0, 0.0, 0.0, 0.0, 0.0, 0.0, 0.0, 0.0, 0.0, 1.695419833579735E9, 0.0, 2023-09-22 16:57:13.579
