%OpenBCI Raw EXG Data
%Number of channels = 16
%Sample Rate = 125 Hz
%Board = OpenBCI_GUI$BoardCytonSerialDaisy
Sample Index, EXG Channel 0, EXG Channel 1, EXG Channel 2, EXG Channel 3, EXG Channel 4, EXG Channel 5, EXG Channel 6, EXG Channel 7, EXG Channel 8, EXG Channel 9, EXG Channel 10, EXG Channel 11, EXG Channel 12, EXG Channel 13, EXG Channel 14, EXG Channel 15, Accel Channel 0, Accel Channel 1, Accel Channel 2, Other, Other, Other, Other, Other, Other, Other, Analog Channel 0, Analog Channel 1, Analog Channel 2, Timestamp, Other, Timestamp (Formatted)
0.0, 21742.21238401084, 33602.47267514142, -52824.86114798322, -56128.896013366706, -36885.519252481376, -20848.74610289885, -187500.02235174447, -38678.55384094165, 0.0, 0.0, 0.0, 0.0, 0.0, 0.0, 0.0, 0.0, 0.0, 0.0, 0.0, 192.0, 0.0, 0.0, 0.0, 0.0, 0.0, 0.0, 0.0, 0.0, 0.0, 1.695419784607757E9, 0.0, 2023-09-22 16:56:24.607
224.0, 21737.49616593077, 33595.83420703819, -52817.775644990885, -56137.344972770814, -36864.10628129319, -20856.5245099693, -187500.02235174447, -38676.20690777384, -9604.544592445445, 16988.868056400785, -50890.45177584312, -46769.25948491806, -21914.18670584997, -53340.51589256715, -53335.21852913124, -43044.00599527431, 0.0, 0.0, 0.0, 192.0, 0.0, 0.0, 0.0, 0.0, 0.0, 0.0, 0.0, 0.0, 0.0, 1.695419784607767E9, 0.0, 2023-09-22 16:56:24.607
226.0, 21741.720645632824, 33603.12087573062, -52849.51512211742, -56152.87943516725, -36901.27723232237, -20870.404943276044, -187500.02235174447, -38698.44689350687, -9644.643621998266, 16975.524064960966, -50935.021154287, -46805.82693884694, -21951.804691768255, -53381.08430875353, -53372.38948016042, -43086.5190132283, 0.0, 0.0, 0.0, 192.0, 0.0, 0.0, 0.0, 0.0, 0.0, 0.0, 0.0, 0.0, 0.0, 1.695419784607771E9, 0.0, 2023-09-22 16:56:24.607
228.0, 21731.036511783186, 33585.083017955185, -52819.809653736316, -56131.31000176788, -36853.77977535484, -20841.75000688434, -187500.02235174447, -38662.86291633402, -9607.450319224634, 16978.675660929162, -50897.02318871298, -46765.16911568274, -21908.397604036047, -53342.75106701268, -53337.31959311004, -43050.48800116635, -0.006, 0.998, 0.20800000000000002, 192.0, 127.5, 104.0, 15.5, 24.0, 3.0, 64.0, 0.0, 0.0, 0.0, 1.695419784607775E9, 0.0, 2023-09-22 16:56:24.607
230.0, 21749.63316317, 33605.93719553199, -52856.846494298756, -56154.51111251249, -36888.69320019403, -20861.84422514966, -187500.02235174447, -38685.79580614517, -9624.214127566114, 16983.21306505359, -50917.989125012056, -46780.21183970116, -21929.318836846214, -53366.354509157485, -53350.17184617184, -43071.34217874315, -0.006, 0.998, 0.20800000000000002, 192.0, 0.0, 0.0, 0.0, 0.0, 0.0, 0.0, 0.0, 0.0, 0.0, 1.695419784607779E9, 0.0, 2023-09-22 16:56:24.607
232.0, 21723.459270412837, 33575.47176783941, -52844.485979614976, -56141.3012315394, -36862.58636267023, -20844.499271452343, -187500.02235174447, -38665.969808813315, -9614.871098383797, 16957.3520967188, -50905.673313817184, -46768.030138973016, -21923.95441817694, -53358.41963987585, -53344.31568912455, -43064.68135889547, -0.006, 0.998, 0.20800000000000002, 192.0, 0.0, 0.0, 0.0, 0.0, 0.0, 0.0, 0.0, 0.0, 0.0, 1.695419784607783E9, 0.0, 2023-09-22 16:56:24.607
234.0, 21761.457235986858, 33615.570797392225, -52859.39459316667, -56149.14669384321, -36875.662133176585, -20850.55659419973, -187500.02235174447, -38675.44694846236, -9610.75837740402, 16986.856399399807, -50903.661656816206, -46763.24686565958, -21924.848487955154, -53366.220398690755, -53339.55476755557, -43071.31982699869, -0.006, 0.998, 0.20800000000000002, 192.0, 0.0, 0.0, 0.0, 0.0, 0.0, 0.0, 0.0, 0.0, 0.0, 1.6954197846078E9, 0.0, 2023-09-22 16:56:24.607
236.0, 21721.805241323145, 33570.50968057033, -52849.76099130643, -56135.69094368112, -36862.07227254775, -20834.396282958543, -187500.02235174447, -38661.41005294443, -9606.355083746324, 16960.660154898185, -50890.34001712084, -46753.65796728826, -21916.555990762234, -53359.96191024326, -53334.30210760857, -43068.8164316197, -0.006, 0.998, 0.20800000000000002, 192.0, 0.0, 0.0, 0.0, 0.0, 0.0, 0.0, 0.0, 0.0, 0.0, 1.695419784607804E9, 0.0, 2023-09-22 16:56:24.607
238.0, 21770.39793376898, 33619.30353871626, -52862.03209901239, -56150.59955723281, -36864.955647582494, -20848.924916854492, -187500.02235174447, -38674.84345136207, -9601.23653426606, 16995.93120764866, -50883.723900762074, -46746.01367068454, -21907.81645868021, -53359.4478201208, -53322.88036619191, -43064.8154693622, -0.002, 0.992, 0.20600000000000002, 192.0, 127.5, 120.0, 15.5, 0.0, 3.0, 56.0, 0.0, 0.0, 0.0, 1.695419784607807E9, 0.0, 2023-09-22 16:56:24.607
0.0, 10858.38804941035, 16756.924004188062, -26412.00589084696, -27989.77082845817, -18504.405737448425, -10427.066436656289, -93750.01117587223, -19193.286501560986, -4811.503566682764, 8470.975872394547, -25448.13161470075, -23382.025764229988, -10961.02725994912, -26689.52515000405, -26672.47076898465, -21542.097215902475, -0.002, 0.992, 0.20600000000000002, 192.0, 0.0, 0.0, 15.5, 8.0, 3.0, 56.0, 0.0, 0.0, 0.0, 1.695419784767442E9, 0.0, 2023-09-22 16:56:24.767
2.0, 21668.026944163674, 33461.43316762843, -52819.36261884721, -55975.76421210339, -37006.55394870686, -20848.634344176575, -187500.02235174447, -38378.30285767351, -9597.280275497471, 16963.521178188465, -50805.090463768305, -46808.88912783732, -21525.17694534981, -53244.87277804289, -53249.9689757787, -42899.68078132639, -0.002, 0.992, 0.20600000000000002, 192.0, 0.0, 0.0, 0.0, 0.0, 0.0, 0.0, 0.0, 0.0, 0.0, 1.695419784767454E9, 0.0, 2023-09-22 16:56:24.767
4.0, 21720.5758953781, 33516.440810732944, -52831.477264341986, -55997.668921669596, -37004.922271361625, -20868.482693252885, -187500.02235174447, -38394.016134025595, -9611.652447182232, 16975.50171321651, -50823.68711515512, -46825.40706698979, -21531.591896008482, -53263.00004279614, -53261.92715906229, -42915.66227861193, -0.002, 0.992, 0.20600000000000002, 192.0, 0.0, 0.0, 0.0, 0.0, 0.0, 0.0, 0.0, 0.0, 0.0, 1.695419784767457E9, 0.0, 2023-09-22 16:56:24.767
6.0, 21666.372915073982, 33461.81314728417, -52822.804787493325, -55976.43476443706, -37006.531596962406, -20845.21452727491, -187500.02235174447, -38374.301895416014, -9603.89639185624, 16961.531872931944, -50816.691019140606, -46821.80843613249, -21528.507355273647, -53248.11378098891, -53255.758077592625, -42905.268717440216, -0.002, 0.992, 0.20600000000000002, 192.0, 0.0, 0.0, 0.0, 0.0, 0.0, 0.0, 0.0, 0.0, 0.0, 1.69541978476746E9, 0.0, 2023-09-22 16:56:24.767
8.0, 21714.38446216398, 33514.02682233177, -52835.388819621665, -56002.87687812768, -37003.26824227193, -20871.589585732174, -187500.02235174447, -38397.011267782604, -9608.724368658588, 16985.425887754667, -50826.883414612224, -46828.55866295799, -21525.713387216736, -53252.22650196869, -53256.20511248173, -42910.54372913167, -0.004, 0.982, 0.20800000000000002, 192.0, 127.5, 112.0, 15.0, 88.0, 3.0, 64.0, 0.0, 0.0, 0.0, 1.695419784767464E9, 0.0, 2023-09-22 16:56:24.767
10.0, 21664.85299645102, 33463.55658335168, -52825.35288636123, -55983.90024708513, -37016.81339941185, -20852.881175623083, -187500.02235174447, -38387.22120371118, -9616.726293173588, 16962.381239221246, -50832.18077804813, -46835.93473862824, -21537.112776888942, -53256.383926437375, -53270.06319404402, -42917.33865944608, -0.004, 0.982, 0.20800000000000002, 192.0, 0.0, 0.0, 0.0, 0.0, 0.0, 0.0, 0.0, 0.0, 0.0, 1.695419784767467E9, 0.0, 2023-09-22 16:56:24.767
12.0, 21710.96464526232, 33508.01420307329, -52836.48405509997, -56016.064407356316, -37011.53838772039, -20887.928710929, -187500.02235174447, -38411.74106737865, -9619.252040297037, 16984.710631932096, -50832.33724025932, -46831.66555543728, -21536.174003621818, -53256.450981670736, -53266.71043237572, -42917.65158386846, -0.004, 0.982, 0.20800000000000002, 192.0, 0.0, 0.0, 0.0, 0.0, 0.0, 0.0, 0.0, 0.0, 0.0, 1.69541978476747E9, 0.0, 2023-09-22 16:56:24.767
14.0, 21669.300993597626, 33469.05511248769, -52817.88740371316, -55979.83222959426, -37019.808533168856, -20849.975448843892, -187500.02235174447, -38382.23676469765, -9633.512453259524, 16953.17232050566, -50848.8998829007, -46847.84821842292, -21552.31196311855, -53269.41499345482, -53285.59765644046, -42932.62725265351, -0.004, 0.982, 0.20800000000000002, 192.0, 0.0, 0.0, 0.0, 0.0, 0.0, 0.0, 0.0, 0.0, 0.0, 1.695419784827846E9, 0.0, 2023-09-22 16:56:24.827
16.0, 21705.6225783375, 33504.124999538064, -52831.812540508814, -56017.65138121264, -37009.727896419514, -20887.79460046227, -187500.02235174447, -38405.43787544226, -9606.623304679788, 16987.54930347792, -50828.31392625737, -46824.088314066925, -21520.661892969834, -53245.610385609914, -53257.7697345936, -42907.638002352476, -0.004, 0.982, 0.20800000000000002, 192.0, 0.0, 0.0, 0.0, 0.0, 0.0, 0.0, 0.0, 0.0, 0.0, 1.695419784827858E9, 0.0, 2023-09-22 16:56:24.827
18.0, 21664.316554584093, 33462.70721706238, -52841.8708255137, -56006.76608166291, -37042.65201600218, -20879.32328931371, -187500.02235174447, -38406.33194522047, -9638.318078317414, 16941.05767501088, -50866.334243575846, -46864.6120267644, -21560.403294611373, -53282.22254302771, -53297.06410134603, -42945.255988270765, -0.002, 0.986, 0.20800000000000002, 192.0, 127.5, 120.0, 15.0, 104.0, 3.0, 64.0, 0.0, 0.0, 0.0, 1.695419784827862E9, 0.0, 2023-09-22 16:56:24.827
20.0, 21694.469057854305, 33490.91511856498, -52834.762970776916, -56015.639724211665, -37015.62875695572, -20890.677975497005, -187500.02235174447, -38407.27071848759, -9620.727255431088, 16955.474550184554, -50855.49364751502, -46852.072698124975, -21539.526765290113, -53269.48204868818, -53281.99902558316, -42933.633081154, -0.002, 0.986, 0.20800000000000002, 192.0, 0.0, 0.0, 0.0, 0.0, 0.0, 0.0, 0.0, 0.0, 0.0, 1.695419784827866E9, 0.0, 2023-09-22 16:56:24.827
22.0, 21670.753856987223, 33472.251411944795, -52829.867938741205, -55995.3666919907, -37035.85708568777, -20872.88598691058, -187500.02235174447, -38396.49717766013, -9625.689342700165, 16954.111093772783, -50855.02426088146, -46850.999814391114, -21541.22549786872, -53271.29253998906, -53281.35082499395, -42932.940177075885, -0.002, 0.986, 0.20800000000000002, 192.0, 0.0, 0.0, 0.0, 0.0, 0.0, 0.0, 0.0, 0.0, 0.0, 1.695419784827869E9, 0.0, 2023-09-22 16:56:24.827
24.0, 21685.68482228337, 33486.13184525154, -52828.21390965151, -56010.23060205348, -37016.031088355914, -20888.621615007116, -187500.02235174447, -38400.520491662086, -9623.253002554537, 16952.524119916456, -50849.43632476763, -46843.22140732067, -21540.242021112685, -53265.23521724167, -53270.97961556669, -42923.17246474892, -0.002, 0.986, 0.20800000000000002, 192.0, 0.0, 0.0, 0.0, 0.0, 0.0, 0.0, 0.0, 0.0, 0.0, 1.695419784827873E9, 0.0, 2023-09-22 16:56:24.827
26.0, 21675.023040178185, 33479.448673659404, -52826.76104626191, -55989.68934889905, -37035.07477463183, -20868.907376397536, -187500.02235174447, -38389.63519211235, -9635.904089916241, 16951.250070482503, -50860.43338303964, -46853.257340581105, -21555.329448620018, -53277.03693831408, -53282.71428140572, -42934.19187476538, -0.002, 0.986, 0.20800000000000002, 192.0, 0.0, 0.0, 0.0, 0.0, 0.0, 0.0, 0.0, 0.0, 0.0, 1.695419784827876E9, 0.0, 2023-09-22 16:56:24.827
28.0, 21677.05704892362, 33476.9005747915, -52823.587098549266, -56002.3180845163, -37014.198245310574, -20877.110466612634, -187500.02235174447, -38389.52343339007, -9615.295781528448, 16960.83896885383, -50836.896996128206, -46829.94447111422, -21535.16817512133, -53250.21484496771, -53258.552045649536, -42904.82168255111, -0.006, 0.994, 0.202, 192.0, 127.5, 104.0, 15.5, 8.0, 3.0, 40.0, 0.0, 0.0, 0.0, 1.69541978482788E9, 0.0, 2023-09-22 16:56:24.827
30.0, 21678.509912313213, 33480.81213007118, -52832.393685864656, -55994.62908442367, -37042.71907123555, -20868.41563801952, -187500.02235174447, -38393.814968325496, -9642.85548244184, 16951.428884438144, -50864.4566970416, -46857.101840627416, -21565.03010571362, -53278.601560425945, -53285.195325040266, -42931.0849822861, -0.006, 0.994, 0.202, 192.0, 0.0, 0.0, 0.0, 0.0, 0.0, 0.0, 0.0, 0.0, 0.0, 1.695419784888095E9, 0.0, 2023-09-22 16:56:24.888
32.0, 21671.29029885415, 33470.23975494382, -52817.32861010177, -55994.83025012377, -37008.94558536358, -20865.822835662704, -187500.02235174447, -38383.33200017596, -9614.08878732786, 16960.12371303126, -50830.77261814745, -46824.64710767831, -21525.53457326109, -53243.0175832531, -53254.59578688095, -42897.11033071403, -0.006, 0.994, 0.202, 192.0, 0.0, 0.0, 0.0, 0.0, 0.0, 0.0, 0.0, 0.0, 0.0, 1.695419784888105E9, 0.0, 2023-09-22 16:56:24.888
34.0, 21676.18533088986, 33481.840310316125, -52852.04086924087, -56017.80784342383, -37056.33128360883, -20886.051164394758, -187500.02235174447, -38411.495198189645, -9655.640680270277, 16951.250070482503, -50873.866781457284, -46865.349634331425, -21563.756056279668, -53285.01651108462, -53292.21377279923, -42938.12578178952, -0.006, 0.994, 0.202, 192.0, 0.0, 0.0, 0.0, 0.0, 0.0, 0.0, 0.0, 0.0, 0.0, 1.695419784888109E9, 0.0, 2023-09-22 16:56:24.888
36.0, 21657.074589380576, 33459.600324583094, -52828.07979918478, -55998.63004668117, -37021.73078319202, -20867.141588585568, -187500.02235174447, -38386.10361648841, -9632.931307903686, 16941.035323266427, -50851.31387130188, -46848.295253312026, -21538.766805978634, -53264.18468525227, -53275.315853991015, -42918.14332224648, -0.006, 0.994, 0.202, 192.0, 0.0, 0.0, 0.0, 0.0, 0.0, 0.0, 0.0, 0.0, 0.0, 1.695419784888112E9, 0.0, 2023-09-22 16:56:24.888
38.0, 21683.38259260447, 33491.51861566527, -52842.98841273647, -56005.58143920678, -37045.244818358995, -20874.875292167104, -187500.02235174447, -38399.335849205956, -9643.950717920152, 16960.570747920367, -50865.26135984199, -46860.32049182898, -21550.41206483985, -53278.266284259116, -53283.45188897275, -42929.520360174225, -0.006, 0.994, 0.20800000000000002, 192.0, 127.5, 104.0, 15.5, 8.0, 3.0, 64.0, 0.0, 0.0, 0.0, 1.695419784888117E9, 0.0, 2023-09-22 16:56:24.888
40.0, 21642.344789784525, 33449.02794945573, -52839.83681676827, -56005.4696804845, -37036.66174848816, -20874.584719489183, -187500.02235174447, -38392.540918891544, -9630.785540435976, 16940.521233143954, -50851.33622304633, -46847.714107956184, -21543.304210103062, -53259.08848751646, -53274.22061851271, -42916.086961756584, -0.006, 0.994, 0.20800000000000002, 192.0, 0.0, 0.0, 0.0, 0.0, 0.0, 0.0, 0.0, 0.0, 0.0, 1.695419784888122E9, 0.0, 2023-09-22 16:56:24.888
42.0, 21684.835455994067, 33492.65855463249, -52844.01659298141, -56003.748596161444, -37037.93579792211, -20872.483655510387, -187500.02235174447, -38394.2620032146, -9646.118837132315, 16956.815654851875, -50872.905656445706, -46866.601332020924, -21568.919309248842, -53277.46162145873, -53287.11757506342, -42936.091773044085, -0.006, 0.994, 0.20800000000000002, 192.0, 0.0, 0.0, 0.0, 0.0, 0.0, 0.0, 0.0, 0.0, 0.0, 1.695419784888126E9, 0.0, 2023-09-22 16:56:24.888
44.0, 21639.819042661078, 33445.764594765256, -52836.729924288986, -56000.954628104526, -37035.32064382084, -20872.50600725484, -187500.02235174447, -38388.47290140067, -9626.829281667386, 16950.288945470922, -50847.33526078883, -46844.093125354426, -21547.79691073858, -53250.14778973434, -53269.01266205462, -42913.516511144226, -0.006, 0.994, 0.20800000000000002, 192.0, 0.0, 0.0, 0.0, 0.0, 0.0, 0.0, 0.0, 0.0, 0.0, 1.695419784947504E9, 0.0, 2023-09-22 16:56:24.947
46.0, 21689.216397907305, 33495.92190932297, -52838.87569175669, -56007.034302596374, -37035.9911961545, -20878.89860616906, -187500.02235174447, -38394.50787240361, -9645.984726665583, 16957.12857927425, -50870.42461281116, -46865.41668956479, -21555.35180036447, -53277.86395285893, -53286.04469132957, -42934.30363348766, -0.006, 0.994, 0.20800000000000002, 192.0, 0.0, 0.0, 0.0, 0.0, 0.0, 0.0, 0.0, 0.0, 0.0, 1.695419784947517E9, 0.0, 2023-09-22 16:56:24.947
48.0, 21649.497348010227, 33452.33600763512, -52807.292676841345, -55971.20445623451, -37015.38288776671, -20845.59450693065, -187500.02235174447, -38363.14837493281, -9620.727255431088, 16944.72336110155, -50842.21671130857, -46843.5566834875, -21531.770709964123, -53253.05351651353, -53266.173990508796, -42911.124874487505, -0.006, 0.99, 0.21, 192.0, 127.5, 104.0, 15.0, 120.0, 3.0, 72.0, 0.0, 0.0, 0.0, 1.695419784947521E9, 0.0, 2023-09-22 16:56:24.947
50.0, 21701.599264335546, 33502.76154312629, -52820.144929903145, -55996.08194781327, -37019.36149827975, -20870.583757231685, -187500.02235174447, -38384.27077344308, -9607.316208757902, 16986.051736599416, -50831.04083908092, -46829.29627052502, -21510.15657307584, -53243.39756290884, -53247.24206295515, -42897.646772580956, -0.006, 0.99, 0.21, 192.0, 0.0, 0.0, 0.0, 0.0, 0.0, 0.0, 0.0, 0.0, 0.0, 1.695419784947524E9, 0.0, 2023-09-22 16:56:24.947
52.0, 21650.369066043982, 33450.10083318959, -52802.57645876127, -55967.114086999194, -37015.49464648899, -20841.45943420642, -187500.02235174447, -38359.72855803115, -9616.189851306659, 16950.423055937656, -50838.59572870681, -46837.83463690694, -21522.606494737447, -53246.86208329941, -53257.61327238241, -42902.13947321648, -0.006, 0.99, 0.21, 192.0, 0.0, 0.0, 0.0, 0.0, 0.0, 0.0, 0.0, 0.0, 0.0, 1.695419784947527E9, 0.0, 2023-09-22 16:56:24.947
54.0, 21699.967586990308, 33501.39808671452, -52817.08274091277, -55995.903133857624, -37014.13119007721, -20867.16394033002, -187500.02235174447, -38379.57690710746, -9618.42502575219, 16982.02842259746, -50840.13799907422, -46834.7053926832, -21520.68424471429, -53244.693964087244, -53247.59969086644, -42895.76922604671, -0.006, 0.99, 0.21, 192.0, 0.0, 0.0, 0.0, 0.0, 0.0, 0.0, 0.0, 0.0, 0.0, 1.695419784947531E9, 0.0, 2023-09-22 16:56:24.947
56.0, 21646.681028208855, 33448.625618055536, -52809.68431349806, -55974.60192139172, -37025.4411727716, -20845.84037611966, -187500.02235174447, -38364.087148199935, -9626.941040389662, 16951.764160604973, -50848.40814452269, -46845.56834048848, -21540.331428090507, -53249.454885656225, -53261.63658638437, -42898.406731892435, -0.006, 0.99, 0.21, 192.0, 0.0, 0.0, 0.0, 0.0, 0.0, 0.0, 0.0, 0.0, 0.0, 1.695419784947534E9, 0.0, 2023-09-22 16:56:24.947
58.0, 21697.643005566955, 33501.062810547686, -52813.46175831101, -55992.23744776696, -37011.493684231486, -20866.694553696463, -187500.02235174447, -38376.40295939481, -9622.76126417652, 16980.3073382744, -50847.223502066554, -46841.23210206415, -21531.837765197488, -53245.56568212101, -53254.79695258105, -42894.65163882395, -0.012, 0.99, 0.20800000000000002, 192.0, 127.5, 80.0, 15.0, 120.0, 3.0, 64.0, 0.0, 0.0, 0.0, 1.695419784947537E9, 0.0, 2023-09-22 16:56:24.947
60.0, 21654.750007957224, 33456.67224605945, -52799.89424942664, -55964.49893289792, -37021.6413762142, -20841.861765606616, -187500.02235174447, -38356.822831251964, -9615.206374550626, 16968.527968946455, -50838.32750777334, -46834.01248860508, -21516.772689434612, -53238.52488261758, -53252.7182403467, -42887.02969396469, -0.012, 0.99, 0.20800000000000002, 192.0, 0.0, 0.0, 0.0, 0.0, 0.0, 0.0, 0.0, 0.0, 0.0, 1.695419785007136E9, 0.0, 2023-09-22 16:56:25.007
62.0, 21695.854866010533, 33495.63133664505, -52819.094397913745, -56003.61448569471, -37020.61319596925, -20882.56429225973, -187500.02235174447, -38387.46707290019, -9620.5707932199, 16981.26846328598, -50848.11757184477, -46840.69566019722, -21521.69007321478, -53250.505417645625, -53255.98159503718, -42893.73521730128, -0.012, 0.99, 0.20800000000000002, 192.0, 0.0, 0.0, 0.0, 0.0, 0.0, 0.0, 0.0, 0.0, 0.0, 1.695419785007147E9, 0.0, 2023-09-22 16:56:25.007
64.0, 21657.409865547404, 33457.38750188202, -52814.37817983368, -55982.156811017616, -37039.43336480062, -20863.74412342836, -187500.02235174447, -38376.24649718362, -9631.187871836171, 16951.11596001577, -50857.929987660646, -46854.03965163704, -21536.285762344094, -53264.005871296635, -53270.35376672194, -42907.03450525219, -0.012, 0.99, 0.20800000000000002, 192.0, 0.0, 0.0, 0.0, 0.0, 0.0, 0.0, 0.0, 0.0, 0.0, 1.69541978500715E9, 0.0, 2023-09-22 16:56:25.007
66.0, 21689.685784540867, 33491.58567089864, -52813.88644145566, -56002.98863684996, -37018.735649435, -20885.537074272284, -187500.02235174447, -38385.92480253277, -9624.124720588294, 16968.907948602195, -50847.04468811092, -46844.428401521254, -21523.63467498239, -53252.2712054576, -53254.95341479223, -42895.5233568577, -0.012, 0.99, 0.20800000000000002, 192.0, 0.0, 0.0, 0.0, 0.0, 0.0, 0.0, 0.0, 0.0, 0.0, 1.695419785007154E9, 0.0, 2023-09-22 16:56:25.007
68.0, 21654.727656212766, 33459.57797283864, -52815.40636007862, -55981.48625868395, -37038.04755664439, -20860.905451882536, -187500.02235174447, -38372.73727330414, -9645.515340032023, 16947.02559078045, -50868.837638954836, -46867.853029710415, -21550.009733439652, -53270.8231533555, -53274.06415630152, -42914.008249522245, -0.008, 0.994, 0.20600000000000002, 192.0, 127.5, 96.0, 15.5, 8.0, 3.0, 56.0, 0.0, 0.0, 0.0, 1.695419785007157E9, 0.0, 2023-09-22 16:56:25.007
70.0, 21679.158112902416, 33479.448673659404, -52819.49672931394, -55999.769985648396, -37021.86489365875, -20878.116295113123, -187500.02235174447, -38382.10265423091, -9630.919650902708, 16968.751486391007, -50855.001909137005, -46851.60331149141, -21541.046683913075, -53249.36547867841, -53256.24981597064, -42898.65260108145, -0.008, 0.994, 0.20600000000000002, 192.0, 0.0, 0.0, 0.0, 0.0, 0.0, 0.0, 0.0, 0.0, 0.0, 1.69541978500716E9, 0.0, 2023-09-22 16:56:25.007
72.0, 21666.976412174274, 33472.45257764489, -52799.89424942664, -55959.44743865102, -37025.06119311586, -20838.821928360692, -187500.02235174447, -38356.59931380741, -9632.081941614382, 16967.566843934877, -50857.81822893837, -46854.75490745961, -21533.69295998728, -53249.23136821167, -53264.855237585936, -42899.54667085966, -0.008, 0.994, 0.20600000000000002, 192.0, 0.0, 0.0, 0.0, 0.0, 0.0, 0.0, 0.0, 0.0, 0.0, 1.695419785007164E9, 0.0, 2023-09-22 16:56:25.007
74.0, 21684.63429029397, 33484.94720279541, -52797.837888936745, -55975.87597082567, -37003.938794605594, -20855.74219891336, -187500.02235174447, -38364.02009296657, -9605.796290134942, 16986.74464067753, -50831.018487336456, -46827.61988969087, -21505.418003251318, -53221.33639113145, -53238.23430993966, -42871.11525191251, -0.008, 0.994, 0.20600000000000002, 192.0, 0.0, 0.0, 0.0, 0.0, 0.0, 0.0, 0.0, 0.0, 0.0, 1.695419785067396E9, 0.0, 2023-09-22 16:56:25.067
76.0, 21681.10271467003, 33481.9520690384, -52800.564801760294, -55961.43674390754, -37023.80949542636, -20842.107634795622, -187500.02235174447, -38357.71690103017, -9617.530955973978, 16980.463800485588, -50844.00485086499, -46842.349689286915, -21521.108927858942, -53237.42964713927, -53253.58995838046, -42889.24251666576, -0.008, 0.994, 0.20600000000000002, 192.0, 0.0, 0.0, 0.0, 0.0, 0.0, 0.0, 0.0, 0.0, 0.0, 1.695419785067415E9, 0.0, 2023-09-22 16:56:25.067
78.0, 21669.971545931287, 33467.95987700938, -52813.32764784428, -55993.17622103408, -37018.534483734904, -20873.914167155526, -187500.02235174447, -38375.1065582164, -9614.692284428154, 16968.77383813546, -50838.90865312918, -46838.61694796288, -21520.41602378083, -53233.5627953485, -53245.16335072081, -42882.51464158471, -0.006, 0.996, 0.21, 192.0, 127.5, 104.0, 15.5, 16.0, 3.0, 72.0, 0.0, 0.0, 0.0, 1.695419785067419E9, 0.0, 2023-09-22 16:56:25.067
80.0, 21674.508950055715, 33477.88405154754, -52819.943764203046, -55984.68255814107, -37039.27690258943, -20863.006515861336, -187500.02235174447, -38371.440872125735, -9645.4259330542, 16955.474550184554, -50873.173877379166, -46872.16691639029, -21551.01556194014, -53268.275054487596, -53271.85133360045, -42914.54469138917, -0.006, 0.996, 0.21, 192.0, 0.0, 0.0, 0.0, 0.0, 0.0, 0.0, 0.0, 0.0, 0.0, 1.695419785067423E9, 0.0, 2023-09-22 16:56:25.067
82.0, 21654.034752134652, 33459.82384202765, -52822.0671799263, -55996.46192746901, -37023.63068147071, -20870.047315364758, -187500.02235174447, -38369.00453198011, -9621.733083931576, 16958.581442663843, -50851.11270560178, -46848.65288122331, -21527.83680293999, -53238.45782738422, -53247.06324899951, -42884.48159509678, -0.006, 0.996, 0.21, 192.0, 0.0, 0.0, 0.0, 0.0, 0.0, 0.0, 0.0, 0.0, 0.0, 1.695419785067427E9, 0.0, 2023-09-22 16:56:25.067
84.0, 21676.81117973461, 33484.03078127275, -52818.15562464662, -55979.85458133872, -37030.98440539651, -20851.830643633682, -187500.02235174447, -38357.672197541266, -9643.704848731142, 16960.77191362046, -50876.459583814096, -46872.99393093514, -21552.200204396275, -53261.05544102853, -53268.9232550768, -42906.654525596445, -0.006, 0.996, 0.21, 192.0, 0.0, 0.0, 0.0, 0.0, 0.0, 0.0, 0.0, 0.0, 0.0, 1.695419785067432E9, 0.0, 2023-09-22 16:56:25.067
86.0, 21649.743217199233, 33454.59353382511, -52813.148833888634, -55983.475563940476, -37022.9377773926, -20858.871443137105, -187500.02235174447, -38359.88502024234, -9624.057665354929, 16959.16258801968, -50850.5539119904, -46848.8093434345, -21525.7804424501, -53235.73091456067, -53249.58899612296, -42883.54282182966, -0.006, 0.996, 0.21, 192.0, 0.0, 0.0, 0.0, 0.0, 0.0, 0.0, 0.0, 0.0, 0.0, 1.695419785067437E9, 0.0, 2023-09-22 16:56:25.067
88.0, 21686.310671128114, 33495.0054878003, -52820.83783398126, -55988.728223887476, -37040.17097236765, -20868.974431630904, -187500.02235174447, -38376.58177335045, -9636.731104461087, 16976.932224861648, -50862.757964462995, -46856.99008190514, -21532.35185531996, -53248.761981578115, -53259.15554274983, -42897.646772580956, -0.008, 0.994, 0.21, 192.0, 127.5, 96.0, 15.5, 8.0, 3.0, 72.0, 0.0, 0.0, 0.0, 1.69541978506744E9, 0.0, 2023-09-22 16:56:25.067
90.0, 21654.05710387911, 33459.8461937721, -52798.08375812576, -55968.34343294423, -37017.2380825565, -20852.076512822692, -187500.02235174447, -38356.10757542939, -9618.022694351996, 16961.330707231846, -50840.674440941155, -46839.66747995227, -21520.59483773647, -53229.606536579915, -53249.387830422864, -42879.675970038894, -0.008, 0.994, 0.21, 192.0, 0.0, 0.0, 0.0, 0.0, 0.0, 0.0, 0.0, 0.0, 0.0, 1.695419785127533E9, 0.0, 2023-09-22 16:56:25.127
92.0, 21698.224150922793, 33503.722668137874, -52803.42582505057, -55975.67480512558, -37023.67538495963, -20859.206719303933, -187500.02235174447, -38363.1036714439, -9629.578546235389, 16981.044945841426, -50854.376060292256, -46850.79864869102, -21531.569544264024, -53244.64926059834, -53254.215807225206, -42893.444644623356, -0.008, 0.994, 0.21, 192.0, 0.0, 0.0, 0.0, 0.0, 0.0, 0.0, 0.0, 0.0, 0.0, 1.695419785127556E9, 0.0, 2023-09-22 16:56:25.127
94.0, 21648.647981720922, 33450.659626800974, -52795.759176702406, -55966.26472070989, -37018.42272501263, -20845.728617397384, -187500.02235174447, -38344.663482268275, -9612.904144871729, 16964.68346890014, -50834.32654551585, -46837.521712484566, -21519.58900923598, -53225.1138359444, -53240.022449496086, -42873.84216473605, -0.008, 0.994, 0.21, 192.0, 0.0, 0.0, 0.0, 0.0, 0.0, 0.0, 0.0, 0.0, 0.0, 1.695419785127574E9, 0.0, 2023-09-22 16:56:25.127
96.0, 21695.47488635479, 33498.71587737988, -52813.52881354438, -55988.52705818738, -37027.94456815059, -20864.593489717663, -187500.02235174447, -38363.528354588554, -9631.701961958643, 16972.97596609306, -50858.578188249856, -46860.23108485116, -21534.36351232094, -53253.00881302462, -53256.78625783757, -42896.596240591556, -0.008, 0.994, 0.21, 192.0, 0.0, 0.0, 0.0, 0.0, 0.0, 0.0, 0.0, 0.0, 0.0, 1.695419785127589E9, 0.0, 2023-09-22 16:56:25.127
98.0, 21650.413769532894, 33449.16205992247, -52792.65228422312, -55960.72148808497, -37016.165198822644, -20839.2689632498, -187500.02235174447, -38338.784973476526, -9612.077130326883, 16959.296698486414, -50831.1973012921, -46836.35942177289, -21515.6774539563, -53226.96903073419, -53239.70952507371, -42868.701263511335, -0.006, 0.994, 0.20600000000000002, 192.0, 127.5, 104.0, 15.5, 8.0, 3.0, 56.0, 0.0, 0.0, 0.0, 1.695419785127592E9, 0.0, 2023-09-22 16:56:25.127
100.0, 21695.13961018796, 33495.76544711178, -52816.367485090195, -55995.83607862426, -37030.40326004067, -20876.484617767885, -187500.02235174447, -38372.71492155969, -9633.66891547071, 16975.4570097276, -50857.03591788244, -46857.41476504979, -21529.960218663244, -53253.81347582501, -53258.57439739399, -42890.13658644397, -0.006, 0.994, 0.20600000000000002, 192.0, 0.0, 0.0, 0.0, 0.0, 0.0, 0.0, 0.0, 0.0, 0.0, 1.695419785127595E9, 0.0, 2023-09-22 16:56:25.127
102.0, 21648.156243342906, 33447.776251766234, -52786.662016709095, -55958.82158980627, -37017.2380825565, -20841.101806295133, -187500.02235174447, -38342.40595607829, -9623.94590663265, 16949.752503603995, -50846.01650786597, -46853.77143070358, -21522.40532903735, -53245.23040595417, -53251.555949635025, -42881.06177819512, -0.006, 0.994, 0.20600000000000002, 192.0, 0.0, 0.0, 0.0, 0.0, 0.0, 0.0, 0.0, 0.0, 0.0, 1.695419785127599E9, 0.0, 2023-09-22 16:56:25.127
104.0, 21701.375746890993, 33501.621604159074, -52798.128461614666, -55983.3638052182, -37012.63362319871, -20864.45937925093, -187500.02235174447, -38357.091052185424, -9615.47459548409, 16983.615396453788, -50837.34403101731, -46844.0037183766, -21514.537514989082, -53237.653164583826, -53234.30040291553, -42871.78580424617, -0.006, 0.994, 0.20600000000000002, 192.0, 0.0, 0.0, 0.0, 0.0, 0.0, 0.0, 0.0, 0.0, 0.0, 1.695419785187259E9, 0.0, 2023-09-22 16:56:25.187
106.0, 21655.62172599098, 33454.213554169364, -52788.96424638799, -55956.83228454975, -37020.45673375806, -20838.39724521604, -187500.02235174447, -38336.92977868674, -9620.19081356416, 16957.48620718553, -50838.707487429085, -46847.937625400744, -21522.092404614974, -53237.921385517286, -53242.615251852905, -42872.9704467023, -0.006, 0.994, 0.20600000000000002, 192.0, 0.0, 0.0, 0.0, 0.0, 0.0, 0.0, 0.0, 0.0, 0.0, 1.695419785187271E9, 0.0, 2023-09-22 16:56:25.187
108.0, 21700.839305024067, 33500.61577565858, -52814.467586811494, -55996.99836933594, -37025.396469282685, -20881.580815503698, -187500.02235174447, -38375.352427405414, -9618.71559843011, 16977.64748068422, -50845.32360378785, -46853.61496849239, -21521.287741814584, -53250.75128683464, -53248.29259494455, -42884.503946841236, -0.008, 0.992, 0.20600000000000002, 192.0, 127.5, 96.0, 15.5, 0.0, 3.0, 56.0, 0.0, 0.0, 0.0, 1.695419785187275E9, 0.0, 2023-09-22 16:56:25.187
110.0, 21656.024057391176, 33459.332103649635, -52785.0079876194, -55943.80121753231, -37024.502399504476, -20828.249553233334, -187500.02235174447, -38333.91229318527, -9627.008095623029, 16959.855492097795, -50841.72497293055, -46848.45171552321, -21527.367416306428, -53239.2177866957, -53251.57830137948, -42875.18326940337, -0.008, 0.992, 0.20600000000000002, 192.0, 0.0, 0.0, 0.0, 0.0, 0.0, 0.0, 0.0, 0.0, 0.0, 1.695419785187279E9, 0.0, 2023-09-22 16:56:25.187
112.0, 21703.834438781076, 33505.44375246093, -52785.23150506395, -55960.65443285161, -37004.69875391707, -20848.232012776378, -187500.02235174447, -38343.188267134225, -9612.680627427177, 17000.356853050813, -50825.38584773372, -46826.345840256916, -21510.558904476038, -53217.82716725197, -53230.25473716912, -42853.70324298182, -0.008, 0.992, 0.20600000000000002, 192.0, 0.0, 0.0, 0.0, 0.0, 0.0, 0.0, 0.0, 0.0, 0.0, 1.695419785187282E9, 0.0, 2023-09-22 16:56:25.187
114.0, 21665.85882495151, 33470.82090029966, -52791.19942083352, -55952.51839786988, -37032.526675763926, -20842.577021429184, -187500.02235174447, -38346.83160148044, -9622.493043243056, 16984.308300531902, -50835.220615294056, -46836.672346195264, -21518.270256313117, -53228.75717029061, -53245.36451642091, -42870.71292051231, -0.008, 0.992, 0.20600000000000002, 192.0, 0.0, 0.0, 0.0, 0.0, 0.0, 0.0, 0.0, 0.0, 0.0, 1.695419785187286E9, 0.0, 2023-09-22 16:56:25.187
116.0, 21695.608996821524, 33502.940357081934, -52791.40058653362, -55969.72924110046, -37014.24294879949, -20860.927803626993, -187500.02235174447, -38357.02399695206, -9621.28604904247, 16996.892332660238, -50832.96308910407, -46832.51492172658, -21511.095346342965, -53223.48215859916, -53239.888339029356, -42868.276580366684, -0.008, 0.992, 0.20600000000000002, 192.0, 0.0, 0.0, 0.0, 0.0, 0.0, 0.0, 0.0, 0.0, 0.0, 1.695419785187289E9, 0.0, 2023-09-22 16:56:25.187
118.0, 21677.749953001734, 33485.08131326215, -52786.57260973127, -55944.2035489325, -37034.739498465, -20840.565364428207, -187500.02235174447, -38350.92197071576, -9624.839976410864, 16992.779611680464, -50837.34403101731, -46834.995965361115, -21526.78627095059, -53226.253774911616, -53250.930100790276, -42876.25615313723, -0.006, 0.994, 0.202, 192.0, 127.5, 104.0, 15.5, 8.0, 3.0, 40.0, 0.0, 0.0, 0.0, 1.695419785187293E9, 0.0, 2023-09-22 16:56:25.187
120.0, 21703.879142269987, 33509.310604251696, -52772.08867932423, -55947.98099374545, -36998.909652103146, -20848.522585454295, -187500.02235174447, -38348.373871847856, -9600.074243554383, 17011.532725278466, -50814.657010395174, -46811.45957844968, -21502.668738683315, -53207.76888224708, -53232.80283603702, -42856.58661801656, -0.006, 0.994, 0.202, 192.0, 0.0, 0.0, 0.0, 0.0, 0.0, 0.0, 0.0, 0.0, 0.0, 1.695419785247689E9, 0.0, 2023-09-22 16:56:25.247
122.0, 21682.488522826257, 33490.62454588706, -52786.72907194246, -55945.63406057764, -37034.203056598075, -20847.092073809155, -187500.02235174447, -38353.961807961685, -9618.179156563183, 17001.74266120704, -50834.997097849504, -46832.000831604106, -21515.63275046739, -53229.472426113185, -53249.611347867416, -42875.74206301475, -0.006, 0.994, 0.202, 192.0, 0.0, 0.0, 0.0, 0.0, 0.0, 0.0, 0.0, 0.0, 0.0, 1.695419785247708E9, 0.0, 2023-09-22 16:56:25.247
124.0, 21689.10463918503, 33493.06088603269, -52778.10129858271, -55957.949871772515, -37003.022373082924, -20856.636268691575, -187500.02235174447, -38350.318473615465, -9596.632074908266, 17005.564809508898, -50809.203184748076, -46809.26910749306, -21490.911721099823, -53205.64546652383, -53222.3645713764, -42850.32812956907, -0.006, 0.994, 0.202, 192.0, 0.0, 0.0, 0.0, 0.0, 0.0, 0.0, 0.0, 0.0, 0.0, 1.695419785247712E9, 0.0, 2023-09-22 16:56:25.247
126.0, 21684.075496682584, 33490.53513890924, -52793.0099121344, -55956.6087671052, -37035.812382198856, -20853.59643144565, -187500.02235174447, -38355.86170624039, -9639.681534729187, 16981.98371910855, -50848.34108928932, -46851.446849280226, -21537.515108289135, -53246.21388271021, -53257.434458426775, -42888.281391654185, -0.006, 0.994, 0.202, 192.0, 0.0, 0.0, 0.0, 0.0, 0.0, 0.0, 0.0, 0.0, 0.0, 1.695419785247715E9, 0.0, 2023-09-22 16:56:25.247
128.0, 21674.33013610007, 33479.471025403865, -52788.85248766572, -55968.6116538777, -37011.493684231486, -20864.213510061923, -187500.02235174447, -38357.2028109077, -9612.412406493713, 16987.191675566635, -50824.514129699965, -46831.06205833698, -21503.316939272518, -53222.29751614303, -53232.48991161465, -42863.09097565305, -0.008, 0.994, 0.21, 192.0, 127.5, 96.0, 15.5, 8.0, 3.0, 72.0, 0.0, 0.0, 0.0, 1.695419785247718E9, 0.0, 2023-09-22 16:56:25.247
130.0, 21684.701345527334, 33490.62454588706, -52806.30920008531, -55973.10435451321, -37041.02033865695, -20869.175597331, -187500.02235174447, -38371.53027910355, -9635.993496894062, 16989.493905245534, -50850.5539119904, -46854.03965163704, -21531.72600647521, -53245.81155131001, -53255.48985665916, -42888.21433642082, -0.008, 0.994, 0.21, 192.0, 0.0, 0.0, 0.0, 0.0, 0.0, 0.0, 0.0, 0.0, 0.0, 1.695419785247722E9, 0.0, 2023-09-22 16:56:25.247
132.0, 21664.249499350728, 33469.34568516561, -52804.78928146235, -55981.01687205039, -37029.35272805127, -20877.758667201837, -187500.02235174447, -38373.22901168215, -9631.567851491911, 16972.484227715042, -50843.87074039826, -46848.630529478854, -21527.21095409524, -53238.32371691748, -53253.858179313924, -42881.06177819512, -0.008, 0.994, 0.21, 192.0, 0.0, 0.0, 0.0, 0.0, 0.0, 0.0, 0.0, 0.0, 0.0, 1.695419785247725E9, 0.0, 2023-09-22 16:56:25.247
134.0, 21697.01715672221, 33502.78389487075, -52797.39085404764, -55962.24140670794, -37036.1923618546, -20861.710114682926, -187500.02235174447, -38363.97538947766, -9645.872967943307, 16978.854474884807, -50862.3556330628, -46865.28257909806, -21545.204108381764, -53255.55691189253, -53272.186609767276, -42899.524319115204, -0.008, 0.994, 0.21, 192.0, 0.0, 0.0, 0.0, 0.0, 0.0, 0.0, 0.0, 0.0, 0.0, 1.695419785307814E9, 0.0, 2023-09-22 16:56:25.307
136.0, 21675.224205878283, 33476.36413292457, -52769.22765603395, -55943.08596170974, -37003.26824227193, -20844.678085407984, -187500.02235174447, -38338.40499382079, -9602.04119706645, 16994.79126868144, -50813.047684794394, -46820.71320065418, -21498.734831659178, -53206.450129324214, -53228.556004590515, -42849.612873746504, -0.008, 0.994, 0.21, 192.0, 0.0, 0.0, 0.0, 0.0, 0.0, 0.0, 0.0, 0.0, 0.0, 1.695419785307825E9, 0.0, 2023-09-22 16:56:25.307
138.0, 21703.76738354771, 33508.79651412922, -52797.144984858634, -55967.114086999194, -37030.96205365206, -20868.996783375358, -187500.02235174447, -38363.9083342443, -9623.655333954732, 17009.588123510854, -50838.66278394018, -46843.31081429849, -21522.762956948634, -53230.38884763585, -53245.610385609914, -42871.65169377944, -0.008, 0.996, 0.212, 192.0, 127.5, 96.0, 15.5, 16.0, 3.0, 80.0, 0.0, 0.0, 0.0, 1.695419785307829E9, 0.0, 2023-09-22 16:56:25.307
140.0, 21660.919089426887, 33461.45551937289, -52787.779603931864, -55956.54171187183, -37021.57432098083, -20857.46328323642, -187500.02235174447, -38346.69749101371, -9623.253002554537, 16979.636785940744, -50835.24296703851, -46843.02024162057, -21518.11379410193, -53223.99624872163, -53248.47140890019, -42867.49426931075, -0.008, 0.996, 0.212, 192.0, 0.0, 0.0, 0.0, 0.0, 0.0, 0.0, 0.0, 0.0, 0.0, 1.695419785307832E9, 0.0, 2023-09-22 16:56:25.307
142.0, 21700.81695327961, 33502.448618703915, -52813.26059261091, -55978.93815981605, -37043.59078926931, -20876.17169334551, -187500.02235174447, -38366.99287497913, -9643.123703375304, 16991.41615526869, -50858.80170569441, -46861.4604307962, -21538.45388155626, -53246.50445538813, -53267.24687424265, -42888.616667821014, -0.008, 0.996, 0.212, 192.0, 0.0, 0.0, 0.0, 0.0, 0.0, 0.0, 0.0, 0.0, 0.0, 1.695419785307836E9, 0.0, 2023-09-22 16:56:25.307
144.0, 21656.51579576919, 33457.0969292041, -52797.74848195893, -55959.156865973106, -37035.544161265396, -20850.914222111016, -187500.02235174447, -38342.38360433383, -9627.812758423419, 16973.534759704442, -50841.88143514174, -46847.870570167375, -21531.278971586107, -53226.20907142271, -53257.836789826964, -42868.65656002242, -0.008, 0.996, 0.212, 192.0, 0.0, 0.0, 0.0, 0.0, 0.0, 0.0, 0.0, 0.0, 0.0, 1.695419785307839E9, 0.0, 2023-09-22 16:56:25.307
146.0, 21707.47777312729, 33513.40097348702, -52804.92339192908, -55972.59026439074, -37034.76185020946, -20861.03956234927, -187500.02235174447, -38352.08426142744, -9631.746665447554, 17004.670739730685, -50851.850313168805, -46853.950244659216, -21532.709483231247, -53234.90390001582, -53259.20024623874, -42875.02680719219, -0.008, 0.996, 0.212, 192.0, 0.0, 0.0, 0.0, 0.0, 0.0, 0.0, 0.0, 0.0, 0.0, 1.695419785307842E9, 0.0, 2023-09-22 16:56:25.307
148.0, 21655.934650413354, 33458.840365271615, -52789.16541208809, -55951.49021762493, -37027.81045768386, -20840.230088261378, -187500.02235174447, -38334.73930773012, -9624.549403732944, 16983.995376109528, -50838.05928683988, -46844.54016024353, -21524.9310761608, -53217.73776027415, -53250.997156023644, -42862.95686518632, -0.006, 0.99, 0.20800000000000002, 192.0, 127.5, 104.0, 15.0, 120.0, 3.0, 64.0, 0.0, 0.0, 0.0, 1.695419785307845E9, 0.0, 2023-09-22 16:56:25.307
150.0, 21704.125011458997, 33505.77902862776, -52811.87478445468, -55989.04114830985, -37043.09905089129, -20880.351469558653, -187500.02235174447, -38368.155165690805, -9635.837034682874, 17000.26744607299, -50856.20890333759, -46862.42155580778, -21540.10791064595, -53235.70856281622, -53260.76486835061, -42879.96654271681, -0.006, 0.99, 0.20800000000000002, 192.0, 0.0, 0.0, 0.0, 0.0, 0.0, 0.0, 0.0, 0.0, 0.0, 1.695419785368138E9, 0.0, 2023-09-22 16:56:25.368
152.0, 21658.549804514623, 33459.041530971714, -52780.381176517156, -55945.857578022195, -37033.42074554214, -20841.615896417607, -187500.02235174447, -38334.69460424121, -9632.707790459132, 16972.5065794595, -50850.97859513505, -46864.54497153103, -21524.014654638133, -53231.12645520287, -53265.63754864187, -42880.43592935037, -0.006, 0.99, 0.20800000000000002, 192.0, 0.0, 0.0, 0.0, 0.0, 0.0, 0.0, 0.0, 0.0, 0.0, 1.695419785368165E9, 0.0, 2023-09-22 16:56:25.368
154.0, 21702.985072491774, 33505.91313909449, -52798.888420926145, -55980.77100286139, -37027.363422794755, -20877.26692882382, -187500.02235174447, -38363.818927266475, -9624.325886288392, 17010.526896777978, -50845.01067936548, -46855.827791193464, -21519.96898889172, -53227.77369353458, -53252.38296417987, -42876.189097903865, -0.006, 0.99, 0.20800000000000002, 192.0, 0.0, 0.0, 0.0, 0.0, 0.0, 0.0, 0.0, 0.0, 0.0, 1.695419785368169E9, 0.0, 2023-09-22 16:56:25.368
156.0, 21652.648943978424, 33453.23007741333, -52790.03713012185, -55956.54171187183, -37039.61217875626, -20852.59060294516, -187500.02235174447, -38347.815078236476, -9633.020714881506, 16979.54737896292, -50852.0514788689, -46865.79666922053, -21530.49666053017, -53231.30526915852, -53263.76000210762, -42881.15118517294, -0.006, 0.99, 0.20800000000000002, 192.0, 0.0, 0.0, 0.0, 0.0, 0.0, 0.0, 0.0, 0.0, 0.0, 1.695419785368172E9, 0.0, 2023-09-22 16:56:25.368
158.0, 21696.59247357756, 33495.38546745604, -52805.14690937363, -55989.354072732225, -37035.16418160965, -20883.547769015764, -187500.02235174447, -38370.47974711416, -9632.5736799924, 17003.08376587436, -50854.376060292256, -46865.99783492063, -21529.06614888503, -53231.26056566961, -53259.40141193884, -42885.04038870816, -0.006, 0.996, 0.21, 192.0, 127.5, 104.0, 15.5, 16.0, 3.0, 72.0, 0.0, 0.0, 0.0, 1.695419785368175E9, 0.0, 2023-09-22 16:56:25.368
160.0, 21656.985182402754, 33461.32140890615, -52783.73393818545, -55946.706944311496, -37033.86778043125, -20844.432216218975, -187500.02235174447, -38339.25436011009, -9634.697095715654, 16980.73202141905, -50858.421726038665, -46872.412785579305, -21533.715311731736, -53235.261527927105, -53267.8727230874, -42891.45533936684, -0.006, 0.996, 0.21, 192.0, 0.0, 0.0, 0.0, 0.0, 0.0, 0.0, 0.0, 0.0, 0.0, 1.695419785368178E9, 0.0, 2023-09-22 16:56:25.368
162.0, 21700.48167711278, 33502.09099079263, -52779.71062418349, -55964.14130498664, -37008.65501268566, -20865.018172862314, -187500.02235174447, -38346.004586935596, -9606.891525613251, 17019.109966648815, -50831.66668792566, -46839.823942163464, -21509.01663410862, -53208.707655514205, -53236.334411660966, -42862.95686518632, -0.006, 0.996, 0.21, 192.0, 0.0, 0.0, 0.0, 0.0, 0.0, 0.0, 0.0, 0.0, 0.0, 1.695419785368182E9, 0.0, 2023-09-22 16:56:25.368
164.0, 21661.366124315995, 33465.45648163038, -52795.893287169136, -55962.48727589694, -37045.669501503646, -20862.559480972228, -187500.02235174447, -38351.860743982885, -9637.401656794746, 16982.698974931118, -50860.76865920647, -46866.84720120993, -21540.286724601596, -53240.17891170728, -53265.14581026385, -42893.936383001375, -0.006, 0.996, 0.21, 192.0, 0.0, 0.0, 0.0, 0.0, 0.0, 0.0, 0.0, 0.0, 0.0, 1.695419785427517E9, 0.0, 2023-09-22 16:56:25.427
166.0, 21693.954967731832, 33494.02201104427, -52785.0079876194, -55968.231674221955, -37011.828960398314, -20863.542957728263, -187500.02235174447, -38345.04346192401, -9625.689342700165, 16991.684376202153, -50848.94458638962, -46849.43519227925, -21518.49377375767, -53228.980687735166, -53251.44419091275, -42883.36400787401, -0.006, 0.996, 0.21, 192.0, 0.0, 0.0, 0.0, 0.0, 0.0, 0.0, 0.0, 0.0, 0.0, 1.695419785427528E9, 0.0, 2023-09-22 16:56:25.427
168.0, 21666.082342396065, 33467.42343514245, -52798.910772670606, -55960.766191573886, -37039.098088633786, -20851.763588400318, -187500.02235174447, -38343.747060745605, -9630.830243924886, 16985.671756943673, -50853.660804469684, -46850.75394520211, -21520.617189480923, -53234.76978954909, -53256.00394678163, -42887.94611548736, -0.008, 0.994, 0.20600000000000002, 192.0, 127.5, 96.0, 15.5, 8.0, 3.0, 56.0, 0.0, 0.0, 0.0, 1.695419785427532E9, 0.0, 2023-09-22 16:56:25.427
170.0, 21685.23778739426, 33484.991906284326, -52798.061406381305, -55971.383270190156, -37012.99125110999, -20857.731504169882, -187500.02235174447, -38341.04249966652, -9614.200546050137, 16990.097402345826, -50836.78523740593, -46830.816189147976, -21510.044814353565, -53225.136187688855, -53240.7153535742, -42875.74206301475, -0.008, 0.994, 0.20600000000000002, 192.0, 0.0, 0.0, 0.0, 0.0, 0.0, 0.0, 0.0, 0.0, 0.0, 1.695419785427535E9, 0.0, 2023-09-22 16:56:25.427
172.0, 21682.041487937153, 33485.751865595805, -52794.03809237935, -55941.14135994213, -37022.42368727013, -20827.17666949948, -187500.02235174447, -38323.742249458104, -9617.441548996158, 16995.68533845965, -50839.04276359591, -46829.765657158576, -21517.622055723914, -53232.80283603702, -53245.63273735437, -42883.229897407284, -0.008, 0.994, 0.20600000000000002, 192.0, 0.0, 0.0, 0.0, 0.0, 0.0, 0.0, 0.0, 0.0, 0.0, 1.695419785427539E9, 0.0, 2023-09-22 16:56:25.427
174.0, 21685.23778739426, 33485.5059964068, -52796.78735694735, -55959.82741830676, -37000.876605615216, -20845.862727864114, -187500.02235174447, -38331.96769141766, -9592.765223117498, 17004.3131118194, -50809.67257138164, -46800.30605796648, -21506.379128262895, -53210.76401600409, -53218.1624434188, -42860.587580274056, -0.008, 0.994, 0.20600000000000002, 192.0, 0.0, 0.0, 0.0, 0.0, 0.0, 0.0, 0.0, 0.0, 0.0, 1.695419785427542E9, 0.0, 2023-09-22 16:56:25.427
176.0, 21686.355374617026, 33485.72951385135, -52816.568650790294, -55964.521284642375, -37031.76671645245, -20850.064855821714, -187500.02235174447, -38343.72470900115, -9615.340485017357, 16997.205257082613, -50830.01265883597, -46821.18258728774, -21508.435488752784, -53241.89999603033, -53240.44713264074, -42890.11423469952, -0.008, 0.994, 0.20600000000000002, 192.0, 0.0, 0.0, 0.0, 0.0, 0.0, 0.0, 0.0, 0.0, 0.0, 1.695419785427545E9, 0.0, 2023-09-22 16:56:25.427
178.0, 21675.604185534023, 33472.65374334499, -52809.43844430905, -55966.82351432127, -37006.2857277734, -20853.104693067635, -187500.02235174447, -38340.37194733285, -9609.417272736702, 16988.421021511676, -50810.812510348864, -46805.916345824764, -21501.282930527082, -53231.46173136971, -53230.70177205822, -42879.02776944968, -0.004, 0.988, 0.214, 192.0, 127.5, 112.0, 15.0, 112.0, 3.0, 88.0, 0.0, 0.0, 0.0, 1.695419785427549E9, 0.0, 2023-09-22 16:56:25.427
180.0, 21683.82962749358, 33484.410760928484, -52830.78436026387, -55976.59122664824, -37037.064079888354, -20861.933632127482, -187500.02235174447, -38357.73925277463, -9626.538708989467, 16995.88650415975, -50822.72599014354, -46819.72972389814, -21522.427680781806, -53251.60065312394, -53244.76101932061, -42899.23374643728, -0.004, 0.988, 0.214, 192.0, 0.0, 0.0, 0.0, 0.0, 0.0, 0.0, 0.0, 0.0, 0.0, 1.695419785487383E9, 0.0, 2023-09-22 16:56:25.487
182.0, 21668.33986858605, 33461.12024320605, -52808.320857086284, -55962.55433113031, -37007.1350940627, -20848.50023370984, -187500.02235174447, -38338.561456031974, -9610.244287281548, 16980.150876063213, -50802.09533001129, -46805.6481248913, -21505.68622418478, -53236.08854247195, -53232.22169068119, -42881.12883342848, -0.004, 0.988, 0.214, 192.0, 0.0, 0.0, 0.0, 0.0, 0.0, 0.0, 0.0, 0.0, 0.0, 1.695419785487408E9, 0.0, 2023-09-22 16:56:25.487
184.0, 21700.884008512978, 33494.983136055846, -52813.88644145566, -55958.709831083994, -37020.859065158256, -20845.03571331927, -187500.02235174447, -38340.97544443315, -9619.699075186143, 17001.474440273578, -50810.20901324857, -46814.18649127323, -21510.290683542575, -53247.46558039971, -53237.83197853947, -42889.01899922121, -0.004, 0.988, 0.214, 192.0, 0.0, 0.0, 0.0, 0.0, 0.0, 0.0, 0.0, 0.0, 0.0, 1.695419785487412E9, 0.0, 2023-09-22 16:56:25.487
186.0, 21669.56921453109, 33460.98613273932, -52799.536621515355, -55946.438723378036, -37000.8319021263, -20834.12806202508, -187500.02235174447, -38324.43515353622, -9594.083976040361, 16997.585236738352, -50781.867001279235, -46786.11270023736, -21497.103154313943, -53215.346123617426, -53217.67070504078, -42858.17359187289, -0.004, 0.988, 0.214, 192.0, 0.0, 0.0, 0.0, 0.0, 0.0, 0.0, 0.0, 0.0, 0.0, 1.695419785487415E9, 0.0, 2023-09-22 16:56:25.487
188.0, 21701.15222944644, 33495.27370873377, -52825.71051427252, -55970.86918006768, -37027.27401581693, -20860.681934437984, -187500.02235174447, -38352.59835154991, -9623.744740932554, 16998.36754779429, -50817.026295307434, -46818.07569480845, -21520.907762158844, -53249.72310658969, -53244.62690885388, -42889.51073759922, -0.006, 0.986, 0.216, 192.0, 127.5, 104.0, 15.0, 104.0, 3.0, 96.0, 0.0, 0.0, 0.0, 1.695419785487418E9, 0.0, 2023-09-22 16:56:25.487
190.0, 21659.75679871521, 33450.927847734434, -52808.58907801975, -55951.959604258496, -37017.014565111946, -20844.007533074324, -187500.02235174447, -38335.27574959704, -9609.260810525515, 16978.854474884807, -50800.37424568823, -46804.08350277943, -21498.846590381454, -53230.47825461367, -53232.98164999267, -42874.44566183635, -0.006, 0.986, 0.216, 192.0, 0.0, 0.0, 0.0, 0.0, 0.0, 0.0, 0.0, 0.0, 0.0, 1.695419785487422E9, 0.0, 2023-09-22 16:56:25.487
192.0, 21708.125973716495, 33500.9063483365, -52818.043865924345, -55961.61555786319, -37024.32358554883, -20855.0716465797, -187500.02235174447, -38346.4516218247, -9617.799176907442, 16997.071146615883, -50816.66866739615, -46814.45471220669, -21510.31303528703, -53245.140998976356, -53240.29067042955, -42887.499080598245, -0.006, 0.986, 0.216, 192.0, 0.0, 0.0, 0.0, 0.0, 0.0, 0.0, 0.0, 0.0, 0.0, 1.695419785487426E9, 0.0, 2023-09-22 16:56:25.487
194.0, 21658.616859747992, 33447.41862385495, -52796.809708691806, -55938.16857792957, -37010.733724920006, -20827.13196601057, -187500.02235174447, -38320.30008081199, -9601.057720310417, 16980.08382082985, -50797.02148401993, -46797.31092420947, -21498.176038047797, -53221.224632409176, -53228.421894123785, -42863.2697896087, -0.006, 0.986, 0.216, 192.0, 0.0, 0.0, 0.0, 0.0, 0.0, 0.0, 0.0, 0.0, 0.0, 1.695419785547587E9, 0.0, 2023-09-22 16:56:25.547
196.0, 21696.5701218331, 33492.14446451002, -52826.53752881736, -55973.88666556915, -37029.01745188444, -20860.346658271155, -187500.02235174447, -38351.860743982885, -9626.024618866995, 16989.69507094563, -50827.97865009054, -46822.59074718842, -21517.10796560144, -53246.70562108822, -53247.6667460998, -42886.58265907558, -0.006, 0.986, 0.216, 192.0, 0.0, 0.0, 0.0, 0.0, 0.0, 0.0, 0.0, 0.0, 0.0, 1.6954197855476E9, 0.0, 2023-09-22 16:56:25.547
198.0, 21641.27190605067, 33430.319539346645, -52827.766874762405, -55964.43187766455, -37039.83569620081, -20850.713056410917, -187500.02235174447, -38343.903522956796, -9629.690304957665, 16959.207291508592, -50828.60449893529, -46826.949337357204, -21522.807660437546, -53245.87860654338, -53257.59092063796, -42887.47672885379, -0.002, 0.986, 0.216, 192.0, 127.5, 120.0, 15.0, 104.0, 3.0, 96.0, 0.0, 0.0, 0.0, 1.695419785547604E9, 0.0, 2023-09-22 16:56:25.547
200.0, 21694.04437470965, 33484.61192662858, -52832.661906798116, -55980.27926448337, -37032.97371065304, -20867.253347307844, -187500.02235174447, -38356.84518299642, -9641.603784752344, 16979.100344073813, -50839.35568801829, -46835.73357292814, -21536.710445488745, -53259.13319100538, -53261.94951080674, -42898.11615921452, -0.002, 0.986, 0.216, 192.0, 0.0, 0.0, 0.0, 0.0, 0.0, 0.0, 0.0, 0.0, 0.0, 1.695419785547608E9, 0.0, 2023-09-22 16:56:25.547
202.0, 21646.926897397865, 33434.45461207088, -52809.57255477578, -55947.26573792288, -37030.783239696415, -20835.0668352922, -187500.02235174447, -38331.61006350638, -9624.124720588294, 16963.4541229551, -50819.5967459198, -46820.109703553884, -21519.387843535882, -53241.22944369668, -53249.25371995613, -42880.123004928, -0.002, 0.986, 0.216, 192.0, 0.0, 0.0, 0.0, 0.0, 0.0, 0.0, 0.0, 0.0, 0.0, 1.695419785547611E9, 0.0, 2023-09-22 16:56:25.547
204.0, 21706.896627771453, 33492.815016843684, -52802.28588608335, -55951.57962460275, -37002.79885563837, -20839.961867327915, -187500.02235174447, -38328.05613613798, -9612.792386149453, 16995.215951826092, -50810.23136499302, -46808.82207260395, -21498.958349103734, -53232.57931859247, -53234.501568615626, -42870.24353387875, -0.002, 0.986, 0.216, 192.0, 0.0, 0.0, 0.0, 0.0, 0.0, 0.0, 0.0, 0.0, 0.0, 1.695419785547614E9, 0.0, 2023-09-22 16:56:25.547
206.0, 21657.789845203144, 33444.26702788675, -52795.893287169136, -55934.12291218316, -37014.31000403285, -20822.303989208223, -187500.02235174447, -38318.33312729992, -9603.270543011493, 16987.50459998901, -50800.55305964388, -46801.62481088934, -21492.766915889613, -53222.31986788748, -53228.53365284606, -42862.688644252856, -0.002, 0.986, 0.216, 192.0, 0.0, 0.0, 0.0, 0.0, 0.0, 0.0, 0.0, 0.0, 0.0, 1.695419785547617E9, 0.0, 2023-09-22 16:56:25.547
208.0, 21703.566217847612, 33487.18237724094, -52805.459833796005, -55958.06163049479, -36999.043762569876, -20846.309762753222, -187500.02235174447, -38330.045441394504, -9599.627208665277, 17004.067242630394, -50803.97287654554, -46803.03297079003, -21491.090535055464, -53222.543385332036, -53225.31500164449, -42863.739176242256, -0.002, 0.992, 0.216, 192.0, 127.5, 120.0, 15.5, 0.0, 3.0, 96.0, 0.0, 0.0, 0.0, 1.695419785547621E9, 0.0, 2023-09-22 16:56:25.547
210.0, 21659.823853948576, 33444.937580220416, -52810.82425246528, -55942.39305763162, -37025.57528323833, -20832.719902124394, -187500.02235174447, -38326.37975530383, -9618.514432730011, 16979.68148942965, -50817.58508891882, -46818.94741284221, -21504.680395684292, -53234.6133273379, -53241.855292541426, -42876.50202232624, -0.002, 0.992, 0.216, 192.0, 0.0, 0.0, 0.0, 0.0, 0.0, 0.0, 0.0, 0.0, 0.0, 1.695419785607824E9, 0.0, 2023-09-22 16:56:25.607
212.0, 21687.852941495534, 33471.066769488665, -52828.43742709606, -55978.088793526746, -37020.12145759123, -20868.79561767526, -187500.02235174447, -38350.54199106002, -9621.956601376129, 16989.136277334248, -50821.4966441985, -46821.227290776646, -21514.470459755714, -53237.74257156165, -53241.18474020776, -42877.91018222692, -0.002, 0.992, 0.216, 192.0, 0.0, 0.0, 0.0, 0.0, 0.0, 0.0, 0.0, 0.0, 0.0, 1.695419785607836E9, 0.0, 2023-09-22 16:56:25.607
214.0, 21650.793749188633, 33437.42739408343, -52831.611374808715, -55962.017889263385, -37044.86483870326, -20850.668352922006, -187500.02235174447, -38344.70818575718, -9645.67180224321, 16959.386105464233, -50847.089391599824, -46848.67523296776, -21537.626867011415, -53262.821228840505, -53269.9737870662, -42904.709923828836, -0.002, 0.992, 0.216, 192.0, 0.0, 0.0, 0.0, 0.0, 0.0, 0.0, 0.0, 0.0, 0.0, 1.69541978560784E9, 0.0, 2023-09-22 16:56:25.607
216.0, 21681.303880370127, 33463.176603695945, -52823.67650552708, -55971.89736031263, -37013.97472786602, -20859.40788500403, -187500.02235174447, -38342.003624678095, -9616.882755384775, 16987.214027311093, -50820.803740120384, -46820.78025588754, -21500.50061947115, -53235.10506571592, -53241.430609396775, -42877.8207752491, -0.002, 0.992, 0.216, 192.0, 0.0, 0.0, 0.0, 0.0, 0.0, 0.0, 0.0, 0.0, 0.0, 1.695419785607843E9, 0.0, 2023-09-22 16:56:25.607
218.0, 21662.953098172322, 33445.563429065165, -52826.17990090608, -55957.23461594994, -37040.75211772348, -20847.002666831337, -187500.02235174447, -38338.15912463178, -9629.757360191032, 16976.21696903908, -50835.3994292497, -46836.78410491754, -21519.20902958024, -53255.2216357257, -53256.60744388193, -42895.053970224144, -0.004, 0.994, 0.20800000000000002, 192.0, 127.5, 112.0, 15.5, 8.0, 3.0, 64.0, 0.0, 0.0, 0.0, 1.695419785607847E9, 0.0, 2023-09-22 16:56:25.607
220.0, 21668.13870288595, 33450.07848144513, -52833.69008704306, -55981.6650726396, -37028.79393443989, -20872.483655510387, -187500.02235174447, -38353.604180050395, -9617.888583885264, 16979.994413852026, -50823.08361805482, -46825.09414256742, -21508.0778608415, -53242.83876929746, -53244.89512978734, -42881.93349622888, -0.004, 0.994, 0.20800000000000002, 192.0, 0.0, 0.0, 0.0, 0.0, 0.0, 0.0, 0.0, 0.0, 0.0, 1.69541978560785E9, 0.0, 2023-09-22 16:56:25.607
222.0, 21664.495368539738, 33447.91036223297, -52832.30427888683, -55961.63790960764, -37044.64132125871, -20852.680009922984, -187500.02235174447, -38344.931703201735, -9643.347220819858, 16970.07023931387, -50847.87170265576, -46847.579997489454, -21532.843593697977, -53263.78235385208, -53267.64920564285, -42898.92082201491, -0.004, 0.994, 0.20800000000000002, 192.0, 0.0, 0.0, 0.0, 0.0, 0.0, 0.0, 0.0, 0.0, 0.0, 1.695419785607853E9, 0.0, 2023-09-22 16:56:25.607
224.0, 21666.75289472972, 33446.83747849912, -52820.97194444799, -55966.15296198762, -37014.913501133145, -20856.636268691575, -187500.02235174447, -38339.343767087914, -9611.585391948867, 16986.36466102179, -50814.38878946171, -46816.064037807475, -21499.047756081553, -53228.80187377952, -53237.04966748353, -42865.37085358749, -0.004, 0.994, 0.20800000000000002, 192.0, 0.0, 0.0, 0.0, 0.0, 0.0, 0.0, 0.0, 0.0, 0.0, 1.695419785668432E9, 0.0, 2023-09-22 16:56:25.668
226.0, 21676.788827990156, 33461.32140890615, -52825.12936891668, -55958.374554917165, -37039.94745492309, -20849.70722791043, -187500.02235174447, -38342.003624678095, -9638.720409717609, 16983.302472031413, -50841.859083397285, -46841.61208171989, -21529.960218663244, -53254.39462118085, -53259.244949727654, -42893.33288590108, -0.004, 0.994, 0.20800000000000002, 192.0, 0.0, 0.0, 0.0, 0.0, 0.0, 0.0, 0.0, 0.0, 0.0, 1.695419785668449E9, 0.0, 2023-09-22 16:56:25.668
228.0, 21661.969621416287, 33436.55567604968, -52817.32861010177, -55969.30455795581, -37022.06605935885, -20862.09009433867, -187500.02235174447, -38346.138697402326, -9616.055740839927, 16980.217931296578, -50819.686152897615, -46824.53534895604, -21505.708575929235, -53234.1662924488, -53242.70465883073, -42875.540897314655, -0.002, 0.996, 0.202, 192.0, 127.5, 120.0, 15.5, 16.0, 3.0, 40.0, 0.0, 0.0, 0.0, 1.695419785668453E9, 0.0, 2023-09-22 16:56:25.668
230.0, 21686.176560661384, 33462.95308625139, -52819.74259850295, -55964.051898008816, -37039.96980666755, -20858.98320185938, -187500.02235174447, -38345.714014257675, -9629.489139257568, 16989.382146523258, -50835.33237401633, -46838.639299707334, -21509.754241675644, -53252.98646128017, -53257.45681017123, -42890.27069691071, -0.002, 0.996, 0.202, 192.0, 0.0, 0.0, 0.0, 0.0, 0.0, 0.0, 0.0, 0.0, 0.0, 1.695419785668457E9, 0.0, 2023-09-22 16:56:25.668
232.0, 21660.7626272157, 33434.38755683751, -52813.707627500014, -55966.5105898989, -37024.81532392685, -20861.017210604812, -187500.02235174447, -38340.1484298883, -9619.47555774159, 16975.50171321651, -50822.278955254435, -46826.45759897919, -21501.9758346052, -53237.00496399462, -53247.39852516634, -42872.92574321339, -0.002, 0.996, 0.202, 192.0, 0.0, 0.0, 0.0, 0.0, 0.0, 0.0, 0.0, 0.0, 0.0, 1.69541978566846E9, 0.0, 2023-09-22 16:56:25.668
234.0, 21683.606110049022, 33463.26601067377, -52841.64730806915, -55983.967302318495, -37053.984350441024, -20878.69744046896, -187500.02235174447, -38360.555572576, -9654.254872114048, 16975.188788794138, -50858.68994697213, -46858.487648783645, -21537.82803271151, -53270.93491207778, -53275.58407492448, -42905.67104884041, -0.002, 0.996, 0.202, 192.0, 0.0, 0.0, 0.0, 0.0, 0.0, 0.0, 0.0, 0.0, 0.0, 1.695419785668463E9, 0.0, 2023-09-22 16:56:25.668
236.0, 21649.586754988046, 33420.64123399749, -52816.21102287901, -55961.30263344081, -37025.15060009368, -20857.55269021424, -187500.02235174447, -38334.672252496755, -9629.37738053529, 16963.02943981045, -50834.237138538025, -46836.42647700626, -21513.419927766317, -53242.63760359736, -53253.41114442482, -42877.709016526824, -0.002, 0.996, 0.202, 192.0, 0.0, 0.0, 0.0, 0.0, 0.0, 0.0, 0.0, 0.0, 0.0, 1.695419785668467E9, 0.0, 2023-09-22 16:56:25.668
238.0, 21683.024964693184, 33463.82480428515, -52841.28968015787, -55982.93912207355, -37049.29048410541, -20879.010364891335, -187500.02235174447, -38359.03565395304, -9651.237386612582, 16978.809771395896, -50861.61802549577, -46857.39241330534, -21538.409178067348, -53266.77748760909, -53268.140944020866, -42901.24540343826, -0.004, 0.994, 0.202, 192.0, 127.5, 112.0, 15.5, 8.0, 3.0, 40.0, 0.0, 0.0, 0.0, 1.69541978566847E9, 0.0, 2023-09-22 16:56:25.668
240.0, 21633.89583038042, 33412.39344029348, -52829.510310829915, -55976.39006094814, -37045.736556737014, -20874.204739833443, -187500.02235174447, -38352.419537594265, -9641.357915563336, 16952.322954216357, -50849.72689744555, -46849.07756436796, -21530.228439596707, -53254.32756594748, -53261.837752084466, -42893.71286555682, -0.004, 0.994, 0.202, 192.0, 0.0, 0.0, 0.0, 0.0, 0.0, 0.0, 0.0, 0.0, 0.0, 1.695419785727583E9, 0.0, 2023-09-22 16:56:25.727
242.0, 21691.20570316383, 33470.32916192164, -52823.140063660154, -55968.4104881776, -37035.76767870995, -20867.40980951903, -187500.02235174447, -38350.27377012656, -9651.170331379215, 16966.650422412207, -50863.78614470794, -46863.673253497276, -21536.039893155088, -53272.4771824452, -53272.454830700735, -42912.82360706611, -0.004, 0.994, 0.202, 192.0, 0.0, 0.0, 0.0, 0.0, 0.0, 0.0, 0.0, 0.0, 0.0, 1.695419785727595E9, 0.0, 2023-09-22 16:56:25.727
244.0, 21649.65381022141, 33422.205856109365, -52801.771795960885, -55940.98489773094, -37019.1379808352, -20839.69364639445, -187500.02235174447, -38321.507075012574, -9613.798214649942, 16975.21114053859, -50817.83095810783, -46821.24964252111, -21492.43163972278, -53226.186719678255, -53236.44617038324, -42864.365025087005, -0.004, 0.994, 0.202, 192.0, 0.0, 0.0, 0.0, 0.0, 0.0, 0.0, 0.0, 0.0, 0.0, 1.695419785727599E9, 0.0, 2023-09-22 16:56:25.727
246.0, 21697.464191611314, 33470.97736251084, -52835.388819621665, -55981.59801740623, -37040.41684155665, -20881.871388181615, -187500.02235174447, -38361.76256677658, -9638.921575417708, 16988.1080970893, -50845.97180437706, -46843.64609046532, -21516.951503390253, -53252.2712054576, -53257.18858923776, -42887.54378408716, -0.004, 0.994, 0.202, 192.0, 0.0, 0.0, 0.0, 0.0, 0.0, 0.0, 0.0, 0.0, 0.0, 1.695419785727602E9, 0.0, 2023-09-22 16:56:25.727
248.0, 21646.256345064205, 33418.3390043186, -52817.32861010177, -55954.64181359313, -37038.62870200023, -20853.261155278822, -187500.02235174447, -38337.600331020396, -9644.755380720542, 16953.373486205757, -50846.77646717745, -46846.99885213362, -21527.12154711742, -53254.774600836594, -53266.59867365345, -42889.48838585477, -0.006, 0.996, 0.196, 192.0, 127.5, 104.0, 15.5, 16.0, 3.0, 16.0, 0.0, 0.0, 0.0, 1.695419785727615E9, 0.0, 2023-09-22 16:56:25.727
250.0, 21704.95202600384, 33475.87239454656, -52816.50159555693, -55965.77298233187, -37017.37219302323, -20862.69359143896, -187500.02235174447, -38340.5507612885, -9627.5221857455, 16998.16638209419, -50831.28670826992, -46827.46342747968, -21513.330520788495, -53236.87085352789, -53241.94469951924, -42869.48357456727, -0.006, 0.996, 0.196, 192.0, 0.0, 0.0, 0.0, 0.0, 0.0, 0.0, 0.0, 0.0, 0.0, 1.695419785727618E9, 0.0, 2023-09-22 16:56:25.727
252.0, 21653.319496312084, 33426.5867980226, -52804.565764017796, -55937.609784318185, -37024.41299252665, -20832.518736424296, -187500.02235174447, -38319.04838312249, -9632.148996847749, 16973.17713179316, -50834.61711819376, -46834.168950816274, -21519.96898889172, -53235.10506571592, -53248.94079553376, -42868.18717338886, -0.006, 0.996, 0.196, 192.0, 0.0, 0.0, 0.0, 0.0, 0.0, 0.0, 0.0, 0.0, 0.0, 1.695419785727621E9, 0.0, 2023-09-22 16:56:25.727
254.0, 21707.43306963838, 33478.152272481, -52804.02932215087, -55951.3561071582, -37000.295460259375, -20845.79567263075, -187500.02235174447, -38324.815133191965, -9616.100444328838, 17005.1624781087, -50823.68711515512, -46822.43428497724, -21486.597834419947, -53224.085655699455, -53232.80283603702, -42856.29604533864, -0.006, 0.996, 0.196, 192.0, 0.0, 0.0, 0.0, 0.0, 0.0, 0.0, 0.0, 0.0, 0.0, 1.695419785787436E9, 0.0, 2023-09-22 16:56:25.787
0.0, 21658.639211492446, 33429.38076607952, -52809.50549954242, -55942.303650653805, -37023.11659134825, -20840.051274305737, -187500.02235174447, -38323.608138991374, -9621.464862998113, 16989.918588390185, -50823.82122562185, -46826.99404084612, -21495.29266301306, -53226.29847840053, -53237.87668202838, -42858.285350595164, -0.006, 0.996, 0.196, 192.0, 0.0, 0.0, 0.0, 0.0, 0.0, 0.0, 0.0, 0.0, 0.0, 1.69541978578745E9, 0.0, 2023-09-22 16:56:25.787
2.0, 21700.23580792377, 33469.90447877699, -52820.23433688097, -55974.78073534736, -37018.42272501263, -20872.729524699393, -187500.02235174447, -38345.33403460193, -9624.638810710765, 16997.138201849248, -50828.40333323519, -46831.68790718173, -21501.50644797164, -53236.84850178343, -53240.89416752985, -42865.95199894333, -0.004, 0.996, 0.20600000000000002, 192.0, 127.5, 112.0, 15.5, 16.0, 3.0, 56.0, 0.0, 0.0, 0.0, 1.695419785787453E9, 0.0, 2023-09-22 16:56:25.787
4.0, 21660.5614615156, 33431.97356843633, -52825.93403171707, -55959.358031673204, -37044.99894916999, -20856.971544858403, -187500.02235174447, -38341.1989618777, -9642.609613252833, 16972.283062014947, -50845.88239739924, -46850.597482990925, -21521.667721470323, -53255.37809793688, -53265.458734686224, -42885.08509219708, -0.004, 0.996, 0.20600000000000002, 192.0, 0.0, 0.0, 0.0, 0.0, 0.0, 0.0, 0.0, 0.0, 0.0, 1.695419785787457E9, 0.0, 2023-09-22 16:56:25.787
6.0, 21688.38938336246, 33459.28740016072, -52832.21487190901, -55987.811802364806, -37028.95039665108, -20885.447667294466, -187500.02235174447, -38356.5546103185, -9632.037238125473, 16986.431716255156, -50836.85229263929, -46840.13686658584, -21513.665796955323, -53245.07394374299, -53250.46071415672, -42870.91408621241, -0.004, 0.996, 0.20600000000000002, 192.0, 0.0, 0.0, 0.0, 0.0, 0.0, 0.0, 0.0, 0.0, 0.0, 1.69541978578746E9, 0.0, 2023-09-22 16:56:25.787
8.0, 21655.778188202166, 33429.7383939908, -52840.775590035395, -55972.88083706866, -37056.86772547576, -20869.13089384209, -187500.02235174447, -38351.90544747179, -9656.691212259677, 16958.223814752557, -50866.043670897925, -46871.09403265644, -21545.27116361513, -53271.761926622625, -53278.84742961496, -42899.43491213738, -0.004, 0.996, 0.20600000000000002, 192.0, 0.0, 0.0, 0.0, 0.0, 0.0, 0.0, 0.0, 0.0, 0.0, 1.695419785787463E9, 0.0, 2023-09-22 16:56:25.787
10.0, 21677.10175241253, 33450.9949029678, -52820.077874669776, -55974.870142325184, -37017.930986634616, -20867.119236841114, -187500.02235174447, -38337.68973799822, -9631.344334047359, 16979.659137685197, -50838.17104556216, -46844.92013989927, -21519.812526680533, -53243.73283907567, -53249.92427228979, -42869.125946655986, -0.004, 0.996, 0.20600000000000002, 192.0, 0.0, 0.0, 0.0, 0.0, 0.0, 0.0, 0.0, 0.0, 0.0, 1.695419785787466E9, 0.0, 2023-09-22 16:56:25.787
12.0, 21665.27767959567, 33439.260237128765, -52818.31208685781, -55957.86046479469, -37041.0426904014, -20847.047370320248, -187500.02235174447, -38328.12319137135, -9643.369572564314, 16971.858378870296, -50853.43728702513, -46860.90163718482, -21514.179887077797, -53258.01560378261, -53263.55883640752, -42882.58169681808, -0.002, 0.996, 0.2, 192.0, 127.5, 120.0, 15.5, 16.0, 3.0, 32.0, 0.0, 0.0, 0.0, 1.69541978578747E9, 0.0, 2023-09-22 16:56:25.787
14.0, 21676.587662290058, 33447.776251766234, -52808.969057675495, -55964.78950557584, -37015.15937032215, -20854.870480879603, -187500.02235174447, -38326.98325240413, -9619.453205997135, 16983.4589342426, -50827.64337392371, -46835.018317105576, -21492.789267634067, -53228.22072842369, -53238.279013428575, -42852.94328367034, -0.002, 0.996, 0.2, 192.0, 0.0, 0.0, 0.0, 0.0, 0.0, 0.0, 0.0, 0.0, 0.0, 1.695419785847608E9, 0.0, 2023-09-22 16:56:25.847
16.0, 21674.24072912225, 33449.6985017894, -52819.36261884721, -55960.341508429236, -37046.07183290384, -20852.16591980051, -187500.02235174447, -38333.129982129336, -9637.446360283657, 16985.425887754667, -50847.6034817223, -46853.14558185883, -21511.564732976527, -53244.87277804289, -53258.44028692726, -42872.255190879725, -0.002, 0.996, 0.2, 192.0, 0.0, 0.0, 0.0, 0.0, 0.0, 0.0, 0.0, 0.0, 0.0, 1.695419785847638E9, 0.0, 2023-09-22 16:56:25.847
18.0, 21676.744124501245, 33447.97741746633, -52800.363636060196, -55955.73704907144, -37010.577262708815, -20849.148434299044, -187500.02235174447, -38318.69075521121, -9619.028522852484, 16983.36952726478, -50830.77261814745, -46839.063982851985, -21496.186732791273, -53226.34318188944, -53241.65412684133, -42853.613836004, -0.002, 0.996, 0.2, 192.0, 0.0, 0.0, 0.0, 0.0, 0.0, 0.0, 0.0, 0.0, 0.0, 1.695419785847643E9, 0.0, 2023-09-22 16:56:25.847
20.0, 21681.77326700369, 33458.7956617827, -52820.279040369875, -55964.11895324218, -37042.47320204654, -20859.18436755948, -187500.02235174447, -38335.94630193071, -9635.635868982778, 16993.22664656957, -50849.458676512084, -46856.63245399386, -21516.12448884541, -53245.38686816536, -53255.28869095906, -42870.020016434195, -0.002, 0.996, 0.2, 192.0, 0.0, 0.0, 0.0, 0.0, 0.0, 0.0, 0.0, 0.0, 0.0, 1.695419785847646E9, 0.0, 2023-09-22 16:56:25.847
22.0, 21661.05319989362, 33435.25927487126, -52819.9661159475, -55975.63010163666, -37031.31968156334, -20868.527396741796, -187500.02235174447, -38337.466220553666, -9630.159691591227, 16978.094515573324, -50837.791065906415, -46845.88126491085, -21503.33929101697, -53234.32275465999, -53251.53359789057, -42859.9170279404, -0.002, 0.994, 0.2, 192.0, 127.5, 120.0, 15.5, 8.0, 3.0, 32.0, 0.0, 0.0, 0.0, 1.69541978584765E9, 0.0, 2023-09-22 16:56:25.847
24.0, 21688.277624640185, 33463.71304556287, -52821.93306945957, -55970.35508994521, -37048.91050444967, -20863.788826917273, -187500.02235174447, -38338.91908394326, -9651.460904057134, 16981.3578702638, -50864.79197320843, -46870.60229427842, -21530.161384363342, -53259.20024623874, -53273.81828711251, -42884.68276079688, -0.002, 0.994, 0.2, 192.0, 0.0, 0.0, 0.0, 0.0, 0.0, 0.0, 0.0, 0.0, 0.0, 1.695419785847654E9, 0.0, 2023-09-22 16:56:25.847
26.0, 21660.38264755996, 33435.058109171165, -52795.334493557755, -55950.37263040217, -37015.964033122546, -20843.98518132987, -187500.02235174447, -38316.120304598844, -9623.498871743544, 16978.87682662926, -50835.24296703851, -46843.7578491876, -21501.417040993816, -53229.472426113185, -53249.27607170059, -42857.39128081695, -0.002, 0.994, 0.2, 192.0, 0.0, 0.0, 0.0, 0.0, 0.0, 0.0, 0.0, 0.0, 0.0, 1.695419785847657E9, 0.0, 2023-09-22 16:56:25.847
28.0, 21693.932615987374, 33471.71497007787, -52813.72997924447, -55967.02468002137, -37039.36630956725, -20860.056085593234, -187500.02235174447, -38332.72765072914, -9628.706828201632, 17009.5657717664, -50844.80951366539, -46849.8598754239, -21501.841724138467, -53237.80962679501, -53251.60065312394, -42863.22508611978, -0.002, 0.994, 0.2, 192.0, 0.0, 0.0, 0.0, 0.0, 0.0, 0.0, 0.0, 0.0, 0.0, 1.695419785847661E9, 0.0, 2023-09-22 16:56:25.847
30.0, 21655.085284124052, 33426.85501895607, -52806.30920008531, -55961.57085437427, -37034.89596067619, -20853.484672723374, -187500.02235174447, -38325.30687156998, -9624.527051988489, 16981.13435281925, -50838.975708362545, -46847.69175621173, -21508.994282364165, -53231.52878660307, -53254.48402815867, -42858.17359187289, -0.002, 0.994, 0.2, 192.0, 0.0, 0.0, 0.0, 0.0, 0.0, 0.0, 0.0, 0.0, 0.0, 1.695419785908861E9, 0.0, 2023-09-22 16:56:25.908
32.0, 21694.178485176384, 33473.01137125628, -52825.241127638954, -55982.40268020662, -37055.28075161943, -20874.450609022453, -187500.02235174447, -38349.24558988161, -9651.304441845947, 16989.717422690086, -50864.12142087477, -46870.42348032278, -21533.715311731736, -53257.277996215584, -53277.439269714276, -42884.235725907776, -0.002, 0.998, 0.202, 192.0, 127.5, 120.0, 15.5, 24.0, 3.0, 40.0, 0.0, 0.0, 0.0, 1.695419785908873E9, 0.0, 2023-09-22 16:56:25.908
34.0, 21654.41473179039, 33432.130030647524, -52790.75238594442, -55944.114141954684, -37028.50336176197, -20838.88898359406, -187500.02235174447, -38312.78989467501, -9627.745703190054, 16975.658175427696, -50837.61225195078, -46850.530427757556, -21503.58516020598, -53229.24890866863, -53258.39558343835, -42855.558437771615, -0.002, 0.998, 0.202, 192.0, 0.0, 0.0, 0.0, 0.0, 0.0, 0.0, 0.0, 0.0, 0.0, 1.695419785908876E9, 0.0, 2023-09-22 16:56:25.908
36.0, 21703.879142269987, 33483.382580683545, -52802.35294131672, -55961.05676425181, -37031.476143774526, -20859.720809426406, -187500.02235174447, -38328.63728149382, -9623.498871743544, 17013.946713679637, -50834.88533912723, -46842.483799753645, -21502.512276472127, -53225.49381560014, -53247.95731877772, -42850.77516445818, -0.002, 0.998, 0.202, 192.0, 0.0, 0.0, 0.0, 0.0, 0.0, 0.0, 0.0, 0.0, 0.0, 1.695419785908879E9, 0.0, 2023-09-22 16:56:25.908
38.0, 21646.770435186678, 33424.53043753272, -52804.72222622898, -55954.373592659664, -37042.450850302084, -20852.59060294516, -187500.02235174447, -38322.73642095762, -9631.85842416983, 16976.17226555017, -50843.15548457569, -46852.72089871418, -21516.54917199006, -53232.84753952594, -53259.960205550226, -42859.93937968485, -0.002, 0.998, 0.202, 192.0, 0.0, 0.0, 0.0, 0.0, 0.0, 0.0, 0.0, 0.0, 0.0, 1.695419785908884E9, 0.0, 2023-09-22 16:56:25.908
40.0, 21696.95010148884, 33476.23002245784, -52814.86991821169, -55972.992595790936, -37038.248722344484, -20870.628460720596, -187500.02235174447, -38338.13677288732, -9644.844787698363, 16995.417117526187, -50859.49460977252, -46865.0143581646, -21517.7785179351, -53246.459751899216, -53268.83384809898, -42871.40582459042, -0.002, 0.998, 0.202, 192.0, 0.0, 0.0, 0.0, 0.0, 0.0, 0.0, 0.0, 0.0, 0.0, 1.695419785908888E9, 0.0, 2023-09-22 16:56:25.908
42.0, 21653.61006899, 33431.12420214703, -52789.455984766006, -55936.53690058433, -37024.3906407822, -20834.50804168082, -187500.02235174447, -38307.604289961375, -9624.370589777302, 16987.862227900296, -50838.19339730661, -46847.579997489454, -21504.367471261918, -53223.99624872163, -53252.40531592433, -42850.12696386898, -0.006, 0.996, 0.20600000000000002, 192.0, 127.5, 104.0, 15.5, 16.0, 3.0, 56.0, 0.0, 0.0, 0.0, 1.695419785908893E9, 0.0, 2023-09-22 16:56:25.908
44.0, 21700.10169745704, 33477.81699631417, -52811.181880376564, -55975.3618807032, -37030.0903356183, -20873.73535319988, -187500.02235174447, -38337.57797927594, -9619.967296119607, 17020.629885271774, -50834.32654551585, -46840.27097705257, -21500.00888109313, -53221.694019042734, -53242.41408615281, -42847.511809767704, -0.006, 0.996, 0.20600000000000002, 192.0, 0.0, 0.0, 0.0, 0.0, 0.0, 0.0, 0.0, 0.0, 0.0, 1.695419785969144E9, 0.0, 2023-09-22 16:56:25.969
46.0, 21646.94924914232, 33426.07270790014, -52801.615333749694, -55949.74678155742, -37044.86483870326, -20850.26602152181, -187500.02235174447, -38322.2446825796, -9639.100389373349, 16978.295681273423, -50851.69385095762, -46858.778221461565, -21512.54820973256, -53238.39077215085, -53265.749307364145, -42864.47678380928, -0.006, 0.996, 0.20600000000000002, 192.0, 0.0, 0.0, 0.0, 0.0, 0.0, 0.0, 0.0, 0.0, 0.0, 1.695419785969162E9, 0.0, 2023-09-22 16:56:25.969
48.0, 21697.218322422304, 33477.05703700269, -52797.994351147936, -55957.59224386123, -37017.930986634616, -20858.200890803444, -187500.02235174447, -38322.6470139798, -9627.455130512135, 17010.75041422253, -50840.249757796504, -46844.026070121065, -21497.952520603245, -53225.896147000334, -53248.85138855594, -42850.39518480244, -0.006, 0.996, 0.20600000000000002, 192.0, 0.0, 0.0, 0.0, 0.0, 0.0, 0.0, 0.0, 0.0, 0.0, 1.695419785969165E9, 0.0, 2023-09-22 16:56:25.969
50.0, 21651.218432333284, 33432.71117600336, -52799.89424942664, -55947.69042106753, -37041.266207845954, -20846.287411008765, -187500.02235174447, -38320.30008081199, -9630.986706136073, 16998.83693442785, -50838.551025217894, -46844.18253233225, -21506.088555584975, -53222.141053931846, -53252.20415022423, -42848.987024901755, -0.006, 0.996, 0.20600000000000002, 192.0, 0.0, 0.0, 0.0, 0.0, 0.0, 0.0, 0.0, 0.0, 0.0, 1.695419785969169E9, 0.0, 2023-09-22 16:56:25.969
52.0, 21691.116296186006, 33470.53032762174, -52801.79414770534, -55971.22680797897, -37024.345937293285, -20871.2766613098, -187500.02235174447, -38332.32531932894, -9623.968258377106, 17008.47053628809, -50835.913519372174, -46841.07563985296, -21496.365546746918, -53220.375266119874, -53245.52097863209, -42845.12017311098, -0.004, 0.99, 0.212, 192.0, 127.5, 112.0, 15.0, 120.0, 3.0, 80.0, 0.0, 0.0, 0.0, 1.695419785969172E9, 0.0, 2023-09-22 16:56:25.969
54.0, 21660.516758026693, 33440.0425481847, -52796.45208078052, -55948.02569723436, -37045.736556737014, -20851.897698867047, -187500.02235174447, -38324.1445808583, -9639.212148095627, 16988.845704656327, -50846.463542755075, -46853.257340581105, -21506.58029396299, -53233.786312793054, -53261.88245557338, -42857.301873839126, -0.004, 0.99, 0.212, 192.0, 0.0, 0.0, 0.0, 0.0, 0.0, 0.0, 0.0, 0.0, 0.0, 1.695419785969175E9, 0.0, 2023-09-22 16:56:25.969
56.0, 21691.228054908283, 33467.937525264926, -52796.56383950279, -55968.857523066705, -37024.68121346011, -20871.053143865247, -187500.02235174447, -38331.095973383904, -9625.354066533335, 17008.291722332444, -50830.43734198062, -46837.521712484566, -21497.192561291762, -53220.08469344195, -53244.60455710943, -42841.94622539833, -0.004, 0.99, 0.212, 192.0, 0.0, 0.0, 0.0, 0.0, 0.0, 0.0, 0.0, 0.0, 0.0, 1.695419785969178E9, 0.0, 2023-09-22 16:56:25.969
58.0, 21671.737333743255, 33450.07848144513, -52785.52207774187, -55940.71667679748, -37036.21471359905, -20843.582849929673, -187500.02235174447, -38313.43809526421, -9633.154825348238, 16995.79709718193, -50839.48979848502, -46850.57513124646, -21502.646386938857, -53229.69594355774, -53255.042821770054, -42852.67506273688, -0.004, 0.99, 0.212, 192.0, 0.0, 0.0, 0.0, 0.0, 0.0, 0.0, 0.0, 0.0, 0.0, 1.695419785969182E9, 0.0, 2023-09-22 16:56:25.969
60.0, 21690.311633385616, 33468.63042934304, -52775.57555145926, -55949.992650746426, -37009.32556501932, -20853.015286089812, -187500.02235174447, -38311.35938302986, -9611.317171015402, 17011.443318300644, -50819.1944145196, -46829.8550641364, -21486.709593142223, -53208.46178632519, -53231.17115869179, -42829.272786292175, -0.004, 0.99, 0.212, 192.0, 0.0, 0.0, 0.0, 0.0, 0.0, 0.0, 0.0, 0.0, 0.0, 1.695419786027988E9, 0.0, 2023-09-22 16:56:26.027
62.0, 21672.05025816563, 33456.56048733717, -52793.76987144588, -55954.3065374263, -37047.88232420472, -20859.072608837203, -187500.02235174447, -38325.10570586988, -9625.890508400264, 17007.196486854136, -50834.43830423812, -46845.12130559937, -21493.146895545353, -53225.44911211123, -53247.55498737752, -42846.55068475613, -0.004, 0.996, 0.20600000000000002, 192.0, 127.5, 112.0, 15.5, 16.0, 3.0, 56.0, 0.0, 0.0, 0.0, 1.695419786027998E9, 0.0, 2023-09-22 16:56:26.027
64.0, 21671.267947109696, 33453.25242915779, -52806.33155182977, -55980.59218890574, -37040.707414234574, -20884.195969604967, -187500.02235174447, -38340.5507612885, -9629.511491002022, 16988.711594189597, -50839.80272290739, -46850.7092417132, -21503.40634625034, -53230.925289502775, -53253.27703395808, -42853.63618774846, -0.004, 0.996, 0.20600000000000002, 192.0, 0.0, 0.0, 0.0, 0.0, 0.0, 0.0, 0.0, 0.0, 0.0, 1.695419786028002E9, 0.0, 2023-09-22 16:56:26.028
66.0, 21680.745086758743, 33465.79175779721, -52792.83109817876, -55953.479522881455, -37047.971731182544, -20859.251422792844, -187500.02235174447, -38325.75390645908, -9647.035258654983, 16983.749506920518, -50854.711336459084, -46866.64603550983, -21519.186677835783, -53248.85138855594, -53268.275054487596, -42869.394167589446, -0.004, 0.996, 0.20600000000000002, 192.0, 0.0, 0.0, 0.0, 0.0, 0.0, 0.0, 0.0, 0.0, 0.0, 1.695419786028005E9, 0.0, 2023-09-22 16:56:26.028
68.0, 21671.9161476989, 33450.50316458978, -52783.53277248535, -55960.766191573886, -37021.842541914295, -20866.895719396558, -187500.02235174447, -38321.90940641277, -9605.349255245836, 17001.340329806844, -50811.14778651569, -46825.563529200976, -21474.371430202893, -53206.539536302036, -53228.15367319032, -42825.51769322368, -0.004, 0.996, 0.20600000000000002, 192.0, 0.0, 0.0, 0.0, 0.0, 0.0, 0.0, 0.0, 0.0, 0.0, 1.695419786028009E9, 0.0, 2023-09-22 16:56:26.028
70.0, 21679.873368724988, 33466.1493857085, -52808.27615359738, -55968.74576434443, -37057.828850487334, -20873.020097377314, -187500.02235174447, -38337.175647875745, -9653.181988380193, 16984.17419006517, -50861.77448770696, -46873.68683501326, -21526.96508490623, -53253.45584791373, -53270.55493242204, -42870.91408621241, -0.004, 0.996, 0.20600000000000002, 192.0, 0.0, 0.0, 0.0, 0.0, 0.0, 0.0, 0.0, 0.0, 0.0, 1.695419786028012E9, 0.0, 2023-09-22 16:56:26.028
72.0, 21666.127045884972, 33448.200934910885, -52773.76506015838, -55942.68363030954, -37017.46160000105, -20847.919088354003, -187500.02235174447, -38306.39729576079, -9617.441548996158, 16986.588178466343, -50826.07875181184, -46841.567378230975, -21497.30432001404, -53216.64252479584, -53239.79893205153, -42832.37967877146, -0.004, 0.996, 0.212, 192.0, 127.5, 112.0, 15.5, 16.0, 3.0, 80.0, 0.0, 0.0, 0.0, 1.695419786028016E9, 0.0, 2023-09-22 16:56:26.028
74.0, 21695.47488635479, 33479.62748761505, -52783.3092550408, -55948.29391816782, -37034.31481532035, -20854.46814947941, -187500.02235174447, -38313.95218538668, -9618.42502575219, 17014.03612065746, -50829.565623946866, -46843.31081429849, -21484.943805330255, -53223.459806854706, -53237.094370972445, -42834.793667172635, -0.004, 0.996, 0.212, 192.0, 0.0, 0.0, 0.0, 0.0, 0.0, 0.0, 0.0, 0.0, 0.0, 1.695419786088344E9, 0.0, 2023-09-22 16:56:26.088
76.0, 21658.818025448087, 33444.62465579804, -52770.27818802335, -55942.21424367598, -37018.534483734904, -20849.014323832314, -187500.02235174447, -38304.43034224872, -9605.081034312372, 16996.847629171327, -50814.05351329488, -46830.12328506986, -21473.812636591512, -53208.68530376975, -53225.62792606687, -42818.633355931444, -0.004, 0.996, 0.212, 192.0, 0.0, 0.0, 0.0, 0.0, 0.0, 0.0, 0.0, 0.0, 0.0, 1.695419786088357E9, 0.0, 2023-09-22 16:56:26.088
78.0, 21695.005499721232, 33483.024952772255, -52789.187763832546, -55959.82741830676, -37042.741422980005, -20868.21447231942, -187500.02235174447, -38328.68198498273, -9637.893395172763, 17004.715443219597, -50845.23419681004, -46856.56539876049, -21505.84268639597, -53241.430609396775, -53251.08656300147, -42849.054080135116, -0.004, 0.996, 0.212, 192.0, 0.0, 0.0, 0.0, 0.0, 0.0, 0.0, 0.0, 0.0, 0.0, 1.69541978608836E9, 0.0, 2023-09-22 16:56:26.088
80.0, 21659.354467315017, 33444.26702788675, -52762.276263508356, -55936.581604073246, -37017.97569012352, -20845.21452727491, -187500.02235174447, -38300.898766624785, -9606.131566301772, 16998.680472216663, -50810.3431237153, -46825.22825303415, -21475.77959010358, -53204.4608240677, -53223.459806854706, -42815.638222174435, -0.004, 0.996, 0.212, 192.0, 0.0, 0.0, 0.0, 0.0, 0.0, 0.0, 0.0, 0.0, 0.0, 1.695419786088364E9, 0.0, 2023-09-22 16:56:26.088
82.0, 21701.643967824457, 33490.17751099796, -52783.26455155189, -55958.39690666162, -37032.95135890858, -20868.37093453061, -187500.02235174447, -38323.31756631345, -9628.95269739064, 17014.08082414637, -50838.975708362545, -46850.373965546365, -21506.557942218536, -53232.06522847, -53243.75519082013, -42843.82377193258, -0.008, 0.986, 0.212, 192.0, 127.5, 96.0, 15.0, 104.0, 3.0, 80.0, 0.0, 0.0, 0.0, 1.695419786088367E9, 0.0, 2023-09-22 16:56:26.088
84.0, 21649.206775332306, 33439.684920273416, -52768.60180718921, -55943.53299659884, -37027.96691989504, -20851.60712618913, -187500.02235174447, -38303.96095561516, -9610.892487870751, 16996.37824253777, -50817.40627496318, -46835.04066885003, -21483.133314029375, -53210.585202048445, -53227.997210979134, -42822.969594355774, -0.008, 0.986, 0.212, 192.0, 0.0, 0.0, 0.0, 0.0, 0.0, 0.0, 0.0, 0.0, 0.0, 1.69541978608837E9, 0.0, 2023-09-22 16:56:26.088
86.0, 21690.53515083017, 33485.66245861798, -52797.97199940348, -55975.69715687003, -37049.62576027224, -20882.541940515275, -187500.02235174447, -38333.37585131834, -9646.945851677163, 16999.351024550324, -50856.27595857096, -46868.85885821091, -21506.937921874276, -53246.48210364367, -53256.58509213747, -42854.53025752667, -0.008, 0.986, 0.212, 192.0, 0.0, 0.0, 0.0, 0.0, 0.0, 0.0, 0.0, 0.0, 0.0, 1.695419786088373E9, 0.0, 2023-09-22 16:56:26.088
88.0, 21644.57996423006, 33436.734490005314, -52766.34428099922, -55940.24729016391, -37034.15835310917, -20845.281582508276, -187500.02235174447, -38300.87641488033, -9624.728217688587, 16987.146972077724, -50832.851330381796, -46850.35161380191, -21493.906854856832, -53221.9622399762, -53240.782408807565, -42831.59736771553, -0.008, 0.986, 0.212, 192.0, 0.0, 0.0, 0.0, 0.0, 0.0, 0.0, 0.0, 0.0, 0.0, 1.695419786088376E9, 0.0, 2023-09-22 16:56:26.088
90.0, 21696.167790432908, 33491.697429620915, -52773.13921131363, -55958.106333983706, -37028.257492572964, -20863.90058563955, -187500.02235174447, -38315.82973192093, -9632.148996847749, 17015.734853236063, -50839.333336273834, -46853.19028534774, -21496.499657213648, -53225.31500164449, -53238.8154552955, -42837.25235906272, -0.008, 0.986, 0.212, 192.0, 0.0, 0.0, 0.0, 0.0, 0.0, 0.0, 0.0, 0.0, 0.0, 1.695419786148504E9, 0.0, 2023-09-22 16:56:26.148
92.0, 21638.23206880475, 33436.42156558294, -52766.00900483239, -55941.58839483123, -37036.50528627697, -20849.148434299044, -187500.02235174447, -38301.524615469534, -9626.33754328937, 16997.69699546063, -50830.035010580425, -46849.055212623505, -21487.134276286874, -53212.84272823844, -53232.62402208138, -42827.14937056892, -0.008, 0.99, 0.212, 192.0, 127.5, 96.0, 15.0, 120.0, 3.0, 80.0, 0.0, 0.0, 0.0, 1.69541978614852E9, 0.0, 2023-09-22 16:56:26.148
94.0, 21687.741182773254, 33485.70716210689, -52772.28984502433, -55961.30263344081, -37027.38577453921, -20869.376763031098, -187500.02235174447, -38313.549853986486, -9635.099427115849, 17012.18092586767, -50841.52380723046, -46859.73934647314, -21497.5725409475, -53224.82326326648, -53236.803798294524, -42836.22417881777, -0.008, 0.99, 0.212, 192.0, 0.0, 0.0, 0.0, 0.0, 0.0, 0.0, 0.0, 0.0, 0.0, 1.695419786148523E9, 0.0, 2023-09-22 16:56:26.148
96.0, 21636.198060059316, 33432.08532715861, -52776.78254565985, -55952.361935658686, -37054.4984405635, -20863.118274583612, -187500.02235174447, -38312.499321997086, -9647.281127843991, 16983.79421040943, -50850.08452535683, -46870.155259389314, -21521.958294148244, -53235.08271397147, -53252.2712054576, -42847.08712662305, -0.008, 0.99, 0.212, 192.0, 0.0, 0.0, 0.0, 0.0, 0.0, 0.0, 0.0, 0.0, 0.0, 1.695419786148527E9, 0.0, 2023-09-22 16:56:26.148
98.0, 21687.227092650784, 33480.14157773752, -52768.132420555645, -55960.52032238487, -37029.33037630682, -20873.668297966517, -187500.02235174447, -38314.62273772034, -9628.371552034801, 17008.783460710463, -50835.131208316234, -46856.56539876049, -21501.215875293718, -53224.75620803311, -53235.59680409394, -42832.692603193835, -0.008, 0.99, 0.212, 192.0, 0.0, 0.0, 0.0, 0.0, 0.0, 0.0, 0.0, 0.0, 0.0, 1.69541978614853E9, 0.0, 2023-09-22 16:56:26.148
100.0, 21642.52360374017, 33437.60620803907, -52770.2558362789, -55947.198682689515, -37056.66655977566, -20863.02886760579, -187500.02235174447, -38310.264147551556, -9644.017773153517, 16986.677585444162, -50845.12243808776, -46867.920084943784, -21502.467572983216, -53236.02148723859, -53248.87374030039, -42841.856818420514, -0.008, 0.99, 0.212, 192.0, 0.0, 0.0, 0.0, 0.0, 0.0, 0.0, 0.0, 0.0, 0.0, 1.695419786148533E9, 0.0, 2023-09-22 16:56:26.148
102.0, 21680.7674385032, 33476.945278280415, -52769.607635689696, -55965.75063058742, -37035.611216498764, -20880.1279521141, -187500.02235174447, -38318.2437203221, -9636.976973650095, 17004.000187397025, -50837.098161828304, -46858.53235227256, -21493.750392645645, -53228.980687735166, -53239.173083206784, -42834.90542589491, -0.008, 0.994, 0.20800000000000002, 192.0, 127.5, 96.0, 15.5, 8.0, 3.0, 64.0, 0.0, 0.0, 0.0, 1.695419786148536E9, 0.0, 2023-09-22 16:56:26.148
104.0, 21645.98812413074, 33444.11056567557, -52776.648435193114, -55956.72052582748, -37064.95905696858, -20870.09201885367, -187500.02235174447, -38320.38948778981, -9655.305404103447, 16978.78741965144, -50855.51599925948, -46878.67127402679, -21519.052567369054, -53248.65022285584, -53259.75903985013, -42851.42336504738, -0.008, 0.994, 0.20800000000000002, 192.0, 0.0, 0.0, 0.0, 0.0, 0.0, 0.0, 0.0, 0.0, 0.0, 1.695419786208977E9, 0.0, 2023-09-22 16:56:26.208
106.0, 21683.516703071204, 33473.41370265647, -52750.98863255842, -55948.18215944555, -37016.74634417848, -20861.08426583818, -187500.02235174447, -38302.28457478101, -9625.37641827779, 17002.88260017426, -50826.10110355629, -46852.22916033616, -21491.64932866685, -53217.26837364059, -53229.58418483546, -42821.516730966185, -0.008, 0.994, 0.20800000000000002, 192.0, 0.0, 0.0, 0.0, 0.0, 0.0, 0.0, 0.0, 0.0, 0.0, 1.695419786208989E9, 0.0, 2023-09-22 16:56:26.208
108.0, 21659.399170803925, 33451.710158790374, -52760.62223441866, -55944.71763905497, -37047.278827104434, -20858.2232425479, -187500.02235174447, -38305.95026087168, -9630.71848520261, 17007.576466509876, -50833.186606548625, -46858.39824180582, -21498.377203747896, -53225.02442896658, -53235.19447269374, -42829.831579903555, -0.008, 0.994, 0.20800000000000002, 192.0, 0.0, 0.0, 0.0, 0.0, 0.0, 0.0, 0.0, 0.0, 0.0, 1.695419786208994E9, 0.0, 2023-09-22 16:56:26.208
110.0, 21671.603223276525, 33465.92586826395, -52762.94681584201, -55961.36968867418, -37033.018414141945, -20877.065763123723, -187500.02235174447, -38314.51097899806, -9636.105255616338, 16996.73587044905, -50836.137036816726, -46860.588712762445, -21499.40538399284, -53227.214899923194, -53236.5132256166, -42831.41855375988, -0.008, 0.994, 0.20800000000000002, 192.0, 0.0, 0.0, 0.0, 0.0, 0.0, 0.0, 0.0, 0.0, 0.0, 1.695419786208998E9, 0.0, 2023-09-22 16:56:26.208
112.0, 21669.43510406436, 33470.016237499265, -52767.03718507734, -55948.6068425902, -37060.89103947771, -20867.208643818933, -187500.02235174447, -38317.77433368854, -9646.722334232609, 16996.087669859848, -50849.27986255645, -46871.51871580109, -21517.622055723914, -53239.70952507371, -53252.42766766878, -42844.80724868861, -0.006, 0.994, 0.20400000000000001, 192.0, 127.5, 104.0, 15.5, 8.0, 3.0, 48.0, 0.0, 0.0, 0.0, 1.695419786209013E9, 0.0, 2023-09-22 16:56:26.209
114.0, 21675.403019833928, 33475.403007912995, -52746.808856345284, -55942.97420298746, -37028.45865827306, -20863.140626328066, -187500.02235174447, -38306.33024052742, -9623.789444421463, 17004.98366415306, -50822.3460104878, -46846.61887247788, -21489.436505965772, -53209.28880087004, -53229.13714994636, -42820.868530376974, -0.006, 0.994, 0.20400000000000001, 192.0, 0.0, 0.0, 0.0, 0.0, 0.0, 0.0, 0.0, 0.0, 0.0, 1.695419786209017E9, 0.0, 2023-09-22 16:56:26.209
116.0, 21677.86171172401, 33480.7003713489, -52766.746612399416, -55946.23755767794, -37067.082472691836, -20867.678030452495, -187500.02235174447, -38321.26120582357, -9644.844787698363, 17010.593952011342, -50845.99415612152, -46867.74127098814, -21511.16240157633, -53229.78535053556, -53252.69588860225, -42843.533199254656, -0.006, 0.994, 0.20400000000000001, 192.0, 0.0, 0.0, 0.0, 0.0, 0.0, 0.0, 0.0, 0.0, 0.0, 1.69541978620902E9, 0.0, 2023-09-22 16:56:26.209
118.0, 21664.607127262014, 33462.9977897403, -52749.71458312447, -55943.71181055449, -37034.359518809266, -20861.88892863857, -187500.02235174447, -38303.759789915064, -9622.314229287414, 17007.777632209974, -50824.20120527759, -46847.62470097837, -21492.0740118115, -53203.320885100475, -53232.08758021445, -42817.62752743096, -0.006, 0.994, 0.20400000000000001, 192.0, 0.0, 0.0, 0.0, 0.0, 0.0, 0.0, 0.0, 0.0, 0.0, 1.695419786209024E9, 0.0, 2023-09-22 16:56:26.209
120.0, 21676.297089612137, 33476.20767071339, -52769.89820836762, -55955.98291826045, -37064.37791161274, -20875.143513100567, -187500.02235174447, -38317.72963019963, -9655.215997125626, 17002.144992607235, -50860.14281036172, -46881.88992522835, -21527.54623026207, -53241.05062974103, -53260.653109628336, -42850.48459178026, -0.006, 0.994, 0.20400000000000001, 192.0, 0.0, 0.0, 0.0, 0.0, 0.0, 0.0, 0.0, 0.0, 0.0, 1.695419786269195E9, 0.0, 2023-09-22 16:56:26.269
122.0, 21656.09111262454, 33452.537173335215, -52737.085847507224, -55935.441665106024, -37025.99996638298, -20855.0716465797, -187500.02235174447, -38288.47119670763, -9625.085845599871, 16994.299530303422, -50827.598670434796, -46854.441983037235, -21495.694994413258, -53212.52980381606, -53231.88641451436, -42818.18632104234, -0.008, 0.998, 0.20600000000000002, 192.0, 127.5, 96.0, 15.5, 24.0, 3.0, 56.0, 0.0, 0.0, 0.0, 1.695419786269215E9, 0.0, 2023-09-22 16:56:26.269
124.0, 21691.540979330657, 33490.512787164786, -52737.86815856316, -55930.59133655922, -37031.051460629875, -20848.723751154394, -187500.02235174447, -38287.688885651696, -9633.512453259524, 17015.93601893616, -50837.2993275284, -46861.572189518476, -21496.857285124934, -53226.454940611715, -53234.72508606018, -42828.9598618698, -0.008, 0.998, 0.20600000000000002, 192.0, 0.0, 0.0, 0.0, 0.0, 0.0, 0.0, 0.0, 0.0, 0.0, 1.695419786269218E9, 0.0, 2023-09-22 16:56:26.269
126.0, 21658.77332195918, 33453.49829834679, -52724.05478048978, -55921.337714354726, -37015.56170172235, -20837.525527182286, -187500.02235174447, -38271.729740110604, -9605.393958734747, 17013.767899723996, -50800.82128057734, -46829.966822858674, -21471.28688946806, -53187.317036070475, -53204.75139674561, -42793.264125974674, -0.008, 0.998, 0.20600000000000002, 192.0, 0.0, 0.0, 0.0, 0.0, 0.0, 0.0, 0.0, 0.0, 0.0, 1.695419786269221E9, 0.0, 2023-09-22 16:56:26.269
128.0, 21694.91609274341, 33495.36311571159, -52744.43957143302, -55945.11997045517, -37038.91927467815, -20860.65958269353, -187500.02235174447, -38298.06009507896, -9633.244232326058, 17020.98751318306, -50832.828978637335, -46860.387547062346, -21494.30918625703, -53220.934059731255, -53229.87475751338, -42824.176588556365, -0.008, 0.998, 0.20600000000000002, 192.0, 0.0, 0.0, 0.0, 0.0, 0.0, 0.0, 0.0, 0.0, 0.0, 1.695419786269224E9, 0.0, 2023-09-22 16:56:26.269
130.0, 21653.319496312084, 33453.34183613561, -52724.032428745326, -55922.94703995551, -37020.434382013606, -20838.084320793667, -187500.02235174447, -38274.76957735653, -9620.369627519802, 16996.73587044905, -50817.450978452085, -46849.345785301426, -21488.073049553997, -53208.282972369554, -53222.20810916521, -42811.23492851674, -0.008, 0.998, 0.20600000000000002, 192.0, 0.0, 0.0, 0.0, 0.0, 0.0, 0.0, 0.0, 0.0, 0.0, 1.695419786269227E9, 0.0, 2023-09-22 16:56:26.269
132.0, 21700.794601535155, 33499.74405762483, -52741.06445802027, -55945.2540809219, -37029.308024562364, -20860.36901001561, -187500.02235174447, -38294.6402781773, -9623.744740932554, 17022.84270797285, -50826.03404832292, -46854.33022431496, -21494.264482768118, -53214.496757328125, -53220.57643181997, -42818.34278325353, -0.004, 0.996, 0.20800000000000002, 192.0, 127.5, 112.0, 15.5, 16.0, 3.0, 64.0, 0.0, 0.0, 0.0, 1.695419786269231E9, 0.0, 2023-09-22 16:56:26.269
134.0, 21658.393342303436, 33454.213554169364, -52711.87307976164, -55909.17836537104, -37009.0349923414, -20824.248590975832, -187500.02235174447, -38261.98437952809, -9610.736025659566, 17001.563847251397, -50810.41017894867, -46843.22140732067, -21478.73002037168, -53198.358797831395, -53215.14495791733, -42806.51871043667, -0.004, 0.996, 0.20800000000000002, 192.0, 0.0, 0.0, 0.0, 0.0, 0.0, 0.0, 0.0, 0.0, 0.0, 1.695419786328654E9, 0.0, 2023-09-22 16:56:26.328
136.0, 21704.415584136914, 33502.448618703915, -52735.78944632882, -55943.130665198645, -37021.70843144756, -20860.03373384878, -187500.02235174447, -38293.63444967681, -9608.925534358685, 17034.59972555634, -50814.00880980597, -46844.54016024353, -21480.987546561664, -53202.113890899884, -53210.42873983726, -42807.85981510399, -0.004, 0.996, 0.20800000000000002, 192.0, 0.0, 0.0, 0.0, 0.0, 0.0, 0.0, 0.0, 0.0, 0.0, 1.695419786328668E9, 0.0, 2023-09-22 16:56:26.328
138.0, 21658.70626672581, 33457.923943748945, -52715.73993155241, -55911.77116772785, -37019.3391465353, -20828.60718114462, -187500.02235174447, -38266.96881854162, -9616.592182706856, 17003.79902169693, -50811.68422838262, -46847.26707306708, -21477.88065408238, -53200.07988215445, -53217.5589463185, -42805.66934414737, -0.004, 0.996, 0.20800000000000002, 192.0, 0.0, 0.0, 0.0, 0.0, 0.0, 0.0, 0.0, 0.0, 0.0, 1.695419786328672E9, 0.0, 2023-09-22 16:56:26.328
140.0, 21706.270778926704, 33505.66726990548, -52743.72431561045, -55951.69138332503, -37031.476143774526, -20868.03565836378, -187500.02235174447, -38302.61985094784, -9624.281182799481, 17029.391769098256, -50820.42376046464, -46852.56443650299, -21487.827180364988, -53209.758187503605, -53219.54825157503, -42813.246585517714, -0.004, 0.996, 0.20800000000000002, 192.0, 0.0, 0.0, 0.0, 0.0, 0.0, 0.0, 0.0, 0.0, 0.0, 1.695419786328676E9, 0.0, 2023-09-22 16:56:26.328
142.0, 21658.549804514623, 33456.0463972147, -52723.71950432295, -55915.12392939615, -37030.492667018494, -20832.094053279645, -187500.02235174447, -38277.00475180206, -9621.442511253657, 17001.87677167377, -50816.333391229324, -46855.15723885981, -21486.396668719848, -53207.098329913424, -53224.845615010934, -42812.33016399505, -0.002, 0.988, 0.2, 192.0, 127.5, 120.0, 15.0, 112.0, 3.0, 32.0, 0.0, 0.0, 0.0, 1.695419786328679E9, 0.0, 2023-09-22 16:56:26.328
144.0, 21708.52830511669, 33503.81207511569, -52738.002269029894, -55944.807046032794, -37027.1399053502, -20863.386495517076, -187500.02235174447, -38300.02704859103, -9609.730197159077, 17031.64929528824, -50809.18083300362, -46844.875436410366, -21479.28881398306, -53199.699902498716, -53213.602687549916, -42804.9540883248, -0.002, 0.988, 0.2, 192.0, 0.0, 0.0, 0.0, 0.0, 0.0, 0.0, 0.0, 0.0, 0.0, 1.695419786328682E9, 0.0, 2023-09-22 16:56:26.328
146.0, 21659.37681905947, 33455.15232743649, -52731.38615267112, -55920.3989410876, -37039.90275143418, -20841.50413769533, -187500.02235174447, -38284.71610363914, -9629.19856657965, 16993.383108780756, -50825.16233028917, -46862.98034941916, -21495.58323569098, -53214.94379221724, -53234.836844782454, -42817.582823942044, -0.002, 0.988, 0.2, 192.0, 0.0, 0.0, 0.0, 0.0, 0.0, 0.0, 0.0, 0.0, 0.0, 1.695419786328686E9, 0.0, 2023-09-22 16:56:26.328
148.0, 21699.900531756943, 33497.48653143484, -52732.81666431626, -55943.063609965284, -37020.09910584678, -20864.593489717663, -187500.02235174447, -38298.52948171252, -9614.021732094496, 17024.27321961799, -50811.01367604896, -46845.81420967748, -21487.022517564597, -53201.28687635504, -53214.921440472775, -42803.389466212924, -0.002, 0.988, 0.2, 192.0, 0.0, 0.0, 0.0, 0.0, 0.0, 0.0, 0.0, 0.0, 0.0, 1.695419786328689E9, 0.0, 2023-09-22 16:56:26.328
150.0, 21657.320458569582, 33456.76165303727, -52728.43572240302, -55921.82945273274, -37041.66853924615, -20843.13581504057, -187500.02235174447, -38284.3361239834, -9632.19370033666, 16998.680472216663, -50825.16233028917, -46862.17568661877, -21499.6736049263, -53214.38499860585, -53233.98747849315, -42819.080390820556, -0.002, 0.988, 0.2, 192.0, 0.0, 0.0, 0.0, 0.0, 0.0, 0.0, 0.0, 0.0, 0.0, 1.695419786388419E9, 0.0, 2023-09-22 16:56:26.388
152.0, 21690.33398513007, 33487.785874341236, -52726.58052761323, -55937.78859827383, -37014.9358528776, -20857.79855940325, -187500.02235174447, -38288.1359205408, -9626.80692992293, 17012.27033284549, -50818.41210346366, -46854.97842490416, -21489.905892599334, -53203.8573269674, -53220.62113530888, -42805.021143558166, -0.002, 0.988, 0.2, 192.0, 0.0, 0.0, 15.5, 8.0, 3.0, 56.0, 0.0, 0.0, 0.0, 1.695419786388429E9, 0.0, 2023-09-22 16:56:26.388
154.0, 21666.52937728517, 33463.82480428515, -52720.70201882148, -55916.845013719205, -37034.60538799827, -20838.84428010515, -187500.02235174447, -38276.423606446224, -9625.354066533335, 17007.978797910073, -50821.67545815414, -46858.80057320602, -21486.48607569767, -53204.505527556605, -53226.23142316716, -42808.46331220428, -0.002, 0.988, 0.2, 192.0, 0.0, 0.0, 0.0, 0.0, 0.0, 0.0, 0.0, 0.0, 0.0, 1.695419786388433E9, 0.0, 2023-09-22 16:56:26.388
156.0, 21685.707174027822, 33480.946240537916, -52727.27343169134, -55943.39888613211, -37020.792009924895, -20865.018172862314, -187500.02235174447, -38290.01346707505, -9614.692284428154, 17016.360702080812, -50814.321734228346, -46847.78116318955, -21476.62895639288, -53195.94480943022, -53218.38596086335, -42800.64020164492, -0.002, 0.988, 0.2, 192.0, 0.0, 0.0, 0.0, 0.0, 0.0, 0.0, 0.0, 0.0, 0.0, 1.695419786388436E9, 0.0, 2023-09-22 16:56:26.388
158.0, 21665.367086573493, 33464.33889440762, -52747.21118774548, -55946.97516524496, -37058.65586503218, -20868.482693252885, -187500.02235174447, -38302.977478859124, -9642.14022661927, 17000.22274258408, -50844.47423749855, -46872.21161987921, -21504.993320106667, -53223.63862081035, -53245.65508909882, -42833.02787936066, -0.002, 0.988, 0.2, 192.0, 0.0, 0.0, 0.0, 0.0, 0.0, 0.0, 0.0, 0.0, 0.0, 1.69541978638844E9, 0.0, 2023-09-22 16:56:26.388
160.0, 21672.47494131028, 33469.56920261016, -52750.56394941377, -55963.11312474169, -37040.72976597903, -20882.586644004186, -187500.02235174447, -38307.22431030563, -9642.229633597093, 16991.259693057502, -50845.3012520434, -46866.19900062073, -21515.409233022838, -53223.07982719896, -53247.286766444064, -42837.07354510707, -0.002, 0.988, 0.2, 192.0, 0.0, 0.0, 0.0, 0.0, 0.0, 0.0, 0.0, 0.0, 0.0, 1.695419786388443E9, 0.0, 2023-09-22 16:56:26.388
162.0, 21676.85588322352, 33476.96763002487, -52739.83511207523, -55930.613688303674, -37041.825001457335, -20847.203832531435, -187500.02235174447, -38280.826900103915, -9647.81756971092, 16994.634806470254, -50854.13019110325, -46868.836506466454, -21509.35191027545, -53230.8135307805, -53254.081696758476, -42846.37187080048, -0.008, 0.994, 0.21, 192.0, 127.5, 96.0, 15.5, 8.0, 3.0, 72.0, 0.0, 0.0, 0.0, 1.695419786388447E9, 0.0, 2023-09-22 16:56:26.388
164.0, 21682.15324665943, 33475.09008349062, -52724.21124270097, -55924.26579287837, -37004.765809150435, -20836.98908531536, -187500.02235174447, -38261.64910336126, -9600.342464487847, 17021.479251561075, -50809.002019047985, -46819.86383436488, -21466.816540577, -53184.83599243593, -53212.44039683824, -42804.730570880245, -0.008, 0.994, 0.21, 192.0, 0.0, 0.0, 0.0, 0.0, 0.0, 0.0, 0.0, 0.0, 0.0, 1.69541978644872E9, 0.0, 2023-09-22 16:56:26.448
166.0, 21681.080362925575, 33480.901537049, -52769.808801389794, -55952.138418214134, -37054.207867885576, -20864.437027506476, -187500.02235174447, -38293.567394443446, -9636.418180038712, 17021.27808586098, -50840.27210954096, -46843.31081429849, -21495.82910487999, -53218.54242307454, -53241.52001637459, -42841.27567306467, -0.008, 0.994, 0.21, 192.0, 0.0, 0.0, 0.0, 0.0, 0.0, 0.0, 0.0, 0.0, 0.0, 1.69541978644873E9, 0.0, 2023-09-22 16:56:26.448
168.0, 21674.263080866705, 33467.80341479819, -52744.797199344306, -55933.631173805144, -37012.83478889881, -20847.181480786978, -187500.02235174447, -38271.6850366217, -9618.00034260754, 17004.916608919695, -50816.758074373975, -46822.277822766046, -21484.58617741897, -53205.19843163472, -53226.29847840053, -42829.42924850336, -0.008, 0.994, 0.21, 192.0, 0.0, 0.0, 0.0, 0.0, 0.0, 0.0, 0.0, 0.0, 0.0, 1.695419786448733E9, 0.0, 2023-09-22 16:56:26.448
170.0, 21699.542903845657, 33495.117246522575, -52757.090658794725, -55932.02184820436, -37027.67634721713, -20843.78401562977, -187500.02235174447, -38276.11068202385, -9619.006171108029, 17025.636676029764, -50818.16623427466, -46820.86966286536, -21491.49286645566, -53214.854385239414, -53225.694981300236, -42838.772277685675, -0.008, 0.994, 0.21, 192.0, 0.0, 0.0, 0.0, 0.0, 0.0, 0.0, 0.0, 0.0, 0.0, 1.695419786448737E9, 0.0, 2023-09-22 16:56:26.448
172.0, 21672.51964479919, 33469.14451946551, -52749.58047265774, -55929.00436270289, -37010.19728305308, -20839.961867327915, -187500.02235174447, -38267.70642610865, -9590.932380072163, 17023.602667284333, -50782.291684423886, -46790.91832529525, -21460.736866085157, -53184.031329635545, -53200.81748972148, -42810.676134905356, -0.008, 0.998, 0.20800000000000002, 192.0, 127.5, 96.0, 15.5, 24.0, 3.0, 64.0, 0.0, 0.0, 0.0, 1.69541978644874E9, 0.0, 2023-09-22 16:56:26.448
174.0, 21700.593435835057, 33501.062810547686, -52778.03424334935, -55948.29391816782, -37041.73559447951, -20857.060951836225, -187500.02235174447, -38292.60626943186, -9629.042104368462, 17020.696940505142, -50817.518033685454, -46824.22242453366, -21489.21298852122, -53225.829091766966, -53234.367458148896, -42849.47876327977, -0.008, 0.998, 0.20800000000000002, 192.0, 0.0, 0.0, 0.0, 0.0, 0.0, 0.0, 0.0, 0.0, 0.0, 1.695419786448745E9, 0.0, 2023-09-22 16:56:26.448
176.0, 21671.178540131874, 33464.651818829996, -52751.43566744753, -55920.24247887641, -37013.81826565484, -20827.847221833137, -187500.02235174447, -38262.923152795214, -9607.651484924732, 17004.402518797222, -50787.92432402663, -46801.445996933704, -21477.88065408238, -53199.49873679862, -53216.24019339564, -42825.27182403467, -0.008, 0.998, 0.20800000000000002, 192.0, 0.0, 0.0, 0.0, 0.0, 0.0, 0.0, 0.0, 0.0, 0.0, 1.695419786448749E9, 0.0, 2023-09-22 16:56:26.448
178.0, 21714.898552286453, 33509.46706646289, -52762.477429208455, -55929.451397592, -37023.94360589309, -20838.39724521604, -187500.02235174447, -38274.05432153396, -9613.03825533846, 17038.198356413646, -50794.942771785594, -46806.74336036961, -21474.97492730319, -53209.37820784786, -53219.03416145255, -42837.05119336262, -0.008, 0.998, 0.20800000000000002, 192.0, 0.0, 0.0, 0.0, 0.0, 0.0, 0.0, 0.0, 0.0, 0.0, 1.695419786448752E9, 0.0, 2023-09-22 16:56:26.448
180.0, 21668.228109863772, 33459.35445539409, -52751.234501747436, -55913.22403111745, -37014.82409415532, -20822.281637463766, -187500.02235174447, -38256.30703643645, -9592.876981839774, 17020.115795149304, -50774.468573864535, -46790.65010436179, -21461.20625271872, -53188.568733759974, -53204.661989767796, -42818.231024531255, -0.008, 0.998, 0.20800000000000002, 192.0, 0.0, 0.0, 0.0, 0.0, 0.0, 0.0, 0.0, 0.0, 0.0, 1.6954197865089E9, 0.0, 2023-09-22 16:56:26.508
182.0, 21713.19981970785, 33504.840255360636, -52779.71062418349, -55948.226862934454, -37034.47127753154, -20858.156187314533, -187500.02235174447, -38287.84534786289, -9614.491118728056, 17036.05258894594, -50797.58027763132, -46809.17970051524, -21476.785418604068, -53209.17704214776, -53218.76594051909, -42838.012318374196, -0.008, 0.994, 0.20800000000000002, 192.0, 127.5, 96.0, 15.5, 8.0, 3.0, 64.0, 0.0, 0.0, 0.0, 1.69541978650891E9, 0.0, 2023-09-22 16:56:26.508
184.0, 21663.824816206077, 33451.46428960136, -52765.338452498734, -55925.62924929014, -37029.442135029094, -20835.73738762586, -187500.02235174447, -38266.90176330826, -9621.822490909397, 16996.288835559946, -50801.58123988882, -46817.092218052414, -21486.24020650866, -53212.39569334933, -53228.287783657055, -42840.314548053095, -0.008, 0.994, 0.20800000000000002, 192.0, 0.0, 0.0, 0.0, 0.0, 0.0, 0.0, 0.0, 0.0, 0.0, 1.695419786508913E9, 0.0, 2023-09-22 16:56:26.508
186.0, 21717.223133709806, 33506.18136002796, -52775.15086831461, -55941.96837448697, -37023.42951577062, -20854.714018668416, -187500.02235174447, -38282.34681872688, -9621.688380442665, 17031.157556910224, -50802.832937578314, -46813.203014517196, -21489.861189110423, -53214.27323988357, -53222.45397835421, -42839.08520210805, -0.008, 0.994, 0.20800000000000002, 192.0, 0.0, 0.0, 0.0, 0.0, 0.0, 0.0, 0.0, 0.0, 0.0, 1.695419786508917E9, 0.0, 2023-09-22 16:56:26.508
188.0, 21668.719848241788, 33460.06971121665, -52750.49689418041, -55905.803251958285, -37017.908634890155, -20820.69466360744, -187500.02235174447, -38253.26719919052, -9610.400749492735, 17017.99237942605, -50787.3878821597, -46798.987305043614, -21477.38891570436, -53199.05170190951, -53216.84369049594, -42824.578919956555, -0.008, 0.994, 0.20800000000000002, 192.0, 0.0, 0.0, 0.0, 0.0, 0.0, 0.0, 0.0, 0.0, 0.0, 1.69541978650892E9, 0.0, 2023-09-22 16:56:26.508
190.0, 21716.641988353967, 33508.08125830666, -52766.83601937724, -55935.531072083846, -37017.97569012352, -20849.79663488825, -187500.02235174447, -38277.87646983581, -9613.351179760835, 17043.696885549653, -50791.47825139502, -46797.78031084303, -21474.058505780522, -53201.66685601078, -53212.9097834718, -42822.99194610023, -0.008, 0.994, 0.20800000000000002, 192.0, 0.0, 0.0, 0.0, 0.0, 0.0, 0.0, 0.0, 0.0, 0.0, 1.695419786508923E9, 0.0, 2023-09-22 16:56:26.508
192.0, 21663.84716795053, 33452.112490190564, -52767.66303392209, -55923.03644693333, -37036.88526593272, -20835.2680009923, -187500.02235174447, -38271.729740110604, -9613.597048949845, 17013.79025146845, -50790.67358859463, -46800.14959575529, -21480.607566905925, -53202.85149846691, -53221.38109462036, -42826.054135090606, -0.006, 0.992, 0.212, 192.0, 127.5, 104.0, 15.5, 0.0, 3.0, 80.0, 0.0, 0.0, 0.0, 1.695419786508926E9, 0.0, 2023-09-22 16:56:26.508
194.0, 21715.770270320212, 33500.72753438086, -52767.864199622185, -55935.59812731721, -37018.57918722382, -20848.477881965387, -187500.02235174447, -38279.99988555907, -9619.81083390842, 17024.630847529275, -50801.55888814436, -46808.95618307069, -21481.233415750674, -53211.27810612656, -53226.38788537835, -42833.34080378304, -0.006, 0.992, 0.212, 192.0, 0.0, 0.0, 0.0, 0.0, 0.0, 0.0, 0.0, 0.0, 0.0, 1.695419786569245E9, 0.0, 2023-09-22 16:56:26.569
196.0, 21675.67124076739, 33458.706254804885, -52753.447324448505, -55908.28429559282, -37022.06605935885, -20819.21944847339, -187500.02235174447, -38258.29634169297, -9603.963447089607, 17023.334446350866, -50779.832992533804, -46790.82891831743, -21464.223738220186, -53192.413233806285, -53209.825242736966, -42814.34182099603, -0.006, 0.992, 0.212, 192.0, 0.0, 0.0, 0.0, 0.0, 0.0, 0.0, 0.0, 0.0, 0.0, 1.695419786569257E9, 0.0, 2023-09-22 16:56:26.569
198.0, 21707.7236423163, 33490.62454588706, -52772.73687991344, -55944.672935566065, -37015.44994300007, -20855.51868146881, -187500.02235174447, -38283.73262688311, -9609.149051803239, 17031.202260399135, -50786.73968157049, -46797.08740676492, -21472.33742145746, -53201.644504266325, -53211.34516135993, -42821.98611759974, -0.006, 0.992, 0.212, 192.0, 0.0, 0.0, 0.0, 0.0, 0.0, 0.0, 0.0, 0.0, 0.0, 1.695419786569268E9, 0.0, 2023-09-22 16:56:26.569
200.0, 21673.883101210966, 33455.77817628124, -52768.11006881119, -55921.2483073769, -37034.67244323164, -20829.858878834115, -187500.02235174447, -38267.08057726391, -9621.017828109007, 17005.497754275533, -50798.67551310963, -46813.605345917385, -21485.703764641734, -53214.72027477268, -53230.07592321347, -42837.8111526741, -0.006, 0.992, 0.212, 192.0, 0.0, 0.0, 0.0, 0.0, 0.0, 0.0, 0.0, 0.0, 0.0, 1.695419786569271E9, 0.0, 2023-09-22 16:56:26.569
202.0, 21704.035604481174, 33483.449635916906, -52771.149906057115, -55942.12483669816, -37010.59961445327, -20846.64503892005, -187500.02235174447, -38273.89785932277, -9599.046063309439, 17028.385940597767, -50779.207143689055, -46794.06992126345, -21465.207214976217, -53193.77669021806, -53207.47830956916, -42815.72762915226, -0.005, 0.993, 0.213, 192.0, 127.5, 112.0, 15.5, 8.0, 3.0, 88.0, 0.0, 0.0, 0.0, 1.695419786569274E9, 0.0, 2023-09-22 16:56:26.569
204.0, 21676.900586712432, 33461.276705417244, -52774.145039814124, -55924.53401381183, -37036.035899643415, -20829.903582323026, -187500.02235174447, -38268.868716820325, -9617.821528651897, 17009.833992699863, -50798.921382298635, -46817.22632851915, -21496.522008958105, -53214.31794337249, -53230.32179240249, -42834.70426019481, -0.005, 0.993, 0.213, 192.0, 0.0, 0.0, 0.0, 0.0, 0.0, 0.0, 0.0, 0.0, 0.0, 1.695419786569278E9, 0.0, 2023-09-22 16:56:26.569
206.0, 21695.9219212439, 33474.86656604607, -52766.34428099922, -55935.91105173958, -37010.510207475454, -20844.923954596994, -187500.02235174447, -38273.7861006005, -9613.127662316283, 17018.685283504165, -50786.5385158704, -46802.83180508993, -21467.174168488287, -53202.806794978, -53214.295591628026, -42823.37192575597, -0.005, 0.993, 0.213, 192.0, 0.0, 0.0, 0.0, 0.0, 0.0, 0.0, 0.0, 0.0, 0.0, 1.695419786569281E9, 0.0, 2023-09-22 16:56:26.569
208.0, 21681.929729214877, 33462.193126939914, -52780.67174919507, -55934.681705794545, -37047.211771871065, -20844.946306341448, -187500.02235174447, -38281.76567337104, -9633.311287559425, 17012.18092586767, -50807.14682425819, -46822.54604369951, -21491.224645522198, -53223.169234176785, -53235.64150758285, -42846.260112078206, -0.005, 0.993, 0.213, 192.0, 0.0, 0.0, 0.0, 0.0, 0.0, 0.0, 0.0, 0.0, 0.0, 1.695419786569284E9, 0.0, 2023-09-22 16:56:26.569
210.0, 21684.43312459387, 33464.4506531299, -52777.6095602047, -55947.8021797898, -37023.89890240418, -20855.183405301977, -187500.02235174447, -38284.313772238944, -9617.039217595962, 17013.18675436816, -50791.50060313947, -46808.26327899257, -21473.790284847055, -53207.031274680056, -53222.85630975441, -42831.172684570876, -0.005, 0.993, 0.213, 192.0, 0.0, 0.0, 0.0, 0.0, 0.0, 0.0, 0.0, 0.0, 0.0, 1.695419786628839E9, 0.0, 2023-09-22 16:56:26.628
212.0, 21684.00844144922, 33468.78689155423, -52779.57651371676, -55933.295897638316, -37042.98729216901, -20839.291314994254, -187500.02235174447, -38278.25644949156, -9634.09359861536, 17008.55994326591, -50813.62883015023, -46827.91046236878, -21488.29656699855, -53226.34318188944, -53240.62594659638, -42850.305777824615, -0.0055, 0.9944999999999999, 0.2125, 192.0, 127.5, 104.0, 15.5, 16.0, 3.0, 80.0, 0.0, 0.0, 0.0, 1.69541978662885E9, 0.0, 2023-09-22 16:56:26.628
214.0, 21677.839359979556, 33458.50508910479, -52759.90697859609, -55928.1996999025, -37013.795913910384, -20835.13389052557, -187500.02235174447, -38265.29243770748, -9603.069377311394, 17017.768861981494, -50783.87865828021, -46798.07088352095, -21461.027438763078, -53193.68728324024, -53211.568678804484, -42816.554643697105, -0.0055, 0.9944999999999999, 0.2125, 192.0, 0.0, 0.0, 0.0, 0.0, 0.0, 0.0, 0.0, 0.0, 0.0, 1.695419786628854E9, 0.0, 2023-09-22 16:56:26.628
216.0, 21690.646909552444, 33475.403007912995, -52774.52501946986, -55932.02184820436, -37038.56164676686, -20838.26313474931, -187500.02235174447, -38274.2331354896, -9623.789444421463, 17024.027350428983, -50806.94565855809, -46818.03099131954, -21484.407363463328, -53213.71444627219, -53229.67359181328, -42834.436039261345, -0.0055, 0.9944999999999999, 0.2125, 192.0, 0.0, 0.0, 0.0, 0.0, 0.0, 0.0, 0.0, 0.0, 0.0, 1.695419786628857E9, 0.0, 2023-09-22 16:56:26.628
218.0, 21673.14549364394, 33452.47011810185, -52758.6552809066, -55927.66325803557, -37012.43245749861, -20829.99298930085, -187500.02235174447, -38259.8833155493, -9602.599990677832, 17014.393748568746, -50786.73968157049, -46802.36241845637, -21463.799055075535, -53191.11683262788, -53212.619210793884, -42812.82190237306, -0.0055, 0.9944999999999999, 0.2125, 192.0, 0.0, 0.0, 0.0, 0.0, 0.0, 0.0, 0.0, 0.0, 0.0, 1.69541978662886E9, 0.0, 2023-09-22 16:56:26.628
220.0, 21697.687709055866, 33478.77812132575, -52778.10129858271, -55939.66614480808, -37039.20984735606, -20843.538146440762, -187500.02235174447, -38277.272972735525, -9625.510528744522, 17025.860193474316, -50809.89608882619, -46821.96489834367, -21474.617299391903, -53211.88160322686, -53230.67942031377, -42834.25722530571, -0.0055, 0.9944999999999999, 0.2125, 192.0, 0.0, 0.0, 0.0, 0.0, 0.0, 0.0, 0.0, 0.0, 0.0, 1.695419786628863E9, 0.0, 2023-09-22 16:56:26.628
222.0, 21655.889946924442, 33434.94635044889, -52786.39379577563, -55953.72539207046, -37040.707414234574, -20854.535204712774, -187500.02235174447, -38284.02319956102, -9626.76222643402, 16997.272312315978, -50810.29842022639, -46824.98238384514, -21480.78638086157, -53209.557021803506, -53233.27222267059, -42832.111457838, -0.00375, 0.99025, 0.21225, 192.0, 127.5, 120.0, 15.0, 104.0, 3.0, 80.0, 0.0, 0.0, 0.0, 1.695419786628866E9, 0.0, 2023-09-22 16:56:26.628
224.0, 21694.066726454108, 33474.73245557934, -52795.93799065805, -55962.24140670794, -37054.43138533013, -20864.839358906673, -187500.02235174447, -38294.55087119948, -9644.822435953909, 17007.442356043142, -50831.82315013685, -46844.718974199175, -21500.031232837588, -53232.333449403464, -53249.611347867416, -42850.97633015828, -0.00375, 0.99025, 0.21225, 192.0, 0.0, 0.0, 0.0, 0.0, 0.0, 0.0, 0.0, 0.0, 0.0, 1.695419786689073E9, 0.0, 2023-09-22 16:56:26.689
226.0, 21654.61589749049, 33430.7889259802, -52779.040071849835, -55943.04125822083, -37042.51790553545, -20845.169823786, -187500.02235174447, -38274.05432153396, -9631.612554980822, 16983.056602842404, -50817.026295307434, -46834.52657872756, -21485.994337319655, -53218.6094783079, -53243.06228674201, -42838.369946285486, -0.00375, 0.99025, 0.21225, 192.0, 0.0, 0.0, 0.0, 0.0, 0.0, 0.0, 0.0, 0.0, 0.0, 1.695419786689113E9, 0.0, 2023-09-22 16:56:26.689
228.0, 21705.6225783375, 33489.21638598638, -52779.08477533874, -55944.82939777725, -37040.75211772348, -20848.41082673202, -187500.02235174447, -38277.407083202255, -9628.103331101338, 17020.004036427028, -50819.37322847524, -46833.07371533796, -21484.362659974417, -53218.02833295207, -53236.334411660966, -42837.74409744074, -0.00375, 0.99025, 0.21225, 192.0, 0.0, 0.0, 0.0, 0.0, 0.0, 0.0, 0.0, 0.0, 0.0, 1.695419786689118E9, 0.0, 2023-09-22 16:56:26.689
230.0, 21660.315592326595, 33437.33798710561, -52762.052746063804, -55924.44460683401, -37024.211826826555, -20826.662579377007, -187500.02235174447, -38255.52472538051, -9602.599990677832, 17012.538553778955, -50794.42868166312, -46808.017409803564, -21464.022572520087, -53189.552210516005, -53217.87187074088, -42814.67709716286, -0.00375, 0.99025, 0.21225, 192.0, 0.0, 0.0, 0.0, 0.0, 0.0, 0.0, 0.0, 0.0, 0.0, 1.695419786689121E9, 0.0, 2023-09-22 16:56:26.689
232.0, 21696.748935788746, 33478.04051375872, -52801.16829886059, -55967.605825377206, -37049.55870503887, -20869.108542097634, -187500.02235174447, -38294.170891543734, -9643.86131094233, 17010.99628341154, -50837.99223160651, -46846.17183758877, -21505.328596273495, -53229.62888832437, -53248.04672575554, -42851.512772025206, -0.00375, 0.99025, 0.21225, 192.0, 0.0, 0.0, 15.0, 112.0, 3.0, 72.0, 0.0, 0.0, 0.0, 1.695419786689124E9, 0.0, 2023-09-22 16:56:26.689
234.0, 21654.884118423954, 33431.48183005832, -52770.077022323254, -55928.49027258042, -37033.510152519964, -20830.149451512036, -187500.02235174447, -38257.64814110377, -9618.827357152386, 16999.574541994876, -50811.01367604896, -46824.82592163395, -21481.412229706315, -53203.63380952285, -53231.282917414064, -42826.79174265763, -0.00375, 0.99025, 0.21225, 192.0, 0.0, 0.0, 0.0, 0.0, 0.0, 0.0, 0.0, 0.0, 0.0, 1.695419786689129E9, 0.0, 2023-09-22 16:56:26.689
236.0, 21709.802354550644, 33487.04826677421, -52779.91178988359, -55947.31044141179, -37031.207922841066, -20849.774283143794, -187500.02235174447, -38271.9309058107, -9625.264659555514, 17021.300437605434, -50819.686152897615, -46830.83854089243, -21481.188712261763, -53213.58033580546, -53232.467559870194, -42832.357327027006, -0.00375, 0.99025, 0.21225, 192.0, 0.0, 0.0, 0.0, 0.0, 0.0, 0.0, 0.0, 0.0, 0.0, 1.695419786689133E9, 0.0, 2023-09-22 16:56:26.689
238.0, 21658.035714392154, 33433.91817020395, -52771.61929269067, -55928.75849351389, -37039.992158412, -20833.390454458055, -187500.02235174447, -38261.02325451651, -9614.267601283504, 17004.290760074946, -50807.25858298047, -46822.43428497724, -21478.595909904947, -53205.08667291245, -53229.53948134655, -42824.28834727864, -0.00375, 0.99025, 0.21225, 192.0, 0.0, 0.0, 0.0, 0.0, 0.0, 0.0, 0.0, 0.0, 0.0, 1.695419786689138E9, 0.0, 2023-09-22 16:56:26.689
240.0, 21713.40098540795, 33489.28344121974, -52766.16546704358, -55936.04516220631, -37016.34401277829, -20838.55370742723, -187500.02235174447, -38259.59274287138, -9611.85361288233, 17026.217821385602, -50806.476271924534, -46818.41097097528, -21472.046848779544, -53203.90203045631, -53221.24698415363, -42823.23781528924, -0.00375, 0.99025, 0.21225, 192.0, 0.0, 0.0, 0.0, 0.0, 0.0, 0.0, 0.0, 0.0, 0.0, 1.695419786749312E9, 0.0, 2023-09-22 16:56:26.749
242.0, 21662.684877238855, 33438.008539439266, -52773.34037701373, -55929.31728712527, -37043.009643913465, -20829.12127126709, -187500.02235174447, -38257.71519633713, -9617.218031551603, 17006.928265920673, -50807.66091438066, -46821.160235543284, -21473.34324995795, -53206.09250141293, -53226.70080980073, -42824.48951297874, -0.002875, 0.989125, 0.208125, 192.0, 127.5, 120.0, 15.0, 112.0, 3.0, 48.0, 0.0, 0.0, 0.0, 1.695419786749324E9, 0.0, 2023-09-22 16:56:26.749
244.0, 21710.852886540044, 33486.176548740455, -52775.82142064827, -55945.991688488924, -37023.161294837155, -20847.40499823153, -187500.02235174447, -38266.90176330826, -9617.262735040515, 17019.75816723802, -50807.48210042502, -46820.48968320962, -21481.255767495128, -53207.0089229356, -53223.77273127708, -42823.43898098934, -0.002875, 0.989125, 0.208125, 192.0, 0.0, 0.0, 0.0, 0.0, 0.0, 0.0, 0.0, 0.0, 0.0, 1.695419786749327E9, 0.0, 2023-09-22 16:56:26.749
