%OpenBCI Raw EXG Data
%Number of channels = 16
%Sample Rate = 125 Hz
%Board = OpenBCI_GUI$BoardCytonSerialDaisy
Sample Index, EXG Channel 0, EXG Channel 1, EXG Channel 2, EXG Channel 3, EXG Channel 4, EXG Channel 5, EXG Channel 6, EXG Channel 7, EXG Channel 8, EXG Channel 9, EXG Channel 10, EXG Channel 11, EXG Channel 12, EXG Channel 13, EXG Channel 14, EXG Channel 15, Accel Channel 0, Accel Channel 1, Accel Channel 2, Other, Other, Other, Other, Other, Other, Other, Analog Channel 0, Analog Channel 1, Analog Channel 2, Timestamp, Other, Timestamp (Formatted)
0.0, 21904.553103989736, 33796.1281891022, -52819.250860124936, -56690.03655791719, -36395.524310532135, -20965.936299078025, -187500.02235174447, -39381.18092789423, 0.0, 0.0, 0.0, 0.0, 0.0, 0.0, 0.0, 0.0, 0.0, 0.0, 0.0, 192.0, 0.0, 0.0, 0.0, 0.0, 0.0, 0.0, 0.0, 0.0, 0.0, 1.695419769074153E9, 0.0, 2023-09-22 16:56:09.074
14.0, 21903.927255144987, 33797.42459028061, -52847.86109302773, -56704.60989530205, -36439.557247109085, -20981.336651007732, -187500.02235174447, -39405.03023922804, -9547.7041062956, 17203.645968871828, -50949.88506434978, -46473.791774963356, -22635.05281627808, -53721.94841169696, -53650.445181184434, -43386.43472032961, 0.0, 0.0, 0.0, 192.0, 0.0, 0.0, 0.0, 0.0, 0.0, 0.0, 0.0, 0.0, 0.0, 1.695419769074162E9, 0.0, 2023-09-22 16:56:09.074
16.0, 21898.60753996462, 33787.45571225354, -52824.771741005396, -56693.0316916742, -36401.8945577019, -20969.24435725741, -187500.02235174447, -39385.78538725202, -9519.295039092904, 17205.054128772514, -50919.19611921265, -46444.488637982446, -22611.67289157783, -53691.281818304284, -53624.450102382914, -43356.97512113752, 0.0, 0.0, 0.0, 192.0, 0.0, 0.0, 0.0, 0.0, 0.0, 0.0, 0.0, 0.0, 0.0, 1.695419769074166E9, 0.0, 2023-09-22 16:56:09.074
18.0, 21914.209057594428, 33806.36528806273, -52843.88248251468, -56704.36402611304, -36429.25309291519, -20980.464932973973, -187500.02235174447, -39401.94569849321, -9535.701219523098, 17212.3631492094, -50937.30103222145, -46461.09598411274, -22631.789461587607, -53713.521804037315, -53637.83879731164, -43377.78459522541, 0.0, 0.0, 0.0, 192.0, 0.0, 0.0, 0.0, 0.0, 0.0, 0.0, 0.0, 0.0, 0.0, 1.695419769074169E9, 0.0, 2023-09-22 16:56:09.074
20.0, 21876.23344376486, 33767.80852887732, -52847.972851750004, -56717.104520452565, -36425.4979998467, -20991.797267412814, -187500.02235174447, -39405.58903283942, -9534.605984044789, 17189.251445442613, -50933.5235874085, -46458.547885244836, -22633.018807532648, -53708.53736502378, -53636.8106170667, -43374.565944023845, 0.0, 0.0, 0.0, 192.0, 0.0, 0.0, 0.0, 0.0, 0.0, 0.0, 0.0, 0.0, 0.0, 1.695419769074172E9, 0.0, 2023-09-22 16:56:09.074
22.0, 21912.80089769374, 33809.44982879756, -52850.11861921771, -56709.52727908221, -36432.717613305766, -20984.555302209297, -187500.02235174447, -39404.15852119429, -9561.94216751363, 17187.12802971936, -50964.77132615702, -46487.895725714654, -22657.695133411307, -53738.891033994085, -53661.442239456446, -43401.67861004813, -0.01, 0.986, 0.20400000000000001, 192.0, 127.5, 88.0, 15.0, 104.0, 3.0, 48.0, 0.0, 0.0, 0.0, 1.695419769074176E9, 0.0, 2023-09-22 16:56:09.074
24.0, 21878.80389437722, 33772.3235812573, -52834.472398098995, -56700.56422955564, -36415.663232286366, -20975.05581081579, -187500.02235174447, -39389.741646020615, -9522.916021694664, 17198.39330892483, -50919.57609886838, -46443.05812633731, -22612.388147400397, -53692.98055088289, -53622.66196282649, -43354.87405715872, -0.01, 0.986, 0.20400000000000001, 192.0, 0.0, 0.0, 0.0, 0.0, 0.0, 0.0, 0.0, 0.0, 0.0, 1.695419769074179E9, 0.0, 2023-09-22 16:56:09.074
26.0, 21918.679406485488, 33818.61404402424, -52847.83874128327, -56711.31541863864, -36431.801191783095, -20988.556264466795, -187500.02235174447, -39407.779503796046, -9552.912062753685, 17199.153268236314, -50950.93559633918, -46474.08234764128, -22641.333656470022, -53728.273955377816, -53649.64051838405, -43389.96629595355, -0.01, 0.986, 0.20400000000000001, 192.0, 0.0, 0.0, 0.0, 0.0, 0.0, 0.0, 0.0, 0.0, 0.0, 1.695419769074183E9, 0.0, 2023-09-22 16:56:09.074
28.0, 21869.37145821708, 33768.27791551089, -52831.41020910862, -56691.55647654015, -36417.741944520705, -20967.992659567914, -187500.02235174447, -39386.79121575251, -9531.476739821046, 17189.36320416489, -50925.65577336023, -46450.88123689667, -22622.781708572114, -53701.429510286995, -53631.13327397505, -43363.07714737381, -0.01, 0.986, 0.20400000000000001, 192.0, 0.0, 0.0, 0.0, 0.0, 0.0, 0.0, 0.0, 0.0, 0.0, 1.695419769074186E9, 0.0, 2023-09-22 16:56:09.074
0.0, 10912.568677970014, 16846.33098200929, -26422.13123108521, -28235.260037810807, -18289.940749399753, -10478.386041925674, -93750.01117587223, -19593.78505871118, -4771.18101968539, 8604.549897259461, -25470.57276613388, -23230.72680601201, -11321.225621846394, -26857.386750863407, -26819.50054401166, -21687.29414788415, -0.012, 0.996, 0.202, 192.0, 127.5, 80.0, 15.5, 16.0, 3.0, 40.0, 0.0, 0.0, 0.0, 1.695419769218179E9, 0.0, 2023-09-22 16:56:09.218
2.0, 21852.31707719768, 33721.8086387883, -52873.833820084794, -56494.12351776642, -36619.30997601867, -20980.599043440707, -187500.02235174447, -39217.32028929237, -9558.298833167415, 17094.882380352305, -50920.20194771313, -46549.20656075556, -22557.35815255143, -53597.963285203376, -53542.44155197639, -43203.619802429654, -0.012, 0.996, 0.202, 192.0, 0.0, 0.0, 0.0, 0.0, 0.0, 0.0, 0.0, 0.0, 0.0, 1.695419769218193E9, 0.0, 2023-09-22 16:56:09.218
4.0, 21795.02955615873, 33663.112957848665, -52874.34791020727, -56488.08854676349, -36625.1437813215, -20970.96544158047, -187500.02235174447, -39207.30670777639, -9564.378507659258, 17061.108894480338, -50922.14654948075, -46556.64969165918, -22543.500070989143, -53595.21402063537, -53546.017831089244, -43200.69172390601, -0.012, 0.996, 0.202, 192.0, 0.0, 0.0, 0.0, 0.0, 0.0, 0.0, 0.0, 0.0, 0.0, 1.695419769218197E9, 0.0, 2023-09-22 16:56:09.218
6.0, 21850.148957985515, 33720.33342365425, -52881.16519226613, -56496.80572710106, -36620.271101030245, -20978.67679341755, -187500.02235174447, -39214.21339681309, -9580.315301455892, 17078.677365622207, -50941.547863667955, -46571.93828486661, -22556.620544984406, -53611.12846268755, -53557.752496928275, -43213.96866011246, -0.012, 0.996, 0.202, 192.0, 0.0, 0.0, 0.0, 0.0, 0.0, 0.0, 0.0, 0.0, 0.0, 1.6954197692182E9, 0.0, 2023-09-22 16:56:09.218
8.0, 21797.26473060426, 33662.33064679273, -52863.55201763535, -56477.69498559177, -36610.43633346991, -20960.3483629642, -187500.02235174447, -39195.5496901929, -9558.99173724553, 17066.2274439606, -50920.4701686466, -46553.989834069, -22540.907268632327, -53593.09060491212, -53543.156807798965, -43197.40601747108, -0.01, 0.996, 0.202, 192.0, 127.5, 88.0, 15.5, 16.0, 3.0, 40.0, 0.0, 0.0, 0.0, 1.695419769218204E9, 0.0, 2023-09-22 16:56:09.218
10.0, 21851.98180103085, 33721.02632773237, -52873.006805539946, -56500.56082016955, -36607.93293809092, -20984.82352314276, -187500.02235174447, -39214.123989835265, -9559.192902945626, 17088.66859539373, -50923.04061925896, -46557.11907829274, -22538.962666864714, -53602.23246839434, -53538.01590657424, -43204.670334419054, -0.01, 0.996, 0.202, 192.0, 0.0, 0.0, 0.0, 0.0, 0.0, 0.0, 0.0, 0.0, 0.0, 1.695419769218207E9, 0.0, 2023-09-22 16:56:09.218
12.0, 21800.37162308355, 33671.070178874754, -52854.87954078669, -56469.335433165485, -36608.804656124674, -20956.883842573625, -187500.02235174447, -39191.99576282451, -9557.918853511674, 17061.444170647166, -50919.35258142383, -46556.38147072571, -22545.109396589924, -53598.99146544832, -53543.20151128787, -43203.32922975174, -0.01, 0.996, 0.202, 192.0, 0.0, 0.0, 0.0, 0.0, 0.0, 0.0, 0.0, 0.0, 0.0, 1.69541976921821E9, 0.0, 2023-09-22 16:56:09.218
14.0, 21852.875870809065, 33725.25080743442, -52869.96696829402, -56501.67840739232, -36608.4917317023, -20989.092706333722, -187500.02235174447, -39216.6050334698, -9559.572882601367, 17086.76869711503, -50918.59262211235, -46551.75465962347, -22541.287248288067, -53598.54443055921, -53535.803083873165, -43198.90358434959, -0.01, 0.996, 0.202, 192.0, 0.0, 0.0, 0.0, 0.0, 0.0, 0.0, 0.0, 0.0, 0.0, 1.695419769218214E9, 0.0, 2023-09-22 16:56:09.218
16.0, 21797.93528293792, 33671.159585852576, -52855.728907075994, -56472.88936053388, -36616.851284128585, -20957.532043162828, -187500.02235174447, -39191.72754189104, -9566.971310016073, 17055.073923477405, -50925.052276259936, -46561.589427183804, -22546.338742534965, -53604.31118062868, -53546.80014214518, -43203.03865707382, -0.01, 0.996, 0.202, 192.0, 0.0, 0.0, 0.0, 0.0, 0.0, 0.0, 0.0, 0.0, 0.0, 1.695419769277848E9, 0.0, 2023-09-22 16:56:09.277
18.0, 21847.734969584344, 33720.646348076625, -52865.36250893623, -56497.81155560155, -36602.05442929917, -20976.57572943875, -187500.02235174447, -39203.88689087473, -9560.578711101856, 17081.22546449011, -50921.36423842481, -46555.867380603246, -22531.89951561684, -53596.13044215804, -53533.1879297719, -43195.372008725644, -0.01, 0.994, 0.198, 192.0, 127.5, 88.0, 15.5, 8.0, 3.0, 24.0, 0.0, 0.0, 0.0, 1.695419769277867E9, 0.0, 2023-09-22 16:56:09.277
20.0, 21800.572788783647, 33674.24412658741, -52863.015575768426, -56478.81257281454, -36622.52862722023, -20955.676848373038, -187500.02235174447, -39193.76155063648, -9565.36198441529, 17062.226481703103, -50927.68978210566, -46563.10934580676, -22550.585573981476, -53598.723244514855, -53543.67089792144, -43199.238860516416, -0.01, 0.994, 0.198, 192.0, 0.0, 0.0, 0.0, 0.0, 0.0, 0.0, 0.0, 0.0, 0.0, 1.695419769277871E9, 0.0, 2023-09-22 16:56:09.277
22.0, 21848.740798084833, 33722.34508065523, -52842.98841273647, -56476.823267558015, -36585.044751768684, -20953.933412305523, -187500.02235174447, -39180.5963731523, -9549.782818529942, 17087.729822126606, -50912.378837153774, -46545.719688620535, -22522.534134690064, -53579.21017160537, -53522.50379592226, -43177.15533699457, -0.01, 0.994, 0.198, 192.0, 0.0, 0.0, 0.0, 0.0, 0.0, 0.0, 0.0, 0.0, 0.0, 1.695419769277942E9, 0.0, 2023-09-22 16:56:09.277
24.0, 21800.34927133909, 33675.51817602136, -52871.71040436154, -56490.18961074229, -36632.54220873621, -20971.703049147494, -187500.02235174447, -39202.657544929694, -9570.771106573477, 17069.736667840083, -50932.00366878554, -46564.56220919636, -22542.069559344003, -53598.63383753703, -53541.815703131644, -43197.11544479316, -0.01, 0.994, 0.198, 192.0, 0.0, 0.0, 0.0, 0.0, 0.0, 0.0, 0.0, 0.0, 0.0, 1.695419769277947E9, 0.0, 2023-09-22 16:56:09.277
26.0, 21822.477498349846, 33700.373315855664, -52893.972741839025, -56524.499538481185, -36631.75989768028, -21008.114040865188, -187500.02235174447, -39229.39023129824, -9590.731214372065, 17054.71629556612, -50951.91907309522, -46582.82358441634, -22567.21527185622, -53617.78928253523, -53559.20536031787, -43217.544939225314, -0.01, 0.994, 0.198, 192.0, 0.0, 0.0, 0.0, 0.0, 0.0, 0.0, 0.0, 0.0, 0.0, 1.69541976927795E9, 0.0, 2023-09-22 16:56:09.277
28.0, 21799.49990504979, 33681.32962957974, -52876.27016023042, -56487.61916012993, -36639.47124951735, -20971.43482821403, -187500.02235174447, -39205.13858856423, -9599.336635987358, 17045.775597783995, -50962.156172055744, -46593.28420082143, -22576.33478359399, -53621.79024479273, -53571.320005812646, -43224.8539596622, -0.016, 0.996, 0.202, 192.0, 127.5, 64.0, 15.5, 16.0, 3.0, 40.0, 0.0, 0.0, 0.0, 1.695419769277956E9, 0.0, 2023-09-22 16:56:09.277
30.0, 21814.229704645837, 33691.209100628985, -52867.64238687067, -56500.67257889183, -36609.654022413975, -20984.19767429801, -187500.02235174447, -39208.67016418817, -9574.32503394187, 17063.411124159233, -50942.240767746065, -46575.715729679556, -22547.56808848001, -53599.013817192776, -53544.02852583272, -43203.351581496194, -0.016, 0.996, 0.202, 192.0, 0.0, 0.0, 0.0, 0.0, 0.0, 0.0, 0.0, 0.0, 0.0, 1.695419769338294E9, 0.0, 2023-09-22 16:56:09.338
32.0, 21802.584445784625, 33679.65324874559, -52877.00776779745, -56493.65413113286, -36637.41488902747, -20979.280290517843, -187500.02235174447, -39209.787751410935, -9589.390109704747, 17059.343106668366, -50954.824799874405, -46589.976142642045, -22559.883899674882, -53612.33545688814, -53553.639775948504, -43218.57311947025, -0.016, 0.996, 0.202, 192.0, 0.0, 0.0, 0.0, 0.0, 0.0, 0.0, 0.0, 0.0, 0.0, 1.695419769338308E9, 0.0, 2023-09-22 16:56:09.338
34.0, 21806.808925486675, 33681.24022260192, -52876.337215463784, -56506.08170105001, -36621.41103999747, -20992.065488346278, -187500.02235174447, -39215.3533357803, -9580.762336344998, 17054.582185099385, -50944.967680569614, -46582.60006697179, -22555.324143806, -53604.75821551779, -53547.71656366785, -43211.62172694466, -0.016, 0.996, 0.202, 192.0, 0.0, 0.0, 0.0, 0.0, 0.0, 0.0, 0.0, 0.0, 0.0, 1.695419769338311E9, 0.0, 2023-09-22 16:56:09.338
36.0, 21822.142222183018, 33700.797999000315, -52860.1769042226, -56471.235331444186, -36625.791981910705, -20960.258955986377, -187500.02235174447, -39194.45445471459, -9582.058737523406, 17070.18370272919, -50947.26991024851, -46581.571886726844, -22551.501995504143, -53606.45694809639, -53554.623252704536, -43217.74610492541, -0.016, 0.996, 0.202, 192.0, 0.0, 0.0, 0.0, 0.0, 0.0, 0.0, 0.0, 0.0, 0.0, 1.695419769338315E9, 0.0, 2023-09-22 16:56:09.338
38.0, 21812.374509856047, 33685.75527498189, -52855.75125882045, -56474.63279660139, -36604.35665897807, -20961.868281587158, -187500.02235174447, -39187.480710444535, -9550.855702263798, 17086.165200014737, -50914.85988078832, -46547.59723515478, -22526.73626264766, -53570.64945347899, -53525.633040146, -43183.05619753077, -0.012, 0.994, 0.20800000000000002, 192.0, 127.5, 80.0, 15.5, 8.0, 3.0, 64.0, 0.0, 0.0, 0.0, 1.695419769338318E9, 0.0, 2023-09-22 16:56:09.338
40.0, 21823.282161150237, 33699.97098445547, -52878.0806515313, -56486.16629674033, -36637.548999494196, -20971.457179958485, -187500.02235174447, -39203.976297852554, -9585.031519535962, 17075.45871442064, -50953.75191614055, -46587.13747109622, -22565.56124276653, -53608.26743939727, -53558.4901044953, -43218.28254679234, -0.012, 0.994, 0.20800000000000002, 192.0, 0.0, 0.0, 0.0, 0.0, 0.0, 0.0, 0.0, 0.0, 0.0, 1.695419769338321E9, 0.0, 2023-09-22 16:56:09.338
42.0, 21806.07131791965, 33673.41711204256, -52855.84066579827, -56479.617235614925, -36608.58113868012, -20964.751656621895, -187500.02235174447, -39189.11238778978, -9557.248301178015, 17070.4295719182, -50920.447816902146, -46561.388261483706, -22536.772195908095, -53579.009005905275, -53531.42214195993, -43190.61108715666, -0.012, 0.994, 0.20800000000000002, 192.0, 0.0, 0.0, 0.0, 0.0, 0.0, 0.0, 0.0, 0.0, 0.0, 1.695419769338324E9, 0.0, 2023-09-22 16:56:09.338
44.0, 21835.32975141165, 33705.536568824835, -52869.25171247146, -56487.39564268538, -36624.36147026557, -20973.558243937285, -187500.02235174447, -39201.78582689593, -9575.800249075919, 17079.258510978045, -50940.74320086756, -46581.03544485992, -22545.668190201308, -53603.46181433938, -53546.017831089244, -43216.002668857895, -0.012, 0.994, 0.20800000000000002, 192.0, 0.0, 0.0, 0.0, 0.0, 0.0, 0.0, 0.0, 0.0, 0.0, 1.695419769338327E9, 0.0, 2023-09-22 16:56:09.338
46.0, 21801.55626553968, 33672.2995248198, -52849.13514246168, -56473.29169193408, -36602.166188021445, -20959.610755397174, -187500.02235174447, -39182.98800980902, -9552.353269142302, 17069.96018528464, -50915.91041277772, -46559.06368006035, -22523.83053586847, -53579.83602045012, -53529.54459542568, -43196.06491280376, -0.012, 0.994, 0.20800000000000002, 192.0, 0.0, 0.0, 0.0, 0.0, 0.0, 0.0, 0.0, 0.0, 0.0, 1.695419769398433E9, 0.0, 2023-09-22 16:56:09.398
48.0, 21842.012923003786, 33714.92430149607, -52867.41886942612, -56485.31693045103, -36621.7910196532, -20968.640860157117, -187500.02235174447, -39195.05795181489, -9567.12777222726, 17087.66276689324, -50938.01628804401, -46577.07918609133, -22538.783852909073, -53599.773776504255, -53546.50956946726, -43214.10277057919, -0.012, 0.994, 0.202, 192.0, 127.5, 80.0, 15.5, 8.0, 3.0, 40.0, 0.0, 0.0, 0.0, 1.695419769398447E9, 0.0, 2023-09-22 16:56:09.398
50.0, 21800.30456785018, 33671.226641085945, -52846.855264527236, -56464.574511596504, -36600.33334497611, -20946.57968837973, -187500.02235174447, -39170.11340500276, -9540.551548069901, 17082.700679624162, -50904.6674853167, -46546.45729618756, -22513.03464329656, -53561.55229348568, -53518.614592387035, -43177.46826141694, -0.012, 0.994, 0.202, 192.0, 0.0, 0.0, 0.0, 0.0, 0.0, 0.0, 0.0, 0.0, 0.0, 1.695419769398451E9, 0.0, 2023-09-22 16:56:09.398
52.0, 21835.7544345563, 33711.81740901678, -52886.976645824514, -56502.95245682627, -36630.15057207949, -20984.018860342367, -187500.02235174447, -39209.38542001074, -9585.143278258238, 17081.739554612584, -50952.164942284224, -46587.98683738552, -22557.291097318066, -53605.04878819571, -53553.572720715136, -43218.528415981345, -0.012, 0.994, 0.202, 192.0, 0.0, 0.0, 0.0, 0.0, 0.0, 0.0, 0.0, 0.0, 0.0, 1.695419769398454E9, 0.0, 2023-09-22 16:56:09.398
54.0, 21782.713744963854, 33654.61929495565, -52874.258503229445, -56491.35190145396, -36631.2458075578, -20970.898386347104, -187500.02235174447, -39197.31547800487, -9580.09178401134, 17051.43058913119, -50945.19119801417, -46585.68460770662, -22550.94320189276, -53595.728110757846, -53551.87398813653, -43212.56050021178, -0.012, 0.994, 0.202, 192.0, 0.0, 0.0, 0.0, 0.0, 0.0, 0.0, 0.0, 0.0, 0.0, 1.695419769398457E9, 0.0, 2023-09-22 16:56:09.398
56.0, 21835.50856536729, 33708.3081851373, -52885.21085801254, -56511.356712741464, -36633.19040932541, -20992.53487497984, -187500.02235174447, -39217.94613813712, -9584.584484646855, 17074.81051383144, -50953.68486090718, -46592.45718627658, -22540.259068043124, -53606.94868647441, -53553.773886415234, -43221.74706718291, -0.012, 0.994, 0.202, 192.0, 0.0, 0.0, 0.0, 0.0, 0.0, 0.0, 0.0, 0.0, 0.0, 1.695419769398461E9, 0.0, 2023-09-22 16:56:09.398
58.0, 21783.87603567553, 33652.11589957665, -52863.26144495743, -56481.74065133818, -36621.05341208618, -20962.695296132006, -187500.02235174447, -39191.03463781293, -9572.5592461299, 17052.86110077633, -50940.45262818964, -46582.08597684932, -22532.3689022504, -53593.29177061222, -53545.57079620013, -43209.922994366054, -0.01, 0.996, 0.2, 192.0, 127.5, 88.0, 15.5, 16.0, 3.0, 32.0, 0.0, 0.0, 0.0, 1.695419769398464E9, 0.0, 2023-09-22 16:56:09.398
60.0, 21841.09650148112, 33711.88446425014, -52863.37320367971, -56494.61525614444, -36611.08453405911, -20975.614604427174, -187500.02235174447, -39196.711980904576, -9578.482458410557, 17077.693888866175, -50943.69363113566, -46583.114157094264, -22534.894649373848, -53599.706721270886, -53541.59218568709, -43213.25340428989, -0.01, 0.996, 0.2, 192.0, 0.0, 0.0, 0.0, 0.0, 0.0, 0.0, 0.0, 0.0, 0.0, 1.695419769458804E9, 0.0, 2023-09-22 16:56:09.458
62.0, 21786.893521176997, 33659.08964384671, -52856.60062510975, -56475.23629370169, -36619.4440864854, -20955.699200117495, -187500.02235174447, -39181.065759785866, -9564.959653015096, 17061.265356691525, -50929.63438387327, -46572.47472673353, -22530.625466182886, -53584.86516295256, -53534.52903443921, -43200.915241350565, -0.01, 0.996, 0.2, 192.0, 0.0, 0.0, 0.0, 0.0, 0.0, 0.0, 0.0, 0.0, 0.0, 1.695419769458818E9, 0.0, 2023-09-22 16:56:09.458
64.0, 21831.529954854246, 33706.98943221443, -52888.40715746965, -56522.957268113765, -36635.939673893416, -21004.96244489699, -187500.02235174447, -39224.65166147371, -9584.226856735571, 17068.350859683855, -50951.56144518393, -46591.67487522065, -22554.608887983428, -53605.920506229464, -53549.705868924364, -43218.12608458115, -0.01, 0.996, 0.2, 192.0, 0.0, 0.0, 0.0, 0.0, 0.0, 0.0, 0.0, 0.0, 0.0, 1.695419769458822E9, 0.0, 2023-09-22 16:56:09.458
66.0, 21785.440657787403, 33659.71549269146, -52872.60447413975, -56491.59777064297, -36642.75695595228, -20975.52519744935, -187500.02235174447, -39203.1045798188, -9583.019862534984, 17041.75228378204, -50951.71790739512, -46597.240459590015, -22551.345533292955, -53607.887459741534, -53561.664052207954, -43224.22811081745, -0.01, 0.996, 0.2, 192.0, 0.0, 0.0, 0.0, 0.0, 0.0, 0.0, 0.0, 0.0, 0.0, 1.695419769458825E9, 0.0, 2023-09-22 16:56:09.458
68.0, 21834.972123500364, 33707.16824617008, -52880.1817155101, -56513.36836974244, -36630.284682546226, -20999.083936105246, -187500.02235174447, -39217.8567311593, -9584.18215324666, 17059.633679346287, -50950.04152656097, -46593.91004966618, -22542.494242488654, -53607.28396264124, -53554.77971491572, -43223.69166895052, -0.006, 0.996, 0.202, 192.0, 127.5, 104.0, 15.5, 16.0, 3.0, 40.0, 0.0, 0.0, 0.0, 1.695419769458828E9, 0.0, 2023-09-22 16:56:09.458
70.0, 21790.827428201133, 33666.71158870597, -52872.090384017276, -56485.361633939945, -36640.72294720685, -20971.300717747297, -187500.02235174447, -39199.52830070595, -9583.980987546562, 17047.13905419577, -50949.996823072055, -46595.564078755866, -22543.03068435558, -53608.84858475311, -53560.07707835163, -43225.45745676249, -0.006, 0.996, 0.202, 192.0, 0.0, 0.0, 0.0, 0.0, 0.0, 0.0, 0.0, 0.0, 0.0, 1.695419769458831E9, 0.0, 2023-09-22 16:56:09.458
72.0, 21829.540649597722, 33703.457856590496, -52873.78911659588, -56507.10988129496, -36621.07576383064, -20990.880845890148, -187500.02235174447, -39209.653640944205, -9568.535932127945, 17073.737630097585, -50938.820950844405, -46580.61076171527, -22535.60990519642, -53594.23054387934, -53545.391982244495, -43211.800540900294, -0.006, 0.996, 0.202, 192.0, 0.0, 0.0, 0.0, 0.0, 0.0, 0.0, 0.0, 0.0, 0.0, 1.695419769458835E9, 0.0, 2023-09-22 16:56:09.458
74.0, 21805.154896396984, 33678.53566152283, -52861.49565714546, -56473.202284956256, -36634.73267969283, -20956.548566406796, -187500.02235174447, -39185.536108676926, -9574.950882786618, 17056.839711289373, -50945.86175034782, -46592.12191010975, -22539.432053498276, -53604.668808539966, -53559.60769171807, -43223.423448017056, -0.006, 0.996, 0.202, 192.0, 0.0, 0.0, 0.0, 0.0, 0.0, 0.0, 0.0, 0.0, 0.0, 1.695419769458838E9, 0.0, 2023-09-22 16:56:09.458
76.0, 21828.46776586387, 33700.14979841111, -52878.79590735387, -56507.35575048396, -36626.66369994446, -20994.81475291428, -187500.02235174447, -39213.18521656814, -9559.639937834732, 17072.061249263435, -50929.34381119535, -46575.6933779351, -22526.289227758556, -53589.156697887986, -53543.04504907669, -43207.03961933132, -0.006, 0.996, 0.202, 192.0, 0.0, 0.0, 0.0, 0.0, 0.0, 0.0, 0.0, 0.0, 0.0, 1.69541976951837E9, 0.0, 2023-09-22 16:56:09.518
78.0, 21804.350233596593, 33679.742655723414, -52882.95333182256, -56493.251799732665, -36649.998921155806, -20982.074258574758, -187500.02235174447, -39209.31836477737, -9590.6641591387, 17049.66480131922, -50956.83645687538, -46605.04121840492, -22562.633164242885, -53618.23631742434, -53572.68346222442, -43236.40981154559, -0.004, 0.992, 0.2, 192.0, 127.5, 112.0, 15.5, 0.0, 3.0, 32.0, 0.0, 0.0, 0.0, 1.695419769518383E9, 0.0, 2023-09-22 16:56:09.518
80.0, 21822.052815205196, 33696.528815809346, -52875.376090452206, -56503.2877329931, -36622.930958620425, -20990.92554937906, -187500.02235174447, -39209.94421362212, -9567.932435027651, 17057.152635711747, -50934.41765718671, -46585.37168328425, -22542.963629122216, -53600.17610790445, -53552.11985732554, -43214.70626767949, -0.004, 0.992, 0.2, 192.0, 0.0, 0.0, 0.0, 0.0, 0.0, 0.0, 0.0, 0.0, 0.0, 1.695419769518389E9, 0.0, 2023-09-22 16:56:09.518
82.0, 21819.683530292932, 33694.33834485273, -52877.36539570873, -56492.067157276535, -36643.02517688575, -20981.694278919018, -187500.02235174447, -39209.31836477737, -9577.029595020962, 17059.700734579652, -50945.66058464773, -46596.189927600615, -22544.952934378736, -53613.698913299915, -53565.68736620991, -43231.179503343046, -0.004, 0.992, 0.2, 192.0, 0.0, 0.0, 0.0, 0.0, 0.0, 0.0, 0.0, 0.0, 0.0, 1.695419769518394E9, 0.0, 2023-09-22 16:56:09.518
84.0, 21822.54455358321, 33693.91366170808, -52859.05931699983, -56486.99331128518, -36606.32361249013, -20973.87116835966, -187500.02235174447, -39194.543861692415, -9552.152103442206, 17065.646298604763, -50921.207776213625, -46573.65936918967, -22520.522477689086, -53588.173221131954, -53541.30161300917, -43207.7995786428, -0.004, 0.992, 0.2, 192.0, 0.0, 0.0, 0.0, 0.0, 0.0, 0.0, 0.0, 0.0, 0.0, 1.695419769518399E9, 0.0, 2023-09-22 16:56:09.518
86.0, 21823.684492550434, 33696.729981509445, -52882.573352166815, -56498.146831768376, -36643.31574956367, -20984.845874887214, -187500.02235174447, -39209.83245489984, -9569.497057139524, 17073.87174056432, -50941.14553226776, -46592.144261854206, -22538.828556397984, -53601.584267805134, -53553.30449978167, -43222.64113696112, -0.004, 0.992, 0.2, 192.0, 0.0, 0.0, 0.0, 0.0, 0.0, 0.0, 0.0, 0.0, 0.0, 1.695419769518404E9, 0.0, 2023-09-22 16:56:09.518
88.0, 21805.98191094183, 33680.457911545986, -52865.586026380784, -56491.48601192069, -36619.55584520767, -20979.950842851504, -187500.02235174447, -39196.06378031537, -9571.396955418224, 17050.6259263308, -50937.211625243624, -46589.484404264025, -22534.80524239603, -53593.51528805677, -53552.388078259006, -43214.90743337959, -0.006, 0.99, 0.2, 192.0, 127.5, 104.0, 15.0, 120.0, 3.0, 32.0, 0.0, 0.0, 0.0, 1.69541976951841E9, 0.0, 2023-09-22 16:56:09.518
90.0, 21831.41819613197, 33709.55988282679, -52871.50923866144, -56487.06036651855, -36635.224418070844, -20976.374563738653, -187500.02235174447, -39198.47776871655, -9576.783725831954, 17067.23327246109, -50944.56534916942, -46594.446491533105, -22543.723588433695, -53603.84179399512, -53556.83607540561, -43224.07164860626, -0.006, 0.99, 0.2, 192.0, 0.0, 0.0, 0.0, 0.0, 0.0, 0.0, 0.0, 0.0, 0.0, 1.695419769578604E9, 0.0, 2023-09-22 16:56:09.578
92.0, 21804.55139929669, 33683.20717611399, -52855.70655533154, -56475.571569868516, -36609.363449736054, -20964.461083943974, -187500.02235174447, -39182.20569875309, -9554.767257543475, 17059.141940968268, -50921.207776213625, -46575.156936068175, -22527.295056259045, -53582.56293327367, -53539.7369908973, -43202.81513962927, -0.006, 0.99, 0.2, 192.0, 0.0, 0.0, 0.0, 0.0, 0.0, 0.0, 0.0, 0.0, 0.0, 1.695419769578618E9, 0.0, 2023-09-22 16:56:09.578
94.0, 21834.212164188884, 33719.01467073139, -52875.89018057468, -56495.062291033544, -36640.410022784476, -20985.695241176516, -187500.02235174447, -39207.73139092104, -9569.56411237289, 17074.89992080926, -50941.03377354548, -46591.83133743183, -22540.639047698864, -53599.97494220435, -53554.466790493345, -43223.87048290616, -0.006, 0.99, 0.2, 192.0, 0.0, 0.0, 0.0, 0.0, 0.0, 0.0, 0.0, 0.0, 0.0, 1.695419769578622E9, 0.0, 2023-09-22 16:56:09.578
96.0, 21802.942073695907, 33687.38695232713, -52842.9213575031, -56464.999194741154, -36607.0388683127, -20956.079179773235, -187500.02235174447, -39175.00843703848, -9556.488341866534, 17058.963127012627, -50920.425465157685, -46574.93341862362, -22511.447669440233, -53578.249046593795, -53539.55817694166, -43206.21260478647, -0.006, 0.99, 0.2, 192.0, 0.0, 0.0, 0.0, 0.0, 0.0, 0.0, 0.0, 0.0, 0.0, 1.695419769578625E9, 0.0, 2023-09-22 16:56:09.578
98.0, 21847.690266095433, 33734.63854010565, -52863.82023856881, -56481.3830234269, -36623.288586531715, -20970.898386347104, -187500.02235174447, -39190.85582385729, -9564.713783826088, 17090.34497622788, -50930.10377050684, -46579.85080240379, -22527.54092544805, -53585.46866005286, -53542.50860720976, -43213.633383945635, -0.006, 0.994, 0.20400000000000001, 192.0, 127.5, 104.0, 15.5, 8.0, 3.0, 48.0, 0.0, 0.0, 0.0, 1.695419769578637E9, 0.0, 2023-09-22 16:56:09.578
100.0, 21789.26280608926, 33677.015742899865, -52872.582122395295, -56490.99427354268, -36633.88331340353, -20977.939185850526, -187500.02235174447, -39194.27564075895, -9563.573844858867, 17062.71822008112, -50927.93565129467, -46581.01309311546, -22524.992826580146, -53581.1994768619, -53545.36963050004, -43210.57119495526, -0.006, 0.994, 0.20400000000000001, 192.0, 0.0, 0.0, 0.0, 0.0, 0.0, 0.0, 0.0, 0.0, 0.0, 1.695419769578641E9, 0.0, 2023-09-22 16:56:09.578
102.0, 21842.817585804176, 33733.722118582984, -52877.36539570873, -56495.66578813384, -36633.50333374779, -20984.86822663167, -187500.02235174447, -39199.930632106145, -9584.450374180124, 17071.86008356334, -50951.15911378373, -46601.53199452544, -22545.355265778933, -53603.908849228486, -53561.4405347634, -43232.36414579918, -0.006, 0.994, 0.20400000000000001, 192.0, 0.0, 0.0, 0.0, 0.0, 0.0, 0.0, 0.0, 0.0, 0.0, 1.695419769578644E9, 0.0, 2023-09-22 16:56:09.578
104.0, 21786.915872921454, 33676.07696963274, -52873.99028229598, -56489.74257585318, -36642.15345885199, -20979.749677151405, -187500.02235174447, -39195.25911751499, -9573.430964163657, 17047.89901350725, -50941.99489855706, -46596.36874155626, -22544.438844256263, -53595.90692471349, -53558.62421496204, -43223.66931720607, -0.006, 0.994, 0.20400000000000001, 192.0, 0.0, 0.0, 0.0, 0.0, 0.0, 0.0, 0.0, 0.0, 0.0, 1.695419769578648E9, 0.0, 2023-09-22 16:56:09.578
106.0, 21845.65625735, 33738.23717096295, -52874.63848288518, -56496.15752651185, -36634.464458759365, -20987.796305155316, -187500.02235174447, -39203.43985598563, -9588.473688182079, 17069.08846725088, -50954.5789306854, -46606.829357961346, -22546.785777424073, -53605.294657384715, -53561.50758999677, -43233.5040847664, -0.006, 0.994, 0.20400000000000001, 192.0, 0.0, 0.0, 0.0, 0.0, 0.0, 0.0, 0.0, 0.0, 0.0, 1.695419769638844E9, 0.0, 2023-09-22 16:56:09.638
108.0, 21805.199599885895, 33694.18188264154, -52837.28871790037, -56449.19651141125, -36612.2915282597, -20941.975229021937, -187500.02235174447, -39165.35248343378, -9554.476684865556, 17070.51897889602, -50919.06200874591, -46574.106404078775, -22514.867486341893, -53569.75538370078, -53538.10531355206, -43201.541090195315, -0.004, 0.99, 0.202, 192.0, 127.5, 112.0, 15.0, 120.0, 3.0, 40.0, 0.0, 0.0, 0.0, 1.695419769638856E9, 0.0, 2023-09-22 16:56:09.638
110.0, 21851.31124869719, 33743.020444276386, -52867.88825605968, -56494.12351776642, -36625.97079586635, -20991.931377879548, -187500.02235174447, -39208.82662639936, -9557.337708155836, 17099.017453076536, -50925.47695940459, -46579.470822748044, -22529.373768493388, -53579.724261727846, -53539.379362986016, -43211.241747288914, -0.004, 0.99, 0.202, 192.0, 0.0, 0.0, 0.0, 0.0, 0.0, 0.0, 0.0, 0.0, 0.0, 1.695419769638859E9, 0.0, 2023-09-22 16:56:09.638
112.0, 21794.470762547346, 33687.56576628277, -52850.40919189563, -56463.16635169582, -36630.754069179784, -20964.81871185526, -187500.02235174447, -39185.178480765644, -9563.12680996976, 17066.205092216147, -50927.10863674982, -46586.31045655137, -22525.283399258067, -53585.22279086385, -53549.32588926863, -43217.36612526967, -0.004, 0.99, 0.202, 192.0, 0.0, 0.0, 0.0, 0.0, 0.0, 0.0, 0.0, 0.0, 0.0, 1.695419769638863E9, 0.0, 2023-09-22 16:56:09.638
114.0, 21839.487175880335, 33730.90579878161, -52870.43635492759, -56500.20319225827, -36629.234150556826, -21004.560113496795, -187500.02235174447, -39213.498140990516, -9564.534969870445, 17083.10301102436, -50931.10959900732, -46587.47274726305, -22525.93159984727, -53591.391872333515, -53545.16846479994, -43216.94144212502, -0.004, 0.99, 0.202, 192.0, 0.0, 0.0, 0.0, 0.0, 0.0, 0.0, 0.0, 0.0, 0.0, 1.695419769638866E9, 0.0, 2023-09-22 16:56:09.638
116.0, 21779.808018184667, 33673.5512225093, -52878.63944514268, -56493.743538110684, -36656.59268577012, -20997.54166573783, -187500.02235174447, -39214.32515553536, -9590.351234716325, 17033.862117989316, -50957.26114002003, -46617.13351215524, -22553.31248680502, -53620.65030582551, -53573.488125024815, -43244.99288141643, -0.004, 0.99, 0.202, 192.0, 0.0, 0.0, 0.0, 0.0, 0.0, 0.0, 0.0, 0.0, 0.0, 1.695419769638869E9, 0.0, 2023-09-22 16:56:09.638
118.0, 21828.400710630503, 33721.696880066025, -52881.63457889969, -56510.77556738562, -36634.196237825905, -21010.125697866166, -187500.02235174447, -39217.87908290375, -9581.410536934201, 17059.410161901735, -50945.05708754744, -46603.4989480375, -22538.113300575413, -53608.69212254192, -53559.40652601797, -43231.91711091007, -0.008, 0.99, 0.198, 192.0, 127.5, 96.0, 15.0, 120.0, 3.0, 24.0, 0.0, 0.0, 0.0, 1.695419769638872E9, 0.0, 2023-09-22 16:56:09.638
120.0, 21791.274463090238, 33683.117769136166, -52871.1292590057, -56482.16533448283, -36649.06014788868, -20978.922662606557, -187500.02235174447, -39195.862614615275, -9587.13258351476, 17042.579298326888, -50950.68972715017, -46610.115064396276, -22545.17645182329, -53614.19065167793, -53569.55421800068, -43240.23195984745, -0.008, 0.99, 0.198, 192.0, 0.0, 0.0, 0.0, 0.0, 0.0, 0.0, 0.0, 0.0, 0.0, 1.695419769697823E9, 0.0, 2023-09-22 16:56:09.697
122.0, 21827.46193736338, 33717.87473176417, -52867.15064849266, -56496.537506167595, -36623.78032490973, -20992.91485463558, -187500.02235174447, -39201.539957706926, -9572.5592461299, 17064.729877082096, -50935.98227929858, -46594.91587816666, -22533.75471040663, -53599.706721270886, -53551.65047069198, -43225.300994551304, -0.008, 0.99, 0.198, 192.0, 0.0, 0.0, 0.0, 0.0, 0.0, 0.0, 0.0, 0.0, 0.0, 1.695419769697836E9, 0.0, 2023-09-22 16:56:09.697
124.0, 21799.008166671774, 33687.61046977168, -52859.68516584458, -56471.52590412211, -36634.84443841511, -20968.193825268012, -187500.02235174447, -39185.13377727673, -9575.934359542653, 17057.577318856398, -50938.59743339985, -46599.341523568815, -22543.388312266867, -53600.42197709346, -53554.22092130434, -43227.08913410773, -0.008, 0.99, 0.198, 192.0, 0.0, 0.0, 0.0, 0.0, 0.0, 0.0, 0.0, 0.0, 0.0, 1.69541976969784E9, 0.0, 2023-09-22 16:56:09.697
126.0, 21813.73796626782, 33705.536568824835, -52876.02429104141, -56506.37227372793, -36626.75310692228, -21003.576636740763, -187500.02235174447, -39209.05014384391, -9572.603949618811, 17061.04183924697, -50938.888006077774, -46597.48632877902, -22528.256181270623, -53595.728110757846, -53547.0907148231, -43220.60712821569, -0.008, 0.99, 0.198, 192.0, 0.0, 0.0, 0.0, 0.0, 0.0, 0.0, 0.0, 0.0, 0.0, 1.695419769697843E9, 0.0, 2023-09-22 16:56:09.697
128.0, 21794.82839045863, 33688.16926338307, -52880.338177721285, -56495.084642778, -36651.89881943451, -20993.026613357855, -187500.02235174447, -39206.83732114283, -9596.386205719258, 17040.522937837, -50962.46909647812, -46623.68257328065, -22549.289172803066, -53618.54924184671, -53569.867142423056, -43240.36607031418, -0.01, 0.996, 0.198, 192.0, 127.5, 88.0, 15.5, 16.0, 3.0, 24.0, 0.0, 0.0, 0.0, 1.695419769697846E9, 0.0, 2023-09-22 16:56:09.697
130.0, 21813.08976567862, 33701.557958311794, -52860.40042166715, -56487.01566302963, -36615.443124227895, -20984.1529708091, -187500.02235174447, -39191.72754189104, -9574.257978708503, 17051.56469959792, -50937.524549666, -46600.660276491675, -22528.680864415273, -53594.99050319082, -53549.21413054635, -43218.57311947025, -0.01, 0.996, 0.198, 192.0, 0.0, 0.0, 0.0, 0.0, 0.0, 0.0, 0.0, 0.0, 0.0, 1.69541976969785E9, 0.0, 2023-09-22 16:56:09.697
132.0, 21808.731175509834, 33700.5521298113, -52873.72206136252, -56483.61819787243, -36644.7015577199, -20976.665136416574, -187500.02235174447, -39195.81791112637, -9582.394013690235, 17058.203167701147, -50950.24269226107, -46613.57958478684, -22536.3698645079, -53605.96520971838, -53560.635871963015, -43230.30778530929, -0.01, 0.996, 0.198, 192.0, 0.0, 0.0, 0.0, 0.0, 0.0, 0.0, 0.0, 0.0, 0.0, 1.695419769697853E9, 0.0, 2023-09-22 16:56:09.697
134.0, 21808.239437131815, 33698.11578966567, -52858.29935768835, -56483.4840874057, -36609.89989160298, -20974.653479415596, -187500.02235174447, -39183.7479691205, -9556.175417444161, 17063.858159048337, -50921.69951459164, -46588.45622401908, -22521.058919556013, -53577.77965996023, -53536.74185714029, -43205.36323849717, -0.01, 0.996, 0.198, 192.0, 0.0, 0.0, 0.0, 0.0, 0.0, 0.0, 0.0, 0.0, 0.0, 1.695419769697856E9, 0.0, 2023-09-22 16:56:09.697
136.0, 21818.431832603437, 33708.48699909294, -52872.6268258842, -56487.50740140765, -36641.192333840416, -20979.749677151405, -187500.02235174447, -39195.77320763746, -9574.74971708652, 17065.355725926845, -50942.397229957256, -46608.84101496232, -22544.930582634282, -53600.198459648906, -53556.07611609413, -43228.69845970851, -0.01, 0.996, 0.198, 192.0, 0.0, 0.0, 0.0, 0.0, 0.0, 0.0, 0.0, 0.0, 0.0, 1.695419769758E9, 0.0, 2023-09-22 16:56:09.758
138.0, 21796.41536431496, 33684.57063252576, -52864.55784613584, -56494.45879393325, -36622.95331036488, -20989.137409822633, -187500.02235174447, -39196.644925671215, -9564.177341959161, 17054.001039743547, -50924.87346230429, -46593.93240141063, -22526.468041714197, -53582.585285018125, -53544.408505488456, -43212.67225893406, -0.01, 0.994, 0.2, 192.0, 127.5, 88.0, 15.5, 8.0, 3.0, 32.0, 0.0, 0.0, 0.0, 1.695419769758023E9, 0.0, 2023-09-22 16:56:09.758
140.0, 21817.02367270275, 33709.67164154907, -52880.047605043364, -56502.14779402588, -36651.518839778764, -20998.39103202713, -187500.02235174447, -39210.480655489046, -9600.744795888042, 17046.84848151785, -50963.38551800079, -46630.79042801743, -22555.346495550453, -53621.20909943689, -53574.963340158865, -43249.08325065175, -0.01, 0.994, 0.2, 192.0, 0.0, 0.0, 0.0, 0.0, 0.0, 0.0, 0.0, 0.0, 0.0, 1.695419769758027E9, 0.0, 2023-09-22 16:56:09.758
142.0, 21786.98292815482, 33676.680466733036, -52860.80275306735, -56488.624988630414, -36626.75310692228, -20984.600005698205, -187500.02235174447, -39190.498195946006, -9574.727365342065, 17040.589993070364, -50935.110561264824, -46605.89058469422, -22530.89368711635, -53592.66592176747, -53551.471656736336, -43220.67418344905, -0.01, 0.994, 0.2, 192.0, 0.0, 0.0, 0.0, 0.0, 0.0, 0.0, 0.0, 0.0, 0.0, 1.69541976975803E9, 0.0, 2023-09-22 16:56:09.758
144.0, 21823.639789061523, 33716.868903263676, -52871.822163083816, -56494.302331722065, -36643.60632224158, -20990.076183089757, -187500.02235174447, -39198.16484429417, -9590.820621349887, 17056.61619384482, -50951.15911378373, -46619.59220404532, -22539.320294776, -53607.77570101926, -53560.74763068529, -43232.34179405472, -0.01, 0.994, 0.2, 192.0, 0.0, 0.0, 0.0, 0.0, 0.0, 0.0, 0.0, 0.0, 0.0, 1.695419769758033E9, 0.0, 2023-09-22 16:56:09.758
146.0, 21789.12869562253, 33677.52983302234, -52851.54913086285, -56473.60461635645, -36626.708403433375, -20970.786627624828, -187500.02235174447, -39178.22708824004, -9573.386260674746, 17043.56277508292, -50930.10377050684, -46599.74385496901, -22529.753748149127, -53584.395776319005, -53548.43181949041, -43210.99587809991, -0.01, 0.994, 0.2, 192.0, 0.0, 0.0, 0.0, 0.0, 0.0, 0.0, 0.0, 0.0, 0.0, 1.695419769758037E9, 0.0, 2023-09-22 16:56:09.758
148.0, 21837.252001434805, 33731.688109837545, -52860.8251048118, -56480.734822837694, -36634.755031437286, -20980.755505651894, -187500.02235174447, -39190.25232675699, -9584.875057324774, 17071.278938207503, -50942.55369216844, -46604.862404449275, -22541.466062243708, -53592.68827351192, -53554.690307937904, -43220.60712821569, -0.012, 0.996, 0.196, 192.0, 127.5, 80.0, 15.5, 16.0, 3.0, 16.0, 0.0, 0.0, 0.0, 1.69541976975804E9, 0.0, 2023-09-22 16:56:09.758
150.0, 21791.11800087905, 33682.71543773597, -52841.4237906246, -56461.244101672666, -36620.852246386086, -20963.544662421307, -187500.02235174447, -39169.018169524454, -9560.46695237958, 17062.94173752567, -50918.950250023634, -46583.78470942792, -22522.578838178975, -53566.44732552139, -53537.12183679603, -43194.99202906991, -0.012, 0.996, 0.196, 192.0, 0.0, 0.0, 0.0, 0.0, 0.0, 0.0, 0.0, 0.0, 0.0, 1.695419769818344E9, 0.0, 2023-09-22 16:56:09.818
152.0, 21840.247135191818, 33732.045737748835, -52869.8775613162, -56497.588038156995, -36639.560656495174, -21001.16264833959, -187500.02235174447, -39200.489425717526, -9582.617531134789, 17070.653089362753, -50949.728602138595, -46610.69620975211, -22537.308637775022, -53598.879706726046, -53560.70292719638, -43230.53130275384, -0.012, 0.996, 0.196, 192.0, 0.0, 0.0, 0.0, 0.0, 0.0, 0.0, 0.0, 0.0, 0.0, 1.695419769818357E9, 0.0, 2023-09-22 16:56:09.818
154.0, 21791.587387512613, 33676.65811498858, -52845.64827032665, -56466.92144476431, -36623.02036559825, -20967.2997554898, -187500.02235174447, -39168.258210212975, -9565.965481515585, 17049.307173407935, -50933.9706222976, -46597.35221831229, -22521.058919556013, -53581.043014650706, -53550.152903813476, -43217.85786364769, -0.012, 0.996, 0.196, 192.0, 0.0, 0.0, 0.0, 0.0, 0.0, 0.0, 0.0, 0.0, 0.0, 1.695419769818361E9, 0.0, 2023-09-22 16:56:09.818
156.0, 21844.51631838278, 33730.03408074786, -52862.993224023965, -56494.25762823316, -36625.07672608813, -20993.026613357855, -187500.02235174447, -39187.14543427771, -9566.79249606043, 17076.263377221036, -50942.799561357446, -46597.41927354566, -22522.08709980096, -53586.65330250899, -53547.761267156755, -43226.08330560724, -0.012, 0.996, 0.196, 192.0, 0.0, 0.0, 0.0, 0.0, 0.0, 0.0, 0.0, 0.0, 0.0, 1.695419769818364E9, 0.0, 2023-09-22 16:56:09.818
158.0, 21788.01110839976, 33674.95938240998, -52853.58313960829, -56471.54825586656, -36625.926092377435, -20971.077200302745, -187500.02235174447, -39167.9452857906, -9565.697260582121, 17049.262469919024, -50937.18927349917, -46587.74096819651, -22522.802355623528, -53579.925427427945, -53548.677688679425, -43223.95988988398, -0.014, 1.002, 0.2, 192.0, 127.5, 72.0, 15.5, 40.0, 3.0, 32.0, 0.0, 0.0, 0.0, 1.695419769818368E9, 0.0, 2023-09-22 16:56:09.818
160.0, 21841.23061194785, 33729.22941794746, -52868.22353222651, -56495.26345673364, -36622.70744117587, -20994.457125002995, -187500.02235174447, -39186.005495310485, -9574.861475808797, 17065.959223027137, -50947.89575909326, -46587.65156121869, -22530.08902431596, -53593.80586073469, -53553.21509280385, -43236.74508771242, -0.014, 1.002, 0.2, 192.0, 0.0, 0.0, 0.0, 0.0, 0.0, 0.0, 0.0, 0.0, 0.0, 1.695419769818371E9, 0.0, 2023-09-22 16:56:09.818
162.0, 21784.703050220378, 33672.16541435306, -52875.107869518746, -56480.89128504888, -36640.87940941804, -20977.805075383792, -187500.02235174447, -39178.91999231816, -9571.486362396046, 17048.681324563186, -50942.93367182418, -46580.07431984834, -22520.45542245572, -53593.31412235667, -53555.65143294948, -43239.4049453026, -0.014, 1.002, 0.2, 192.0, 0.0, 0.0, 0.0, 0.0, 0.0, 0.0, 0.0, 0.0, 0.0, 1.695419769818374E9, 0.0, 2023-09-22 16:56:09.818
164.0, 21833.83218453314, 33719.81933353178, -52888.720081892025, -56504.40532021586, -36626.7978104112, -21000.514447750385, -187500.02235174447, -39195.08030355934, -9571.955749029607, 17065.981574771595, -50943.224244502104, -46576.475688991035, -22523.607018423918, -53598.56678230367, -53554.84677014909, -43244.59055001623, -0.014, 1.002, 0.2, 192.0, 0.0, 0.0, 0.0, 0.0, 0.0, 0.0, 0.0, 0.0, 0.0, 1.695419769818377E9, 0.0, 2023-09-22 16:56:09.818
166.0, 21784.54658800919, 33672.00895214188, -52891.02231157092, -56483.7299565947, -36643.2486943303, -20978.788552139828, -187500.02235174447, -39181.13281501923, -9579.644749122233, 17038.958315725125, -50945.392363714265, -46581.61659021576, -22535.207573796222, -53607.820404508166, -53563.67570920893, -43254.5594280433, -0.014, 1.002, 0.2, 192.0, 0.0, 0.0, 0.0, 0.0, 0.0, 0.0, 0.0, 0.0, 0.0, 1.695419769878633E9, 0.0, 2023-09-22 16:56:09.878
168.0, 21832.356969399094, 33717.33828989724, -52892.60928542725, -56500.247895747176, -36618.23709228481, -20992.33370927974, -187500.02235174447, -39187.212489511076, -9562.836237291842, 17067.14386548327, -50925.85693906033, -46561.83529637281, -22517.572047420985, -53596.04103518022, -53542.91093860995, -43242.04245114833, -0.012, 0.996, 0.198, 192.0, 127.5, 80.0, 15.5, 16.0, 3.0, 24.0, 0.0, 0.0, 0.0, 1.695419769878645E9, 0.0, 2023-09-22 16:56:09.878
170.0, 21791.87796019053, 33681.217870857465, -52893.95039009457, -56476.46563964673, -36638.08544136112, -20964.9975258109, -187500.02235174447, -39174.628457382736, -9580.047080522429, 17047.2731646625, -50933.23301473058, -46571.96063661107, -22532.592419694953, -53606.54635507421, -53556.83607540561, -43254.09004140974, -0.012, 0.996, 0.198, 192.0, 0.0, 0.0, 0.0, 0.0, 0.0, 0.0, 0.0, 0.0, 0.0, 1.695419769878648E9, 0.0, 2023-09-22 16:56:09.878
172.0, 21831.395844387513, 33716.13129569665, -52881.545171921876, -56477.02443325811, -36598.92518507543, -20963.52231067685, -187500.02235174447, -39164.74898633349, -9552.755600542498, 17079.61613888933, -50899.8618602588, -46538.29890946137, -22499.534189645554, -53575.231561092325, -53526.75062736877, -43222.81995091676, -0.012, 0.996, 0.198, 192.0, 0.0, 0.0, 0.0, 0.0, 0.0, 0.0, 0.0, 0.0, 0.0, 1.695419769878652E9, 0.0, 2023-09-22 16:56:09.878
174.0, 21802.807963229177, 33687.47635930495, -52887.08840454679, -56465.98267149719, -36624.897912132496, -20952.011162282368, -187500.02235174447, -39161.59739036529, -9559.79640004592, 17074.13996149778, -50905.338037650356, -46546.99373805449, -22510.039509539547, -53583.85933445208, -53534.81960711713, -43228.78786668633, -0.012, 0.996, 0.198, 192.0, 0.0, 0.0, 0.0, 0.0, 0.0, 0.0, 0.0, 0.0, 0.0, 1.695419769878655E9, 0.0, 2023-09-22 16:56:09.878
176.0, 21820.532896582234, 33701.66971703407, -52884.69676789007, -56484.04288101708, -36601.09330428759, -20971.032496813834, -187500.02235174447, -39168.48172765753, -9544.485455094034, 17079.034993533493, -50892.12815667727, -46536.06373501584, -22491.912244786294, -53574.27043608075, -53520.02275228772, -43216.80733165829, -0.012, 0.996, 0.198, 192.0, 0.0, 0.0, 0.0, 0.0, 0.0, 0.0, 0.0, 0.0, 0.0, 1.695419769878659E9, 0.0, 2023-09-22 16:56:09.878
178.0, 21801.17628588394, 33684.168301125566, -52904.99215185549, -56489.98844504219, -36637.28077856074, -20973.91587184857, -187500.02235174447, -39180.23874524102, -9573.050984507918, 17058.292574678966, -50922.1689012252, -46569.278427276426, -22517.996730565636, -53606.79222426322, -53547.5377497122, -43247.183352373046, -0.012, 0.988, 0.20400000000000001, 192.0, 127.5, 80.0, 15.0, 112.0, 3.0, 48.0, 0.0, 0.0, 0.0, 1.695419769878662E9, 0.0, 2023-09-22 16:56:09.878
180.0, 21798.6952422494, 33680.14498712361, -52907.36143676775, -56510.70851215226, -36620.15934230797, -20994.032441858344, -187500.02235174447, -39191.258155257485, -9563.953824514607, 17049.955373997138, -50912.71411332061, -46561.656482417166, -22506.373823448877, -53597.2033258919, -53538.23942401879, -43238.84615169122, -0.012, 0.988, 0.20400000000000001, 192.0, 0.0, 0.0, 0.0, 0.0, 0.0, 0.0, 0.0, 0.0, 0.0, 1.695419769938954E9, 0.0, 2023-09-22 16:56:09.938
182.0, 21795.945977681396, 33684.078894147744, -52909.59661121328, -56494.0341107886, -36643.271046074755, -20977.53685445033, -187500.02235174447, -39185.446701699104, -9591.245304494538, 17040.99232447056, -50940.96671831211, -46587.71861645205, -22527.049187070035, -53622.505500615305, -53564.43566852042, -43267.36697761619, -0.012, 0.988, 0.20400000000000001, 192.0, 0.0, 0.0, 0.0, 0.0, 0.0, 0.0, 0.0, 0.0, 0.0, 1.69541976993897E9, 0.0, 2023-09-22 16:56:09.938
184.0, 21790.55920726767, 33673.21594634246, -52902.66757043214, -56496.35869221195, -36621.7910196532, -20979.68262191804, -187500.02235174447, -39180.88694583022, -9568.580635616856, 17050.156539697236, -50918.749084323535, -46563.39991848468, -22519.851925355426, -53595.7504625023, -53546.35310725607, -43238.53322726885, -0.012, 0.988, 0.20400000000000001, 192.0, 0.0, 0.0, 0.0, 0.0, 0.0, 0.0, 0.0, 0.0, 0.0, 1.695419769938974E9, 0.0, 2023-09-22 16:56:09.938
186.0, 21806.965387697863, 33694.070123919264, -52900.72296866453, -56483.37232868342, -36638.1972000834, -20967.2997554898, -187500.02235174447, -39176.10367251679, -9583.980987546562, 17060.46069389113, -50937.25632873253, -46576.67685469113, -22531.921867361292, -53611.150814432, -53561.17231382994, -43252.19014313104, -0.012, 0.988, 0.20400000000000001, 192.0, 0.0, 0.0, 0.0, 0.0, 0.0, 0.0, 0.0, 0.0, 0.0, 1.695419769938979E9, 0.0, 2023-09-22 16:56:09.938
188.0, 21780.187997840407, 33666.35396079469, -52897.6384279297, -56494.011759044144, -36625.657871443975, -20979.57086319576, -187500.02235174447, -39180.43991094112, -9560.265786679482, 17060.348935168855, -50911.44006388665, -46554.459220702556, -22505.4126984373, -53584.08285189663, -53536.76420888474, -43224.384573028634, -0.012, 0.992, 0.20600000000000002, 192.0, 127.5, 80.0, 15.5, 0.0, 3.0, 56.0, 0.0, 0.0, 0.0, 1.695419769938985E9, 0.0, 2023-09-22 16:56:09.938
190.0, 21807.635940031523, 33693.91366170808, -52910.78125366942, -56500.1361370249, -36650.84828744511, -20989.942072623024, -187500.02235174447, -39196.577870437846, -9590.194772505138, 17053.71046706563, -50945.92880558119, -46587.15982284067, -22532.167736550302, -53620.85147152561, -53567.2966918107, -43259.52151531238, -0.012, 0.992, 0.20600000000000002, 192.0, 0.0, 0.0, 0.0, 0.0, 0.0, 0.0, 0.0, 0.0, 0.0, 1.695419769938988E9, 0.0, 2023-09-22 16:56:09.938
192.0, 21778.466913517346, 33661.74950143689, -52881.254599243955, -56477.65028210286, -36616.94069110641, -20969.043191557314, -187500.02235174447, -39167.16297473467, -9563.5067896255, 17046.33439139538, -50910.76951155299, -46556.78380212591, -22502.484619913652, -53591.16835488896, -53540.45224671987, -43229.41371553108, -0.012, 0.992, 0.20600000000000002, 192.0, 0.0, 0.0, 0.0, 0.0, 0.0, 0.0, 0.0, 0.0, 0.0, 1.695419769938996E9, 0.0, 2023-09-22 16:56:09.938
194.0, 21814.520277323758, 33701.490903078426, -52908.56843096834, -56500.67257889183, -36647.94256066591, -20994.63593895864, -187500.02235174447, -39194.63326867024, -9587.84783933733, 17057.75613281204, -50937.1222182658, -46578.95673262558, -22524.434032968766, -53618.012799979784, -53559.38417427352, -43253.1065646537, -0.012, 0.992, 0.20600000000000002, 192.0, 0.0, 0.0, 0.0, 0.0, 0.0, 0.0, 0.0, 0.0, 0.0, 1.695419769938999E9, 0.0, 2023-09-22 16:56:09.938
196.0, 21774.6894687044, 33658.32968453523, -52888.47421270302, -56478.25377920315, -36629.59177846811, -20969.937261335526, -187500.02235174447, -39168.749948590994, -9573.18509497465, 17040.210013414624, -50918.749084323535, -46564.71867140754, -22508.541942661042, -53598.65618928149, -53549.41529624645, -43235.426334789554, -0.012, 0.992, 0.20600000000000002, 192.0, 0.0, 0.0, 0.0, 0.0, 0.0, 0.0, 0.0, 0.0, 0.0, 1.695419769998258E9, 0.0, 2023-09-22 16:56:09.998
198.0, 21828.93715249743, 33714.18669392904, -52888.742433636486, -56477.98555826969, -36623.75797316527, -20971.05484855829, -187500.02235174447, -39167.98998927951, -9570.994624018029, 17074.13996149778, -50921.74421808055, -46562.774069639934, -22517.415585209797, -53599.907886970985, -53545.16846479994, -43234.19698884452, -0.016, 0.996, 0.2, 192.0, 127.5, 64.0, 15.5, 16.0, 3.0, 32.0, 0.0, 0.0, 0.0, 1.695419769998271E9, 0.0, 2023-09-22 16:56:09.998
200.0, 21770.10736109106, 33650.97596060943, -52889.25652375895, -56478.25377920315, -36634.97854888184, -20972.06067705878, -187500.02235174447, -39168.45937591307, -9570.927568784664, 17048.413103629722, -50913.89875577674, -46559.845991116286, -22526.35628299192, -53594.78933749072, -53543.20151128787, -43228.385535286136, -0.016, 0.996, 0.2, 192.0, 0.0, 0.0, 0.0, 0.0, 0.0, 0.0, 0.0, 0.0, 0.0, 1.695419769998275E9, 0.0, 2023-09-22 16:56:09.998
202.0, 21818.096556436605, 33703.54726356832, -52905.55094546687, -56500.717282380734, -36644.5003920198, -20994.77004942537, -187500.02235174447, -39188.888870345225, -9586.014996291995, 17062.38294391429, -50933.590642641866, -46578.48734599201, -22519.047262555036, -53614.61533482258, -53553.03627884821, -43245.95400642801, -0.016, 0.996, 0.2, 192.0, 0.0, 0.0, 0.0, 0.0, 0.0, 0.0, 0.0, 0.0, 0.0, 1.695419769998278E9, 0.0, 2023-09-22 16:56:09.998
204.0, 21769.54856747968, 33655.2451438004, -52875.1302212632, -56457.667822559815, -36622.5956824536, -20951.698237859993, -187500.02235174447, -39151.337939660305, -9569.251187950515, 17047.630792573786, -50915.753950566526, -46561.63413067271, -22504.54098040354, -53592.24123862282, -53541.122799053526, -43226.7538579409, -0.016, 0.996, 0.2, 192.0, 0.0, 0.0, 0.0, 0.0, 0.0, 0.0, 0.0, 0.0, 0.0, 1.695419769998282E9, 0.0, 2023-09-22 16:56:09.998
206.0, 21827.216068174374, 33713.53849333984, -52885.56848592383, -56477.56087512504, -36618.527664962734, -20969.177302024043, -187500.02235174447, -39167.52060264595, -9563.059754736394, 17087.171028515226, -50912.9152790207, -46553.051060801874, -22494.348584931922, -53586.98857867582, -53530.282202992705, -43224.51868349537, -0.016, 0.996, 0.2, 192.0, 0.0, 0.0, 0.0, 0.0, 0.0, 0.0, 0.0, 0.0, 0.0, 1.695419769998289E9, 0.0, 2023-09-22 16:56:09.998
208.0, 21769.92854713542, 33652.89821063259, -52894.35272149476, -56472.46467738923, -36639.426546028444, -20963.656421143583, -187500.02235174447, -39166.55947763437, -9567.865379794286, 17056.459731633633, -50917.85501454533, -46562.46114521756, -22508.944274061236, -53592.24123862282, -53541.90511010947, -43232.140628354624, -0.012, 0.994, 0.198, 192.0, 127.5, 80.0, 15.5, 8.0, 3.0, 24.0, 0.0, 0.0, 0.0, 1.695419769998293E9, 0.0, 2023-09-22 16:56:09.998
210.0, 21834.145108955516, 33712.24209216143, -52884.98734056799, -56477.13619198039, -36613.3420602491, -20969.467874701964, -187500.02235174447, -39165.75481483398, -9555.258995921493, 17084.71233662514, -50905.181575439165, -46549.430078200116, -22495.242654710135, -53583.144078629506, -53526.728275624315, -43217.83551190323, -0.012, 0.994, 0.198, 192.0, 0.0, 0.0, 0.0, 0.0, 0.0, 0.0, 0.0, 0.0, 0.0, 1.695419770058049E9, 0.0, 2023-09-22 16:56:10.058
212.0, 21776.812884427654, 33655.46866124495, -52885.70259639056, -56462.40639238434, -36633.36922328106, -20955.050999528292, -187500.02235174447, -39160.68096884262, -9564.22204544807, 17057.3761531563, -50911.68593307566, -46558.05785155986, -22511.626483395874, -53587.256799609284, -53536.33952574009, -43221.54590148281, -0.012, 0.994, 0.198, 192.0, 0.0, 0.0, 0.0, 0.0, 0.0, 0.0, 0.0, 0.0, 0.0, 1.695419770058069E9, 0.0, 2023-09-22 16:56:10.058
214.0, 21825.6514460625, 33704.03900194633, -52892.8328028718, -56487.082718263, -36621.67926093093, -20978.67679341755, -187500.02235174447, -39176.595410894806, -9559.550530856912, 17080.353746456356, -50912.468244131596, -46558.03549981541, -22504.429221681265, -53584.14990713, -53529.47754019232, -43219.13191308164, -0.012, 0.994, 0.198, 192.0, 0.0, 0.0, 0.0, 0.0, 0.0, 0.0, 0.0, 0.0, 0.0, 1.695419770058073E9, 0.0, 2023-09-22 16:56:10.058
216.0, 21783.473704275337, 33660.63191421413, -52886.015520812936, -56463.03224122909, -36640.05239487319, -20955.58744139522, -187500.02235174447, -39163.363178177264, -9573.27450195247, 17056.79500780046, -50926.54984313844, -46575.38045351273, -22508.586646149954, -53595.9516282024, -53550.10820032456, -43234.80048594481, -0.012, 0.994, 0.198, 192.0, 0.0, 0.0, 0.0, 0.0, 0.0, 0.0, 0.0, 0.0, 0.0, 1.695419770058076E9, 0.0, 2023-09-22 16:56:10.058
218.0, 21824.064472206173, 33699.99333619992, -52890.50822144845, -56488.58028514151, -36623.02036559825, -20980.44258122952, -187500.02235174447, -39178.20473649559, -9553.26969066497, 17081.605444145855, -50911.68593307566, -46561.18709578361, -22487.576006361964, -53580.059537894675, -53527.82351110262, -43216.82968340274, -0.008, 0.996, 0.20600000000000002, 192.0, 127.5, 96.0, 15.5, 16.0, 3.0, 56.0, 0.0, 0.0, 0.0, 1.695419770058079E9, 0.0, 2023-09-22 16:56:10.058
220.0, 21780.925605407432, 33659.51432699136, -52895.87264011773, -56475.72803207971, -36650.17773511144, -20967.076238045247, -187500.02235174447, -39173.913201560164, -9581.902275312219, 17047.13905419577, -50938.5750816554, -46588.83620367482, -22516.65562589832, -53603.551221317204, -53556.47844749432, -43238.309709824294, -0.008, 0.996, 0.20600000000000002, 192.0, 0.0, 0.0, 0.0, 0.0, 0.0, 0.0, 0.0, 0.0, 0.0, 1.695419770058082E9, 0.0, 2023-09-22 16:56:10.058
222.0, 21808.97704469884, 33685.062370903775, -52893.19043078309, -56495.26345673364, -36627.17779006693, -20987.48338073294, -187500.02235174447, -39182.18334700863, -9570.882865295753, 17057.62202234531, -50927.08628500537, -46578.06266284736, -22503.803372836515, -53590.676616510944, -53541.36866824254, -43224.205759073, -0.008, 0.996, 0.20600000000000002, 192.0, 0.0, 0.0, 0.0, 0.0, 0.0, 0.0, 0.0, 0.0, 0.0, 1.695419770058085E9, 0.0, 2023-09-22 16:56:10.058
224.0, 21791.252111345784, 33667.35978929517, -52881.16519226613, -56464.14982845185, -36636.52081924925, -20958.403761196587, -187500.02235174447, -39161.44092815411, -9579.935321800152, 17045.686190806173, -50938.329212466386, -46590.6466949757, -22512.07351828498, -53601.62897129405, -53552.96922361484, -43235.69455572302, -0.008, 0.996, 0.20600000000000002, 192.0, 0.0, 0.0, 0.0, 0.0, 0.0, 0.0, 0.0, 0.0, 0.0, 1.695419770058089E9, 0.0, 2023-09-22 16:56:10.058
226.0, 21802.718556251355, 33674.020609142855, -52893.86098311675, -56495.196401500274, -36630.99993836879, -20989.427982500554, -187500.02235174447, -39181.6469051417, -9570.055850750907, 17050.022429230503, -50929.70143910664, -46580.65546520418, -22508.340776960944, -53592.26359036727, -53540.67576416442, -43224.92101489556, -0.008, 0.996, 0.20600000000000002, 192.0, 0.0, 0.0, 0.0, 0.0, 0.0, 0.0, 0.0, 0.0, 0.0, 1.695419770118341E9, 0.0, 2023-09-22 16:56:10.118
228.0, 21794.895445691996, 33666.86805091715, -52899.22540178602, -56483.34997693897, -36656.32446483665, -20978.319165506266, -187500.02235174447, -39182.54097491992, -9592.675816139677, 17035.963181968116, -50953.9754335851, -46603.07426489285, -22531.36307374991, -53615.73292204535, -53564.86035166507, -43249.910265196595, -0.006, 0.992, 0.2, 192.0, 127.5, 104.0, 15.5, 0.0, 3.0, 32.0, 0.0, 0.0, 0.0, 1.695419770118353E9, 0.0, 2023-09-22 16:56:10.118
230.0, 21790.31333807866, 33662.39770202609, -52897.0349308294, -56502.70658763726, -36637.43724077192, -20996.647595959617, -187500.02235174447, -39190.16291977918, -9567.664214094188, 17042.109911693326, -50931.6683926187, -46582.756529182974, -22506.39617519333, -53595.45988982438, -53543.89441536599, -43229.704288208995, -0.006, 0.992, 0.2, 192.0, 0.0, 0.0, 0.0, 0.0, 0.0, 0.0, 0.0, 0.0, 0.0, 1.695419770118356E9, 0.0, 2023-09-22 16:56:10.118
232.0, 21798.203503871384, 33675.65228648809, -52892.89985810517, -56477.69498559177, -36647.651987988, -20969.177302024043, -187500.02235174447, -39174.628457382736, -9604.455185467623, 17024.004998684526, -50967.207666302646, -46615.52418655446, -22534.067634829004, -53628.98750650734, -53573.644587236, -43260.59439904623, -0.006, 0.992, 0.2, 192.0, 0.0, 0.0, 0.0, 0.0, 0.0, 0.0, 0.0, 0.0, 0.0, 1.695419770118359E9, 0.0, 2023-09-22 16:56:10.118
234.0, 21790.64861424549, 33662.129481092634, -52881.65693064415, -56483.05940426105, -36623.646214443, -20974.988755582424, -187500.02235174447, -39171.812137581364, -9557.382411644747, 17052.369362398313, -50914.703418577126, -46563.35521499577, -22491.21934070818, -53575.56683725916, -53525.45422619036, -43208.35837225418, -0.006, 0.992, 0.2, 192.0, 0.0, 0.0, 0.0, 0.0, 0.0, 0.0, 0.0, 0.0, 0.0, 1.695419770118363E9, 0.0, 2023-09-22 16:56:10.118
236.0, 21803.254998118282, 33679.63089700114, -52906.02033210044, -56493.743538110684, -36663.23115387335, -20987.908063877592, -187500.02235174447, -39192.82277736936, -9598.71078714261, 17044.546251838954, -50956.05414581945, -46600.3473520693, -22530.64781792734, -53617.69987555741, -53566.13440109902, -43254.51472455439, -0.006, 0.992, 0.2, 192.0, 0.0, 0.0, 0.0, 0.0, 0.0, 0.0, 0.0, 0.0, 0.0, 1.695419770118366E9, 0.0, 2023-09-22 16:56:10.118
238.0, 21781.238529829807, 33654.06050134427, -52879.37705270971, -56474.14105822338, -36630.77642092424, -20968.886729346126, -187500.02235174447, -39170.26986721395, -9574.436792664146, 17042.400484371243, -50926.21456697161, -46572.85470638928, -22505.233884481655, -53588.06146240968, -53546.4872177228, -43227.93850039703, -0.012, 1.0, 0.19, 192.0, 127.5, 80.0, 15.5, 32.0, 2.5, 120.0, 0.0, 0.0, 0.0, 1.695419770118369E9, 0.0, 2023-09-22 16:56:10.118
240.0, 21817.805983758688, 33692.03611517383, -52878.77355560941, -56469.15661920985, -36639.11362160607, -20964.23756649942, -187500.02235174447, -39168.86170731327, -9572.626301363267, 17068.216749217125, -50928.62855537279, -46573.70407267858, -22509.12308801688, -53589.55902928818, -53543.715601410346, -43229.011384130885, -0.012, 1.0, 0.19, 192.0, 0.0, 0.0, 0.0, 0.0, 0.0, 0.0, 0.0, 0.0, 0.0, 1.695419770178563E9, 0.0, 2023-09-22 16:56:10.178
242.0, 21781.149122851984, 33651.020664098345, -52872.291549717374, -56469.44719188776, -36623.73562142082, -20964.349325221698, -187500.02235174447, -39164.50311714448, -9560.578711101856, 17049.821263530404, -50917.1174069783, -46565.47863071902, -22497.96956753368, -53576.95264541539, -53534.43962746139, -43214.21452930147, -0.012, 1.0, 0.19, 192.0, 0.0, 0.0, 0.0, 0.0, 0.0, 0.0, 0.0, 0.0, 0.0, 1.695419770178579E9, 0.0, 2023-09-22 16:56:10.178
244.0, 21818.78946051472, 33693.89130996363, -52896.74435815148, -56489.899038064366, -36646.95908390988, -20984.71176442048, -187500.02235174447, -39185.15612902118, -9586.730252114565, 17055.967993255617, -50943.73833462457, -46589.66321821967, -22515.158059019814, -53602.67950328344, -53549.728220668825, -43240.03079414735, -0.012, 1.0, 0.19, 192.0, 0.0, 0.0, 0.0, 0.0, 0.0, 0.0, 0.0, 0.0, 0.0, 1.695419770178591E9, 0.0, 2023-09-22 16:56:10.178
246.0, 21770.040305857696, 33644.62806518413, -52888.65302665866, -56479.818401315024, -36644.38863329752, -20976.91100560558, -187500.02235174447, -39178.607067895784, -9580.09178401134, 17033.660952289218, -50936.25050023205, -46584.9470001396, -22512.654663640817, -53591.99536943381, -53549.54940671318, -43233.66054697759, -0.012, 1.0, 0.19, 192.0, 0.0, 0.0, 0.0, 0.0, 0.0, 0.0, 0.0, 0.0, 0.0, 1.695419770178595E9, 0.0, 2023-09-22 16:56:10.178
248.0, 21823.103347194596, 33697.66875477657, -52891.26818075993, -56486.613331629436, -36642.93576990793, -20982.141313808123, -187500.02235174447, -39181.825719097345, -9584.450374180124, 17058.56079561243, -50945.61588115882, -46592.36777929876, -22512.721718874185, -53602.47833758335, -53554.13151432652, -43243.6070732602, -0.01, 1.0, 0.196, 192.0, 127.5, 88.0, 15.5, 32.0, 3.0, 16.0, 0.0, 0.0, 0.0, 1.695419770178598E9, 0.0, 2023-09-22 16:56:10.178
250.0, 21772.767218681245, 33642.59405643869, -52871.21866598352, -56462.071116217514, -36627.22249355585, -20955.56508965076, -187500.02235174447, -39156.38943390721, -9568.804153061408, 17045.84265301736, -50929.34381119535, -46581.01309311546, -22500.45061116822, -53584.9992734193, -53541.8380548761, -43224.98807012893, -0.01, 1.0, 0.196, 192.0, 0.0, 0.0, 0.0, 0.0, 0.0, 0.0, 0.0, 0.0, 0.0, 1.695419770178602E9, 0.0, 2023-09-22 16:56:10.178
252.0, 21822.36573962757, 33693.37721984115, -52894.531535450405, -56492.44713693227, -36636.78904018272, -20985.874055132157, -187500.02235174447, -39184.57498366535, -9575.532028142456, 17072.083601007893, -50938.91035782223, -46586.98100888503, -22500.607073379408, -53591.48127931134, -53539.60288043057, -43228.20672133049, -0.01, 1.0, 0.196, 192.0, 0.0, 0.0, 0.0, 0.0, 0.0, 0.0, 0.0, 0.0, 0.0, 1.695419770178605E9, 0.0, 2023-09-22 16:56:10.178
254.0, 21766.508730233756, 33636.60378892467, -52881.65693064415, -56469.64835758786, -36638.13014485004, -20962.784703109828, -187500.02235174447, -39167.72176834605, -9586.886714325752, 17032.230440644078, -50943.80538985794, -46594.13356711073, -22514.062823541502, -53593.47058456786, -53550.80110440268, -43230.91128240959, -0.01, 1.0, 0.196, 192.0, 0.0, 0.0, 0.0, 0.0, 0.0, 0.0, 0.0, 0.0, 0.0, 1.695419770178609E9, 0.0, 2023-09-22 16:56:10.178
0.0, 21827.149012941005, 33699.83687398874, -52879.98054981, -56477.091488491475, -36621.76866790875, -20968.640860157117, -187500.02235174447, -39168.03469276842, -9579.242417722036, 17057.42085664521, -50939.53620666698, -46588.97031414155, -22505.97149204868, -53590.631913022036, -53540.74281939779, -43227.26794806337, -0.01, 1.0, 0.196, 192.0, 0.0, 0.0, 0.0, 0.0, 0.0, 0.0, 0.0, 0.0, 0.0, 1.695419770238973E9, 0.0, 2023-09-22 16:56:10.238
2.0, 21777.50578850577, 33649.053710586275, -52865.29545370286, -56452.05753470153, -36624.76380166576, -20943.159871478067, -187500.02235174447, -39146.6887768136, -9558.231777934048, 17054.582185099385, -50917.005648256025, -46569.144316809696, -22485.87727378336, -53566.55908424367, -53524.85072909007, -43204.08918906322, -0.008, 0.992, 0.2, 192.0, 127.5, 96.0, 15.5, 0.0, 3.0, 32.0, 0.0, 0.0, 0.0, 1.695419770238985E9, 0.0, 2023-09-22 16:56:10.238
4.0, 21827.663103063478, 33698.965155954975, -52883.489773689485, -56486.21100022925, -36629.211798812365, -20978.14035155062, -187500.02235174447, -39173.95790504908, -9573.833295563853, 17061.13124622479, -50935.98227929858, -46586.466918762555, -22499.623596623373, -53587.83794496512, -53537.81474087414, -43222.439971261025, -0.008, 0.992, 0.2, 192.0, 0.0, 0.0, 0.0, 0.0, 0.0, 0.0, 0.0, 0.0, 0.0, 1.695419770238989E9, 0.0, 2023-09-22 16:56:10.238
6.0, 21777.997526883784, 33650.1936495535, -52873.58795089578, -56460.327680149996, -36639.60535998409, -20953.15110124959, -187500.02235174447, -39157.55172461888, -9576.426097920668, 17041.1711384262, -50933.81416008642, -46585.75166293999, -22504.228055981166, -53582.428822806934, -53539.938156597396, -43216.80733165829, -0.008, 0.992, 0.2, 192.0, 0.0, 0.0, 0.0, 0.0, 0.0, 0.0, 0.0, 0.0, 0.0, 1.695419770238992E9, 0.0, 2023-09-22 16:56:10.238
8.0, 21827.774861785754, 33696.84174023172, -52871.7774595949, -56476.51034313564, -36617.99122309581, -20971.34542123621, -187500.02235174447, -39165.955980534076, -9568.424173405669, 17065.534539882487, -50927.26509896101, -46577.392110513705, -22488.291262184535, -53575.589189003615, -53528.65052564747, -43209.364200754666, -0.008, 0.992, 0.2, 192.0, 0.0, 0.0, 0.0, 0.0, 0.0, 0.0, 0.0, 0.0, 0.0, 1.695419770238996E9, 0.0, 2023-09-22 16:56:10.238
10.0, 21781.21617808535, 33650.260704786866, -52875.376090452206, -56463.188703440275, -36645.05918563118, -20960.616583897663, -187500.02235174447, -39163.13966073271, -9577.677795610165, 17046.736722795573, -50937.3233839659, -46589.86438391977, -22502.439916424744, -53585.98275017533, -53540.40754323096, -43220.763590426875, -0.008, 0.992, 0.2, 192.0, 0.0, 0.0, 0.0, 0.0, 0.0, 0.0, 0.0, 0.0, 0.0, 1.695419770239007E9, 0.0, 2023-09-22 16:56:10.239
12.0, 21823.46097510588, 33689.264498861376, -52874.549075907365, -56478.81257281454, -36619.712307418864, -20978.2521102729, -187500.02235174447, -39171.76743409246, -9565.697260582121, 17059.700734579652, -50930.439046673666, -46581.75070068249, -22492.716907586684, -53578.47256403835, -53531.35508672656, -43214.08041883474, -0.006, 0.996, 0.198, 192.0, 127.5, 104.0, 15.5, 16.0, 3.0, 24.0, 0.0, 0.0, 0.0, 1.69541977023901E9, 0.0, 2023-09-22 16:56:10.239
14.0, 21788.5922537556, 33655.222792055945, -52881.50046843296, -56469.04486048757, -36648.74722346631, -20967.746790378904, -187500.02235174447, -39170.202811980584, -9580.717632856087, 17042.244022160055, -50946.88993059277, -46598.53686076842, -22508.519590916585, -53590.60956127758, -53549.12472356853, -43229.301956808806, -0.006, 0.996, 0.198, 192.0, 0.0, 0.0, 0.0, 0.0, 0.0, 0.0, 0.0, 0.0, 0.0, 1.695419770298427E9, 0.0, 2023-09-22 16:56:10.298
16.0, 21807.83710573162, 33672.120710864154, -52883.825049856314, -56492.29067472109, -36631.22345581334, -20989.383279011643, -187500.02235174447, -39181.691608630616, -9580.315301455892, 17042.825167515894, -50946.84522710386, -46600.05677939139, -22506.530285660065, -53588.106165898585, -53543.715601410346, -43225.61391897368, -0.006, 0.996, 0.198, 192.0, 0.0, 0.0, 0.0, 0.0, 0.0, 0.0, 0.0, 0.0, 0.0, 1.695419770298441E9, 0.0, 2023-09-22 16:56:10.298
18.0, 21793.666099746955, 33662.554164237285, -52872.6268258842, -56460.528845850095, -36646.73556646533, -20959.05196178579, -187500.02235174447, -39162.91614328815, -9595.13450802976, 17036.90195523524, -50957.95404409815, -46611.47852080805, -22515.962721820204, -53598.030340436744, -53555.29380503819, -43236.141590612126, -0.006, 0.996, 0.198, 192.0, 0.0, 0.0, 0.0, 0.0, 0.0, 0.0, 0.0, 0.0, 0.0, 1.695419770298444E9, 0.0, 2023-09-22 16:56:10.298
20.0, 21809.759355754777, 33674.73586496543, -52856.48886638747, -56463.85925577394, -36613.431467226925, -20963.969345565958, -187500.02235174447, -39157.350558918784, -9561.584539602345, 17060.818321802417, -50923.733523337076, -46576.67685469113, -22482.92684351526, -53563.005156875275, -53523.33081046711, -43202.88219486263, -0.006, 0.996, 0.198, 192.0, 0.0, 0.0, 0.0, 0.0, 0.0, 0.0, 0.0, 0.0, 0.0, 1.695419770298448E9, 0.0, 2023-09-22 16:56:10.298
22.0, 21799.008166671774, 33667.00216138389, -52874.549075907365, -56464.26158717413, -36648.791926955215, -20965.981002566936, -187500.02235174447, -39165.397186922695, -9583.42219393518, 17055.297440921957, -50945.48177069209, -46598.93919216862, -22499.109506500903, -53585.513363541766, -53544.184988043904, -43226.93267189654, -0.006, 1.0, 0.196, 192.0, 127.5, 104.0, 15.5, 32.0, 3.0, 16.0, 0.0, 0.0, 0.0, 1.695419770298451E9, 0.0, 2023-09-22 16:56:10.298
24.0, 21799.07522190514, 33662.75532993738, -52869.363471193734, -56471.25768318864, -36622.26040628677, -20971.300717747297, -187500.02235174447, -39161.195058965095, -9563.640900092232, 17056.213862444623, -50928.13681699477, -46582.46595650506, -22491.286395941544, -53565.62031097655, -53528.85169134757, -43208.380723998634, -0.006, 1.0, 0.196, 192.0, 0.0, 0.0, 0.0, 0.0, 0.0, 0.0, 0.0, 0.0, 0.0, 1.695419770298454E9, 0.0, 2023-09-22 16:56:10.298
26.0, 21803.165591140463, 33669.86318467417, -52881.27695098841, -56471.61531109993, -36651.2506188453, -20969.669040402063, -187500.02235174447, -39169.375797435736, -9593.569885917888, 17044.94858323915, -50962.26793077802, -46615.971221443564, -22513.392271207842, -53597.15862240298, -53557.193703316894, -43238.39911680212, -0.006, 1.0, 0.196, 192.0, 0.0, 0.0, 0.0, 0.0, 0.0, 0.0, 0.0, 0.0, 0.0, 1.695419770298457E9, 0.0, 2023-09-22 16:56:10.298
28.0, 21788.12286712204, 33653.1440798216, -52859.931035033595, -56465.40152614135, -36620.31580451915, -20961.309487975777, -187500.02235174447, -39153.10372747228, -9568.290062938937, 17044.121568694303, -50932.0707240189, -46590.378474042234, -22488.53713137354, -53567.900188910986, -53530.997458815276, -43210.7500089109, -0.006, 1.0, 0.196, 192.0, 0.0, 0.0, 0.0, 0.0, 0.0, 0.0, 0.0, 0.0, 0.0, 1.69541977029846E9, 0.0, 2023-09-22 16:56:10.298
30.0, 21810.966349955364, 33676.99339115541, -52876.44897418606, -56472.08469773349, -36646.132069365034, -20970.272537502355, -187500.02235174447, -39166.98416077902, -9585.389147447248, 17053.643411832265, -50951.4273347172, -46609.064532406876, -22505.83738158195, -53589.33551184363, -53544.27439502173, -43231.51477950988, -0.006, 1.0, 0.196, 192.0, 0.0, 0.0, 0.0, 0.0, 0.0, 0.0, 0.0, 0.0, 0.0, 1.695419770358106E9, 0.0, 2023-09-22 16:56:10.358
32.0, 21789.799247956187, 33651.53475422082, -52846.05060172685, -56449.71060153373, -36609.1399322915, -20949.3960081811, -187500.02235174447, -39140.89967499968, -9550.855702263798, 17050.313001908424, -50917.07270348939, -46581.01309311546, -22472.577985832453, -53559.80885741817, -53519.01692378723, -43204.35740999668, -0.006, 1.0, 0.196, 192.0, 127.5, 104.0, 15.5, 32.0, 3.0, 16.0, 0.0, 0.0, 0.0, 1.695419770358123E9, 0.0, 2023-09-22 16:56:10.358
34.0, 21817.22483840285, 33682.91660343607, -52885.859058601745, -56483.03705251659, -36652.01057815678, -20984.242377786923, -187500.02235174447, -39179.724655118545, -9575.599083375822, 17061.310060180433, -50945.41471545872, -46604.52712828245, -22500.69648035723, -53588.70966299888, -53540.921633353435, -43231.35831729869, -0.006, 1.0, 0.196, 192.0, 0.0, 0.0, 0.0, 0.0, 0.0, 0.0, 0.0, 0.0, 0.0, 1.695419770358126E9, 0.0, 2023-09-22 16:56:10.358
36.0, 21771.940204136397, 33635.10622204617, -52886.41785221313, -56486.70273860726, -36647.92020892146, -20985.874055132157, -187500.02235174447, -39175.92485856114, -9578.080127010362, 17025.770786496494, -50946.59935791485, -46607.63402076173, -22502.372861191376, -53588.62025602106, -53548.54357821269, -43232.140628354624, -0.006, 1.0, 0.196, 192.0, 0.0, 0.0, 0.0, 0.0, 0.0, 0.0, 0.0, 0.0, 0.0, 1.69541977035813E9, 0.0, 2023-09-22 16:56:10.358
38.0, 21813.31328312317, 33682.6483825026, -52888.13893653619, -56487.41799442983, -36653.08346189064, -20985.047040587313, -187500.02235174447, -39179.56819290736, -9600.811851121409, 17033.19156565566, -50972.46032624964, -46630.81277976189, -22523.249390512632, -53613.72126504437, -53568.593092989104, -43256.6604920221, -0.006, 1.0, 0.196, 192.0, 0.0, 0.0, 0.0, 0.0, 0.0, 0.0, 0.0, 0.0, 0.0, 1.695419770358133E9, 0.0, 2023-09-22 16:56:10.358
40.0, 21771.11318959155, 33642.482297716415, -52854.2760436864, -56448.74947652215, -36625.41200225497, -20945.596211623695, -187500.02235174447, -39142.57605583382, -9563.663251836688, 17041.305248892935, -50927.66743036121, -46589.685569964124, -22478.769419046574, -53568.101354611084, -53531.064514048645, -43212.82872114524, -0.006, 1.0, 0.196, 192.0, 0.0, 0.0, 0.0, 0.0, 0.0, 0.0, 0.0, 0.0, 0.0, 1.695419770358136E9, 0.0, 2023-09-22 16:56:10.358
42.0, 21821.73989078282, 33695.52298730886, -52877.052471286355, -56478.499648392164, -36640.611188484574, -20978.16270329508, -187500.02235174447, -39170.67219861415, -9571.598121118323, 17066.138036982782, -50938.329212466386, -46596.23463108953, -22493.298052942522, -53577.93612217142, -53533.8361303611, -43216.60616595819, -0.008, 0.998, 0.194, 192.0, 127.5, 96.0, 15.5, 24.0, 3.0, 8.0, 0.0, 0.0, 0.0, 1.695419770358139E9, 0.0, 2023-09-22 16:56:10.358
44.0, 21769.92854713542, 33640.381233737615, -52855.37127916471, -56450.49291258966, -36631.22345581334, -20950.2453744704, -187500.02235174447, -39141.68198605561, -9565.719612326577, 17035.13616742327, -50929.388514684266, -46592.479538021034, -22488.134799973348, -53570.11301161206, -53530.34925822607, -43207.64311643161, -0.008, 0.998, 0.194, 192.0, 0.0, 0.0, 0.0, 0.0, 0.0, 0.0, 0.0, 0.0, 0.0, 1.695419770418403E9, 0.0, 2023-09-22 16:56:10.418
46.0, 21819.236495403828, 33693.55603379679, -52878.81825909833, -56483.64054961688, -36649.082499633136, -20986.477552232453, -187500.02235174447, -39174.695512616105, -9584.629188135767, 17057.532615367487, -50950.421506216706, -46608.639849262225, -22509.234846739157, -53589.26845661026, -53543.89441536599, -43226.5526922408, -0.008, 0.998, 0.194, 192.0, 0.0, 0.0, 0.0, 0.0, 0.0, 0.0, 0.0, 0.0, 0.0, 1.695419770418417E9, 0.0, 2023-09-22 16:56:10.418
48.0, 21770.196768068883, 33640.62710292663, -52862.859113557235, -56455.23148241419, -36647.78609845473, -20961.33183972023, -187500.02235174447, -39153.10372747228, -9579.689452611143, 17037.66191454672, -50939.98324155608, -46598.447453790606, -22490.191160463233, -53577.22086634885, -53540.295784508686, -43213.67808743454, -0.008, 0.998, 0.194, 192.0, 0.0, 0.0, 0.0, 0.0, 0.0, 0.0, 0.0, 0.0, 0.0, 1.695419770418426E9, 0.0, 2023-09-22 16:56:10.418
50.0, 21828.75833854179, 33703.9048914796, -52859.573407122305, -56461.087639461475, -36634.77738318174, -20971.032496813834, -187500.02235174447, -39161.619742109746, -9582.975159046073, 17061.064190991427, -50942.732506124084, -46597.50868052348, -22496.248483210624, -53582.07119489565, -53542.15097929847, -43216.89673863611, -0.008, 0.998, 0.194, 192.0, 0.0, 0.0, 0.0, 0.0, 0.0, 0.0, 0.0, 0.0, 0.0, 1.695419770418431E9, 0.0, 2023-09-22 16:56:10.418
52.0, 21773.81775067064, 33648.31610301925, -52848.822218039306, -56441.90984271882, -36638.8454006726, -20950.960630292968, -187500.02235174447, -39146.17468669113, -9559.639937834732, 17055.163330455223, -50918.190290712155, -46576.72155818004, -22477.718887057174, -53559.13830508451, -53523.82254884512, -43194.92497383654, -0.01, 0.998, 0.196, 192.0, 127.5, 88.0, 15.5, 24.0, 3.0, 16.0, 0.0, 0.0, 0.0, 1.695419770418435E9, 0.0, 2023-09-22 16:56:10.418
54.0, 21823.528030339246, 33694.494807063915, -52873.4314886846, -56484.40050892836, -36642.33227280763, -20990.29970053431, -187500.02235174447, -39175.29900971639, -9580.628225878267, 17059.499568879553, -50941.36904971231, -46597.598087501305, -22497.142552988837, -53580.57362801715, -53535.043124561686, -43216.47205549146, -0.01, 0.998, 0.196, 192.0, 0.0, 0.0, 0.0, 0.0, 0.0, 0.0, 0.0, 0.0, 0.0, 1.695419770418438E9, 0.0, 2023-09-22 16:56:10.418
56.0, 21763.625355199023, 33643.17520179453, -52871.263369472435, -56465.848561030456, -36657.24088635932, -20972.306546247786, -187500.02235174447, -39163.9443235331, -9592.18407776166, 17031.89516447725, -50953.61780567382, -46611.34441034131, -22506.21736123769, -53589.648436266, -53550.10820032456, -43225.54686374031, -0.01, 0.998, 0.196, 192.0, 0.0, 0.0, 0.0, 0.0, 0.0, 0.0, 0.0, 0.0, 0.0, 1.695419770418442E9, 0.0, 2023-09-22 16:56:10.418
58.0, 21812.195695900406, 33686.202309871, -52868.82702932681, -56481.31596819353, -36635.090307604114, -20985.739944665427, -187500.02235174447, -39171.119233503254, -9590.440641694146, 17048.055475718436, -50946.59935791485, -46605.152977127196, -22502.059936769, -53586.67565425344, -53540.429894975416, -43217.7014014365, -0.01, 0.998, 0.196, 192.0, 0.0, 0.0, 0.0, 0.0, 0.0, 0.0, 0.0, 0.0, 0.0, 1.695419770418445E9, 0.0, 2023-09-22 16:56:10.418
60.0, 21772.364887281048, 33646.058576829266, -52866.502447903455, -56459.81359002752, -36652.74818572381, -20964.975174066447, -187500.02235174447, -39157.57407636334, -9589.501868427024, 17037.684266291173, -50945.14649452526, -46606.76230272798, -22504.049242025525, -53585.379253075036, -53542.39684848748, -43216.27088979136, -0.01, 0.998, 0.196, 192.0, 0.0, 0.0, 0.0, 0.0, 0.0, 0.0, 0.0, 0.0, 0.0, 1.695419770478793E9, 0.0, 2023-09-22 16:56:10.478
62.0, 21810.60872204408, 33684.68239124804, -52855.21481695352, -56465.51328486363, -36620.44991498589, -20971.948918336504, -187500.02235174447, -39156.858820540765, -9572.402783918713, 17056.3256211669, -50932.517758908005, -46593.28420082143, -22485.65375633881, -53573.354014558085, -53527.59999365807, -43204.98325884143, -0.006, 0.994, 0.202, 192.0, 127.5, 104.0, 15.5, 8.0, 3.0, 40.0, 0.0, 0.0, 0.0, 1.695419770478804E9, 0.0, 2023-09-22 16:56:10.478
64.0, 21784.12190486454, 33661.011893869865, -52860.55688387834, -56451.2752236456, -36646.48969727632, -20959.65545888608, -187500.02235174447, -39152.544933860896, -9576.046118264929, 17051.944679253662, -50936.429314187684, -46597.77690145694, -22489.028869751557, -53578.83019194963, -53535.15488328396, -43210.79471239981, -0.006, 0.994, 0.202, 192.0, 0.0, 0.0, 0.0, 0.0, 0.0, 0.0, 0.0, 0.0, 0.0, 1.695419770478807E9, 0.0, 2023-09-22 16:56:10.478
66.0, 21800.259864361273, 33680.68142899054, -52861.227436212, -56470.0283372436, -36624.607339454575, -20977.71566840597, -187500.02235174447, -39162.178535721134, -9565.004356504007, 17059.05253399045, -50926.70630534963, -46590.42317753115, -22475.34960214491, -53567.56491274416, -53523.55432791166, -43200.57996518374, -0.006, 0.994, 0.202, 192.0, 0.0, 0.0, 0.0, 0.0, 0.0, 0.0, 0.0, 0.0, 0.0, 1.69541977047881E9, 0.0, 2023-09-22 16:56:10.478
68.0, 21787.20644559937, 33667.06921661725, -52865.027232769404, -56454.0244882136, -36644.07570887515, -20962.33766822072, -187500.02235174447, -39154.0425007394, -9578.571865388378, 17052.168196698214, -50942.03960204597, -46607.11993063926, -22487.620709850875, -53583.23348560733, -53537.702982151866, -43217.00849735839, -0.006, 0.994, 0.202, 192.0, 0.0, 0.0, 0.0, 0.0, 0.0, 0.0, 0.0, 0.0, 0.0, 1.695419770478814E9, 0.0, 2023-09-22 16:56:10.478
70.0, 21789.151047366984, 33668.81265268477, -52873.498543917965, -56479.70664259275, -36635.447935515396, -20985.225854542954, -187500.02235174447, -39165.57600087834, -9569.36294667279, 17048.23428967408, -50930.39434318475, -46598.447453790606, -22485.16201796079, -53574.248084336294, -53530.908051837454, -43207.30784026478, -0.006, 0.994, 0.202, 192.0, 0.0, 0.0, 0.0, 0.0, 0.0, 0.0, 0.0, 0.0, 0.0, 1.695419770478817E9, 0.0, 2023-09-22 16:56:10.478
72.0, 21785.463009531857, 33670.55608875228, -52880.1817155101, -56468.307252920546, -36661.01833117227, -20972.44065671452, -187500.02235174447, -39162.22323921004, -9598.196697020137, 17037.28193489098, -50956.009442330535, -46623.503759325, -22510.665358384296, -53600.46668058237, -53553.75153467078, -43227.84909341921, -0.004, 0.992, 0.202, 192.0, 127.5, 112.0, 15.5, 0.0, 3.0, 40.0, 0.0, 0.0, 0.0, 1.69541977047882E9, 0.0, 2023-09-22 16:56:10.478
74.0, 21782.803151941676, 33664.56582123826, -52863.08263100179, -56466.69792731976, -36631.804601169184, -20973.513540448374, -187500.02235174447, -39152.679044327626, -9572.089859496338, 17043.249850660544, -50928.36033443932, -46596.30168632289, -22486.50312262811, -53571.29765406819, -53528.337601225096, -43196.869575604156, -0.004, 0.992, 0.202, 192.0, 0.0, 0.0, 0.0, 0.0, 0.0, 0.0, 0.0, 0.0, 0.0, 1.695419770538889E9, 0.0, 2023-09-22 16:56:10.538
76.0, 21804.976082441342, 33686.98462092693, -52850.923282018106, -56441.663973529816, -36634.28564480372, -20948.747807591895, -187500.02235174447, -39135.758773774956, -9580.672929367176, 17052.436417631678, -50938.955061311135, -46607.20933761708, -22490.12410522987, -53583.81463096316, -53536.25011876227, -43208.91716586556, -0.004, 0.992, 0.202, 192.0, 0.0, 0.0, 0.0, 0.0, 0.0, 0.0, 0.0, 0.0, 0.0, 1.695419770538902E9, 0.0, 2023-09-22 16:56:10.538
78.0, 21783.563111253156, 33662.42005377055, -52846.721154060506, -56448.34714512195, -36619.354679507574, -20954.782778594825, -187500.02235174447, -39134.417669107635, -9550.386315630236, 17063.76875207052, -50906.32151440639, -46576.87802039123, -22464.30784038399, -53549.45999973536, -53505.13649048049, -43174.07079625974, -0.004, 0.992, 0.202, 192.0, 0.0, 0.0, 0.0, 0.0, 0.0, 0.0, 0.0, 0.0, 0.0, 1.695419770538905E9, 0.0, 2023-09-22 16:56:10.538
80.0, 21807.12184990905, 33691.074990162255, -52872.24684622847, -56466.07207847501, -36656.3021130922, -20970.898386347104, -187500.02235174447, -39157.149393218686, -9580.538818900444, 17063.90286253725, -50939.93853806717, -46607.27639285045, -22490.77230581907, -53581.668863495455, -53536.02660131772, -43205.653811175085, -0.004, 0.992, 0.202, 192.0, 0.0, 0.0, 0.0, 0.0, 0.0, 0.0, 0.0, 0.0, 0.0, 1.695419770538909E9, 0.0, 2023-09-22 16:56:10.538
82.0, 21776.67877396092, 33659.15669908008, -52850.81152329583, -56449.64354630036, -36631.469325002356, -20955.0957030172, -187500.02235174447, -39134.842352252286, -9570.100554239816, 17043.585126827376, -50927.779189083485, -46595.47467177804, -22481.026945236557, -53564.43566852042, -53525.96831631283, -43190.432273201026, -0.004, 0.99, 0.202, 192.0, 127.5, 112.0, 15.0, 120.0, 3.0, 40.0, 0.0, 0.0, 0.0, 1.695419770538912E9, 0.0, 2023-09-22 16:56:10.538
84.0, 21805.73604175282, 33693.600737285706, -52884.27208474542, -56479.550180381564, -36663.4546713179, -20985.4046684986, -187500.02235174447, -39166.53712588992, -9590.194772505138, 17060.550100868953, -50945.66058464773, -46610.76326498548, -22488.224206951167, -53580.551276272694, -53537.05478156266, -43205.18442454153, -0.004, 0.99, 0.202, 192.0, 0.0, 0.0, 0.0, 0.0, 0.0, 0.0, 0.0, 0.0, 0.0, 1.695419770538915E9, 0.0, 2023-09-22 16:56:10.538
86.0, 21764.87705288852, 33649.52309721984, -52856.35475592074, -56450.2246916562, -36637.258426816275, -20955.18510999502, -187500.02235174447, -39134.909407485655, -9586.171458503182, 17030.79992899894, -50938.396267699754, -46607.47755855055, -22490.146456974326, -53571.34235755711, -53537.03242981821, -43196.579002926235, -0.004, 0.99, 0.202, 192.0, 0.0, 0.0, 0.0, 0.0, 0.0, 0.0, 0.0, 0.0, 0.0, 1.695419770538919E9, 0.0, 2023-09-22 16:56:10.538
88.0, 21810.251094132793, 33700.19450190002, -52868.71527060452, -56465.08860171898, -36643.36045305258, -20971.613642169672, -187500.02235174447, -39153.21548619455, -9593.301664984425, 17057.510263623033, -50947.98516607108, -46613.82545397586, -22501.67995711326, -53580.953607672884, -53538.77586588572, -43206.65963967558, -0.004, 0.99, 0.202, 192.0, 0.0, 0.0, 0.0, 0.0, 0.0, 0.0, 0.0, 0.0, 0.0, 1.695419770538922E9, 0.0, 2023-09-22 16:56:10.538
90.0, 21764.094741832585, 33652.04884434329, -52847.23524418298, -56442.46863633021, -36629.30120579019, -20948.837214569714, -187500.02235174447, -39128.986195205, -9564.803190803908, 17050.24594667506, -50916.6703720892, -46587.20452632958, -22471.147474187313, -53549.90703462446, -53515.37358944101, -43176.574191638734, -0.004, 0.99, 0.202, 192.0, 0.0, 0.0, 0.0, 0.0, 0.0, 0.0, 0.0, 0.0, 0.0, 1.695419770598217E9, 0.0, 2023-09-22 16:56:10.598
92.0, 21814.386166857024, 33704.88836823563, -52863.350851935254, -56459.59007258297, -36636.31965354916, -20965.399857211098, -187500.02235174447, -39145.41472737965, -9582.282254967959, 17064.863987548826, -50938.888006077774, -46604.84005270482, -22484.536169116043, -53572.102316868586, -53529.991630314784, -43197.87540410464, -0.006, 0.986, 0.20400000000000001, 192.0, 127.5, 104.0, 15.0, 104.0, 3.0, 48.0, 0.0, 0.0, 0.0, 1.695419770598228E9, 0.0, 2023-09-22 16:56:10.598
94.0, 21762.641878442988, 33649.1431175641, -52848.68810757257, -56436.344258349454, -36629.41296451246, -20940.231792954422, -187500.02235174447, -39123.68883176909, -9569.787629817441, 17045.149748939246, -50921.3195349359, -46590.8478606758, -22472.91326199928, -53551.31519452515, -53516.75939759724, -43177.490613161404, -0.006, 0.986, 0.20400000000000001, 192.0, 0.0, 0.0, 0.0, 0.0, 0.0, 0.0, 0.0, 0.0, 0.0, 1.695419770598233E9, 0.0, 2023-09-22 16:56:10.598
96.0, 21817.78363201423, 33709.22460665996, -52863.66377635763, -56461.48997086167, -36633.10100234759, -20965.44456070001, -187500.02235174447, -39144.11832620124, -9578.594217132833, 17072.128304496804, -50931.0201920295, -46595.98876190052, -22475.573119589462, -53556.277281794224, -53517.38524644199, -43182.78797659731, -0.006, 0.986, 0.20400000000000001, 192.0, 0.0, 0.0, 0.0, 0.0, 0.0, 0.0, 0.0, 0.0, 0.0, 1.695419770598236E9, 0.0, 2023-09-22 16:56:10.598
98.0, 21763.848872643575, 33661.10130084769, -52847.056430227334, -56431.18100538028, -36637.86192391657, -20938.130728975622, -187500.02235174447, -39125.611081792245, -9587.490211426046, 17041.662876804217, -50938.59743339985, -46605.75647422749, -22486.816047050484, -53560.971148129844, -53535.71367689534, -43191.23693600141, -0.006, 0.986, 0.20400000000000001, 192.0, 0.0, 0.0, 0.0, 0.0, 0.0, 0.0, 0.0, 0.0, 0.0, 1.695419770598239E9, 0.0, 2023-09-22 16:56:10.598
100.0, 21825.763204784776, 33723.462667878, -52846.60939533823, -56444.99438345366, -36625.166133065955, -20956.593269895708, -187500.02235174447, -39137.703375542565, -9555.996603488518, 17093.362461729343, -50912.69176157615, -46578.21912505855, -22463.68199153924, -53536.45128446237, -53508.86923180452, -43167.34292117869, -0.006, 0.986, 0.20400000000000001, 192.0, 0.0, 0.0, 0.0, 0.0, 0.0, 0.0, 0.0, 0.0, 0.0, 1.695419770598243E9, 0.0, 2023-09-22 16:56:10.598
102.0, 21774.376544282026, 33673.86414693167, -52837.28871790037, -56420.36276106391, -36640.25356057329, -20936.275534185832, -187500.02235174447, -39126.236930636995, -9564.602025103812, 17066.942699783172, -50918.39145641225, -46585.66225596217, -22477.2047969347, -53544.341450255095, -53522.816720344636, -43175.948342793985, -0.008, 0.994, 0.2, 192.0, 127.5, 96.0, 15.5, 8.0, 3.0, 32.0, 0.0, 0.0, 0.0, 1.695419770598246E9, 0.0, 2023-09-22 16:56:10.598
104.0, 21825.539687340224, 33723.462667878, -52839.970927235, -56441.46280782972, -36619.75701090777, -20957.37558095164, -187500.02235174447, -39134.06004119635, -9550.98981273053, 17094.100069296368, -50907.148528951235, -46574.03934884541, -22457.132930413834, -53535.62426991753, -53505.71763583632, -43166.62766535612, -0.008, 0.994, 0.2, 192.0, 0.0, 0.0, 0.0, 0.0, 0.0, 0.0, 0.0, 0.0, 0.0, 1.695419770658104E9, 0.0, 2023-09-22 16:56:10.658
106.0, 21767.179282567417, 33665.1469665941, -52860.84745655626, -56448.369496866406, -36658.649046260005, -20963.52231067685, -187500.02235174447, -39145.03474772391, -9576.068470009384, 17056.14680721126, -50929.857901317824, -46601.1967183586, -22475.55076784501, -53559.63004346252, -53529.589298914594, -43191.08047379023, -0.008, 0.994, 0.2, 192.0, 0.0, 0.0, 0.0, 0.0, 0.0, 0.0, 0.0, 0.0, 0.0, 1.695419770658117E9, 0.0, 2023-09-22 16:56:10.658
108.0, 21809.491134821314, 33705.00012695791, -52860.355718178245, -56464.373345896405, -36635.380880282035, -20976.665136416574, -187500.02235174447, -39147.56049484736, -9572.402783918713, 17061.3771154138, -50930.148473995745, -46601.84491894781, -22476.556596345497, -53560.09943009609, -53526.862386091045, -43190.700494134486, -0.008, 0.994, 0.2, 192.0, 0.0, 0.0, 0.0, 0.0, 0.0, 0.0, 0.0, 0.0, 0.0, 1.69541977065812E9, 0.0, 2023-09-22 16:56:10.658
110.0, 21765.726419177823, 33665.72811194994, -52877.65596838665, -56466.764982553126, -36671.724816766364, -20977.559206194783, -187500.02235174447, -39157.79759380789, -9591.75939461701, 17036.499623835043, -50950.153285283246, -46622.92261396917, -22500.048279768023, -53577.399680304494, -53547.22482528983, -43209.76653215486, -0.008, 0.994, 0.2, 192.0, 0.0, 0.0, 0.0, 0.0, 0.0, 0.0, 0.0, 0.0, 0.0, 1.695419770658123E9, 0.0, 2023-09-22 16:56:10.658
112.0, 21796.70593699288, 33698.36165885469, -52860.780401322896, -56464.55215985205, -36635.69380470441, -20977.15687479459, -187500.02235174447, -39150.98031174902, -9583.712766613098, 17044.61330707232, -50944.498293936056, -46616.194738888116, -22499.467134412185, -53570.18006684543, -53543.559139199155, -43204.42446523005, -0.006, 1.0, 0.20600000000000002, 192.0, 127.5, 104.0, 15.5, 32.0, 3.0, 56.0, 0.0, 0.0, 0.0, 1.695419770658127E9, 0.0, 2023-09-22 16:56:10.658
114.0, 21776.67877396092, 33678.02157140036, -52851.59383435176, -56436.70188626074, -36649.64129324452, -20953.441673927508, -187500.02235174447, -39134.50707608546, -9578.549513643922, 17047.76490304052, -50939.15622701123, -46613.668991764665, -22482.703326070707, -53569.62127323404, -53539.96050834185, -43200.289392505816, -0.006, 1.0, 0.20600000000000002, 192.0, 0.0, 0.0, 0.0, 0.0, 0.0, 0.0, 0.0, 0.0, 0.0, 1.69541977065813E9, 0.0, 2023-09-22 16:56:10.658
116.0, 21801.064527161663, 33696.35000185371, -52838.62982256769, -56447.520130577104, -36618.50531321827, -20963.43290369903, -187500.02235174447, -39131.86957023973, -9546.541815583923, 17070.250757962556, -50903.102863204826, -46580.56605822636, -22445.01828491906, -53537.412409473945, -53505.98585676979, -43167.767604323344, -0.006, 1.0, 0.20600000000000002, 192.0, 0.0, 0.0, 0.0, 0.0, 0.0, 0.0, 0.0, 0.0, 0.0, 1.695419770658133E9, 0.0, 2023-09-22 16:56:10.658
118.0, 21781.372640296537, 33677.507481277884, -52857.94172977707, -56450.55996782303, -36659.11843289357, -20964.461083943974, -187500.02235174447, -39142.48664885601, -9587.937246315152, 17038.33246688038, -50943.93950032467, -46624.643698292224, -22485.564349360986, -53579.81366870567, -53544.69907816638, -43208.872462376654, -0.006, 1.0, 0.20600000000000002, 192.0, 0.0, 0.0, 0.0, 0.0, 0.0, 0.0, 0.0, 0.0, 0.0, 1.695419770658137E9, 0.0, 2023-09-22 16:56:10.658
120.0, 21788.972233411343, 33684.83885345922, -52847.70463081654, -56454.91855799181, -36628.76476392326, -20966.85272060069, -187500.02235174447, -39134.86470399675, -9557.024783733463, 17054.984516499582, -50911.86474703131, -46595.18409910013, -22455.992991446616, -53543.782656643714, -53512.311400450635, -43171.902677047576, -0.006, 1.0, 0.20600000000000002, 192.0, 0.0, 0.0, 0.0, 0.0, 0.0, 0.0, 0.0, 0.0, 0.0, 1.695419770718543E9, 0.0, 2023-09-22 16:56:10.718
122.0, 21793.263768346762, 33689.21979537246, -52858.18759896608, -56449.73295327818, -36650.334197322634, -20961.823578098247, -187500.02235174447, -39139.20094242108, -9583.84687707983, 17040.634696559275, -50940.85495958984, -46623.54846281391, -22487.397192406323, -53573.44342153591, -53538.61940367454, -43203.97743034094, -0.012, 0.998, 0.20600000000000002, 192.0, 127.5, 80.0, 15.5, 24.0, 3.0, 56.0, 0.0, 0.0, 0.0, 1.695419770718556E9, 0.0, 2023-09-22 16:56:10.718
124.0, 21786.40178279898, 33678.26744058936, -52849.24690118396, -56450.112932933924, -36626.551941222184, -20960.549528664294, -187500.02235174447, -39131.780163261916, -9559.617586090277, 17042.713408793617, -50916.513909878006, -46601.68845673662, -22470.4545701092, -53549.571758457634, -53519.665124376435, -43180.21752598495, -0.012, 0.998, 0.20600000000000002, 192.0, 0.0, 0.0, 0.0, 0.0, 0.0, 0.0, 0.0, 0.0, 0.0, 1.695419770718559E9, 0.0, 2023-09-22 16:56:10.718
126.0, 21798.225855615838, 33694.94184195302, -52869.8775613162, -56459.32185164951, -36659.4537090604, -20969.132598535132, -187500.02235174447, -39145.392375635194, -9579.220065977583, 17045.641487317265, -50941.30199447894, -46625.58247155935, -22483.128009215357, -53575.43272679242, -53540.429894975416, -43200.915241350565, -0.012, 0.998, 0.20600000000000002, 192.0, 0.0, 0.0, 0.0, 0.0, 0.0, 0.0, 0.0, 0.0, 0.0, 1.695419770718562E9, 0.0, 2023-09-22 16:56:10.718
128.0, 21774.555358237667, 33668.90205966259, -52851.57148260731, -56449.50943583363, -36631.335214535626, -20962.13650252062, -187500.02235174447, -39129.23206439401, -9565.451391393113, 17032.856289488827, -50917.3185726784, -46604.41536956017, -22471.88508175434, -53552.723354425834, -53519.77688309871, -43176.03774977181, -0.012, 0.998, 0.20600000000000002, 192.0, 0.0, 0.0, 0.0, 0.0, 0.0, 0.0, 0.0, 0.0, 0.0, 1.695419770718566E9, 0.0, 2023-09-22 16:56:10.718
130.0, 21805.579579541634, 33705.04483044682, -52861.249787956454, -56451.34227887896, -36653.619903757564, -20965.66807814456, -187500.02235174447, -39138.93272148761, -9584.964464302595, 17045.596783828354, -50937.43514268818, -46622.14030291323, -22484.938500516237, -53571.40941279047, -53533.41144721645, -43196.422540715044, -0.012, 0.998, 0.20600000000000002, 192.0, 0.0, 0.0, 0.0, 0.0, 0.0, 0.0, 0.0, 0.0, 0.0, 1.695419770718569E9, 0.0, 2023-09-22 16:56:10.718
132.0, 21771.5378727362, 33670.98077189693, -52837.221662667, -56432.298592603045, -36626.46253424437, -20948.747807591895, -187500.02235174447, -39116.26805260993, -9557.024783733463, 17037.3713418688, -50908.08730221836, -46595.58643050033, -22453.15431990079, -53539.11114205255, -53509.85270856055, -43163.34195892119, -0.012, 0.994, 0.2, 192.0, 127.5, 80.0, 15.5, 8.0, 3.0, 32.0, 0.0, 0.0, 0.0, 1.695419770718572E9, 0.0, 2023-09-22 16:56:10.718
134.0, 21811.167515655463, 33719.171132942574, -52839.74740979045, -56429.437569312766, -36634.598569226095, -20945.797377323794, -187500.02235174447, -39118.190302633084, -9576.224932220572, 17050.648278075252, -50932.20483448563, -46616.887642966234, -22472.846206765917, -53559.63004346252, -53527.57764191362, -43182.31858996375, -0.012, 0.994, 0.2, 192.0, 0.0, 0.0, 0.0, 0.0, 0.0, 0.0, 0.0, 0.0, 0.0, 1.695419770778613E9, 0.0, 2023-09-22 16:56:10.778
136.0, 21761.144311564483, 33668.65619047358, -52839.92622374609, -56431.069246658, -36634.598569226095, -20949.887746559114, -187500.02235174447, -39120.3360701008, -9555.303699410404, 17045.619135572808, -50908.199060940635, -46593.73123571053, -22455.478901324142, -53531.31038323765, -53507.12579573701, -43155.72001406193, -0.012, 0.994, 0.2, 192.0, 0.0, 0.0, 0.0, 0.0, 0.0, 0.0, 0.0, 0.0, 0.0, 1.695419770778644E9, 0.0, 2023-09-22 16:56:10.778
138.0, 21804.104364407583, 33716.444220119025, -52869.34111944927, -56465.625043585904, -36661.84534571711, -20988.891540633624, -187500.02235174447, -39157.12704147423, -9585.076223024873, 17048.547214096452, -50941.16788401221, -46622.31911686887, -22488.49242788463, -53565.8438284211, -53533.67966814991, -43188.01828479985, -0.012, 0.994, 0.2, 192.0, 0.0, 0.0, 0.0, 0.0, 0.0, 0.0, 0.0, 0.0, 0.0, 1.695419770778648E9, 0.0, 2023-09-22 16:56:10.778
140.0, 21758.327991763115, 33667.82917592874, -52830.24791839694, -56420.98860990866, -36629.32355753465, -20944.411569167565, -187500.02235174447, -39114.32345084232, -9574.302682197414, 17019.80287072693, -50927.93565129467, -46616.530015054945, -22474.947270744717, -53553.86329339306, -53527.35412446906, -43180.4410434295, -0.012, 0.994, 0.2, 192.0, 0.0, 0.0, 0.0, 0.0, 0.0, 0.0, 0.0, 0.0, 0.0, 1.695419770778653E9, 0.0, 2023-09-22 16:56:10.778
142.0, 21803.813791729666, 33715.9077782521, -52861.00391876745, -56462.138171450875, -36648.25548508829, -20987.550435966306, -187500.02235174447, -39150.35446290427, -9578.41540317719, 17051.85527227584, -50934.10473276433, -46617.53584355544, -22477.920052757272, -53556.52315098324, -53518.905165064956, -43182.63151438612, -0.006, 0.992, 0.198, 192.0, 127.5, 104.0, 15.5, 0.0, 3.0, 24.0, 0.0, 0.0, 0.0, 1.69541977077867E9, 0.0, 2023-09-22 16:56:10.778
144.0, 21751.957744593354, 33659.87195490264, -52844.195406937055, -56439.31704036201, -36648.166078110466, -20964.706953132983, -187500.02235174447, -39129.20971264955, -9580.963502045095, 17015.64544625824, -50933.27771821949, -46618.67578252265, -22473.762628288583, -53555.40556376047, -53527.04120004669, -43184.55376440928, -0.006, 0.992, 0.198, 192.0, 0.0, 0.0, 0.0, 0.0, 0.0, 0.0, 0.0, 0.0, 0.0, 1.695419770778673E9, 0.0, 2023-09-22 16:56:10.778
146.0, 21798.628187016035, 33711.92916773906, -52868.312939204334, -56473.805782056545, -36656.99501717032, -20999.240398316433, -187500.02235174447, -39158.31168393036, -9598.75549063152, 17029.32471386489, -50954.66833766322, -46633.450285607614, -22489.83353255195, -53574.56100875867, -53542.799179887676, -43202.993953584904, -0.006, 0.992, 0.198, 192.0, 0.0, 0.0, 0.0, 0.0, 0.0, 0.0, 0.0, 0.0, 0.0, 1.695419770778677E9, 0.0, 2023-09-22 16:56:10.778
148.0, 21738.569049664624, 33652.04884434329, -52864.110811246734, -56452.25870040163, -36663.11939515107, -20975.14521779361, -187500.02235174447, -39138.44098310959, -9594.352196973825, 17003.284931574457, -50950.80148587245, -46626.253023893005, -22491.040526752535, -53568.034299377716, -53544.5873194441, -43200.93759309502, -0.006, 0.992, 0.198, 192.0, 0.0, 0.0, 0.0, 0.0, 0.0, 0.0, 0.0, 0.0, 0.0, 1.69541977077868E9, 0.0, 2023-09-22 16:56:10.778
150.0, 21792.637919502013, 33703.36844961267, -52869.98932003848, -56471.79412505557, -36644.27687457525, -20990.634976701138, -187500.02235174447, -39145.4370791241, -9595.04510105194, 17021.70276900563, -50958.44578247616, -46624.84486399232, -22493.25334945361, -53574.203380847386, -53541.122799053526, -43208.201910043, -0.006, 0.992, 0.198, 192.0, 0.0, 0.0, 0.0, 0.0, 0.0, 0.0, 0.0, 0.0, 0.0, 1.695419770838884E9, 0.0, 2023-09-22 16:56:10.838
152.0, 21754.12586380552, 33662.30829504827, -52842.519026102906, -56422.32971457598, -36627.20014181139, -20939.449481898486, -187500.02235174447, -39102.8793576812, -9576.47080140958, 17015.22076311359, -50935.98227929858, -46601.867270692266, -22475.327250400456, -53554.28797653771, -53523.241403489286, -43193.38270346913, -0.008, 1.0, 0.2, 192.0, 127.5, 96.0, 15.5, 32.0, 3.0, 32.0, 0.0, 0.0, 0.0, 1.695419770838895E9, 0.0, 2023-09-22 16:56:10.838
154.0, 21800.393974828003, 33707.88350199265, -52852.19733145206, -56442.73685726367, -36609.7434293918, -20957.934374563025, -187500.02235174447, -39116.20099737657, -9552.777952286953, 17056.75030431155, -50915.99981975554, -46573.01116860046, -22459.435160092733, -53535.08782805059, -53496.5757723541, -43174.9425142935, -0.008, 1.0, 0.2, 192.0, 0.0, 0.0, 0.0, 0.0, 0.0, 0.0, 0.0, 0.0, 0.0, 1.695419770838898E9, 0.0, 2023-09-22 16:56:10.838
156.0, 21758.417398740938, 33670.91371666357, -52846.05060172685, -56411.77969119307, -36622.26040628677, -20926.95485674797, -187500.02235174447, -39097.91727041212, -9556.309527910893, 17042.37813262679, -50916.60331685583, -46570.75364241048, -22451.992029189114, -53537.43476121841, -53500.82260380061, -43179.07758701773, -0.008, 1.0, 0.2, 192.0, 0.0, 0.0, 0.0, 0.0, 0.0, 0.0, 0.0, 0.0, 0.0, 1.695419770838902E9, 0.0, 2023-09-22 16:56:10.838
158.0, 21794.35900382507, 33706.318879880775, -52864.71430834703, -56444.592052053464, -36614.05731607167, -20957.464987929463, -187500.02235174447, -39120.98427069, -9547.07825745085, 17061.28770843598, -50904.846299272336, -46553.72161313553, -22442.939572684714, -53529.47754019232, -53488.23857167227, -43172.32736019223, -0.008, 1.0, 0.2, 192.0, 0.0, 0.0, 0.0, 0.0, 0.0, 0.0, 0.0, 0.0, 0.0, 1.695419770838905E9, 0.0, 2023-09-22 16:56:10.838
160.0, 21754.77406439472, 33666.30925730577, -52887.066052802336, -56447.676592788295, -36653.128165379545, -20961.35419146469, -187500.02235174447, -39134.39531736318, -9579.331824699859, 17024.429681829177, -50934.3729536978, -46587.33863679632, -22474.72375330016, -53567.98959588881, -53523.97901105631, -43209.18538679903, -0.008, 1.0, 0.2, 192.0, 0.0, 0.0, 0.0, 0.0, 0.0, 0.0, 0.0, 0.0, 0.0, 1.695419770838909E9, 0.0, 2023-09-22 16:56:10.838
162.0, 21787.20644559937, 33695.88061522014, -52876.44897418606, -56449.66589804482, -36619.15351380748, -20961.28713623132, -187500.02235174447, -39127.04159343739, -9564.825542548364, 17037.952487224637, -50913.69759007664, -46570.396014499194, -22453.310782111977, -53554.44443874889, -53506.74581608127, -43193.65092440259, -0.004, 0.988, 0.198, 192.0, 127.5, 112.0, 15.0, 112.0, 3.0, 24.0, 0.0, 0.0, 0.0, 1.695419770838912E9, 0.0, 2023-09-22 16:56:10.838
164.0, 21770.375582024524, 33682.76014122488, -52864.960177536035, -56415.579487750474, -36623.19917955389, -20925.52434510283, -187500.02235174447, -39103.05817163684, -9566.904254782708, 17042.37813262679, -50909.27194467449, -46567.06560457535, -22459.39045660382, -53551.65047069198, -53506.61170561454, -43192.108654035175, -0.004, 0.988, 0.198, 192.0, 0.0, 0.0, 0.0, 0.0, 0.0, 0.0, 0.0, 0.0, 0.0, 1.695419770899401E9, 0.0, 2023-09-22 16:56:10.899
166.0, 21788.368736311048, 33694.83008323074, -52862.4791339015, -56430.17517687979, -36603.55199617767, -20941.639952855105, -187500.02235174447, -39110.81422696284, -9543.546681826912, 17058.270222934512, -50882.896886217226, -46542.88101707471, -22445.1970988747, -53526.97414481332, -53480.929551235386, -43167.901714790074, -0.004, 0.988, 0.198, 192.0, 0.0, 0.0, 0.0, 0.0, 0.0, 0.0, 0.0, 0.0, 0.0, 1.695419770899416E9, 0.0, 2023-09-22 16:56:10.899
168.0, 21783.227835086327, 33694.09247566372, -52865.876599058705, -56415.847708683934, -36628.76476392326, -20930.53113586082, -187500.02235174447, -39109.78604671789, -9565.89842628222, 17051.207071686636, -50904.86865101679, -46566.059776074864, -22459.97160195966, -53550.86815963604, -53505.02473175821, -43192.60039241319, -0.004, 0.988, 0.198, 192.0, 0.0, 0.0, 0.0, 0.0, 0.0, 0.0, 0.0, 0.0, 0.0, 1.69541977089942E9, 0.0, 2023-09-22 16:56:10.899
170.0, 21779.11511410655, 33685.01766741487, -52876.359567208245, -56440.613441540416, -36619.086458574115, -20954.872185572647, -187500.02235174447, -39126.05811668136, -9540.730362025542, 17060.594804357865, -50881.421671083175, -46543.126886263715, -22440.21265986117, -53526.795330857676, -53485.623417571005, -43172.08149100322, -0.004, 0.988, 0.198, 192.0, 0.0, 0.0, 0.0, 0.0, 0.0, 0.0, 0.0, 0.0, 0.0, 1.695419770899423E9, 0.0, 2023-09-22 16:56:10.899
172.0, 21785.284195576216, 33699.0545629328, -52881.18754401059, -56427.29180184505, -36642.846362930104, -20945.417397668054, -187500.02235174447, -39124.359384102754, -9583.735118357554, 17042.534594837976, -50922.817101814406, -46581.728348938035, -22473.650869566307, -53565.396793531996, -53526.4824064353, -43212.26992753386, -0.006, 0.988, 0.198, 192.0, 127.5, 104.0, 15.0, 112.0, 3.0, 24.0, 0.0, 0.0, 0.0, 1.695419770899427E9, 0.0, 2023-09-22 16:56:10.899
174.0, 21769.839140157597, 33679.31797257876, -52865.89895080316, -56422.12854887588, -36614.884330616514, -20940.94704877699, -187500.02235174447, -39110.92598568511, -9547.346478384314, 17053.352839154344, -50886.249647885525, -46544.98208105351, -22441.710226739673, -53526.303592479664, -53495.055853731144, -43172.99791252588, -0.006, 0.988, 0.198, 192.0, 0.0, 0.0, 0.0, 0.0, 0.0, 0.0, 0.0, 0.0, 0.0, 1.69541977089943E9, 0.0, 2023-09-22 16:56:10.899
176.0, 21789.50867527827, 33703.34609786822, -52873.632654384695, -56422.441473298255, -36631.4469732579, -20940.745883076892, -187500.02235174447, -39116.60332877676, -9570.301719939915, 17050.201243186148, -50914.99399125505, -46571.06656683285, -22466.09597994041, -53555.27145329374, -53517.04997027516, -43196.53429943732, -0.006, 0.988, 0.198, 192.0, 0.0, 0.0, 0.0, 0.0, 0.0, 0.0, 0.0, 0.0, 0.0, 1.695419770899434E9, 0.0, 2023-09-22 16:56:10.899
178.0, 21760.31729701964, 33673.68533297603, -52856.73473557648, -56416.987647651156, -36606.10009504558, -20932.028702739324, -187500.02235174447, -39099.50424426845, -9545.871263250263, 17041.75228378204, -50891.010569454505, -46549.65359564467, -22448.63926752082, -53528.85169134757, -53493.379472896995, -43168.52756363482, -0.006, 0.988, 0.198, 192.0, 0.0, 0.0, 0.0, 0.0, 0.0, 0.0, 0.0, 0.0, 0.0, 1.695419770899437E9, 0.0, 2023-09-22 16:56:10.899
180.0, 21795.476591047835, 33710.923339238565, -52864.066107757826, -56421.390941308855, -36620.58402545262, -20936.141423719102, -187500.02235174447, -39106.187415860586, -9554.834312776842, 17060.863025291328, -50904.82394752788, -46558.25901725996, -22444.370084329854, -53538.753514141266, -53496.73223456529, -43175.47895616043, -0.006, 0.988, 0.198, 192.0, 0.0, 0.0, 0.0, 0.0, 0.0, 0.0, 0.0, 0.0, 0.0, 1.6954197709582E9, 0.0, 2023-09-22 16:56:10.958
182.0, 21747.91207884694, 33659.0449403578, -52862.14385773466, -56423.98374366567, -36615.21960678334, -20938.130728975622, -187500.02235174447, -39105.67332573811, -9548.061734206884, 17032.3198476219, -50897.62668581327, -46554.86155210275, -22437.15047087079, -53533.009115816254, -53494.407653141934, -43168.6393223571, -0.014, 0.992, 0.194, 192.0, 127.5, 72.0, 15.5, 0.0, 3.0, 8.0, 0.0, 0.0, 0.0, 1.695419770958217E9, 0.0, 2023-09-22 16:56:10.958
184.0, 21795.141314881006, 33707.10119093671, -52874.191447996076, -56434.64552577085, -36628.787115667714, -20950.155967492577, -187500.02235174447, -39119.240834622484, -9574.928531042164, 17041.640525059764, -50922.3700669253, -46577.41446225816, -22459.54691881501, -53559.11595334005, -53514.52422315171, -43197.31661049326, -0.014, 0.992, 0.194, 192.0, 0.0, 0.0, 0.0, 0.0, 0.0, 0.0, 0.0, 0.0, 0.0, 1.695419770958221E9, 0.0, 2023-09-22 16:56:10.958
186.0, 21750.907212603954, 33657.21209731246, -52855.79596230936, -56418.2169935962, -36614.66081317196, -20932.922772517537, -187500.02235174447, -39098.140787856675, -9543.166702171171, 17036.566679068408, -50889.44594734263, -46549.02774679992, -22428.321531810943, -53526.571813413124, -53490.58550484008, -43168.14758397908, -0.014, 0.992, 0.194, 192.0, 0.0, 0.0, 0.0, 0.0, 0.0, 0.0, 0.0, 0.0, 0.0, 1.695419770958224E9, 0.0, 2023-09-22 16:56:10.958
188.0, 21791.98971891281, 33699.21102514399, -52895.716177906535, -56461.60172958395, -36647.09319437661, -20976.91100560558, -187500.02235174447, -39143.78305003441, -9582.796345090432, 17033.862117989316, -50933.165959497215, -46589.976142642045, -22468.286450897034, -53571.09648836809, -53525.476577934816, -43210.83941588872, -0.014, 0.992, 0.194, 192.0, 0.0, 0.0, 0.0, 0.0, 0.0, 0.0, 0.0, 0.0, 0.0, 1.695419770958228E9, 0.0, 2023-09-22 16:56:10.958
190.0, 21735.998599052265, 33639.08483255921, -52879.220590498524, -56439.45115082874, -36640.901761162495, -20957.263822229364, -187500.02235174447, -39125.342860858786, -9579.555342144411, 16999.708652461606, -50926.61689837181, -46586.6457327182, -22469.4040381198, -53565.642662721, -53527.421179702425, -43206.3467152532, -0.014, 0.992, 0.194, 192.0, 0.0, 0.0, 0.0, 0.0, 0.0, 0.0, 0.0, 0.0, 0.0, 1.695419770958231E9, 0.0, 2023-09-22 16:56:10.958
192.0, 21794.113134636063, 33694.42775183055, -52882.97568356701, -56451.4763893457, -36638.241903572314, -20971.34542123621, -187500.02235174447, -39137.03282320891, -9576.113173498294, 17029.190603398158, -50928.71796235061, -46589.484404264025, -22466.408904362786, -53571.23059883483, -53524.87308083452, -43211.57702345574, -0.006, 1.004, 0.192, 192.0, 127.5, 104.0, 15.5, 48.0, 3.0, 0.0, 0.0, 0.0, 0.0, 1.695419770958234E9, 0.0, 2023-09-22 16:56:10.958
194.0, 21741.20655551035, 33640.2918267598, -52852.21968319651, -56412.91963016029, -36621.92513011994, -20930.95581900547, -187500.02235174447, -39099.99598264647, -9556.957728500096, 17016.427757314177, -50903.236973671555, -46572.273561033435, -22451.96967744466, -53548.185950301406, -53507.63988585948, -43188.465319688956, -0.006, 1.004, 0.192, 192.0, 0.0, 0.0, 0.0, 0.0, 0.0, 0.0, 0.0, 0.0, 0.0, 1.69541977101839E9, 0.0, 2023-09-22 16:56:11.018
196.0, 21793.42023055795, 33691.0526384178, -52886.86488710224, -56457.98074698219, -36636.54317099371, -20969.736095635428, -187500.02235174447, -39132.92010222913, -9559.371716901269, 17041.595821570852, -50910.61304934181, -46574.8440116458, -22440.72674998364, -53551.62811894753, -53505.56117362514, -43193.04742730229, -0.006, 1.004, 0.192, 192.0, 0.0, 0.0, 0.0, 0.0, 0.0, 0.0, 0.0, 0.0, 0.0, 1.695419771018406E9, 0.0, 2023-09-22 16:56:11.018
198.0, 21742.6817706444, 33639.66597791505, -52877.6336166422, -56426.08480764447, -36641.70642396288, -20934.308580673765, -187500.02235174447, -39108.154369372656, -9573.140391485738, 17006.88356243176, -50924.35937218182, -46589.08207286383, -22463.21260490568, -53561.01585161875, -53529.589298914594, -43209.52066296586, -0.006, 1.004, 0.192, 192.0, 0.0, 0.0, 0.0, 0.0, 0.0, 0.0, 0.0, 0.0, 0.0, 1.69541977101841E9, 0.0, 2023-09-22 16:56:11.018
200.0, 21797.197675370895, 33694.96419369748, -52883.44507020058, -56445.016735198114, -36631.26815930226, -20956.257993728876, -187500.02235174447, -39121.565416045836, -9559.237606434537, 17044.23332741658, -50911.99885749804, -46569.770165654445, -22453.35548560089, -53546.55427295617, -53511.79731032817, -43191.90748833508, -0.006, 1.004, 0.192, 192.0, 0.0, 0.0, 0.0, 0.0, 0.0, 0.0, 0.0, 0.0, 0.0, 1.695419771018413E9, 0.0, 2023-09-22 16:56:11.018
202.0, 21749.521404447725, 33647.82436464124, -52881.20989575504, -56425.704827988724, -36652.34585432361, -20941.304676688276, -187500.02235174447, -39113.675250253116, -9558.567054100879, 17022.4180248282, -50910.52364236399, -46571.15597381067, -22461.089189182425, -53548.70004042388, -53518.77105459822, -43194.09795929169, -0.008, 1.002, 0.192, 192.0, 127.5, 96.0, 15.5, 40.0, 3.0, 0.0, 0.0, 0.0, 0.0, 1.695419771018416E9, 0.0, 2023-09-22 16:56:11.018
204.0, 21794.962500925365, 33692.28198436284, -52887.04370105788, -56447.073095688, -36636.47611576034, -20961.1977292535, -187500.02235174447, -39125.11934341423, -9567.150123971716, 17033.839766244862, -50918.1679389677, -46576.900372135686, -22463.749046772606, -53554.71265968236, -53518.189909242385, -43194.56734592526, -0.008, 1.002, 0.192, 192.0, 0.0, 0.0, 0.0, 0.0, 0.0, 0.0, 0.0, 0.0, 0.0, 1.695419771018419E9, 0.0, 2023-09-22 16:56:11.018
206.0, 21752.717703904833, 33651.579457709726, -52873.833820084794, -56414.68541797226, -36642.62284548555, -20927.37953989262, -187500.02235174447, -39098.99015414598, -9570.569940873378, 17023.356798095323, -50922.79475006995, -46583.672950705644, -22455.523604813054, -53554.466790493345, -53520.60389764356, -43191.37104646815, -0.008, 1.002, 0.192, 192.0, 0.0, 0.0, 0.0, 0.0, 0.0, 0.0, 0.0, 0.0, 0.0, 1.695419771018423E9, 0.0, 2023-09-22 16:56:11.018
208.0, 21787.005279899273, 33684.72709473695, -52878.19241025358, -56441.35104910744, -36623.53445572072, -20952.27938321583, -187500.02235174447, -39115.64220376518, -9548.531120840446, 17049.12835945229, -50903.77341553848, -46565.67979641912, -22430.288485323013, -53532.76324662725, -53495.882868275985, -43166.1359269781, -0.008, 1.002, 0.192, 192.0, 0.0, 0.0, 0.0, 0.0, 0.0, 0.0, 0.0, 0.0, 0.0, 1.695419771018426E9, 0.0, 2023-09-22 16:56:11.018
210.0, 21756.53985220669, 33655.33455077822, -52879.26529398743, -56425.369551821896, -36652.12233687906, -20940.276496443334, -187500.02235174447, -39115.21752062053, -9577.811906076897, 17019.22172537109, -50933.5235874085, -46597.48632877902, -22469.001706719602, -53562.66988070845, -53527.35412446906, -43196.26607850386, -0.008, 1.002, 0.192, 192.0, 0.0, 0.0, 0.0, 0.0, 0.0, 0.0, 0.0, 0.0, 0.0, 1.695419771078736E9, 0.0, 2023-09-22 16:56:11.078
212.0, 21783.049021130686, 33680.39085631262, -52864.78136358039, -56433.08090365898, -36622.640385942505, -20953.28521171632, -187500.02235174447, -39118.72674450001, -9549.64870806321, 17041.95344948214, -50906.522680106485, -46569.97133135454, -22442.179613373235, -53539.20054903037, -53504.35417942455, -43177.11063350566, -0.008, 1.0, 0.192, 192.0, 127.5, 96.0, 15.5, 32.0, 3.0, 0.0, 0.0, 0.0, 0.0, 1.695419771078748E9, 0.0, 2023-09-22 16:56:11.078
214.0, 21766.955765122864, 33667.38214103963, -52867.50827640394, -56419.53574651906, -36650.69182523392, -20944.545679634295, -187500.02235174447, -39117.02801192141, -9566.926606527162, 17038.488929091567, -50921.632459358276, -46582.95769488307, -22445.15239538579, -53550.59993870258, -53519.75453135426, -43193.06977904675, -0.008, 1.0, 0.192, 192.0, 0.0, 0.0, 0.0, 0.0, 0.0, 0.0, 0.0, 0.0, 0.0, 1.695419771078752E9, 0.0, 2023-09-22 16:56:11.078
216.0, 21777.774009439232, 33676.9486876665, -52868.13412524869, -56435.561947293514, -36635.15736283748, -20964.081104288234, -187500.02235174447, -39125.767544003436, -9556.756562799997, 17037.952487224637, -50910.300124919435, -46568.20554354257, -22445.040636663514, -53537.59122342959, -53513.428987673404, -43184.15143300908, -0.008, 1.0, 0.192, 192.0, 0.0, 0.0, 0.0, 0.0, 0.0, 0.0, 0.0, 0.0, 0.0, 1.695419771078755E9, 0.0, 2023-09-22 16:56:11.078
218.0, 21773.68364020391, 33677.03809464432, -52873.85617182925, -56422.66499074281, -36660.481889305345, -20950.603002381686, -187500.02235174447, -39120.98427069, -9578.124830499271, 17028.90003072024, -50937.41279094372, -46592.79246244341, -22464.24078515062, -53563.25102606428, -53537.99355482979, -43209.364200754666, -0.008, 1.0, 0.192, 192.0, 0.0, 0.0, 0.0, 0.0, 0.0, 0.0, 0.0, 0.0, 0.0, 1.695419771078758E9, 0.0, 2023-09-22 16:56:11.078
220.0, 21771.292003547194, 33669.885536418624, -52857.494694887966, -56421.83797619796, -36625.456705743876, -20947.652572113584, -187500.02235174447, -39107.573224016814, -9540.149216669704, 17043.495719849554, -50898.67721780267, -46555.17447652513, -22426.19811608769, -53521.22974648831, -53497.425138643404, -43164.07956648822, -0.008, 1.0, 0.192, 192.0, 0.0, 0.0, 0.0, 0.0, 0.0, 0.0, 0.0, 0.0, 0.0, 1.695419771078761E9, 0.0, 2023-09-22 16:56:11.078
222.0, 21772.320183792137, 33674.311181820776, -52887.28957024689, -56442.289822374565, -36668.506165564795, -20967.0985897897, -187500.02235174447, -39135.02116620793, -9582.081089267862, 17027.313056863914, -50944.02890730249, -46596.972238656555, -22471.25923290959, -53565.866180165554, -53536.33952574009, -43208.514834465364, -0.008, 0.998, 0.2, 192.0, 127.5, 96.0, 15.5, 24.0, 3.0, 32.0, 0.0, 0.0, 0.0, 1.695419771078765E9, 0.0, 2023-09-22 16:56:11.078
224.0, 21745.945125334874, 33648.025530341336, -52883.42271845612, -56452.25870040163, -36650.44595604491, -20975.547549193805, -187500.02235174447, -39136.49638134198, -9575.46497290909, 17007.2635420875, -50932.22718623009, -46590.1996600866, -22464.50900608409, -53555.49497073829, -53526.8847378355, -43198.97063958295, -0.008, 0.998, 0.2, 192.0, 0.0, 0.0, 0.0, 0.0, 0.0, 0.0, 0.0, 0.0, 0.0, 1.695419771139E9, 0.0, 2023-09-22 16:56:11.139
226.0, 21774.242433815292, 33681.19551911301, -52885.07674754581, -56442.24511888566, -36660.750110238805, -20963.34349672121, -187500.02235174447, -39133.45654409606, -9591.580580661366, 17016.56186778091, -50952.23199751759, -46605.30943933838, -22476.78011379005, -53576.12563087054, -53542.732124654314, -43218.79663691481, -0.008, 0.998, 0.2, 192.0, 0.0, 0.0, 0.0, 0.0, 0.0, 0.0, 0.0, 0.0, 0.0, 1.695419771139013E9, 0.0, 2023-09-22 16:56:11.139
228.0, 21741.027741554706, 33646.17033555154, -52877.58891315328, -56439.51820606211, -36644.053357130695, -20958.560223407774, -187500.02235174447, -39120.023145678424, -9564.5573216149, 17010.45984154461, -50922.21360471411, -46578.88967739221, -22440.480880794632, -53546.19664504488, -53517.564060397635, -43186.61012489917, -0.008, 0.998, 0.2, 192.0, 0.0, 0.0, 0.0, 0.0, 0.0, 0.0, 0.0, 0.0, 0.0, 1.695419771139016E9, 0.0, 2023-09-22 16:56:11.139
230.0, 21780.03153562922, 33690.38208608414, -52881.2322474995, -56432.5221100476, -36654.87160144706, -20950.647705870593, -187500.02235174447, -39120.224311378515, -9584.338615457847, 17021.099271905336, -50944.14066602477, -46597.68749447912, -22465.87246249586, -53567.207284832875, -53533.90318559446, -43200.2446890169, -0.008, 0.998, 0.2, 192.0, 0.0, 0.0, 0.0, 0.0, 0.0, 0.0, 0.0, 0.0, 0.0, 1.69541977113902E9, 0.0, 2023-09-22 16:56:11.139
232.0, 21738.233773497795, 33644.27043727284, -52866.54715139236, -56422.508528531616, -36638.376014039044, -20943.0928162447, -187500.02235174447, -39109.115494384234, -9561.27161517997, 17019.065263159904, -50910.34482840834, -46568.69728192059, -22444.280677352035, -53532.226804760314, -53504.980028269296, -43166.35944442266, -0.012, 0.996, 0.198, 192.0, 127.5, 80.0, 15.5, 16.0, 3.0, 24.0, 0.0, 0.0, 0.0, 1.695419771139023E9, 0.0, 2023-09-22 16:56:11.139
234.0, 21780.232701329318, 33687.14108313812, -52880.78521261039, -56437.528900805584, -36651.16121186748, -20960.124845519644, -187500.02235174447, -39127.86860798224, -9585.433850936157, 17028.050664430935, -50937.56925315491, -46595.005285144485, -22461.737389771628, -53560.65822370747, -53522.54849941117, -43192.55568892428, -0.012, 0.996, 0.198, 192.0, 0.0, 0.0, 0.0, 0.0, 0.0, 0.0, 0.0, 0.0, 0.0, 1.695419771139026E9, 0.0, 2023-09-22 16:56:11.139
236.0, 21728.533116404193, 33630.85939059966, -52875.82312534132, -56431.89626120285, -36652.63642700153, -20953.642839627606, -187500.02235174447, -39117.1844741326, -9567.932435027651, 17006.749451965028, -50918.771436068, -46581.70599719358, -22451.634401277828, -53545.68255492241, -53511.86436556153, -43178.27292421734, -0.012, 0.996, 0.198, 192.0, 0.0, 0.0, 0.0, 0.0, 0.0, 0.0, 0.0, 0.0, 0.0, 1.69541977113903E9, 0.0, 2023-09-22 16:56:11.139
238.0, 21777.952823394877, 33686.403475571096, -52894.82210812833, -56453.532749835584, -36664.88518296304, -20975.815770127272, -187500.02235174447, -39141.637282566706, -9589.725385871576, 17013.79025146845, -50946.577006170395, -46605.55530852739, -22468.57702357495, -53574.35984305857, -53535.06547630614, -43207.1513780536, -0.012, 0.996, 0.198, 192.0, 0.0, 0.0, 0.0, 0.0, 0.0, 0.0, 0.0, 0.0, 0.0, 1.695419771139033E9, 0.0, 2023-09-22 16:56:11.139
240.0, 21724.219229724316, 33631.731108633416, -52890.530573192904, -56440.50168281814, -36666.561563797186, -20961.08597053122, -187500.02235174447, -39129.4332300941, -9578.527161899467, 16995.819448926384, -50933.63534613077, -46593.77593919944, -22460.1504159153, -53560.94879638539, -53533.21028151635, -43199.82000587225, -0.012, 0.996, 0.198, 192.0, 0.0, 0.0, 0.0, 0.0, 0.0, 0.0, 0.0, 0.0, 0.0, 1.695419771199248E9, 0.0, 2023-09-22 16:56:11.199
242.0, 21784.07720137563, 33692.50550180739, -52892.497526704974, -56449.1741596668, -36656.771499725764, -20970.741924135917, -187500.02235174447, -39136.69754704208, -9579.622397377778, 17023.423853328688, -50940.20675900063, -46597.240459590015, -22464.86663399537, -53566.38027028803, -53533.724371638826, -43204.60327918569, -0.006, 0.996, 0.2, 192.0, 127.5, 104.0, 15.5, 16.0, 3.0, 32.0, 0.0, 0.0, 0.0, 1.695419771199272E9, 0.0, 2023-09-22 16:56:11.199
244.0, 21735.104529274053, 33640.47064071544, -52871.46453517253, -56414.97599065018, -36650.758880467285, -20938.421301653543, -187500.02235174447, -39109.85310195126, -9566.256054193504, 17012.672664245685, -50918.59262211235, -46580.186078570616, -22452.662581522774, -53545.30257526667, -53520.24626973227, -43181.80449984127, -0.006, 0.996, 0.2, 192.0, 0.0, 0.0, 0.0, 0.0, 0.0, 0.0, 0.0, 0.0, 0.0, 1.695419771199276E9, 0.0, 2023-09-22 16:56:11.199
246.0, 21794.560169525168, 33697.31112686529, -52873.967930551524, -56430.041066413054, -36639.2477320728, -20951.362961693165, -187500.02235174447, -39118.905558455655, -9559.79640004592, 17043.629830316288, -50915.038694743955, -46574.57579071233, -22443.297200596, -53541.815703131644, -53511.50673765025, -43174.473127659934, -0.006, 0.996, 0.2, 192.0, 0.0, 0.0, 0.0, 0.0, 0.0, 0.0, 0.0, 0.0, 0.0, 1.69541977119928E9, 0.0, 2023-09-22 16:56:11.199
248.0, 21745.29692474567, 33644.158678550564, -52868.75997409344, -56411.89144991535, -36654.44691830241, -20932.52044111734, -187500.02235174447, -39103.84048269278, -9559.014088989985, 17021.546306794444, -50912.62470634279, -46574.799308156886, -22445.241802363613, -53537.43476121841, -53514.36776094053, -43170.65097935808, -0.006, 0.996, 0.2, 192.0, 0.0, 0.0, 0.0, 0.0, 0.0, 0.0, 0.0, 0.0, 0.0, 1.695419771199283E9, 0.0, 2023-09-22 16:56:11.199
