%OpenBCI Raw EXG Data
%Number of channels = 16
%Sample Rate = 125 Hz
%Board = OpenBCI_GUI$BoardCytonSerialDaisy
Sample Index, EXG Channel 0, EXG Channel 1, EXG Channel 2, EXG Channel 3, EXG Channel 4, EXG Channel 5, EXG Channel 6, EXG Channel 7, EXG Channel 8, EXG Channel 9, EXG Channel 10, EXG Channel 11, EXG Channel 12, EXG Channel 13, EXG Channel 14, EXG Channel 15, Accel Channel 0, Accel Channel 1, Accel Channel 2, Other, Other, Other, Other, Other, Other, Other, Analog Channel 0, Analog Channel 1, Analog Channel 2, Timestamp, Other, Timestamp (Formatted)
222.0, 21581.70450707728, 33342.20896270382, -52696.65154178757, -55833.09302724517, -37144.30774978492, -20758.802683210695, -187500.02235174447, -37783.61234469561, -9676.897189247275, 17257.55837649803, -50735.42007630111, -46916.08809424497, -21665.680010995868, -53053.586548994375, -53085.393081354276, -42748.20300915278, 0.0, 0.0, 0.0, 192.0, 0.0, 0.0, 0.0, 0.0, 0.0, 0.0, 0.0, 0.0, 0.0, 1.695419800274286E9, 0.0, 2023-09-22 16:56:40.274
224.0, 21634.678141436358, 33396.613108708036, -52694.036387686305, -55835.14938773506, -37127.96862458809, -20757.48393028783, -187500.02235174447, -37783.32177201769, -9673.790296767986, 17291.37656585891, -50730.61445124322, -46912.35535292094, -21652.894813167433, -53052.62542398279, -53075.960645194136, -42746.16900040734, 0.0, 0.0, 0.0, 192.0, 0.0, 0.0, 0.0, 0.0, 0.0, 0.0, 0.0, 0.0, 0.0, 1.695419800274295E9, 0.0, 2023-09-22 16:56:40.274
226.0, 21583.60440535598, 33341.15843071442, -52697.36679761014, -55832.266012700326, -37137.7139851706, -20754.57820350864, -187500.02235174447, -37779.87960337158, -9656.91472970423, 17280.513618053632, -50705.35698000872, -46891.79174802205, -21637.00272285971, -53030.094865571846, -53057.02871764049, -42722.856130940454, 0.0, 0.0, 0.0, 192.0, 0.0, 0.0, 0.0, 0.0, 0.0, 0.0, 0.0, 0.0, 0.0, 1.695419800274299E9, 0.0, 2023-09-22 16:56:40.274
228.0, 21625.536277954136, 33386.73363765879, -52725.73116132393, -55862.329108992715, -37156.98118889108, -20789.044593458726, -187500.02235174447, -37813.36251656563, -9701.4394046592, 17273.584577272486, -50748.8311229743, -46930.326155463, -21683.851979238032, -53077.65937777274, -53096.278380904005, -42767.26904717315, -0.004, 0.988, 0.212, 192.0, 127.5, 112.0, 15.0, 112.0, 3.0, 80.0, 0.0, 0.0, 0.0, 1.695419800274302E9, 0.0, 2023-09-22 16:56:40.274
230.0, 21586.845408302, 33346.701663339336, -52694.70694001996, -55816.50803285933, -37142.65372069523, -20744.654028970486, -187500.02235174447, -37776.52684170328, -9679.266474159536, 17265.292080079565, -50720.287945304866, -46905.29220167306, -21654.794711446135, -53049.026793125486, -53079.91690396272, -42739.642291026394, -0.004, 0.988, 0.212, 192.0, 0.0, 0.0, 0.0, 0.0, 0.0, 0.0, 0.0, 0.0, 0.0, 1.695419800274306E9, 0.0, 2023-09-22 16:56:40.274
232.0, 21636.08630133704, 33392.0310010947, -52707.67095180404, -55845.6323558846, -37137.736336915055, -20773.957165951393, -187500.02235174447, -37795.48112100138, -9670.236369399592, 17300.227856663212, -50715.05763710233, -46897.2679254136, -21651.173728844373, -53042.63419421127, -53069.4786393021, -42733.629671767914, -0.004, 0.988, 0.212, 192.0, 0.0, 0.0, 0.0, 0.0, 0.0, 0.0, 0.0, 0.0, 0.0, 1.695419800274309E9, 0.0, 2023-09-22 16:56:40.274
234.0, 21583.73851582271, 33334.87759052248, -52707.06745470375, -55828.89089928757, -37153.85194466734, -20755.941659920416, -187500.02235174447, -37785.28872552976, -9686.128459707315, 17260.687620721772, -50733.43077104459, -46919.32909719099, -21671.67027850989, -53057.96749090761, -53089.282284889494, -42751.48871558771, -0.004, 0.988, 0.212, 192.0, 0.0, 0.0, 0.0, 0.0, 0.0, 0.0, 0.0, 0.0, 0.0, 1.695419800274312E9, 0.0, 2023-09-22 16:56:40.274
236.0, 21625.6033331875, 33376.36242823153, -52707.872117504136, -55848.403972197055, -37136.30582526992, -20775.834712485637, -187500.02235174447, -37794.3188302897, -9682.418070127735, 17283.866379721927, -50731.329707065786, -46915.551652378046, -21658.393342303436, -53052.78188619398, -53079.40281384025, -42747.21953239674, -0.004, 0.988, 0.212, 192.0, 0.0, 0.0, 0.0, 0.0, 0.0, 0.0, 0.0, 0.0, 0.0, 1.695419800274316E9, 0.0, 2023-09-22 16:56:40.274
238.0, 21578.105876219975, 33326.02629971818, -52722.0431234888, -55846.77229485182, -37169.766386719515, -20777.555796808698, -187500.02235174447, -37801.471388515405, -9693.459831888656, 17261.827559688994, -50745.25484386145, -46929.454437429245, -21672.05025816563, -53063.13074387679, -53094.71375879214, -42757.41192786836, -0.004, 0.988, 0.216, 192.0, 127.5, 112.0, 15.0, 112.0, 3.0, 96.0, 0.0, 0.0, 0.0, 1.695419800274319E9, 0.0, 2023-09-22 16:56:40.274
0.0, 10837.131540433353, 16660.87855826361, -26299.688374959038, -27853.0228558806, -18626.78153834123, -10388.755546659893, -93750.01117587223, -18729.08547271317, -4842.90776764247, 8627.840414981893, -25370.07932306282, -23462.7379134581, -10833.66702004278, -26529.464307959595, -26544.685845933658, -21376.984879611122, -0.005, 0.994, 0.21100000000000002, 192.0, 127.5, 104.0, 15.5, 32.0, 3.0, 56.0, 0.0, 0.0, 0.0, 1.695419800416315E9, 0.0, 2023-09-22 16:56:40.416
2.0, 21638.0085513602, 33286.03902888764, -52582.098851454124, -55666.17019965294, -37257.80990812897, -20735.132185832525, -187500.02235174447, -37426.02913689961, -9682.328663149914, 17498.26431253723, -50674.757441849404, -46938.462190444734, -21633.71701642478, -52947.035783175925, -52995.38260643275, -42686.668656667316, -0.005, 0.994, 0.21100000000000002, 192.0, 0.0, 0.0, 0.0, 0.0, 0.0, 0.0, 0.0, 0.0, 0.0, 1.69541980041633E9, 0.0, 2023-09-22 16:56:40.416
4.0, 21654.258269579204, 33297.974860426766, -52586.52449685628, -55689.95245575339, -37237.000434041074, -20755.874604687047, -187500.02235174447, -37434.45574455926, -9658.278186116004, 17518.00090289127, -50653.098601472215, -46914.88110004438, -21618.94251333982, -52921.33127705232, -52968.67227180866, -42661.54529589955, -0.005, 0.994, 0.21100000000000002, 192.0, 0.0, 0.0, 0.0, 0.0, 0.0, 0.0, 0.0, 0.0, 0.0, 1.695419800416333E9, 0.0, 2023-09-22 16:56:40.416
6.0, 21646.725731697767, 33295.806741214605, -52579.4613456084, -55664.98555719681, -37252.64665515979, -20732.807604409172, -187500.02235174447, -37421.35762230845, -9680.182895682205, 17498.55488521515, -50675.45034592752, -46938.23867300018, -21642.858879907, -52945.29234710841, -52990.55462963041, -42685.66282816682, -0.005, 0.994, 0.21100000000000002, 192.0, 0.0, 0.0, 0.0, 0.0, 0.0, 0.0, 0.0, 0.0, 0.0, 1.695419800416337E9, 0.0, 2023-09-22 16:56:40.416
8.0, 21652.403074789414, 33300.54531103913, -52577.85202000762, -55684.92331325094, -37240.21908524264, -20755.181700608933, -187500.02235174447, -37432.622901513925, -9659.507532061045, 17514.491679011786, -50648.36003164769, -46911.483634887176, -21608.772469612657, -52919.23021307352, -52964.89482699571, -42657.72314759769, -0.008, 0.998, 0.212, 192.0, 127.5, 96.0, 15.5, 24.0, 3.0, 80.0, 0.0, 0.0, 0.0, 1.69541980041634E9, 0.0, 2023-09-22 16:56:40.416
10.0, 21649.206775332306, 33302.75813374021, -52577.33792988514, -55672.227522400324, -37263.10727156488, -20748.520880761254, -187500.02235174447, -37434.03106141461, -9684.407375384257, 17500.052452093656, -50674.3104069603, -46937.88104508889, -21635.728673425758, -52947.19224538711, -52991.94043778664, -42683.360598487925, -0.008, 0.998, 0.212, 192.0, 0.0, 0.0, 0.0, 0.0, 0.0, 0.0, 0.0, 0.0, 0.0, 1.695419800416343E9, 0.0, 2023-09-22 16:56:40.416
12.0, 21634.432272247348, 33287.000153899215, -52575.28156939526, -55684.23040917283, -37243.90712307777, -20759.652049499997, -187500.02235174447, -37431.97470092472, -9670.638700799787, 17495.872675880513, -50659.379441664154, -46923.799446082056, -21621.602370930003, -52930.674306234636, -52977.32239691287, -42667.91554306931, -0.008, 0.998, 0.212, 192.0, 0.0, 0.0, 0.0, 0.0, 0.0, 0.0, 0.0, 0.0, 0.0, 1.695419800416347E9, 0.0, 2023-09-22 16:56:40.416
14.0, 21646.94924914232, 33305.08271516356, -52585.65277882252, -55684.69979580639, -37264.64954193229, -20757.86390994357, -187500.02235174447, -37436.7356224937, -9693.884515033307, 17501.728832927805, -50687.140308277645, -46948.29695800507, -21646.032827619652, -52953.16016115668, -52997.863650067295, -42690.66961892481, -0.008, 0.998, 0.212, 192.0, 0.0, 0.0, 0.0, 0.0, 0.0, 0.0, 0.0, 0.0, 0.0, 1.69541980041635E9, 0.0, 2023-09-22 16:56:40.416
16.0, 21626.385644243437, 33279.33350555104, -52577.82966826316, -55689.72893830883, -37249.07037604694, -20761.864872201073, -187500.02235174447, -37433.382860825404, -9673.119744434327, 17493.74926015726, -50664.900322544614, -46928.24744322866, -21622.675254663856, -52932.86477719126, -52980.29517892542, -42671.51417392662, -0.008, 0.998, 0.212, 192.0, 0.0, 0.0, 0.0, 0.0, 0.0, 0.0, 0.0, 0.0, 0.0, 1.695419800476562E9, 0.0, 2023-09-22 16:56:40.476
18.0, 21657.09694112503, 33313.554026312115, -52578.611979319096, -55680.274150404235, -37256.446451717195, -20750.554889506686, -187500.02235174447, -37430.946520679776, -9694.376253411325, 17502.9805306173, -50684.636912898655, -46946.62057717092, -21656.158167857906, -52954.25539663499, -52997.10369075581, -42694.04473233756, -0.01, 1.0, 0.21, 192.0, 127.5, 88.0, 15.5, 32.0, 3.0, 72.0, 0.0, 0.0, 0.0, 1.695419800476577E9, 0.0, 2023-09-22 16:56:40.476
20.0, 21627.14560355492, 33281.546328252116, -52567.8607902361, -55678.35190038108, -37242.5883701549, -20747.246831327302, -187500.02235174447, -37421.93876766429, -9664.62608154131, 17503.159344572945, -50652.13747646064, -46917.13862623437, -21626.29623726562, -52919.52078575144, -52969.96867298707, -42659.533638898574, -0.01, 1.0, 0.21, 192.0, 0.0, 0.0, 0.0, 0.0, 0.0, 0.0, 0.0, 0.0, 0.0, 1.69541980047658E9, 0.0, 2023-09-22 16:56:40.476
22.0, 21665.411790062404, 33324.6628433064, -52573.02404320527, -55677.86016200306, -37251.79728887049, -20750.10785461758, -187500.02235174447, -37429.09132588999, -9683.15567769476, 17515.31869355663, -50671.762308092395, -46936.00349855465, -21631.303028023605, -52943.37009708525, -52986.35250167281, -42678.35380772994, -0.01, 1.0, 0.21, 192.0, 0.0, 0.0, 0.0, 0.0, 0.0, 0.0, 0.0, 0.0, 0.0, 1.695419800476583E9, 0.0, 2023-09-22 16:56:40.476
24.0, 21618.22725751725, 33276.383075282945, -52572.44289784943, -55677.770755025245, -37252.31137899296, -20753.237098841324, -187500.02235174447, -37427.32553807802, -9666.347165864368, 17501.460611994342, -50652.09277297172, -46917.76447507912, -21624.441042475824, -52923.38763754221, -52972.53912359943, -42657.566685386504, -0.01, 1.0, 0.21, 192.0, 0.0, 0.0, 0.0, 0.0, 0.0, 0.0, 0.0, 0.0, 0.0, 1.695419800476587E9, 0.0, 2023-09-22 16:56:40.476
26.0, 21655.107635868506, 33319.07490719258, -52599.734377829365, -55705.64338036101, -37276.585373471426, -20779.723916020863, -187500.02235174447, -37456.82984075902, -9705.395663427791, 17494.75508865775, -50697.019779326896, -46957.19295229828, -21658.505101025716, -52967.800553774905, -53008.50308042802, -42700.772607418614, -0.01, 1.0, 0.21, 192.0, 0.0, 0.0, 0.0, 0.0, 0.0, 0.0, 0.0, 0.0, 0.0, 1.69541980047659E9, 0.0, 2023-09-22 16:56:40.476
28.0, 21608.16897251236, 33269.69990369081, -52582.56823808769, -55687.09143246311, -37264.58248669893, -20760.009677411283, -187500.02235174447, -37435.55098003757, -9685.457907373657, 17480.382916972987, -50671.136459247646, -46937.702231133255, -21642.6577142069, -52942.341916840305, -52991.001664519514, -42676.18568851778, -0.004, 0.998, 0.20400000000000001, 192.0, 127.5, 112.0, 15.5, 24.0, 3.0, 48.0, 0.0, 0.0, 0.0, 1.695419800476593E9, 0.0, 2023-09-22 16:56:40.476
30.0, 21652.470130022783, 33318.87374149248, -52590.86073528061, -55701.038921003215, -37263.62136168735, -20776.460561330387, -187500.02235174447, -37451.26425638965, -9700.992369770094, 17496.051489836158, -50692.884706602665, -46957.4835249762, -21658.505101025716, -52964.53719908443, -53002.82573733637, -42695.63170619389, -0.004, 0.998, 0.20400000000000001, 192.0, 0.0, 0.0, 0.0, 0.0, 0.0, 0.0, 0.0, 0.0, 0.0, 1.695419800535975E9, 0.0, 2023-09-22 16:56:40.535
32.0, 21603.564513154568, 33266.81652865607, -52572.241732149334, -55673.21099915636, -37259.37453024084, -20748.118549361057, -187500.02235174447, -37426.29735783307, -9684.273264917525, 17481.098172795555, -50674.3104069603, -46943.357222480445, -21635.438100747837, -52943.70537325208, -52989.97348427457, -42675.44808095075, -0.004, 0.998, 0.20400000000000001, 192.0, 0.0, 0.0, 0.0, 0.0, 0.0, 0.0, 0.0, 0.0, 0.0, 1.695419800535988E9, 0.0, 2023-09-22 16:56:40.535
34.0, 21660.71792372679, 33325.28869215115, -52571.43706934894, -55683.80572602818, -37248.042195802, -20758.735627977327, -187500.02235174447, -37431.10298289097, -9679.646453815276, 17509.574295231618, -50671.09175575874, -46938.41748695583, -21634.789900158634, -52941.87253020675, -52980.518696369974, -42671.35771171543, -0.004, 0.998, 0.20400000000000001, 192.0, 0.0, 0.0, 0.0, 0.0, 0.0, 0.0, 0.0, 0.0, 0.0, 1.695419800535992E9, 0.0, 2023-09-22 16:56:40.535
36.0, 21608.03486204563, 33270.88454614694, -52566.67614777997, -55662.21394088435, -37257.89931510679, -20744.072883614648, -187500.02235174447, -37422.005822897656, -9673.320910134426, 17487.826047876602, -50661.704023087506, -46931.7790188526, -21630.76658615668, -52932.3953905577, -52977.47885912405, -42660.89709531034, -0.004, 0.998, 0.20400000000000001, 192.0, 0.0, 0.0, 0.0, 0.0, 0.0, 0.0, 0.0, 0.0, 0.0, 1.695419800535995E9, 0.0, 2023-09-22 16:56:40.535
38.0, 21655.264098079693, 33316.81738100259, -52575.393328117534, -55681.950531238384, -37249.27154174704, -20764.569433280165, -187500.02235174447, -37434.90277944836, -9683.826230028419, 17506.020367863224, -50675.00331103842, -46940.58560616799, -21643.596487474024, -52944.95707094158, -52982.3068359264, -42666.820307591, -0.004, 1.0, 0.20600000000000002, 192.0, 127.5, 112.0, 15.5, 32.0, 3.0, 56.0, 0.0, 0.0, 0.0, 1.695419800535998E9, 0.0, 2023-09-22 16:56:40.535
40.0, 21604.547989910603, 33266.61536295597, -52572.26408389379, -55663.51034206276, -37265.16363205476, -20747.269183071756, -187500.02235174447, -37425.895026432874, -9698.623084857833, 17477.723059382806, -50684.972189065484, -46952.38732724039, -21657.05223763612, -52950.880283222235, -52993.102728498314, -42673.43642394977, -0.004, 1.0, 0.20600000000000002, 192.0, 0.0, 0.0, 0.0, 0.0, 0.0, 0.0, 0.0, 0.0, 0.0, 1.695419800536001E9, 0.0, 2023-09-22 16:56:40.536
42.0, 21660.13677837095, 33320.79599151564, -52561.423487832966, -55675.245007901794, -37240.75552710957, -20756.098122131603, -187500.02235174447, -37425.33623282149, -9676.472506102624, 17512.055338866157, -50663.13453473265, -46930.840245585474, -21626.6538651769, -52931.590727757306, -52971.220370676565, -42653.230446962174, -0.004, 1.0, 0.20600000000000002, 192.0, 0.0, 0.0, 0.0, 0.0, 0.0, 0.0, 0.0, 0.0, 0.0, 1.695419800536004E9, 0.0, 2023-09-22 16:56:40.536
44.0, 21627.27971402165, 33290.53172952315, -52555.70144125241, -55655.21784486984, -37259.77686164103, -20736.987380622315, -187500.02235174447, -37416.39553503937, -9674.416145612735, 17502.913475383935, -50659.535903875345, -46930.974356052204, -21627.346769255015, -52929.80258820088, -52976.29421666792, -42658.617217375904, -0.004, 1.0, 0.20600000000000002, 192.0, 0.0, 0.0, 0.0, 0.0, 0.0, 0.0, 0.0, 0.0, 0.0, 1.695419800536008E9, 0.0, 2023-09-22 16:56:40.536
46.0, 21671.08913315405, 33332.64241607695, -52548.97356617136, -55668.09244967609, -37238.11802126384, -20752.901822674492, -187500.02235174447, -37422.36345080894, -9664.33550886339, 17521.018388392735, -50650.28228167084, -46921.09488500296, -21623.636379675434, -52924.48287302052, -52968.87343750876, -42656.22558071918, -0.004, 1.0, 0.20600000000000002, 192.0, 0.0, 0.0, 0.0, 0.0, 0.0, 0.0, 0.0, 0.0, 0.0, 1.695419800595814E9, 0.0, 2023-09-22 16:56:40.595
48.0, 21634.119347824973, 33297.88545344895, -52559.21066513189, -55660.492856561286, -37267.46586173366, -20749.884337173025, -187500.02235174447, -37426.945558422274, -9672.292729889481, 17510.714234198836, -50662.12870623216, -46934.0812485315, -21637.740330426735, -52935.32346908134, -52982.79857430441, -42668.36257795842, -0.006, 1.004, 0.20800000000000002, 192.0, 127.5, 104.0, 15.5, 48.0, 3.0, 64.0, 0.0, 0.0, 0.0, 1.695419800595838E9, 0.0, 2023-09-22 16:56:40.595
50.0, 21667.043467407642, 33324.70754679532, -52539.87640617805, -55659.41997282743, -37229.71376534865, -20750.800758695696, -187500.02235174447, -37414.74150594968, -9661.25096812856, 17523.94646691638, -50646.59424383572, -46915.23872795567, -21625.6033331875, -52919.207861329065, -52963.62077756176, -42650.659996349816, -0.006, 1.004, 0.20800000000000002, 192.0, 0.0, 0.0, 0.0, 0.0, 0.0, 0.0, 0.0, 0.0, 0.0, 1.695419800595842E9, 0.0, 2023-09-22 16:56:40.595
52.0, 21645.85401366401, 33306.78144774216, -52538.6023567441, -55641.44917028537, -37247.32693997943, -20732.0923485866, -187500.02235174447, -37404.57146222251, -9667.44240134268, 17522.47125178233, -50650.371688648665, -46919.82083556901, -21618.94251333982, -52924.61698348725, -52965.990062474026, -42654.8174208185, -0.006, 1.004, 0.20800000000000002, 192.0, 0.0, 0.0, 0.0, 0.0, 0.0, 0.0, 0.0, 0.0, 0.0, 1.695419800595845E9, 0.0, 2023-09-22 16:56:40.595
54.0, 21653.52066201218, 33312.25762513371, -52541.128103867544, -55666.59488279759, -37223.07529724542, -20753.43826454142, -187500.02235174447, -37413.959194893745, -9652.444380813167, 17530.339065830598, -50635.418371608066, -46906.43214064028, -21602.51398116517, -52909.95423912457, -52948.17572214315, -42638.835923532955, -0.006, 1.004, 0.20800000000000002, 192.0, 0.0, 0.0, 0.0, 0.0, 0.0, 0.0, 0.0, 0.0, 0.0, 1.695419800595848E9, 0.0, 2023-09-22 16:56:40.595
56.0, 21639.394359516427, 33302.89224420694, -52563.233979133845, -55667.66776653144, -37262.9955128426, -20752.54419476321, -187500.02235174447, -37423.056354887056, -9690.889381276296, 17508.590818475583, -50676.4114709391, -46946.30765274855, -21650.27965906616, -52949.069791921356, -52984.63141734975, -42676.90094434034, -0.006, 1.004, 0.20800000000000002, 192.0, 0.0, 0.0, 0.0, 0.0, 0.0, 0.0, 0.0, 0.0, 0.0, 1.695419800595852E9, 0.0, 2023-09-22 16:56:40.595
58.0, 21639.550821727615, 33301.752305239715, -52557.288415108735, -55678.57541782563, -37241.761355610055, -20763.988287924327, -187500.02235174447, -37423.97277640972, -9673.812648512441, 17510.55777198765, -50657.457191641, -46927.01809728362, -21630.654827434402, -52927.3438963108, -52967.46527760808, -42656.672615608295, -0.006, 1.0, 0.212, 192.0, 127.5, 104.0, 15.5, 32.0, 3.0, 80.0, 0.0, 0.0, 0.0, 1.695419800595855E9, 0.0, 2023-09-22 16:56:40.595
60.0, 21657.409865547404, 33322.47237234979, -52541.73160096784, -55647.99823141078, -37243.25892248857, -20734.036950354213, -187500.02235174447, -37404.63851745588, -9678.282997403503, 17519.65493198096, -50661.23463645395, -46933.924786320305, -21629.71605416728, -52936.23989060401, -52974.70724281159, -42663.73576685617, -0.006, 1.0, 0.212, 192.0, 0.0, 0.0, 0.0, 0.0, 0.0, 0.0, 0.0, 0.0, 0.0, 1.695419800656047E9, 0.0, 2023-09-22 16:56:40.656
62.0, 21643.641190962935, 33304.43451457435, -52533.64026947502, -55649.093466889084, -37224.639919357294, -20735.288648043712, -187500.02235174447, -37398.46943598622, -9656.333584348391, 17525.22051635033, -50633.943156474015, -46909.15905346382, -21609.5994841575, -52909.775425168926, -52951.59553904481, -42634.11970545289, -0.006, 1.0, 0.212, 192.0, 0.0, 0.0, 0.0, 0.0, 0.0, 0.0, 0.0, 0.0, 0.0, 1.69541980065606E9, 0.0, 2023-09-22 16:56:40.656
64.0, 21659.33211557056, 33321.08656419356, -52550.04644990522, -55652.937966935395, -37249.405652213776, -20739.49077600131, -187500.02235174447, -37410.09234310297, -9678.618273570333, 17527.835670451605, -50662.21811320998, -46937.16578926633, -21630.274847778663, -52930.76371321246, -52970.68392880964, -42653.096336495444, -0.006, 1.0, 0.212, 192.0, 0.0, 0.0, 0.0, 0.0, 0.0, 0.0, 0.0, 0.0, 0.0, 1.695419800656064E9, 0.0, 2023-09-22 16:56:40.656
66.0, 21627.860859377488, 33287.693057977325, -52551.99105167283, -55664.471467074334, -37242.051928287976, -20752.96887790786, -187500.02235174447, -37417.55782575105, -9662.972052451618, 17512.211801077345, -50646.84011302473, -46925.22995772719, -21622.09410930802, -52913.30700079286, -52957.42934434764, -42635.19258918674, -0.006, 1.0, 0.212, 192.0, 0.0, 0.0, 0.0, 0.0, 0.0, 0.0, 0.0, 0.0, 0.0, 1.695419800656067E9, 0.0, 2023-09-22 16:56:40.656
68.0, 21659.019191148185, 33323.54525608364, -52560.19414188792, -55663.95737695186, -37257.9440185957, -20754.041761641714, -187500.02235174447, -37426.78909621109, -9692.92339002173, 17516.480984268306, -50679.451308185024, -46953.214341785235, -21658.169824858884, -52945.53821629742, -52988.408862162694, -42671.53652567107, -0.002, 0.994, 0.20800000000000002, 192.0, 127.5, 120.0, 15.5, 8.0, 3.0, 64.0, 0.0, 0.0, 0.0, 1.695419800656071E9, 0.0, 2023-09-22 16:56:40.656
70.0, 21624.28458026464, 33285.614345742986, -52549.174731871455, -55659.77760073872, -37244.488268433604, -20746.620982482553, -187500.02235174447, -37415.25559607215, -9664.737840263586, 17508.74728068677, -50651.26575842688, -46929.34267870697, -21624.955132598297, -52918.33614329531, -52969.253417164495, -42651.37525217239, -0.002, 0.994, 0.20800000000000002, 192.0, 0.0, 0.0, 0.0, 0.0, 0.0, 0.0, 0.0, 0.0, 0.0, 1.695419800656074E9, 0.0, 2023-09-22 16:56:40.656
72.0, 21665.456493551315, 33329.33435789756, -52570.05126119271, -55679.44713585939, -37266.102405321886, -20766.156407136492, -187500.02235174447, -37437.27206436063, -9689.861201031352, 17518.403234291465, -50678.53488666235, -46953.571969696524, -21645.76460668619, -52947.01343143147, -52992.119251742275, -42682.64534266536, -0.002, 0.994, 0.20800000000000002, 192.0, 0.0, 0.0, 0.0, 0.0, 0.0, 0.0, 0.0, 0.0, 0.0, 1.695419800656077E9, 0.0, 2023-09-22 16:56:40.656
74.0, 21627.190307043827, 33283.714447464285, -52549.040621404725, -55663.19741764038, -37251.86434410386, -20750.800758695696, -187500.02235174447, -37418.02721238461, -9663.888473974284, 17501.862943394535, -50648.494142114425, -46930.95200430775, -21621.8035366301, -52921.84536717479, -52971.06390846538, -42658.550162142536, -0.002, 0.994, 0.20800000000000002, 192.0, 0.0, 0.0, 0.0, 0.0, 0.0, 0.0, 0.0, 0.0, 0.0, 1.695419800656081E9, 0.0, 2023-09-22 16:56:40.656
76.0, 21677.034697179162, 33334.29644516664, -52545.08436263614, -55661.63279552851, -37246.9916638126, -20754.891127931016, -187500.02235174447, -37420.0835728745, -9672.002157211562, 17524.348798316576, -50661.54756087632, -46942.08317304649, -21628.218487288774, -52937.42453306014, -52977.031824234946, -42669.48016518118, -0.002, 0.994, 0.20800000000000002, 192.0, 0.0, 0.0, 0.0, 0.0, 0.0, 0.0, 0.0, 0.0, 0.0, 1.6954198007163E9, 0.0, 2023-09-22 16:56:40.716
78.0, 21619.724824395755, 33278.819415428574, -52544.05618239119, -55653.04972565767, -37254.211277271665, -20747.068017371657, -187500.02235174447, -37411.94753789277, -9667.777677509508, 17505.12629808501, -50651.712793315986, -46935.66822238782, -21631.057158834596, -52922.67238171964, -52972.98615848854, -42655.77854583008, -0.002, 0.992, 0.20400000000000001, 192.0, 127.5, 120.0, 15.5, 0.0, 3.0, 48.0, 0.0, 0.0, 0.0, 1.695419800716312E9, 0.0, 2023-09-22 16:56:40.716
80.0, 21667.602261019023, 33328.90967475291, -52557.89191220903, -55675.26735964625, -37257.295818006496, -20769.196244382412, -187500.02235174447, -37428.66664274534, -9689.034186486506, 17523.924115171925, -50674.22099998248, -46952.74495515168, -21652.783054445157, -52940.732591239524, -52986.97835051756, -42673.03409254958, -0.002, 0.992, 0.20400000000000001, 192.0, 0.0, 0.0, 0.0, 0.0, 0.0, 0.0, 0.0, 0.0, 0.0, 1.695419800716316E9, 0.0, 2023-09-22 16:56:40.716
82.0, 21610.359443468984, 33270.52691823565, -52559.56829304317, -55671.0875834331, -37272.78557691402, -20767.318697848164, -187500.02235174447, -37428.04079390059, -9689.078889975417, 17492.07287932311, -50668.834229568754, -46953.25904527415, -21655.0629323796, -52938.76563772746, -52990.241705208035, -42672.38589196037, -0.002, 0.992, 0.20400000000000001, 192.0, 0.0, 0.0, 0.0, 0.0, 0.0, 0.0, 0.0, 0.0, 0.0, 1.695419800716319E9, 0.0, 2023-09-22 16:56:40.716
84.0, 21670.41858082039, 33329.04378521965, -52547.11837138157, -55668.338318865106, -37248.22100975764, -20765.01646816927, -187500.02235174447, -37423.324575820516, -9688.855372530863, 17511.451841765862, -50674.1092412602, -46955.98595809769, -21648.62562997647, -52947.1475418982, -52990.35346393031, -42681.39364497586, -0.002, 0.992, 0.20400000000000001, 192.0, 0.0, 0.0, 0.0, 0.0, 0.0, 0.0, 0.0, 0.0, 0.0, 1.695419800716322E9, 0.0, 2023-09-22 16:56:40.716
86.0, 21623.74813839771, 33284.04972363111, -52534.62374623105, -55642.05266738566, -37251.66317840376, -20738.70846494537, -187500.02235174447, -37400.7269621762, -9661.563892550934, 17517.84444068008, -50642.906206000596, -46925.22995772719, -21621.244743018717, -52907.92023037914, -52962.92787348365, -42648.17895271527, -0.002, 0.992, 0.20400000000000001, 192.0, 0.0, 0.0, 0.0, 0.0, 0.0, 0.0, 0.0, 0.0, 0.0, 1.695419800716326E9, 0.0, 2023-09-22 16:56:40.716
88.0, 21668.33986858605, 33329.155543941924, -52547.9006824375, -55667.93598746491, -37249.249190002585, -20765.575261780654, -187500.02235174447, -37418.96598565173, -9689.950608009172, 17521.241905837287, -50676.56793315029, -46953.19199004078, -21649.43029277686, -52936.53046328193, -52987.47008889557, -42676.74448212916, -0.004, 0.996, 0.20400000000000001, 192.0, 127.5, 112.0, 15.5, 16.0, 3.0, 48.0, 0.0, 0.0, 0.0, 1.695419800716329E9, 0.0, 2023-09-22 16:56:40.716
90.0, 21626.05036807661, 33287.558947510595, -52532.76855144126, -55641.20330109636, -37253.67483540474, -20741.323619046645, -187500.02235174447, -37398.33532551948, -9666.861255986842, 17521.063091881646, -50651.37751714916, -46930.147341507356, -21623.278751764152, -52910.20010831358, -52967.040594463426, -42651.08467949447, -0.004, 0.996, 0.20400000000000001, 192.0, 0.0, 0.0, 0.0, 0.0, 0.0, 0.0, 0.0, 0.0, 0.0, 1.695419800776579E9, 0.0, 2023-09-22 16:56:40.776
92.0, 21664.316554584093, 33324.8640090065, -52539.54113001122, -55663.77856299622, -37241.18021025422, -20763.653011757495, -187500.02235174447, -37413.48980826018, -9681.032261971506, 17526.51691752874, -50667.3590144347, -46941.50202769066, -21636.779205415154, -52922.11358810826, -52971.06390846538, -42661.72410985519, -0.004, 0.996, 0.20400000000000001, 192.0, 0.0, 0.0, 0.0, 0.0, 0.0, 0.0, 0.0, 0.0, 0.0, 1.695419800776593E9, 0.0, 2023-09-22 16:56:40.776
94.0, 21629.8054611451, 33289.97293591177, -52533.5508624972, -55634.54248124868, -37254.7924226275, -20735.57922072163, -187500.02235174447, -37395.295488273565, -9678.998253226073, 17514.648141222973, -50665.459116156, -46939.24450150067, -21640.534298483646, -52919.02904737342, -52973.41084163319, -42662.68523486677, -0.004, 0.996, 0.20400000000000001, 192.0, 0.0, 0.0, 0.0, 0.0, 0.0, 0.0, 0.0, 0.0, 0.0, 1.695419800776597E9, 0.0, 2023-09-22 16:56:40.776
96.0, 21655.934650413354, 33317.21971240279, -52541.86571143457, -55659.17410363843, -37234.74290785109, -20757.61804075456, -187500.02235174447, -37407.16426457933, -9667.397697853768, 17529.9367344304, -50657.79246780783, -46924.358239693436, -21620.976522085253, -52911.1388815807, -52961.8996932387, -42657.499630153136, -0.004, 0.996, 0.20400000000000001, 192.0, 0.0, 0.0, 0.0, 0.0, 0.0, 0.0, 0.0, 0.0, 0.0, 1.6954198007766E9, 0.0, 2023-09-22 16:56:40.776
98.0, 21628.12908031095, 33292.364572568484, -52549.197083615916, -55643.706696475354, -37254.72536739414, -20738.194374822902, -187500.02235174447, -37396.97186910771, -9689.168296953238, 17513.821126678125, -50673.63985462664, -46934.64004214288, -21639.550821727615, -52927.07567537733, -52977.07652772385, -42673.83875534997, -0.006, 0.994, 0.20600000000000002, 192.0, 127.5, 104.0, 15.5, 8.0, 3.0, 56.0, 0.0, 0.0, 0.0, 1.695419800776603E9, 0.0, 2023-09-22 16:56:40.776
100.0, 21645.56344098609, 33307.85433147602, -52561.37878434406, -55672.71926077834, -37235.63697762931, -20763.16127337948, -187500.02235174447, -37410.181750080796, -9669.878741488308, 17525.980475661814, -50655.8031625513, -46913.11531223242, -21626.18447854334, -52917.01739037244, -52958.7480972705, -42662.461717422215, -0.006, 0.994, 0.20600000000000002, 192.0, 0.0, 0.0, 0.0, 0.0, 0.0, 0.0, 0.0, 0.0, 0.0, 1.695419800776606E9, 0.0, 2023-09-22 16:56:40.776
102.0, 21641.42836826186, 33300.79118022814, -52554.58385402964, -55640.15276910696, -37242.051928287976, -20722.391691492998, -187500.02235174447, -37384.186671279276, -9679.355881137357, 17519.364359303043, -50662.37457542117, -46917.630364612385, -21638.299124038116, -52927.947393411094, -52968.359347386286, -42676.74448212916, -0.006, 0.994, 0.20600000000000002, 192.0, 0.0, 0.0, 0.0, 0.0, 0.0, 0.0, 0.0, 0.0, 0.0, 1.69541980077661E9, 0.0, 2023-09-22 16:56:40.776
104.0, 21651.5090050112, 33306.49087506424, -52559.88121746555, -55663.6891560184, -37219.387259410294, -20738.820223667648, -187500.02235174447, -37387.606488180936, -9649.67276450071, 17539.078597912623, -50629.316345371764, -46883.9686374627, -21607.14079226742, -52897.549020951876, -52937.603347015785, -42649.52005738259, -0.006, 0.994, 0.20600000000000002, 192.0, 0.0, 0.0, 0.0, 0.0, 0.0, 0.0, 0.0, 0.0, 0.0, 1.695419800776613E9, 0.0, 2023-09-22 16:56:40.776
106.0, 21645.161109585897, 33299.718296494284, -52579.01431071929, -55665.70081301938, -37249.807983613966, -20739.311962045667, -187500.02235174447, -37401.95630812125, -9678.685328803698, 17526.22634485082, -50656.04903174032, -46912.243594198655, -21643.730597940757, -52935.03289640342, -52968.001719475, -42687.428615978795, -0.006, 0.994, 0.20600000000000002, 192.0, 0.0, 0.0, 0.0, 0.0, 0.0, 0.0, 0.0, 0.0, 0.0, 1.69541980083599E9, 0.0, 2023-09-22 16:56:40.835
108.0, 21644.311743296596, 33292.90101443542, -52568.039604191734, -55665.454943830366, -37221.018936755536, -20739.624886468042, -187500.02235174447, -37395.8766336294, -9656.132418648294, 17527.07571114012, -50627.68466802653, -46887.23199215317, -21628.196135544316, -52913.821090915335, -52948.66746052116, -42670.75421461513, -0.004, 0.99, 0.21, 192.0, 127.5, 112.0, 15.0, 120.0, 3.0, 72.0, 0.0, 0.0, 0.0, 1.695419800836002E9, 0.0, 2023-09-22 16:56:40.836
110.0, 21655.554670757614, 33303.96512794079, -52587.93265675696, -55668.49478107629, -37256.75937613957, -20743.759959192274, -187500.02235174447, -37410.29350880307, -9679.44528811518, 17531.881336198014, -50648.04710722531, -46906.78976855156, -21642.009513617697, -52940.79964647289, -52973.07556546636, -42696.48107248319, -0.004, 0.99, 0.21, 192.0, 0.0, 0.0, 0.0, 0.0, 0.0, 0.0, 0.0, 0.0, 0.0, 1.695419800836006E9, 0.0, 2023-09-22 16:56:40.836
112.0, 21641.65188570641, 33285.50258702071, -52573.89576123903, -55664.5385223077, -37230.160800237754, -20741.681246957927, -187500.02235174447, -37398.6258981974, -9656.758267493042, 17527.880373940512, -50614.13951088661, -46879.20771589372, -21615.65680690489, -52911.89884089218, -52950.70146926659, -42667.13323201337, -0.004, 0.99, 0.21, 192.0, 0.0, 0.0, 0.0, 0.0, 0.0, 0.0, 0.0, 0.0, 0.0, 1.695419800836009E9, 0.0, 2023-09-22 16:56:40.836
114.0, 21660.852034193522, 33306.289709364144, -52593.922924270984, -55674.0380137012, -37261.56500119746, -20749.705523217384, -187500.02235174447, -37415.143837349875, -9689.369462653334, 17528.57327801863, -50646.951871747005, -46911.93066977629, -21649.407941032405, -52946.968727942556, -52981.74804231501, -42701.7784359191, -0.004, 0.99, 0.21, 192.0, 0.0, 0.0, 0.0, 0.0, 0.0, 0.0, 0.0, 0.0, 0.0, 1.695419800836012E9, 0.0, 2023-09-22 16:56:40.836
116.0, 21634.47697573626, 33272.71738919227, -52563.859827978595, -55651.23923435679, -37226.83039031391, -20726.593819450598, -187500.02235174447, -37389.841662626466, -9661.720354762121, 17517.46446102434, -50617.73814174392, -46887.67902704228, -21620.641245918425, -52915.56452698285, -52958.85985599278, -42673.525830927596, -0.004, 0.99, 0.21, 192.0, 0.0, 0.0, 0.0, 0.0, 0.0, 0.0, 0.0, 0.0, 0.0, 1.695419800836016E9, 0.0, 2023-09-22 16:56:40.836
118.0, 21665.38943831795, 33305.97678494177, -52576.01917696228, -55658.30238560467, -37239.01209104205, -20734.841613154604, -187500.02235174447, -37399.85524414245, -9669.655224043754, 17544.890051471004, -50630.2998221278, -46898.02788472508, -21626.832679132545, -52925.06401837635, -52959.53040832644, -42678.95730483023, -0.002, 0.992, 0.20800000000000002, 192.0, 127.5, 120.0, 15.5, 0.0, 3.0, 64.0, 0.0, 0.0, 0.0, 1.695419800836019E9, 0.0, 2023-09-22 16:56:40.836
120.0, 21628.553763455602, 33264.4025402549, -52559.34477559862, -55641.04683888517, -37219.72253557712, -20718.301322257677, -187500.02235174447, -37379.716322388216, -9655.99830818156, 17523.767652960738, -50618.274583610844, -46886.807309008516, -21618.137850539428, -52909.283686790906, -52948.04161167641, -42662.10408951093, -0.002, 0.992, 0.20800000000000002, 192.0, 0.0, 0.0, 0.0, 0.0, 0.0, 0.0, 0.0, 0.0, 0.0, 1.695419800895736E9, 0.0, 2023-09-22 16:56:40.895
122.0, 21669.323345342083, 33308.055497176116, -52574.275740894765, -55656.06721115914, -37233.17828573922, -20739.423720767943, -187500.02235174447, -37398.96117436423, -9671.711584533643, 17544.197147392886, -50637.20651116449, -46899.7713207926, -21633.784071658145, -52925.935736410116, -52957.11641992527, -42675.13515652838, -0.002, 0.992, 0.20800000000000002, 192.0, 0.0, 0.0, 0.0, 0.0, 0.0, 0.0, 0.0, 0.0, 0.0, 1.695419800895753E9, 0.0, 2023-09-22 16:56:40.895
124.0, 21621.42355697436, 33260.91566811987, -52555.23205461884, -55636.017696382725, -37229.534951393005, -20725.900915372484, -187500.02235174447, -37385.59483117996, -9662.122686162316, 17519.90080116997, -50621.2473656234, -46886.76260551961, -21617.42259471686, -52911.943544381094, -52950.455600077585, -42661.210019732716, -0.002, 0.992, 0.20800000000000002, 192.0, 0.0, 0.0, 0.0, 0.0, 0.0, 0.0, 0.0, 0.0, 0.0, 1.695419800895757E9, 0.0, 2023-09-22 16:56:40.895
126.0, 21661.343772571538, 33301.43938081734, -52586.63625557855, -55675.02149045724, -37250.299721991985, -20763.094218146114, -187500.02235174447, -37419.63653798539, -9681.322834649425, 17532.28366759821, -50644.850807768205, -46905.113387717414, -21624.955132598297, -52936.53046328193, -52966.66061480768, -42682.19830777625, -0.002, 0.992, 0.20800000000000002, 192.0, 0.0, 0.0, 0.0, 0.0, 0.0, 0.0, 0.0, 0.0, 0.0, 1.69541980089576E9, 0.0, 2023-09-22 16:56:40.895
128.0, 21609.286559735127, 33248.86807785846, -52573.091098438636, -55656.581301281614, -37246.83520160141, -20738.619057967553, -187500.02235174447, -37399.274098786605, -9688.25187543057, 17493.41398399043, -50649.56702584828, -46914.277602944094, -21638.209717060294, -52938.38565807172, -52975.8024782899, -42683.04767406555, -0.006, 0.988, 0.21, 192.0, 127.5, 104.0, 15.0, 112.0, 3.0, 72.0, 0.0, 0.0, 0.0, 1.695419800895771E9, 0.0, 2023-09-22 16:56:40.895
130.0, 21662.103731883017, 33301.84171221754, -52581.67416830947, -55673.859199745566, -37243.05775678847, -20752.92417441895, -187500.02235174447, -37410.49467450317, -9687.178991696715, 17522.627713993515, -50652.69627007202, -46914.1211407329, -21639.215545560783, -52940.50907379497, -52972.44971662161, -42686.1769182893, -0.006, 0.988, 0.21, 192.0, 0.0, 0.0, 0.0, 0.0, 0.0, 0.0, 0.0, 0.0, 0.0, 1.695419800895775E9, 0.0, 2023-09-22 16:56:40.895
132.0, 21608.772469612657, 33248.48809820272, -52576.64502580703, -55660.04582167218, -37249.49505919159, -20739.066092856658, -187500.02235174447, -37400.57049996501, -9674.594959568378, 17504.723966684815, -50640.15694143259, -46903.437006883265, -21638.52264148267, -52926.15925385467, -52968.96284448658, -42675.91746758431, -0.006, 0.988, 0.21, 192.0, 0.0, 0.0, 0.0, 0.0, 0.0, 0.0, 0.0, 0.0, 0.0, 1.695419800895778E9, 0.0, 2023-09-22 16:56:40.895
134.0, 21649.09501661003, 33292.096351635024, -52600.7178545854, -55697.64145584601, -37254.23362901612, -20776.72878226385, -187500.02235174447, -37431.2370933577, -9697.371387168336, 17513.575257489116, -50664.07330799977, -46923.12889374839, -21653.341848056538, -52950.455600077585, -52985.480783639054, -42701.15258707435, -0.006, 0.988, 0.21, 192.0, 0.0, 0.0, 0.0, 0.0, 0.0, 0.0, 0.0, 0.0, 0.0, 1.695419800895781E9, 0.0, 2023-09-22 16:56:40.895
136.0, 21602.491629420714, 33241.693167888305, -52591.30777016971, -55673.05453694517, -37266.57179195545, -20753.30415407469, -187500.02235174447, -37416.194369339275, -9702.020550015039, 17484.69680365286, -50667.44842141252, -46929.655603129344, -21664.785941217655, -52952.824884989845, -52994.60029537682, -42703.76774117562, -0.006, 0.988, 0.21, 192.0, 0.0, 0.0, 0.0, 0.0, 0.0, 0.0, 0.0, 0.0, 0.0, 1.695419800956089E9, 0.0, 2023-09-22 16:56:40.956
138.0, 21657.499272525227, 33296.611404015, -52576.19799091792, -55677.65899630297, -37237.87215207484, -20762.021334412257, -187500.02235174447, -37414.92031990532, -9681.926331749717, 17518.917324413935, -50651.10929621569, -46911.52833837609, -21636.488632737237, -52939.57030052785, -52976.33892015683, -42691.2284125362, -0.008, 0.988, 0.212, 192.0, 127.5, 96.0, 15.0, 112.0, 3.0, 80.0, 0.0, 0.0, 0.0, 1.695419800956105E9, 0.0, 2023-09-22 16:56:40.956
140.0, 21617.132022038943, 33255.08186281704, -52574.23103740586, -55658.97293793833, -37257.921666851245, -20742.709427202873, -187500.02235174447, -37403.677392444304, -9680.942854993684, 17500.11950732702, -50647.73418280294, -46912.891794787865, -21630.118385567475, -52940.6431842617, -52978.06000447989, -42691.74250265867, -0.008, 0.988, 0.212, 192.0, 0.0, 0.0, 0.0, 0.0, 0.0, 0.0, 0.0, 0.0, 0.0, 1.695419800956108E9, 0.0, 2023-09-22 16:56:40.956
142.0, 21650.681990466357, 33285.54729050962, -52595.040511493746, -55695.652150589485, -37255.86530636136, -20776.1029334191, -187500.02235174447, -37427.90668343385, -9679.512343348544, 17516.74920520177, -50649.54467410382, -46914.769341322106, -21633.8064234026, -52944.040649418916, -52975.08722246734, -42691.966020103224, -0.008, 0.988, 0.212, 192.0, 0.0, 0.0, 0.0, 0.0, 0.0, 0.0, 0.0, 0.0, 0.0, 1.695419800956112E9, 0.0, 2023-09-22 16:56:40.956
144.0, 21623.546972697615, 33258.59108669652, -52577.3602816296, -55653.47440880232, -37257.47463196214, -20730.72889217483, -187500.02235174447, -37395.74252316267, -9687.648378330276, 17498.353719515053, -50657.367784663176, -46922.83832107048, -21650.48082476626, -52945.2476436195, -52983.62558884926, -42694.24589803766, -0.008, 0.988, 0.212, 192.0, 0.0, 0.0, 0.0, 0.0, 0.0, 0.0, 0.0, 0.0, 0.0, 1.695419800956115E9, 0.0, 2023-09-22 16:56:40.956
146.0, 21656.985182402754, 33288.87770043346, -52574.342796128134, -55666.55017930868, -37230.9878147826, -20745.592802237607, -187500.02235174447, -37399.609374953434, -9670.035203699494, 17527.679208240417, -50635.68659254153, -46901.40299813783, -21629.09020532253, -52924.25935557597, -52960.96091997158, -42673.48112743868, -0.008, 0.988, 0.212, 192.0, 0.0, 0.0, 0.0, 0.0, 0.0, 0.0, 0.0, 0.0, 0.0, 1.695419800956118E9, 0.0, 2023-09-22 16:56:40.956
148.0, 21635.885135636945, 33269.0517031016, -52570.58770305964, -55646.25479534326, -37250.34442548089, -20731.019464852747, -187500.02235174447, -37394.937860362275, -9672.382136867302, 17524.147632616477, -50639.68755479903, -46906.99093425166, -21639.86374614999, -52930.0931608788, -52967.21940841906, -42680.074892052995, -0.008, 0.99, 0.20800000000000002, 192.0, 127.5, 96.0, 15.0, 120.0, 3.0, 64.0, 0.0, 0.0, 0.0, 1.695419800956121E9, 0.0, 2023-09-22 16:56:40.956
150.0, 21649.787920688144, 33282.21688058578, -52578.90255199702, -55671.98165321132, -37241.9401695657, -20760.277898344746, -187500.02235174447, -37414.652098971856, -9666.123648419816, 17528.70738848536, -50635.284261141336, -46902.09590221595, -21633.739368169234, -52924.28170732042, -52959.1504286707, -42672.676464638294, -0.008, 0.99, 0.20800000000000002, 192.0, 0.0, 0.0, 0.0, 0.0, 0.0, 0.0, 0.0, 0.0, 0.0, 1.695419801016298E9, 0.0, 2023-09-22 16:56:41.016
152.0, 21635.438100747837, 33272.49387174772, -52587.82089803468, -55659.84465597208, -37274.417254259264, -20750.219613339857, -187500.02235174447, -37416.41788678383, -9696.276151690025, 17510.267199309732, -50666.35318593421, -46932.89660607536, -21655.0629323796, -52953.048402434404, -52992.901562798215, -42705.22060456522, -0.008, 0.99, 0.20800000000000002, 192.0, 0.0, 0.0, 0.0, 0.0, 0.0, 0.0, 0.0, 0.0, 0.0, 1.695419801016314E9, 0.0, 2023-09-22 16:56:41.016
154.0, 21650.033789877154, 33283.17800559736, -52559.83651397664, -55651.17217912343, -37231.501904905075, -20739.58018297913, -187500.02235174447, -37394.669639428816, -9658.032316926994, 17525.578144261617, -50628.3999238491, -46896.53031784658, -21615.254475504695, -52912.99407637049, -52959.91038798218, -42666.01564479061, -0.008, 0.99, 0.20800000000000002, 192.0, 0.0, 0.0, 0.0, 0.0, 0.0, 0.0, 0.0, 0.0, 0.0, 1.695419801016317E9, 0.0, 2023-09-22 16:56:41.016
156.0, 21649.85497592151, 33288.855348689, -52579.28253165276, -55655.57547278112, -37268.65050418979, -20745.034008626226, -187500.02235174447, -37408.66183145784, -9689.034186486506, 17524.393501805487, -50657.88187478565, -46924.559405393535, -21652.067798622586, -52941.71606799556, -52986.62072260627, -42691.2284125362, -0.008, 0.99, 0.20800000000000002, 192.0, 0.0, 0.0, 0.0, 0.0, 0.0, 0.0, 0.0, 0.0, 0.0, 1.695419801016321E9, 0.0, 2023-09-22 16:56:41.016
158.0, 21646.546917742126, 33282.01571488568, -52560.19414188792, -55652.647394257474, -37235.23464622911, -20738.395540522997, -187500.02235174447, -37393.3732382504, -9663.597901296365, 17524.773481461227, -50630.18806340553, -46897.782015536075, -21630.61012394549, -52911.720026936535, -52961.51971358296, -42663.53460115607, -0.006, 0.99, 0.20600000000000002, 192.0, 127.5, 104.0, 15.0, 120.0, 3.0, 56.0, 0.0, 0.0, 0.0, 1.695419801016324E9, 0.0, 2023-09-22 16:56:41.016
160.0, 21655.129987612963, 33293.236290602246, -52581.160078187, -55664.7396880078, -37265.63301868833, -20746.71038946037, -187500.02235174447, -37408.95240413576, -9683.222732928125, 17533.64712400998, -50655.51258987339, -46921.00547802514, -21646.725731697767, -52933.84825394729, -52980.518696369974, -42685.70753165574, -0.006, 0.99, 0.20600000000000002, 192.0, 0.0, 0.0, 0.0, 0.0, 0.0, 0.0, 0.0, 0.0, 0.0, 1.695419801016327E9, 0.0, 2023-09-22 16:56:41.016
162.0, 21624.03871107563, 33262.14501406491, -52581.048319464724, -55675.13324917952, -37255.03829181651, -20757.886261688025, -187500.02235174447, -37413.1321803489, -9686.284921918503, 17509.41783302043, -50657.77011606337, -46923.53122514859, -21649.76556894369, -52931.18839635711, -52982.97738826006, -42686.53454620058, -0.006, 0.99, 0.20600000000000002, 192.0, 0.0, 0.0, 0.0, 0.0, 0.0, 0.0, 0.0, 0.0, 0.0, 1.69541980101633E9, 0.0, 2023-09-22 16:56:41.016
164.0, 21657.34281031404, 33300.701773250315, -52576.13093568456, -55661.63279552851, -37259.55334419648, -20746.464520271365, -187500.02235174447, -37406.13608433439, -9691.425823143223, 17528.90855418546, -50668.968340035484, -46930.7284868632, -21656.24757483573, -52941.67136450665, -52989.52644938546, -42697.95628761724, -0.006, 0.99, 0.20600000000000002, 192.0, 0.0, 0.0, 0.0, 0.0, 0.0, 0.0, 0.0, 0.0, 0.0, 1.695419801016334E9, 0.0, 2023-09-22 16:56:41.016
166.0, 21628.88903962243, 33268.09057809002, -52563.2563308783, -55656.55894953715, -37241.917817821246, -20743.53644174772, -187500.02235174447, -37395.11667431792, -9664.782543752497, 17522.784176204703, -50642.83915076723, -46905.04633248405, -21629.47018497827, -52915.631582216214, -52967.018242718965, -42672.5200024271, -0.006, 0.99, 0.20600000000000002, 192.0, 0.0, 0.0, 0.0, 0.0, 0.0, 0.0, 0.0, 0.0, 0.0, 1.69541980107662E9, 0.0, 2023-09-22 16:56:41.076
168.0, 21660.38264755996, 33302.042877917636, -52585.42926137797, -55677.3907753695, -37271.66798969126, -20762.53542453473, -187500.02235174447, -37416.686107717294, -9698.4889743911, 17530.38376931951, -50676.63498838365, -46933.6789171313, -21658.616859747992, -52947.5498732984, -52993.54976338742, -42703.54422373107, -0.006, 0.996, 0.20600000000000002, 192.0, 127.5, 104.0, 15.5, 16.0, 3.0, 56.0, 0.0, 0.0, 0.0, 1.695419801076645E9, 0.0, 2023-09-22 16:56:41.076
170.0, 21624.306932009094, 33264.04491234361, -52560.48471456584, -55651.328641334614, -37243.21421899965, -20735.91449688846, -187500.02235174447, -37386.488900958175, -9676.271340402525, 17517.576219746617, -50651.17635144906, -46910.05312324204, -21629.58194370055, -52920.37015204074, -52973.164972444174, -42677.32562748499, -0.006, 0.996, 0.20600000000000002, 192.0, 0.0, 0.0, 0.0, 0.0, 0.0, 0.0, 0.0, 0.0, 0.0, 1.695419801076649E9, 0.0, 2023-09-22 16:56:41.076
172.0, 21668.965717430798, 33311.475314077776, -52571.88410423805, -55665.030260685715, -37249.36094872486, -20749.01261913927, -187500.02235174447, -37399.51996797562, -9686.73195680761, 17542.766635747746, -50660.0052905089, -46915.19402446676, -21642.210679317795, -52933.401219058185, -52976.741251557025, -42685.30520025554, -0.006, 0.996, 0.20600000000000002, 192.0, 0.0, 0.0, 0.0, 0.0, 0.0, 0.0, 0.0, 0.0, 0.0, 1.695419801076652E9, 0.0, 2023-09-22 16:56:41.076
174.0, 21617.08731855003, 33255.05951107258, -52571.16884841548, -55661.81160948415, -37254.30068424949, -20746.82214818265, -187500.02235174447, -37395.563709207025, -9676.405450869257, 17518.939676158392, -50647.91299675858, -46910.298992431046, -21634.09699608052, -52925.55575675437, -52972.18149568814, -42674.53165942808, -0.006, 0.996, 0.20600000000000002, 192.0, 0.0, 0.0, 0.0, 0.0, 0.0, 0.0, 0.0, 0.0, 0.0, 1.695419801076655E9, 0.0, 2023-09-22 16:56:41.076
176.0, 21673.77134248869, 33310.111857666, -52570.8112205042, -55663.30917636266, -37249.405652213776, -20750.309020317676, -187500.02235174447, -37401.55397672105, -9693.459831888656, 17535.70348449987, -50663.62627311066, -46923.933556548785, -21652.9618684008, -52943.05717266288, -52983.51383012698, -42690.6249154359, -0.006, 0.996, 0.20600000000000002, 192.0, 0.0, 0.0, 0.0, 0.0, 0.0, 0.0, 0.0, 0.0, 0.0, 1.695419801076658E9, 0.0, 2023-09-22 16:56:41.076
178.0, 21625.6033331875, 33261.18388905333, -52552.97452842886, -55636.75530394975, -37242.5883701549, -20724.693921171896, -187500.02235174447, -37379.40339796584, -9661.094505917372, 17533.60242052107, -50626.16474940357, -46890.294181143545, -21627.65969367739, -52906.623829200726, -52954.07658267934, -42653.27515045108, -0.006, 1.0, 0.20800000000000002, 192.0, 127.5, 104.0, 15.5, 32.0, 3.0, 64.0, 0.0, 0.0, 0.0, 1.695419801076662E9, 0.0, 2023-09-22 16:56:41.076
180.0, 21668.5633860306, 33311.85529373351, -52569.42541234796, -55657.900054204474, -37247.66221614626, -20746.15159584899, -187500.02235174447, -37396.50248247415, -9689.369462653334, 17540.263240368753, -50658.23950269693, -46918.882062301884, -21643.797653174122, -52936.396352815194, -52975.847181778816, -42683.42765372129, -0.006, 1.0, 0.20800000000000002, 192.0, 0.0, 0.0, 0.0, 0.0, 0.0, 0.0, 0.0, 0.0, 0.0, 1.695419801076666E9, 0.0, 2023-09-22 16:56:41.076
182.0, 21626.02801633215, 33265.050740844104, -52548.124199882055, -55627.993420123275, -37239.1909049977, -20713.339234988598, -187500.02235174447, -37367.10993851542, -9662.346203606869, 17533.42360656543, -50629.09282792721, -46896.731483546675, -21616.305007494095, -52908.05434084587, -52952.064925678365, -42657.18670573076, -0.006, 1.0, 0.20800000000000002, 192.0, 0.0, 0.0, 0.0, 0.0, 0.0, 0.0, 0.0, 0.0, 0.0, 1.695419801137273E9, 0.0, 2023-09-22 16:56:41.137
184.0, 21670.552691287125, 33311.7658867557, -52564.418621589975, -55663.30917636266, -37239.99556779809, -20742.284744058223, -187500.02235174447, -37389.573441693006, -9664.894302474773, 17552.400237607984, -50637.787656520326, -46905.605126095434, -21621.55766744109, -52914.51399499345, -52953.62954779024, -42662.90875231132, -0.006, 1.0, 0.20800000000000002, 192.0, 0.0, 0.0, 0.0, 0.0, 0.0, 0.0, 0.0, 0.0, 0.0, 1.695419801137284E9, 0.0, 2023-09-22 16:56:41.137
186.0, 21619.27778950665, 33261.09448207551, -52571.16884841548, -55656.17896988142, -37261.72146340865, -20734.3945782655, -187500.02235174447, -37388.54526144806, -9671.689232789187, 17522.426548293417, -50645.02962172385, -46917.76447507912, -21633.739368169234, -52924.05818987587, -52966.79472527441, -42673.01174080512, -0.006, 1.0, 0.20800000000000002, 192.0, 0.0, 0.0, 0.0, 0.0, 0.0, 0.0, 0.0, 0.0, 0.0, 1.695419801137288E9, 0.0, 2023-09-22 16:56:41.137
188.0, 21649.34088579904, 33295.516168536684, -52596.35926441661, -55699.74251982481, -37268.0470070895, -20778.651032287005, -187500.02235174447, -37420.396497296875, -9696.253799945569, 17521.308961070652, -50667.60488362371, -46936.53994042158, -21651.017266633185, -52948.220425632055, -52981.32335917036, -42693.46358698173, -0.002, 1.002, 0.21, 192.0, 127.5, 120.0, 15.5, 40.0, 3.0, 72.0, 0.0, 0.0, 0.0, 1.695419801137291E9, 0.0, 2023-09-22 16:56:41.137
190.0, 21610.22533300225, 33259.21693554127, -52589.43022363546, -55668.15950490946, -37280.40752177328, -20750.331372062134, -187500.02235174447, -37404.34794477796, -9711.363579197357, 17493.57044620162, -50678.93721806255, -46949.61571092793, -21667.266984852195, -52960.89386473822, -52998.64596112323, -42706.02526736561, -0.002, 1.002, 0.21, 192.0, 0.0, 0.0, 0.0, 0.0, 0.0, 0.0, 0.0, 0.0, 0.0, 1.695419801137294E9, 0.0, 2023-09-22 16:56:41.137
192.0, 21657.320458569582, 33305.86502621949, -52561.98228144435, -55657.274205359725, -37236.97808229662, -20740.854232413083, -187500.02235174447, -37387.78530213658, -9683.49095386159, 17528.685036740906, -50652.58451134974, -46921.25134721415, -21651.12902535546, -52934.47410279204, -52969.56634158687, -42677.03505480708, -0.002, 1.002, 0.21, 192.0, 0.0, 0.0, 0.0, 0.0, 0.0, 0.0, 0.0, 0.0, 0.0, 1.695419801137298E9, 0.0, 2023-09-22 16:56:41.137
194.0, 21624.99983608721, 33274.572583982066, -52567.95019721392, -55650.278109345214, -37268.65050418979, -20735.57922072163, -187500.02235174447, -37389.59579343746, -9672.717413034132, 17536.619906022537, -50641.83332226674, -46911.26011744262, -21629.045501833618, -52922.784140441916, -52963.5537223284, -42666.954418057736, -0.002, 1.002, 0.21, 192.0, 0.0, 0.0, 0.0, 0.0, 0.0, 0.0, 0.0, 0.0, 0.0, 1.695419801137301E9, 0.0, 2023-09-22 16:56:41.137
196.0, 21643.440025262837, 33291.09052313453, -52574.23103740586, -55677.56958932515, -37259.32982675193, -20764.77059898026, -187500.02235174447, -37405.51023548964, -9686.262570174047, 17524.57231576113, -50653.97031950597, -46923.68768735978, -21644.669371207878, -52934.98819291451, -52972.829696277346, -42677.996179818656, -0.002, 1.002, 0.21, 192.0, 0.0, 0.0, 0.0, 0.0, 0.0, 0.0, 0.0, 0.0, 0.0, 1.69541980119754E9, 0.0, 2023-09-22 16:56:41.197
198.0, 21629.358426255993, 33277.97004913927, -52563.27868262275, -55647.417086054935, -37272.22678330264, -20733.96989512085, -187500.02235174447, -37385.19249977976, -9699.360692424858, 17517.66562672444, -50665.682633600554, -46936.98697531068, -21658.840377192544, -52944.867663963756, -52985.547838872415, -42687.65213342335, -0.002, 0.996, 0.21, 192.0, 127.5, 120.0, 15.5, 16.0, 3.0, 72.0, 0.0, 0.0, 0.0, 1.695419801197555E9, 0.0, 2023-09-22 16:56:41.197
200.0, 21647.9103741539, 33291.336392323545, -52552.7063074954, -55656.69306000389, -37239.01209104205, -20743.961124892372, -187500.02235174447, -37380.2751159996, -9662.39090709578, 17542.364304347553, -50632.17736866204, -46901.60416383793, -21620.90946685189, -52907.115567578745, -52947.7510389985, -42650.01179576061, -0.002, 0.996, 0.21, 192.0, 0.0, 0.0, 0.0, 0.0, 0.0, 0.0, 0.0, 0.0, 0.0, 1.695419801197559E9, 0.0, 2023-09-22 16:56:41.197
202.0, 21639.640228705433, 33285.323773065065, -52559.50123780981, -55642.47735053031, -37264.560134954474, -20730.86300264156, -187500.02235174447, -37379.291639243565, -9695.002102256072, 17531.41194956445, -50669.01304352439, -46934.058896787035, -21658.035714392154, -52943.90653895218, -52980.47399288106, -42685.43931072227, -0.002, 0.996, 0.21, 192.0, 0.0, 0.0, 0.0, 0.0, 0.0, 0.0, 0.0, 0.0, 0.0, 1.695419801197562E9, 0.0, 2023-09-22 16:56:41.197
204.0, 21636.9580193708, 33276.53953749413, -52556.05906916369, -55663.17506589593, -37243.8400678444, -20747.984438894324, -187500.02235174447, -37383.73963639017, -9655.14894189226, 17552.13201667452, -50627.7517232599, -46894.920992245796, -21621.065929063076, -52899.82889888631, -52939.63735576122, -42642.38985090135, -0.002, 0.996, 0.21, 192.0, 0.0, 0.0, 0.0, 0.0, 0.0, 0.0, 0.0, 0.0, 0.0, 1.695419801197565E9, 0.0, 2023-09-22 16:56:41.197
206.0, 21635.08047283655, 33279.53467125114, -52577.22617116287, -55666.840751986594, -37284.0508561195, -20751.806587196184, -187500.02235174447, -37399.564671464526, -9716.571535655445, 17520.41489129244, -50691.11891879069, -46958.310539521044, -21674.441894822347, -52962.21261766108, -52997.41661517818, -42701.80078766356, -0.002, 0.996, 0.21, 192.0, 0.0, 0.0, 0.0, 0.0, 0.0, 0.0, 0.0, 0.0, 0.0, 1.695419801197568E9, 0.0, 2023-09-22 16:56:41.197
208.0, 21625.335112254037, 33269.588144968526, -52548.32536558215, -55649.5852052671, -37240.6884718762, -20732.494679986798, -187500.02235174447, -37371.82615659549, -9679.646453815276, 17530.026141408223, -50648.98588049244, -46919.68672510228, -21628.397301244415, -52917.397370028186, -52958.61398680377, -42658.617217375904, -0.006, 0.998, 0.20600000000000002, 192.0, 127.5, 104.0, 15.5, 24.0, 3.0, 56.0, 0.0, 0.0, 0.0, 1.695419801197571E9, 0.0, 2023-09-22 16:56:41.197
210.0, 21645.00464737471, 33293.9068429359, -52559.657700020995, -55648.02058315523, -37262.30260876448, -20732.248810797788, -187500.02235174447, -37378.30816248753, -9692.3869481548, 17548.063999183654, -50663.11218298819, -46928.403905439845, -21640.914278139386, -52925.46634977655, -52965.408917118184, -42666.730900613176, -0.006, 0.998, 0.20600000000000002, 192.0, 0.0, 0.0, 0.0, 0.0, 0.0, 0.0, 0.0, 0.0, 0.0, 1.695419801197575E9, 0.0, 2023-09-22 16:56:41.197
212.0, 21618.02609181715, 33265.050740844104, -52549.957042927395, -55646.67947848791, -37244.39886145578, -20729.67836018543, -187500.02235174447, -37367.28875247106, -9675.064346201938, 17536.351685089074, -50646.951871747005, -46913.74116107717, -21627.9055628664, -52905.81916640034, -52953.62954779024, -42650.369423671895, -0.006, 0.998, 0.20600000000000002, 192.0, 0.0, 0.0, 0.0, 0.0, 0.0, 0.0, 0.0, 0.0, 0.0, 1.695419801256958E9, 0.0, 2023-09-22 16:56:41.256
214.0, 21648.603278232014, 33298.176026126865, -52565.603264046105, -55655.955452436865, -37266.66119893327, -20740.988342879813, -187500.02235174447, -37384.9242788463, -9701.461756403656, 17541.626696780528, -50678.60194189572, -46943.513684691636, -21653.56536550109, -52936.93279468212, -52978.17176320217, -42680.16429903082, -0.006, 0.998, 0.20600000000000002, 192.0, 0.0, 0.0, 0.0, 0.0, 0.0, 0.0, 0.0, 0.0, 0.0, 1.695419801256982E9, 0.0, 2023-09-22 16:56:41.256
216.0, 21621.267094763174, 33264.35783676599, -52541.552787012195, -55635.593013238074, -37242.186038754706, -20722.90578161547, -187500.02235174447, -37362.90781055782, -9665.38604085279, 17537.290458356198, -50640.49221759942, -46911.26011744262, -21633.00176060221, -52902.86873613224, -52950.90263496669, -42648.625987604384, -0.006, 0.998, 0.20600000000000002, 192.0, 0.0, 0.0, 0.0, 0.0, 0.0, 0.0, 0.0, 0.0, 0.0, 1.695419801256986E9, 0.0, 2023-09-22 16:56:41.256
218.0, 21660.404999304414, 33306.91555820889, -52557.51193255329, -55654.86021695855, -37255.41827147225, -20743.49173825881, -187500.02235174447, -37384.030209068085, -9687.737785308098, 17558.971650477844, -50660.63113935365, -46930.1249897629, -21641.160147328395, -52927.20978584407, -52965.47597235155, -42672.452947193735, -0.004, 1.002, 0.20800000000000002, 192.0, 127.5, 112.0, 15.5, 40.0, 3.0, 64.0, 0.0, 0.0, 0.0, 1.695419801256989E9, 0.0, 2023-09-22 16:56:41.256
220.0, 21619.07662380655, 33263.217897798764, -52544.63732774703, -55640.778617951706, -37249.47270744714, -20729.208973551868, -187500.02235174447, -37368.89807807184, -9680.115840448838, 17531.61311526455, -50651.19870319351, -46926.12402750541, -21633.113519324485, -52918.649067717684, -52961.854989749794, -42663.57930464498, -0.004, 1.002, 0.20800000000000002, 192.0, 0.0, 0.0, 0.0, 0.0, 0.0, 0.0, 0.0, 0.0, 0.0, 1.695419801256992E9, 0.0, 2023-09-22 16:56:41.256
222.0, 21661.656696993912, 33308.457828576305, -52563.569255300674, -55659.73289724981, -37262.16849829775, -20749.951392406394, -187500.02235174447, -37387.71824690321, -9691.895209776785, 17551.28265038522, -50667.87310455717, -46938.43983870028, -21646.502214253214, -52932.30598357988, -52971.04155672092, -42676.29744724005, -0.004, 1.002, 0.20800000000000002, 192.0, 0.0, 0.0, 0.0, 0.0, 0.0, 0.0, 0.0, 0.0, 0.0, 1.695419801256996E9, 0.0, 2023-09-22 16:56:41.256
224.0, 21614.13688828193, 33259.351046008, -52542.80448470169, -55634.96716439333, -37248.824506857934, -20726.48206072832, -187500.02235174447, -37366.05940652602, -9671.845695000375, 17536.105815900068, -50646.795409535815, -46921.78778908108, -21626.385644243437, -52908.99311411299, -52958.12224842575, -42657.14200224185, -0.004, 1.002, 0.20800000000000002, 192.0, 0.0, 0.0, 0.0, 0.0, 0.0, 0.0, 0.0, 0.0, 0.0, 1.695419801256999E9, 0.0, 2023-09-22 16:56:41.256
226.0, 21665.09886564003, 33311.07298267758, -52556.103772652605, -55654.971975680826, -37252.400785970785, -20745.592802237607, -187500.02235174447, -37383.404360223336, -9683.602712583866, 17559.597499322594, -50661.72637483196, -46934.19300725377, -21643.060045607097, -52924.25935557597, -52963.82194326186, -42672.78822336057, -0.004, 1.002, 0.20800000000000002, 192.0, 0.0, 0.0, 0.0, 0.0, 0.0, 0.0, 0.0, 0.0, 0.0, 1.695419801316687E9, 0.0, 2023-09-22 16:56:41.316
228.0, 21617.109670294485, 33261.09448207551, -52532.63444097453, -55620.3267717751, -37247.12577427933, -20711.729909387817, -187500.02235174447, -37353.16244997531, -9672.516247334033, 17540.151481646477, -50645.83428452424, -46923.374762937405, -21638.030903104653, -52907.09321583429, -52956.51292282497, -42657.924313297786, -0.002, 0.998, 0.20400000000000001, 192.0, 127.5, 120.0, 15.5, 24.0, 3.0, 48.0, 0.0, 0.0, 0.0, 1.6954198013167E9, 0.0, 2023-09-22 16:56:41.316
230.0, 21668.228109863772, 33312.659956533906, -52536.97067939886, -55641.1809493519, -37239.6379398868, -20732.852307898083, -187500.02235174447, -37367.24404898215, -9669.834037999397, 17572.650918084495, -50641.83332226674, -46915.9763355227, -21634.789900158634, -52902.30994252086, -52945.33705059732, -42650.32472018299, -0.002, 0.998, 0.20400000000000001, 192.0, 0.0, 0.0, 0.0, 0.0, 0.0, 0.0, 0.0, 0.0, 0.0, 1.695419801316703E9, 0.0, 2023-09-22 16:56:41.316
232.0, 21613.175763270352, 33257.29468551811, -52535.49546426481, -55625.93705963338, -37255.86530636136, -20716.893162356995, -187500.02235174447, -37357.29752269954, -9671.845695000375, 17542.09608341409, -50643.934386245535, -46921.966603036715, -21626.05036807661, -52905.148614066675, -52950.99204194451, -42651.37525217239, -0.002, 0.998, 0.20400000000000001, 192.0, 0.0, 0.0, 0.0, 0.0, 0.0, 0.0, 0.0, 0.0, 0.0, 1.695419801316707E9, 0.0, 2023-09-22 16:56:41.316
234.0, 21663.780112717166, 33308.033145431655, -52540.14462711151, -55644.24313834228, -37240.59906489838, -20736.696807944394, -187500.02235174447, -37370.68621762827, -9672.605654311856, 17565.52071160325, -50647.3542031472, -46920.156111735836, -21625.983312843244, -52907.51789897894, -52948.086315165325, -42652.470487650695, -0.002, 0.998, 0.20400000000000001, 192.0, 0.0, 0.0, 0.0, 0.0, 0.0, 0.0, 0.0, 0.0, 0.0, 1.69541980131671E9, 0.0, 2023-09-22 16:56:41.316
236.0, 21611.94641732531, 33260.82626114205, -52552.9074731955, -55641.06919062963, -37273.41142575877, -20733.81343290966, -187500.02235174447, -37377.34703747595, -9681.054613715962, 17544.845347982093, -50653.83620903924, -46926.28048971659, -21638.343827527027, -52912.1894135701, -52959.99979496, -42658.32664469798, -0.002, 0.998, 0.20400000000000001, 192.0, 0.0, 0.0, 0.0, 0.0, 0.0, 0.0, 0.0, 0.0, 0.0, 1.695419801316713E9, 0.0, 2023-09-22 16:56:41.316
238.0, 21654.079455623563, 33304.36745934099, -52550.06880164967, -55652.75915297975, -37249.15978302476, -20745.615153982064, -187500.02235174447, -37380.83390961098, -9683.602712583866, 17554.9930399648, -50659.245331197424, -46930.1249897629, -21647.41863577588, -52916.548003738884, -52961.6985275386, -42661.43353717727, -0.004, 1.0, 0.20600000000000002, 192.0, 127.5, 112.0, 15.5, 32.0, 3.0, 56.0, 0.0, 0.0, 0.0, 1.695419801316716E9, 0.0, 2023-09-22 16:56:41.316
240.0, 21619.9036383514, 33268.98464786824, -52545.73256322534, -55631.36853353603, -37264.51543146556, -20725.498583972287, -187500.02235174447, -37369.36746470541, -9690.241180687091, 17549.449807339886, -50657.926578274564, -46930.88494907438, -21649.586754988046, -52916.77152118344, -52965.967710729565, -42663.17697324479, -0.004, 1.0, 0.20600000000000002, 192.0, 0.0, 0.0, 0.0, 0.0, 0.0, 0.0, 0.0, 0.0, 0.0, 1.695419801316719E9, 0.0, 2023-09-22 16:56:41.316
242.0, 21658.058066136608, 33301.953470939814, -52532.321516552154, -55642.05266738566, -37235.63697762931, -20735.355703277077, -187500.02235174447, -37369.076892027486, -9668.895264732273, 17571.95801400638, -50637.988822220424, -46912.19889070975, -21628.196135544316, -52898.80071864137, -52944.018297674455, -42644.31210092451, -0.004, 1.0, 0.20600000000000002, 192.0, 0.0, 0.0, 0.0, 0.0, 0.0, 0.0, 0.0, 0.0, 0.0, 1.695419801376913E9, 0.0, 2023-09-22 16:56:41.376
244.0, 21626.452699476802, 33273.27618280365, -52536.41188578748, -55632.91080390344, -37262.57082969795, -20726.459708983864, -187500.02235174447, -37369.568630405505, -9677.612445069844, 17557.250566154788, -50647.30949965829, -46924.64881237136, -21628.821984389066, -52912.1894135701, -52956.6470332917, -42659.08660400946, -0.004, 1.0, 0.20600000000000002, 192.0, 0.0, 0.0, 0.0, 0.0, 0.0, 0.0, 0.0, 0.0, 0.0, 1.695419801376924E9, 0.0, 2023-09-22 16:56:41.376
246.0, 21638.343827527027, 33286.91074692139, -52546.53722602573, -55656.715411748344, -37246.43287020122, -20748.81145343917, -187500.02235174447, -37381.7726828781, -9675.779602024508, 17557.9434702329, -50647.153037447104, -46922.97243153721, -21624.955132598297, -52908.56843096834, -52951.59553904481, -42652.64930160634, -0.004, 1.0, 0.20600000000000002, 192.0, 0.0, 0.0, 0.0, 0.0, 0.0, 0.0, 0.0, 0.0, 0.0, 1.695419801376928E9, 0.0, 2023-09-22 16:56:41.376
248.0, 21633.29233328013, 33286.62017424347, -52533.41675203047, -55621.556117720145, -37257.027597073036, -20716.826107123627, -187500.02235174447, -37360.9185053013, -9688.140116708293, 17553.115493430556, -50662.64279635463, -46936.24936774366, -21643.19415607383, -52921.19716658559, -52971.510943354486, -42668.56374365852, -0.002, 0.998, 0.21, 192.0, 127.5, 120.0, 15.5, 24.0, 3.0, 72.0, 0.0, 0.0, 0.0, 1.695419801376931E9, 0.0, 2023-09-22 16:56:41.376
250.0, 21636.600391459513, 33286.217842843274, -52543.4526852909, -55649.07111514463, -37242.36485271035, -20743.782310936727, -187500.02235174447, -37374.26249674112, -9660.312194861435, 17579.602310610095, -50630.54569131681, -46902.609992338424, -21616.17089702736, -52887.93777083609, -52940.93375693962, -42636.5113421096, -0.002, 0.998, 0.21, 192.0, 0.0, 0.0, 0.0, 0.0, 0.0, 0.0, 0.0, 0.0, 0.0, 1.695419801376934E9, 0.0, 2023-09-22 16:56:41.376
252.0, 21629.42548148936, 33281.63573522994, -52554.15917088499, -55643.34906856407, -37272.96439086967, -20738.015560867258, -187500.02235174447, -37379.40339796584, -9701.595866870388, 17556.46825509885, -50672.58932263724, -46944.94419633677, -21669.09982789753, -52928.774407955934, -52979.8034405474, -42677.05740655153, -0.002, 0.998, 0.21, 192.0, 0.0, 0.0, 0.0, 0.0, 0.0, 0.0, 0.0, 0.0, 0.0, 1.695419801376938E9, 0.0, 2023-09-22 16:56:41.376
254.0, 21628.598466944513, 33275.5560607381, -52536.3001270652, -55646.4336092989, -37241.068451531944, -20745.413988281965, -187500.02235174447, -37372.87668858489, -9669.029375199007, 17562.682040057425, -50640.648679810605, -46918.50208264615, -21624.17282154236, -52899.87360237523, -52948.3992395877, -42648.44717364874, -0.002, 0.998, 0.21, 192.0, 0.0, 0.0, 0.0, 0.0, 0.0, 0.0, 0.0, 0.0, 0.0, 1.695419801376941E9, 0.0, 2023-09-22 16:56:41.376
0.0, 21635.549859470113, 33288.56477601109, -52550.784057472236, -55646.67947848791, -37273.12085308085, -20747.447997027397, -187500.02235174447, -37382.06325555602, -9695.404433656267, 17560.983307478822, -50671.11410750319, -46946.30765274855, -21645.697551452824, -52933.33416382482, -52974.237856178035, -42680.566630431014, -0.002, 0.998, 0.21, 192.0, 0.0, 0.0, 0.0, 0.0, 0.0, 0.0, 0.0, 0.0, 0.0, 1.695419801437267E9, 0.0, 2023-09-22 16:56:41.437
2.0, 21619.836583118034, 33270.59397346902, -52536.54599625421, -55641.62798424101, -37245.22587600063, -20740.876584157537, -187500.02235174447, -37370.48505192817, -9667.598863553865, 17556.825883010137, -50643.97908973445, -46923.933556548785, -21623.166993041872, -52905.148614066675, -52952.71312626757, -42651.48701089466, -0.002, 1.0, 0.214, 192.0, 127.5, 120.0, 15.5, 32.0, 3.0, 88.0, 0.0, 0.0, 0.0, 1.695419801437281E9, 0.0, 2023-09-22 16:56:41.437
4.0, 21645.965772386287, 33299.986517427744, -52539.29526082221, -55633.82722542611, -37257.25111451759, -20732.76290092026, -187500.02235174447, -37367.35580770443, -9680.182895682205, 17574.126133218542, -50660.78760156484, -46937.92574857781, -21635.32634202556, -52918.649067717684, -52962.43613510563, -42667.580266902485, -0.002, 1.0, 0.214, 192.0, 0.0, 0.0, 0.0, 0.0, 0.0, 0.0, 0.0, 0.0, 0.0, 1.695419801437284E9, 0.0, 2023-09-22 16:56:41.437
6.0, 21611.365271969473, 33264.60370595499, -52538.267080577265, -55640.86802492953, -37246.05289054548, -20739.53547949022, -187500.02235174447, -37368.60750539393, -9662.346203606869, 17564.2466621693, -50636.22303440846, -46916.646887856354, -21623.278751764152, -52894.240962772485, -52944.174759885645, -42643.99917650213, -0.002, 1.0, 0.214, 192.0, 0.0, 0.0, 0.0, 0.0, 0.0, 0.0, 0.0, 0.0, 0.0, 1.695419801437288E9, 0.0, 2023-09-22 16:56:41.437
8.0, 21648.29035380964, 33301.10410465051, -52553.510970295785, -55653.072077402125, -37267.354103011385, -20752.25362208529, -187500.02235174447, -37383.65022941235, -9689.838849286896, 17561.98913597931, -50667.582531879256, -46948.34166149398, -21652.313667811595, -52931.38956205721, -52970.527466598454, -42677.079758295986, -0.002, 1.0, 0.214, 192.0, 0.0, 0.0, 0.0, 0.0, 0.0, 0.0, 0.0, 0.0, 0.0, 1.695419801437291E9, 0.0, 2023-09-22 16:56:41.437
10.0, 21611.45467894729, 33257.697016918304, -52543.47503703536, -55644.22078659783, -37256.62526567284, -20744.743435948305, -187500.02235174447, -37370.52975541708, -9680.24995091557, 17540.732627002315, -50654.149133461615, -46938.886873589385, -21643.216507818284, -52916.57035548334, -52962.1008589388, -42661.18766798826, -0.002, 1.0, 0.214, 192.0, 0.0, 0.0, 0.0, 0.0, 0.0, 0.0, 0.0, 0.0, 0.0, 1.695419801437294E9, 0.0, 2023-09-22 16:56:41.437
12.0, 21656.09111262454, 33304.345107596535, -52553.13099064005, -55653.921443691426, -37267.89054487831, -20751.761883707273, -187500.02235174447, -37381.43740671127, -9690.487049876101, 17566.146560448, -50668.58836037974, -46950.420373728324, -21643.75294968521, -52929.266146333954, -52969.34282414232, -42674.576362916996, -0.004, 0.998, 0.212, 192.0, 127.5, 112.0, 15.5, 24.0, 3.0, 80.0, 0.0, 0.0, 0.0, 1.695419801437297E9, 0.0, 2023-09-22 16:56:41.437
14.0, 21612.974597570254, 33259.44045298582, -52535.31665030916, -55632.39671378097, -37255.530030194524, -20728.560772962664, -187500.02235174447, -37359.286827956064, -9673.142096178783, 17549.04747593969, -50649.052935725806, -46933.164827008826, -21629.648998933913, -52906.37796001172, -52957.09406818081, -42655.93500804127, -0.004, 0.998, 0.212, 192.0, 0.0, 0.0, 0.0, 0.0, 0.0, 0.0, 0.0, 0.0, 0.0, 1.6954198014373E9, 0.0, 2023-09-22 16:56:41.437
16.0, 21664.070685395087, 33313.151694911925, -52545.41963880297, -55646.05362964316, -37261.274428519544, -20742.3965027805, -187500.02235174447, -37375.40243570834, -9682.887456761297, 17576.361307664076, -50661.97224402097, -46941.99376606867, -21644.982295630252, -52915.162195582656, -52964.13486768423, -42667.11088026892, -0.004, 0.998, 0.212, 192.0, 0.0, 0.0, 0.0, 0.0, 0.0, 0.0, 0.0, 0.0, 0.0, 1.695419801497583E9, 0.0, 2023-09-22 16:56:41.497
18.0, 21618.406071472895, 33265.475423988755, -52526.800635671694, -55622.20431830935, -37255.887658105814, -20722.838726382106, -187500.02235174447, -37358.54922038904, -9668.5823403099, 17563.48670285782, -50643.06266821178, -46927.219262983715, -21631.43713849034, -52896.99022734049, -52957.40699260319, -42655.264455707606, -0.004, 0.998, 0.212, 192.0, 0.0, 0.0, 0.0, 0.0, 0.0, 0.0, 0.0, 0.0, 0.0, 1.695419801497594E9, 0.0, 2023-09-22 16:56:41.497
20.0, 21662.81898770559, 33309.865988476995, -52542.536263768234, -55652.02154541273, -37257.496983706595, -20754.175872108444, -187500.02235174447, -37382.04090381157, -9666.928311220207, 17588.833581070136, -50646.43778162453, -46929.163864751325, -21632.107690823996, -52904.03102684391, -52951.72964951154, -42659.44423192075, -0.004, 0.998, 0.212, 192.0, 0.0, 0.0, 0.0, 0.0, 0.0, 0.0, 0.0, 0.0, 0.0, 1.695419801497598E9, 0.0, 2023-09-22 16:56:41.497
22.0, 21605.911446322378, 33253.56194419407, -52536.88127242104, -55632.08378935859, -37265.14128031031, -20734.99807536579, -187500.02235174447, -37365.94764780375, -9677.657148558754, 17548.2428131393, -50655.043203239824, -46940.920882334816, -21638.0085513602, -52914.245774059986, -52964.62660606225, -42667.24499073565, -0.008, 0.994, 0.214, 192.0, 127.5, 96.0, 15.5, 8.0, 3.0, 88.0, 0.0, 0.0, 0.0, 1.695419801497601E9, 0.0, 2023-09-22 16:56:41.497
24.0, 21649.251478821217, 33297.88545344895, -52554.36033658509, -55666.28195837521, -37267.30939952248, -20765.798779225206, -187500.02235174447, -37388.34409574796, -9681.076965460416, 17568.784066293727, -50662.061650998796, -46945.9276730928, -21645.541089241637, -52923.52174800894, -52965.09599269581, -42674.33049372798, -0.008, 0.994, 0.214, 192.0, 0.0, 0.0, 0.0, 0.0, 0.0, 0.0, 0.0, 0.0, 0.0, 1.695419801497604E9, 0.0, 2023-09-22 16:56:41.497
26.0, 21614.025129559654, 33257.67466517385, -52528.25349906129, -55624.64065845498, -37263.308437264976, -20726.34795026159, -187500.02235174447, -37354.168278475794, -9678.573570081422, 17544.621830537537, -50655.825514295764, -46943.04429805807, -21637.18153681535, -52916.95033513908, -52967.33116714134, -42668.273170980596, -0.008, 0.994, 0.214, 192.0, 0.0, 0.0, 0.0, 0.0, 0.0, 0.0, 0.0, 0.0, 0.0, 1.695419801497607E9, 0.0, 2023-09-22 16:56:41.497
28.0, 21657.208699847306, 33299.27126160518, -52540.16697885597, -55654.636699514, -37254.904181349775, -20757.662744243473, -187500.02235174447, -37374.70953163022, -9674.19262816818, 17573.187359951422, -50649.187046192535, -46934.23771074268, -21627.52558321066, -52912.94937288158, -52953.741306512515, -42660.74063309916, -0.008, 0.994, 0.214, 192.0, 0.0, 0.0, 0.0, 0.0, 0.0, 0.0, 0.0, 0.0, 0.0, 1.69541980149761E9, 0.0, 2023-09-22 16:56:41.497
30.0, 21607.453716689794, 33250.075072059044, -52549.06297314918, -55646.523016276726, -37285.86134742038, -20749.9960958953, -187500.02235174447, -37377.659961898324, -9690.554105109466, 17542.52076655874, -50663.872142299675, -46952.320272007026, -21653.99004864574, -52927.030971888424, -52973.47789686655, -42674.554011172535, -0.008, 0.994, 0.214, 192.0, 0.0, 0.0, 0.0, 0.0, 0.0, 0.0, 0.0, 0.0, 0.0, 1.695419801557739E9, 0.0, 2023-09-22 16:56:41.557
32.0, 21646.94924914232, 33288.184796355345, -52543.11740912407, -55657.94475769338, -37256.91583835075, -20758.24388959931, -187500.02235174447, -37376.341208975464, -9684.20620968416, 17556.132978932023, -50658.775944563866, -46948.185199282794, -21646.122234597475, -52920.16898634064, -52965.207751418086, -42668.899019825345, -0.008, 0.994, 0.214, 192.0, 127.5, 96.0, 15.5, 8.0, 3.0, 88.0, 0.0, 0.0, 0.0, 1.695419801557766E9, 0.0, 2023-09-22 16:56:41.557
34.0, 21622.049405819107, 33265.22955479974, -52526.040676360215, -55618.24805954076, -37263.33078900943, -20720.737662403306, -187500.02235174447, -37349.04972899553, -9681.144020693782, 17548.958068961867, -50656.0043282514, -46947.64875741587, -21640.757815928202, -52913.396407770684, -52966.325338640854, -42664.65218837884, -0.008, 0.994, 0.214, 192.0, 0.0, 0.0, 0.0, 0.0, 0.0, 0.0, 0.0, 0.0, 0.0, 1.69541980155777E9, 0.0, 2023-09-22 16:56:41.557
36.0, 21643.976467129763, 33285.97197365427, -52540.83753118963, -55654.413182069446, -37253.451317960185, -20757.595689010108, -187500.02235174447, -37372.89904032934, -9658.121723904816, 17575.82486579715, -50636.13362743064, -46926.459303672236, -21622.652902919403, -52892.3857679827, -52944.95707094158, -42647.32958642597, -0.008, 0.994, 0.214, 192.0, 0.0, 0.0, 0.0, 0.0, 0.0, 0.0, 0.0, 0.0, 0.0, 1.695419801557774E9, 0.0, 2023-09-22 16:56:41.557
38.0, 21616.483821449736, 33263.240249543225, -52547.498351037306, -55639.25869932875, -37284.36378054188, -20741.480081257832, -187500.02235174447, -37369.92625831679, -9703.518116893545, 17541.447882824887, -50677.149078506125, -46967.31829253653, -21658.48274928126, -52930.89782367919, -52985.16785921668, -42686.869822367415, -0.008, 0.994, 0.214, 192.0, 0.0, 0.0, 0.0, 0.0, 0.0, 0.0, 0.0, 0.0, 0.0, 1.695419801557777E9, 0.0, 2023-09-22 16:56:41.557
40.0, 21636.779205415154, 33281.92630790786, -52543.385630057535, -55653.47440880232, -37255.887658105814, -20753.572375008152, -187500.02235174447, -37369.32276121649, -9674.72907003511, 17558.72578128884, -50649.455267126, -46941.81495211303, -21638.790862416132, -52902.75697740996, -52957.56345481437, -42656.56085688601, -0.008, 0.994, 0.214, 192.0, 0.0, 0.0, 0.0, 0.0, 0.0, 0.0, 0.0, 0.0, 0.0, 1.69541980155778E9, 0.0, 2023-09-22 16:56:41.557
42.0, 21620.685949407336, 33271.21982231377, -52557.422525575465, -55650.97101342333, -37288.72237071066, -20750.130206362035, -187500.02235174447, -37375.82711885299, -9701.059425003461, 17541.693752013893, -50679.3619012072, -46971.20749607176, -21664.316554584093, -52931.81424520186, -52983.40207140471, -42687.36156074543, -0.006, 0.992, 0.20600000000000002, 192.0, 127.5, 104.0, 15.5, 0.0, 3.0, 56.0, 0.0, 0.0, 0.0, 1.695419801557783E9, 0.0, 2023-09-22 16:56:41.557
44.0, 21627.57028669957, 33273.94673513732, -52541.32926956764, -55647.43943779939, -37250.67970164773, -20748.029142383235, -187500.02235174447, -37365.38885419236, -9674.952587479662, 17549.740380017804, -50654.417354395075, -46946.55352193755, -21642.434196762348, -52903.60634369926, -52959.21748390407, -42660.80768833253, -0.006, 0.992, 0.20600000000000002, 192.0, 0.0, 0.0, 0.0, 0.0, 0.0, 0.0, 0.0, 0.0, 0.0, 1.695419801557787E9, 0.0, 2023-09-22 16:56:41.557
46.0, 21626.251533776707, 33278.03710437263, -52553.667432506976, -55646.075981387614, -37283.13443459683, -20748.67734297244, -187500.02235174447, -37375.17891826379, -9696.611427856855, 17551.99790620779, -50676.56793315029, -46967.09477509198, -21664.09303713954, -52923.90172766468, -52977.925894013155, -42679.672560652805, -0.006, 0.992, 0.20600000000000002, 192.0, 0.0, 0.0, 0.0, 0.0, 0.0, 0.0, 0.0, 0.0, 0.0, 1.695419801616586E9, 0.0, 2023-09-22 16:56:41.616
48.0, 21616.17089702736, 33264.80487165509, -52541.32926956764, -55649.49579828928, -37260.55917269697, -20751.49366277381, -187500.02235174447, -37369.63568563887, -9685.547314351477, 17545.873528227035, -50660.988767264935, -46953.43785922979, -21645.965772386287, -52909.12722457972, -52966.05711770739, -42668.22846749169, -0.006, 0.992, 0.20600000000000002, 192.0, 0.0, 0.0, 0.0, 0.0, 0.0, 0.0, 0.0, 0.0, 0.0, 1.695419801616598E9, 0.0, 2023-09-22 16:56:41.616
50.0, 21639.23789730524, 33289.54825276712, -52536.47894102084, -55633.938984148386, -37272.29383853601, -20739.91545914596, -187500.02235174447, -37366.50644141513, -9694.935047022707, 17558.837540011114, -50673.41633718209, -46966.06659484704, -21653.833586434554, -52922.53827125291, -52979.602274847304, -42685.819290378015, -0.006, 0.992, 0.20600000000000002, 192.0, 0.0, 0.0, 0.0, 0.0, 0.0, 0.0, 0.0, 0.0, 0.0, 1.695419801616601E9, 0.0, 2023-09-22 16:56:41.616
52.0, 21624.217525031272, 33270.370456024466, -52509.545088952196, -55617.5775072071, -37236.12871600732, -20726.43735723941, -187500.02235174447, -37342.6124265924, -9656.892377959774, 17566.012449981266, -50632.44558959551, -46930.03558278508, -21616.37206272746, -52883.71329113404, -52945.38175408623, -42649.318891682495, -0.004, 0.992, 0.21, 192.0, 127.5, 112.0, 15.5, 0.0, 3.0, 72.0, 0.0, 0.0, 0.0, 1.695419801616605E9, 0.0, 2023-09-22 16:56:41.616
54.0, 21654.19121434584, 33305.529750052665, -52518.61989720105, -55620.125606075, -37248.198658013185, -20729.365435763055, -187500.02235174447, -37350.50259238513, -9667.10712517585, 17586.03961301322, -50645.16373219058, -46940.00446081215, -21631.19126930133, -52894.12920405021, -52949.65093727719, -42656.76202258611, -0.004, 0.992, 0.21, 192.0, 0.0, 0.0, 0.0, 0.0, 0.0, 0.0, 0.0, 0.0, 0.0, 1.695419801616608E9, 0.0, 2023-09-22 16:56:41.616
56.0, 21619.23308601774, 33270.32575253555, -52506.08056856163, -55612.70482691584, -37232.28421596101, -20722.10111881508, -187500.02235174447, -37338.05267072352, -9655.238348870082, 17567.934700004425, -50633.63023205164, -46929.70030661825, -21628.799632644612, -52879.08648003179, -52941.649012762195, -42644.02152824659, -0.004, 0.992, 0.21, 192.0, 0.0, 0.0, 0.0, 0.0, 0.0, 0.0, 0.0, 0.0, 0.0, 1.695419801616611E9, 0.0, 2023-09-22 16:56:41.616
58.0, 21655.9122986689, 33308.949566954325, -52522.66556294746, -55627.74755093426, -37253.40661447127, -20735.378055021534, -187500.02235174447, -37353.36361567541, -9675.176104924216, 17583.089182745123, -50654.93144451755, -46945.63710041489, -21635.773376914665, -52897.45961397405, -52955.44003909112, -42662.41701393331, -0.004, 0.992, 0.21, 192.0, 0.0, 0.0, 0.0, 0.0, 0.0, 0.0, 0.0, 0.0, 0.0, 1.695419801616614E9, 0.0, 2023-09-22 16:56:41.616
60.0, 21612.594617914514, 33261.94384836481, -52520.43038850193, -55628.01577186773, -37250.03150105852, -20733.232287553823, -187500.02235174447, -37346.23340919417, -9665.095468174872, 17559.038705711213, -50643.7555722899, -46935.735277621185, -21633.85112689151, -52883.17684926711, -52950.746172755506, -42651.06232775001, -0.004, 0.992, 0.21, 192.0, 0.0, 0.0, 0.0, 0.0, 0.0, 0.0, 0.0, 0.0, 0.0, 1.69541980167693E9, 0.0, 2023-09-22 16:56:41.676
62.0, 21648.513871254192, 33300.54531103913, -52550.56054002768, -55663.95737695186, -37276.63007696034, -20768.279822859746, -187500.02235174447, -37378.643438654355, -9694.465660389145, 17560.223348167343, -50678.490183173446, -46965.15017332437, -21656.024057391176, -52917.95616363957, -52978.39528064672, -42685.72988340019, -0.006, 0.996, 0.20600000000000002, 192.0, 127.5, 104.0, 15.5, 16.0, 3.0, 56.0, 0.0, 0.0, 0.0, 1.695419801676946E9, 0.0, 2023-09-22 16:56:41.676
64.0, 21603.363347454473, 33256.60178144, -52532.2991648077, -55637.80583593915, -37262.526126209035, -20740.54130799071, -187500.02235174447, -37351.91075228581, -9690.598808598377, 17531.724873986826, -50672.678729615065, -46958.08702207649, -21652.470130022783, -52911.42945425862, -52978.59644634682, -42684.25466826614, -0.006, 0.996, 0.20600000000000002, 192.0, 0.0, 0.0, 0.0, 0.0, 0.0, 0.0, 0.0, 0.0, 0.0, 1.69541980167695E9, 0.0, 2023-09-22 16:56:41.676
66.0, 21643.14945258492, 33300.54531103913, -52559.948272698915, -55671.2887491332, -37277.65825720528, -20773.353668851098, -187500.02235174447, -37381.236241011175, -9698.310160435458, 17557.384676621517, -50686.33564547726, -46963.09381283448, -21659.600336504023, -52925.33223930982, -52981.077489981355, -42698.895060884366, -0.006, 0.996, 0.20600000000000002, 192.0, 0.0, 0.0, 0.0, 0.0, 0.0, 0.0, 0.0, 0.0, 0.0, 1.695419801676953E9, 0.0, 2023-09-22 16:56:41.676
68.0, 21600.010585786174, 33255.90887736188, -52528.78994092822, -55623.8806991435, -37251.30555049247, -20726.99615085079, -187500.02235174447, -37337.02449047858, -9676.763078780543, 17542.543118303194, -50660.720546331475, -46937.45636194424, -21647.530394498157, -52902.80168089887, -52959.820981004355, -42676.61037166243, -0.006, 0.996, 0.20600000000000002, 192.0, 0.0, 0.0, 0.0, 0.0, 0.0, 0.0, 0.0, 0.0, 0.0, 1.695419801676957E9, 0.0, 2023-09-22 16:56:41.676
70.0, 21654.05710387911, 33309.865988476995, -52532.96971714136, -55632.530824247704, -37235.122887506834, -20733.031121853724, -187500.02235174447, -37338.29853991253, -9668.895264732273, 17579.132923976533, -50653.12095321667, -46920.022001269106, -21637.874440893465, -52897.37020699623, -52939.86087320577, -42668.36257795842, -0.006, 0.996, 0.20600000000000002, 192.0, 0.0, 0.0, 0.0, 0.0, 0.0, 0.0, 0.0, 0.0, 0.0, 1.69541980167696E9, 0.0, 2023-09-22 16:56:41.676
72.0, 21602.581036398537, 33256.28885701762, -52543.20681610189, -55628.03812361218, -37254.703015649684, -20724.62686593853, -187500.02235174447, -37337.404470134315, -9661.720354762121, 17560.80449352318, -50641.58745307773, -46910.38839940887, -21630.297199523116, -52893.6374656722, -52934.76467546996, -42664.60748488992, -0.006, 0.994, 0.212, 192.0, 127.5, 104.0, 15.5, 8.0, 3.0, 80.0, 0.0, 0.0, 0.0, 1.695419801676963E9, 0.0, 2023-09-22 16:56:41.676
74.0, 21654.258269579204, 33305.93208145286, -52547.78892371523, -55642.745571463776, -37239.526181164525, -20734.372226521045, -187500.02235174447, -37343.6629585818, -9676.830134013908, 17568.471141871352, -50654.19383695052, -46921.29605070306, -21650.972563144274, -52913.30700079286, -52946.99107968701, -42685.752235144646, -0.006, 0.994, 0.212, 192.0, 0.0, 0.0, 0.0, 0.0, 0.0, 0.0, 0.0, 0.0, 0.0, 1.695419801676967E9, 0.0, 2023-09-22 16:56:41.676
76.0, 21607.788992856622, 33259.21693554127, -52548.99591791582, -55630.04978061316, -37252.55724818197, -20721.09529031459, -187500.02235174447, -37336.063365467, -9658.05466867145, 17559.642202811505, -50630.56804306126, -46902.7217510607, -21622.071757563564, -52898.62190468573, -52932.350687068785, -42673.861107094424, -0.006, 0.994, 0.212, 192.0, 0.0, 0.0, 0.0, 0.0, 0.0, 0.0, 0.0, 0.0, 0.0, 1.695419801737207E9, 0.0, 2023-09-22 16:56:41.737
78.0, 21647.955077642808, 33297.416066815385, -52563.301034367214, -55657.900054204474, -37247.32693997943, -20747.313886560667, -187500.02235174447, -37353.49772614214, -9673.991462468084, 17567.666479070962, -50642.88385425614, -46914.03173375508, -21635.08047283655, -52916.1903758276, -52943.30304185189, -42691.273116025106, -0.006, 0.994, 0.212, 192.0, 0.0, 0.0, 0.0, 0.0, 0.0, 0.0, 0.0, 0.0, 0.0, 1.69541980173722E9, 0.0, 2023-09-22 16:56:41.737
80.0, 21614.226295259752, 33259.68632217483, -52553.84624646261, -55630.11683584653, -37256.737024395115, -20721.43056648142, -187500.02235174447, -37339.41612713529, -9673.00798571205, 17560.75979003427, -50629.2492901384, -46904.95692550623, -21632.778243157656, -52907.22732630102, -52939.23502436102, -42683.62881942139, -0.006, 0.994, 0.212, 192.0, 0.0, 0.0, 0.0, 0.0, 0.0, 0.0, 0.0, 0.0, 0.0, 1.695419801737224E9, 0.0, 2023-09-22 16:56:41.737
82.0, 21651.5090050112, 33294.890319691935, -52555.09794415211, -55646.634774999, -37236.95573055217, -20740.2954388017, -187500.02235174447, -37349.80968830701, -9669.096430432372, 17576.607176853082, -50623.92957495804, -46900.777149293084, -21636.198060059316, -52907.02616060092, -52933.892957436205, -42681.84067986497, -0.01, 0.992, 0.218, 192.0, 127.5, 88.0, 15.5, 0.0, 3.0, 104.0, 0.0, 0.0, 0.0, 1.695419801737227E9, 0.0, 2023-09-22 16:56:41.737
84.0, 21619.590713929025, 33264.33548502153, -52558.69657500942, -55625.24415555527, -37261.02855933053, -20718.681301913417, -187500.02235174447, -37340.84663878044, -9676.405450869257, 17563.576109835638, -50630.74685701691, -46907.59443135196, -21642.210679317795, -52911.60826821426, -52946.23112037553, -42689.46262472423, -0.01, 0.992, 0.218, 192.0, 0.0, 0.0, 0.0, 0.0, 0.0, 0.0, 0.0, 0.0, 0.0, 1.695419801737231E9, 0.0, 2023-09-22 16:56:41.737
86.0, 21639.57317347207, 33283.982668397744, -52569.13483967005, -55652.02154541273, -37253.7418906381, -20741.01069462427, -187500.02235174447, -37351.10608948542, -9661.966223951129, 17580.406973410485, -50615.905298698584, -46891.25530615512, -21632.018283846177, -52894.2856662614, -52934.22823360303, -42671.2236012487, -0.01, 0.992, 0.218, 192.0, 0.0, 0.0, 0.0, 0.0, 0.0, 0.0, 0.0, 0.0, 0.0, 1.695419801737242E9, 0.0, 2023-09-22 16:56:41.737
88.0, 21616.349710983006, 33261.63092394244, -52584.80341253322, -55649.40639131146, -37289.57173699996, -20737.635581211518, -187500.02235174447, -37356.93989478826, -9694.666826089242, 17554.747170775794, -50652.11512471618, -46927.75570485064, -21661.902566182922, -52929.489663778506, -52974.640187578225, -42705.332363287496, -0.01, 0.992, 0.218, 192.0, 0.0, 0.0, 0.0, 0.0, 0.0, 0.0, 0.0, 0.0, 0.0, 1.695419801737245E9, 0.0, 2023-09-22 16:56:41.737
90.0, 21636.175708314862, 33272.940906636824, -52558.629519776056, -55642.99144065278, -37244.13064052232, -20732.069996842147, -187500.02235174447, -37339.10320271292, -9665.542503063978, 17569.544025605206, -50623.661354024574, -46899.83837602596, -21632.398263501917, -52900.410044242155, -52945.784085486426, -42674.10697628343, -0.01, 0.992, 0.218, 192.0, 0.0, 0.0, 0.0, 0.0, 0.0, 0.0, 0.0, 0.0, 0.0, 1.695419801797447E9, 0.0, 2023-09-22 16:56:41.797
92.0, 21618.89780985091, 33259.88748787493, -52580.69069155344, -55651.44040005689, -37283.69322820821, -20740.675418457442, -187500.02235174447, -37353.63183660887, -9684.876762017819, 17566.146560448, -50649.96935724847, -46924.626460626896, -21648.89385090993, -52925.13107360972, -52966.90648399669, -42698.49272948417, -0.008, 0.996, 0.212, 192.0, 127.5, 96.0, 15.5, 16.0, 3.0, 80.0, 0.0, 0.0, 0.0, 1.695419801797461E9, 0.0, 2023-09-22 16:56:41.797
94.0, 21624.7539668982, 33259.08282507453, -52560.238845376836, -55642.00796389675, -37247.72927137963, -20735.847441655093, -187500.02235174447, -37339.77375504658, -9666.72714552011, 17559.865720256057, -50634.300784385305, -46909.449626141744, -21635.035769347644, -52906.24384954499, -52953.897768723706, -42681.415996720316, -0.008, 0.996, 0.212, 192.0, 0.0, 0.0, 0.0, 0.0, 0.0, 0.0, 0.0, 0.0, 0.0, 1.695419801797464E9, 0.0, 2023-09-22 16:56:41.797
96.0, 21640.355484528005, 33275.39959852691, -52555.477923807855, -55622.85251889855, -37262.7943471425, -20718.56954319114, -187500.02235174447, -37334.56579858849, -9675.332567135401, 17573.880264029536, -50642.39211587812, -46913.76351282162, -21644.825833419065, -52913.35170428178, -52958.41282110367, -42688.345037501465, -0.008, 0.996, 0.212, 192.0, 0.0, 0.0, 0.0, 0.0, 0.0, 0.0, 0.0, 0.0, 0.0, 1.695419801797468E9, 0.0, 2023-09-22 16:56:41.797
98.0, 21630.14073731193, 33259.798080897104, -52544.52556902475, -55622.606649709545, -37241.24726548759, -20720.335331003113, -187500.02235174447, -37328.41906886328, -9648.778694722498, 17583.133886234034, -50611.837281207714, -46883.588657806955, -21616.908504594387, -52882.729814378006, -52934.787027214414, -42660.29359821005, -0.008, 0.996, 0.212, 192.0, 0.0, 0.0, 0.0, 0.0, 0.0, 0.0, 0.0, 0.0, 0.0, 1.695419801797471E9, 0.0, 2023-09-22 16:56:41.797
100.0, 21647.48569100925, 33276.42777877185, -52567.92784546946, -55638.476388272815, -37272.98674261412, -20734.95337187688, -187500.02235174447, -37348.312121428506, -9675.310215390948, 17592.521618905263, -50637.20651116449, -46904.979277250684, -21643.775301429665, -52906.86969838974, -52956.736440269524, -42682.57828743199, -0.008, 0.996, 0.212, 192.0, 0.0, 0.0, 0.0, 0.0, 0.0, 0.0, 0.0, 0.0, 0.0, 1.695419801797474E9, 0.0, 2023-09-22 16:56:41.797
102.0, 21622.09410930802, 33244.1965632673, -52555.07559240766, -55633.31313530364, -37251.417309214754, -20729.3430840186, -187500.02235174447, -37339.19260969074, -9666.995366453573, 17564.961917991866, -50627.528205815346, -46899.92778300378, -21640.109615338995, -52898.89012561919, -52953.94247221261, -42676.25274375114, -0.004, 0.992, 0.21, 192.0, 127.5, 112.0, 15.5, 0.0, 3.0, 72.0, 0.0, 0.0, 0.0, 1.695419801797477E9, 0.0, 2023-09-22 16:56:41.797
104.0, 21647.932725898354, 33272.605630469996, -52575.14745892852, -55655.41901056994, -37275.959524626676, -20749.81728193966, -187500.02235174447, -37361.589057634956, -9678.752384037065, 17577.724764075847, -50644.090848456726, -46918.23386171268, -21645.585792730548, -52919.67724796263, -52964.91717874017, -42697.01751435012, -0.004, 0.992, 0.21, 192.0, 0.0, 0.0, 0.0, 0.0, 0.0, 0.0, 0.0, 0.0, 0.0, 1.695419801797481E9, 0.0, 2023-09-22 16:56:41.797
106.0, 21618.160202283885, 33238.65333064238, -52551.11933363907, -55635.4812545158, -37249.740928380605, -20734.05930209867, -187500.02235174447, -37339.39377539084, -9656.53475004849, 17561.76561853476, -50619.325115600244, -46898.98900973666, -21623.904600608897, -52901.438224487094, -52948.063963420864, -42679.806671119535, -0.004, 0.992, 0.21, 192.0, 0.0, 0.0, 0.0, 0.0, 0.0, 0.0, 0.0, 0.0, 0.0, 1.695419801857755E9, 0.0, 2023-09-22 16:56:41.857
108.0, 21655.644077735436, 33276.718351449774, -52572.55465657171, -55654.32377509162, -37271.198603057695, -20754.399389553, -187500.02235174447, -37359.39858667834, -9678.327700892414, 17577.81417105367, -50644.26966241237, -46918.94911753525, -21652.246612578227, -52926.405123043674, -52964.62660606225, -42702.69485744177, -0.004, 0.992, 0.21, 192.0, 0.0, 0.0, 0.0, 0.0, 0.0, 0.0, 0.0, 0.0, 0.0, 1.695419801857766E9, 0.0, 2023-09-22 16:56:41.857
110.0, 21605.37500445545, 33226.06929851405, -52564.73154601235, -55644.60076625356, -37270.46099549067, -20744.162290592467, -187500.02235174447, -37348.89326678435, -9678.260645659047, 17547.929888716924, -50637.81000826479, -46913.294126188055, -21643.261211307195, -52917.12914909472, -52961.96674847207, -42692.90479337035, -0.004, 0.992, 0.21, 192.0, 0.0, 0.0, 0.0, 0.0, 0.0, 0.0, 0.0, 0.0, 0.0, 1.69541980185777E9, 0.0, 2023-09-22 16:56:41.857
112.0, 21651.62076373348, 33274.66199095988, -52581.607113076105, -55662.41510658445, -37279.06641710597, -20758.981497166336, -187500.02235174447, -37364.941819303254, -9692.074023732428, 17571.8462552841, -50655.87021778467, -46926.54871065006, -21660.025019648674, -52930.0931608788, -52971.73446079904, -42706.04761911007, -0.004, 0.991, 0.20600000000000002, 192.0, 127.5, 112.0, 15.0, 120.0, 3.0, 40.0, 0.0, 0.0, 0.0, 1.695419801857773E9, 0.0, 2023-09-22 16:56:41.857
114.0, 21605.687928877822, 33226.96336829226, -52564.776249501265, -55642.90203367496, -37268.672855934245, -20736.62975271103, -187500.02235174447, -37345.92048477179, -9675.354918879857, 17551.37205736304, -50641.006307721895, -46918.412675668325, -21652.738350956246, -52914.581050226814, -52965.23010316255, -42695.07291258251, -0.004, 0.991, 0.20600000000000002, 192.0, 0.0, 0.0, 0.0, 0.0, 0.0, 0.0, 0.0, 0.0, 0.0, 1.695419801857776E9, 0.0, 2023-09-22 16:56:41.857
116.0, 21650.369066043982, 33272.940906636824, -52586.368034645086, -55673.92625497893, -37282.64269621881, -20767.67632575945, -187500.02235174447, -37372.67552288479, -9684.005043984062, 17570.61690933906, -50654.03737473934, -46932.024888041604, -21653.52066201218, -52931.83659694631, -52973.09791721081, -42712.95430814676, -0.004, 0.991, 0.20600000000000002, 192.0, 0.0, 0.0, 0.0, 0.0, 0.0, 0.0, 0.0, 0.0, 0.0, 1.695419801857779E9, 0.0, 2023-09-22 16:56:41.857
118.0, 21602.201056742797, 33225.57756013603, -52565.08917392364, -55640.95743190735, -37277.99353337211, -20737.948505633893, -187500.02235174447, -37347.462755139204, -9674.617311312832, 17547.28168812772, -50639.620499565666, -46920.8266640695, -21651.19608058883, -52918.80552992887, -52969.63339682024, -42704.25947955364, -0.004, 0.991, 0.20600000000000002, 192.0, 0.0, 0.0, 0.0, 0.0, 0.0, 0.0, 0.0, 0.0, 0.0, 1.695419801857783E9, 0.0, 2023-09-22 16:56:41.857
120.0, 21652.291316067138, 33279.869947417974, -52568.41958384748, -55659.218807127334, -37268.62815244534, -20755.025238397746, -187500.02235174447, -37359.89032505635, -9671.286901388992, 17582.23981645582, -50642.481522855946, -46917.630364612385, -21653.61006899, -52919.85606191827, -52966.258283407486, -42703.38776151988, -0.004, 0.991, 0.20600000000000002, 192.0, 0.0, 0.0, 0.0, 0.0, 0.0, 0.0, 0.0, 0.0, 0.0, 1.695419801917147E9, 0.0, 2023-09-22 16:56:41.917
122.0, 21606.38083295594, 33235.94876956329, -52553.935653440436, -55627.52403348971, -37272.22678330264, -20724.045720582693, -187500.02235174447, -37336.53275210056, -9672.180971167203, 17561.720915045848, -50638.74878153191, -46918.65854485733, -21638.18736531584, -52914.737512438005, -52966.63826306323, -42697.33043877249, -0.004, 0.9904999999999999, 0.20500000000000002, 192.0, 127.5, 112.0, 15.0, 120.0, 3.0, 48.0, 0.0, 0.0, 0.0, 1.695419801917179E9, 0.0, 2023-09-22 16:56:41.917
124.0, 21650.369066043982, 33280.54049975163, -52564.68684252344, -55655.955452436865, -37260.022730830045, -20751.53836626272, -187500.02235174447, -37353.274208697585, -9664.782543752497, 17593.05806077219, -50632.06560993977, -46908.93553601927, -21632.890001879932, -52903.829861143815, -52949.695640766105, -42685.886345611376, -0.004, 0.9904999999999999, 0.20500000000000002, 192.0, 0.0, 0.0, 0.0, 0.0, 0.0, 0.0, 0.0, 0.0, 0.0, 1.695419801917183E9, 0.0, 2023-09-22 16:56:41.917
126.0, 21603.18453349883, 33230.62905438293, -52567.0561274357, -55643.2820133307, -37282.21801307416, -20741.56948823565, -187500.02235174447, -37351.41901390779, -9683.803878283963, 17559.038705711213, -50648.918825259076, -46928.35920195094, -21655.174691101874, -52918.17968108412, -52965.36421362928, -42698.202156806256, -0.004, 0.9904999999999999, 0.20500000000000002, 192.0, 0.0, 0.0, 0.0, 0.0, 0.0, 0.0, 0.0, 0.0, 0.0, 1.695419801917186E9, 0.0, 2023-09-22 16:56:41.917
128.0, 21648.67033346538, 33274.706694448796, -52552.5051417953, -55643.75139996426, -37249.71857663615, -20740.094273101604, -187500.02235174447, -37344.44526963774, -9677.76890728103, 17574.52846461874, -50644.090848456726, -46922.5253966481, -21643.9094118964, -52910.267163546945, -52956.08823968032, -42688.41209273483, -0.004, 0.9904999999999999, 0.20500000000000002, 192.0, 0.0, 0.0, 0.0, 0.0, 0.0, 0.0, 0.0, 0.0, 0.0, 1.69541980191719E9, 0.0, 2023-09-22 16:56:41.917
130.0, 21612.594617914514, 33239.97208356525, -52556.796676730715, -55632.933155647894, -37270.55040246849, -20730.14774681899, -187500.02235174447, -37341.20426669172, -9669.945796721673, 17574.483761129828, -50638.413505365075, -46918.94911753525, -21638.81321416059, -52905.148614066675, -52954.925948968645, -42686.04280782257, -0.004, 0.9904999999999999, 0.20500000000000002, 192.0, 0.0, 0.0, 0.0, 0.0, 0.0, 0.0, 0.0, 0.0, 0.0, 1.695419801917193E9, 0.0, 2023-09-22 16:56:41.917
132.0, 21641.22720256176, 33270.59397346902, -52556.46140056389, -55650.18870236739, -37252.37843422633, -20746.129244104533, -187500.02235174447, -37347.90979002831, -9666.39186935328, 17582.552740878196, -50642.123894944656, -46919.23969021317, -21642.970638629275, -52905.439186744596, -52955.1494664132, -42689.7755491466, -0.003, 0.99425, 0.20650000000000002, 192.0, 127.5, 120.0, 15.5, 24.0, 3.0, 64.0, 0.0, 0.0, 0.0, 1.695419801917197E9, 0.0, 2023-09-22 16:56:41.917
134.0, 21616.014434816174, 33250.656217414886, -52550.04644990522, -55625.08769334408, -37271.980914113636, -20722.48109847082, -187500.02235174447, -37332.2635689096, -9682.865105016841, 17571.756848306282, -50655.08790672874, -46931.3766874524, -21650.27965906616, -52916.413893272154, -52970.48276310954, -42703.298354542065, -0.003, 0.99425, 0.20650000000000002, 192.0, 0.0, 0.0, 0.0, 0.0, 0.0, 0.0, 0.0, 0.0, 0.0, 1.6954198019172E9, 0.0, 2023-09-22 16:56:41.917
136.0, 21635.99689435922, 33268.17998506784, -52546.648984748004, -55641.1809493519, -37249.22683825813, -20740.362494035067, -187500.02235174447, -37334.252874166115, -9655.350107592358, 17590.86758981557, -50630.07630468325, -46905.13573946187, -21621.13298429644, -52889.569448181326, -52941.023163917445, -42674.59871466145, -0.003, 0.99425, 0.20650000000000002, 192.0, 0.0, 0.0, 0.0, 0.0, 0.0, 0.0, 0.0, 0.0, 0.0, 1.695419801976883E9, 0.0, 2023-09-22 16:56:41.976
138.0, 21616.483821449736, 33248.64456041391, -52565.670319279474, -55643.706696475354, -37288.543556755016, -20745.10106385959, -187500.02235174447, -37350.79316506305, -9686.463735874146, 17567.75588604878, -50661.43580215405, -46938.23867300018, -21656.068760880087, -52922.85119567528, -52969.879266009244, -42706.584060976995, -0.003, 0.99425, 0.20650000000000002, 192.0, 0.0, 0.0, 0.0, 0.0, 0.0, 0.0, 0.0, 0.0, 0.0, 1.695419801976895E9, 0.0, 2023-09-22 16:56:41.976
140.0, 21621.669426163367, 33251.43852847082, -52561.17761864396, -55652.87091170203, -37263.80017564299, -20753.68413373043, -187500.02235174447, -37352.82717380848, -9675.10904969085, 17563.66551681346, -50651.556331104795, -46928.98505079569, -21643.127100840462, -52912.12235833673, -52960.29036763792, -42695.29643002706, -0.003, 0.99425, 0.20650000000000002, 192.0, 0.0, 0.0, 0.0, 0.0, 0.0, 0.0, 0.0, 0.0, 0.0, 1.695419801976898E9, 0.0, 2023-09-22 16:56:41.976
142.0, 21623.904600608897, 33253.31607500507, -52572.84522924963, -55644.265490086735, -37290.085827122435, -20745.190470837413, -187500.02235174447, -37357.34222618845, -9695.091509233895, 17567.219444181854, -50672.8575435707, -46944.698327147766, -21664.584775517556, -52931.926003924134, -52979.28935042493, -42716.709401215245, -0.0045000000000000005, 0.999125, 0.20825, 192.0, 127.5, 104.0, 15.5, 48.0, 3.0, 72.0, 0.0, 0.0, 0.0, 1.695419801976902E9, 0.0, 2023-09-22 16:56:41.976
144.0, 21625.580981443047, 33250.87973485944, -52548.615938260074, -55637.47055977232, -37253.920704593744, -20735.892145144004, -187500.02235174447, -37339.75140330212, -9665.743668764075, 17576.093086730612, -50637.87706349815, -46909.583736608474, -21646.56926948658, -52896.36437849574, -52950.947338455604, -42683.76292988812, -0.0045000000000000005, 0.999125, 0.20825, 192.0, 0.0, 0.0, 0.0, 0.0, 0.0, 0.0, 0.0, 0.0, 0.0, 1.695419801976905E9, 0.0, 2023-09-22 16:56:41.976
146.0, 21636.443929248326, 33264.60370595499, -52558.473057564865, -55641.53857726319, -37280.496928751105, -20738.127319589534, -187500.02235174447, -37347.8650865394, -9686.486087618601, 17586.330185691142, -50656.63017709615, -46929.56619615152, -21651.866632922487, -52921.867718919246, -52968.918140997666, -42705.466473754226, -0.0045000000000000005, 0.999125, 0.20825, 192.0, 0.0, 0.0, 0.0, 0.0, 0.0, 0.0, 0.0, 0.0, 0.0, 1.695419801976908E9, 0.0, 2023-09-22 16:56:41.976
148.0, 21615.500344693704, 33239.748566120696, -52547.38659231503, -55645.42778079841, -37255.41827147225, -20740.876584157537, -187500.02235174447, -37342.14303995884, -9656.53475004849, 17582.53038913374, -50626.052990681295, -46905.35925690643, -21622.630551174945, -52893.346892994276, -52943.48185580753, -42677.415034462814, -0.0045000000000000005, 0.999125, 0.20825, 192.0, 0.0, 0.0, 0.0, 0.0, 0.0, 0.0, 0.0, 0.0, 0.0, 1.695419801976912E9, 0.0, 2023-09-22 16:56:41.976
150.0, 21635.23693504774, 33265.16249956638, -52568.956025714404, -55652.58033902411, -37285.01198113108, -20748.83380518363, -187500.02235174447, -37354.90588604282, -9690.419994642734, 17581.882188544536, -50664.87797080016, -46941.278510246106, -21656.80636844711, -52928.997925400494, -52973.79082128892, -42709.802712178556, -0.0045000000000000005, 0.999125, 0.20825, 192.0, 0.0, 0.0, 0.0, 0.0, 0.0, 0.0, 0.0, 0.0, 0.0, 1.695419802037192E9, 0.0, 2023-09-22 16:56:42.037
152.0, 21607.36430971197, 33233.82535384004, -52556.97549068636, -55643.639641241985, -37272.36089376937, -20745.235174326324, -187500.02235174447, -37345.49580162714, -9673.030337456506, 17565.163083691965, -50645.36489789068, -46923.19594898176, -21645.09405435253, -52907.92023037914, -52960.75975427148, -42690.356694502436, -0.00525, 0.9985625, 0.210125, 192.0, 127.5, 104.0, 15.5, 24.0, 3.0, 80.0, 0.0, 0.0, 0.0, 1.695419802037206E9, 0.0, 2023-09-22 16:56:42.037
154.0, 21646.0104758752, 33275.69017120483, -52563.32338611167, -55646.74653372128, -37285.61547823137, -20750.554889506686, -187500.02235174447, -37355.30821744302, -9682.641587572287, 17585.547874635206, -50658.08304048575, -46935.82468459901, -21648.692685209833, -52922.60532648627, -52970.28159740944, -42705.64528770987, -0.00525, 0.9985625, 0.210125, 192.0, 0.0, 0.0, 0.0, 0.0, 0.0, 0.0, 0.0, 0.0, 0.0, 1.69541980203721E9, 0.0, 2023-09-22 16:56:42.037
156.0, 21610.940588824822, 33237.714557375264, -52543.74325796882, -55629.08865560158, -37264.38132099883, -20730.23715379681, -187500.02235174447, -37332.28592065405, -9653.584319780388, 17575.13196171903, -50628.08699942673, -46909.2708121861, -21629.00079834471, -52893.972741839025, -52951.170855900156, -42681.68421765378, -0.00525, 0.9985625, 0.210125, 192.0, 0.0, 0.0, 0.0, 0.0, 0.0, 0.0, 0.0, 0.0, 0.0, 1.695419802037213E9, 0.0, 2023-09-22 16:56:42.037
158.0, 21651.66546722239, 33279.06528461758, -52559.36712734308, -55646.94769942138, -37274.216088559166, -20745.30222955969, -187500.02235174447, -37347.28394118356, -9673.633834556798, 17596.72374686286, -50648.96352874798, -46926.83928332797, -21651.307839311106, -52913.821090915335, -52963.1513909282, -42697.777473661605, -0.00525, 0.9985625, 0.210125, 192.0, 0.0, 0.0, 0.0, 0.0, 0.0, 0.0, 0.0, 0.0, 0.0, 1.695419802037216E9, 0.0, 2023-09-22 16:56:42.037
160.0, 21600.390565441914, 33227.96919679275, -52550.426429560954, -55631.748513191764, -37272.00326585809, -20726.86204038406, -187500.02235174447, -37329.46960085268, -9668.403526354257, 17568.471141871352, -50641.453342611, -46924.134722248884, -21642.590658973535, -52903.89691637718, -52960.111553682276, -42685.50636595564, -0.00525, 0.9985625, 0.210125, 192.0, 0.0, 0.0, 0.0, 0.0, 0.0, 0.0, 0.0, 0.0, 0.0, 1.695419802037219E9, 0.0, 2023-09-22 16:56:42.037
162.0, 21647.552746242614, 33277.23244157225, -52563.83747623414, -55648.82524595562, -37274.216088559166, -20742.86588941406, -187500.02235174447, -37343.95353125972, -9674.282035146003, 17598.489534674827, -50651.489275871434, -46928.4262571843, -21650.592583488535, -52910.78125366942, -52962.65965255018, -42689.5743834465, -0.005625, 0.99528125, 0.2120625, 192.0, 127.5, 104.0, 15.5, 0.0, 3.0, 88.0, 0.0, 0.0, 0.0, 1.695419802037222E9, 0.0, 2023-09-22 16:56:42.037
164.0, 21600.435268930825, 33229.91379856036, -52550.73935398333, -55625.5794317221, -37274.66312344827, -20718.77070889124, -187500.02235174447, -37326.76503977359, -9667.397697853768, 17575.71310707487, -50641.92272924456, -46920.46903615821, -21635.438100747837, -52896.29732326238, -52959.91038798218, -42678.66673215231, -0.005625, 0.99528125, 0.2120625, 192.0, 0.0, 0.0, 0.0, 0.0, 0.0, 0.0, 0.0, 0.0, 0.0, 1.695419802037226E9, 0.0, 2023-09-22 16:56:42.037
166.0, 21654.99587714623, 33285.12260736497, -52560.06003142119, -55645.316022076135, -37269.49987047909, -20738.999037623293, -187500.02235174447, -37343.39473764834, -9669.364651365835, 17605.485630689338, -50649.72348805946, -46923.508873404135, -21642.031865362154, -52902.488756476494, -52961.09503043831, -42686.33338050049, -0.005625, 0.99528125, 0.2120625, 192.0, 0.0, 0.0, 0.0, 0.0, 0.0, 0.0, 0.0, 0.0, 0.0, 1.695419802097559E9, 0.0, 2023-09-22 16:56:42.097
168.0, 21607.721937623257, 33235.63584514092, -52543.028002146246, -55619.186832807885, -37269.030483845534, -20713.24982801078, -187500.02235174447, -37320.417144348285, -9658.255834371548, 17590.57701713765, -50635.03839195232, -46916.95981227873, -21638.924972882865, -52891.89402960468, -52954.43421059063, -42676.9232960848, -0.005625, 0.99528125, 0.2120625, 192.0, 0.0, 0.0, 0.0, 0.0, 0.0, 0.0, 0.0, 0.0, 0.0, 1.695419802097573E9, 0.0, 2023-09-22 16:56:42.097
170.0, 21658.594508003534, 33285.23436608724, -52543.98912715782, -55637.984649894795, -37254.56890518295, -20732.807604409172, -187500.02235174447, -37330.65424330881, -9651.14797963476, 17616.505040705808, -50631.50681632839, -46913.4729401437, -21622.451737219304, -52888.161288280644, -52940.15144588369, -42668.38492970287, -0.005625, 0.99528125, 0.2120625, 192.0, 0.0, 0.0, 0.0, 0.0, 0.0, 0.0, 0.0, 0.0, 0.0, 1.695419802097577E9, 0.0, 2023-09-22 16:56:42.097
172.0, 21596.814286329067, 33226.941016547804, -52560.998804688315, -55643.639641241985, -37288.9011846663, -20738.663761456464, -187500.02235174447, -37339.75140330212, -9673.34326187888, 17578.90940653198, -50652.539807860834, -46935.64587064336, -21643.57413572957, -52908.166099568145, -52963.7995915174, -42688.23327877918, -0.0048125, 0.994640625, 0.21303125, 192.0, 127.5, 112.0, 15.5, 8.0, 3.0, 88.0, 0.0, 0.0, 0.0, 1.69541980209758E9, 0.0, 2023-09-22 16:56:42.097
174.0, 21643.976467129763, 33276.6065927275, -52558.74127849833, -55653.65322275797, -37263.777823898534, -20747.76092144977, -187500.02235174447, -37340.44430738024, -9681.054613715962, 17591.158162493488, -50663.33570043275, -46942.12787653541, -21651.240784077738, -52912.502337992475, -52965.16304792918, -42691.45192998075, -0.0048125, 0.994640625, 0.21303125, 192.0, 0.0, 0.0, 0.0, 0.0, 0.0, 0.0, 0.0, 0.0, 0.0, 1.695419802097584E9, 0.0, 2023-09-22 16:56:42.097
176.0, 21617.869629605964, 33247.95165633579, -52528.25349906129, -55606.33457974608, -37261.98968434211, -20705.158496517957, -187500.02235174447, -37305.39677207432, -9666.235407142092, 17591.62754912705, -50646.41542988008, -46925.676992616296, -21647.306877053605, -52892.51987844943, -52951.12615241124, -42671.71533962672, -0.0048125, 0.994640625, 0.21303125, 192.0, 0.0, 0.0, 0.0, 0.0, 0.0, 0.0, 0.0, 0.0, 0.0, 1.695419802097587E9, 0.0, 2023-09-22 16:56:42.097
178.0, 21649.89967941042, 33278.39473228392, -52539.96581315587, -55642.656164485954, -37254.54655343849, -20745.123415604045, -187500.02235174447, -37334.476391610675, -9643.235462097582, 17623.992875098334, -50626.388266848124, -46906.18627145127, -21613.37692897045, -52875.51020091894, -52929.02027714495, -42657.16435398631, -0.0048125, 0.994640625, 0.21303125, 192.0, 0.0, 0.0, 0.0, 0.0, 0.0, 0.0, 0.0, 0.0, 0.0, 1.695419802097591E9, 0.0, 2023-09-22 16:56:42.097
180.0, 21613.913370837377, 33243.1460312779, -52538.02121138826, -55621.10908283104, -37275.28897229302, -20725.00684559427, -187500.02235174447, -37325.602749061916, -9676.651320058265, 17588.252435714297, -50653.61269159469, -46938.48454218919, -21640.46724325028, -52906.37796001172, -52961.51971358296, -42688.21092703473, -0.0048125, 0.994640625, 0.21303125, 192.0, 0.0, 0.0, 0.0, 0.0, 0.0, 0.0, 0.0, 0.0, 0.0, 1.695419802157683E9, 0.0, 2023-09-22 16:56:42.157
182.0, 21638.723807182767, 33266.39184551142, -52541.01634514527, -55641.31505981863, -37257.5416871955, -20741.994171380302, -187500.02235174447, -37333.87289451038, -9661.228616384104, 17605.552685922707, -50640.06753445477, -46925.69934436076, -21630.56542045658, -52889.94942783707, -52944.375925585744, -42671.625932648894, -0.0064062500000000005, 0.9953203125, 0.210515625, 192.0, 127.5, 96.0, 15.5, 16.0, 3.0, 64.0, 0.0, 0.0, 0.0, 1.695419802157698E9, 0.0, 2023-09-22 16:56:42.157
184.0, 21617.869629605964, 33249.113947047466, -52543.095057379614, -55624.03716135468, -37281.3015915515, -20727.465537484353, -187500.02235174447, -37330.85540900891, -9674.505552590555, 17594.086241017132, -50653.29976717231, -46938.41748695583, -21642.255382806707, -52903.89691637718, -52960.91621648267, -42688.613258434925, -0.0064062500000000005, 0.9953203125, 0.210515625, 192.0, 0.0, 0.0, 0.0, 0.0, 0.0, 0.0, 0.0, 0.0, 0.0, 1.695419802157701E9, 0.0, 2023-09-22 16:56:42.157
186.0, 21624.217525031272, 33258.412272740876, -52565.335043112646, -55667.01956594224, -37280.94396364021, -20769.73268624934, -187500.02235174447, -37361.49965065714, -9670.772811266519, 17592.76748809427, -50651.04224098233, -46934.282414231595, -21639.41671126088, -52901.12530006472, -52957.876379236746, -42686.8251188785, -0.0064062500000000005, 0.9953203125, 0.210515625, 192.0, 0.0, 0.0, 0.0, 0.0, 0.0, 0.0, 0.0, 0.0, 0.0, 1.695419802157705E9, 0.0, 2023-09-22 16:56:42.157
188.0, 21608.392489956917, 33251.03619707062, -52576.60032231812, -55655.50841754775, -37309.57654828746, -20758.735627977327, -187500.02235174447, -37362.863107068915, -9707.809651828964, 17563.307888902174, -50694.44932871453, -46975.454327518266, -21681.214473392305, -52942.90071045169, -52999.942362301634, -42727.92997693181, -0.0064062500000000005, 0.9953203125, 0.210515625, 192.0, 0.0, 0.0, 0.0, 0.0, 0.0, 0.0, 0.0, 0.0, 0.0, 1.695419802157708E9, 0.0, 2023-09-22 16:56:42.157
190.0, 21618.786051128634, 33258.546383207606, -52543.47503703536, -55638.72225746182, -37256.64761741729, -20739.937810890417, -187500.02235174447, -37332.42003112078, -9662.122686162316, 17592.566322394174, -50646.795409535815, -46929.4767891737, -21641.003685117208, -52889.97177958152, -52951.215559389064, -42677.705607140735, -0.0064062500000000005, 0.9953203125, 0.210515625, 192.0, 0.0, 0.0, 0.0, 0.0, 0.0, 0.0, 0.0, 0.0, 0.0, 1.695419802157711E9, 0.0, 2023-09-22 16:56:42.157
192.0, 21615.075661549054, 33258.38992099642, -52569.98420595935, -55654.88256870301, -37303.31805983997, -20755.896956431505, -187500.02235174447, -37357.38692967736, -9697.974884268628, 17590.77818283775, -50682.49114543094, -46964.412565757346, -21663.087208639052, -52924.795797442894, -52980.8539725368, -42709.95917438975, -0.007203125, 0.99366015625, 0.20525781250000003, 192.0, 127.5, 96.0, 15.5, 0.0, 3.0, 32.0, 0.0, 0.0, 0.0, 1.695419802157714E9, 0.0, 2023-09-22 16:56:42.157
194.0, 21611.074699291552, 33252.82433662705, -52544.212644602376, -55641.91855691893, -37264.73894891011, -20742.687075458416, -187500.02235174447, -37332.48708635415, -9668.716450776632, 17594.846200328615, -50653.61269159469, -46938.77511486711, -21633.158222813396, -52893.61511392774, -52957.07171643636, -42683.6735229103, -0.007203125, 0.99366015625, 0.20525781250000003, 192.0, 0.0, 0.0, 0.0, 0.0, 0.0, 0.0, 0.0, 0.0, 0.0, 1.695419802157718E9, 0.0, 2023-09-22 16:56:42.157
196.0, 21627.212658788285, 33272.91855489237, -52557.89191220903, -55644.71252497585, -37292.164539356774, -20746.15159584899, -187500.02235174447, -37342.67948182577, -9691.20230569867, 17603.29515973272, -50678.892514573636, -46962.378557011914, -21666.842301707544, -52921.91242240816, -52979.37875740275, -42711.613203479435, -0.007203125, 0.99366015625, 0.20525781250000003, 192.0, 0.0, 0.0, 0.0, 0.0, 0.0, 0.0, 0.0, 0.0, 0.0, 1.695419802217121E9, 0.0, 2023-09-22 16:56:42.217
198.0, 21606.850219589498, 33250.47740345924, -52545.24082484732, -55641.09154237408, -37270.505698979585, -20744.87754641504, -187500.02235174447, -37331.257740409106, -9655.260700614537, 17606.938494078935, -50638.63702280963, -46925.744047849665, -21633.962885613786, -52883.46742194503, -52950.34384135531, -42674.68812163927, -0.007203125, 0.99366015625, 0.20525781250000003, 192.0, 0.0, 0.0, 0.0, 0.0, 0.0, 0.0, 0.0, 0.0, 0.0, 1.695419802217132E9, 0.0, 2023-09-22 16:56:42.217
200.0, 21628.397301244415, 33276.718351449774, -52573.53813332774, -55658.68236526041, -37306.17908313025, -20762.714238490375, -187500.02235174447, -37356.35874943242, -9695.896172034285, 17604.233932999843, -50682.58055240876, -46965.21722855774, -21672.989031432753, -52925.10872186527, -52987.60419936231, -42715.54711050357, -0.007203125, 0.99366015625, 0.20525781250000003, 192.0, 0.0, 0.0, 0.0, 0.0, 0.0, 0.0, 0.0, 0.0, 0.0, 1.695419802217136E9, 0.0, 2023-09-22 16:56:42.217
202.0, 21608.5489521681, 33251.57263893755, -52524.14077808151, -55612.9283443604, -37254.85947786087, -20716.602589679074, -187500.02235174447, -37308.79423723152, -9665.833075741897, 17597.886037574535, -50644.47082811247, -46929.40973394034, -21639.059083349595, -52882.32748297781, -52956.24470189151, -42674.710473383726, -0.0066015625, 0.987830078125, 0.20462890625000002, 192.0, 127.5, 104.0, 15.0, 88.0, 3.0, 48.0, 0.0, 0.0, 0.0, 1.695419802217139E9, 0.0, 2023-09-22 16:56:42.217
204.0, 21637.13683332644, 33283.62504048646, -52555.120295896566, -55642.00796389675, -37282.19566132971, -20746.442168526908, -187500.02235174447, -37339.214961435195, -9675.489029346589, 17634.699360692426, -50658.08304048575, -46935.735277621185, -21645.8093101751, -52892.07284356032, -52957.07171643636, -42681.10307229794, -0.0066015625, 0.987830078125, 0.20462890625000002, 192.0, 0.0, 0.0, 0.0, 0.0, 0.0, 0.0, 0.0, 0.0, 0.0, 1.695419802217143E9, 0.0, 2023-09-22 16:56:42.217
206.0, 21602.22340848725, 33245.35885397898, -52521.81619665816, -55610.13437630348, -37255.75354763908, -20714.00978732226, -187500.02235174447, -37303.563929028984, -9659.619290783321, 17610.045386558224, -50638.25704315389, -46920.983126280684, -21634.09699608052, -52872.60447413975, -52943.459504063074, -42663.15462150033, -0.0066015625, 0.987830078125, 0.20462890625000002, 192.0, 0.0, 0.0, 0.0, 0.0, 0.0, 0.0, 0.0, 0.0, 0.0, 1.695419802217146E9, 0.0, 2023-09-22 16:56:42.217
208.0, 21644.021170618675, 33291.22463360127, -52547.31953708167, -55637.5823184946, -37275.98187637113, -20741.882412658026, -187500.02235174447, -37329.91663574179, -9670.191665910681, 17638.05212236072, -50652.62921483866, -46930.974356052204, -21634.61108620299, -52888.27304700292, -52950.56735879986, -42676.83388910698, -0.0066015625, 0.987830078125, 0.20462890625000002, 192.0, 0.0, 0.0, 0.0, 0.0, 0.0, 0.0, 0.0, 0.0, 0.0, 1.695419802217149E9, 0.0, 2023-09-22 16:56:42.217
210.0, 21592.634510115924, 33242.542534177606, -52536.56834799866, -55623.59012646558, -37270.75156816859, -20731.064168341658, -187500.02235174447, -37316.796161746526, -9664.089639674383, 17606.02207255627, -50645.342546146225, -46929.029754284595, -21632.107690823996, -52880.964026566035, -52950.85793147778, -42671.44711869325, -0.0066015625, 0.987830078125, 0.20462890625000002, 192.0, 0.0, 0.0, 0.0, 0.0, 0.0, 0.0, 0.0, 0.0, 0.0, 1.695419802276917E9, 0.0, 2023-09-22 16:56:42.276
212.0, 21640.534298483646, 33289.77177021167, -52547.230130103846, -55641.91855691893, -37267.86819313386, -20749.146729606, -187500.02235174447, -37330.6095398199, -9682.373366638823, 17624.551668709715, -50664.36388067769, -46945.05595505905, -21649.117368354484, -52903.271067532434, -52961.2514926495, -42694.02238059311, -0.0066015625, 0.987830078125, 0.20462890625000002, 192.0, 0.0, 0.0, 15.0, 120.0, 3.0, 48.0, 0.0, 0.0, 0.0, 1.695419802276933E9, 0.0, 2023-09-22 16:56:42.276
214.0, 21585.481951890226, 33231.366661949956, -52544.994955658316, -55630.76503643573, -37282.01684737406, -20739.021389367746, -187500.02235174447, -37324.93219672825, -9679.847619515374, 17596.09789801811, -50657.21132245199, -46940.87617884591, -21653.56536550109, -52893.36924473873, -52956.71408852507, -42682.935915343274, -0.0066015625, 0.987830078125, 0.20462890625000002, 192.0, 0.0, 0.0, 0.0, 0.0, 0.0, 0.0, 0.0, 0.0, 0.0, 1.695419802276937E9, 0.0, 2023-09-22 16:56:42.276
216.0, 21642.747121184722, 33289.97293591177, -52544.88319693604, -55642.8349784416, -37275.736007182124, -20750.62194474005, -187500.02235174447, -37334.8116677775, -9683.110974205849, 17617.175593039465, -50663.62627311066, -46943.73720213619, -21652.447778278325, -52900.70061692007, -52959.5974635598, -42691.38487474738, -0.0066015625, 0.987830078125, 0.20462890625000002, 192.0, 0.0, 0.0, 0.0, 0.0, 0.0, 0.0, 0.0, 0.0, 0.0, 1.69541980227694E9, 0.0, 2023-09-22 16:56:42.276
218.0, 21595.40612642838, 33239.92738007634, -52540.435199789434, -55625.08769334408, -37285.70488520919, -20732.651142197985, -187500.02235174447, -37323.94871997222, -9674.282035146003, 17600.47883993135, -50653.79150555033, -46936.74110612168, -21650.056141621608, -52892.922209849625, -52960.044498448915, -42686.10986305593, -0.0066015625, 0.987830078125, 0.20462890625000002, 192.0, 0.0, 0.0, 0.0, 0.0, 0.0, 0.0, 0.0, 0.0, 0.0, 1.695419802276943E9, 0.0, 2023-09-22 16:56:42.276
220.0, 21647.37393228697, 33292.69984873532, -52536.47894102084, -55635.10127486006, -37262.526126209035, -20739.602534723585, -187500.02235174447, -37324.194589161234, -9668.783506009997, 17629.111424578598, -50649.29880491481, -46929.6779548738, -21647.0610078646, -52886.842535357784, -52950.50030356649, -42678.35380772994, -0.0066015625, 0.987830078125, 0.20462890625000002, 192.0, 0.0, 0.0, 0.0, 0.0, 0.0, 0.0, 0.0, 0.0, 0.0, 1.695419802276947E9, 0.0, 2023-09-22 16:56:42.276
222.0, 21600.36821369746, 33242.81075511107, -52539.09409512211, -55621.91374563143, -37280.8992601513, -20723.688092671408, -187500.02235174447, -37315.67857452376, -9670.72810777761, 17609.084261546643, -50651.31046191579, -46934.975318309705, -21644.490557252237, -52888.27304700292, -52958.27871063694, -42680.87955485339, -0.00530078125, 0.9899150390625, 0.20531445312500002, 192.0, 127.5, 112.0, 15.5, 0.0, 3.0, 56.0, 0.0, 0.0, 0.0, 1.69541980227695E9, 0.0, 2023-09-22 16:56:42.276
224.0, 21640.444891505827, 33281.79219744113, -52552.14751388401, -55653.697926246874, -37273.07614959194, -20754.98053490884, -187500.02235174447, -37335.52692360007, -9669.856389743853, 17626.1609943105, -50651.37751714916, -46935.02002179861, -21641.942458384332, -52889.0330063144, -52954.031879190436, -42679.89607809736, -0.00530078125, 0.9899150390625, 0.20531445312500002, 192.0, 0.0, 0.0, 0.0, 0.0, 0.0, 0.0, 0.0, 0.0, 0.0, 1.695419802276953E9, 0.0, 2023-09-22 16:56:42.276
226.0, 21601.9998910427, 33245.6494266569, -52546.179598114446, -55628.21693756783, -37288.43179803274, -20730.639485197007, -187500.02235174447, -37319.210150147694, -9686.262570174047, 17597.796630596713, -50663.5592178773, -46951.87323711792, -21659.935612670855, -52903.47223323253, -52970.75098404301, -42693.30712477054, -0.00530078125, 0.9899150390625, 0.20531445312500002, 192.0, 0.0, 0.0, 0.0, 0.0, 0.0, 0.0, 0.0, 0.0, 0.0, 1.695419802337178E9, 0.0, 2023-09-22 16:56:42.337
228.0, 21637.405054259903, 33278.461787517284, -52544.078534135646, -55643.885510431, -37264.336617509915, -20748.34206680561, -187500.02235174447, -37327.614406062894, -9668.738802521088, 17624.797537898725, -50648.87412177016, -46935.735277621185, -21647.686856709344, -52888.78713712539, -52949.829751232835, -42676.47626119569, -0.00530078125, 0.9899150390625, 0.20531445312500002, 192.0, 0.0, 0.0, 0.0, 0.0, 0.0, 0.0, 0.0, 0.0, 0.0, 1.695419802337191E9, 0.0, 2023-09-22 16:56:42.337
230.0, 21605.777335855644, 33249.85155461449, -52549.77822897175, -55633.849577170564, -37293.639754490825, -20738.30613354518, -187500.02235174447, -37327.10031594042, -9679.892323004286, 17609.263075502287, -50659.40179340861, -46948.07344056052, -21656.7616649582, -52898.19722154108, -52961.74323102752, -42686.48984271167, -0.00530078125, 0.9899150390625, 0.20531445312500002, 192.0, 0.0, 0.0, 0.0, 0.0, 0.0, 0.0, 0.0, 0.0, 0.0, 1.695419802337195E9, 0.0, 2023-09-22 16:56:42.337
232.0, 21628.732577411247, 33271.86802290297, -52548.906510937995, -55650.211054111845, -37275.42308275975, -20755.181700608933, -187500.02235174447, -37335.07988871096, -9682.44042187219, 17608.86074410209, -50663.06747949928, -46953.348452251965, -21656.024057391176, -52904.07573033282, -52964.8501235068, -42692.77068290361, -0.003650390625, 0.99195751953125, 0.20765722656250002, 192.0, 127.5, 120.0, 15.5, 8.0, 3.0, 72.0, 0.0, 0.0, 0.0, 1.695419802337199E9, 0.0, 2023-09-22 16:56:42.337
234.0, 21612.46050744778, 33255.84182212852, -52546.8501504481, -55632.955507392355, -37292.56687075697, -20737.277953300232, -187500.02235174447, -37324.552217072516, -9677.187761925194, 17613.19698252642, -50660.295863186824, -46952.029699329105, -21660.852034193522, -52903.695750677085, -52965.76654502947, -42691.65309568085, -0.003650390625, 0.99195751953125, 0.20765722656250002, 192.0, 0.0, 0.0, 0.0, 0.0, 0.0, 0.0, 0.0, 0.0, 0.0, 1.695419802337203E9, 0.0, 2023-09-22 16:56:42.337
236.0, 21625.692740165323, 33264.134319321434, -52537.574176499154, -55641.53857726319, -37264.13545180982, -20745.950430148892, -187500.02235174447, -37325.1110106839, -9665.38604085279, 17618.71786340688, -50646.63894732463, -46938.30572823354, -21644.42350201887, -52887.691901647086, -52952.31079486738, -42677.30327574054, -0.003650390625, 0.99195751953125, 0.20765722656250002, 192.0, 0.0, 0.0, 0.0, 0.0, 0.0, 0.0, 0.0, 0.0, 0.0, 1.695419802337206E9, 0.0, 2023-09-22 16:56:42.337
238.0, 21619.56836218457, 33260.647447186406, -52548.3030138377, -55640.01865864023, -37292.85744343489, -20744.85519467058, -187500.02235174447, -37333.22469392118, -9685.100279462371, 17617.846145373125, -50664.67680510006, -46954.77896389711, -21657.05223763612, -52905.014503599945, -52969.0522514644, -42696.235203294185, -0.003650390625, 0.99195751953125, 0.20765722656250002, 192.0, 0.0, 0.0, 0.0, 0.0, 0.0, 0.0, 0.0, 0.0, 0.0, 1.69541980233721E9, 0.0, 2023-09-22 16:56:42.337
