%OpenBCI Raw EXG Data
%Number of channels = 16
%Sample Rate = 125 Hz
%Board = OpenBCI_GUI$BoardCytonSerialDaisy
Sample Index, EXG Channel 0, EXG Channel 1, EXG Channel 2, EXG Channel 3, EXG Channel 4, EXG Channel 5, EXG Channel 6, EXG Channel 7, EXG Channel 8, EXG Channel 9, EXG Channel 10, EXG Channel 11, EXG Channel 12, EXG Channel 13, EXG Channel 14, EXG Channel 15, Accel Channel 0, Accel Channel 1, Accel Channel 2, Other, Other, Other, Other, Other, Other, Other, Analog Channel 0, Analog Channel 1, Analog Channel 2, Timestamp, Other, Timestamp (Formatted)
0.0, 21201.00959551449, 33104.29699472153, -52259.87610338642, -54745.9712321724, -37464.988227485206, -21467.8670725664, -187500.02235174447, -34275.506052435165, 0.0, 0.0, 0.0, 0.0, 0.0, 0.0, 0.0, 0.0, 0.0, 0.0, 0.0, 192.0, 0.0, 0.0, 0.0, 0.0, 0.0, 0.0, 0.0, 0.0, 0.0, 1.695419913147287E9, 0.0, 2023-09-22 16:58:33.147
224.0, 21242.33797101235, 33145.75948068613, -52258.57970220801, -54743.780761215785, -37465.971704241245, -21465.184863231763, -187500.02235174447, -34273.561450667556, -9520.725550738043, 19509.988368748232, -49937.97688936912, -46810.27493599355, -19845.510404766846, -51667.6442822986, -51889.46299427307, -42376.69466456112, 0.0, 0.0, 0.0, 192.0, 0.0, 0.0, 0.0, 0.0, 0.0, 0.0, 0.0, 0.0, 0.0, 1.695419913147297E9, 0.0, 2023-09-22 16:58:33.147
226.0, 21198.617958857772, 33097.09973300692, -52252.58943469399, -54740.80797920322, -37459.37793962693, -21459.842796306944, -187500.02235174447, -34265.648933130375, -9511.114300622261, 19487.234292892732, -49922.330668250404, -46797.86971782085, -19836.480300006904, -51652.64626176909, -51878.60004646779, -42362.747176021, 0.0, 0.0, 0.0, 192.0, 0.0, 0.0, 0.0, 0.0, 0.0, 0.0, 0.0, 0.0, 0.0, 1.695419913147301E9, 0.0, 2023-09-22 16:58:33.147
228.0, 21242.092101823342, 33143.43489926278, -52266.22399881172, -54755.53777879927, -37470.53146011013, -21474.617299391903, -187500.02235174447, -34279.90934609286, -9527.185204885627, 19509.898961770414, -49941.419058015235, -46810.27493599355, -19853.802901959767, -51670.974692222444, -51887.6972064611, -42376.91818200567, -0.004, 0.994, 0.21, 192.0, 127.5, 112.0, 15.5, 8.0, 3.0, 72.0, 0.0, 0.0, 0.0, 1.695419913147305E9, 0.0, 2023-09-22 16:58:33.147
230.0, 21202.641272859728, 33100.631308630866, -52245.39217297938, -54730.481473264874, -37460.9425617388, -21451.460892136205, -187500.02235174447, -34258.049340015576, -9510.756672710977, 19489.38006036044, -49921.414246727734, -46793.80170032999, -19844.459872777446, -51650.74636349039, -51877.30364528938, -42357.53921956292, -0.004, 0.994, 0.21, 192.0, 0.0, 0.0, 0.0, 0.0, 0.0, 0.0, 0.0, 0.0, 0.0, 1.695419913147308E9, 0.0, 2023-09-22 16:58:33.147
232.0, 21246.54009896995, 33148.12876559839, -52262.96064412125, -54758.91289221202, -37466.17286994134, -21480.808732606023, -187500.02235174447, -34281.87629960493, -9515.562297768867, 19523.24295321023, -49931.919566621735, -46800.753092855586, -19847.20913734545, -51663.33039561873, -51879.06943310135, -42371.26319065848, -0.004, 0.994, 0.21, 192.0, 0.0, 0.0, 0.0, 0.0, 0.0, 0.0, 0.0, 0.0, 0.0, 1.695419913147311E9, 0.0, 2023-09-22 16:58:33.147
234.0, 21202.23894145953, 33097.747933596125, -52246.57681543551, -54737.410514046016, -37466.48579436372, -21461.563880630005, -187500.02235174447, -34266.83357558651, -9514.064730890363, 19480.461714322773, -49927.248052030576, -46804.77640685754, -19840.660076220047, -51664.693852030505, -51887.60779948328, -42377.38756863923, -0.004, 0.994, 0.21, 192.0, 0.0, 0.0, 0.0, 0.0, 0.0, 0.0, 0.0, 0.0, 0.0, 1.695419913147315E9, 0.0, 2023-09-22 16:58:33.147
236.0, 21250.071674593888, 33147.43586152027, -52261.86540864294, -54765.79722950426, -37467.022236230645, -21489.414154221315, -187500.02235174447, -34289.83352063102, -9506.934524409118, 19513.966979261277, -49924.6328979293, -46803.27883997904, -19836.994390129377, -51667.487820087415, -51883.428023270135, -42380.09212971832, -0.004, 0.994, 0.21, 192.0, 0.0, 0.0, 0.0, 0.0, 0.0, 0.0, 0.0, 0.0, 0.0, 1.695419913147318E9, 0.0, 2023-09-22 16:58:33.147
238.0, 21200.830781558845, 33096.80916032901, -52257.2833010296, -54743.44548504895, -37476.29821017959, -21466.436560921262, -187500.02235174447, -34275.103721034975, -9515.137614624216, 19478.159484643875, -49929.08089507591, -46809.40321795979, -19857.580346772713, -51669.857104999675, -51896.3473315653, -42384.13779546473, -0.002, 0.994, 0.216, 192.0, 127.5, 120.0, 15.5, 8.0, 3.0, 96.0, 0.0, 0.0, 0.0, 1.695419913147321E9, 0.0, 2023-09-22 16:58:33.147
0.0, 10540.568595000339, 16572.65622289851, -25915.08190811657, -26749.53958386655, -18836.35149435419, -10656.641203956748, -93750.01117587223, -15530.237916736356, -4765.235455660279, 9752.02140236156, -24973.917004336956, -23411.708880866634, -9929.270735892145, -25842.706959570285, -25953.102225435046, -21200.026118758455, -0.007, 0.997, 0.20400000000000001, 192.0, 127.5, 80.0, 15.5, 32.0, 3.0, 0.0, 0.0, 0.0, 0.0, 1.695419913299024E9, 0.0, 2023-09-22 16:58:33.299
2.0, 21123.739614932492, 33192.02759170861, -51840.55737740486, -53513.92072605142, -37675.72047420985, -21330.87323079982, -187500.02235174447, -31076.77025518063, -10117.941810839393, 17690.757535786335, -49298.9852188808, -45481.419024636634, -17277.98787093018, -49596.553992814304, -51134.93515669527, -42239.54436058335, -0.007, 0.997, 0.20400000000000001, 192.0, 0.0, 0.0, 0.0, 0.0, 0.0, 0.0, 0.0, 0.0, 0.0, 1.695419913299036E9, 0.0, 2023-09-22 16:58:33.299
4.0, 21087.015698792424, 33152.844983678464, -51835.43882792459, -53491.01018798473, -37685.39877955899, -21308.6779485557, -187500.02235174447, -31064.610906196944, -10117.919459094937, 17673.54669255575, -49297.644114213486, -45482.111928714745, -17284.045193677568, -49599.66088529359, -51143.02648818809, -42243.05358446283, -0.007, 0.997, 0.20400000000000001, 192.0, 0.0, 0.0, 0.0, 0.0, 0.0, 0.0, 0.0, 0.0, 0.0, 1.695419913299039E9, 0.0, 2023-09-22 16:58:33.299
6.0, 21126.913562645146, 33194.84391150998, -51831.39316217818, -53496.21814444282, -37667.383273528016, -21312.522448602016, -187500.02235174447, -31056.787795637585, -10097.020578029225, 17707.141364472078, -49277.147564547966, -45455.356890601746, -17266.633184746886, -49577.44325130502, -51121.50175827763, -42219.74071499595, -0.007, 0.997, 0.20400000000000001, 192.0, 0.0, 0.0, 0.0, 0.0, 0.0, 0.0, 0.0, 0.0, 0.0, 1.695419913299042E9, 0.0, 2023-09-22 16:58:33.299
8.0, 21086.345146458763, 33152.66616972282, -51845.11713327374, -53496.128737465, -37695.88174770853, -21311.136640445788, -187500.02235174447, -31063.314505018534, -10119.864060862548, 17680.40867810353, -49297.778224680216, -45476.97102749003, -17290.370737358422, -49595.01172244689, -51141.618328287404, -42234.35875586972, -0.018000000000000002, 1.002, 0.178, 192.0, 127.5, 56.0, 15.5, 40.0, 2.5, 72.0, 0.0, 0.0, 0.0, 1.695419913299046E9, 0.0, 2023-09-22 16:58:33.299
10.0, 21119.00104510797, 33187.42313235082, -51836.243490724984, -53504.51064163574, -37669.50668925127, -21317.640998082283, -187500.02235174447, -31063.29215327408, -10111.035121802703, 17694.803201532748, -49288.546954220175, -45470.1313936867, -17278.23374011919, -49585.26636186438, -51128.58726126996, -42225.663927276604, -0.018000000000000002, 1.002, 0.178, 192.0, 0.0, 0.0, 0.0, 0.0, 0.0, 0.0, 0.0, 0.0, 0.0, 1.695419913299049E9, 0.0, 2023-09-22 16:58:33.299
12.0, 21092.424820950608, 33160.46692853772, -51840.46797042704, -53491.05489147364, -37692.28311685123, -21307.090974699375, -187500.02235174447, -31060.67699917281, -10117.360665483555, 17687.516532840316, -49295.1854223234, -45476.61339957874, -17290.169571658324, -49589.44613807752, -51138.64554627485, -42231.52008432389, -0.018000000000000002, 1.002, 0.178, 192.0, 0.0, 0.0, 0.0, 0.0, 0.0, 0.0, 0.0, 0.0, 0.0, 1.695419913299052E9, 0.0, 2023-09-22 16:58:33.299
14.0, 21112.295521771375, 33184.3832951049, -51840.35621170476, -53507.63988585948, -37680.101416123085, -21324.055948740956, -187500.02235174447, -31067.315467276036, -10109.604610157563, 17699.31825391272, -49285.685930929896, -45468.969102975025, -17282.122943654413, -49582.13711764063, -51131.068304904504, -42221.64061327465, -0.018000000000000002, 1.002, 0.178, 192.0, 0.0, 0.0, 0.0, 0.0, 0.0, 0.0, 0.0, 0.0, 0.0, 1.695419913299056E9, 0.0, 2023-09-22 16:58:33.299
16.0, 21088.043879037366, 33163.61852450592, -51851.30856648786, -53499.459147388836, -37707.70582052539, -21319.920876016724, -187500.02235174447, -31074.28921154609, -10134.996191858792, 17678.173503658, -49309.73640796381, -45493.33250443131, -17303.737080542694, -49603.21481266199, -51158.51624709562, -42244.70761355253, -0.018000000000000002, 1.002, 0.178, 192.0, 0.0, 0.0, 0.0, 0.0, 0.0, 0.0, 0.0, 0.0, 0.0, 1.695419913359376E9, 0.0, 2023-09-22 16:58:33.359
18.0, 21099.622082665217, 33179.84589098047, -51847.75463911947, -53512.91489755093, -37686.4940150373, -21332.147280233774, -187500.02235174447, -31072.54577547858, -10120.154633540467, 17690.06463170822, -49294.58192522311, -45476.76986178993, -17289.208446646746, -49585.579286286746, -51144.23348238868, -42227.899101722134, -0.024, 1.004, 0.17400000000000002, 192.0, 127.5, 32.0, 15.5, 48.0, 2.5, 56.0, 0.0, 0.0, 0.0, 1.695419913359387E9, 0.0, 2023-09-22 16:58:33.359
20.0, 21094.637643651684, 33174.12384439991, -51838.38925819269, -53490.49609786226, -37697.46872156486, -21308.83441076689, -187500.02235174447, -31061.23579278419, -10133.990363358304, 17680.520436825806, -49311.70336147587, -45492.68430384211, -17301.703071797263, -49596.59869630322, -51158.44919186225, -42239.74552628345, -0.024, 1.004, 0.17400000000000002, 192.0, 0.0, 0.0, 0.0, 0.0, 0.0, 0.0, 0.0, 0.0, 0.0, 1.695419913359391E9, 0.0, 2023-09-22 16:58:33.359
22.0, 21109.479201970007, 33182.75161775966, -51814.785816047886, -53481.89067624696, -37656.92265712293, -21300.11723042932, -187500.02235174447, -31040.985112307684, -10098.205220485357, 17706.873143538614, -49276.856991870045, -45458.75435575895, -17267.21433010272, -49559.85242841869, -51123.42400830078, -42203.78156945486, -0.024, 1.004, 0.17400000000000002, 192.0, 0.0, 0.0, 0.0, 0.0, 0.0, 0.0, 0.0, 0.0, 0.0, 1.695419913359394E9, 0.0, 2023-09-22 16:58:33.359
24.0, 21105.210018779042, 33178.638896779885, -51839.6856593711, -53497.358083410036, -37695.52411979725, -21314.31058815844, -187500.02235174447, -31062.353380006956, -10118.47825270632, 17698.31242541223, -49300.10280610357, -45478.133318201704, -17285.31924311152, -49583.52292579686, -51142.043011432055, -42227.36265985521, -0.024, 1.004, 0.17400000000000002, 192.0, 0.0, 0.0, 0.0, 0.0, 0.0, 0.0, 0.0, 0.0, 0.0, 1.695419913359397E9, 0.0, 2023-09-22 16:58:33.359
26.0, 21100.51615244343, 33173.92267869981, -51829.20269122156, -53492.619513585516, -37674.80405268718, -21310.287274156486, -187500.02235174447, -31051.266914757125, -10115.751339882772, 17692.009233475834, -49297.644114213486, -45472.4336233656, -17289.90135072486, -49577.5997135162, -51139.83018873098, -42220.67948826307, -0.024, 1.004, 0.17400000000000002, 192.0, 0.0, 0.0, 0.0, 0.0, 0.0, 0.0, 0.0, 0.0, 0.0, 1.6954199133594E9, 0.0, 2023-09-22 16:58:33.359
28.0, 21102.30429199985, 33185.45617883875, -51851.95676707706, -53505.337656180585, -37705.98473620233, -21323.385396407295, -187500.02235174447, -31069.729455677207, -10131.375209257032, 17694.892608510567, -49316.33017257812, -45483.87771652672, -17299.825525263015, -49591.83777473424, -51152.41422085932, -42234.60462505873, -0.032, 1.002, 0.17400000000000002, 192.0, 127.5, 0.0, 15.5, 40.0, 2.5, 56.0, 0.0, 0.0, 0.0, 1.695419913359404E9, 0.0, 2023-09-22 16:58:33.359
30.0, 21095.576416918804, 33169.38527457539, -51826.00639176445, -53488.93147575039, -37676.50278526578, -21308.610893322337, -187500.02235174447, -31048.584705422487, -10119.640543417996, 17689.192913674466, -49300.61689622604, -45471.15957393165, -17286.61564428993, -49577.64441700512, -51141.70773526523, -42220.97006094099, -0.032, 1.002, 0.17400000000000002, 192.0, 0.0, 0.0, 0.0, 0.0, 0.0, 0.0, 0.0, 0.0, 0.0, 1.695419913419589E9, 0.0, 2023-09-22 16:58:33.419
32.0, 21117.883457885204, 33190.66413529684, -51836.26584246944, -53494.80998454213, -37695.054733163684, -21316.232838181597, -187500.02235174447, -31061.727531162207, -10124.155595797969, 17698.13361145659, -49307.50123351828, -45475.7863850339, -17292.94118797078, -49589.69200726652, -51145.753401011636, -42229.374316856185, -0.032, 1.002, 0.17400000000000002, 192.0, 0.0, 0.0, 0.0, 0.0, 0.0, 0.0, 0.0, 0.0, 0.0, 1.695419913419605E9, 0.0, 2023-09-22 16:58:33.419
34.0, 21099.800896620858, 33167.865355952425, -51817.40097014916, -53483.81292627012, -37670.84779391859, -21305.682814798693, -187500.02235174447, -31047.91415308883, -10102.116775765035, 17697.910094012033, -49280.96971284982, -45455.51335281293, -17272.04230690507, -49568.14492561161, -51128.72137173669, -42209.83889220225, -0.032, 1.002, 0.17400000000000002, 192.0, 0.0, 0.0, 0.0, 0.0, 0.0, 0.0, 0.0, 0.0, 0.0, 1.695419913419609E9, 0.0, 2023-09-22 16:58:33.419
36.0, 21119.403376508162, 33195.58151907701, -51834.96944129103, -53501.49315613427, -37687.164567370965, -21323.11717547383, -187500.02235174447, -31067.24841204267, -10119.573488184631, 17701.79929754726, -49301.86859391554, -45473.41710012163, -17285.36394660043, -49591.167222400574, -51143.071191677, -42231.1177529237, -0.032, 1.002, 0.17400000000000002, 192.0, 0.0, 0.0, 0.0, 0.0, 0.0, 0.0, 0.0, 0.0, 0.0, 1.695419913419612E9, 0.0, 2023-09-22 16:58:33.419
38.0, 21084.44524818006, 33157.00240814715, -51832.55545288986, -53501.71667357882, -37682.91773592446, -21324.257114441054, -187500.02235174447, -31063.605077696455, -10117.04774106118, 17685.907207239536, -49295.878326401515, -45470.511373342444, -17280.647728520362, -49585.82515547576, -51139.74078175316, -42226.04390693235, -0.034, 0.996, 0.17200000000000001, 192.0, 127.0, 120.0, 15.5, 16.0, 2.5, 48.0, 0.0, 0.0, 0.0, 1.695419913419616E9, 0.0, 2023-09-22 16:58:33.419
40.0, 21120.006873608458, 33196.117960943935, -51841.71966811654, -53505.51647013622, -37686.046980148196, -21328.928629032212, -187500.02235174447, -31071.651705700366, -10127.843633633094, 17695.27258816631, -49307.50123351828, -45480.61436183624, -17293.656443793352, -49596.15166141411, -51144.74757251115, -42235.252825647935, -0.034, 0.996, 0.17200000000000001, 192.0, 0.0, 0.0, 0.0, 0.0, 0.0, 0.0, 0.0, 0.0, 0.0, 1.695419913419619E9, 0.0, 2023-09-22 16:58:33.419
42.0, 21088.289748226376, 33158.857602936936, -51832.2872319564, -53487.67977806089, -37682.493052779806, -21312.54480034647, -187500.02235174447, -31056.139595048382, -10115.10313929357, 17685.59428281716, -49295.65480895696, -45473.305341399355, -17294.215237404733, -49582.31593159628, -51141.30540386503, -42224.59104354275, -0.034, 0.996, 0.17200000000000001, 192.0, 0.0, 0.0, 0.0, 0.0, 0.0, 0.0, 0.0, 0.0, 0.0, 1.695419913419622E9, 0.0, 2023-09-22 16:58:33.419
44.0, 21120.476260242016, 33193.65926905385, -51852.336746732806, -53514.2336504738, -37696.239375619814, -21338.22695472562, -187500.02235174447, -31079.29600230408, -10118.075921306125, 17698.245370178865, -49305.15430035047, -45481.82135603683, -17292.76237401514, -49591.748367756416, -51145.86515973391, -42235.61045355922, -0.034, 0.996, 0.17200000000000001, 192.0, 0.0, 0.0, 0.0, 0.0, 0.0, 0.0, 0.0, 0.0, 0.0, 1.695419913419626E9, 0.0, 2023-09-22 16:58:33.419
46.0, 21078.164407988123, 33151.03449237758, -51844.96067106255, -53498.45331888835, -37696.37348608655, -21323.921838274222, -187500.02235174447, -31067.941316120785, -10126.52488071023, 17671.98207044388, -49309.26702133024, -45489.33154217381, -17300.294911896577, -49594.67644628006, -51156.325776139, -42239.54436058335, -0.034, 0.996, 0.17200000000000001, 192.0, 0.0, 0.0, 0.0, 0.0, 0.0, 0.0, 0.0, 0.0, 0.0, 1.69541991347988E9, 0.0, 2023-09-22 16:58:33.479
48.0, 21116.341187517784, 33194.73215278771, -51850.12392403173, -53513.33958069558, -37688.393913316, -21339.12102450383, -187500.02235174447, -31077.552566236565, -10125.116720809547, 17688.41060261853, -49310.630477742016, -45488.21395495105, -17290.95188271426, -49596.553992814304, -51148.86029349093, -42239.03027046088, -0.026000000000000002, 1.006, 0.168, 192.0, 127.5, 24.0, 15.5, 56.0, 2.5, 32.0, 0.0, 0.0, 0.0, 1.695419913479891E9, 0.0, 2023-09-22 16:58:33.479
50.0, 21082.053611523344, 33156.08598662448, -51829.3815051772, -53479.85666750153, -37680.369637056545, -21307.06862295492, -187500.02235174447, -31052.965647335728, -10120.512261451753, 17672.719678010904, -49305.06489337265, -45486.64933283917, -17287.889693723882, -49587.36742584317, -51145.73104926718, -42230.22368314549, -0.026000000000000002, 1.006, 0.168, 192.0, 0.0, 0.0, 0.0, 0.0, 0.0, 0.0, 0.0, 0.0, 0.0, 1.695419913479894E9, 0.0, 2023-09-22 16:58:33.479
52.0, 21113.301350271864, 33193.122827186926, -51842.56903440584, -53508.757473082245, -37679.050884133685, -21335.79061457999, -187500.02235174447, -31072.165795822835, -10113.1361857815, 17692.389213131573, -49302.96382939385, -45482.62601883722, -17286.19096114528, -49584.55110604181, -51137.93029045228, -42228.52495056688, -0.026000000000000002, 1.006, 0.168, 192.0, 0.0, 0.0, 0.0, 0.0, 0.0, 0.0, 0.0, 0.0, 0.0, 1.695419913479898E9, 0.0, 2023-09-22 16:58:33.479
54.0, 21077.963242288024, 33153.470832523206, -51838.053982025864, -53489.736138550776, -37693.735980240825, -21318.468012627127, -187500.02235174447, -31063.24744978517, -10128.96122085586, 17666.952927941435, -49315.50315803327, -45499.72510334553, -17307.00043523317, -49597.17984165905, -51155.610520316426, -42241.08663095077, -0.026000000000000002, 1.006, 0.168, 192.0, 0.0, 0.0, 0.0, 0.0, 0.0, 0.0, 0.0, 0.0, 0.0, 1.695419913479901E9, 0.0, 2023-09-22 16:58:33.479
56.0, 21108.428669980607, 33188.80894050705, -51841.7867233499, -53509.76330158273, -37680.995485901294, -21338.49517565908, -187500.02235174447, -31071.584650466997, -10118.746473639783, 17691.606902075637, -49304.394341038984, -45484.72708281602, -17282.10059190996, -49582.69591125201, -51136.36566834041, -42225.50746506542, -0.026000000000000002, 1.006, 0.168, 192.0, 0.0, 0.0, 0.0, 0.0, 0.0, 0.0, 0.0, 0.0, 0.0, 1.695419913479904E9, 0.0, 2023-09-22 16:58:33.479
58.0, 21079.17023648861, 33159.43874829278, -51834.74592384648, -53484.32701639259, -37690.33851508362, -21312.723614302115, -187500.02235174447, -31058.19595553827, -10131.554023212675, 17669.568082042704, -49319.88409994652, -45498.98749577851, -17299.199676418266, -49594.29646662432, -51156.437534861274, -42240.840761761756, -0.028, 1.004, 0.166, 192.0, 127.5, 16.0, 15.5, 48.0, 2.5, 24.0, 0.0, 0.0, 0.0, 1.695419913479907E9, 0.0, 2023-09-22 16:58:33.479
60.0, 21105.388832734687, 33185.56793756103, -51830.56614763333, -53499.70501657785, -37667.89736365049, -21327.073434242422, -187500.02235174447, -31058.039493327084, -10108.062339790147, 17698.89357076807, -49300.99687588178, -45476.747510045476, -17276.289138351578, -49569.68719597902, -51130.39775257084, -42214.46570330449, -0.028, 1.004, 0.166, 192.0, 0.0, 0.0, 0.0, 0.0, 0.0, 0.0, 0.0, 0.0, 0.0, 1.695419913540189E9, 0.0, 2023-09-22 16:58:33.540
62.0, 21081.204245234043, 33159.75167271515, -51841.40674369416, -53495.2793711757, -37697.289907609214, -21323.89948652977, -187500.02235174447, -31063.49331897418, -10132.917479624448, 17671.31151811022, -49322.70041974788, -45501.2897254574, -17299.199676418266, -49593.849431735216, -51155.051726705045, -42237.44329660455, -0.028, 1.004, 0.166, 192.0, 0.0, 0.0, 0.0, 0.0, 0.0, 0.0, 0.0, 0.0, 0.0, 1.695419913540202E9, 0.0, 2023-09-22 16:58:33.540
64.0, 21106.908751357645, 33182.684562526294, -51822.69833358507, -53491.121946707004, -37663.20349731487, -21318.758585305048, -187500.02235174447, -31045.656626898843, -10114.834918360106, 17685.50487583934, -49302.89677416048, -45482.62601883722, -17280.781838987095, -49576.68329199354, -51136.05274391804, -42215.963270183005, -0.028, 1.004, 0.166, 192.0, 0.0, 0.0, 0.0, 0.0, 0.0, 0.0, 0.0, 0.0, 0.0, 1.695419913540206E9, 0.0, 2023-09-22 16:58:33.540
66.0, 21085.94281505857, 33166.256030351644, -51837.02580178092, -53491.97131299631, -37696.46289306437, -21323.49715512957, -187500.02235174447, -31058.62063868292, -10122.47921496382, 17683.82849500519, -49310.764588208745, -45489.26448694045, -17290.571903058517, -49583.12059439666, -51143.36176435492, -42222.668793519595, -0.028, 1.004, 0.166, 192.0, 0.0, 0.0, 0.0, 0.0, 0.0, 0.0, 0.0, 0.0, 0.0, 1.695419913540209E9, 0.0, 2023-09-22 16:58:33.540
68.0, 21097.945701831068, 33180.49409156968, -51823.167720218626, -53489.4232141284, -37666.84683166109, -21319.8314690389, -187500.02235174447, -31044.740205376176, -10120.758130640761, 17687.337718884675, -49304.21552708335, -45479.69794031357, -17288.940225713282, -49573.352882069696, -51136.14215089585, -42215.09155214924, -0.032, 0.996, 0.166, 192.0, 127.5, 0.0, 15.5, 16.0, 2.5, 24.0, 0.0, 0.0, 0.0, 1.695419913540213E9, 0.0, 2023-09-22 16:58:33.540
70.0, 21090.346108716265, 33175.01791417813, -51840.35621170476, -53496.62047584301, -37700.77677974424, -21327.900448787266, -187500.02235174447, -31060.453481728255, -10132.559851713164, 17686.197779917453, -49315.391399310996, -45487.56575436184, -17299.154972929355, -49582.159469385086, -51145.261662633624, -42223.20523538652, -0.032, 0.996, 0.166, 192.0, 0.0, 0.0, 0.0, 0.0, 0.0, 0.0, 0.0, 0.0, 0.0, 1.695419913540216E9, 0.0, 2023-09-22 16:58:33.540
72.0, 21092.44717269506, 33176.73899850118, -51829.00152552146, -53498.07333923261, -37677.93329691092, -21328.07926274291, -187500.02235174447, -31053.01035082464, -10133.565680213653, 17674.351355356142, -49314.273812088235, -45490.940867774596, -17297.992682217682, -49585.646341520114, -51148.972052213205, -42225.90979646562, -0.032, 0.996, 0.166, 192.0, 0.0, 0.0, 0.0, 0.0, 0.0, 0.0, 0.0, 0.0, 0.0, 1.695419913540219E9, 0.0, 2023-09-22 16:58:33.540
74.0, 21093.74357387347, 33186.260841639145, -51834.38829593519, -53492.463051374325, -37689.667962749954, -21320.54672486147, -187500.02235174447, -31053.05505431355, -10129.497662722786, 17686.39894561755, -49314.02794289922, -45489.488004385, -17293.097650181968, -49583.36646358568, -51145.328717866985, -42224.23341563147, -0.032, 0.996, 0.166, 192.0, 0.0, 0.0, 0.0, 0.0, 0.0, 0.0, 0.0, 0.0, 0.0, 1.695419913540223E9, 0.0, 2023-09-22 16:58:33.540
76.0, 21082.053611523344, 33173.45329206625, -51823.45829289655, -53489.71378680632, -37667.718549694844, -21317.573942848914, -187500.02235174447, -31042.370920463913, -10117.852403861572, 17684.96843397241, -49303.634381727505, -45481.37432114772, -17283.28523436609, -49569.441326790016, -51133.48229330567, -42211.40351431412, -0.032, 0.996, 0.166, 192.0, 0.0, 0.0, 0.0, 0.0, 0.0, 0.0, 0.0, 0.0, 0.0, 1.695419913599199E9, 0.0, 2023-09-22 16:58:33.599
78.0, 21099.42091696512, 33190.865300996935, -51830.11911274423, -53485.91399024892, -37681.75544521278, -21314.914085258733, -187500.02235174447, -31048.89762984486, -10128.380075500021, 17685.30371013924, -49318.185367367914, -45495.59003062129, -17295.109307182945, -49585.60163803121, -51141.93125270978, -42226.55799705482, -0.032, 1.0, 0.17400000000000002, 192.0, 127.5, 0.0, 15.5, 32.0, 2.5, 56.0, 0.0, 0.0, 0.0, 1.695419913599219E9, 0.0, 2023-09-22 16:58:33.599
80.0, 21090.36846046072, 33177.40955083484, -51813.802339291855, -53475.766298266215, -37658.86725889055, -21306.554532832448, -187500.02235174447, -31039.889876829373, -10108.2858572347, 17692.255102664843, -49291.81030891065, -45469.84082100878, -17276.959690685235, -49558.310158051274, -51119.44539778774, -42199.512386263894, -0.032, 1.0, 0.17400000000000002, 192.0, 0.0, 0.0, 0.0, 0.0, 0.0, 0.0, 0.0, 0.0, 0.0, 1.695419913599227E9, 0.0, 2023-09-22 16:58:33.599
82.0, 21110.105050814756, 33201.32591740202, -51833.941261046086, -53492.23953392977, -37679.85554693408, -21323.586562107394, -187500.02235174447, -31059.62646718341, -10125.899031865481, 17698.625349834605, -49309.95992540836, -45484.66002758265, -17296.942150228282, -49576.45977454898, -51133.05761016102, -42217.86316846171, -0.032, 1.0, 0.17400000000000002, 192.0, 0.0, 0.0, 0.0, 0.0, 0.0, 0.0, 0.0, 0.0, 0.0, 1.695419913599231E9, 0.0, 2023-09-22 16:58:33.599
84.0, 21076.286861453875, 33165.60782976244, -51829.113284243744, -53489.08793796157, -37672.25595381927, -21318.624474838314, -187500.02235174447, -31050.77517637911, -10127.217784788345, 17676.83239899068, -49311.546899264686, -45490.89616428568, -17292.047118192568, -49575.87862919315, -51135.181025884274, -42218.198444628535, -0.032, 1.0, 0.17400000000000002, 192.0, 0.0, 0.0, 0.0, 0.0, 0.0, 0.0, 0.0, 0.0, 0.0, 1.695419913599234E9, 0.0, 2023-09-22 16:58:33.599
86.0, 21108.003986835956, 33202.21998718024, -51834.58946163529, -53496.665179331925, -37676.41337828796, -21326.693454586682, -187500.02235174447, -31057.324237504512, -10129.408255744966, 17689.483486352383, -49318.252422601276, -45494.695960843084, -17287.777935001606, -49582.517097296375, -51136.253909618135, -42223.69697376454, -0.032, 1.0, 0.17400000000000002, 192.0, 0.0, 0.0, 0.0, 0.0, 0.0, 0.0, 0.0, 0.0, 0.0, 1.695419913599238E9, 0.0, 2023-09-22 16:58:33.599
88.0, 21075.59395737576, 33165.38431231789, -51823.525348129915, -53483.76822278121, -37672.32300905264, -21312.45539336865, -187500.02235174447, -31044.784908865084, -10119.595839929085, 17677.078268179688, -49304.975486394826, -45486.85049853927, -17281.742963998673, -49572.90584718059, -51130.97889792668, -42212.319935836786, -0.032, 1.0, 0.168, 192.0, 127.5, 0.0, 15.5, 32.0, 2.5, 32.0, 0.0, 0.0, 0.0, 1.695419913599241E9, 0.0, 2023-09-22 16:58:33.599
90.0, 21112.22846653801, 33208.45612388326, -51833.53892964589, -53495.86051653153, -37679.87789867853, -21324.905315030257, -187500.02235174447, -31058.263010771636, -10127.217784788345, 17691.629253820094, -49313.42444579893, -45489.6891700851, -17288.314376868533, -49579.96899842847, -51134.912804950814, -42221.14887489664, -0.032, 1.0, 0.168, 192.0, 0.0, 0.0, 0.0, 0.0, 0.0, 0.0, 0.0, 0.0, 0.0, 1.69541991365967E9, 0.0, 2023-09-22 16:58:33.659
92.0, 21078.767905088414, 33168.42414956381, -51818.38444690519, -53478.35910062303, -37674.35701779807, -21307.89563749977, -187500.02235174447, -31041.566257663522, -10115.147842782479, 17679.78282925878, -49296.68298920191, -45479.16149844664, -17277.205559874244, -49564.65805347658, -51126.59795601344, -42205.033267144354, -0.032, 1.0, 0.168, 192.0, 0.0, 0.0, 0.0, 0.0, 0.0, 0.0, 0.0, 0.0, 0.0, 1.695419913659686E9, 0.0, 2023-09-22 16:58:33.659
94.0, 21111.669672926626, 33208.81375179455, -51838.88099657071, -53505.22589745831, -37683.253012091285, -21334.516565146037, -187500.02235174447, -31065.2814585306, -10129.408255744966, 17685.25900665033, -49313.51385277675, -45492.52784163092, -17290.974234458714, -49582.226524618454, -51136.36566834041, -42219.7630667404, -0.032, 1.0, 0.168, 192.0, 0.0, 0.0, 0.0, 0.0, 0.0, 0.0, 0.0, 0.0, 0.0, 1.69541991365969E9, 0.0, 2023-09-22 16:58:33.659
96.0, 21075.057515508834, 33168.84883270846, -51831.99665927848, -53487.34450189406, -37686.538718526215, -21318.31155041594, -187500.02235174447, -31053.077406058004, -10134.258584291767, 17666.97527968589, -49311.65865798696, -45494.87477479873, -17299.445545607276, -49581.3548065847, -51139.83018873098, -42218.98075568447, -0.032, 1.0, 0.168, 192.0, 0.0, 0.0, 0.0, 0.0, 0.0, 0.0, 0.0, 0.0, 0.0, 1.695419913659693E9, 0.0, 2023-09-22 16:58:33.659
98.0, 21118.12932707421, 33216.97213852074, -51832.66721161213, -53495.122908964506, -37679.31910506715, -21326.9840272646, -187500.02235174447, -31055.62550492591, -10132.425741246432, 17682.59914906015, -49313.60325975457, -45492.61724860874, -17292.1812286593, -49583.277056607854, -51137.03622067407, -42218.86899696219, -0.03, 1.004, 0.166, 192.0, 127.5, 8.0, 15.5, 48.0, 2.5, 24.0, 0.0, 0.0, 0.0, 1.695419913659697E9, 0.0, 2023-09-22 16:58:33.659
100.0, 21085.629890636195, 33183.869204982424, -51817.19980444906, -53469.79838249664, -37677.46391027736, -21303.201771164153, -187500.02235174447, -31037.38648145038, -10113.471461948331, 17686.68951829547, -49290.357445521055, -45473.50650709945, -17275.70799299574, -49559.584207485226, -51122.4181798003, -42197.03134262936, -0.03, 1.004, 0.166, 192.0, 0.0, 0.0, 0.0, 0.0, 0.0, 0.0, 0.0, 0.0, 0.0, 1.6954199136597E9, 0.0, 2023-09-22 16:58:33.659
102.0, 21110.216809537033, 33213.664080341354, -51838.65747912616, -53507.03638875919, -37681.12959636803, -21338.919858803732, -187500.02235174447, -31063.24744978517, -10127.731874910818, 17689.103506696643, -49306.294239317685, -45486.38111190571, -17287.107382667946, -49577.130326882645, -51132.40940957182, -42212.677563748075, -0.03, 1.004, 0.166, 192.0, 0.0, 0.0, 0.0, 0.0, 0.0, 0.0, 0.0, 0.0, 0.0, 1.695419913659707E9, 0.0, 2023-09-22 16:58:33.659
104.0, 21077.225634721, 33181.99165844818, -51826.92281328712, -53478.64967330095, -37685.354076070085, -21310.086108456388, -187500.02235174447, -31044.6284466539, -10135.934965125914, 17667.64583201955, -49313.71501847685, -45495.880603299214, -17295.891618238882, -49581.01953041786, -51142.71356376572, -42220.50067430743, -0.03, 1.004, 0.166, 192.0, 0.0, 0.0, 0.0, 0.0, 0.0, 0.0, 0.0, 0.0, 0.0, 1.695419913659711E9, 0.0, 2023-09-22 16:58:33.659
106.0, 21111.93789386009, 33220.70487984477, -51825.64876385317, -53490.92078100691, -37672.56887824165, -21322.357216162352, -187500.02235174447, -31047.19889726626, -10122.076883563625, 17692.568027087214, -49301.80153868217, -45480.21203043604, -17284.246359377667, -49566.200323844, -51126.28503159106, -42207.33549682325, -0.03, 1.004, 0.166, 192.0, 0.0, 0.0, 0.0, 0.0, 0.0, 0.0, 0.0, 0.0, 0.0, 1.69541991371951E9, 0.0, 2023-09-22 16:58:33.719
108.0, 21084.26643422442, 33194.933318487805, -51829.91794704413, -53479.052004701145, -37694.33947734111, -21314.064718969432, -187500.02235174447, -31047.690635644274, -10127.821281888639, 17683.06853569371, -49306.7412742068, -45487.47634738402, -17293.74585077117, -49571.98942565792, -51136.723296251694, -42215.672697505084, -0.032, 1.004, 0.17, 192.0, 127.5, 0.0, 15.5, 48.0, 2.5, 40.0, 0.0, 0.0, 0.0, 1.695419913719522E9, 0.0, 2023-09-22 16:58:33.719
110.0, 21105.433536223598, 33216.50275188717, -51825.827577808814, -53494.51941186422, -37676.23456433231, -21330.02386451052, -187500.02235174447, -31052.228039768703, -10117.204203272368, 17690.601073575148, -49298.962867136346, -45481.88841127019, -17284.89455996687, -49567.18380060003, -51128.45315080323, -42209.70478173552, -0.032, 1.004, 0.17, 192.0, 0.0, 0.0, 0.0, 0.0, 0.0, 0.0, 0.0, 0.0, 0.0, 1.695419913719526E9, 0.0, 2023-09-22 16:58:33.719
112.0, 21088.155637759643, 33200.878882512916, -51827.39219992068, -53477.845010500554, -37695.769988986256, -21315.74109980358, -187500.02235174447, -31050.842231612474, -10128.804758644672, 17679.15698041403, -49311.390437053495, -45495.612382365754, -17298.50677234015, -49579.56666702827, -51145.10520042243, -42224.63574703166, -0.032, 1.004, 0.17, 192.0, 0.0, 0.0, 0.0, 0.0, 0.0, 0.0, 0.0, 0.0, 0.0, 1.695419913719529E9, 0.0, 2023-09-22 16:58:33.719
114.0, 21108.339263002785, 33220.05667925557, -51821.35722891775, -53486.808060027135, -37674.64759047599, -21326.22406795312, -187500.02235174447, -31050.23873451218, -10113.67262764843, 17695.853733522144, -49292.68202694441, -45475.45110886706, -17284.827504733505, -49559.74066969642, -51127.82730195848, -42206.62024100068, -0.032, 1.004, 0.17, 192.0, 0.0, 0.0, 0.0, 0.0, 0.0, 0.0, 0.0, 0.0, 0.0, 1.695419913719532E9, 0.0, 2023-09-22 16:58:33.719
116.0, 21101.097297799268, 33214.33463267501, -51825.7828743199, -53475.341615121564, -37695.85939596408, -21318.445660882673, -187500.02235174447, -31052.76448163563, -10129.698828422885, 17686.041317706266, -49309.69170447489, -45492.14786197518, -17302.485382853196, -49576.88445769363, -51148.39090685736, -42227.45206683303, -0.032, 1.004, 0.17, 192.0, 0.0, 0.0, 0.0, 0.0, 0.0, 0.0, 0.0, 0.0, 0.0, 1.695419913719536E9, 0.0, 2023-09-22 16:58:33.719
118.0, 21108.629835680706, 33221.80011532308, -51809.3766938897, -53474.89458023245, -37667.36092178356, -21317.529239360007, -187500.02235174447, -31039.755766362643, -10109.582258413107, 17698.73710855688, -49286.647055941474, -45470.734890787, -17273.249301105654, -49555.382079527626, -51126.46384554671, -42206.32966832277, -0.034, 1.002, 0.168, 192.0, 127.0, 120.0, 15.5, 40.0, 2.5, 32.0, 0.0, 0.0, 0.0, 1.695419913719539E9, 0.0, 2023-09-22 16:58:33.719
120.0, 21099.800896620858, 33217.53093213212, -51833.31541220134, -53486.316321649116, -37699.882709966034, -21326.916972031235, -187500.02235174447, -31056.47487121521, -10123.4403399754, 17690.399907875053, -49304.684913716905, -45487.90103052867, -17286.70505126775, -49574.55987627028, -51138.4220288303, -42222.60173828623, -0.034, 1.002, 0.168, 192.0, 0.0, 0.0, 0.0, 0.0, 0.0, 0.0, 0.0, 0.0, 0.0, 1.695419913779859E9, 0.0, 2023-09-22 16:58:33.779
122.0, 21096.828114608303, 33212.43473439631, -51820.97724926201, -53484.25996115923, -37674.75934919827, -21322.200753951165, -187500.02235174447, -31043.734376875687, -10115.639581160496, 17684.67786129449, -49296.68298920191, -45479.94380950258, -17281.4300395763, -49563.76398369837, -51132.744685738646, -42210.844720702735, -0.034, 1.002, 0.168, 192.0, 0.0, 0.0, 0.0, 0.0, 0.0, 0.0, 0.0, 0.0, 0.0, 1.695419913779873E9, 0.0, 2023-09-22 16:58:33.779
124.0, 21104.025376322912, 33223.96823453525, -51827.2804411984, -53481.19777216885, -37688.05863714917, -21318.512716116038, -187500.02235174447, -31046.19306876577, -10127.016619088248, 17686.197779917453, -49308.462358529854, -45492.393731164186, -17292.672967037317, -49576.504478037896, -51141.52892130958, -42222.69114526405, -0.034, 1.002, 0.168, 192.0, 0.0, 0.0, 0.0, 0.0, 0.0, 0.0, 0.0, 0.0, 0.0, 1.695419913779877E9, 0.0, 2023-09-22 16:58:33.779
126.0, 21087.350974959252, 33203.941071503294, -51823.74886557447, -53489.311455406125, -37673.6417619755, -21325.195887708174, -187500.02235174447, -31042.348568719455, -10107.771767112228, 17690.981053230887, -49287.45171874186, -45473.864135010735, -17274.724516239705, -49554.957396382975, -51121.34529606644, -42201.702857220516, -0.034, 1.002, 0.168, 192.0, 0.0, 0.0, 0.0, 0.0, 0.0, 0.0, 0.0, 0.0, 0.0, 1.69541991377988E9, 0.0, 2023-09-22 16:58:33.779
128.0, 21103.019547822423, 33227.790382837105, -51837.7857610924, -53492.99949324125, -37695.41236107497, -21328.325131931917, -187500.02235174447, -31053.882068858395, -10143.467503007354, 17678.262910635818, -49321.605184269574, -45503.3907894362, -17306.88867651089, -49586.629818276146, -51148.323851623994, -42234.001127958436, -0.03, 0.998, 0.17, 192.0, 127.5, 8.0, 15.5, 24.0, 2.5, 40.0, 0.0, 0.0, 0.0, 1.695419913779883E9, 0.0, 2023-09-22 16:58:33.779
130.0, 21086.099277269757, 33207.1373709604, -51822.07248474032, -53480.236647157275, -37676.23456433231, -21314.958788747645, -187500.02235174447, -31036.38065294989, -10119.841709118095, 17683.560274071726, -49297.554707235664, -45482.02252173692, -17289.566074558028, -49559.80772492978, -51129.61544151491, -42211.67173524758, -0.03, 0.998, 0.17, 192.0, 0.0, 0.0, 0.0, 0.0, 0.0, 0.0, 0.0, 0.0, 0.0, 1.695419913779887E9, 0.0, 2023-09-22 16:58:33.779
132.0, 21116.14002181769, 33241.8943335884, -51829.26974645493, -53482.80709776963, -37686.8963464375, -21319.138564960787, -187500.02235174447, -31045.231943754192, -10124.557927198164, 17694.02089047681, -49307.970620151835, -45489.465652640545, -17291.264807136635, -49568.21198084498, -51136.00804042912, -42220.25480511842, -0.03, 0.998, 0.17, 192.0, 0.0, 0.0, 0.0, 0.0, 0.0, 0.0, 0.0, 0.0, 0.0, 1.69541991377989E9, 0.0, 2023-09-22 16:58:33.779
134.0, 21085.808704591836, 33211.87594078493, -51813.62352533621, -53470.6701005304, -37676.77100619925, -21309.0802799559, -187500.02235174447, -31033.832554081986, -10110.319865980133, 17688.83528576318, -49294.02313161172, -45477.86509726824, -17275.50682729564, -49551.604634714684, -51128.87783394788, -42205.39089505564, -0.03, 0.998, 0.17, 192.0, 0.0, 0.0, 0.0, 0.0, 0.0, 0.0, 0.0, 0.0, 0.0, 1.695419913779893E9, 0.0, 2023-09-22 16:58:33.779
136.0, 21109.32273975882, 33240.1956010098, -51835.72940060251, -53494.31824616412, -37693.17718662944, -21335.432986668708, -187500.02235174447, -31058.95591484975, -10121.3392759966, 17698.44653587896, -49308.61882074104, -45489.666818340644, -17284.08989716648, -49565.55212325479, -51137.147979396344, -42220.90300570762, -0.03, 0.998, 0.17, 192.0, 0.0, 0.0, 0.0, 0.0, 0.0, 0.0, 0.0, 0.0, 0.0, 1.695419913840188E9, 0.0, 2023-09-22 16:58:33.840
138.0, 21074.342259686266, 33203.181112191814, -51822.11718822923, -53476.34744362205, -37683.05184639119, -21316.657521326248, -187500.02235174447, -31037.60999889493, -10120.802834129672, 17679.626367047593, -49303.94730614988, -45488.16925146213, -17285.453353578254, -49561.57351274175, -51136.41037182932, -42215.605642271716, -0.026000000000000002, 0.996, 0.17, 192.0, 127.5, 24.0, 15.5, 16.0, 2.5, 40.0, 0.0, 0.0, 0.0, 1.695419913840199E9, 0.0, 2023-09-22 16:58:33.840
140.0, 21102.103126299757, 33232.97598755074, -51841.85377858327, -53505.337656180585, -37692.50663429578, -21345.871251329336, -187500.02235174447, -31063.761539907642, -10130.43643598991, 17688.16473342952, -49318.453588301374, -45500.32860044582, -17295.60104556096, -49577.37619607165, -51142.6241567879, -42228.3684883557, -0.026000000000000002, 0.996, 0.17, 192.0, 0.0, 0.0, 0.0, 0.0, 0.0, 0.0, 0.0, 0.0, 0.0, 1.695419913840202E9, 0.0, 2023-09-22 16:58:33.840
142.0, 21063.971050259002, 33190.440617852284, -51832.0860662563, -53488.417385627916, -37692.23841336232, -21328.749815076568, -187500.02235174447, -31049.165850778325, -10132.068113335146, 17667.087038408165, -49315.50315803327, -45503.234327225015, -17297.14331592838, -49577.3538443272, -51146.46865683421, -42229.44137208955, -0.026000000000000002, 0.996, 0.17, 192.0, 0.0, 0.0, 0.0, 0.0, 0.0, 0.0, 0.0, 0.0, 0.0, 1.695419913840206E9, 0.0, 2023-09-22 16:58:33.840
144.0, 21100.113821043233, 33233.311263717565, -51841.138522760695, -53501.87313579001, -37692.57368952915, -21341.065626271444, -187500.02235174447, -31058.128900304902, -10138.930098882925, 17680.766306014815, -49323.68389650391, -45507.68232437162, -17300.786650274593, -49583.992312430426, -51149.50849408013, -42236.52687508189, -0.026000000000000002, 0.996, 0.17, 192.0, 0.0, 0.0, 0.0, 0.0, 0.0, 0.0, 0.0, 0.0, 0.0, 1.695419913840209E9, 0.0, 2023-09-22 16:58:33.840
146.0, 21070.006021261936, 33200.029516223614, -51822.36305741824, -53470.781859252675, -37687.36573307106, -21312.142468946276, -187500.02235174447, -31035.039548282573, -10123.105063808569, 17681.347451370653, -49304.0367131277, -45487.69986482857, -17295.735156027695, -49561.9981958864, -51137.12562765189, -42216.18678762756, -0.026000000000000002, 0.996, 0.17, 192.0, 0.0, 0.0, 0.0, 0.0, 0.0, 0.0, 0.0, 0.0, 0.0, 1.695419913840212E9, 0.0, 2023-09-22 16:58:33.840
148.0, 21104.718280401026, 33238.34040622001, -51835.17060699113, -53494.854688031046, -37688.5950790161, -21336.59527738038, -187500.02235174447, -31053.211516524738, -10127.016619088248, 17699.340605657173, -49309.04350388569, -45489.77857706292, -17296.986853717193, -49566.80382094429, -51139.22669163069, -42220.992412685446, -0.03, 0.994, 0.178, 192.0, 127.5, 8.0, 15.5, 8.0, 2.5, 72.0, 0.0, 0.0, 0.0, 1.695419913840215E9, 0.0, 2023-09-22 16:58:33.840
150.0, 21068.933137528078, 33202.77878079162, -51829.06858075483, -53477.845010500554, -37697.26755586476, -21317.9315707602, -187500.02235174447, -31038.43701343978, -10124.423816731432, 17685.080192694688, -49304.28258231671, -45489.175079962624, -17289.834295491495, -49560.835905174725, -51136.63388927387, -42213.370467826186, -0.03, 0.994, 0.178, 192.0, 0.0, 0.0, 0.0, 0.0, 0.0, 0.0, 0.0, 0.0, 0.0, 1.695419913899373E9, 0.0, 2023-09-22 16:58:33.899
152.0, 21104.494762956474, 33243.235438255724, -51824.97821151951, -53487.63507457198, -37679.07323587814, -21326.55934411995, -187500.02235174447, -31039.66635938482, -10127.374246999532, 17693.864428265624, -49308.93174516341, -45492.52784163092, -17288.873170479914, -49564.18866684302, -51135.605709028925, -42214.57746202678, -0.03, 0.994, 0.178, 192.0, 0.0, 0.0, 0.0, 0.0, 0.0, 0.0, 0.0, 0.0, 0.0, 1.695419913899386E9, 0.0, 2023-09-22 16:58:33.899
154.0, 21070.162483473123, 33205.93037675982, -51833.985964535, -53484.19290592586, -37702.4978640673, -21323.631265596305, -187500.02235174447, -31043.488507686678, -10128.380075500021, 17681.861541493123, -49308.50706201876, -45495.72414108803, -17290.214275147235, -49565.55212325479, -51139.874892219894, -42214.17513062658, -0.03, 0.994, 0.178, 192.0, 0.0, 0.0, 0.0, 0.0, 0.0, 0.0, 0.0, 0.0, 0.0, 1.69541991389939E9, 0.0, 2023-09-22 16:58:33.899
156.0, 21098.16921927562, 33233.735946862216, -51833.87420581272, -53495.9275717649, -37683.58828825811, -21336.41646342474, -187500.02235174447, -31047.467118199722, -10131.19639530139, 17678.55348331374, -49312.66448648745, -45500.30624870137, -17295.08695543849, -49570.87183843516, -51141.64068003186, -42218.77958998437, -0.03, 0.994, 0.178, 192.0, 0.0, 0.0, 0.0, 0.0, 0.0, 0.0, 0.0, 0.0, 0.0, 1.695419913899393E9, 0.0, 2023-09-22 16:58:33.899
158.0, 21070.11777998421, 33204.11988545894, -51844.35717396226, -53489.71378680632, -37707.88463448103, -21330.9849895221, -187500.02235174447, -31051.915115346328, -10139.66770644995, 17668.964584942412, -49317.15718712297, -45507.05647552687, -17302.552438086565, -49576.39271931562, -51147.67565103479, -42225.35100285423, -0.024, 0.986, 0.17400000000000002, 192.0, 127.5, 32.0, 15.0, 104.0, 2.5, 56.0, 0.0, 0.0, 0.0, 1.695419913899397E9, 0.0, 2023-09-22 16:58:33.899
160.0, 21096.492838441474, 33226.85160956998, -51837.986926792495, -53493.804156041646, -37684.48235803632, -21333.086053500898, -187500.02235174447, -31046.036606554582, -10132.157520312969, 17672.809084988723, -49311.52454752023, -45499.36747543424, -17295.690452538784, -49568.79312620081, -51139.673726519795, -42217.12556089468, -0.024, 0.986, 0.17400000000000002, 192.0, 0.0, 0.0, 0.0, 0.0, 0.0, 0.0, 0.0, 0.0, 0.0, 1.6954199138994E9, 0.0, 2023-09-22 16:58:33.899
162.0, 21078.65614636614, 33213.41821115234, -51845.56416816285, -53485.80223152664, -37709.42690484845, -21325.97819876411, -187500.02235174447, -31050.037568812084, -10137.745456426795, 17669.9704134429, -49320.10761739107, -45509.738684861506, -17304.631150320907, -49576.48212629344, -51151.78837201457, -42227.899101722134, -0.024, 0.986, 0.17400000000000002, 192.0, 0.0, 0.0, 0.0, 0.0, 0.0, 0.0, 0.0, 0.0, 0.0, 1.695419913899403E9, 0.0, 2023-09-22 16:58:33.899
164.0, 21086.12162901421, 33218.134429232414, -51830.40968542215, -53492.15012695195, -37682.627163246536, -21331.767300578034, -187500.02235174447, -31041.588609407976, -10118.008866072758, 17682.73325952688, -49295.118367090035, -45489.21978345153, -17286.056850678546, -49553.23631205992, -51129.92836593728, -42204.09449387724, -0.024, 0.986, 0.17400000000000002, 192.0, 0.0, 0.0, 0.0, 0.0, 0.0, 0.0, 0.0, 0.0, 0.0, 1.695419913899407E9, 0.0, 2023-09-22 16:58:33.899
166.0, 21064.015753747914, 33202.7340773027, -51864.138467805205, -53514.63598187399, -37730.0575649807, -21356.913013090256, -187500.02235174447, -31074.15510107936, -10153.861064179071, 17654.12302662409, -49331.81993148565, -45528.4470949706, -17326.513508142652, -49594.810556746794, -51163.94772099826, -42242.13716294017, -0.024, 0.986, 0.17400000000000002, 192.0, 0.0, 0.0, 0.0, 0.0, 0.0, 0.0, 0.0, 0.0, 0.0, 1.695419913959395E9, 0.0, 2023-09-22 16:58:33.959
168.0, 21067.077942738288, 33204.72338255923, -51843.97719430652, -53504.555345124645, -37696.88757620902, -21351.436835698707, -187500.02235174447, -31059.3805979944, -10146.730857697828, 17651.552576011727, -49322.49925404778, -45521.830978611826, -17313.191868447288, -49587.34507409872, -51156.81751451702, -42234.64932854764, -0.026000000000000002, 0.994, 0.176, 192.0, 127.5, 24.0, 15.5, 8.0, 2.5, 64.0, 0.0, 0.0, 0.0, 1.695419913959407E9, 0.0, 2023-09-22 16:58:33.959
170.0, 21078.991422532967, 33219.02849901062, -51840.222101238025, -53486.85276351604, -37702.65432627849, -21332.54961163397, -187500.02235174447, -31048.80822286704, -10142.841654162605, 17666.26002386332, -49319.168844123946, -45514.36549596376, -17306.32988289951, -49582.24887636291, -51151.54250282556, -42229.77664825638, -0.026000000000000002, 0.994, 0.176, 192.0, 0.0, 0.0, 0.0, 0.0, 0.0, 0.0, 0.0, 0.0, 0.0, 1.695419913959411E9, 0.0, 2023-09-22 16:58:33.959
172.0, 21063.1216839697, 33202.7340773027, -51842.56903440584, -53502.744853823766, -37695.904099452986, -21345.603030395872, -187500.02235174447, -31050.842231612474, -10129.05062783368, 17667.288204108263, -49309.33407656361, -45503.860176069764, -17293.61174030444, -49568.748422711906, -51138.93611895277, -42215.49388354944, -0.026000000000000002, 0.994, 0.176, 192.0, 0.0, 0.0, 0.0, 0.0, 0.0, 0.0, 0.0, 0.0, 0.0, 1.695419913959414E9, 0.0, 2023-09-22 16:58:33.959
174.0, 21074.74459108646, 33221.12956298942, -51847.79934260838, -53499.12387122201, -37707.16937865846, -21342.205565238663, -187500.02235174447, -31052.76448163563, -10151.67059322245, 17657.006401658822, -49339.12895192253, -45531.15165604969, -17315.359987659453, -49596.62104804767, -51162.6289680754, -42242.941825740556, -0.026000000000000002, 0.994, 0.176, 192.0, 0.0, 0.0, 0.0, 0.0, 0.0, 0.0, 0.0, 0.0, 0.0, 1.695419913959417E9, 0.0, 2023-09-22 16:58:33.959
176.0, 21057.042009477856, 33198.24137666719, -51838.970403548534, -53499.660313088934, -37689.51150053877, -21339.411597181752, -187500.02235174447, -31042.013292552627, -10126.90486036597, 17667.914052953012, -49310.04933238618, -45504.93305980362, -17286.906216967847, -49564.52394300985, -51133.996383428144, -42212.85637770371, -0.026000000000000002, 0.994, 0.176, 192.0, 0.0, 0.0, 0.0, 0.0, 0.0, 0.0, 0.0, 0.0, 0.0, 1.695419913959421E9, 0.0, 2023-09-22 16:58:33.959
178.0, 21078.387925432675, 33223.588254879505, -51851.10740078776, -53504.46593814682, -37708.331669370134, -21348.37464670833, -187500.02235174447, -31055.826670626007, -10156.453866535887, 17656.693477236448, -49343.95692872488, -45532.91744386166, -17317.595162104986, -49594.49763232442, -51162.45015411975, -42247.50158160944, -0.028, 0.998, 0.17, 192.0, 127.5, 16.0, 15.5, 24.0, 2.5, 40.0, 0.0, 0.0, 0.0, 1.695419913959424E9, 0.0, 2023-09-22 16:58:33.959
180.0, 21058.31605891181, 33202.17528369132, -51826.252260953464, -53478.09087968956, -37685.08585513662, -21325.575867363914, -187500.02235174447, -31029.205742979735, -10132.515148224253, 17657.699305736936, -49317.827739456625, -45503.3907894362, -17296.629225805907, -49569.016643645366, -51143.00413644363, -42224.92631970958, -0.028, 0.998, 0.17, 192.0, 0.0, 0.0, 0.0, 0.0, 0.0, 0.0, 0.0, 0.0, 0.0, 1.695419914019696E9, 0.0, 2023-09-22 16:58:34.019
182.0, 21098.70566114255, 33248.30928424708, -51820.32904867281, -53467.496152817745, -37674.33466605362, -21318.445660882673, -187500.02235174447, -31022.790792321062, -10120.601668429574, 17687.382422373586, -49308.84233818559, -45479.89910601367, -17286.213312889733, -49561.394698786105, -51128.94488918125, -42218.39961032863, -0.028, 0.998, 0.17, 192.0, 0.0, 0.0, 0.0, 0.0, 0.0, 0.0, 0.0, 0.0, 0.0, 1.695419914019711E9, 0.0, 2023-09-22 16:58:34.019
184.0, 21069.156654972634, 33214.17817046382, -51814.8305195368, -53460.656519014425, -37668.83613691761, -21311.382509634794, -187500.02235174447, -31013.581873605475, -10103.122604265523, 17687.963567729425, -49287.362311764045, -45454.75339350145, -17273.80809471704, -49543.31213752177, -51112.91868840679, -42201.65815373161, -0.028, 0.998, 0.17, 192.0, 0.0, 0.0, 0.0, 0.0, 0.0, 0.0, 0.0, 0.0, 0.0, 1.695419914019715E9, 0.0, 2023-09-22 16:58:34.019
186.0, 21102.907789100147, 33250.097423803505, -51837.87516807022, -53482.58358032508, -37684.48235803632, -21332.951943034168, -187500.02235174447, -31035.486583171678, -10122.076883563625, 17686.823628762202, -49309.42348354143, -45469.90787624215, -17290.594254802974, -49571.43063204654, -51130.55421478203, -42229.91075872311, -0.028, 0.998, 0.17, 192.0, 0.0, 0.0, 0.0, 0.0, 0.0, 0.0, 0.0, 0.0, 0.0, 1.695419914019718E9, 0.0, 2023-09-22 16:58:34.019
188.0, 21070.386000917675, 33199.470722612234, -51826.945165031575, -53462.35525159303, -37677.35215155508, -21311.293102656975, -187500.02235174447, -31017.09109748496, -10105.536592666698, 17680.36397461462, -49287.16114606395, -45450.95359694405, -17274.590405772975, -49555.00209987189, -51117.25492683112, -42214.01866841539, -0.02, 0.998, 0.18, 192.0, 127.5, 48.0, 15.5, 24.0, 2.5, 80.0, 0.0, 0.0, 0.0, 1.695419914019722E9, 0.0, 2023-09-22 16:58:34.019
190.0, 21111.93789386009, 33237.66985388635, -51837.07050526983, -53474.17932440989, -37673.86527942005, -21322.31251267344, -187500.02235174447, -31025.763574333618, -10111.10217703607, 17694.870256766113, -49288.72576817581, -45449.79130623237, -17276.80322847405, -49566.31208256628, -51116.807891942015, -42222.959366197516, -0.02, 0.998, 0.18, 192.0, 0.0, 0.0, 0.0, 0.0, 0.0, 0.0, 0.0, 0.0, 0.0, 1.695419914019725E9, 0.0, 2023-09-22 16:58:34.019
192.0, 21075.482198653484, 33189.837120751996, -51840.89265357169, -53460.74592599225, -37679.475567278336, -21304.900503742756, -187500.02235174447, -31013.537170116568, -10108.71054037935, 17681.88389323758, -49278.42161398192, -45442.77285847341, -17277.406725574343, -49558.891303407116, -51114.81858668549, -42216.18678762756, -0.02, 0.998, 0.18, 192.0, 0.0, 0.0, 0.0, 0.0, 0.0, 0.0, 0.0, 0.0, 0.0, 1.695419914019728E9, 0.0, 2023-09-22 16:58:34.019
194.0, 21115.04478633938, 33225.73402234722, -51844.67009838463, -53467.11617316201, -37666.824479916635, -21307.64976831076, -187500.02235174447, -31013.693632327755, -10109.403444457466, 17698.826515534704, -49276.11938430302, -45437.25197759295, -17275.797399973562, -49557.840771417716, -51111.152900594825, -42213.0128399149, -0.02, 0.998, 0.18, 192.0, 0.0, 0.0, 0.0, 0.0, 0.0, 0.0, 0.0, 0.0, 0.0, 1.695419914019732E9, 0.0, 2023-09-22 16:58:34.019
196.0, 21068.46375089452, 33172.73803624368, -51863.55732244937, -53473.10644067603, -37694.18301512993, -21311.874248012813, -187500.02235174447, -31025.115373744415, -10115.840746860595, 17678.73229726938, -49276.94639884787, -45444.024556162905, -17283.396993088365, -49561.30529180828, -51122.0158484001, -42218.44431381754, -0.02, 0.998, 0.18, 192.0, 0.0, 0.0, 0.0, 0.0, 0.0, 0.0, 0.0, 0.0, 0.0, 1.695419914079898E9, 0.0, 2023-09-22 16:58:34.079
198.0, 21101.65609141065, 33206.6903360713, -51864.60785443877, -53483.81292627012, -37678.87207017804, -21321.01611149503, -187500.02235174447, -31027.194085978757, -10123.172119041934, 17688.231788662888, -49283.80838439565, -45450.64067252167, -17288.292025124076, -49569.150754112095, -51125.70388623523, -42226.13331391017, -0.024, 0.998, 0.176, 192.0, 127.5, 32.0, 15.5, 24.0, 2.5, 64.0, 0.0, 0.0, 0.0, 1.695419914079909E9, 0.0, 2023-09-22 16:58:34.079
200.0, 21060.953564757536, 33162.81386170553, -51877.348348778294, -53482.538876836166, -37703.391933845516, -21320.390262650286, -187500.02235174447, -31033.698443615252, -10128.692999922396, 17670.55155879874, -49286.870573386026, -45459.670777281615, -17294.550513571565, -49574.35871057019, -51132.99055492766, -42229.32961336728, -0.024, 0.998, 0.176, 192.0, 0.0, 0.0, 0.0, 0.0, 0.0, 0.0, 0.0, 0.0, 0.0, 1.695419914079913E9, 0.0, 2023-09-22 16:58:34.079
202.0, 21092.69304188407, 33196.117960943935, -51873.81677315436, -53489.8255455286, -37683.230660346824, -21328.727463332114, -187500.02235174447, -31033.72079535971, -10129.922345867437, 17674.64192803406, -49289.64218969848, -45463.40351860566, -17302.03834796409, -49576.213905359975, -51131.291822349056, -42230.916587223604, -0.024, 0.998, 0.176, 192.0, 0.0, 0.0, 0.0, 0.0, 0.0, 0.0, 0.0, 0.0, 0.0, 1.695419914079916E9, 0.0, 2023-09-22 16:58:34.079
204.0, 21072.30825094083, 33167.239507107675, -51849.5874821648, -53452.67694624388, -37679.78849170071, -21292.919968714712, -187500.02235174447, -31008.932710758774, -10123.820319631139, 17674.44076233396, -49279.96388434934, -45453.97108244552, -17290.90717922535, -49564.07690812075, -51124.74276122365, -42222.177055141576, -0.024, 0.998, 0.176, 192.0, 0.0, 0.0, 0.0, 0.0, 0.0, 0.0, 0.0, 0.0, 0.0, 1.69541991407992E9, 0.0, 2023-09-22 16:58:34.079
206.0, 21089.072059282313, 33180.605850291955, -51864.78666839441, -53488.59619958356, -37674.871107920546, -21331.74494883358, -187500.02235174447, -31030.546847647056, -10114.298476493177, 17687.091849695666, -49272.40899472344, -45446.50559979744, -17273.092838894467, -49556.70083245049, -51111.73404595066, -42214.130427137665, -0.024, 0.998, 0.176, 192.0, 0.0, 0.0, 0.0, 0.0, 0.0, 0.0, 0.0, 0.0, 0.0, 1.695419914079923E9, 0.0, 2023-09-22 16:58:34.079
208.0, 21068.59786136125, 33157.04711163606, -51868.56411320736, -53474.58165581008, -37698.36279134307, -21322.401919651264, -187500.02235174447, -31033.251408726148, -10140.38296227252, 17655.464131291406, -49301.64507647098, -45476.07695771181, -17299.04321420708, -49586.205135131495, -51142.93708121027, -42242.584197829274, -0.028, 0.998, 0.18, 192.0, 127.5, 16.0, 15.5, 24.0, 2.5, 80.0, 0.0, 0.0, 0.0, 1.695419914079926E9, 0.0, 2023-09-22 16:58:34.079
210.0, 21086.613367392227, 33166.32308558501, -51858.30466250237, -53484.975216981795, -37677.28509632171, -21334.203640723663, -187500.02235174447, -31034.05607152654, -10115.013732315747, 17672.719678010904, -49278.62277968202, -45454.23930337898, -17276.244434862667, -49566.93793141103, -51122.08290363347, -42222.62409003068, -0.028, 0.998, 0.18, 192.0, 0.0, 0.0, 0.0, 0.0, 0.0, 0.0, 0.0, 0.0, 0.0, 1.695419914140254E9, 0.0, 2023-09-22 16:58:34.140
212.0, 21079.617271377716, 33155.99657964666, -51852.26969149944, -53462.73523124877, -37689.51150053877, -21314.51175385854, -187500.02235174447, -31025.6741673558, -10129.117683067047, 17663.130779639578, -49292.90554438896, -45469.2820273974, -17291.309510625542, -49583.0535391633, -51136.7679997406, -42239.36554662771, -0.028, 0.998, 0.18, 192.0, 0.0, 0.0, 0.0, 0.0, 0.0, 0.0, 0.0, 0.0, 0.0, 1.695419914140268E9, 0.0, 2023-09-22 16:58:34.140
214.0, 21085.764001102925, 33157.13651861388, -51848.045211797384, -53475.94511222185, -37670.244296818295, -21326.64875109777, -187500.02235174447, -31023.19312372126, -10105.827165344615, 17684.633157805583, -49267.491610943274, -45442.549341028855, -17268.242510347667, -49557.9972336289, -51112.56106049551, -42213.571633526284, -0.028, 0.998, 0.18, 192.0, 0.0, 0.0, 0.0, 0.0, 0.0, 0.0, 0.0, 0.0, 0.0, 1.695419914140272E9, 0.0, 2023-09-22 16:58:34.140
216.0, 21084.154675502145, 33154.00727439013, -51857.32118574634, -53469.41840284091, -37690.718494739354, -21319.563248105438, -187500.02235174447, -31026.210609222726, -10132.157520312969, 17670.10452390963, -49294.201945567365, -45467.1809634186, -17292.98589145969, -49581.91360019608, -51135.829226473485, -42236.41511635961, -0.028, 0.998, 0.18, 192.0, 0.0, 0.0, 0.0, 0.0, 0.0, 0.0, 0.0, 0.0, 0.0, 1.695419914140275E9, 0.0, 2023-09-22 16:58:34.140
218.0, 21080.064306266824, 33150.43099527729, -51849.34161297579, -53471.9217982199, -37669.86431716255, -21321.66431208424, -187500.02235174447, -31020.66737659781, -10110.47632819132, 17674.59722454515, -49274.80063138016, -45449.21016087654, -17274.90333019535, -49561.30529180828, -51119.13247336537, -42216.63382251666, -0.024, 1.006, 0.18, 192.0, 127.5, 32.0, 15.5, 56.0, 2.5, 80.0, 0.0, 0.0, 0.0, 1.695419914140278E9, 0.0, 2023-09-22 16:58:34.140
220.0, 21088.200341248554, 33156.756538958136, -51859.176380536126, -53471.273597630694, -37690.00323891678, -21323.720672574123, -187500.02235174447, -31029.33985344647, -10122.501566708275, 17676.005384445834, -49286.40118675247, -45460.922474971114, -17289.65548153585, -49574.17989661454, -51132.43176131627, -42230.491904078954, -0.024, 1.006, 0.18, 192.0, 0.0, 0.0, 0.0, 0.0, 0.0, 0.0, 0.0, 0.0, 0.0, 1.695419914140282E9, 0.0, 2023-09-22 16:58:34.140
222.0, 21070.386000917675, 33134.15892531382, -51858.17055203564, -53482.471821602805, -37681.017837645755, -21335.120062246333, -187500.02235174447, -31031.396213936358, -10110.744549124784, 17674.798390245247, -49274.68887265788, -45450.84183822177, -17273.98690867268, -49564.92627441005, -51124.54159552355, -42222.177055141576, -0.024, 1.006, 0.18, 192.0, 0.0, 0.0, 0.0, 0.0, 0.0, 0.0, 0.0, 0.0, 0.0, 1.695419914140285E9, 0.0, 2023-09-22 16:58:34.140
224.0, 21081.897149312157, 33152.55441100054, -51873.90618013217, -53486.33867339357, -37701.46968382236, -21337.064664013942, -187500.02235174447, -31040.985112307684, -10145.09918035259, 17658.995706915346, -49311.94923066488, -45483.69890257107, -17304.564095087542, -49599.48207133795, -51151.87777899239, -42253.24597993446, -0.024, 1.006, 0.18, 192.0, 0.0, 0.0, 0.0, 0.0, 0.0, 0.0, 0.0, 0.0, 0.0, 1.695419914140288E9, 0.0, 2023-09-22 16:58:34.140
226.0, 21056.840843777758, 33124.525323453585, -51862.8420666268, -53481.44364135786, -37687.164567370965, -21328.347483676374, -187500.02235174447, -31026.836458067475, -10126.301363265678, 17661.63321276107, -49289.55278272066, -45465.90691398465, -17286.392126845378, -49574.62693150365, -51131.18006362678, -42227.40736334412, -0.024, 1.006, 0.18, 192.0, 0.0, 0.0, 0.0, 0.0, 0.0, 0.0, 0.0, 0.0, 0.0, 1.695419914199687E9, 0.0, 2023-09-22 16:58:34.199
228.0, 21083.84175107977, 33156.80124244705, -51869.234665541015, -53480.34840587955, -37694.585346530126, -21326.760509820047, -187500.02235174447, -31028.80341157954, -10143.467503007354, 17665.053029662733, -49306.51775676224, -45479.85440252476, -17304.05000496507, -49591.07781542275, -51142.91472946581, -42242.83006701828, -0.024, 1.002, 0.176, 192.0, 127.5, 32.0, 15.5, 40.0, 2.5, 64.0, 0.0, 0.0, 0.0, 1.695419914199698E9, 0.0, 2023-09-22 16:58:34.199
230.0, 21053.957468743025, 33121.75370714113, -51859.109325302765, -53473.32995812059, -37684.46000629187, -21316.8810387708, -187500.02235174447, -31014.788867806063, -10124.982610342815, 17663.98014592888, -49283.13783206199, -45461.74948951596, -17286.101554167457, -49566.982634899934, -51123.31224957851, -42218.22079637299, -0.024, 1.002, 0.176, 192.0, 0.0, 0.0, 0.0, 0.0, 0.0, 0.0, 0.0, 0.0, 0.0, 1.695419914199702E9, 0.0, 2023-09-22 16:58:34.199
232.0, 21088.870893582214, 33162.500937283156, -51864.697261416586, -53477.26386514472, -37691.36669532856, -21322.826602795914, -187500.02235174447, -31022.969606276707, -10139.220671560844, 17667.668183764003, -49299.76752993674, -45474.82526002231, -17300.33961538549, -49584.86403046418, -51134.488121806164, -42233.46468609151, -0.024, 1.002, 0.176, 192.0, 0.0, 0.0, 0.0, 0.0, 0.0, 0.0, 0.0, 0.0, 0.0, 1.695419914199705E9, 0.0, 2023-09-22 16:58:34.199
234.0, 21058.047837978345, 33128.21336128871, -51851.621490910235, -53460.7682777367, -37682.761273713266, -21306.93451248819, -187500.02235174447, -31007.502199113635, -10119.95346784037, 17669.836302976168, -49275.31472150263, -45451.73590799999, -17283.88873146638, -49560.32181505225, -51118.126644864875, -42211.895252692135, -0.024, 1.002, 0.176, 192.0, 0.0, 0.0, 0.0, 0.0, 0.0, 0.0, 0.0, 0.0, 0.0, 1.695419914199709E9, 0.0, 2023-09-22 16:58:34.199
236.0, 21094.0788500403, 33170.50286179815, -51857.7905723799, -53472.92762672039, -37682.11307312406, -21317.79746029347, -187500.02235174447, -31016.644062595853, -10135.219709303345, 17682.554445571237, -49289.39632050948, -45461.213047649035, -17293.902312982358, -49571.452983790994, -51124.60865075692, -42222.78055224187, -0.024, 1.002, 0.176, 192.0, 0.0, 0.0, 0.0, 0.0, 0.0, 0.0, 0.0, 0.0, 0.0, 1.695419914199713E9, 0.0, 2023-09-22 16:58:34.199
238.0, 21057.846672278247, 33127.47575372169, -51857.723517146536, -53467.47380107329, -37688.349209827094, -21311.136640445788, -187500.02235174447, -31013.38070790538, -10130.414084245454, 17672.11618091061, -49283.89779137347, -45458.46378308103, -17292.3823943594, -49563.33930055372, -51122.23936584465, -42216.857339961214, -0.022, 0.998, 0.17400000000000002, 192.0, 127.5, 40.0, 15.5, 24.0, 2.5, 56.0, 0.0, 0.0, 0.0, 1.695419914199718E9, 0.0, 2023-09-22 16:58:34.199
240.0, 21103.444230967074, 33174.012085677634, -51866.8430288843, -53486.517487349214, -37687.25397434878, -21329.26390519904, -187500.02235174447, -31028.490487157167, -10135.353819770076, 17683.91790198301, -49294.961904878845, -45466.93509422959, -17293.18705715979, -49574.13519312563, -51131.11300839341, -42230.290738378855, -0.022, 0.998, 0.17400000000000002, 192.0, 0.0, 0.0, 0.0, 0.0, 0.0, 0.0, 0.0, 0.0, 0.0, 1.695419914260103E9, 0.0, 2023-09-22 16:58:34.260
242.0, 21060.573585101796, 33124.257102520125, -51855.77891537892, -53465.618606283504, -37686.35990457057, -21307.560361332937, -187500.02235174447, -31013.358356160923, -10128.96122085586, 17661.856730205625, -49291.072701343626, -45469.97493147552, -17289.163743157835, -49571.52003902436, -51132.56587178301, -42229.083744178264, -0.022, 0.998, 0.17400000000000002, 192.0, 0.0, 0.0, 0.0, 0.0, 0.0, 0.0, 0.0, 0.0, 0.0, 1.695419914260116E9, 0.0, 2023-09-22 16:58:34.260
244.0, 21096.917521586125, 33166.390140818374, -51854.281348500415, -53476.190981410866, -37673.97703814233, -21319.65265508326, -187500.02235174447, -31017.538132374066, -10124.043837075691, 17682.64385254906, -49287.45171874186, -45459.894294726175, -17279.083106408492, -49561.61821623066, -51118.99836289864, -42214.890386449144, -0.022, 0.998, 0.17400000000000002, 192.0, 0.0, 0.0, 0.0, 0.0, 0.0, 0.0, 0.0, 0.0, 0.0, 1.69541991426012E9, 0.0, 2023-09-22 16:58:34.260
246.0, 21051.521128597396, 33120.45730596272, -51863.713784660555, -53475.743946521754, -37701.067352422164, -21320.45731788365, -187500.02235174447, -31024.86950455541, -10141.411142517465, 17663.801331973234, -49302.29327706019, -45472.85830651025, -17295.37752811641, -49570.24598959041, -51132.543520038555, -42225.59687204324, -0.022, 0.998, 0.17400000000000002, 192.0, 0.0, 0.0, 0.0, 0.0, 0.0, 0.0, 0.0, 0.0, 0.0, 1.695419914260124E9, 0.0, 2023-09-22 16:58:34.260
248.0, 21085.205207491545, 33157.0247598916, -51862.88677011571, -53487.81388852762, -37688.148044126996, -21333.041350011987, -187500.02235174447, -31030.278626713593, -10146.52969199773, 17662.192006372454, -49316.017248155746, -45484.45886188255, -17300.920760741326, -49580.88541995113, -51140.009002686624, -42235.29752913684, -0.022, 0.998, 0.176, 192.0, 127.5, 40.0, 15.5, 24.0, 2.5, 64.0, 0.0, 0.0, 0.0, 1.695419914260127E9, 0.0, 2023-09-22 16:58:34.260
250.0, 21065.73683807097, 33130.56029445652, -51839.08216227081, -53447.647803741434, -37679.36380855606, -21292.472933825607, -187500.02235174447, -30997.153341430825, -10130.615249945551, 17662.773151728292, -49304.2378788278, -45474.57939083331, -17287.84499023497, -49565.41801278806, -51128.43079905878, -42219.3160318513, -0.022, 0.998, 0.176, 192.0, 0.0, 0.0, 0.0, 0.0, 0.0, 0.0, 0.0, 0.0, 0.0, 1.69541991426013E9, 0.0, 2023-09-22 16:58:34.260
252.0, 21098.929178587103, 33161.80803320504, -51835.28236571341, -53460.63416726997, -37657.48145073431, -21307.180381677197, -187500.02235174447, -30999.90260599883, -10103.256714732255, 17690.332852641684, -49277.080509314605, -45447.91375969812, -17264.80034170155, -49543.11097182167, -51098.993551611136, -42193.29860130532, -0.022, 0.998, 0.176, 192.0, 0.0, 0.0, 0.0, 0.0, 0.0, 0.0, 0.0, 0.0, 0.0, 1.695419914260134E9, 0.0, 2023-09-22 16:58:34.260
254.0, 21065.848596793247, 33131.856695634924, -51858.818752624844, -53468.23376038477, -37701.73790475582, -21317.30572191545, -187500.02235174447, -31021.00265276464, -10127.307191766167, 17663.577814528682, -49299.00757062526, -45470.176097175616, -17291.443621092276, -49567.38496630013, -51126.84382520245, -42219.874825462684, -0.022, 0.998, 0.176, 192.0, 0.0, 0.0, 0.0, 0.0, 0.0, 0.0, 0.0, 0.0, 0.0, 1.695419914260137E9, 0.0, 2023-09-22 16:58:34.260
0.0, 21092.491876183973, 33158.365864558924, -51848.24637749748, -53469.06077492962, -37678.24622133329, -21319.54089636098, -187500.02235174447, -31013.09013522746, -10125.630810932018, 17667.64583201955, -49295.744215934785, -45464.58816106179, -17287.777935001606, -49564.23337033193, -51126.2179763577, -42217.03615391686, -0.022, 0.998, 0.176, 192.0, 0.0, 0.0, 0.0, 0.0, 0.0, 0.0, 0.0, 0.0, 0.0, 1.695419914319468E9, 0.0, 2023-09-22 16:58:34.319
2.0, 21078.79025683287, 33144.597189974455, -51849.54277867589, -53456.23087361227, -37694.76416048576, -21304.855800253845, -187500.02235174447, -31010.720850315196, -10124.692037664896, 17673.233768133374, -49293.017303111235, -45458.642597036676, -17289.499019324663, -49561.84173367521, -51127.38026706938, -42214.890386449144, -0.028, 1.0, 0.178, 192.0, 127.5, 16.0, 15.5, 32.0, 2.5, 72.0, 0.0, 0.0, 0.0, 1.69541991431948E9, 0.0, 2023-09-22 16:58:34.319
4.0, 21082.143018501167, 33150.45334702174, -51852.89554034419, -53475.7215947773, -37683.387122558015, -21322.93836151819, -187500.02235174447, -31018.208684707726, -10120.95929634086, 17673.9713757004, -49287.04938734167, -45452.898198711664, -17282.771144243616, -49556.007928372375, -51120.47357803269, -42209.525967779875, -0.028, 1.0, 0.178, 192.0, 0.0, 0.0, 0.0, 0.0, 0.0, 0.0, 0.0, 0.0, 0.0, 1.695419914319483E9, 0.0, 2023-09-22 16:58:34.319
6.0, 21073.805817819335, 33144.21721031871, -51854.415458967145, -53463.7187080048, -37696.865224464564, -21312.522448602016, -187500.02235174447, -31018.543960874555, -10135.689095936907, 17663.644869762047, -49301.0862828596, -45468.410309363644, -17293.32116762652, -49571.69885298, -51131.761208982614, -42224.79220924285, -0.028, 1.0, 0.178, 192.0, 0.0, 0.0, 0.0, 0.0, 0.0, 0.0, 0.0, 0.0, 0.0, 1.695419914319487E9, 0.0, 2023-09-22 16:58:34.319
8.0, 21076.68919285407, 33147.30175105354, -51844.37952570672, -53467.31733886211, -37673.530003253225, -21317.37277714882, -187500.02235174447, -31014.408888150323, -10120.735778896305, 17670.797427987745, -49282.55668670615, -45451.95942544454, -17276.780876729594, -49553.54923648229, -51114.88564191886, -42206.374371811675, -0.028, 1.0, 0.178, 192.0, 0.0, 0.0, 0.0, 0.0, 0.0, 0.0, 0.0, 0.0, 0.0, 1.69541991431949E9, 0.0, 2023-09-22 16:58:34.319
10.0, 21084.802876091348, 33159.818727948514, -51844.78185710691, -53455.7167834898, -37684.21413710286, -21306.196904921166, -187500.02235174447, -31013.403059649834, -10134.370343014043, 17670.372744843095, -49295.76656767924, -45463.35881511674, -17292.360042614942, -49566.40148954409, -51126.32973507998, -42219.56190104031, -0.028, 1.0, 0.178, 192.0, 0.0, 0.0, 0.0, 0.0, 0.0, 0.0, 0.0, 0.0, 0.0, 1.695419914319494E9, 0.0, 2023-09-22 16:58:34.319
12.0, 21075.929233542593, 33146.36297778642, -51835.99762153598, -53458.130771890974, -37666.08687234961, -21307.135678188286, -187500.02235174447, -31001.914262999806, -10105.089557777592, 17682.21916940441, -49268.676253399404, -45438.66013749363, -17270.94707142676, -49538.50651246387, -51103.30743829101, -42193.030380371856, -0.028, 0.998, 0.17400000000000002, 192.0, 127.5, 16.0, 15.5, 24.0, 2.5, 56.0, 0.0, 0.0, 0.0, 1.695419914319497E9, 0.0, 2023-09-22 16:58:34.319
14.0, 21081.964204545522, 33158.94700991476, -51859.668118914145, -53472.14531566445, -37696.41818957546, -21320.07733822791, -187500.02235174447, -31019.03569925257, -10130.212918545356, 17669.72454425389, -49299.096977603076, -45468.0303297079, -17291.33186237, -49568.18962910052, -51127.290860091554, -42220.724191751986, -0.028, 0.998, 0.17400000000000002, 192.0, 0.0, 0.0, 0.0, 0.0, 0.0, 0.0, 0.0, 0.0, 0.0, 1.695419914379307E9, 0.0, 2023-09-22 16:58:34.379
16.0, 21060.26066067942, 33134.02481484709, -51854.30370024487, -53472.83821974257, -37681.710741723866, -21319.809117294448, -187500.02235174447, -31013.671280583298, -10125.966087098848, 17659.174520870987, -49292.19028856639, -45461.59302730478, -17287.062679179035, -49558.35486154019, -51123.2675460896, -42212.5658050258, -0.028, 0.998, 0.17400000000000002, 192.0, 0.0, 0.0, 0.0, 0.0, 0.0, 0.0, 0.0, 0.0, 0.0, 1.695419914379322E9, 0.0, 2023-09-22 16:58:34.379
18.0, 21087.79800984836, 33162.09860588296, -51859.13167704722, -53470.6701005304, -37692.484282551326, -21318.468012627127, -187500.02235174447, -31016.6217108514, -10134.258584291767, 17665.120084896098, -49304.349637550076, -45472.36656813223, -17295.198714160768, -49572.659977991585, -51131.73885723816, -42224.903967965125, -0.028, 0.998, 0.17400000000000002, 192.0, 0.0, 0.0, 0.0, 0.0, 0.0, 0.0, 0.0, 0.0, 0.0, 1.695419914379326E9, 0.0, 2023-09-22 16:58:34.379
20.0, 21066.519149126907, 33133.37661425789, -51846.34647921878, -53461.05885041462, -37681.151948112485, -21308.208561922143, -187500.02235174447, -31003.300071156034, -10116.176023027423, 17666.997631430346, -49283.31664601763, -45453.4793440675, -17278.926644197305, -49548.76596316886, -51116.33850530846, -42204.54152876634, -0.028, 0.998, 0.17400000000000002, 192.0, 0.0, 0.0, 0.0, 0.0, 0.0, 0.0, 0.0, 0.0, 0.0, 1.69541991437933E9, 0.0, 2023-09-22 16:58:34.379
22.0, 21099.756193131947, 33172.40276007685, -51847.419362952634, -53461.03649867017, -37684.929392925435, -21307.94034098868, -187500.02235174447, -31008.262158425114, -10121.629848674518, 17679.98399495888, -49293.10671008906, -45460.11781217073, -17287.777935001606, -49559.40539352958, -51123.82633970098, -42213.88455794866, -0.026000000000000002, 0.998, 0.176, 192.0, 127.5, 24.0, 15.5, 24.0, 2.5, 64.0, 0.0, 0.0, 0.0, 1.695419914379333E9, 0.0, 2023-09-22 16:58:34.379
24.0, 21070.83303580678, 33138.98690211617, -51831.840197067286, -53446.753733963225, -37672.23360207482, -21293.188189648175, -187500.02235174447, -30991.163073916803, -10111.057473547158, 17676.184198401475, -49275.44883196936, -45444.13631488518, -17277.116152896422, -49538.37240199714, -51111.59993548393, -42196.04786587333, -0.026000000000000002, 0.998, 0.176, 192.0, 0.0, 0.0, 0.0, 0.0, 0.0, 0.0, 0.0, 0.0, 0.0, 1.695419914379336E9, 0.0, 2023-09-22 16:58:34.379
26.0, 21102.70662340005, 33173.65445776635, -51850.68271764311, -53469.8207342411, -37680.83902369011, -21316.143431203775, -187500.02235174447, -31011.27964392658, -10115.326656738122, 17689.63994856357, -49283.11548031753, -45448.85253296525, -17285.296891367067, -49548.385983513115, -51113.90216516283, -42200.40645604211, -0.026000000000000002, 0.998, 0.176, 192.0, 0.0, 0.0, 0.0, 0.0, 0.0, 0.0, 0.0, 0.0, 0.0, 1.69541991437934E9, 0.0, 2023-09-22 16:58:34.379
28.0, 21062.428779891587, 33128.68274792227, -51852.35909847726, -53468.211408640316, -37690.025590661244, -21314.93643700319, -187500.02235174447, -31014.431239894777, -10123.105063808569, 17662.63904126156, -49288.36814026453, -45458.10615516975, -17286.81680999003, -49553.72805043794, -51126.039162402056, -42206.35202006722, -0.026000000000000002, 0.998, 0.176, 192.0, 0.0, 0.0, 0.0, 0.0, 0.0, 0.0, 0.0, 0.0, 0.0, 1.695419914379343E9, 0.0, 2023-09-22 16:58:34.379
30.0, 21091.329585472296, 33165.13844312888, -51874.21910455455, -53497.31337992113, -37704.5989280461, -21346.340637962894, -187500.02235174447, -31042.214458252725, -10142.349915784587, 17664.20366337343, -49310.09403587509, -45475.1828879336, -17302.17245843082, -49575.96803617097, -51140.83601723147, -42224.903967965125, -0.026000000000000002, 0.998, 0.176, 192.0, 0.0, 0.0, 0.0, 0.0, 0.0, 0.0, 0.0, 0.0, 0.0, 1.695419914439521E9, 0.0, 2023-09-22 16:58:34.439
32.0, 21053.64454432065, 33124.01123333111, -51857.008261323965, -53472.23472264227, -37697.93810819842, -21322.111346973343, -187500.02235174447, -31023.28253069908, -10145.300346052689, 17640.622572973083, -49311.613954498054, -45481.37432114772, -17307.112193955447, -49575.297483837305, -51146.31219462302, -42226.714459266004, -0.028, 1.0, 0.17400000000000002, 192.0, 127.5, 16.0, 15.5, 32.0, 2.5, 56.0, 0.0, 0.0, 0.0, 1.695419914439533E9, 0.0, 2023-09-22 16:58:34.439
34.0, 21090.055536038344, 33166.74776872966, -51854.52721768942, -53480.41546111291, -37683.85650919157, -21330.69441684418, -187500.02235174447, -31023.014309765615, -10130.034104589713, 17667.087038408165, -49301.80153868217, -45469.393786119675, -17289.431964091298, -49562.13230635313, -51127.93906068076, -42213.16930212609, -0.028, 1.0, 0.17400000000000002, 192.0, 0.0, 0.0, 0.0, 0.0, 0.0, 0.0, 0.0, 0.0, 0.0, 1.695419914439536E9, 0.0, 2023-09-22 16:58:34.439
36.0, 21049.06243670731, 33123.9218263533, -51856.583578179314, -53473.19584765385, -37699.23450937683, -21323.139527218285, -187500.02235174447, -31021.919074287307, -10136.225537803834, 17647.90924166551, -49310.205794597365, -45480.74847230297, -17299.08791769599, -49567.49672502241, -51139.7184300087, -42221.17122664109, -0.028, 1.0, 0.17400000000000002, 192.0, 0.0, 0.0, 0.0, 0.0, 0.0, 0.0, 0.0, 0.0, 0.0, 1.69541991443954E9, 0.0, 2023-09-22 16:58:34.439
38.0, 21083.998213290957, 33158.25410583665, -51862.529142204425, -53495.2793711757, -37693.69127675191, -21345.13364376231, -187500.02235174447, -31035.799507594053, -10134.258584291767, 17663.0190209173, -49311.681009731416, -45480.70376881406, -17295.891618238882, -49570.60361750169, -51137.282089863074, -42223.38404934217, -0.028, 1.0, 0.17400000000000002, 192.0, 0.0, 0.0, 0.0, 0.0, 0.0, 0.0, 0.0, 0.0, 0.0, 1.695419914439543E9, 0.0, 2023-09-22 16:58:34.439
40.0, 21052.482253608974, 33125.59820718744, -51857.634110168714, -53475.78865001067, -37704.93420421293, -21325.35234991936, -187500.02235174447, -31026.367071433913, -10143.758075685273, 17644.668238719492, -49319.14649237949, -45490.717350330044, -17308.36389164494, -49576.92916118255, -51149.15086616884, -42231.94476746854, -0.028, 1.0, 0.17400000000000002, 192.0, 0.0, 0.0, 0.0, 0.0, 0.0, 0.0, 0.0, 0.0, 0.0, 1.695419914439547E9, 0.0, 2023-09-22 16:58:34.439
42.0, 21083.84175107977, 33158.723492470206, -51856.18124677912, -53495.03350198668, -37689.667962749954, -21344.373684450828, -187500.02235174447, -31032.71496685922, -10128.96122085586, 17663.60016627314, -49307.00949514026, -45477.216896679034, -17292.94118797078, -49566.33443431073, -51132.58822352746, -42220.25480511842, -0.028, 1.002, 0.176, 192.0, 127.5, 16.0, 15.5, 40.0, 2.5, 64.0, 0.0, 0.0, 0.0, 1.69541991443955E9, 0.0, 2023-09-22 16:58:34.439
44.0, 21060.46182637952, 33134.82947764748, -51846.92762457462, -53470.33482436357, -37698.42984657644, -21320.16674520573, -187500.02235174447, -31018.61101610792, -10138.594822716097, 17648.043352132245, -49315.033771399714, -45487.34223691729, -17298.57382757352, -49574.35871057019, -51142.0206596876, -42228.1673226556, -0.028, 1.002, 0.176, 192.0, 0.0, 0.0, 0.0, 0.0, 0.0, 0.0, 0.0, 0.0, 0.0, 1.695419914499825E9, 0.0, 2023-09-22 16:58:34.499
46.0, 21082.65710862364, 33157.60590524744, -51851.77795312142, -53491.39016764047, -37682.60481150208, -21339.07632101492, -187500.02235174447, -31023.86367605492, -10123.574450442131, 17666.64000351906, -49301.64507647098, -45474.065300710834, -17284.961615200238, -49561.17118134155, -51125.41331355731, -42212.90108119263, -0.028, 1.002, 0.176, 192.0, 0.0, 0.0, 0.0, 0.0, 0.0, 0.0, 0.0, 0.0, 0.0, 1.69541991449984E9, 0.0, 2023-09-22 16:58:34.499
48.0, 21064.75336131494, 33139.05395734953, -51848.71576413105, -53469.50780981872, -37696.395837831005, -21318.378605649308, -187500.02235174447, -31016.219379451202, -10133.699790680384, 17655.55353826923, -49312.597431254086, -45482.536611859396, -17297.433888606298, -49569.24016108992, -51138.623194530395, -42222.89231096415, -0.028, 1.002, 0.176, 192.0, 0.0, 0.0, 0.0, 0.0, 0.0, 0.0, 0.0, 0.0, 0.0, 1.695419914499844E9, 0.0, 2023-09-22 16:58:34.499
50.0, 21079.3266986998, 33155.19191684627, -51843.70897337305, -53480.48251634628, -37679.184994600415, -21329.398015665774, -187500.02235174447, -31015.28060618408, -10125.116720809547, 17667.48936980836, -49298.873460158524, -45466.21983840702, -17285.52040881162, -49553.9962713714, -51123.088732133954, -42208.1625113681, -0.028, 1.002, 0.176, 192.0, 0.0, 0.0, 0.0, 0.0, 0.0, 0.0, 0.0, 0.0, 0.0, 1.695419914499848E9, 0.0, 2023-09-22 16:58:34.499
52.0, 21067.61438460522, 33145.51361149712, -51847.6875838861, -53468.18905689586, -37700.50855881078, -21317.350425404362, -187500.02235174447, -31015.66058583982, -10138.840691905105, 17654.212433601908, -49312.39626555399, -45480.72612055852, -17300.00433921866, -49568.1002221227, -51134.82339797299, -42219.98658418496, -0.026000000000000002, 1.004, 0.182, 192.0, 127.5, 24.0, 15.5, 48.0, 2.5, 88.0, 0.0, 0.0, 0.0, 1.695419914499851E9, 0.0, 2023-09-22 16:58:34.499
54.0, 21074.208149219532, 33147.03353012008, -51839.99858379347, -53478.29204538966, -37676.391026543504, -21326.514640631038, -187500.02235174447, -31011.27964392658, -10117.76299688375, 17669.098695409142, -49292.100881588565, -45461.57067556032, -17284.89455996687, -49546.37432651214, -51115.198566341234, -42199.735903708446, -0.026000000000000002, 1.004, 0.182, 192.0, 0.0, 0.0, 0.0, 0.0, 0.0, 0.0, 0.0, 0.0, 0.0, 1.695419914499855E9, 0.0, 2023-09-22 16:58:34.499
56.0, 21069.938966028567, 33139.7245096832, -51852.15793277716, -53477.68854828937, -37699.65919252148, -21324.8829632858, -187500.02235174447, -31019.303920186034, -10143.556909985175, 17646.389323042553, -49321.672239502936, -45493.42191140913, -17301.65836830835, -49576.504478037896, -51139.36080209742, -42226.870921477195, -0.026000000000000002, 1.004, 0.182, 192.0, 0.0, 0.0, 0.0, 0.0, 0.0, 0.0, 0.0, 0.0, 0.0, 1.695419914499858E9, 0.0, 2023-09-22 16:58:34.499
58.0, 21075.9739370315, 33141.78087017308, -51826.96751677603, -53461.505885303726, -37660.677750191426, -21309.192038678175, -187500.02235174447, -30995.074629196482, -10115.863098605048, 17658.928651681977, -49292.65967519995, -45467.31507388534, -17275.775048229105, -49547.76013466837, -51113.72335120718, -42197.25486007391, -0.026000000000000002, 1.004, 0.182, 192.0, 0.0, 0.0, 0.0, 0.0, 0.0, 0.0, 0.0, 0.0, 0.0, 1.695419914499862E9, 0.0, 2023-09-22 16:58:34.499
60.0, 21081.18189348959, 33148.75461444314, -51842.21140649455, -53468.18905689586, -37685.95757317037, -21317.953922504657, -187500.02235174447, -31010.117353214904, -10118.14297653949, 17663.510759295317, -49298.80640492516, -45472.99241697698, -17280.290100609076, -49557.10316385069, -51118.73014196517, -42206.39672355613, -0.026000000000000002, 1.004, 0.182, 192.0, 0.0, 0.0, 0.0, 0.0, 0.0, 0.0, 0.0, 0.0, 0.0, 1.695419914560099E9, 0.0, 2023-09-22 16:58:34.560
62.0, 21056.1702914441, 33126.11229730991, -51851.84500835479, -53489.49026936177, -37693.49011105181, -21337.60110588087, -187500.02235174447, -31024.66833885531, -10124.826148131628, 17643.505948007816, -49302.09211136009, -45478.58035309081, -17285.498057067165, -49560.59003598572, -51125.189796112754, -42211.29175559185, -0.026000000000000002, 1.002, 0.18, 192.0, 127.5, 24.0, 15.5, 40.0, 2.5, 80.0, 0.0, 0.0, 0.0, 1.695419914560112E9, 0.0, 2023-09-22 16:58:34.560
64.0, 21079.147884744154, 33153.35907380093, -51846.12296177423, -53473.19584765385, -37692.57368952915, -21320.479669628105, -187500.02235174447, -31012.598396849444, -10136.426703503932, 17645.45054977543, -49315.79373071119, -45489.733873574005, -17295.42223160532, -49572.05648089129, -51135.69511600675, -42221.99824118594, -0.026000000000000002, 1.002, 0.18, 192.0, 0.0, 0.0, 0.0, 0.0, 0.0, 0.0, 0.0, 0.0, 0.0, 1.695419914560115E9, 0.0, 2023-09-22 16:58:34.560
66.0, 21060.238308934964, 33134.40479450283, -51841.02676403842, -53472.27942613119, -37679.22969808933, -21321.17257370622, -187500.02235174447, -31005.13291420137, -10115.684284649407, 17649.92089866649, -49291.98912286629, -45470.176097175616, -17278.971347686213, -49549.74943992489, -51116.517319264094, -42198.417150785586, -0.026000000000000002, 1.002, 0.18, 192.0, 0.0, 0.0, 0.0, 0.0, 0.0, 0.0, 0.0, 0.0, 0.0, 1.695419914560119E9, 0.0, 2023-09-22 16:58:34.560
68.0, 21082.567701645818, 33164.62435300641, -51853.163761277654, -53482.27065590271, -37697.13344539803, -21331.65554185576, -187500.02235174447, -31021.00265276464, -10132.984534857815, 17650.725561466883, -49311.99393415379, -45486.872850283726, -17301.345443885977, -49569.217809345464, -51130.93419443777, -42218.28785160636, -0.026000000000000002, 1.002, 0.18, 192.0, 0.0, 0.0, 0.0, 0.0, 0.0, 0.0, 0.0, 0.0, 0.0, 1.695419914560122E9, 0.0, 2023-09-22 16:58:34.560
70.0, 21055.857367021727, 33127.27458802159, -51842.949014061574, -53472.748812764745, -37684.95174466989, -21321.50784987305, -187500.02235174447, -31008.820952036498, -10121.00399982977, 17644.847052675137, -49297.71116944685, -45475.696978056076, -17284.89455996687, -49555.78441092782, -51123.28989783405, -42206.083799133754, -0.026000000000000002, 1.002, 0.18, 192.0, 0.0, 0.0, 0.0, 0.0, 0.0, 0.0, 0.0, 0.0, 0.0, 1.695419914560126E9, 0.0, 2023-09-22 16:58:34.560
72.0, 21092.760097117436, 33163.30560008354, -51846.41353445215, -53478.38145236748, -37686.76223597077, -21325.821736552924, -187500.02235174447, -31015.928806773285, -10122.210994030356, 17659.35333482663, -49300.95217239287, -45475.3840536337, -17285.2298361337, -49559.651262718595, -51123.245194345145, -42209.28009859087, -0.024, 1.002, 0.186, 192.0, 127.5, 32.0, 15.5, 40.0, 2.5, 104.0, 0.0, 0.0, 0.0, 1.695419914560129E9, 0.0, 2023-09-22 16:58:34.560
74.0, 21055.27622166589, 33124.21239903121, -51844.983022807006, -53474.983987210275, -37692.618393018056, -21323.49715512957, -187500.02235174447, -31014.498295128145, -10121.160462040956, 17640.48846250635, -49297.845279913585, -45475.94284724508, -17285.632167533895, -49559.919483652055, -51128.67666824778, -42208.38602881265, -0.024, 1.002, 0.186, 192.0, 0.0, 0.0, 0.0, 0.0, 0.0, 0.0, 0.0, 0.0, 0.0, 1.69541991462047E9, 0.0, 2023-09-22 16:58:34.620
76.0, 21095.55406517435, 33172.08983565448, -51836.82463608082, -53468.569036551606, -37680.101416123085, -21316.523410859518, -187500.02235174447, -31005.445838623746, -10119.484081206809, 17666.327079096685, -49294.51486998974, -45465.61634130673, -17283.486400066187, -49555.0468033608, -51118.350162309434, -42200.49586301993, -0.024, 1.002, 0.186, 192.0, 0.0, 0.0, 0.0, 0.0, 0.0, 0.0, 0.0, 0.0, 0.0, 1.695419914620485E9, 0.0, 2023-09-22 16:58:34.620
78.0, 21049.598878574237, 33124.681785664776, -51846.949976319076, -53473.53112382068, -37695.971154686355, -21319.205620194152, -187500.02235174447, -31010.340870659456, -10125.608459187562, 17648.11040736561, -49296.32536129062, -45468.99145471948, -17290.594254802974, -49553.61629171566, -51122.79815945604, -42199.40062754162, -0.024, 1.002, 0.186, 192.0, 0.0, 0.0, 0.0, 0.0, 0.0, 0.0, 0.0, 0.0, 0.0, 1.695419914620489E9, 0.0, 2023-09-22 16:58:34.620
80.0, 21087.17216100361, 33166.390140818374, -51845.7876856074, -53481.22012391331, -37684.862337692066, -21326.93932377569, -187500.02235174447, -31015.23590269517, -10134.929136625426, 17656.291145836254, -49309.11055911906, -45479.85440252476, -17296.60687406145, -49561.66291971957, -51127.60378451393, -42209.70478173552, -0.024, 1.002, 0.186, 192.0, 0.0, 0.0, 0.0, 0.0, 0.0, 0.0, 0.0, 0.0, 0.0, 1.695419914620492E9, 0.0, 2023-09-22 16:58:34.620
82.0, 21052.705771053526, 33128.168657799804, -51837.89751981467, -53466.37856559498, -37691.076122650644, -21315.808155036946, -187500.02235174447, -31005.982280490673, -10125.496700465286, 17648.73625621036, -49298.35937003605, -45474.11000419975, -17294.304644382555, -49550.24117830291, -51123.75928446762, -42201.43463628705, -0.028, 0.998, 0.182, 192.0, 127.5, 16.0, 15.5, 24.0, 2.5, 88.0, 0.0, 0.0, 0.0, 1.695419914620495E9, 0.0, 2023-09-22 16:58:34.620
84.0, 21092.782448861893, 33171.75455948765, -51836.06467676934, -53475.49807733275, -37678.93912541141, -21326.693454586682, -187500.02235174447, -31008.79860029204, -10125.206127787367, 17659.0180586598, -49299.36519853654, -45473.171230932625, -17287.04032743458, -49555.76205918337, -51120.9653164107, -42203.06631363229, -0.028, 0.998, 0.182, 192.0, 0.0, 0.0, 0.0, 0.0, 0.0, 0.0, 0.0, 0.0, 0.0, 1.695419914620499E9, 0.0, 2023-09-22 16:58:34.620
86.0, 21054.002172231936, 33133.46602123571, -51837.15991224765, -53463.58459753807, -37694.51829129676, -21316.07637597041, -187500.02235174447, -31004.03767872306, -10123.753264397772, 17649.63032598857, -49294.559573478655, -45471.09251869828, -17287.085030923492, -49550.487047491915, -51119.22188034319, -42196.27138331788, -0.028, 0.998, 0.182, 192.0, 0.0, 0.0, 0.0, 0.0, 0.0, 0.0, 0.0, 0.0, 0.0, 1.695419914620502E9, 0.0, 2023-09-22 16:58:34.620
88.0, 21090.54727441636, 33173.27447811061, -51835.483531413505, -53473.19584765385, -37677.26274457726, -21324.681797585705, -187500.02235174447, -31007.23397818017, -10130.637601690007, 17659.286279593263, -49303.09793986058, -45476.456937367555, -17291.868304236927, -49555.29267254981, -51121.18883385525, -42199.601793241716, -0.028, 0.998, 0.182, 192.0, 0.0, 0.0, 0.0, 0.0, 0.0, 0.0, 0.0, 0.0, 0.0, 1.695419914620505E9, 0.0, 2023-09-22 16:58:34.620
90.0, 21059.59010834576, 33143.70312019624, -51829.739133088486, -53456.23087361227, -37685.71170398137, -21305.615759565328, -187500.02235174447, -30994.80640826302, -10117.248906761279, 17658.928651681977, -49288.52460247572, -45464.52110582842, -17279.463086064232, -49540.31700376475, -51111.219955828186, -42186.63778145764, -0.028, 0.998, 0.182, 192.0, 0.0, 0.0, 0.0, 0.0, 0.0, 0.0, 0.0, 0.0, 0.0, 1.695419914679225E9, 0.0, 2023-09-22 16:58:34.679
92.0, 21085.07109702481, 33173.386236832885, -51833.47187441253, -53479.2755221457, -37676.90511666598, -21330.31443718844, -187500.02235174447, -31007.569254347, -10122.345104497088, 17661.72261973889, -49294.760739178746, -45469.684358797596, -17282.70408901025, -49547.961300368464, -51112.471653517685, -42192.940973394034, -0.03, 0.998, 0.17400000000000002, 192.0, 127.5, 8.0, 15.5, 24.0, 2.5, 56.0, 0.0, 0.0, 0.0, 1.695419914679237E9, 0.0, 2023-09-22 16:58:34.679
94.0, 21059.992439745958, 33150.118070854915, -51839.797418093374, -53470.446583085846, -37703.05665767869, -21324.860611541346, -187500.02235174447, -31012.687803827266, -10140.539424483708, 17640.39905552853, -49307.5906404961, -45483.43068163761, -17299.57965607401, -49565.08273662123, -51130.19658687074, -42209.101284635224, -0.03, 0.998, 0.17400000000000002, 192.0, 0.0, 0.0, 0.0, 0.0, 0.0, 0.0, 0.0, 0.0, 0.0, 1.695419914679241E9, 0.0, 2023-09-22 16:58:34.679
96.0, 21083.59588189076, 33174.97321068921, -51830.54379588888, -53476.48155408878, -37678.0450556332, -21331.610838366847, -187500.02235174447, -31009.04446948105, -10122.568621941642, 17654.167730113, -49292.525564733216, -45468.47736459701, -17290.974234458714, -49551.58228297023, -51114.997400641136, -42195.28790656184, -0.03, 0.998, 0.17400000000000002, 192.0, 0.0, 0.0, 0.0, 0.0, 0.0, 0.0, 0.0, 0.0, 0.0, 1.695419914679244E9, 0.0, 2023-09-22 16:58:34.679
98.0, 21058.15959670062, 33155.39308254637, -51850.079220542815, -53479.20846691233, -37712.667907794465, -21334.762434335047, -187500.02235174447, -31022.120239987406, -10142.908709395972, 17636.77807292677, -49312.95505916537, -45489.19743170708, -17308.52035385613, -49571.85531519119, -51136.723296251694, -42216.27619460538, -0.03, 0.998, 0.17400000000000002, 192.0, 0.0, 0.0, 0.0, 0.0, 0.0, 0.0, 0.0, 0.0, 0.0, 1.695419914679249E9, 0.0, 2023-09-22 16:58:34.679
100.0, 21069.089599739265, 33171.46398680973, -51841.80907509435, -53485.77987978219, -37690.56203252817, -21339.92568730422, -187500.02235174447, -31017.448725396243, -10132.850424391083, 17644.310610808207, -49300.99687588178, -45479.608533335755, -17291.04128969208, -49559.18187608503, -51126.4191420578, -42202.596926998725, -0.03, 0.998, 0.17400000000000002, 192.0, 0.0, 0.0, 0.0, 0.0, 0.0, 0.0, 0.0, 0.0, 0.0, 1.695419914679254E9, 0.0, 2023-09-22 16:58:34.679
102.0, 21056.93025075558, 33159.617562248415, -51855.890674101196, -53487.00922572723, -37719.14991368651, -21340.84210882689, -187500.02235174447, -31026.09885050045, -10154.218692090357, 17627.16682281099, -49323.1921581259, -45502.72023710254, -17311.984874246704, -49582.04771066281, -51147.988575457166, -42223.92049120909, -0.026000000000000002, 0.998, 0.176, 192.0, 127.5, 24.0, 15.5, 24.0, 2.5, 64.0, 0.0, 0.0, 0.0, 1.695419914679258E9, 0.0, 2023-09-22 16:58:34.679
104.0, 21066.899128782647, 33167.597135018965, -51836.69052561409, -53482.0247867137, -37684.95174466989, -21333.60014362337, -187500.02235174447, -31005.356431645923, -10124.96025859836, 17642.611878229603, -49295.61010546805, -45477.73098680151, -17289.409612346844, -49558.35486154019, -51125.59212751295, -42200.294697319834, -0.026000000000000002, 0.998, 0.176, 192.0, 0.0, 0.0, 0.0, 0.0, 0.0, 0.0, 0.0, 0.0, 0.0, 1.695419914739615E9, 0.0, 2023-09-22 16:58:34.739
106.0, 21061.177082202088, 33168.021818163616, -51856.96355783505, -53491.5242781072, -37722.5026753548, -21344.038408284, -187500.02235174447, -31025.00361502214, -10147.602575731586, 17633.849994403125, -49319.034733657216, -45499.1886614786, -17312.744833558183, -49580.3042745953, -51145.14990391135, -42221.30533710782, -0.026000000000000002, 0.998, 0.176, 192.0, 0.0, 0.0, 0.0, 0.0, 0.0, 0.0, 0.0, 0.0, 0.0, 1.695419914739648E9, 0.0, 2023-09-22 16:58:34.739
108.0, 21062.74170431396, 33163.01502740563, -51831.32610694481, -53473.4193650984, -37683.92356442494, -21327.252248198063, -187500.02235174447, -31001.04254496605, -10131.554023212675, 17636.845128160134, -49298.739349691794, -45482.62601883722, -17301.077222952514, -49561.595864486204, -51128.98959267016, -42203.088665376745, -0.026000000000000002, 0.998, 0.176, 192.0, 0.0, 0.0, 0.0, 0.0, 0.0, 0.0, 0.0, 0.0, 0.0, 1.695419914739651E9, 0.0, 2023-09-22 16:58:34.739
110.0, 21071.011849762424, 33175.01791417813, -51845.09478152928, -53480.05783320163, -37703.92837571244, -21334.31539944594, -187500.02235174447, -31013.13483871637, -10135.2420610478, 17652.379590556575, -49304.193175338885, -45485.7329113165, -17300.31726364103, -49565.26155057688, -51127.581432769475, -42205.56970901129, -0.026000000000000002, 0.998, 0.176, 192.0, 0.0, 0.0, 0.0, 0.0, 0.0, 0.0, 0.0, 0.0, 0.0, 1.695419914739655E9, 0.0, 2023-09-22 16:58:34.739
112.0, 21056.63967807766, 33160.84690819346, -51829.739133088486, -53468.47962957378, -37682.962439413364, -21320.926704517213, -187500.02235174447, -30996.795713519543, -10130.48113947882, 17643.327134052175, -49296.28065780171, -45479.47442286902, -17290.862475736438, -49552.99044287091, -51119.35599080992, -42193.164490838586, -0.03, 0.998, 0.182, 192.0, 127.5, 8.0, 15.5, 24.0, 2.5, 88.0, 0.0, 0.0, 0.0, 1.695419914739658E9, 0.0, 2023-09-22 16:58:34.739
114.0, 21080.35487894474, 33191.89348124188, -51831.32610694481, -53462.6681760154, -37692.685448251425, -21314.82467828091, -187500.02235174447, -30996.549844330533, -10130.056456334169, 17660.381515071575, -49298.828756669616, -45477.52982110141, -17290.90717922535, -49551.51522773686, -51119.35599080992, -42195.53377575085, -0.03, 0.998, 0.182, 192.0, 0.0, 0.0, 0.0, 0.0, 0.0, 0.0, 0.0, 0.0, 0.0, 1.695419914739661E9, 0.0, 2023-09-22 16:58:34.739
116.0, 21053.510433853917, 33167.664190252326, -51831.348458689274, -53463.741059749256, -37693.13248314053, -21318.289198671486, -187500.02235174447, -30997.84624550894, -10124.714389409351, 17656.469959791895, -49291.475032743816, -45470.84664950927, -17291.778897259104, -49540.04878283129, -51118.73014196517, -42187.12951983565, -0.03, 0.998, 0.182, 192.0, 0.0, 0.0, 0.0, 0.0, 0.0, 0.0, 0.0, 0.0, 0.0, 1.695419914739665E9, 0.0, 2023-09-22 16:58:34.739
118.0, 21089.11676277122, 33211.31714717354, -51834.567109890835, -53464.121039405, -37701.156759399986, -21322.93836151819, -187500.02235174447, -31007.27868166908, -10129.631773189518, 17673.770210000304, -49297.979390380315, -45473.864135010735, -17299.914932240838, -49544.76500091136, -51124.40748505682, -42194.706761206005, -0.03, 0.998, 0.182, 192.0, 0.0, 0.0, 0.0, 0.0, 0.0, 0.0, 0.0, 0.0, 0.0, 1.695419914739668E9, 0.0, 2023-09-22 16:58:34.739
120.0, 21059.523053112396, 33180.56114680304, -51819.70319982806, -53450.08414388706, -37690.83025346163, -21309.7284805451, -187500.02235174447, -30994.60524256292, -10114.723159637828, 17669.478675064885, -49282.46727972833, -45459.80488774835, -17288.85081873546, -49528.06824780325, -51115.71265646371, -42181.78745291084, -0.03, 0.998, 0.182, 192.0, 0.0, 0.0, 0.0, 0.0, 0.0, 0.0, 0.0, 0.0, 0.0, 1.695419914799735E9, 0.0, 2023-09-22 16:58:34.799
122.0, 21087.26156798143, 33214.69226058629, -51844.491284428994, -53478.694376789856, -37710.38802986003, -21340.439777426694, -187500.02235174447, -31023.059013254526, -10138.371305271543, 17669.612785531615, -49308.529413763215, -45483.654199082164, -17314.37651090342, -49555.40443127209, -51133.21407237221, -42206.173206111576, -0.028999999999999998, 0.999, 0.178, 192.0, 127.5, 16.0, 15.5, 32.0, 2.5, 56.0, 0.0, 0.0, 0.0, 1.695419914799749E9, 0.0, 2023-09-22 16:58:34.799
124.0, 21053.555137342828, 33173.45329206625, -51822.13953997369, -53456.364984079, -37697.35696284258, -21320.256152183552, -187500.02235174447, -31001.310765899514, -10126.81545338815, 17655.48648303586, -49292.592619966585, -45474.17705943311, -17296.986853717193, -49542.6415851881, -51124.22867110118, -42192.963325138495, -0.028999999999999998, 0.999, 0.178, 192.0, 0.0, 0.0, 0.0, 0.0, 0.0, 0.0, 0.0, 0.0, 0.0, 1.695419914799752E9, 0.0, 2023-09-22 16:58:34.799
126.0, 21095.79993436336, 33216.23453095371, -51821.24547019547, -53461.215312625805, -37685.73405572582, -21326.827565053412, -187500.02235174447, -31000.595510076942, -10121.47338646333, 17671.244462876854, -49291.63149495501, -45471.628960565205, -17288.98492920219, -49547.268396290354, -51119.11012162091, -42192.78451118285, -0.028999999999999998, 0.999, 0.178, 192.0, 0.0, 0.0, 0.0, 0.0, 0.0, 0.0, 0.0, 0.0, 0.0, 1.695419914799756E9, 0.0, 2023-09-22 16:58:34.799
128.0, 21049.598878574237, 33168.1782803748, -51832.041362767384, -53465.1715713944, -37701.02264893325, -21329.398015665774, -187500.02235174447, -31004.819989778996, -10119.52878469572, 17660.225052860387, -49286.84822164157, -45468.32090238582, -17288.493190824174, -49540.7416869094, -51118.10429312042, -42186.9060023911, -0.028999999999999998, 0.999, 0.178, 192.0, 0.0, 0.0, 0.0, 0.0, 0.0, 0.0, 0.0, 0.0, 0.0, 1.695419914799759E9, 0.0, 2023-09-22 16:58:34.799
130.0, 21088.73678311548, 33214.155818719366, -51834.65651686866, -53473.642882542954, -37694.94297444141, -21336.26000121355, -187500.02235174447, -31009.022117736593, -10138.706581438373, 17655.464131291406, -49308.01532364075, -45488.52687937342, -17306.598103832974, -49562.177009842046, -51133.97403168369, -42206.508482278405, -0.028999999999999998, 0.999, 0.178, 192.0, 0.0, 0.0, 0.0, 0.0, 0.0, 0.0, 0.0, 0.0, 0.0, 1.695419914799763E9, 0.0, 2023-09-22 16:58:34.799
132.0, 21054.315096654307, 33177.96834444623, -51824.7323423305, -53451.76052472121, -37696.731113997834, -21314.735271303092, -187500.02235174447, -30992.79475126204, -10121.987476585804, 17657.7663609703, -49288.16697456443, -45472.388919876685, -17290.258978636146, -49541.45694273197, -51120.987668155154, -42186.48131924645, -0.0295, 0.9964999999999999, 0.18, 192.0, 127.5, 8.0, 15.5, 8.0, 2.5, 88.0, 0.0, 0.0, 0.0, 1.695419914799766E9, 0.0, 2023-09-22 16:58:34.799
134.0, 21079.84078882227, 33207.38324014941, -51843.664269884146, -53487.25509491624, -37700.64266927751, -21350.296896731485, -187500.02235174447, -31017.09109748496, -10132.425741246432, 17665.16478838501, -49299.99104738129, -45479.250905424466, -17300.33961538549, -49552.56575972626, -51125.99445891315, -42198.059522874304, -0.0295, 0.9964999999999999, 0.18, 192.0, 0.0, 0.0, 0.0, 0.0, 0.0, 0.0, 0.0, 0.0, 0.0, 1.695419914859924E9, 0.0, 2023-09-22 16:58:34.859
136.0, 21052.035218719866, 33177.54366130158, -51822.474816140515, -53454.12980963347, -37698.42984657644, -21318.959751005146, -187500.02235174447, -30992.14655067284, -10138.10308433808, 17647.462206776407, -49301.24274507079, -45484.95060026057, -17306.866324766437, -49555.40443127209, -51132.49881654964, -42202.798092698824, -0.0295, 0.9964999999999999, 0.18, 192.0, 0.0, 0.0, 0.0, 0.0, 0.0, 0.0, 0.0, 0.0, 0.0, 1.695419914859937E9, 0.0, 2023-09-22 16:58:34.859
138.0, 21080.466637667017, 33207.96438550525, -51827.25808945395, -53474.64871104345, -37684.97409641434, -21338.919858803732, -187500.02235174447, -31000.66256531031, -10120.042874818191, 17671.244462876854, -49286.82586989712, -45471.070166953825, -17282.637033776886, -49542.75334391038, -51111.24230757264, -42187.554202980304, -0.0295, 0.9964999999999999, 0.18, 192.0, 0.0, 0.0, 0.0, 0.0, 0.0, 0.0, 0.0, 0.0, 0.0, 1.695419914859941E9, 0.0, 2023-09-22 16:58:34.859
140.0, 21051.16350068611, 33180.27057412512, -51826.945165031575, -53454.10745788902, -37695.904099452986, -21313.684739313692, -187500.02235174447, -30987.65385003732, -10129.497662722786, 17653.54188126825, -49296.861803157546, -45484.79413804939, -17296.22689440571, -49548.27422479084, -51123.4687117897, -42194.2597263169, -0.0295, 0.9964999999999999, 0.18, 192.0, 0.0, 0.0, 0.0, 0.0, 0.0, 0.0, 0.0, 0.0, 0.0, 1.695419914859945E9, 0.0, 2023-09-22 16:58:34.859
142.0, 21074.252852708443, 33208.769048305636, -51833.04719126788, -53471.94414996435, -37679.29675332269, -21329.01803601003, -187500.02235174447, -30992.682992539765, -10118.858232362061, 17671.803256488234, -49288.50225073126, -45472.07599545432, -17284.08989716648, -49535.06434381776, -51109.72238894968, -42182.323894777765, -0.028749999999999998, 0.99425, 0.181, 192.0, 127.5, 16.0, 15.5, 0.0, 2.5, 88.0, 0.0, 0.0, 0.0, 1.695419914859949E9, 0.0, 2023-09-22 16:58:34.859
144.0, 21045.866137250203, 33184.919736971824, -51849.34161297579, -53469.619568541006, -37709.739829270824, -21327.274599942517, -187500.02235174447, -31001.62369032189, -10139.019505860748, 17654.54770976874, -49306.160128850956, -45489.9350392741, -17306.061661966047, -49552.63281495963, -51131.73885723816, -42201.16641535359, -0.028749999999999998, 0.99425, 0.181, 192.0, 0.0, 0.0, 0.0, 0.0, 0.0, 0.0, 0.0, 0.0, 0.0, 1.695419914859952E9, 0.0, 2023-09-22 16:58:34.859
146.0, 21065.06628573731, 33205.95272850427, -51839.28332797091, -53474.58165581008, -37685.46583479236, -21332.08022500041, -187500.02235174447, -30995.633422807867, -10129.29649702269, 17658.727485981883, -49298.828756669616, -45485.2858764274, -17297.2327229062, -49547.08958233471, -51125.21214785721, -42197.45602577401, -0.028749999999999998, 0.99425, 0.181, 192.0, 0.0, 0.0, 0.0, 0.0, 0.0, 0.0, 0.0, 0.0, 0.0, 1.695419914859955E9, 0.0, 2023-09-22 16:58:34.859
148.0, 21047.184890173066, 33191.60290856396, -51845.36300246275, -53470.42423134139, -37704.73303851283, -21328.16866972073, -187500.02235174447, -30999.433219365266, -10127.821281888639, 17655.17355861349, -49298.739349691794, -45489.108024729256, -17301.904237497358, -49551.0458411033, -51123.55811876752, -42198.484206018955, -0.028749999999999998, 0.99425, 0.181, 192.0, 0.0, 0.0, 0.0, 0.0, 0.0, 0.0, 0.0, 0.0, 0.0, 1.695419914859959E9, 0.0, 2023-09-22 16:58:34.859
150.0, 21052.41519837561, 33193.90513824286, -51847.37465946373, -53487.14333619396, -37696.038209919716, -21346.228879240618, -187500.02235174447, -31006.853998524428, -10136.694924437395, 17645.383494542064, -49302.76266369375, -45494.71831258754, -17306.240475921688, -49556.790239428316, -51130.77773222658, -42205.033267144354, -0.028749999999999998, 0.99425, 0.181, 192.0, 0.0, 0.0, 0.0, 0.0, 0.0, 0.0, 0.0, 0.0, 0.0, 1.695419914920339E9, 0.0, 2023-09-22 16:58:34.920
152.0, 21053.890413509656, 33195.223891165726, -51842.88195882821, -53467.652615028936, -37705.18007340194, -21328.21337320964, -187500.02235174447, -30996.862768752908, -10138.371305271543, 17648.378628299073, -49305.869556173035, -45497.95931553356, -17304.29587415408, -49560.411222030074, -51135.9186334513, -42207.290793334345, -0.026375, 0.997125, 0.1815, 192.0, 127.5, 32.0, 15.5, 32.0, 2.5, 88.0, 0.0, 0.0, 0.0, 1.695419914920362E9, 0.0, 2023-09-22 16:58:34.920
154.0, 21056.013829232914, 33191.44644635278, -51833.11424650124, -53471.698280775345, -37684.48235803632, -21333.711902345647, -187500.02235174447, -30991.855977994917, -10120.512261451753, 17659.375686571086, -49287.31760827513, -45479.36266414674, -17287.509714068143, -49540.16054155357, -51117.701961720224, -42187.59890646922, -0.026375, 0.997125, 0.1815, 192.0, 0.0, 0.0, 0.0, 0.0, 0.0, 0.0, 0.0, 0.0, 0.0, 1.695419914920365E9, 0.0, 2023-09-22 16:58:34.920
156.0, 21060.126550212688, 33199.49307435669, -51847.79934260838, -53476.30274013314, -37707.996393203306, -21339.769225093034, -187500.02235174447, -31004.395306634346, -10135.666744192451, 17654.614765002105, -49303.500271260775, -45494.76301607645, -17301.52425784162, -49557.818419673255, -51133.996383428144, -42206.508482278405, -0.026375, 0.997125, 0.1815, 192.0, 0.0, 0.0, 0.0, 0.0, 0.0, 0.0, 0.0, 0.0, 0.0, 1.695419914920369E9, 0.0, 2023-09-22 16:58:34.920
158.0, 21051.387018130663, 33189.6359550519, -51832.041362767384, -53467.87613247349, -37685.197613858894, -21331.94611453368, -187500.02235174447, -30988.436161093257, -10126.949563854881, 17651.59727950064, -49294.93955313439, -45487.498699128475, -17296.80803976155, -49545.86023638967, -51129.48133104818, -42198.68537171905, -0.026375, 0.997125, 0.1815, 192.0, 0.0, 0.0, 0.0, 0.0, 0.0, 0.0, 0.0, 0.0, 0.0, 1.695419914920372E9, 0.0, 2023-09-22 16:58:34.920
160.0, 21065.69213458206, 33210.2889669286, -51844.737153618, -53470.89361797496, -37701.201462888894, -21334.42715816822, -187500.02235174447, -30995.18638791876, -10134.996191858792, 17664.427180817984, -49306.51775676224, -45492.34902767528, -17303.513563098142, -49551.38111727013, -51134.46577006171, -42206.88846193415, -0.026375, 0.997125, 0.1815, 192.0, 0.0, 0.0, 0.0, 0.0, 0.0, 0.0, 0.0, 0.0, 0.0, 1.695419914920375E9, 0.0, 2023-09-22 16:58:34.920
162.0, 21039.942924969546, 33183.82450149352, -51837.15991224765, -53470.33482436357, -37685.8458144481, -21331.11909998883, -187500.02235174447, -30986.200986647727, -10128.268316777745, 17657.229919103374, -49300.61689622604, -45483.69890257107, -17301.79247877508, -49535.06434381776, -51124.854519945926, -42193.11978734968, -0.026187500000000002, 1.0025625, 0.18275, 192.0, 127.5, 24.0, 15.5, 64.0, 2.5, 96.0, 0.0, 0.0, 0.0, 1.695419914920379E9, 0.0, 2023-09-22 16:58:34.920
164.0, 21071.481236395986, 33219.05085075508, -51831.773141833924, -53463.741059749256, -37688.639782505015, -21325.75468131956, -187500.02235174447, -30983.94346045774, -10135.465578492354, 17665.187140129467, -49312.39626555399, -45490.27031544093, -17303.37945263141, -49545.92729162303, -51131.40358107133, -42205.72617122247, -0.026187500000000002, 1.0025625, 0.18275, 192.0, 0.0, 0.0, 0.0, 0.0, 0.0, 0.0, 0.0, 0.0, 0.0, 1.695419914979701E9, 0.0, 2023-09-22 16:58:34.979
166.0, 21042.088692437257, 33183.600984048964, -51825.827577808814, -53460.164780636405, -37679.31910506715, -21322.379567906806, -187500.02235174447, -30974.108692897404, -10122.501566708275, 17658.88394819307, -49300.214564825845, -45474.780556533406, -17288.157914657346, -49534.37143973964, -51121.769979211094, -42196.226679828964, -0.026187500000000002, 1.0025625, 0.18275, 192.0, 0.0, 0.0, 0.0, 0.0, 0.0, 0.0, 0.0, 0.0, 0.0, 1.695419914979715E9, 0.0, 2023-09-22 16:58:34.979
168.0, 21077.359745187732, 33220.90604554487, -51834.96944129103, -53467.11617316201, -37683.16360511346, -21327.274599942517, -187500.02235174447, -30979.204890633213, -10125.876680121026, 17672.16088439952, -49309.870518430536, -45473.931190244104, -17292.717670526228, -49546.083753834224, -51122.55229026703, -42208.69895323503, -0.026187500000000002, 1.0025625, 0.18275, 192.0, 0.0, 0.0, 0.0, 0.0, 0.0, 0.0, 0.0, 0.0, 0.0, 1.695419914979725E9, 0.0, 2023-09-22 16:58:34.979
170.0, 21045.799082016838, 33186.70787652825, -51826.229909209, -53450.84410319854, -37672.94885789738, -21310.55549508995, -187500.02235174447, -30962.12815786936, -10110.14105202449, 17663.421352317495, -49290.84918389907, -45450.68537601059, -17282.45821982124, -49530.504587948875, -51109.65533371631, -42194.23737457245, -0.026187500000000002, 1.0025625, 0.18275, 192.0, 0.0, 0.0, 0.0, 0.0, 0.0, 0.0, 0.0, 0.0, 0.0, 1.695419914979729E9, 0.0, 2023-09-22 16:58:34.979
172.0, 21076.331564942786, 33220.660176355865, -51853.67785140012, -53475.36396686602, -37685.89051793701, -21333.823661067923, -187500.02235174447, -30984.435198835756, -10124.893203364993, 17670.082172165177, -49307.411826540454, -45454.932207457096, -17294.639920549384, -49548.02835560183, -51117.098464619936, -42209.77183696888, -0.026093750000000002, 1.00128125, 0.183375, 192.0, 127.5, 24.0, 15.5, 32.0, 2.5, 96.0, 0.0, 0.0, 0.0, 1.695419914979732E9, 0.0, 2023-09-22 16:58:34.979
174.0, 21040.322904625285, 33168.98294317519, -51847.59817690828, -53458.24253061325, -37679.63202948953, -21316.232838181597, -187500.02235174447, -30967.179652116258, -10117.472424205831, 17655.285317335765, -49296.61593396854, -45447.019689919915, -17293.81290600454, -49538.79708514179, -51111.24230757264, -42203.9603834105, -0.026093750000000002, 1.00128125, 0.183375, 192.0, 0.0, 0.0, 0.0, 0.0, 0.0, 0.0, 0.0, 0.0, 0.0, 1.695419914979736E9, 0.0, 2023-09-22 16:58:34.979
176.0, 21079.013774277424, 33203.20346393627, -51859.802229380875, -53472.43588834237, -37677.01687538825, -21332.97429477862, -187500.02235174447, -30981.90945171231, -10131.95635461287, 17661.275584849787, -49306.51775676224, -45454.19459989007, -17306.396938132875, -49556.81259117277, -51116.53967100855, -42218.98075568447, -0.026093750000000002, 1.00128125, 0.183375, 192.0, 0.0, 0.0, 0.0, 0.0, 0.0, 0.0, 0.0, 0.0, 0.0, 1.695419914979739E9, 0.0, 2023-09-22 16:58:34.979
178.0, 21044.659143049616, 33160.31046632653, -51845.74298211849, -53442.99864089473, -37671.69716020789, -21306.666291554724, -187500.02235174447, -30961.837585191442, -10116.645409660985, 17657.274622592286, -49283.227239039814, -45438.41426830462, -17285.27453962261, -49542.12749506563, -51104.87206040288, -42204.58623225525, -0.026093750000000002, 1.00128125, 0.183375, 192.0, 0.0, 0.0, 0.0, 0.0, 0.0, 0.0, 0.0, 0.0, 0.0, 1.695419914979742E9, 0.0, 2023-09-22 16:58:34.979
180.0, 21074.811646319824, 33190.84294925248, -51864.87607537223, -53471.273597630694, -37675.98869514331, -21334.337751190396, -187500.02235174447, -30984.099922668927, -10121.741607396794, 17675.178369900987, -49281.483802972296, -45436.06733513682, -17288.694356524273, -49547.827189901735, -51101.92163013478, -42205.055618888815, -0.026093750000000002, 1.00128125, 0.183375, 192.0, 0.0, 0.0, 0.0, 0.0, 0.0, 0.0, 0.0, 0.0, 0.0, 1.695419915039607E9, 0.0, 2023-09-22 16:58:35.039
182.0, 21042.379265115174, 33147.815841176016, -51856.96355783505, -53450.10649563152, -37680.54845101219, -21312.477745113105, -187500.02235174447, -30972.85699520791, -10126.144901054491, 17654.704171979927, -49276.722881403315, -45439.978890416496, -17294.774031016117, -49549.12359108014, -51108.895374404834, -42208.3636770682, -0.029046875, 1.000640625, 0.1836875, 192.0, 127.5, 0.0, 15.5, 32.0, 2.5, 96.0, 0.0, 0.0, 0.0, 1.695419915039622E9, 0.0, 2023-09-22 16:58:35.039
184.0, 21078.007945776935, 33179.823539236015, -51862.395031737695, -53464.90335046093, -37673.6417619755, -21324.726501074612, -187500.02235174447, -30979.026076677572, -10129.274145278234, 17666.97527968589, -49275.672349413915, -45439.10717238273, -17298.126792684412, -49550.73291668093, -51107.576621481974, -42212.00701141441, -0.029046875, 1.000640625, 0.1836875, 192.0, 0.0, 0.0, 0.0, 0.0, 0.0, 0.0, 0.0, 0.0, 0.0, 1.695419915039626E9, 0.0, 2023-09-22 16:58:35.039
186.0, 21056.416160633107, 33147.01117837562, -51844.133656517704, -53434.57203323508, -37671.5406979967, -21289.50015181305, -187500.02235174447, -30951.46637576418, -10115.90780209396, 17663.376648828584, -49259.44498293936, -45431.46287577902, -17288.537894313085, -49534.72906765093, -51099.17236556678, -42196.74076995144, -0.029046875, 1.000640625, 0.1836875, 192.0, 0.0, 0.0, 0.0, 0.0, 0.0, 0.0, 0.0, 0.0, 0.0, 1.695419915039629E9, 0.0, 2023-09-22 16:58:35.039
188.0, 21079.68432661108, 33166.837175707486, -51863.60202593828, -53468.68079527388, -37670.91484915195, -21322.916009773733, -187500.02235174447, -30973.438140563747, -10112.465633447842, 17676.49712282385, -49259.82496259511, -45431.99931764595, -17289.633129791397, -49535.22080602894, -51096.91483937679, -42195.39966528412, -0.029046875, 1.000640625, 0.1836875, 192.0, 0.0, 0.0, 0.0, 0.0, 0.0, 0.0, 0.0, 0.0, 0.0, 1.695419915039632E9, 0.0, 2023-09-22 16:58:35.039
190.0, 21046.335523883765, 33132.19197180176, -51870.10638357477, -53460.38829808096, -37694.60769827458, -21318.043329482476, -187500.02235174447, -30979.495463311134, -10130.637601690007, 17649.809139944213, -49280.142698304975, -45453.14406790067, -17309.14620270088, -49556.05263186129, -51120.29476407704, -42216.56676728329, -0.029046875, 1.000640625, 0.1836875, 192.0, 0.0, 0.0, 0.0, 0.0, 0.0, 0.0, 0.0, 0.0, 0.0, 1.695419915039636E9, 0.0, 2023-09-22 16:58:35.039
192.0, 21064.574547359294, 33150.676864466295, -51866.6418631842, -53469.15018190744, -37673.59705848659, -21330.26973369953, -187500.02235174447, -30981.104788911915, -10130.212918545356, 17656.44760804744, -49279.00275933776, -45447.22085562001, -17296.942150228282, -49550.37528876964, -51111.62228722838, -42212.454046303515, -0.0275234375, 0.9993203125, 0.18284375, 192.0, 127.5, 24.0, 15.5, 24.0, 2.5, 88.0, 0.0, 0.0, 0.0, 1.69541991503964E9, 0.0, 2023-09-22 16:58:35.039
194.0, 21043.943887227048, 33127.98984384416, -51873.05681384287, -53459.404821324926, -37699.07804716564, -21324.279466185508, -187500.02235174447, -30985.41867559179, -10142.86400590706, 17644.377666041575, -49294.693683945385, -45462.84472499427, -17312.566019602542, -49563.60752148718, -51125.905051935326, -42228.12261916669, -0.0275234375, 0.9993203125, 0.18284375, 192.0, 0.0, 0.0, 0.0, 0.0, 0.0, 0.0, 0.0, 0.0, 0.0, 1.695419915099924E9, 0.0, 2023-09-22 16:58:35.099
196.0, 21062.31702116931, 33140.1715445723, -51858.59523518029, -53461.75175449273, -37668.67967470642, -21327.386358664797, -187500.02235174447, -30976.56738478749, -10120.445206218386, 17660.515625538304, -49272.85602961255, -45441.54351252836, -17292.51650482613, -49541.389887498604, -51103.9109353913, -42205.748522966926, -0.0275234375, 0.9993203125, 0.18284375, 192.0, 0.0, 0.0, 0.0, 0.0, 0.0, 0.0, 0.0, 0.0, 0.0, 1.695419915099937E9, 0.0, 2023-09-22 16:58:35.099
198.0, 21051.387018130663, 33130.85086713444, -51864.83137188332, -53456.320280590095, -37691.25493660628, -21323.094823729378, -187500.02235174447, -30979.875442966873, -10130.52584296773, 17651.463169033905, -49285.03773034069, -45456.16155340213, -17301.166629930332, -49557.95253013999, -51117.61255474241, -42219.33838359575, -0.0275234375, 0.9993203125, 0.18284375, 192.0, 0.0, 0.0, 0.0, 0.0, 0.0, 0.0, 0.0, 0.0, 0.0, 1.69541991509994E9, 0.0, 2023-09-22 16:58:35.099
200.0, 21057.60080308924, 33129.82268688949, -51854.482514200514, -53459.38246958047, -37670.40075902948, -21324.771204563523, -187500.02235174447, -30972.4099603188, -10122.702732408374, 17654.25713709082, -49276.74523314777, -45447.28791085338, -17293.94701647127, -49548.34128002421, -51108.85067091593, -42209.8612439467, -0.0275234375, 0.9993203125, 0.18284375, 192.0, 0.0, 0.0, 0.0, 0.0, 0.0, 0.0, 0.0, 0.0, 0.0, 1.695419915099943E9, 0.0, 2023-09-22 16:58:35.099
202.0, 21054.538614098863, 33130.62734968989, -51866.75362190648, -53456.92377769039, -37692.46193080687, -21321.59725685087, -187500.02235174447, -30978.579041788467, -10134.325639525132, 17656.0676283917, -49290.11157633205, -45456.29566386887, -17304.80996427655, -49557.5949022287, -51118.551328009526, -42219.248976617935, -0.025761718750000002, 0.9966601562499999, 0.18642187500000001, 192.0, 127.5, 32.0, 15.5, 8.0, 2.5, 120.0, 0.0, 0.0, 0.0, 1.695419915099947E9, 0.0, 2023-09-22 16:58:35.099
204.0, 21044.010942460412, 33118.02096581709, -51864.563150949856, -53466.08799291706, -37678.156814355476, -21328.2357249541, -187500.02235174447, -30974.868652208886, -10126.837805132605, 17652.424294045486, -49280.67914017191, -45448.40549807614, -17301.211333419244, -49546.46373348996, -51111.10819710591, -42207.916642179094, -0.025761718750000002, 0.9966601562499999, 0.18642187500000001, 192.0, 0.0, 0.0, 0.0, 0.0, 0.0, 0.0, 0.0, 0.0, 0.0, 1.69541991509995E9, 0.0, 2023-09-22 16:58:35.099
206.0, 21056.93025075558, 33127.185181043766, -51867.64769168469, -53459.538931791656, -37689.91383193897, -21321.239628939587, -187500.02235174447, -30973.28167835256, -10145.590918730608, 17654.212433601908, -49296.14654733498, -45462.84472499427, -17315.292932426088, -49561.685271464026, -51122.23936584465, -42222.959366197516, -0.025761718750000002, 0.9966601562499999, 0.18642187500000001, 192.0, 0.0, 0.0, 0.0, 0.0, 0.0, 0.0, 0.0, 0.0, 0.0, 1.695419915099954E9, 0.0, 2023-09-22 16:58:35.099
208.0, 21041.462843592508, 33104.475808677176, -51863.244398026996, -53465.842123728056, -37678.93912541141, -21328.70511158766, -187500.02235174447, -30972.387608574347, -10131.732837168318, 17649.138587610556, -49282.310817517144, -45452.04883242236, -17297.65740605085, -49550.10706783618, -51110.862327916904, -42210.39768581363, -0.025761718750000002, 0.9966601562499999, 0.18642187500000001, 192.0, 0.0, 0.0, 0.0, 0.0, 0.0, 0.0, 0.0, 0.0, 0.0, 1.695419915099957E9, 0.0, 2023-09-22 16:58:35.099
210.0, 21063.03227699188, 33131.9684543572, -51865.256055027974, -53462.10938240402, -37690.36086682807, -21328.21337320964, -187500.02235174447, -30976.99206793214, -10141.321735539645, 17652.44664578994, -49292.81613741114, -45461.52597207141, -17306.307531155056, -49562.53463775333, -51118.39486579834, -42220.277156862874, -0.025761718750000002, 0.9966601562499999, 0.18642187500000001, 192.0, 0.0, 0.0, 0.0, 0.0, 0.0, 0.0, 0.0, 0.0, 0.0, 1.695419915160129E9, 0.0, 2023-09-22 16:58:35.160
212.0, 21039.339427869254, 33105.48163717766, -51850.369793220736, -53451.11232413201, -37672.09949160808, -21316.523410859518, -187500.02235174447, -30961.636419491344, -10123.887374864504, 17652.312535323206, -49271.91725634543, -45442.66109975113, -17289.543722813574, -49541.21107354297, -51102.50277549062, -42200.04882813082, -0.025880859375000002, 0.997330078125, 0.1852109375, 192.0, 127.5, 24.0, 15.5, 24.0, 2.5, 96.0, 0.0, 0.0, 0.0, 1.695419915160142E9, 0.0, 2023-09-22 16:58:35.160
214.0, 21063.07698048079, 33134.69536718075, -51870.911046375164, -53466.98206269528, -37688.70683773838, -21332.46020465615, -187500.02235174447, -30982.535300557054, -10138.460712249365, 17655.441779546953, -49292.79378566668, -45457.14503015817, -17304.541743343085, -49560.344166796705, -51114.81858668549, -42217.08085740577, -0.025880859375000002, 0.997330078125, 0.1852109375, 192.0, 0.0, 0.0, 0.0, 0.0, 0.0, 0.0, 0.0, 0.0, 0.0, 1.695419915160145E9, 0.0, 2023-09-22 16:58:35.160
216.0, 21036.478404578975, 33102.75472435412, -51859.534008447416, -53454.375678822485, -37677.95564865538, -21316.769280048524, -187500.02235174447, -30966.196175360226, -10129.341200511599, 17646.948116653934, -49280.74619540527, -45446.259730608435, -17301.65836830835, -49548.408335257576, -51110.77292093908, -42205.97204041148, -0.025880859375000002, 0.997330078125, 0.1852109375, 192.0, 0.0, 0.0, 0.0, 0.0, 0.0, 0.0, 0.0, 0.0, 0.0, 1.695419915160148E9, 0.0, 2023-09-22 16:58:35.160
218.0, 21074.655184108637, 33140.86444865041, -51859.668118914145, -53458.264882357704, -37676.3463230546, -21319.74206206108, -187500.02235174447, -30969.41482656179, -10131.799892401683, 17665.45536106293, -49281.03676808319, -45446.37148933071, -17299.93728398529, -49551.20230331449, -51106.950772637225, -42205.614412500196, -0.025880859375000002, 0.997330078125, 0.1852109375, 192.0, 0.0, 0.0, 0.0, 0.0, 0.0, 0.0, 0.0, 0.0, 0.0, 1.695419915160152E9, 0.0, 2023-09-22 16:58:35.160
220.0, 21039.428834847073, 33099.781942341564, -51852.247339754984, -53448.67598398638, -37675.58636374311, -21309.12498344481, -187500.02235174447, -30961.07762587996, -10122.032180074713, 17657.989878414857, -49266.441078953874, -45436.670832237105, -17284.671042522317, -49535.0419920733, -51097.943019621736, -42190.48228150395, -0.025880859375000002, 0.997330078125, 0.1852109375, 192.0, 0.0, 0.0, 0.0, 0.0, 0.0, 0.0, 0.0, 0.0, 0.0, 1.695419915160155E9, 0.0, 2023-09-22 16:58:35.160
222.0, 21071.16831197361, 33134.33773926947, -51875.78372666642, -53475.49807733275, -37690.852605206084, -21337.422291925228, -187500.02235174447, -30989.374934360378, -10143.020468118248, 17656.671125491994, -49294.71603568984, -45461.81654474933, -17303.133583442403, -49559.87478016315, -51118.774845454085, -42218.35490683972, -0.0229404296875, 0.9976650390624999, 0.18060546875, 192.0, 127.5, 48.0, 15.5, 24.0, 2.5, 64.0, 0.0, 0.0, 0.0, 1.695419915160158E9, 0.0, 2023-09-22 16:58:35.160
224.0, 21033.460919077508, 33092.11529399339, -51872.63213069822, -53462.35525159303, -37696.731113997834, -21324.8829632858, -187500.02235174447, -30979.294297611035, -10139.600651216586, 17643.528299752274, -49289.41867225393, -45456.49682956896, -17302.150106686368, -49548.96712886896, -51120.25006058813, -42212.29758409233, -0.0229404296875, 0.9976650390624999, 0.18060546875, 192.0, 0.0, 0.0, 0.0, 0.0, 0.0, 0.0, 0.0, 0.0, 0.0, 1.695419915220447E9, 0.0, 2023-09-22 16:58:35.220
226.0, 21069.179006717088, 33132.39313750185, -51880.701110446586, -53480.90719949093, -37695.12178839705, -21342.898469316777, -187500.02235174447, -30990.984259961162, -10148.273128065244, 17648.758607954813, -49302.96382939385, -45468.29855064137, -17313.884772525405, -49563.09343136471, -51129.72720023718, -42224.72515400948, -0.0229404296875, 0.9976650390624999, 0.18060546875, 192.0, 0.0, 0.0, 0.0, 0.0, 0.0, 0.0, 0.0, 0.0, 0.0, 1.69541991522051E9, 0.0, 2023-09-22 16:58:35.220
228.0, 21034.31028536681, 33092.76349458259, -51862.797363137885, -53455.60502476752, -37690.62908776153, -21317.328073659908, -187500.02235174447, -30969.593640517433, -10139.354782027576, 17637.850956660623, -49293.777262422715, -45464.61051280624, -17310.152031201367, -49554.91269289407, -51126.240328102154, -42215.44918006053, -0.0229404296875, 0.9976650390624999, 0.18060546875, 192.0, 0.0, 0.0, 0.0, 0.0, 0.0, 0.0, 0.0, 0.0, 0.0, 1.695419915220515E9, 0.0, 2023-09-22 16:58:35.220
230.0, 21075.303384697843, 33134.51655322511, -51861.210389281565, -53469.97719645229, -37678.782663200225, -21333.644847112282, -187500.02235174447, -30977.103826654416, -10130.01175284526, 17658.235747603863, -49287.04938734167, -45457.2791406249, -17306.50869685515, -49551.49287599241, -51114.17038609629, -42209.68242999106, -0.0229404296875, 0.9976650390624999, 0.18060546875, 192.0, 0.0, 0.0, 0.0, 0.0, 0.0, 0.0, 0.0, 0.0, 0.0, 1.695419915220518E9, 0.0, 2023-09-22 16:58:35.220
232.0, 21045.039122705355, 33102.95589005422, -51849.7886478649, -53443.870358928485, -37685.778759214736, -21309.25909391154, -187500.02235174447, -30961.479957280157, -10129.520014467242, 17643.81887243019, -49284.32247451812, -45458.352024358755, -17300.31726364103, -49550.688213192014, -51118.148996609336, -42211.269403847386, -0.02447021484375, 0.99883251953125, 0.181302734375, 192.0, 127.5, 24.0, 15.5, 32.0, 2.5, 88.0, 0.0, 0.0, 0.0, 1.695419915220528E9, 0.0, 2023-09-22 16:58:35.220
234.0, 21079.952547544544, 33142.786698673575, -51843.06077278385, -53451.11232413201, -37661.77298566973, -21313.930608502702, -187500.02235174447, -30954.93089615475, -10116.779520127717, 17671.691497765958, -49270.79966912266, -45440.13535262768, -17280.89359770937, -49533.81264612826, -51098.05477834401, -42192.02455187137, -0.02447021484375, 0.99883251953125, 0.181302734375, 192.0, 0.0, 0.0, 0.0, 0.0, 0.0, 0.0, 0.0, 0.0, 0.0, 1.695419915220531E9, 0.0, 2023-09-22 16:58:35.220
236.0, 21044.100349438235, 33106.6662796338, -51857.991738079996, -53448.072486886085, -37692.30546859568, -21309.840239267378, -187500.02235174447, -30964.22922184816, -10130.90582262347, 17654.033619646267, -49285.99885535227, -45451.44533532207, -17298.171496173323, -49543.20037879948, -51113.030447129066, -42201.92637466507, -0.02447021484375, 0.99883251953125, 0.181302734375, 192.0, 0.0, 0.0, 0.0, 0.0, 0.0, 0.0, 0.0, 0.0, 0.0, 1.695419915220535E9, 0.0, 2023-09-22 16:58:35.220
238.0, 21071.637698607174, 33132.32608226849, -51856.91885434614, -53462.48936205976, -37677.575668999634, -21326.089957486387, -187500.02235174447, -30969.660695750797, -10131.95635461287, 17658.369858070597, -49288.36814026453, -45449.746602743464, -17300.071394452025, -49542.35101251018, -51113.90216516283, -42204.51917702189, -0.02447021484375, 0.99883251953125, 0.181302734375, 192.0, 0.0, 0.0, 0.0, 0.0, 0.0, 0.0, 0.0, 0.0, 0.0, 1.695419915220538E9, 0.0, 2023-09-22 16:58:35.220
