%OpenBCI Raw EXG Data
%Number of channels = 16
%Sample Rate = 125 Hz
%Board = OpenBCI_GUI$BoardCytonSerialDaisy
Sample Index, EXG Channel 0, EXG Channel 1, EXG Channel 2, EXG Channel 3, EXG Channel 4, EXG Channel 5, EXG Channel 6, EXG Channel 7, EXG Channel 8, EXG Channel 9, EXG Channel 10, EXG Channel 11, EXG Channel 12, EXG Channel 13, EXG Channel 14, EXG Channel 15, Accel Channel 0, Accel Channel 1, Accel Channel 2, Other, Other, Other, Other, Other, Other, Other, Analog Channel 0, Analog Channel 1, Analog Channel 2, Timestamp, Other, Timestamp (Formatted)
0.0, 20790.631567315053, 33136.975245115194, -51161.71254655273, -51299.57810635306, -36705.09597123814, -20942.958705777968, -187500.02235174447, -26639.233724979607, 0.0, 0.0, 0.0, 0.0, 0.0, 0.0, 0.0, 0.0, 0.001, 0.496, 0.099, 192.0, 0.0, 8.0, 15.5, 0.0, 3.0, 24.0, 0.0, 0.0, 0.0, 1.695420023133888E9, 0.0, 2023-09-22 17:00:23.133
210.0, 20788.374041125066, 33136.50585848163, -51146.17808415629, -51268.46447807127, -36707.174683472476, -20911.12982167361, -187500.02235174447, -26624.436870150195, -9503.648817974188, 18591.845761757584, -47973.549124425546, -44157.99458718236, -18180.998346924585, -47007.86435697846, -49317.2912975897, -41529.54119796052, 0.001, 0.496, 0.099, 192.0, 0.0, 0.0, 0.0, 0.0, 0.0, 0.0, 0.0, 0.0, 0.0, 1.695420023133898E9, 0.0, 2023-09-22 17:00:23.133
212.0, 20795.750116795316, 33141.110317839426, -51139.181988141776, -51278.790984009625, -36682.02897096026, -20922.015121223347, -187500.02235174447, -26621.151163715265, -9483.755765408965, 18606.530857864724, -47947.64345260185, -44136.40280203853, -18160.97118389263, -46990.49705153669, -49295.27482930122, -41510.4975116846, 0.001, 0.496, 0.099, 192.0, 0.0, 0.0, 0.0, 0.0, 0.0, 0.0, 0.0, 0.0, 0.0, 1.695420023133902E9, 0.0, 2023-09-22 17:00:23.133
214.0, 20792.240892915834, 33141.33383528398, -51146.98274695668, -51271.593722295016, -36702.92785202597, -20916.114260687144, -187500.02235174447, -26624.95096027267, -9491.914152135152, 18604.854477030574, -47954.01369977161, -44146.77401146579, -18174.628099754824, -46999.72832199673, -49303.209698582854, -41519.46056121118, 0.001, 0.496, 0.099, 192.0, 0.0, 0.0, 0.0, 0.0, 0.0, 0.0, 0.0, 0.0, 0.0, 1.695420023133906E9, 0.0, 2023-09-22 17:00:23.133
216.0, 20793.02320397177, 33138.4728119937, -51141.417162587306, -51276.354643864, -36687.371037885074, -20921.121051445134, -187500.02235174447, -26619.98887300359, -9492.182373068616, 18599.62416882803, -47950.057441003024, -44143.8682846866, -18167.006154895564, -46995.995580672694, -49302.51679450474, -41516.5995379209, 0.001, 0.496, 0.099, 192.0, 0.0, 0.0, 0.0, 0.0, 0.0, 0.0, 0.0, 0.0, 0.0, 1.695420023133909E9, 0.0, 2023-09-22 17:00:23.133
218.0, 20794.319605150176, 33141.15502132833, -51161.131401196886, -51283.686016045336, -36717.255320221826, -20932.31927541724, -187500.02235174447, -26641.401844191772, -9499.670207461144, 18603.222799685336, -47962.35090045344, -44155.26767435881, -18176.863274200354, -47010.121883168445, -49318.02890515672, -41531.46344798368, 0.0025, 0.742, 0.15150000000000002, 192.0, 0.0, 16.0, 15.0, 112.0, 3.0, 48.0, 0.0, 0.0, 0.0, 1.695420023133913E9, 0.0, 2023-09-22 17:00:23.133
220.0, 20781.601462555107, 33129.17448630029, -51149.664956291315, -51278.96979796527, -36693.897747266026, -20926.932505003515, -187500.02235174447, -26629.443660908182, -9491.198896312582, 18591.219912912835, -47953.566664882506, -44148.673909744495, -18172.54938752048, -47000.689447008306, -49315.92784117792, -41523.59563393541, 0.0025, 0.742, 0.15150000000000002, 192.0, 0.0, 0.0, 0.0, 0.0, 0.0, 0.0, 0.0, 0.0, 0.0, 1.695420023133916E9, 0.0, 2023-09-22 17:00:23.133
222.0, 20793.090259205135, 33139.81391666102, -51160.1255726964, -51286.14470793542, -36712.02501201928, -20934.085063229213, -187500.02235174447, -26642.27356222553, -9497.815012671354, 18605.860305531063, -47965.18957199926, -44156.921703448505, -18178.78552422351, -47009.67484827934, -49319.794692968695, -41532.33516601744, 0.0025, 0.742, 0.15150000000000002, 192.0, 0.0, 0.0, 0.0, 0.0, 0.0, 0.0, 0.0, 0.0, 0.0, 1.695420023133919E9, 0.0, 2023-09-22 17:00:23.133
224.0, 20782.562587566685, 33122.40190773033, -51145.41812484481, -51279.88621948793, -36693.07073272118, -20926.060786969756, -187500.02235174447, -26629.153088230265, -9485.342739265292, 18590.437601856902, -47953.700775349236, -44152.29489234625, -18172.527035776024, -47002.20936563127, -49316.2407656003, -41524.51205545808, 0.0025, 0.742, 0.15150000000000002, 192.0, 0.0, 0.0, 0.0, 0.0, 0.0, 0.0, 0.0, 0.0, 0.0, 1.695420023133923E9, 0.0, 2023-09-22 17:00:23.133
0.0, 10409.96735214798, 16552.36083893309, -25541.561906523933, -25586.4889128791, -18318.752148002644, -10416.583468506751, -93750.01117587223, -13222.308543003624, -4743.88953970546, 9298.07982421873, -23980.024335387272, -22080.148408430625, -9090.432118228928, -23505.40739362328, -24661.68548604077, -20766.91636644797, 0.006, 0.992, 0.188, 192.0, 0.0, 24.0, 15.5, 0.0, 2.5, 112.0, 0.0, 0.0, 0.0, 1.695420023267131E9, 0.0, 2023-09-22 17:00:23.267
2.0, 20816.894867050036, 33094.14930273882, -51068.706937874194, -51171.2790931796, -36611.039830570204, -20832.094053279645, -187500.02235174447, -26433.061234123856, -9414.890040742164, 18723.788109277262, -47858.5941026919, -44042.07844043714, -18199.527943078036, -46808.46444469267, -49213.48979633925, -41571.875401958874, 0.006, 0.992, 0.188, 192.0, 0.0, 0.0, 0.0, 0.0, 0.0, 0.0, 0.0, 0.0, 0.0, 1.695420023267143E9, 0.0, 2023-09-22 17:00:23.267
4.0, 20835.580925414673, 33115.294052993544, -51082.0062258251, -51179.571590372514, -36622.26040628677, -20841.07945455068, -187500.02235174447, -26444.95236217408, -9415.582944820278, 18736.975638505894, -47864.87494288385, -44046.50408583928, -18199.55029482249, -46815.706409896186, -49215.38969461795, -41578.84914622893, 0.006, 0.992, 0.188, 192.0, 0.0, 0.0, 0.0, 0.0, 0.0, 0.0, 0.0, 0.0, 0.0, 1.695420023267146E9, 0.0, 2023-09-22 17:00:23.267
6.0, 20798.87936101906, 33074.79269204053, -51085.24722877112, -51184.26545670813, -36623.10977257607, -20844.18634702997, -187500.02235174447, -26445.824080207836, -9414.264191897415, 18714.422728350488, -47865.92547487324, -44052.606112075584, -18203.84182975791, -46814.32060173996, -49219.30124989763, -41578.08918691745, 0.006, 0.992, 0.188, 192.0, 0.0, 0.0, 0.0, 0.0, 0.0, 0.0, 0.0, 0.0, 0.0, 1.69542002326715E9, 0.0, 2023-09-22 17:00:23.267
8.0, 20829.814175345204, 33110.30961398001, -51090.87986837386, -51189.22754397721, -36620.31580451915, -20847.494405209352, -187500.02235174447, -26451.367312832754, -9423.875442013197, 18729.264286668815, -47882.82339368146, -44064.11726047007, -18218.728091565143, -46828.04457283552, -49228.82309303559, -41591.030846957074, 0.018000000000000002, 0.996, 0.182, 192.0, 0.0, 72.0, 15.5, 16.0, 2.5, 88.0, 0.0, 0.0, 0.0, 1.695420023267153E9, 0.0, 2023-09-22 17:00:23.267
10.0, 20793.246721416323, 33073.67510481776, -51085.269580515574, -51181.49384039568, -36619.73465916332, -20838.956038827426, -187500.02235174447, -26442.516022028452, -9415.71705528701, 18719.02718770828, -47872.6980534432, -44054.95304524339, -18209.295655405003, -46815.16996802926, -49221.134092942964, -41580.816099740994, 0.018000000000000002, 0.996, 0.182, 192.0, 0.0, 0.0, 0.0, 0.0, 0.0, 0.0, 0.0, 0.0, 0.0, 1.695420023267156E9, 0.0, 2023-09-22 17:00:23.267
12.0, 20825.232067731868, 33101.190102242246, -51092.66800793028, -51194.70372136876, -36622.506275475775, -20852.210623289422, -187500.02235174447, -26450.875574454734, -9425.19419493606, 18728.146699446046, -47885.48325127164, -44064.87721978155, -18214.481260118635, -46829.11745656937, -49227.03495347917, -41590.60616381242, 0.018000000000000002, 0.996, 0.182, 192.0, 0.0, 0.0, 0.0, 0.0, 0.0, 0.0, 0.0, 0.0, 0.0, 1.695420023267159E9, 0.0, 2023-09-22 17:00:23.267
14.0, 20788.910482991992, 33059.05706394399, -51092.891525374835, -51189.69693061077, -36631.469325002356, -20849.617820932606, -187500.02235174447, -26450.89792619919, -9430.111578716229, 18700.94462644394, -47885.527954760546, -44069.191106461425, -18218.906905520787, -46831.553796715, -49233.40520064893, -41593.064855702505, 0.018000000000000002, 0.996, 0.182, 192.0, 0.0, 0.0, 0.0, 0.0, 0.0, 0.0, 0.0, 0.0, 0.0, 1.695420023267162E9, 0.0, 2023-09-22 17:00:23.267
16.0, 20824.516811909296, 33097.27854696257, -51096.64661844333, -51201.968038316736, -36623.53445572072, -20860.145492571057, -187500.02235174447, -26455.77060649045, -9432.81613979532, 18717.12728942958, -47892.00996065259, -44073.21442046337, -18218.057539231486, -46838.86281715189, -49234.567491360605, -41599.211585427714, 0.018000000000000002, 0.996, 0.182, 192.0, 0.0, 0.0, 0.0, 0.0, 0.0, 0.0, 0.0, 0.0, 0.0, 1.695420023327402E9, 0.0, 2023-09-22 17:00:23.327
18.0, 20790.16218068149, 33054.96669470867, -51088.5105834616, -51183.572552630016, -36625.3449470216, -20840.230088261378, -187500.02235174447, -26441.510193527964, -9428.05521822634, 18702.889228211552, -47886.19850709421, -44072.00742626279, -18214.503611863092, -46829.56449145848, -49232.84640703755, -41590.963791723705, 0.024, 0.996, 0.168, 192.0, 0.0, 96.0, 15.5, 16.0, 2.5, 32.0, 0.0, 0.0, 0.0, 1.695420023327413E9, 0.0, 2023-09-22 17:00:23.327
20.0, 20825.79086134325, 33093.478750405164, -51095.618438198384, -51203.39854996187, -36618.05827832917, -20860.61487920462, -187500.02235174447, -26454.205984378576, -9424.68010481359, 18724.033978466272, -47882.108137858886, -44063.312597669676, -18210.100318205397, -46827.57518620195, -49223.97276448879, -41588.37098936689, 0.024, 0.996, 0.168, 192.0, 0.0, 0.0, 0.0, 0.0, 0.0, 0.0, 0.0, 0.0, 0.0, 1.695420023327417E9, 0.0, 2023-09-22 17:00:23.327
22.0, 20795.97363423987, 33060.04054070003, -51089.739929406634, -51182.54437238507, -36630.86582790206, -20842.241745262356, -187500.02235174447, -26446.38287381922, -9440.214567210027, 18694.708489740908, -47892.61345775288, -44075.471946653364, -18235.961286540187, -46838.68400319624, -49241.40712516393, -41602.20671918472, 0.024, 0.996, 0.168, 192.0, 0.0, 0.0, 0.0, 0.0, 0.0, 0.0, 0.0, 0.0, 0.0, 1.69542002332742E9, 0.0, 2023-09-22 17:00:23.327
24.0, 20833.189288757956, 33097.92674755177, -51079.63694091284, -51186.0312445201, -36608.62584216903, -20845.862727864114, -187500.02235174447, -26440.99610340549, -9419.785072777877, 18727.386740134567, -47873.86034415488, -44053.81310627617, -18214.79418454101, -46822.25547102159, -49221.424665620885, -41584.14650966484, 0.024, 0.996, 0.168, 192.0, 0.0, 0.0, 0.0, 0.0, 0.0, 0.0, 0.0, 0.0, 0.0, 1.695420023327423E9, 0.0, 2023-09-22 17:00:23.327
26.0, 20801.20394244241, 33061.24753490061, -51085.895429360324, -51181.22561946221, -36638.91245590597, -20842.12998654008, -187500.02235174447, -26447.791033719903, -9423.808386779832, 18718.356635374625, -47876.34138778942, -44058.126992956044, -18216.537620608524, -46823.395409988814, -49228.621927335495, -41588.303934133524, 0.024, 0.996, 0.168, 192.0, 0.0, 0.0, 0.0, 0.0, 0.0, 0.0, 0.0, 0.0, 0.0, 1.695420023327427E9, 0.0, 2023-09-22 17:00:23.327
28.0, 20822.572210141687, 33082.9063752778, -51091.03633058505, -51202.77270111712, -36630.44114475741, -20863.855882150638, -187500.02235174447, -26457.581097791328, -9425.775340291899, 18725.97858023388, -47879.783556435534, -44058.842248778616, -18215.42003338576, -46824.33418325594, -49228.46546512431, -41590.58381206797, 0.018000000000000002, 1.0, 0.17200000000000001, 192.0, 0.0, 72.0, 15.5, 32.0, 2.5, 48.0, 0.0, 0.0, 0.0, 1.69542002332743E9, 0.0, 2023-09-22 17:00:23.327
30.0, 20798.208808685402, 33060.554630822495, -51092.28802827455, -51188.46758466573, -36652.05528164569, -20852.009457589324, -187500.02235174447, -26457.46933906905, -9440.974526521508, 18705.370271846088, -47893.7533967201, -44075.91898154247, -18235.916583051276, -46842.01441312009, -49248.91731130092, -41607.124102964895, 0.018000000000000002, 1.0, 0.17200000000000001, 192.0, 0.0, 0.0, 0.0, 0.0, 0.0, 0.0, 0.0, 0.0, 0.0, 1.695420023386583E9, 0.0, 2023-09-22 17:00:23.386
32.0, 20821.141698496547, 33084.78392181205, -51084.9566560932, -51197.67650338131, -36626.46253424437, -20858.35735301463, -187500.02235174447, -26452.976638433534, -9427.071741470307, 18721.50823134282, -47878.84478316841, -44061.59151334662, -18221.142079966317, -46826.63641293483, -49230.27595642519, -41592.014323713105, 0.018000000000000002, 1.0, 0.17200000000000001, 192.0, 0.0, 0.0, 0.0, 0.0, 0.0, 0.0, 0.0, 0.0, 0.0, 1.695420023386597E9, 0.0, 2023-09-22 17:00:23.386
34.0, 20799.818134286183, 33065.13673843584, -51100.647580700825, -51195.64249463588, -36655.385691569536, -20856.345696013654, -187500.02235174447, -26464.711304272572, -9441.265099199427, 18709.57239980369, -47894.24513509812, -44077.1036239986, -18236.162452240285, -46842.14852358682, -49249.096125256554, -41609.493387877155, 0.018000000000000002, 1.0, 0.17200000000000001, 192.0, 0.0, 0.0, 0.0, 0.0, 0.0, 0.0, 0.0, 0.0, 0.0, 1.695420023386601E9, 0.0, 2023-09-22 17:00:23.386
36.0, 20818.437137417455, 33079.75477930961, -51085.22487702667, -51193.921410312825, -36619.60054869659, -20855.764550657816, -187500.02235174447, -26450.62970526573, -9423.227241423994, 18723.5198883438, -47875.268504055566, -44055.22126617686, -18217.87872527584, -46822.45663672169, -49230.87945352548, -41591.14260567935, 0.018000000000000002, 1.0, 0.17200000000000001, 192.0, 0.0, 0.0, 0.0, 0.0, 0.0, 0.0, 0.0, 0.0, 0.0, 1.695420023386604E9, 0.0, 2023-09-22 17:00:23.386
38.0, 20806.12132622258, 33070.143529193825, -51098.568868466486, -51193.69789286827, -36649.82010720016, -20858.31264952572, -187500.02235174447, -26461.649115282195, -9437.934689275586, 18716.5684958182, -47889.28304782904, -44070.97924601784, -18239.023475530565, -46840.315680541484, -49244.37990717649, -41603.63723082987, 0.022, 0.994, 0.17200000000000001, 192.0, 0.0, 88.0, 15.5, 8.0, 2.5, 48.0, 0.0, 0.0, 0.0, 1.695420023386608E9, 0.0, 2023-09-22 17:00:23.386
40.0, 20813.720919337382, 33074.345657151425, -51079.547533935016, -51188.75815734365, -36618.77353415174, -20853.194100045457, -187500.02235174447, -26445.779376718925, -9419.449796611047, 18721.88821099856, -47872.6980534432, -44057.90347551149, -18217.811670042476, -46823.50716871109, -49226.16323544541, -41585.19704165424, 0.022, 0.994, 0.17200000000000001, 192.0, 0.0, 0.0, 0.0, 0.0, 0.0, 0.0, 0.0, 0.0, 0.0, 1.695420023386611E9, 0.0, 2023-09-22 17:00:23.386
42.0, 20808.82588730167, 33073.22806992866, -51101.139319078844, -51198.92820107081, -36649.842458944615, -20863.09592283916, -187500.02235174447, -26465.270097883953, -9435.29718342986, 18719.742443530853, -47891.09353912992, -44076.00838852029, -18226.864126546876, -46838.23696830714, -49240.55775887463, -41600.57504183949, 0.022, 0.994, 0.17200000000000001, 192.0, 0.0, 0.0, 0.0, 0.0, 0.0, 0.0, 0.0, 0.0, 0.0, 1.695420023386614E9, 0.0, 2023-09-22 17:00:23.386
44.0, 20797.94058775194, 33058.72178777716, -51096.24428704313, -51207.42186396383, -36633.548037236695, -20870.069667109212, -187500.02235174447, -26465.918298473156, -9437.286488686383, 18706.89019046905, -47890.825318196454, -44080.076406011154, -18227.869955047365, -46837.61111946239, -49242.63647110897, -41601.29029766206, 0.022, 0.994, 0.17200000000000001, 192.0, 0.0, 0.0, 0.0, 0.0, 0.0, 0.0, 0.0, 0.0, 0.0, 1.695420023386617E9, 0.0, 2023-09-22 17:00:23.386
46.0, 20808.468259390385, 33075.06091297399, -51102.748644679625, -51203.778529617615, -36647.56258101018, -20867.65567870804, -187500.02235174447, -26471.081551442334, -9446.115427746228, 18711.114670171104, -47903.74462649162, -44092.2581067393, -18236.475376662656, -46849.189323090235, -49252.98532879178, -41615.26013794662, 0.022, 0.994, 0.17200000000000001, 192.0, 0.0, 0.0, 0.0, 0.0, 0.0, 0.0, 0.0, 0.0, 0.0, 1.695420023446539E9, 0.0, 2023-09-22 17:00:23.446
48.0, 20802.701509320916, 33063.438005857235, -51071.81383035348, -51182.879648551905, -36613.67733641593, -20846.756797642327, -187500.02235174447, -26442.068987139344, -9419.516851844413, 18718.37898711908, -47874.37443427735, -44066.37478666005, -18213.117803706864, -46818.47802620864, -49227.21376743481, -41584.32532362048, 0.024, 1.0, 0.17200000000000001, 192.0, 0.0, 96.0, 15.5, 32.0, 2.5, 48.0, 0.0, 0.0, 0.0, 1.695420023446553E9, 0.0, 2023-09-22 17:00:23.446
50.0, 20817.02897751677, 33082.9063752778, -51091.03633058505, -51197.073006281025, -36635.224418070844, -20859.094960581657, -187500.02235174447, -26461.8949844712, -9435.498349129957, 18728.124347701592, -47895.586239765435, -44082.3562839456, -18225.299504435006, -46835.59946246141, -49238.09906698455, -41601.312649406515, 0.024, 1.0, 0.17200000000000001, 192.0, 0.0, 0.0, 0.0, 0.0, 0.0, 0.0, 0.0, 0.0, 0.0, 1.695420023446557E9, 0.0, 2023-09-22 17:00:23.446
52.0, 20798.320567407678, 33060.66638954477, -51079.65929265729, -51190.36748294443, -36618.97469985184, -20851.204794788933, -187500.02235174447, -26447.94749593109, -9424.166014691116, 18717.4178621075, -47884.14214660432, -44072.29799894071, -18219.443347387714, -46820.467331465166, -49231.30413667013, -41588.92978297827, 0.024, 1.0, 0.17200000000000001, 192.0, 0.0, 0.0, 0.0, 0.0, 0.0, 0.0, 0.0, 0.0, 0.0, 1.69542002344656E9, 0.0, 2023-09-22 17:00:23.446
54.0, 20821.78989908575, 33088.248442202625, -51104.581487724965, -51212.160433788355, -36643.069880374656, -20874.56236774473, -187500.02235174447, -26474.43431311063, -9440.080456743295, 18717.97665571888, -47908.63965852734, -44093.7556736178, -18237.548260396514, -46846.194189333226, -49252.09125901357, -41616.73535308067, 0.024, 1.0, 0.17200000000000001, 192.0, 0.0, 0.0, 0.0, 0.0, 0.0, 0.0, 0.0, 0.0, 0.0, 1.695420023446564E9, 0.0, 2023-09-22 17:00:23.446
56.0, 20785.378907368053, 33045.86953471536, -51085.291932260036, -51191.70858761175, -36627.22249355585, -20853.574079701197, -187500.02235174447, -26449.959152932068, -9427.876404270697, 18701.03403342176, -47897.03910315503, -44086.3572462031, -18223.690178834222, -46831.59850020391, -49245.16221823242, -41603.838396529965, 0.024, 1.0, 0.17200000000000001, 192.0, 0.0, 0.0, 0.0, 0.0, 0.0, 0.0, 0.0, 0.0, 0.0, 1.695420023446567E9, 0.0, 2023-09-22 17:00:23.446
58.0, 20813.40799491501, 33076.31261066349, -51099.619400455886, -51208.65120990887, -36637.81722042766, -20870.382591531587, -187500.02235174447, -26465.068932183854, -9435.96773576352, 18713.595713805644, -47905.175138136765, -44089.464138682386, -18225.254800946095, -46835.420648505766, -49242.21178796432, -41605.04539073055, 0.022, 1.004, 0.17400000000000002, 192.0, 0.0, 88.0, 15.5, 48.0, 2.5, 56.0, 0.0, 0.0, 0.0, 1.69542002344657E9, 0.0, 2023-09-22 17:00:23.446
60.0, 20784.238968400834, 33038.38170032283, -51082.609722925394, -51186.81355557604, -36624.92026387695, -20848.83550987667, -187500.02235174447, -26443.633609251217, -9431.810311294832, 18694.730841485365, -47899.0060566671, -44087.67599912596, -18227.35586492489, -46830.458561236694, -49240.244834452256, -41599.45745461672, 0.022, 1.004, 0.17400000000000002, 192.0, 0.0, 0.0, 0.0, 0.0, 0.0, 0.0, 0.0, 0.0, 0.0, 1.69542002350672E9, 0.0, 2023-09-22 17:00:23.506
62.0, 20823.17570724198, 33075.77616879656, -51088.555286950505, -51203.33149472851, -36624.272063287746, -20864.302917039742, -187500.02235174447, -26457.692856513604, -9431.385628150181, 18709.17006840349, -47902.515280546584, -44089.88882182704, -18224.830117801444, -46838.32637528496, -49235.327450672085, -41602.430236629276, 0.022, 1.004, 0.17400000000000002, 192.0, 0.0, 0.0, 0.0, 0.0, 0.0, 0.0, 0.0, 0.0, 0.0, 1.695420023506742E9, 0.0, 2023-09-22 17:00:23.506
64.0, 20790.87743650406, 33039.365177078864, -51083.23557177014, -51189.60752363295, -36628.98828136781, -20851.517719211308, -187500.02235174447, -26448.461586053563, -9417.415787865613, 18701.57047528869, -47885.326789060455, -44077.081272254145, -18221.812632299978, -46825.69763966771, -49230.00773549172, -41591.63434405736, 0.022, 1.004, 0.17400000000000002, 192.0, 0.0, 0.0, 0.0, 0.0, 0.0, 0.0, 0.0, 0.0, 0.0, 1.695420023506747E9, 0.0, 2023-09-22 17:00:23.506
66.0, 20818.973579284382, 33072.28929666153, -51099.887621389345, -51213.054503566564, -36632.229284313835, -20874.070629366714, -187500.02235174447, -26467.393513607207, -9436.906509030641, 18707.73955675835, -47904.39282708083, -44090.93935381644, -18236.60948712939, -46843.400221276315, -49242.03297400868, -41606.87823377588, 0.022, 1.004, 0.17400000000000002, 192.0, 0.0, 0.0, 0.0, 0.0, 0.0, 0.0, 0.0, 0.0, 0.0, 1.69542002350675E9, 0.0, 2023-09-22 17:00:23.506
68.0, 20783.59076781163, 33030.87151418585, -51094.97023760918, -51197.631799892406, -36640.20885708438, -20859.005553603834, -187500.02235174447, -26458.67633326964, -9441.510968388435, 18691.668652494987, -47899.922478189765, -44090.73818811634, -18234.17314698376, -46838.10285784041, -49245.51984614371, -41603.45841687422, 0.022, 1.002, 0.17200000000000001, 192.0, 0.0, 88.0, 15.5, 40.0, 2.5, 48.0, 0.0, 0.0, 0.0, 1.695420023506754E9, 0.0, 2023-09-22 17:00:23.506
70.0, 20813.07271874818, 33064.82381401346, -51102.8604034019, -51220.29646877009, -36632.721022691854, -20878.65273698005, -187500.02235174447, -26469.204004908086, -9445.489578901479, 18704.498553812333, -47909.82430098347, -44096.907269586, -18237.749426096612, -46845.99302363313, -49247.50915140023, -41610.70038207774, 0.022, 1.002, 0.17200000000000001, 192.0, 0.0, 0.0, 0.0, 0.0, 0.0, 0.0, 0.0, 0.0, 0.0, 1.695420023506757E9, 0.0, 2023-09-22 17:00:23.506
72.0, 20782.987270711335, 33033.017281653556, -51097.1607085658, -51201.00691330516, -36640.23120882883, -20857.32917276969, -187500.02235174447, -26458.81044373637, -9433.933727018086, 18693.657957751508, -47900.92830669026, -44092.9063073285, -18229.61339111488, -46838.86281715189, -49244.33520368757, -41605.20185294174, 0.022, 1.002, 0.17200000000000001, 192.0, 0.0, 0.0, 0.0, 0.0, 0.0, 0.0, 0.0, 0.0, 0.0, 1.69542002350676E9, 0.0, 2023-09-22 17:00:23.506
74.0, 20811.195172213935, 33064.95792448019, -51103.97799062467, -51218.307163513564, -36629.859999401575, -20874.00357413335, -187500.02235174447, -26468.376990363242, -9437.666468342122, 18707.806611991717, -47907.52207130457, -44096.01319980779, -18233.614353372377, -46841.94735788672, -49246.45861941083, -41609.493387877155, 0.022, 1.002, 0.17200000000000001, 192.0, 0.0, 0.0, 0.0, 0.0, 0.0, 0.0, 0.0, 0.0, 0.0, 1.695420023506763E9, 0.0, 2023-09-22 17:00:23.506
76.0, 20786.407087613, 33037.44292705571, -51103.62036271339, -51202.57153541703, -36649.19425835541, -20860.927803626993, -187500.02235174447, -26464.95717346158, -9439.164035220629, 18699.156486887514, -47906.38213233735, -44096.81786260818, -18237.011818529587, -46840.36038403039, -49248.492628156266, -41609.359277410425, 0.022, 1.002, 0.17200000000000001, 192.0, 0.0, 0.0, 0.0, 0.0, 0.0, 0.0, 0.0, 0.0, 0.0, 1.69542002356702E9, 0.0, 2023-09-22 17:00:23.567
78.0, 20812.960960025903, 33064.84616575792, -51096.55721146551, -51214.61912567844, -36625.72492667734, -20869.60028047565, -187500.02235174447, -26462.31966761585, -9431.452683383546, 18709.639455037053, -47899.96718167868, -44088.748882859814, -18226.685312591235, -46834.437171749734, -49237.428514650885, -41602.318477907, 0.022, 1.002, 0.17400000000000002, 192.0, 0.0, 88.0, 15.5, 40.0, 2.5, 56.0, 0.0, 0.0, 0.0, 1.69542002356703E9, 0.0, 2023-09-22 17:00:23.567
80.0, 20791.72680279336, 33043.41084282528, -51100.33465627845, -51203.57736391752, -36646.62380774305, -20858.916146626016, -187500.02235174447, -26464.644249039204, -9445.646041112666, 18691.64630075053, -47911.16540565078, -44103.32222024468, -18242.152719754307, -46846.529465500054, -49249.23023572329, -41611.862672789415, 0.022, 1.002, 0.17400000000000002, 192.0, 0.0, 0.0, 0.0, 0.0, 0.0, 0.0, 0.0, 0.0, 0.0, 1.695420023567034E9, 0.0, 2023-09-22 17:00:23.567
82.0, 20808.69177683494, 33059.928781977746, -51096.64661844333, -51216.25080302368, -36625.032022599225, -20874.115332855625, -187500.02235174447, -26468.444045596607, -9433.620802595711, 18701.972806688882, -47900.078940400956, -44093.085121284144, -18231.46858590467, -46834.5042269831, -49236.735610572774, -41599.94919299474, 0.022, 1.002, 0.17400000000000002, 192.0, 0.0, 0.0, 0.0, 0.0, 0.0, 0.0, 0.0, 0.0, 0.0, 1.695420023567038E9, 0.0, 2023-09-22 17:00:23.567
84.0, 20797.627663329564, 33050.78691849553, -51097.76420566609, -51200.29165748259, -36646.22147634286, -20864.973469373403, -187500.02235174447, -26474.076685199343, -9443.321459689316, 18693.389736818044, -47910.02546668357, -44105.15506329001, -18237.32474295196, -46848.138791100835, -49251.01837527972, -41614.47782689069, 0.022, 1.002, 0.17400000000000002, 192.0, 0.0, 0.0, 0.0, 0.0, 0.0, 0.0, 0.0, 0.0, 0.0, 1.695420023567041E9, 0.0, 2023-09-22 17:00:23.567
86.0, 20808.468259390385, 33058.07358718796, -51090.47753697366, -51207.57832617502, -36626.17196156645, -20874.070629366714, -187500.02235174447, -26468.24287989651, -9425.171843191605, 18705.102050912625, -47890.44533854072, -44087.76540610378, -18223.04197824502, -46832.22434904866, -49233.2710901822, -41596.12704469288, 0.022, 1.002, 0.17400000000000002, 192.0, 0.0, 0.0, 0.0, 0.0, 0.0, 0.0, 0.0, 0.0, 0.0, 1.695420023567044E9, 0.0, 2023-09-22 17:00:23.567
88.0, 20805.607236100106, 33057.87242148786, -51095.4619759872, -51197.765910359136, -36649.26131358878, -20862.715943183415, -187500.02235174447, -26465.2477461395, -9438.761703820432, 18697.815382220197, -47904.81751022548, -44101.422321965976, -18235.268382462073, -46846.55181724451, -49245.85512231054, -41605.89475701985, 0.026000000000000002, 0.998, 0.176, 192.0, 0.0, 104.0, 15.5, 24.0, 2.5, 64.0, 0.0, 0.0, 0.0, 1.695420023567047E9, 0.0, 2023-09-22 17:00:23.567
90.0, 20804.154372710513, 33054.8549359864, -51082.02857756956, -51199.10701502646, -36622.170999308946, -20858.960850114927, -187500.02235174447, -26449.55682153187, -9423.830738524288, 18703.112745656104, -47889.23834434013, -44086.13372875854, -18218.03518748703, -46824.937680356226, -49227.81726453511, -41585.80053875453, 0.026000000000000002, 0.998, 0.176, 192.0, 0.0, 0.0, 0.0, 0.0, 0.0, 0.0, 0.0, 0.0, 0.0, 1.69542002362668E9, 0.0, 2023-09-22 17:00:23.626
92.0, 20804.243779688335, 33060.912258733784, -51095.149051564826, -51198.57057315953, -36645.48386877583, -20856.770379158304, -187500.02235174447, -26457.156414646677, -9442.136817233184, 18703.202152633923, -47909.24315562763, -44103.81395862269, -18234.821347572964, -46841.23210206415, -49243.97757577629, -41602.1173122069, 0.026000000000000002, 0.998, 0.176, 192.0, 0.0, 0.0, 0.0, 0.0, 0.0, 0.0, 0.0, 0.0, 0.0, 1.695420023626712E9, 0.0, 2023-09-22 17:00:23.626
94.0, 20798.946416252427, 33050.563401050975, -51080.240438013134, -51194.681369624304, -36624.741449921305, -20851.897698867047, -187500.02235174447, -26443.387740062208, -9426.602354836745, 18703.78329798976, -47892.926382175254, -44089.55354566021, -18222.88551603383, -46825.07179082296, -49229.963032002815, -41585.64407654334, 0.026000000000000002, 0.998, 0.176, 192.0, 0.0, 0.0, 0.0, 0.0, 0.0, 0.0, 0.0, 0.0, 0.0, 1.695420023626716E9, 0.0, 2023-09-22 17:00:23.626
96.0, 20818.2136199729, 33069.718846049174, -51081.49213570263, -51189.428709677304, -36633.123354092044, -20844.78984413026, -187500.02235174447, -26445.33234182982, -9424.501290857947, 18720.547106331243, -47894.51335603158, -44088.72653111536, -18227.869955047365, -46824.580052444944, -49228.0184302352, -41585.19704165424, 0.026000000000000002, 0.998, 0.176, 192.0, 0.0, 0.0, 0.0, 0.0, 0.0, 0.0, 0.0, 0.0, 0.0, 1.69542002362672E9, 0.0, 2023-09-22 17:00:23.626
98.0, 20797.985291240846, 33046.8977149603, -51073.82548735446, -51190.32277945552, -36619.66760392995, -20843.627553418584, -187500.02235174447, -26438.89503942669, -9424.993029235964, 18707.672501524987, -47891.07118738547, -44087.38542644804, -18226.215925957673, -46818.858005864386, -49226.051476723136, -41581.665466030296, 0.022, 1.0, 0.17400000000000002, 192.0, 0.0, 88.0, 15.5, 32.0, 2.5, 56.0, 0.0, 0.0, 0.0, 1.695420023626723E9, 0.0, 2023-09-22 17:00:23.626
100.0, 20818.59359962864, 33072.98220073965, -51079.45812695719, -51193.20615449025, -36627.267197044755, -20844.9686580859, -187500.02235174447, -26442.13604237271, -9428.926936260097, 18726.492670356354, -47896.86028919939, -44089.75471136031, -18221.61146659988, -46822.92602335525, -49227.19141569036, -41586.69460853274, 0.022, 1.0, 0.17400000000000002, 192.0, 0.0, 0.0, 0.0, 0.0, 0.0, 0.0, 0.0, 0.0, 0.0, 1.695420023626726E9, 0.0, 2023-09-22 17:00:23.626
102.0, 20793.470238860875, 33040.52746779054, -51071.433850697744, -51190.2333724777, -36616.091324817105, -20842.420559217997, -187500.02235174447, -26435.65403648067, -9421.640267567667, 18709.99708294834, -47888.14310886182, -44085.06084502469, -18216.627027586346, -46814.27589825105, -49220.530595842676, -41577.21746888369, 0.022, 1.0, 0.17400000000000002, 192.0, 0.0, 0.0, 0.0, 0.0, 0.0, 0.0, 0.0, 0.0, 0.0, 1.69542002362673E9, 0.0, 2023-09-22 17:00:23.626
104.0, 20821.655788619017, 33070.23293617165, -51085.96248459369, -51206.214869763244, -36630.50819999078, -20860.883100138082, -187500.02235174447, -26455.74825474599, -9433.307878173337, 18717.306103385225, -47902.872908457866, -44097.5107666863, -18224.964228268174, -46832.1572938153, -49228.82309303559, -41593.04250395805, 0.022, 1.0, 0.17400000000000002, 192.0, 0.0, 0.0, 0.0, 0.0, 0.0, 0.0, 0.0, 0.0, 0.0, 1.695420023626733E9, 0.0, 2023-09-22 17:00:23.626
106.0, 20790.184532425945, 33029.99979615209, -51080.240438013134, -51200.068140038034, -36627.825990656136, -20855.31751576871, -187500.02235174447, -26450.070911654344, -9433.687857829078, 18691.802762961717, -47901.30828634599, -44101.198804521424, -18226.819423057965, -46832.09023858193, -49233.69577332685, -41594.78594002556, 0.022, 1.0, 0.17400000000000002, 192.0, 0.0, 0.0, 0.0, 0.0, 0.0, 0.0, 0.0, 0.0, 0.0, 1.695420023686956E9, 0.0, 2023-09-22 17:00:23.686
108.0, 20835.625628903585, 33068.24363091512, -51087.795327639025, -51208.69591339778, -36628.36243252306, -20863.2747367948, -187500.02235174447, -26455.39062683471, -9432.81613979532, 18712.65694053852, -47905.77863523706, -44102.025819066264, -18225.411263157283, -46834.437171749734, -49231.99704074825, -41595.38943712586, 0.018000000000000002, 1.0, 0.17200000000000001, 192.0, 0.0, 72.0, 15.5, 32.0, 2.5, 48.0, 0.0, 0.0, 0.0, 1.695420023686967E9, 0.0, 2023-09-22 17:00:23.686
110.0, 20775.67825027445, 33025.618854238855, -51090.11990906238, -51205.05257905157, -36637.86192391657, -20860.883100138082, -187500.02235174447, -26456.37410359074, -9435.25247994095, 18691.065155394692, -47904.884565458844, -44104.35040048962, -18228.674617847755, -46832.26905253757, -49235.819189050104, -41593.42248361379, 0.018000000000000002, 1.0, 0.17200000000000001, 192.0, 0.0, 0.0, 0.0, 0.0, 0.0, 0.0, 0.0, 0.0, 0.0, 1.695420023686971E9, 0.0, 2023-09-22 17:00:23.686
112.0, 20818.45948916191, 33069.987066982634, -51092.556249208006, -51212.20513727726, -36629.636481957015, -20868.66150720853, -187500.02235174447, -26459.9950861925, -9437.733523575489, 18711.137021915558, -47912.506510318104, -44106.20559527941, -18234.039036517028, -46838.12520958486, -49239.663689096415, -41599.45745461672, 0.018000000000000002, 1.0, 0.17200000000000001, 192.0, 0.0, 0.0, 0.0, 0.0, 0.0, 0.0, 0.0, 0.0, 0.0, 1.695420023686975E9, 0.0, 2023-09-22 17:00:23.686
114.0, 20789.558683581196, 33034.82777295444, -51075.54657167752, -51187.01472127614, -36624.76380166576, -20843.828719118683, -187500.02235174447, -26442.024283650433, -9431.519738616913, 18695.826076963673, -47901.66591425728, -44100.081217298655, -18233.32378069446, -46827.48577922413, -49235.08158148308, -41589.93561147876, 0.018000000000000002, 1.0, 0.17200000000000001, 192.0, 0.0, 0.0, 0.0, 0.0, 0.0, 0.0, 0.0, 0.0, 0.0, 1.695420023686979E9, 0.0, 2023-09-22 17:00:23.686
116.0, 20818.660654862008, 33067.68483730374, -51089.44935672872, -51213.45683496676, -36625.27789178823, -20871.0754956097, -187500.02235174447, -26459.883327470223, -9427.742293803965, 18717.283751640767, -47901.598859023914, -44098.65070565352, -18220.717396821667, -46827.61988969087, -49229.0689622246, -41589.645038800845, 0.018000000000000002, 1.0, 0.17200000000000001, 192.0, 0.0, 0.0, 0.0, 0.0, 0.0, 0.0, 0.0, 0.0, 0.0, 1.695420023686982E9, 0.0, 2023-09-22 17:00:23.686
118.0, 20781.44500034392, 33031.18443860822, -51085.22487702667, -51195.46368068024, -36638.68893846142, -20853.954059356936, -187500.02235174447, -26451.546126788395, -9438.761703820432, 18693.54619902923, -47908.19262363823, -44105.758560390306, -18232.13913823833, -46831.06205833698, -49237.98730826227, -41594.607126069925, 0.02, 0.994, 0.17, 192.0, 0.0, 80.0, 15.5, 8.0, 2.5, 40.0, 0.0, 0.0, 0.0, 1.695420023686985E9, 0.0, 2023-09-22 17:00:23.686
120.0, 20819.711186851408, 33074.43506412924, -51080.91099034679, -51201.78922436109, -36622.5956824536, -20859.631402448584, -187500.02235174447, -26448.640400009204, -9434.984259007486, 18714.378024861577, -47907.4550160712, -44098.53894693124, -18229.434577159238, -46828.46925598017, -49233.56166286012, -41590.44970160123, 0.02, 0.994, 0.17, 192.0, 0.0, 0.0, 0.0, 0.0, 0.0, 0.0, 0.0, 0.0, 0.0, 1.695420023747338E9, 0.0, 2023-09-22 17:00:23.747
122.0, 20789.134000436545, 33041.30977884648, -51083.54849619252, -51194.122576012924, -36636.073784360146, -20850.98127734438, -187500.02235174447, -26446.114652885753, -9428.47990137099, 18705.258513123812, -47899.54249853403, -44093.53215617325, -18226.037112002028, -46822.5013402106, -49230.54417735865, -41585.599373054436, 0.02, 0.994, 0.17, 192.0, 0.0, 0.0, 0.0, 0.0, 0.0, 0.0, 0.0, 0.0, 0.0, 1.69542002374736E9, 0.0, 2023-09-22 17:00:23.747
124.0, 20813.251532703824, 33067.617782070374, -51083.01205432559, -51209.05354130907, -36619.578196952134, -20866.2251670629, -187500.02235174447, -26449.42271106514, -9433.374933406703, 18702.643359022542, -47909.19845213872, -44102.69637139993, -18232.005027771596, -46834.995965361115, -49231.50530237023, -41592.86369000241, 0.02, 0.994, 0.17, 192.0, 0.0, 0.0, 0.0, 0.0, 0.0, 0.0, 0.0, 0.0, 0.0, 1.695420023747364E9, 0.0, 2023-09-22 17:00:23.747
126.0, 20784.1048579341, 33039.029900912035, -51091.68453117425, -51203.53266042861, -36648.166078110466, -20863.162978072523, -187500.02235174447, -26457.692856513604, -9437.778227064398, 18697.524809542276, -47909.310210861, -44104.86449061209, -18235.84952781791, -46834.90655838329, -49235.23804369427, -41591.746102779645, 0.02, 0.994, 0.17, 192.0, 0.0, 0.0, 0.0, 0.0, 0.0, 0.0, 0.0, 0.0, 0.0, 1.695420023747367E9, 0.0, 2023-09-22 17:00:23.747
128.0, 20813.720919337382, 33069.584735582444, -51072.23851349813, -51199.017608048634, -36614.92903410543, -20858.2232425479, -187500.02235174447, -26442.493670283995, -9433.956078762541, 18707.47133582489, -47903.74462649162, -44099.6118306651, -18234.97780978415, -46829.09510482492, -49231.147674458945, -41586.40403585482, 0.022, 1.002, 0.17200000000000001, 192.0, 0.0, 88.0, 15.5, 40.0, 2.5, 48.0, 0.0, 0.0, 0.0, 1.695420023747371E9, 0.0, 2023-09-22 17:00:23.747
130.0, 20789.581035325653, 33046.54008704902, -51086.72244390517, -51201.94568657228, -36646.22147634286, -20859.966678615416, -187500.02235174447, -26453.28956285591, -9437.19708170856, 18705.146754401536, -47905.42100732577, -44103.59044117814, -18231.22271671566, -46831.64320369282, -49233.18168320438, -41587.49927133313, 0.022, 1.002, 0.17200000000000001, 192.0, 0.0, 0.0, 0.0, 0.0, 0.0, 0.0, 0.0, 0.0, 0.0, 1.695420023747374E9, 0.0, 2023-09-22 17:00:23.747
132.0, 20809.87641929107, 33064.801462269, -51071.97029256467, -51203.19738426177, -36616.31484226166, -20860.972507115905, -187500.02235174447, -26442.918353428646, -9428.77047404891, 18705.66084452401, -47898.20139386671, -44099.27655449826, -18223.578420111946, -46826.547005957014, -49227.929023257384, -41584.03475094256, 0.022, 1.002, 0.17200000000000001, 192.0, 0.0, 0.0, 0.0, 0.0, 0.0, 0.0, 0.0, 0.0, 0.0, 1.695420023747377E9, 0.0, 2023-09-22 17:00:23.747
134.0, 20795.995985984326, 33052.373892351854, -51088.9576183507, -51203.622067406424, -36647.741394965815, -20861.374838516098, -187500.02235174447, -26455.882365212725, -9441.980355021997, 18698.12830664257, -47911.99242019563, -44112.39702849353, -18238.46468191918, -46840.91917764177, -49241.78710481967, -41598.5186813496, 0.022, 1.002, 0.17200000000000001, 192.0, 0.0, 0.0, 0.0, 0.0, 0.0, 0.0, 0.0, 0.0, 0.0, 1.69542002374738E9, 0.0, 2023-09-22 17:00:23.747
136.0, 20809.719957079884, 33062.61099131239, -51068.41636519627, -51198.16824175933, -36615.26431027226, -20855.988068102368, -187500.02235174447, -26439.587943504805, -9424.702456558045, 18704.342091601146, -47890.46769028517, -44092.9063073285, -18222.729053822644, -46819.64031692032, -49226.69967731234, -41578.55857355101, 0.022, 1.002, 0.17200000000000001, 192.0, 0.0, 0.0, 0.0, 0.0, 0.0, 0.0, 0.0, 0.0, 0.0, 1.695420023807485E9, 0.0, 2023-09-22 17:00:23.807
138.0, 20801.136887209046, 33057.268924387565, -51086.945961349724, -51206.37133197443, -36644.12041236406, -20864.638193206574, -187500.02235174447, -26454.831833223325, -9429.798654293854, 18711.02526319328, -47897.19556536622, -44099.812996365195, -18224.383082912336, -46829.0056978471, -49231.19237794785, -41587.63338179987, 0.024, 1.0, 0.178, 192.0, 0.0, 96.0, 15.5, 32.0, 2.5, 72.0, 0.0, 0.0, 0.0, 1.695420023807499E9, 0.0, 2023-09-22 17:00:23.807
140.0, 20795.0572127172, 33048.797613239, -51082.09563280292, -51211.892212854895, -36625.38965051051, -20866.001649618345, -187500.02235174447, -26446.740501730503, -9434.358410162737, 18692.003928661816, -47902.71644624668, -44105.758560390306, -18230.105129492895, -46832.89490138232, -49234.79100880516, -41588.102768433426, 0.024, 1.0, 0.178, 192.0, 0.0, 0.0, 0.0, 0.0, 0.0, 0.0, 0.0, 0.0, 0.0, 1.695420023807504E9, 0.0, 2023-09-22 17:00:23.807
142.0, 20802.142715709535, 33058.2524011436, -51085.64956017132, -51203.39854996187, -36637.906627405486, -20855.496329724352, -187500.02235174447, -26443.879478440223, -9444.461398656536, 18696.921312441984, -47916.775693509066, -44114.54279596124, -18241.973905798663, -46840.04745960802, -49241.51888388621, -41594.9200504923, 0.024, 1.0, 0.178, 192.0, 0.0, 0.0, 0.0, 0.0, 0.0, 0.0, 0.0, 0.0, 0.0, 1.695420023807509E9, 0.0, 2023-09-22 17:00:23.807
144.0, 20790.92213999297, 33045.936589948724, -51071.74677512012, -51198.458814437254, -36614.77257189424, -20847.85203312064, -187500.02235174447, -26425.260475308954, -9422.355523390237, 18704.23033287887, -47892.97108566417, -44092.41456895049, -18220.896210777308, -46809.87260459335, -49216.44022660735, -41564.72284373317, 0.024, 1.0, 0.178, 192.0, 0.0, 0.0, 0.0, 0.0, 0.0, 0.0, 0.0, 0.0, 0.0, 1.695420023807513E9, 0.0, 2023-09-22 17:00:23.807
146.0, 20801.11453546459, 33060.286409889035, -51092.9585806082, -51214.84264312299, -36642.53343850773, -20865.845187407158, -187500.02235174447, -26449.288600598407, -9446.6295178687, 18700.028204921273, -47919.81553075499, -44117.35911576261, -18239.291696464028, -46838.75105842961, -49239.261357696225, -41590.5167568346, 0.024, 1.0, 0.178, 192.0, 0.0, 0.0, 0.0, 0.0, 0.0, 0.0, 0.0, 0.0, 0.0, 1.695420023807518E9, 0.0, 2023-09-22 17:00:23.807
148.0, 20780.170950909967, 33034.134868876325, -51085.40369098231, -51213.5909454335, -36631.82695291364, -20866.091056596168, -187500.02235174447, -26442.717187728547, -9438.225261953505, 18684.717259969388, -47909.354914349904, -44110.698295914925, -18231.200364971206, -46832.98430836014, -49235.28274718318, -41585.174689909785, 0.022, 1.004, 0.178, 192.0, 0.0, 88.0, 15.5, 48.0, 2.5, 72.0, 0.0, 0.0, 0.0, 1.695420023807523E9, 0.0, 2023-09-22 17:00:23.807
150.0, 20807.417727400985, 33061.15812792279, -51088.01884508358, -51211.35577098796, -36642.399328041, -20865.420504262507, -187500.02235174447, -26449.17684187613, -9448.238843469482, 18696.116649641594, -47921.51426333359, -44121.404781509016, -18239.783434842044, -46846.820038177975, -49242.748229831246, -41595.724713292686, 0.022, 1.004, 0.178, 192.0, 0.0, 0.0, 0.0, 0.0, 0.0, 0.0, 0.0, 0.0, 0.0, 1.695420023866933E9, 0.0, 2023-09-22 17:00:23.866
152.0, 20789.134000436545, 33037.50998228908, -51068.371661707366, -51190.54629690007, -36620.87459813054, -20843.873422607594, -187500.02235174447, -26426.98155963201, -9427.6752385706, 18692.07098389518, -47896.927344432755, -44101.64583941053, -18223.28784743403, -46821.40610473229, -49224.50920635572, -41572.88123045936, 0.022, 1.004, 0.178, 192.0, 0.0, 0.0, 0.0, 0.0, 0.0, 0.0, 0.0, 0.0, 0.0, 1.695420023866953E9, 0.0, 2023-09-22 17:00:23.866
154.0, 20819.867649062595, 33073.80921528449, -51075.0548332995, -51198.86114583745, -36626.88721738902, -20853.954059356936, -187500.02235174447, -26437.8892109262, -9428.703418815545, 18719.921257486494, -47899.40838806729, -44097.66722889748, -18223.71253057868, -46822.25547102159, -49219.99415397575, -41572.925933948274, 0.022, 1.004, 0.178, 192.0, 0.0, 0.0, 0.0, 0.0, 0.0, 0.0, 0.0, 0.0, 0.0, 1.695420023866957E9, 0.0, 2023-09-22 17:00:23.866
156.0, 20787.099991691113, 33037.62174101135, -51076.23947575563, -51195.262514980146, -36627.401307511485, -20849.46135872142, -187500.02235174447, -26432.927123657122, -9421.05912221183, 18706.197286390936, -47888.94777166221, -44090.358208460595, -18225.008931757086, -46810.945488327205, -49217.244889407746, -41564.27580884407, 0.022, 1.004, 0.178, 192.0, 0.0, 0.0, 0.0, 0.0, 0.0, 0.0, 0.0, 0.0, 0.0, 1.69542002386696E9, 0.0, 2023-09-22 17:00:23.866
158.0, 20816.716053094395, 33072.91514550628, -51087.9070863613, -51211.33341924351, -36633.413926769965, -20864.571137973206, -187500.02235174447, -26448.95332443158, -9439.454607898548, 18706.174934646482, -47914.65227778581, -44113.62637443857, -18238.576440641456, -46836.24766305061, -49236.869721039504, -41589.44387310075, 0.026000000000000002, 0.996, 0.18, 192.0, 0.0, 104.0, 15.5, 16.0, 2.5, 80.0, 0.0, 0.0, 0.0, 1.695420023866963E9, 0.0, 2023-09-22 17:00:23.866
160.0, 20787.59173006913, 33037.50998228908, -51068.68458612974, -51187.215886976235, -36623.10977257607, -20840.364198728108, -187500.02235174447, -26427.51800149894, -9428.144625204162, 18697.122478142082, -47895.742701976626, -44099.54477543173, -18221.589114855422, -46818.433322719735, -49224.419799377894, -41572.724768248176, 0.026000000000000002, 0.996, 0.18, 192.0, 0.0, 0.0, 0.0, 0.0, 0.0, 0.0, 0.0, 0.0, 0.0, 1.695420023866967E9, 0.0, 2023-09-22 17:00:23.866
162.0, 20820.672311862985, 33074.41271238479, -51083.63790317034, -51209.96996283173, -36624.24971154329, -20861.46424549392, -187500.02235174447, -26441.309027827865, -9428.859881026732, 18719.071891197193, -47898.402559566806, -44099.321257987176, -18220.024492743552, -46821.24964252111, -49219.97180223129, -41573.0153409261, 0.026000000000000002, 0.996, 0.18, 192.0, 0.0, 0.0, 0.0, 0.0, 0.0, 0.0, 0.0, 0.0, 0.0, 1.69542002386697E9, 0.0, 2023-09-22 17:00:23.866
164.0, 20781.892035233028, 33034.4477932987, -51082.900295603315, -51196.715378369736, -36636.833743671625, -20848.88021336558, -187500.02235174447, -26437.732748715014, -9442.360334677736, 18689.433478049457, -47909.48902481664, -44112.62054593808, -18235.98363828464, -46827.374020501855, -49236.176816961386, -41582.00074219713, 0.026000000000000002, 0.996, 0.18, 192.0, 0.0, 0.0, 0.0, 0.0, 0.0, 0.0, 0.0, 0.0, 0.0, 1.695420023866973E9, 0.0, 2023-09-22 17:00:23.866
166.0, 20813.855029804115, 33068.958886737695, -51090.388129995845, -51216.87665186843, -36632.497505247295, -20870.382591531587, -187500.02235174447, -26450.741463988004, -9437.845282297765, 18710.913504471006, -47910.204280639206, -44109.088970314144, -18231.110957993384, -46826.01056409009, -49231.88528202597, -41583.25243988662, 0.026000000000000002, 0.996, 0.18, 192.0, 0.0, 0.0, 0.0, 0.0, 0.0, 0.0, 0.0, 0.0, 0.0, 1.695420023926723E9, 0.0, 2023-09-22 17:00:23.926
168.0, 20791.749154537818, 33043.20967712518, -51071.076222786454, -51180.420956661816, -36628.36243252306, -20835.446814947943, -187500.02235174447, -26428.8367544218, -9434.023133995906, 18696.98836767535, -47905.13043464785, -44106.40676097951, -18232.407359171793, -46818.63448841983, -49234.58984310506, -41580.70434101872, 0.03, 1.0, 0.182, 192.0, 0.0, 120.0, 15.5, 32.0, 2.5, 88.0, 0.0, 0.0, 0.0, 1.695420023926732E9, 0.0, 2023-09-22 17:00:23.926
170.0, 20813.095070492636, 33069.54003209353, -51084.9566560932, -51212.451006466275, -36626.26136854427, -20866.716905440917, -187500.02235174447, -26445.33234182982, -9425.283601913881, 18719.42951910848, -47900.74949273461, -44098.31542948668, -18223.489013134124, -46810.967840071666, -49223.07869471058, -41571.31660834749, 0.03, 1.0, 0.182, 192.0, 0.0, 0.0, 0.0, 0.0, 0.0, 0.0, 0.0, 0.0, 0.0, 1.695420023926736E9, 0.0, 2023-09-22 17:00:23.926
172.0, 20787.59173006913, 33042.49442130261, -51080.57571417996, -51189.8310410775, -36642.46638327437, -20846.913259853514, -187500.02235174447, -26436.816327192348, -9445.15430273465, 18688.98644316035, -47916.95450746471, -44118.43199949646, -18250.735789625145, -46828.424552491255, -49243.239968209265, -41587.49927133313, 0.03, 1.0, 0.182, 192.0, 0.0, 0.0, 0.0, 0.0, 0.0, 0.0, 0.0, 0.0, 0.0, 1.69542002392674E9, 0.0, 2023-09-22 17:00:23.926
174.0, 20810.70343383592, 33066.52254659207, -51084.666083415286, -51211.46752971024, -36630.32938603513, -20867.65567870804, -187500.02235174447, -26443.9912371625, -9432.81613979532, 18711.56170506021, -47904.77280673657, -44106.29500225723, -18233.07791150545, -46818.18745353073, -49227.12436045699, -41573.618838026385, 0.03, 1.0, 0.182, 192.0, 0.0, 0.0, 0.0, 0.0, 0.0, 0.0, 0.0, 0.0, 0.0, 1.695420023926743E9, 0.0, 2023-09-22 17:00:23.926
176.0, 20786.02710795726, 33039.99102592361, -51089.44935672872, -51198.48116618171, -36652.61407525707, -20856.971544858403, -187500.02235174447, -26447.120481386242, -9448.81998882532, 18689.858161194108, -47919.659068543806, -44121.62829895357, -18245.7066471227, -46831.41968624827, -49245.25162521024, -41588.28158238907, 0.03, 1.0, 0.182, 192.0, 0.0, 0.0, 0.0, 0.0, 0.0, 0.0, 0.0, 0.0, 0.0, 1.695420023926747E9, 0.0, 2023-09-22 17:00:23.926
178.0, 20809.898771035525, 33062.58863956793, -51077.60293216741, -51204.38202671791, -36627.35660402258, -20863.252385050346, -187500.02235174447, -26440.61612374975, -9435.319535174314, 18703.42567007848, -47907.47736781566, -44110.6088889371, -18233.36848418337, -46819.23798552013, -49232.689944826365, -41577.64215202834, 0.026000000000000002, 0.994, 0.182, 192.0, 0.0, 104.0, 15.5, 8.0, 2.5, 88.0, 0.0, 0.0, 0.0, 1.69542002392675E9, 0.0, 2023-09-22 17:00:23.926
180.0, 20795.347785395123, 33049.69168301722, -51084.308455504, -51199.017608048634, -36653.70931073539, -20860.704286182437, -187500.02235174447, -26446.33817033031, -9439.476959643001, 18700.49759155483, -47912.95354520721, -44115.950955861925, -18238.442330174727, -46827.57518620195, -49240.244834452256, -41585.442910843245, 0.026000000000000002, 0.994, 0.182, 192.0, 0.0, 0.0, 0.0, 0.0, 0.0, 0.0, 0.0, 0.0, 0.0, 1.695420023986963E9, 0.0, 2023-09-22 17:00:23.986
182.0, 20813.273884448277, 33069.54003209353, -51070.98681580863, -51199.17407025982, -36625.590816210606, -20859.22907104839, -187500.02235174447, -26436.27988532542, -9429.061046726829, 18699.424707820977, -47905.33160034795, -44111.145330804036, -18233.167318483273, -46823.10483731089, -49234.83571229407, -41580.614934040896, 0.026000000000000002, 0.994, 0.182, 192.0, 0.0, 0.0, 0.0, 0.0, 0.0, 0.0, 0.0, 0.0, 0.0, 1.695420023986977E9, 0.0, 2023-09-22 17:00:23.986
184.0, 20792.911445249494, 33054.340845863924, -51080.463955457686, -51194.122576012924, -36647.00378739879, -20852.680009922984, -187500.02235174447, -26438.068024881846, -9447.6800498581, 18704.722071256885, -47912.39475159583, -44111.614717437595, -18242.264478476583, -46820.84731112091, -49232.30996517062, -41575.07170141598, 0.026000000000000002, 0.994, 0.182, 192.0, 0.0, 0.0, 0.0, 0.0, 0.0, 0.0, 0.0, 0.0, 0.0, 1.695420023986981E9, 0.0, 2023-09-22 17:00:23.986
186.0, 20794.341956894634, 33055.12315691986, -51077.58058042295, -51208.27123025313, -36633.39157502551, -20866.426332762996, -187500.02235174447, -26439.833812693814, -9447.121256246717, 18695.155524630016, -47911.94771670672, -44109.62541218107, -18245.751350611612, -46819.46150296468, -49230.36536340301, -41574.64701827133, 0.026000000000000002, 0.994, 0.182, 192.0, 0.0, 0.0, 0.0, 0.0, 0.0, 0.0, 0.0, 0.0, 0.0, 1.695420023986984E9, 0.0, 2023-09-22 17:00:23.986
188.0, 20795.92893075096, 33060.73344477814, -51085.09076655994, -51201.02926504961, -36645.90855192048, -20858.089132081168, -187500.02235174447, -26443.007760406468, -9463.370974465726, 18692.875646695575, -47929.69500180423, -44128.42322926799, -18252.47922569266, -46837.856988651394, -49245.609253121525, -41591.7684545241, 0.028, 0.998, 0.17400000000000002, 192.0, 0.0, 112.0, 15.5, 24.0, 2.5, 56.0, 0.0, 0.0, 0.0, 1.695420023986987E9, 0.0, 2023-09-22 17:00:23.986
190.0, 20793.64905281652, 33057.268924387565, -51064.05777502749, -51191.41801493383, -36614.81727538315, -20846.0191900753, -187500.02235174447, -26420.253684550964, -9437.241785197471, 18704.587960790155, -47901.688266001736, -44101.467025454884, -18224.360731167882, -46806.87747083634, -49215.970839973794, -41558.93374191925, 0.028, 0.998, 0.17400000000000002, 192.0, 0.0, 0.0, 0.0, 0.0, 0.0, 0.0, 0.0, 0.0, 0.0, 1.695420023986991E9, 0.0, 2023-09-22 17:00:23.986
192.0, 20807.73065182336, 33070.09882570491, -51072.14910652031, -51188.244067221174, -36635.514990748765, -20843.091111551657, -187500.02235174447, -26425.238123564497, -9447.478884158003, 18709.862972481606, -47914.20524289671, -44112.106455815614, -18234.5531266395, -46817.76277038608, -49225.64914532294, -41571.65188451432, 0.028, 0.998, 0.17400000000000002, 192.0, 0.0, 0.0, 0.0, 0.0, 0.0, 0.0, 0.0, 0.0, 0.0, 1.695420023986994E9, 0.0, 2023-09-22 17:00:23.986
194.0, 20803.01443374329, 33061.336941878435, -51055.050022012, -51178.72222408321, -36613.409115482464, -20834.619800403096, -187500.02235174447, -26410.195399546075, -9430.446854883057, 18708.812440492205, -47895.161556620784, -44096.63904865254, -18221.41030089978, -46798.6967323657, -49213.40038936143, -41552.98817789414, 0.028, 0.998, 0.17400000000000002, 192.0, 0.0, 0.0, 0.0, 0.0, 0.0, 0.0, 0.0, 0.0, 0.0, 1.695420023986997E9, 0.0, 2023-09-22 17:00:23.986
196.0, 20823.22041073089, 33086.50500613511, -51067.29877797351, -51186.81355557604, -36636.565522738165, -20848.589640687664, -187500.02235174447, -26431.09428061179, -9432.257346183938, 18728.638437824065, -47898.96135317819, -44095.901441085516, -18221.61146659988, -46804.35172371289, -49216.28376439617, -41560.65482624231, 0.028, 0.998, 0.17400000000000002, 192.0, 0.0, 0.0, 0.0, 0.0, 0.0, 0.0, 0.0, 0.0, 0.0, 1.695420024047315E9, 0.0, 2023-09-22 17:00:24.047
198.0, 20808.848239046125, 33067.64013381483, -51046.422248652256, -51168.41806988932, -36618.97469985184, -20835.200945758934, -187500.02235174447, -26417.79499266088, -9425.842395525266, 18714.400376606034, -47891.33940831893, -44092.43692069494, -18220.918562521765, -46797.8473660764, -49216.28376439617, -41557.346768062926, 0.028, 0.998, 0.17200000000000001, 192.0, 0.0, 112.0, 15.5, 24.0, 2.5, 48.0, 0.0, 0.0, 0.0, 1.695420024047325E9, 0.0, 2023-09-22 17:00:24.047
200.0, 20837.257306248823, 33096.78680858455, -51047.85276029739, -51172.329625169, -36618.393554496, -20840.475957450388, -187500.02235174447, -26423.919370641634, -9411.29140988486, 18747.212737466423, -47881.616399480874, -44082.51274615678, -18209.630931571835, -46790.761863084066, -49206.09136892454, -41550.909465659795, 0.028, 0.998, 0.17200000000000001, 192.0, 0.0, 0.0, 0.0, 0.0, 0.0, 0.0, 0.0, 0.0, 0.0, 1.695420024047328E9, 0.0, 2023-09-22 17:00:24.047
202.0, 20794.766640039285, 33054.07262493046, -51055.362946434376, -51183.17022122982, -36624.51793247675, -20851.428312233485, -187500.02235174447, -26427.585056732307, -9417.013456465418, 18718.110766185615, -47884.63388498234, -44090.87229858307, -18223.17608871175, -46796.81918583145, -49211.96987771629, -41555.20100059522, 0.028, 0.998, 0.17200000000000001, 192.0, 0.0, 0.0, 0.0, 0.0, 0.0, 0.0, 0.0, 0.0, 0.0, 1.695420024047331E9, 0.0, 2023-09-22 17:00:24.047
204.0, 20821.58873338565, 33089.38838116985, -51062.71667036017, -51188.06525326554, -36628.00480461178, -20855.87630938009, -187500.02235174447, -26435.095242869287, -9433.665506084622, 18719.630684808577, -47906.53859454854, -44108.820749380684, -18231.84856556041, -46819.5509099425, -49226.185587189866, -41576.27869561657, 0.028, 0.998, 0.17200000000000001, 192.0, 0.0, 0.0, 0.0, 0.0, 0.0, 0.0, 0.0, 0.0, 0.0, 1.695420024047334E9, 0.0, 2023-09-22 17:00:24.047
206.0, 20789.290462647732, 33052.73152026314, -51058.73805984713, -51181.78441307359, -36626.7978104112, -20846.60033543114, -187500.02235174447, -26426.33335904281, -9422.132005945685, 18718.289580141256, -47890.37828330735, -44094.20270850691, -18217.4987456201, -46799.903726566285, -49212.88629923896, -41557.50323027411, 0.028, 0.998, 0.17200000000000001, 192.0, 0.0, 0.0, 0.0, 0.0, 0.0, 0.0, 0.0, 0.0, 0.0, 1.695420024047337E9, 0.0, 2023-09-22 17:00:24.047
208.0, 20817.69952985043, 33086.16972996828, -51076.57475192246, -51207.064236052545, -36631.49167674681, -20867.65567870804, -187500.02235174447, -26442.42661505063, -9437.130026475195, 18726.04563546725, -47908.28203061605, -44108.08314181366, -18228.115824236374, -46817.36043898588, -49223.70454355533, -41573.641189770846, 0.032, 0.998, 0.17400000000000002, 192.0, 0.5, 0.0, 15.5, 24.0, 2.5, 56.0, 0.0, 0.0, 0.0, 1.695420024047341E9, 0.0, 2023-09-22 17:00:24.047
210.0, 20779.992136954326, 33045.891886459816, -51071.925589075756, -51191.86504982293, -36633.36922328106, -20851.763588400318, -187500.02235174447, -26431.451908523075, -9441.712134088533, 18697.949492686927, -47910.628963783856, -44115.325107017175, -18235.648362117812, -46816.86870060786, -49231.68411632587, -41576.12223340538, 0.032, 0.998, 0.17400000000000002, 192.0, 0.0, 0.0, 0.0, 0.0, 0.0, 0.0, 0.0, 0.0, 0.0, 1.695420024107474E9, 0.0, 2023-09-22 17:00:24.107
212.0, 20809.87641929107, 33078.34661940892, -51089.38230149535, -51218.240108280195, -36636.81139192717, -20877.691611968472, -187500.02235174447, -26448.23806860901, -9443.455570156048, 18714.981521961872, -47917.58035630946, -44118.27553728528, -18237.972943541165, -46822.12136055486, -49232.35466865953, -41579.94438170724, 0.032, 0.998, 0.17400000000000002, 192.0, 0.0, 0.0, 0.0, 0.0, 0.0, 0.0, 0.0, 0.0, 0.0, 1.695420024107489E9, 0.0, 2023-09-22 17:00:24.107
214.0, 20775.097104918612, 33041.80151722449, -51075.12188853287, -51191.4850701672, -36640.43237452893, -20851.80829188923, -187500.02235174447, -26429.48495501101, -9451.122218504217, 18688.18178035996, -47922.810664512, -44127.95384263442, -18248.165339012783, -46825.31766001197, -49239.88720654097, -41584.34767536494, 0.032, 0.998, 0.17400000000000002, 192.0, 0.0, 0.0, 0.0, 0.0, 0.0, 0.0, 0.0, 0.0, 0.0, 1.695420024107493E9, 0.0, 2023-09-22 17:00:24.107
216.0, 20810.92695128047, 33078.43602638674, -51073.736080376635, -51202.437424950294, -36624.42852549893, -20862.89475713906, -187500.02235174447, -26428.43442302161, -9441.10863698824, 18718.98248421937, -47913.64644928533, -44113.73813316085, -18237.682370863244, -46812.800683117, -49222.899880754936, -41570.42253856928, 0.032, 0.998, 0.17400000000000002, 192.0, 0.0, 0.0, 0.0, 0.0, 0.0, 0.0, 0.0, 0.0, 0.0, 1.695420024107497E9, 0.0, 2023-09-22 17:00:24.107
218.0, 20783.2554916448, 33047.18828763822, -51063.85660932739, -51175.99531125967, -36633.61509247006, -20838.196079515947, -187500.02235174447, -26412.832905391802, -9443.187349222582, 18706.353748602123, -47909.578431794456, -44112.240566282344, -18240.677504620257, -46808.866776092866, -49224.95624124483, -41564.90165768882, 0.032, 0.998, 0.176, 192.0, 0.5, 0.0, 15.5, 24.0, 2.5, 64.0, 0.0, 0.0, 0.0, 1.695420024107501E9, 0.0, 2023-09-22 17:00:24.107
220.0, 20810.83754430265, 33074.97150599617, -51073.803135610004, -51199.71051212675, -36626.06020284417, -20861.441893749463, -187500.02235174447, -26427.94268464359, -9437.755875319943, 18723.27401915479, -47908.41614108279, -44108.9101563585, -18232.027379516054, -46807.100988280894, -49220.6200028205, -41561.258323342605, 0.032, 0.998, 0.176, 192.0, 0.0, 0.0, 0.0, 0.0, 0.0, 0.0, 0.0, 0.0, 0.0, 1.695420024107504E9, 0.0, 2023-09-22 17:00:24.107
222.0, 20788.88813124754, 33049.91520046177, -51070.472725686166, -51179.39277641688, -36641.08057511813, -20841.593544673153, -187500.02235174447, -26421.192457818088, -9440.795712565865, 18708.030129436273, -47909.7572457501, -44114.006354094316, -18235.13427199534, -46809.000886559596, -49228.979555246784, -41565.19223036674, 0.032, 0.998, 0.176, 192.0, 0.0, 0.0, 0.0, 0.0, 0.0, 0.0, 0.0, 0.0, 0.0, 1.695420024107508E9, 0.0, 2023-09-22 17:00:24.107
224.0, 20815.129079238068, 33077.11727346388, -51069.198676252214, -51194.36844520193, -36620.204045796876, -20852.434140733974, -187500.02235174447, -26420.588960717796, -9429.709247316034, 18721.12825168708, -47900.347161334415, -44104.77508363427, -18224.56189686798, -46800.954258555685, -49218.60834581952, -41556.67621572927, 0.032, 0.998, 0.176, 192.0, 0.0, 0.0, 0.0, 0.0, 0.0, 0.0, 0.0, 0.0, 0.0, 1.695420024107512E9, 0.0, 2023-09-22 17:00:24.107
226.0, 20793.470238860875, 33056.01722669807, -51069.198676252214, -51178.52105838312, -36635.649101215495, -20838.79957661624, -187500.02235174447, -26417.28090253841, -9436.861805541732, 18710.4664695819, -47905.24219337013, -44110.40772323701, -18230.84273705992, -46806.45278769169, -49225.626793578485, -41561.16891636478, 0.032, 0.998, 0.176, 192.0, 0.0, 0.0, 0.0, 0.0, 0.0, 0.0, 0.0, 0.0, 0.0, 1.69542002416687E9, 0.0, 2023-09-22 17:00:24.166
228.0, 20814.59263737114, 33077.92193626427, -51061.3532139484, -51186.90296255386, -36613.990260838305, -20849.483710465876, -187500.02235174447, -26414.956321115056, -9422.869613512708, 18724.257495910824, -47893.06049264199, -44096.72845563036, -18221.7008735777, -46796.01452303106, -49211.07580793808, -41548.92016040327, 0.032, 1.002, 0.17200000000000001, 192.0, 0.5, 0.0, 15.5, 40.0, 2.5, 48.0, 0.0, 0.0, 0.0, 1.695420024166879E9, 0.0, 2023-09-22 17:00:24.166
230.0, 20794.766640039285, 33058.945305221714, -51080.933342091244, -51191.552125400565, -36648.41194729948, -20854.132873312577, -187500.02235174447, -26430.13315560021, -9440.39338116567, 18713.193382405447, -47908.97493469417, -44113.82754013867, -18245.23726048914, -46811.59368891641, -49227.50434011273, -41563.58290476596, 0.032, 1.002, 0.17200000000000001, 192.0, 0.0, 0.0, 0.0, 0.0, 0.0, 0.0, 0.0, 0.0, 0.0, 1.695420024166882E9, 0.0, 2023-09-22 17:00:24.166
232.0, 20800.77925929776, 33068.08716870393, -51073.82548735446, -51198.682331881806, -36627.98245286733, -20861.486597238374, -187500.02235174447, -26425.394585775684, -9446.16013123514, 18707.13605965806, -47910.65131552832, -44115.72743841737, -18236.967115040676, -46811.437226705224, -49226.49851161224, -41561.92887567626, 0.032, 1.002, 0.17200000000000001, 192.0, 0.0, 0.0, 0.0, 0.0, 0.0, 0.0, 0.0, 0.0, 0.0, 1.695420024166885E9, 0.0, 2023-09-22 17:00:24.166
234.0, 20796.375965640065, 33065.6061250694, -51081.82741186946, -51194.77077660213, -36650.82593570065, -20857.1727105585, -187500.02235174447, -26431.831888178815, -9455.324346461815, 18708.208943391914, -47921.178987166764, -44124.64578445504, -18244.454949433202, -46821.07082856546, -49236.89207278396, -41573.93176244876, 0.032, 1.002, 0.17200000000000001, 192.0, 0.0, 0.0, 0.0, 0.0, 0.0, 0.0, 0.0, 0.0, 0.0, 1.695420024166889E9, 0.0, 2023-09-22 17:00:24.166
236.0, 20803.908503521503, 33067.88600300384, -51062.64961512681, -51188.109956754444, -36617.968871351346, -20849.3719517436, -187500.02235174447, -26415.425707748618, -9432.972602006508, 18712.142850416047, -47900.637734012336, -44105.937374345944, -18226.238277702127, -46800.462520177665, -49219.055380708625, -41555.446869784224, 0.032, 1.002, 0.17200000000000001, 192.0, 0.0, 0.0, 0.0, 0.0, 0.0, 0.0, 0.0, 0.0, 0.0, 1.695420024166892E9, 0.0, 2023-09-22 17:00:24.166
238.0, 20806.74717506733, 33072.445758872724, -51074.719557132674, -51191.41801493383, -36643.405156541485, -20856.25628903583, -187500.02235174447, -26431.429556778618, -9440.348677676759, 18719.004835963828, -47911.99242019563, -44114.341630261144, -18234.597830128412, -46810.00671506008, -49229.09131396906, -41568.50028854612, 0.024, 0.998, 0.176, 192.0, 0.0, 96.0, 15.5, 24.0, 2.5, 64.0, 0.0, 0.0, 0.0, 1.695420024166895E9, 0.0, 2023-09-22 17:00:24.166
240.0, 20804.422593643976, 33065.82964251395, -51058.4027836803, -51186.45592766475, -36619.91347311896, -20851.22714653339, -187500.02235174447, -26417.95145487207, -9426.825872281299, 18712.791051005253, -47900.637734012336, -44103.12105454458, -18227.154699224797, -46796.17098524225, -49220.865872009505, -41558.665520985785, 0.024, 0.998, 0.176, 192.0, 0.0, 0.0, 0.0, 0.0, 0.0, 0.0, 0.0, 0.0, 0.0, 1.69542002422668E9, 0.0, 2023-09-22 17:00:24.226
242.0, 20813.40799491501, 33078.68189557575, -51073.49021118763, -51195.664846380336, -36641.01351988477, -20860.100789082146, -187500.02235174447, -26434.98348414701, -9444.684916101089, 18714.2662661393, -47918.36266736539, -44116.04036283975, -18238.375274941358, -46815.19231977371, -49232.37702040399, -41578.96090495121, 0.024, 0.998, 0.176, 192.0, 0.0, 0.0, 0.0, 0.0, 0.0, 0.0, 0.0, 0.0, 0.0, 1.6954200242267E9, 0.0, 2023-09-22 17:00:24.226
244.0, 20797.29238716273, 33059.168822666266, -51057.82163832446, -51184.198401474765, -36616.00191783928, -20846.2203557754, -187500.02235174447, -26414.308120525853, -9430.402151394148, 18712.388719605056, -47901.48710030164, -44095.92379282997, -18226.350036424403, -46795.76865384205, -49216.060246951616, -41563.69466348823, 0.024, 0.998, 0.176, 192.0, 0.0, 0.0, 0.0, 0.0, 0.0, 0.0, 0.0, 0.0, 0.0, 1.695420024226704E9, 0.0, 2023-09-22 17:00:24.226
246.0, 20813.74327108184, 33080.067703731984, -51071.34444371992, -51185.98654103119, -36628.943577878905, -20847.02501857579, -187500.02235174447, -26419.896056639678, -9444.371991678714, 18721.418824365, -47919.52495807707, -44103.702199900414, -18238.151757496806, -46810.811377860475, -49224.844482522545, -41580.12319566288, 0.024, 0.998, 0.176, 192.0, 0.0, 0.0, 0.0, 0.0, 0.0, 0.0, 0.0, 0.0, 0.0, 1.695420024226707E9, 0.0, 2023-09-22 17:00:24.226
248.0, 20794.766640039285, 33051.36806385137, -51064.57186514996, -51181.15856422884, -36613.96790909385, -20840.095977794645, -187500.02235174447, -26404.629815176704, -9424.545994346858, 18714.75800451732, -47897.77671072206, -44080.21051647789, -18216.202344441695, -46791.097139250895, -49205.39846484643, -41563.73936697714, 0.026000000000000002, 1.004, 0.17400000000000002, 192.0, 0.0, 104.0, 15.5, 48.0, 2.5, 56.0, 0.0, 0.0, 0.0, 1.695420024226711E9, 0.0, 2023-09-22 17:00:24.226
250.0, 20816.805460072217, 33080.38062815436, -51092.24332478563, -51199.576401660015, -36636.409060526974, -20859.36318151512, -187500.02235174447, -26425.93102764261, -9444.684916101089, 18717.730786529875, -47919.435551099254, -44095.07442654067, -18237.011818529587, -46817.181625030236, -49223.57043308859, -41590.87438474588, 0.026000000000000002, 1.004, 0.17400000000000002, 192.0, 0.0, 0.0, 0.0, 0.0, 0.0, 0.0, 0.0, 0.0, 0.0, 1.695420024226714E9, 0.0, 2023-09-22 17:00:24.226
252.0, 20784.887168990037, 33043.54495329201, -51089.67287417327, -51186.83590732049, -36631.29051104671, -20847.561460442717, -187500.02235174447, -26416.65505369366, -9436.682991586089, 18701.6151787776, -47904.97397243667, -44085.35141770261, -18235.38014118435, -46808.26327899257, -49222.16227318791, -41585.39820735434, 0.026000000000000002, 1.004, 0.17400000000000002, 192.0, 0.0, 0.0, 0.0, 0.0, 0.0, 0.0, 0.0, 0.0, 0.0, 1.695420024226718E9, 0.0, 2023-09-22 17:00:24.226
254.0, 20815.442003660442, 33080.067703731984, -51104.40267376932, -51199.46464293774, -36638.666586716965, -20860.056085593234, -187500.02235174447, -26430.75900444496, -9450.652831870655, 18715.98735046236, -47913.93702196325, -44089.97822880486, -18247.405379701304, -46822.59074718842, -49227.41493313491, -41600.59739358394, 0.026000000000000002, 1.004, 0.17400000000000002, 192.0, 0.0, 0.0, 0.0, 0.0, 0.0, 0.0, 0.0, 0.0, 0.0, 1.695420024226723E9, 0.0, 2023-09-22 17:00:24.226
0.0, 20789.044593458726, 33049.46816557267, -51082.36385373639, -51172.44138389127, -36621.43339174192, -20832.965771313404, -187500.02235174447, -26407.915521611634, -9430.938593261075, 18710.645283537542, -47882.48811751463, -44066.106565726586, -18228.6522661033, -46800.93190681123, -49209.68999978185, -41580.838451485455, 0.026000000000000002, 1.004, 0.17400000000000002, 192.0, 0.0, 0.0, 0.0, 0.0, 0.0, 0.0, 0.0, 0.0, 0.0, 1.695420024287033E9, 0.0, 2023-09-22 17:00:24.287
2.0, 20825.70145436543, 33082.995782255624, -51096.37839750986, -51192.35678820095, -36622.796848153695, -20852.903527367536, -187500.02235174447, -26423.56174273035, -9439.096979987262, 18722.111728443113, -47890.11006237389, -44074.711987341885, -18235.827176073453, -46817.673363408256, -49215.970839973794, -41594.09303594745, 0.028, 1.0, 0.178, 192.0, 0.0, 112.0, 15.5, 32.0, 2.5, 72.0, 0.0, 0.0, 0.0, 1.695420024287042E9, 0.0, 2023-09-22 17:00:24.287
4.0, 20797.73942205184, 33048.127060905346, -51083.324978747965, -51167.72516581121, -36622.8415516426, -20829.92593406748, -187500.02235174447, -26407.28967276689, -9430.491558371968, 18708.097184669637, -47874.95557963319, -44064.0502052367, -18235.536603395536, -46806.25162199159, -49210.449959093334, -41581.37489335238, 0.028, 1.0, 0.178, 192.0, 0.0, 0.0, 0.0, 0.0, 0.0, 0.0, 0.0, 0.0, 0.0, 1.695420024287045E9, 0.0, 2023-09-22 17:00:24.287
6.0, 20833.68102713597, 33086.95204102422, -51082.11798454738, -51181.1809159733, -36609.229339269325, -20843.538146440762, -187500.02235174447, -26411.84942863577, -9421.372046634204, 18731.879440770084, -47869.36764351936, -44056.67412956645, -18220.35976891038, -46801.870680078355, -49200.83870897755, -41576.345750849934, 0.028, 1.0, 0.178, 192.0, 0.0, 0.0, 0.0, 0.0, 0.0, 0.0, 0.0, 0.0, 0.0, 1.695420024287049E9, 0.0, 2023-09-22 17:00:24.287
8.0, 20795.861875517592, 33047.009473682585, -51084.86724911538, -51171.12263096841, -36621.83572314212, -20832.78695735776, -187500.02235174447, -26408.09433556728, -9432.279697928394, 18709.773565503787, -47876.162573833775, -44067.02298724926, -18227.266457947073, -46805.715180124665, -49210.18173815987, -41581.71016951921, 0.028, 1.0, 0.178, 192.0, 0.0, 0.0, 0.0, 0.0, 0.0, 0.0, 0.0, 0.0, 0.0, 1.695420024287052E9, 0.0, 2023-09-22 17:00:24.287
10.0, 20830.46237593441, 33084.22512820067, -51080.508658946594, -51178.83398280549, -36602.233243254814, -20841.995876073346, -187500.02235174447, -26406.0826785663, -9423.160186190627, 18732.170013448, -47869.68056794174, -44057.38938538902, -18218.45987063168, -46799.25552597708, -49199.29643861013, -41573.6635415153, 0.028, 1.0, 0.178, 192.0, 0.0, 0.0, 0.0, 0.0, 0.0, 0.0, 0.0, 0.0, 0.0, 1.695420024287055E9, 0.0, 2023-09-22 17:00:24.287
12.0, 20795.68306156195, 33048.328226605445, -51089.53876370654, -51173.22369494721, -36629.27885404573, -20837.570230671197, -187500.02235174447, -26410.41891699063, -9428.47990137099, 18716.233219651367, -47874.17326857725, -44062.48558312483, -18228.674617847755, -46804.865813835364, -49208.37124685899, -41579.87732647388, 0.028, 0.994, 0.182, 192.0, 0.0, 112.0, 15.5, 8.0, 2.5, 88.0, 0.0, 0.0, 0.0, 1.695420024287058E9, 0.0, 2023-09-22 17:00:24.287
14.0, 20816.73840483885, 33072.82573852846, -51098.18888881074, -51198.34705571498, -36622.88625513152, -20863.52060598381, -187500.02235174447, -26426.400414276173, -9434.24665144046, 18721.70939704292, -47884.835050682435, -44069.52638262825, -18235.626010373355, -46814.67822965125, -49214.60738356202, -41589.17565216728, 0.028, 0.994, 0.182, 192.0, 0.0, 0.0, 0.0, 0.0, 0.0, 0.0, 0.0, 0.0, 0.0, 1.695420024347268E9, 0.0, 2023-09-22 17:00:24.347
16.0, 20793.78316328325, 33047.903543460794, -51093.249153286124, -51178.20813396075, -36635.62674947104, -20843.672256907495, -187500.02235174447, -26426.199248576075, -9443.05323875585, 18705.303216612723, -47892.591106008425, -44078.02004552127, -18244.47730117766, -46822.43428497724, -49225.42562787839, -41596.66348655981, 0.028, 0.994, 0.182, 192.0, 0.0, 0.0, 0.0, 0.0, 0.0, 0.0, 0.0, 0.0, 0.0, 1.695420024347298E9, 0.0, 2023-09-22 17:00:24.347
18.0, 20814.033843759757, 33068.69066580423, -51087.057720072, -51192.02151203412, -36614.884330616514, -20857.776207658793, -187500.02235174447, -26428.27796081042, -9425.752988547443, 18721.88821099856, -47880.208239580184, -44065.65953083748, -18229.591039370425, -46809.336162726424, -49212.193395160844, -41582.96186720871, 0.028, 0.994, 0.182, 192.0, 0.0, 0.0, 0.0, 0.0, 0.0, 0.0, 0.0, 0.0, 0.0, 1.695420024347302E9, 0.0, 2023-09-22 17:00:24.347
20.0, 20798.320567407678, 33051.412767340276, -51084.97900783766, -51171.815535046524, -36625.501409232784, -20838.129024282578, -187500.02235174447, -26422.354748529764, -9433.352581662248, 18711.785222504765, -47886.91376291678, -44074.53317338624, -18240.297524964517, -46815.147616284805, -49220.798816776136, -41590.36029462341, 0.028, 0.994, 0.182, 192.0, 0.0, 0.0, 0.0, 0.0, 0.0, 0.0, 0.0, 0.0, 0.0, 1.695420024347305E9, 0.0, 2023-09-22 17:00:24.347
22.0, 20808.892942535036, 33061.69456978972, -51083.01205432559, -51185.69596835327, -36606.16715027895, -20848.634344176575, -187500.02235174447, -26421.684196196104, -9423.450758868546, 18723.475184854888, -47877.347216289905, -44062.262065680276, -18227.959362025187, -46802.67534287874, -49208.773578259184, -41578.111538661906, 0.03, 0.996, 0.184, 192.0, 0.0, 120.0, 15.5, 16.0, 2.5, 96.0, 0.0, 0.0, 0.0, 1.695420024347309E9, 0.0, 2023-09-22 17:00:24.347
24.0, 20794.565474339186, 33050.697511517705, -51097.987723110644, -51182.47731715171, -36636.67728146044, -20847.963791842914, -187500.02235174447, -26431.049577122878, -9440.7286573325, 18716.18851616246, -47894.401597309305, -44077.93063854345, -18237.816481329977, -46816.823997118954, -49224.17393018889, -41592.79663476904, 0.03, 0.996, 0.184, 192.0, 0.0, 0.0, 0.0, 0.0, 0.0, 0.0, 0.0, 0.0, 0.0, 1.695420024347312E9, 0.0, 2023-09-22 17:00:24.347
26.0, 20798.36527089659, 33052.1503749073, -51085.82837412696, -51185.98654103119, -36610.1904642809, -20850.578945944184, -187500.02235174447, -26421.483030496005, -9427.205851937038, 18715.920295228996, -47880.364701791375, -44066.48654538233, -18223.109033478384, -46804.664648135265, -49212.30515388312, -41581.732521263664, 0.03, 0.996, 0.184, 192.0, 0.0, 0.0, 0.0, 0.0, 0.0, 0.0, 0.0, 0.0, 0.0, 1.695420024347315E9, 0.0, 2023-09-22 17:00:24.347
28.0, 20795.325433650665, 33048.41763358327, -51096.08782483194, -51181.24797120666, -36636.25259831579, -20848.27671626529, -187500.02235174447, -26434.067062624345, -9446.830683568798, 18707.5160393138, -47900.347161334415, -44085.753749102805, -18242.264478476583, -46824.110665811386, -49229.672459324895, -41600.70915230622, 0.03, 0.996, 0.184, 192.0, 0.0, 0.0, 0.0, 0.0, 0.0, 0.0, 0.0, 0.0, 0.0, 1.695420024347318E9, 0.0, 2023-09-22 17:00:24.347
30.0, 20799.97459649737, 33047.076528915946, -51070.69624313072, -51170.04974723456, -36601.69680138789, -20835.826794603683, -187500.02235174447, -26411.692966424584, -9416.789939020866, 18720.882382498072, -47867.355986518385, -44056.182391188435, -18213.18485894023, -46790.0913107504, -49198.89410720994, -41567.02507341207, 0.03, 0.996, 0.184, 192.0, 0.0, 0.0, 0.0, 0.0, 0.0, 0.0, 0.0, 0.0, 0.0, 1.69542002440749E9, 0.0, 2023-09-22 17:00:24.407
32.0, 20810.055233246712, 33060.68874128923, -51082.54266769203, -51171.30144492405, -36624.182656309924, -20838.84428010515, -187500.02235174447, -26425.238123564497, -9430.871538027708, 18723.206963921424, -47882.91280065928, -44070.33104542864, -18228.115824236374, -46807.97270631465, -49213.243927150244, -41585.35350386542, 0.032, 0.998, 0.182, 192.0, 0.5, 0.0, 15.5, 24.0, 2.5, 88.0, 0.0, 0.0, 0.0, 1.695420024407501E9, 0.0, 2023-09-22 17:00:24.407
34.0, 20804.534352366252, 33050.4516423287, -51062.29198721552, -51157.912749995325, -36594.700705373376, -20824.65092237603, -187500.02235174447, -26403.17695178711, -9418.376912877193, 18719.876553997583, -47861.32101551545, -44052.02496671974, -18218.661036331778, -46789.778386328035, -49197.28478160915, -41565.862782700395, 0.032, 0.998, 0.182, 192.0, 0.0, 0.0, 0.0, 0.0, 0.0, 0.0, 0.0, 0.0, 0.0, 1.695420024407505E9, 0.0, 2023-09-22 17:00:24.407
36.0, 20809.49643963533, 33061.67221804526, -51092.265676530085, -51180.93504678429, -36628.809467412175, -20846.354466242134, -187500.02235174447, -26430.26726606694, -9431.743256061465, 18733.24289718186, -47877.90600990129, -44062.03854823572, -18228.78637657003, -46803.70352312369, -49208.415950347895, -41579.13971890685, 0.032, 0.998, 0.182, 192.0, 0.0, 0.0, 0.0, 0.0, 0.0, 0.0, 0.0, 0.0, 0.0, 1.695420024407509E9, 0.0, 2023-09-22 17:00:24.407
38.0, 20791.749154537818, 33038.0017206671, -51077.5582286785, -51171.63672109089, -36610.92807184793, -20833.92689632498, -187500.02235174447, -26415.068079837332, -9431.944421761564, 18708.857143981117, -47877.771899434556, -44063.804336047695, -18226.50649863559, -46799.65785737728, -49211.90282248292, -41576.8151374835, 0.032, 0.998, 0.182, 192.0, 0.0, 0.0, 0.0, 0.0, 0.0, 0.0, 0.0, 0.0, 0.0, 1.695420024407512E9, 0.0, 2023-09-22 17:00:24.407
40.0, 20815.240837960344, 33060.353465122396, -51094.38909225334, -51188.37817768791, -36630.08351684613, -20852.18827154497, -187500.02235174447, -26434.111766113256, -9430.491558371968, 18726.00093197834, -47882.48811751463, -44067.42531864945, -18226.12651897985, -46806.74336036961, -49212.97570621678, -41582.73834976416, 0.032, 0.998, 0.182, 192.0, 0.0, 0.0, 0.0, 0.0, 0.0, 0.0, 0.0, 0.0, 0.0, 1.695420024407516E9, 0.0, 2023-09-22 17:00:24.407
42.0, 20781.69086953293, 33026.55762750597, -51087.4600514722, -51183.21492471873, -36627.893045889505, -20846.51092845332, -187500.02235174447, -26425.841620664793, -9439.76753232092, 18698.485934553853, -47884.99151289362, -44071.985074518336, -18233.681408605746, -46808.95618307069, -49221.625831320984, -41584.90646897632, 0.028, 0.994, 0.178, 192.0, 0.0, 112.0, 15.5, 8.0, 2.5, 72.0, 0.0, 0.0, 0.0, 1.695420024407519E9, 0.0, 2023-09-22 17:00:24.407
44.0, 20808.959997768405, 33064.197965168714, -51098.72533067767, -51189.026378277114, -36634.30799654818, -20851.428312233485, -187500.02235174447, -26434.60350449127, -9452.239805726982, 18711.80757424922, -47902.20235612421, -44084.412644435484, -18244.41024594429, -46818.79095063102, -49229.13601745797, -41595.09886444794, 0.028, 0.994, 0.178, 192.0, 0.0, 0.0, 0.0, 0.0, 0.0, 0.0, 0.0, 0.0, 0.0, 1.695420024466933E9, 0.0, 2023-09-22 17:00:24.466
46.0, 20781.668517788472, 33031.407956052775, -51079.65929265729, -51166.78639254408, -36620.695784174895, -20827.467242177398, -187500.02235174447, -26412.22940829151, -9434.693686329567, 18710.108841670615, -47880.699977958204, -44066.12891747105, -18228.42874865875, -46792.30413345148, -49215.32263938459, -41572.97063743718, 0.028, 0.994, 0.178, 192.0, 0.0, 0.0, 0.0, 0.0, 0.0, 0.0, 0.0, 0.0, 0.0, 1.695420024466949E9, 0.0, 2023-09-22 17:00:24.466
48.0, 20810.323454180176, 33063.840337257425, -51095.484327731654, -51189.98750328869, -36625.56846446615, -20848.008495331826, -187500.02235174447, -26429.060271866354, -9442.561500377835, 18729.778376791284, -47894.22278335367, -44074.287304197234, -18234.441367917225, -46802.07184577845, -49217.53546208566, -41581.33018986347, 0.028, 0.994, 0.178, 192.0, 0.0, 0.0, 0.0, 0.0, 0.0, 0.0, 0.0, 0.0, 0.0, 1.695420024466953E9, 0.0, 2023-09-22 17:00:24.466
50.0, 20778.695735775917, 33025.261226327566, -51085.58250493795, -51177.69404383827, -36625.07672608813, -20835.849146348137, -187500.02235174447, -26418.9349316281, -9436.727695075, 18711.002911448828, -47887.71842571717, -44075.78487107574, -18237.816481329977, -46795.61219163087, -49217.870738252495, -41576.4128060833, 0.028, 0.994, 0.178, 192.0, 0.0, 0.0, 0.0, 0.0, 0.0, 0.0, 0.0, 0.0, 0.0, 1.695420024466956E9, 0.0, 2023-09-22 17:00:24.466
52.0, 20814.682044348963, 33064.332075635444, -51089.85168812892, -51193.40732019035, -36619.19821729639, -20851.629477933584, -187500.02235174447, -26424.768736930935, -9438.135854975684, 18724.99510347785, -47893.68634148673, -44083.45151942391, -18231.334475437936, -46805.290496980015, -49220.441188864854, -41581.888983474855, 0.026000000000000002, 0.998, 0.178, 192.0, 0.0, 104.0, 15.5, 24.0, 2.5, 72.0, 0.0, 0.0, 0.0, 1.69542002446696E9, 0.0, 2023-09-22 17:00:24.466
54.0, 20781.668517788472, 33031.139735119315, -51084.53197294855, -51176.285883937584, -36629.368261023556, -20834.016303302804, -187500.02235174447, -26416.47623973802, -9442.33798293328, 18701.682234010965, -47897.01675141058, -44091.31933347217, -18236.27421096256, -46807.27980223654, -49228.66663082441, -41585.97935271017, 0.026000000000000002, 0.998, 0.178, 192.0, 0.0, 0.0, 0.0, 0.0, 0.0, 0.0, 0.0, 0.0, 0.0, 1.695420024466963E9, 0.0, 2023-09-22 17:00:24.466
56.0, 20816.20196297192, 33071.57404083896, -51087.370644494375, -51193.988465546194, -36621.142819064, -20853.439969234463, -187500.02235174447, -26426.84744916528, -9436.325363674803, 18726.89500175655, -47894.893335687324, -44084.569106646675, -18231.26742020457, -46804.64229639081, -49219.54711908664, -41584.57119280949, 0.026000000000000002, 0.998, 0.178, 192.0, 0.0, 0.0, 0.0, 0.0, 0.0, 0.0, 0.0, 0.0, 0.0, 1.695420024466967E9, 0.0, 2023-09-22 17:00:24.466
58.0, 20781.176779410456, 33038.51581078956, -51085.18017353775, -51178.118726982924, -36635.17971458194, -20839.4701289499, -187500.02235174447, -26422.198286318577, -9442.561500377835, 18703.313911356203, -47900.280106101054, -44090.89465032752, -18240.76691159808, -46809.51497668207, -49229.828921536086, -41592.12608243538, 0.026000000000000002, 0.998, 0.178, 192.0, 0.0, 0.0, 0.0, 0.0, 0.0, 0.0, 0.0, 0.0, 0.0, 1.695420024466971E9, 0.0, 2023-09-22 17:00:24.466
60.0, 20816.15725948301, 33073.36218039539, -51083.83906887044, -51189.31695095503, -36616.11367656156, -20849.908393610527, -187500.02235174447, -26421.594789218285, -9434.045485740362, 18720.994141220348, -47894.33454207594, -44081.01517927828, -18233.167318483273, -46803.480005679136, -49218.94362198635, -41585.71113177671, 0.026000000000000002, 0.998, 0.178, 192.0, 0.0, 0.0, 0.0, 0.0, 0.0, 0.0, 0.0, 0.0, 0.0, 1.695420024526659E9, 0.0, 2023-09-22 17:00:24.526
62.0, 20786.295328890723, 33038.69462474521, -51086.0071880826, -51177.73874732718, -36636.34200529361, -20840.69947489494, -187500.02235174447, -26422.332396785307, -9440.907471288141, 18706.152582902025, -47900.9059549458, -44090.02293229377, -18241.12453950936, -46808.509148181576, -49226.92319475689, -41591.90256499083, 0.024, 1.002, 0.178, 192.0, 0.0, 96.0, 15.5, 40.0, 2.5, 72.0, 0.0, 0.0, 0.0, 1.69542002452667E9, 0.0, 2023-09-22 17:00:24.526
64.0, 20814.950265282427, 33068.37774138185, -51082.43090896975, -51190.65805562235, -36615.86780737255, -20854.289335523765, -187500.02235174447, -26423.94172238609, -9428.43519788208, 18728.973713990894, -47887.360797805886, -44075.606057120094, -18230.619219615368, -46798.31675270996, -49212.23809864975, -41579.67616077378, 0.024, 1.002, 0.178, 192.0, 0.0, 0.0, 0.0, 0.0, 0.0, 0.0, 0.0, 0.0, 0.0, 1.695420024526673E9, 0.0, 2023-09-22 17:00:24.526
66.0, 20786.049459701713, 33043.12027014736, -51093.85265038641, -51183.99723577467, -36643.91924666396, -20848.232012776378, -187500.02235174447, -26435.1399463582, -9452.195102238073, 18706.33139685767, -47906.33742884844, -44096.236717252345, -18256.61429841689, -46818.858005864386, -49235.99800300575, -41600.32917265048, 0.024, 1.002, 0.178, 192.0, 0.0, 0.0, 0.0, 0.0, 0.0, 0.0, 0.0, 0.0, 0.0, 1.695420024526677E9, 0.0, 2023-09-22 17:00:24.526
68.0, 20813.45269840392, 33066.47784310315, -51075.09953678841, -51181.58324737349, -36611.08453405911, -20844.208698774422, -187500.02235174447, -26422.935893885602, -9434.87250028521, 18722.4693563544, -47887.696073972715, -44074.89080129752, -18230.440405659727, -46799.18847074371, -49216.48493009627, -41580.99491369664, 0.024, 1.002, 0.178, 192.0, 0.0, 0.0, 0.0, 0.0, 0.0, 0.0, 0.0, 0.0, 0.0, 1.69542002452668E9, 0.0, 2023-09-22 17:00:24.526
70.0, 20795.146619695024, 33048.68585451673, -51087.370644494375, -51179.21396246123, -36637.39253728301, -20839.760701627816, -187500.02235174447, -26428.300312554875, -9441.287450943883, 18717.66373129651, -47892.54640251952, -44081.01517927828, -18236.27421096256, -46804.12820626834, -49222.27403191019, -41585.62172479889, 0.024, 1.002, 0.178, 192.0, 0.0, 0.0, 0.0, 0.0, 0.0, 0.0, 0.0, 0.0, 0.0, 1.695420024526683E9, 0.0, 2023-09-22 17:00:24.526
72.0, 20803.88615177705, 33057.04540694301, -51083.23557177014, -51191.23920097819, -36614.3925922385, -20848.679047665482, -187500.02235174447, -26420.41014676215, -9435.610107852233, 18715.003873706326, -47888.14310886182, -44078.64589436602, -18231.28977194903, -46797.377979442834, -49216.619040563, -41579.09501541794, 0.024, 1.004, 0.182, 192.0, 0.0, 96.0, 15.5, 48.0, 2.5, 88.0, 0.0, 0.0, 0.0, 1.695420024526686E9, 0.0, 2023-09-22 17:00:24.526
74.0, 20794.38666038354, 33050.16106965078, -51094.59025795344, -51191.10509051145, -36638.82304892815, -20849.215489532413, -187500.02235174447, -26428.523829999427, -9447.881215558198, 18703.738594500854, -47903.16348113579, -44095.0073713073, -18244.164376755285, -46814.588822673424, -49228.71133431332, -41594.96475398121, 0.024, 1.004, 0.182, 192.0, 0.0, 0.0, 0.0, 0.0, 0.0, 0.0, 0.0, 0.0, 0.0, 1.69542002458695E9, 0.0, 2023-09-22 17:00:24.586
76.0, 20796.420669128976, 33052.5527063075, -51088.845859628425, -51196.51421266964, -36617.03009808422, -20854.669315179508, -187500.02235174447, -26422.488858996494, -9442.181520722095, 18700.855219466117, -47895.943867676724, -44086.938391558935, -18240.789263342533, -46807.950354570195, -49222.45284586583, -41586.69460853274, 0.024, 1.004, 0.182, 192.0, 0.0, 0.0, 0.0, 0.0, 0.0, 0.0, 0.0, 0.0, 0.0, 1.695420024586962E9, 0.0, 2023-09-22 17:00:24.586
78.0, 20799.16993369698, 33060.912258733784, -51096.1101765764, -51186.299465453565, -36637.52664774974, -20843.672256907495, -187500.02235174447, -26423.025300863424, -9456.240767984482, 18705.370271846088, -47910.427798083765, -44097.17549051947, -18254.490882693637, -46819.66266866478, -49234.74630531625, -41598.00459122713, 0.024, 1.004, 0.182, 192.0, 0.0, 0.0, 0.0, 0.0, 0.0, 0.0, 0.0, 0.0, 0.0, 1.695420024586965E9, 0.0, 2023-09-22 17:00:24.586
80.0, 20799.527561608265, 33056.68777903173, -51079.16755427928, -51180.46566015073, -36612.4926939598, -20838.307838238223, -187500.02235174447, -26409.480143723507, -9432.950250262053, 18715.808536506716, -47885.729120460644, -44074.57787687515, -18240.632801131345, -46795.52278465305, -49212.46161609431, -41571.808346725506, 0.024, 1.004, 0.182, 192.0, 0.0, 0.0, 0.0, 0.0, 0.0, 0.0, 0.0, 0.0, 0.0, 1.695420024586969E9, 0.0, 2023-09-22 17:00:24.586
82.0, 20806.74717506733, 33069.0035902266, -51085.269580515574, -51179.97392177271, -36625.166133065955, -20837.011437059813, -187500.02235174447, -26415.805687404358, -9436.01243925243, 18723.966923232903, -47889.439510040225, -44080.18816473343, -18233.636705116834, -46801.513052167065, -49213.15452017242, -41574.7140735047, 0.028, 0.998, 0.182, 192.0, 0.0, 112.0, 15.5, 24.0, 2.5, 88.0, 0.0, 0.0, 0.0, 1.695420024586972E9, 0.0, 2023-09-22 17:00:24.586
84.0, 20787.4576196024, 33049.28935161702, -51080.933342091244, -51184.86895380842, -36614.191426538404, -20840.78888187276, -187500.02235174447, -26414.03989959239, -9431.76560780592, 18708.432460836466, -47884.835050682435, -44080.14346124452, -18232.31795219397, -46798.584973643425, -49210.29349688214, -41570.60135252492, 0.028, 0.998, 0.182, 192.0, 0.0, 0.0, 0.0, 0.0, 0.0, 0.0, 0.0, 0.0, 0.0, 1.695420024586975E9, 0.0, 2023-09-22 17:00:24.586
86.0, 20811.88807629205, 33078.34661940892, -51075.30070248851, -51167.45694487774, -36615.018441083244, -20825.165012498503, -187500.02235174447, -26407.826114633815, -9438.851110798254, 18724.19044067746, -47893.59693450892, -44086.82663283666, -18237.79412958552, -46806.408084202776, -49216.104950440524, -41576.479861316664, 0.028, 0.998, 0.182, 192.0, 0.0, 0.0, 0.0, 0.0, 0.0, 0.0, 0.0, 0.0, 0.0, 1.695420024586978E9, 0.0, 2023-09-22 17:00:24.586
88.0, 20786.295328890723, 33051.323360362454, -51071.657368142296, -51170.34031991247, -36609.3410979916, -20828.853050333626, -187500.02235174447, -26407.155562300155, -9422.690799557067, 18722.782280776773, -47872.56394297647, -44066.933580271434, -18223.064329989473, -46783.050511246984, -49198.64823802093, -41555.08924187294, 0.028, 0.998, 0.182, 192.0, 0.0, 0.0, 0.0, 0.0, 0.0, 0.0, 0.0, 0.0, 0.0, 1.695420024586982E9, 0.0, 2023-09-22 17:00:24.586
90.0, 20815.933742038458, 33083.24165144464, -51076.21712401118, -51174.98948275918, -36615.39842073899, -20834.955076569924, -187500.02235174447, -26414.621044948228, -9430.938593261075, 18740.23899319637, -47883.80687043749, -44075.762519331285, -18229.211059714682, -46795.008694530574, -49204.90672646841, -41566.10865188941, 0.028, 0.998, 0.182, 192.0, 0.0, 0.0, 0.0, 0.0, 0.0, 0.0, 0.0, 0.0, 0.0, 1.6954200246471E9, 0.0, 2023-09-22 17:00:24.647
92.0, 20782.67434628896, 33046.69654926021, -51071.2550367421, -51168.93216001179, -36612.313880004156, -20827.422538688486, -187500.02235174447, -26405.210960532542, -9430.53626186088, 18714.780356261774, -47883.04691112601, -44078.95881878839, -18229.725149837155, -46791.655932862275, -49205.57727880208, -41562.867648943386, 0.026000000000000002, 0.998, 0.17400000000000002, 192.0, 0.0, 104.0, 15.5, 24.0, 2.5, 56.0, 0.0, 0.0, 0.0, 1.695420024647123E9, 0.0, 2023-09-22 17:00:24.647
94.0, 20822.885134564058, 33091.958831782205, -51063.34251920492, -51161.84665701946, -36604.04373455569, -20822.907486308515, -187500.02235174447, -26402.908730853647, -9430.357447905237, 18738.272039684303, -47886.511431516585, -44078.73530134384, -18225.478318390647, -46791.11949099535, -49204.303229368124, -41563.068814643484, 0.026000000000000002, 0.998, 0.17400000000000002, 192.0, 0.0, 0.0, 0.0, 0.0, 0.0, 0.0, 0.0, 0.0, 0.0, 1.695420024647127E9, 0.0, 2023-09-22 17:00:24.647
96.0, 20792.933796993948, 33056.17368890926, -51052.03253651054, -51150.782543514084, -36601.45093219887, -20813.07271874818, -187500.02235174447, -26392.336355726286, -9409.391511606158, 18738.294391428757, -47861.835105637925, -44059.401042389996, -18212.38019613984, -46767.62780757282, -49190.19927861682, -41540.22533181016, 0.026000000000000002, 0.998, 0.17400000000000002, 192.0, 0.0, 0.0, 0.0, 0.0, 0.0, 0.0, 0.0, 0.0, 0.0, 1.69542002464713E9, 0.0, 2023-09-22 17:00:24.647
98.0, 20819.711186851408, 33087.197910213225, -51074.384280965845, -51182.92435204081, -36615.800752139185, -20845.97448658639, -187500.02235174447, -26417.973806616523, -9420.589735578267, 18747.86093805563, -47877.973065134654, -44070.509859384285, -18215.822364785956, -46785.35274092588, -49199.74347349924, -41556.31858781798, 0.026000000000000002, 0.998, 0.17400000000000002, 192.0, 0.0, 0.0, 0.0, 0.0, 0.0, 0.0, 0.0, 0.0, 0.0, 1.695420024647134E9, 0.0, 2023-09-22 17:00:24.647
100.0, 20773.39837234001, 33040.61687476836, -51083.34733049242, -51182.27615145161, -36634.82208667065, -20843.60520167413, -187500.02235174447, -26421.974768874024, -9443.835549811787, 18709.527696314777, -47899.0060566671, -44093.643914895525, -18240.14106275333, -46804.15055801279, -49222.74341854375, -41576.904544461315, 0.026000000000000002, 0.998, 0.17400000000000002, 192.0, 0.0, 0.0, 0.0, 0.0, 0.0, 0.0, 0.0, 0.0, 0.0, 1.695420024647137E9, 0.0, 2023-09-22 17:00:24.647
102.0, 20816.85016356113, 33085.34271542343, -51071.500905931105, -51179.81745956153, -36610.68220265892, -20839.246611505343, -187500.02235174447, -26410.37421350172, -9426.445892625557, 18738.719074573408, -47886.779652450045, -44077.975342032354, -18222.438481144723, -46788.12435723834, -49203.677380523375, -41560.341901819935, 0.027000000000000003, 0.999, 0.17400000000000002, 192.0, 0.0, 112.0, 15.5, 32.0, 2.5, 56.0, 0.0, 0.0, 0.0, 1.69542002464714E9, 0.0, 2023-09-22 17:00:24.647
104.0, 20783.635471300542, 33048.752909750096, -51065.17536225026, -51162.047822719556, -36617.67829867343, -20821.633436874563, -187500.02235174447, -26404.696870410073, -9433.86667178472, 18714.445080094945, -47893.149899619806, -44087.16190900349, -18233.592001627923, -46792.37118868485, -49216.14965392943, -41566.26511410059, 0.027000000000000003, 0.999, 0.17400000000000002, 192.0, 0.0, 0.0, 0.0, 0.0, 0.0, 0.0, 0.0, 0.0, 0.0, 1.695420024707484E9, 0.0, 2023-09-22 17:00:24.707
106.0, 20825.433233431966, 33090.32715443696, -51057.84399006891, -51171.36850015742, -36601.02624905422, -20832.36227421311, -187500.02235174447, -26404.540408198885, -9412.610162807723, 18746.922164788506, -47875.179097077744, -44067.47002213836, -18209.832097271934, -46775.69678732119, -49195.25077286372, -41549.21073308119, 0.027000000000000003, 0.999, 0.17400000000000002, 192.0, 0.0, 0.0, 0.0, 0.0, 0.0, 0.0, 0.0, 0.0, 0.0, 1.695420024707499E9, 0.0, 2023-09-22 17:00:24.707
108.0, 20790.273939403767, 33052.19507839621, -51066.270597728566, -51162.89718900886, -36623.489752231806, -20825.25441947632, -187500.02235174447, -26409.413088490142, -9425.082436213785, 18725.576248833688, -47881.92932390324, -44077.77417633226, -18224.69600733471, -46786.58208687092, -49210.673476537886, -41562.33120707646, 0.027000000000000003, 0.999, 0.17400000000000002, 192.0, 0.0, 0.0, 0.0, 0.0, 0.0, 0.0, 0.0, 0.0, 0.0, 1.695420024707503E9, 0.0, 2023-09-22 17:00:24.707
110.0, 20827.042559032747, 33089.433084658755, -51056.122905745855, -51168.70864256724, -36598.3887432085, -20830.97646605688, -187500.02235174447, -26405.27801576591, -9413.258363396926, 18745.692818843465, -47872.251018554096, -44065.7042343264, -18221.32089392196, -46777.50727862207, -49199.07292116558, -41551.93764590474, 0.027000000000000003, 0.999, 0.17400000000000002, 192.0, 0.0, 0.0, 0.0, 0.0, 0.0, 0.0, 0.0, 0.0, 0.0, 1.695420024707507E9, 0.0, 2023-09-22 17:00:24.707
112.0, 20795.347785395123, 33057.98418021014, -51068.7516413631, -51166.47346812171, -36630.754069179784, -20829.74712011184, -187500.02235174447, -26413.771678658926, -9422.91431700162, 18730.94066750296, -47880.29764655801, -44076.74599608732, -18228.093472491917, -46785.240982203606, -49210.53936607115, -41561.4594890427, 0.0235, 0.9955, 0.17400000000000002, 192.0, 0.0, 80.0, 15.5, 0.0, 2.5, 56.0, 0.0, 0.0, 0.0, 1.69542002470751E9, 0.0, 2023-09-22 17:00:24.707
114.0, 20815.129079238068, 33082.19111945524, -51069.3551384634, -51182.90200029636, -36607.19533052389, -20842.398207473543, -187500.02235174447, -26413.235236792, -9417.885174499175, 18741.356580419135, -47879.89531515781, -44074.89080129752, -18221.27619043305, -46781.77646181303, -49203.5656218011, -41558.0620238855, 0.0235, 0.9955, 0.17400000000000002, 192.0, 0.0, 0.0, 0.0, 0.0, 0.0, 0.0, 0.0, 0.0, 0.0, 1.695420024707515E9, 0.0, 2023-09-22 17:00:24.707
116.0, 20789.31281439219, 33060.39816861131, -51076.91002808929, -51172.82136354702, -36633.68214770343, -20831.2670387348, -187500.02235174447, -26413.145829814177, -9432.972602006508, 18723.430481365976, -47897.32967583295, -44091.49814742782, -18238.017647030076, -46797.48973816511, -49221.64818306544, -41573.350617092925, 0.0235, 0.9955, 0.17400000000000002, 192.0, 0.0, 0.0, 0.0, 0.0, 0.0, 0.0, 0.0, 0.0, 0.0, 1.695420024707523E9, 0.0, 2023-09-22 17:00:24.707
118.0, 20806.79187855624, 33078.59248859793, -51074.42898445475, -51185.40539567535, -36618.57236845164, -20843.716960396407, -187500.02235174447, -26413.503457725463, -9427.608183337234, 18734.695760571452, -47889.97595190715, -44082.78096709025, -18229.546335881514, -46787.63261886032, -49212.28280213867, -41563.426442554766, 0.0235, 0.9955, 0.17400000000000002, 192.0, 0.0, 0.0, 0.0, 0.0, 0.0, 0.0, 0.0, 0.0, 0.0, 1.695420024707526E9, 0.0, 2023-09-22 17:00:24.707
120.0, 20794.856047017103, 33067.05898845899, -51078.58640892344, -51173.3801571584, -36634.91149364847, -20832.116405024102, -187500.02235174447, -26411.111821068745, -9435.58775610778, 18728.683141312977, -47897.53084153305, -44089.464138682386, -18238.576440641456, -46792.61705787385, -49219.92709874238, -41569.573172279976, 0.0235, 0.9955, 0.17400000000000002, 192.0, 0.0, 0.0, 0.0, 0.0, 0.0, 0.0, 0.0, 0.0, 0.0, 1.695420024767704E9, 0.0, 2023-09-22 17:00:24.767
122.0, 20808.78118381276, 33075.530299607555, -51067.388184951335, -51175.36946241492, -36605.04956305618, -20832.65284689103, -187500.02235174447, -26400.07005930782, -9425.10478795824, 18730.627743080586, -47887.11492861687, -44080.076406011154, -18230.88744054883, -46781.26237169056, -49207.90186022543, -41556.83267794045, 0.02175, 0.99575, 0.177, 192.0, 0.0, 80.0, 15.5, 16.0, 2.5, 80.0, 0.0, 0.0, 0.0, 1.695420024767733E9, 0.0, 2023-09-22 17:00:24.767
124.0, 20797.962939496392, 33065.09203494692, -51082.11798454738, -51177.71639558273, -36631.89400814701, -20834.016303302804, -187500.02235174447, -26411.871780380225, -9430.133930460684, 18729.84543202465, -47895.318018831975, -44089.35237996011, -18240.69985636471, -46789.75603458357, -49213.60155506153, -41563.493497788135, 0.02175, 0.99575, 0.177, 192.0, 0.0, 0.0, 0.0, 0.0, 0.0, 0.0, 0.0, 0.0, 0.0, 1.695420024767737E9, 0.0, 2023-09-22 17:00:24.767
126.0, 20795.21367492839, 33063.39330236832, -51077.379414722855, -51182.79024157408, -36611.21864452585, -20837.61493416011, -187500.02235174447, -26405.65799542165, -9430.715075816523, 18718.714263285907, -47893.7533967201, -44089.44178693793, -18234.486071406136, -46785.66566534826, -49211.96987771629, -41558.9113901748, 0.02175, 0.99575, 0.177, 192.0, 0.0, 0.0, 0.0, 0.0, 0.0, 0.0, 0.0, 0.0, 0.0, 1.69542002476774E9, 0.0, 2023-09-22 17:00:24.767
128.0, 20791.995023726824, 33064.22031691317, -51092.5115457191, -51188.62404687692, -36637.750165194295, -20841.615896417607, -187500.02235174447, -26418.733765928006, -9447.523587646912, 18719.809498764218, -47912.797082996025, -44104.99860107883, -18249.238222746637, -46800.663685877764, -49224.35274414453, -41572.791823481544, 0.02175, 0.99575, 0.177, 192.0, 0.0, 0.0, 0.0, 0.0, 0.0, 0.0, 0.0, 0.0, 0.0, 1.695420024767743E9, 0.0, 2023-09-22 17:00:24.767
130.0, 20783.076677689158, 33053.33501736343, -51079.882810101844, -51186.63474162039, -36614.99608933879, -20839.40307371653, -187500.02235174447, -26409.390736745685, -9441.376857921703, 18709.930027714974, -47903.09642590242, -44096.63904865254, -18241.035132531542, -46788.41492991626, -49216.44022660735, -41561.61595125389, 0.02175, 0.99575, 0.177, 192.0, 0.0, 0.0, 0.0, 0.0, 0.0, 0.0, 0.0, 0.0, 0.0, 1.695420024767746E9, 0.0, 2023-09-22 17:00:24.767
132.0, 20805.763698311293, 33076.24555543012, -51075.50186818861, -51169.803878045546, -36620.22639754134, -20822.50515490832, -187500.02235174447, -26403.914559354136, -9442.852073055754, 18723.13990868806, -47907.56677479348, -44100.2600312543, -18241.258649976095, -46793.824052074444, -49218.94362198635, -41566.019244911586, 0.021875, 0.9958750000000001, 0.1765, 192.0, 0.0, 88.0, 15.5, 16.0, 2.5, 64.0, 0.0, 0.0, 0.0, 1.695420024767749E9, 0.0, 2023-09-22 17:00:24.767
134.0, 20789.31281439219, 33060.68874128923, -51068.237551240636, -51174.52009612562, -36610.078705558626, -20827.467242177398, -187500.02235174447, -26398.326623240308, -9417.125215187694, 18733.24289718186, -47879.67179771326, -44073.370882674564, -18219.711568321178, -46766.35375813887, -49196.90480195342, -41540.22533181016, 0.021875, 0.9958750000000001, 0.1765, 192.0, 0.0, 0.0, 0.0, 0.0, 0.0, 0.0, 0.0, 0.0, 0.0, 1.695420024826643E9, 0.0, 2023-09-22 17:00:24.826
136.0, 20811.73161408086, 33086.32619217947, -51077.379414722855, -51180.80093631756, -36626.75310692228, -20834.06100679171, -187500.02235174447, -26408.407259989654, -9440.616898610222, 18730.292466913757, -47906.292725359526, -44099.0083335648, -18243.784397099542, -46795.03104627503, -49220.2176714203, -41566.53333503406, 0.021875, 0.9958750000000001, 0.1765, 192.0, 0.0, 0.0, 0.0, 0.0, 0.0, 0.0, 0.0, 0.0, 0.0, 1.695420024826656E9, 0.0, 2023-09-22 17:00:24.826
138.0, 20789.26811090328, 33056.3525028649, -51064.19188549422, -51172.75430831365, -36610.61514742555, -20828.56247765571, -187500.02235174447, -26398.639547662682, -9427.652886826145, 18721.552934831732, -47889.61832399587, -44082.95978104589, -18235.626010373355, -46780.27889493453, -49205.487871824254, -41549.009567381094, 0.021875, 0.9958750000000001, 0.1765, 192.0, 0.0, 0.0, 0.0, 0.0, 0.0, 0.0, 0.0, 0.0, 0.0, 1.69542002482666E9, 0.0, 2023-09-22 17:00:24.826
140.0, 20821.74519559684, 33093.74697133863, -51062.403745937794, -51170.429726890296, -36611.755086392775, -20828.517774166798, -187500.02235174447, -26400.65120466366, -9427.272907170405, 18740.03782749627, -47893.26165834208, -44084.09972001311, -18228.540507381025, -46787.476156649136, -49202.80566248961, -41554.99983489512, 0.021875, 0.9958750000000001, 0.1765, 192.0, 0.0, 0.0, 0.0, 0.0, 0.0, 0.0, 0.0, 0.0, 0.0, 1.695420024826663E9, 0.0, 2023-09-22 17:00:24.826
142.0, 20792.486762104843, 33062.61099131239, -51058.89452205831, -51168.23925593367, -36614.325537005134, -20827.98133229987, -187500.02235174447, -26397.521960439917, -9417.348732632248, 18732.952324503938, -47875.06733835547, -44069.86165879508, -18217.409338642283, -46770.757051796565, -49191.428624561864, -41538.660709698284, 0.0249375, 0.9969375, 0.17525000000000002, 192.0, 0.0, 112.0, 15.5, 24.0, 2.5, 56.0, 0.0, 0.0, 0.0, 1.695420024826667E9, 0.0, 2023-09-22 17:00:24.826
144.0, 20824.40505318702, 33098.57494814097, -51067.47759192915, -51182.05263400706, -36617.20891203987, -20840.721826639394, -187500.02235174447, -26408.98840534549, -9432.369104906214, 18740.5742693632, -47891.76409146358, -44083.54092640173, -18230.46275740418, -46791.25360146208, -49207.05249393613, -41556.89973317382, 0.0249375, 0.9969375, 0.17525000000000002, 192.0, 0.0, 0.0, 0.0, 0.0, 0.0, 0.0, 0.0, 0.0, 0.0, 1.69542002482667E9, 0.0, 2023-09-22 17:00:24.826
146.0, 20789.11164869209, 33058.87824998835, -51061.48732441513, -51169.312139667534, -36616.27013877274, -20827.333131710664, -187500.02235174447, -26398.61719591823, -9431.028000238895, 18720.70356854243, -47886.48907977213, -44081.73043510085, -18228.674617847755, -46784.83865080341, -49204.81731949059, -41549.925988903764, 0.0249375, 0.9969375, 0.17525000000000002, 192.0, 0.0, 0.0, 0.0, 0.0, 0.0, 0.0, 0.0, 0.0, 0.0, 1.695420024826673E9, 0.0, 2023-09-22 17:00:24.826
148.0, 20828.40601544452, 33097.12208475138, -51060.07916451445, -51171.32379666851, -36604.11078978906, -20825.544992154242, -187500.02235174447, -26394.12449528271, -9430.133930460684, 18735.3216094162, -47891.78644320804, -44083.406815935, -18227.713492836177, -46786.47032814864, -49200.77165374418, -41548.27195981407, 0.0249375, 0.9969375, 0.17525000000000002, 192.0, 0.0, 0.0, 0.0, 0.0, 0.0, 0.0, 0.0, 0.0, 0.0, 1.695420024826676E9, 0.0, 2023-09-22 17:00:24.826
150.0, 20798.96876799688, 33062.56628782347, -51051.56314987697, -51154.35882262693, -36607.754124135274, -20808.44590764593, -187500.02235174447, -26377.919480552613, -9409.190345906061, 18732.728807059386, -47868.74179467461, -44063.871391281056, -18209.429765871737, -46761.30226389197, -49184.29841808062, -41525.182607791736, 0.0249375, 0.9969375, 0.17525000000000002, 192.0, 0.0, 0.0, 0.0, 0.0, 0.0, 0.0, 0.0, 0.0, 0.0, 1.695420024887082E9, 0.0, 2023-09-22 17:00:24.887
152.0, 20829.45654743392, 33098.2620237186, -51068.68458612974, -51178.99044501668, -36609.27404275823, -20832.69755037994, -187500.02235174447, -26397.74547788447, -9422.221412923505, 18739.411978651522, -47886.28791407203, -44075.31548444217, -18225.36655966837, -46778.91543852275, -49196.4130635754, -41541.29821554401, 0.02846875, 0.99846875, 0.178625, 192.0, 0.5, 0.0, 15.5, 32.0, 2.5, 88.0, 0.0, 0.0, 0.0, 1.695420024887097E9, 0.0, 2023-09-22 17:00:24.887
154.0, 20795.2583784173, 33061.471052345165, -51060.77206859256, -51160.95258724125, -36617.477132973334, -20816.246666460833, -187500.02235174447, -26387.55308241285, -9425.730636802988, 18725.263324411313, -47885.729120460644, -44077.640065865526, -18233.100263249908, -46775.383862898816, -49201.017522933194, -41540.918235888275, 0.02846875, 0.99846875, 0.178625, 192.0, 0.0, 0.0, 0.0, 0.0, 0.0, 0.0, 0.0, 0.0, 0.0, 1.695420024887101E9, 0.0, 2023-09-22 17:00:24.887
156.0, 20824.382701442566, 33092.11529399339, -51067.20937099569, -51184.73484334169, -36610.413981725455, -20841.012399317315, -187500.02235174447, -26401.187646530587, -9425.350657147248, 18740.3731036631, -47886.46672802767, -44077.215382720875, -18221.79028055552, -46776.03206348802, -49196.12249089748, -41539.93475913224, 0.02846875, 0.99846875, 0.178625, 192.0, 0.0, 0.0, 0.0, 0.0, 0.0, 0.0, 0.0, 0.0, 0.0, 1.695420024887104E9, 0.0, 2023-09-22 17:00:24.887
158.0, 20789.759849281294, 33056.01722669807, -51073.44550769872, -51173.53661936958, -36632.74337443631, -20829.41184394501, -187500.02235174447, -26402.238178519987, -9444.237881211982, 18711.874629482583, -47903.31994334697, -44096.97432481937, -18242.51034766559, -46793.064092762965, -49217.93779348586, -41556.855029684906, 0.02846875, 0.99846875, 0.178625, 192.0, 0.0, 0.0, 0.0, 0.0, 0.0, 0.0, 0.0, 0.0, 0.0, 1.695420024887107E9, 0.0, 2023-09-22 17:00:24.887
160.0, 20825.142660754045, 33090.81889281498, -51063.94601630521, -51179.593942116975, -36606.234205512315, -20833.83748934716, -187500.02235174447, -26395.644413905673, -9426.91527925912, 18736.3721414056, -47886.13145186084, -44078.22121122137, -18226.662960846777, -46774.06510997595, -49197.105967653515, -41535.822038152466, 0.02846875, 0.99846875, 0.178625, 192.0, 0.0, 0.0, 0.0, 0.0, 0.0, 0.0, 0.0, 0.0, 0.0, 1.695420024887116E9, 0.0, 2023-09-22 17:00:24.887
162.0, 20802.2097709429, 33069.67414256026, -51059.766240092074, -51154.93996798277, -36619.75701090777, -20810.055233246712, -187500.02235174447, -26386.25668123444, -9434.112540973729, 18723.60929532162, -47893.23930659763, -44085.53023165825, -18236.587135384936, -46780.45770889017, -49207.70069452533, -41544.963901634685, 0.031234375, 0.998234375, 0.1803125, 192.0, 0.5, 8.0, 15.5, 24.0, 2.5, 88.0, 0.0, 0.0, 0.0, 1.69542002488712E9, 0.0, 2023-09-22 17:00:24.887
164.0, 20822.616913630594, 33091.5117968931, -51056.83816156843, -51170.65324433485, -36597.897004830484, -20826.617875888096, -187500.02235174447, -26389.095352780267, -9410.866726740209, 18752.465397413423, -47873.18979182122, -44063.91609476997, -18213.78835604052, -46758.932978979705, -49183.85138319152, -41522.053363568, 0.031234375, 0.998234375, 0.1803125, 192.0, 0.0, 0.0, 0.0, 0.0, 0.0, 0.0, 0.0, 0.0, 0.0, 1.69542002494733E9, 0.0, 2023-09-22 17:00:24.947
166.0, 20799.92989300846, 33069.27181116007, -51070.49507743062, -51169.13332571189, -36629.211798812365, -20824.22623923138, -187500.02235174447, -26397.678422651104, -9437.040619497373, 18727.342036645656, -47897.44143455523, -44089.86647008258, -18244.90198432231, -46783.45284264718, -49208.08067418107, -41546.640282468834, 0.031234375, 0.998234375, 0.1803125, 192.0, 0.0, 0.0, 0.0, 0.0, 0.0, 0.0, 0.0, 0.0, 0.0, 1.695420024947341E9, 0.0, 2023-09-22 17:00:24.947
168.0, 20814.033843759757, 33084.672163089774, -51068.01403379608, -51181.69500609577, -36611.889196859505, -20834.396282958543, -187500.02235174447, -26397.544312184375, -9435.76657006342, 18726.693836056453, -47896.9049926883, -44087.92186831497, -18238.777606341555, -46779.38482515631, -49205.53257531316, -41542.54991323351, 0.031234375, 0.998234375, 0.1803125, 192.0, 0.0, 0.0, 0.0, 0.0, 0.0, 0.0, 0.0, 0.0, 0.0, 1.695420024947345E9, 0.0, 2023-09-22 17:00:24.947
170.0, 20807.93181752346, 33083.487520633644, -51068.61753089637, -51167.85927627794, -36632.13987733601, -20824.919143309493, -187500.02235174447, -26396.918463339625, -9433.084360728784, 18730.493632613856, -47895.34037057643, -44086.24548748082, -18237.592963885425, -46779.25071468958, -49208.05832243661, -41543.37692777836, 0.031234375, 0.998234375, 0.1803125, 192.0, 0.0, 0.0, 0.0, 0.0, 0.0, 0.0, 0.0, 0.0, 0.0, 1.695420024947352E9, 0.0, 2023-09-22 17:00:24.947
172.0, 20808.73648032385, 33084.11336947839, -51067.20937099569, -51179.37042467242, -36613.5432259492, -20835.98325681487, -187500.02235174447, -26396.046745305866, -9433.844320040265, 18724.436309866465, -47895.452129298705, -44086.55841190319, -18239.604620886403, -46778.6919210782, -49209.73470327076, -41545.29917780151, 0.033617187500000006, 0.9991171875, 0.18115625, 192.0, 0.5, 16.0, 15.5, 32.0, 2.5, 88.0, 0.0, 0.0, 0.0, 1.695420024947355E9, 0.0, 2023-09-22 17:00:24.947
174.0, 20807.17185821198, 33083.44281714473, -51068.7516413631, -51170.40737514584, -36632.05047035819, -20828.897753822537, -187500.02235174447, -26398.21486451803, -9438.515834631424, 18727.364388390113, -47901.1071206459, -44092.77219686177, -18241.728036609657, -46785.10687173687, -49215.210880662315, -41552.33997730494, 0.033617187500000006, 0.9991171875, 0.18115625, 192.0, 0.0, 0.0, 0.0, 0.0, 0.0, 0.0, 0.0, 0.0, 0.0, 1.695420024947359E9, 0.0, 2023-09-22 17:00:24.947
176.0, 20808.177686712468, 33080.93942176574, -51053.10542024439, -51167.50164836665, -36607.08357180162, -20825.50028866533, -187500.02235174447, -26385.787294600883, -9420.992066978462, 18731.030074480783, -47883.42689078175, -44077.26008620979, -18227.534678880536, -46767.35958663936, -49199.22938337677, -41533.94449161822, 0.033617187500000006, 0.9991171875, 0.18115625, 192.0, 0.0, 0.0, 0.0, 0.0, 0.0, 0.0, 0.0, 0.0, 0.0, 1.695420024947362E9, 0.0, 2023-09-22 17:00:24.947
178.0, 20811.86572454759, 33087.063799746495, -51064.59421689442, -51169.66976757882, -36625.38965051051, -20828.56247765571, -187500.02235174447, -26398.639547662682, -9434.023133995906, 18733.75698730433, -47896.368550821375, -44091.78872010574, -18237.816481329977, -46780.904743779276, -49209.37707535947, -41546.75204119111, 0.033617187500000006, 0.9991171875, 0.18115625, 192.0, 0.0, 0.0, 0.0, 0.0, 0.0, 0.0, 0.0, 0.0, 0.0, 1.695420024947366E9, 0.0, 2023-09-22 17:00:24.947
180.0, 20805.249608188824, 33074.70328506271, -51048.88094054234, -51162.78543028658, -36598.455798441864, -20820.962884540902, -187500.02235174447, -26381.160483498632, -9420.366218133715, 18730.404225636034, -47881.01290238058, -44078.91411529948, -18223.734882323133, -46765.504391849565, -49196.43541531985, -41534.1009538294, 0.033617187500000006, 0.9991171875, 0.18115625, 192.0, 0.0, 0.0, 0.0, 0.0, 0.0, 0.0, 0.0, 0.0, 0.0, 1.695420025007534E9, 0.0, 2023-09-22 17:00:25.007
182.0, 20821.231105474366, 33090.32715443696, -51061.44262092622, -51169.75917455664, -36616.359545750565, -20828.137794511058, -187500.02235174447, -26392.716335382025, -9423.026075723896, 18747.43625491098, -47887.15963210579, -44082.49039441233, -18233.212021972184, -46772.1875634417, -49197.59770603153, -41539.13009633185, 0.03180859375, 0.99955859375, 0.18557812499999998, 192.0, 0.0, 120.0, 15.5, 32.0, 2.5, 120.0, 0.0, 0.0, 0.0, 1.69542002500754E9, 0.0, 2023-09-22 17:00:25.007
184.0, 20794.58782608364, 33056.73248252064, -51063.96836804967, -51181.73970958468, -36615.75604865027, -20839.60423941663, -187500.02235174447, -26396.918463339625, -9426.267078669916, 18724.74923428884, -47889.68537922924, -44088.65947588199, -18232.630876616346, -46776.30028442148, -49204.996133446235, -41543.645148711825, 0.03180859375, 0.99955859375, 0.18557812499999998, 192.0, 0.0, 0.0, 0.0, 0.0, 0.0, 0.0, 0.0, 0.0, 0.0, 1.695420025007543E9, 0.0, 2023-09-22 17:00:25.007
186.0, 20819.286503706757, 33084.672163089774, -51071.232684997645, -51182.81259331854, -36623.981490609825, -20841.146509784045, -187500.02235174447, -26402.618158175726, -9436.370067163714, 18732.594696592652, -47903.09642590242, -44101.332914988154, -18239.358751697393, -46789.4431101612, -49214.719142284295, -41556.787974451545, 0.03180859375, 0.99955859375, 0.18557812499999998, 192.0, 0.0, 0.0, 0.0, 0.0, 0.0, 0.0, 0.0, 0.0, 0.0, 1.695420025007547E9, 0.0, 2023-09-22 17:00:25.007
188.0, 20794.945453994926, 33058.07358718796, -51059.766240092074, -51168.99921524516, -36614.750220149785, -20826.148489254534, -187500.02235174447, -26384.490893422473, -9428.122273459707, 18718.736615030364, -47892.099367630406, -44092.392217206034, -18235.290734206526, -46776.47909837712, -49207.231307891765, -41543.13105858935, 0.03180859375, 0.99955859375, 0.18557812499999998, 192.0, 0.0, 0.0, 0.0, 0.0, 0.0, 0.0, 0.0, 0.0, 0.0, 1.69542002500755E9, 0.0, 2023-09-22 17:00:25.007
190.0, 20824.78503284276, 33093.635212616355, -51073.043176298524, -51184.354863685956, -36624.0932493321, -20841.370027228597, -187500.02235174447, -26401.388812230685, -9437.062971241829, 18736.170975705503, -47903.16348113579, -44097.44371145293, -18241.035132531542, -46783.43049090273, -49209.488834081756, -41547.57905573596, 0.03180859375, 0.99955859375, 0.18557812499999998, 192.0, 0.0, 0.0, 0.0, 0.0, 0.0, 0.0, 0.0, 0.0, 0.0, 1.695420025007553E9, 0.0, 2023-09-22 17:00:25.007
192.0, 20803.997910499325, 33069.4059216268, -51052.65838535528, -51160.25968316313, -36610.5927956811, -20819.621779873585, -187500.02235174447, -26385.787294600883, -9429.016343237918, 18721.32941738718, -47893.66398974228, -44091.07346428317, -18238.352923196904, -46773.30515066447, -49208.25948813671, -41542.862837655885, 0.030904296875, 0.997779296875, 0.1867890625, 192.0, 0.0, 120.0, 15.5, 16.0, 2.5, 112.0, 0.0, 0.0, 0.0, 1.695420025007557E9, 0.0, 2023-09-22 17:00:25.007
194.0, 20839.44777720544, 33109.25908199061, -51057.173437735255, -51171.70377632425, -36611.82214162614, -20834.93272482547, -187500.02235174447, -26401.209998275044, -9414.845337253253, 18758.813292838728, -47884.58918149343, -44078.93646704393, -18232.340303938425, -46767.29253140599, -49199.98934268825, -41539.39831726531, 0.030904296875, 0.997779296875, 0.1867890625, 192.0, 0.0, 0.0, 0.0, 0.0, 0.0, 0.0, 0.0, 0.0, 0.0, 1.695420025067931E9, 0.0, 2023-09-22 17:00:25.067
196.0, 20801.718032564884, 33072.95984899519, -51047.20455970819, -51161.01964247461, -36610.48103695882, -20825.343826454144, -187500.02235174447, -26394.593881916273, -9407.782186005377, 18744.239955453868, -47874.57559997745, -44074.89080129752, -18221.052672988495, -46759.58117956891, -49196.54717404213, -41532.089296828424, 0.030904296875, 0.997779296875, 0.1867890625, 192.0, 0.0, 0.0, 0.0, 0.0, 0.0, 0.0, 0.0, 0.0, 0.0, 1.695420025067946E9, 0.0, 2023-09-22 17:00:25.067
198.0, 20827.35548345512, 33100.340735952945, -51060.83912382593, -51180.46566015073, -36613.38676373801, -20845.505099952832, -187500.02235174447, -26406.23914077749, -9423.71897980201, 18744.798749065252, -47895.69799848771, -44095.14148177403, -18231.915620793774, -46781.41883390175, -49208.281839881165, -41549.925988903764, 0.030904296875, 0.997779296875, 0.1867890625, 192.0, 0.0, 0.0, 0.0, 0.0, 0.0, 0.0, 0.0, 0.0, 0.0, 1.695420025067949E9, 0.0, 2023-09-22 17:00:25.067
200.0, 20786.07181144617, 33053.51383131908, -51057.39695517981, -51170.6755960793, -36622.506275475775, -20835.580925414673, -187500.02235174447, -26397.99134707348, -9424.34482864676, 18720.345940631145, -47894.066321142476, -44096.527289930265, -18231.535641138034, -46779.31776992295, -49209.37707535947, -41545.90267490181, 0.030904296875, 0.997779296875, 0.1867890625, 192.0, 0.0, 0.0, 0.0, 0.0, 0.0, 0.0, 0.0, 0.0, 0.0, 1.695420025067954E9, 0.0, 2023-09-22 17:00:25.067
202.0, 20815.84433506064, 33088.29314569153, -51061.643786626315, -51186.590038131486, -36608.82700786913, -20847.02501857579, -187500.02235174447, -26402.12641979771, -9427.295258914859, 18736.46154838342, -47899.81071946749, -44099.34360973163, -18230.753330082098, -46782.62582810233, -49205.35376135752, -41546.573227235465, 0.0294521484375, 0.9978896484374999, 0.18539453125, 192.0, 0.0, 112.0, 15.5, 24.0, 2.5, 96.0, 0.0, 0.0, 0.0, 1.695420025067972E9, 0.0, 2023-09-22 17:00:25.067
204.0, 20779.58980555413, 33050.87632547335, -51062.91783606027, -51175.391814159375, -36624.272063287746, -20833.63632364706, -187500.02235174447, -26398.974823829514, -9437.577061364302, 18712.23225739387, -47906.42683582626, -44109.647763925524, -18239.604620886403, -46786.269162448545, -49215.12147368449, -41551.959997649195, 0.0294521484375, 0.9978896484374999, 0.18539453125, 192.0, 0.0, 0.0, 0.0, 0.0, 0.0, 0.0, 0.0, 0.0, 0.0, 1.695420025067975E9, 0.0, 2023-09-22 17:00:25.067
206.0, 20813.095070492636, 33087.15320672431, -51060.21327498118, -51186.54533464257, -36603.39553396649, -20846.577983686686, -187500.02235174447, -26398.438381962584, -9430.446854883057, 18730.851260525138, -47901.57650727946, -44101.84700511063, -18231.26742020457, -46782.11173797986, -49205.82314799108, -41547.42259352477, 0.0294521484375, 0.9978896484374999, 0.18539453125, 192.0, 0.0, 0.0, 0.0, 0.0, 0.0, 0.0, 0.0, 0.0, 0.0, 1.695420025067979E9, 0.0, 2023-09-22 17:00:25.067
208.0, 20787.614081813586, 33058.52062207706, -51057.01697552407, -51169.42389838981, -36621.9921853533, -20830.97646605688, -187500.02235174447, -26391.710506881536, -9428.591660093267, 18718.826022008183, -47897.79906246651, -44100.86352835459, -18233.36848418337, -46779.45188038968, -49206.62781079148, -41544.87449465686, 0.0294521484375, 0.9978896484374999, 0.18539453125, 192.0, 0.0, 0.0, 0.0, 0.0, 0.0, 0.0, 0.0, 0.0, 0.0, 1.695420025067982E9, 0.0, 2023-09-22 17:00:25.067
210.0, 20813.45269840392, 33084.02396250057, -51062.78372559354, -51188.75815734365, -36610.5927956811, -20850.55659419973, -187500.02235174447, -26400.830018619305, -9432.05618048384, 18723.74340578835, -47903.87873695836, -44106.56322319069, -18238.7552545971, -46786.44797640419, -49209.01944744819, -41549.791878437034, 0.0294521484375, 0.9978896484374999, 0.18539453125, 192.0, 0.0, 0.0, 0.0, 0.0, 0.0, 0.0, 0.0, 0.0, 0.0, 1.695420025127094E9, 0.0, 2023-09-22 17:00:25.127
212.0, 20791.905616749005, 33060.53227907804, -51059.67683311425, -51167.38988964437, -36626.976624366835, -20830.507079423318, -187500.02235174447, -26392.626928404206, -9432.838491539776, 18717.239048151856, -47902.180004379756, -44106.42911272396, -18243.00208604361, -46784.30220893648, -49210.9640492158, -41547.757869691595, 0.02972607421875, 0.99894482421875, 0.184697265625, 192.0, 0.0, 120.0, 15.5, 32.0, 2.5, 96.0, 0.0, 0.0, 0.0, 1.695420025127104E9, 0.0, 2023-09-22 17:00:25.127
214.0, 20814.570285626687, 33080.693552576726, -51049.46208589817, -51174.14011646988, -36596.53354841871, -20836.095015537147, -187500.02235174447, -26383.775637599905, -9418.10869194373, 18733.4217111375, -47887.38314955034, -44092.034589294744, -18221.7008735777, -46771.5393628525, -49193.954371685315, -41533.07277358446, 0.02972607421875, 0.99894482421875, 0.184697265625, 192.0, 0.0, 0.0, 0.0, 0.0, 0.0, 0.0, 0.0, 0.0, 0.0, 1.695420025127107E9, 0.0, 2023-09-22 17:00:25.127
216.0, 20796.06304121769, 33065.82964251395, -51057.19578947971, -51161.93606399728, -36619.26527252976, -20823.17570724198, -187500.02235174447, -26384.133265511187, -9430.6256688387, 18726.42561512299, -47898.13433863334, -44101.22115626588, -18234.17314698376, -46780.92709552373, -49204.05736017911, -41541.58878822193, 0.02972607421875, 0.99894482421875, 0.184697265625, 192.0, 0.0, 0.0, 0.0, 0.0, 0.0, 0.0, 0.0, 0.0, 0.0, 1.695420025127111E9, 0.0, 2023-09-22 17:00:25.127
218.0, 20811.12811698057, 33081.07353223247, -51048.18803646422, -51168.35101465596, -36590.85620532706, -20829.165974756, -187500.02235174447, -26375.863120062724, -9416.722883787499, 18738.875536784595, -47882.19754483671, -44084.72556885786, -18220.80680379949, -46763.71625229315, -49187.5617727711, -41525.02614558055, 0.02972607421875, 0.99894482421875, 0.184697265625, 192.0, 0.0, 0.0, 0.0, 0.0, 0.0, 0.0, 0.0, 0.0, 0.0, 1.695420025127114E9, 0.0, 2023-09-22 17:00:25.127
220.0, 20800.064003475192, 33070.74702629412, -51062.80607733799, -51168.57453210051, -36616.359545750565, -20828.271904977788, -187500.02235174447, -26386.70371612355, -9430.849186283254, 18731.499461114345, -47898.33550433344, -44102.07052255518, -18235.13427199534, -46780.23419144561, -49203.29740086763, -41540.73942193263, 0.02972607421875, 0.99894482421875, 0.184697265625, 192.0, 0.0, 0.0, 0.0, 0.0, 0.0, 0.0, 0.0, 0.0, 0.0, 1.695420025127117E9, 0.0, 2023-09-22 17:00:25.127
222.0, 20802.45564013191, 33071.14935769431, -51057.19578947971, -51178.99044501668, -36598.09817053058, -20837.436120204464, -187500.02235174447, -26385.429666689597, -9416.477014598491, 18732.61704833711, -47883.56100124848, -44088.92769681546, -18222.572591611457, -46764.945598238184, -49191.24981060622, -41524.914386858276, 0.029863037109374997, 0.999472412109375, 0.1823486328125, 192.0, 0.0, 120.0, 15.5, 32.0, 2.5, 80.0, 0.0, 0.0, 0.0, 1.695420025127121E9, 0.0, 2023-09-22 17:00:25.127
224.0, 20797.895884263027, 33069.94236349373, -51076.462993200184, -51181.13621248439, -36630.48584824632, -20841.70530339543, -187500.02235174447, -26402.439344220085, -9443.254404455949, 18718.490745841355, -47914.406408596806, -44119.4154762525, -18250.37816171386, -46793.42172067425, -49219.345953386546, -41555.715090717684, 0.029863037109374997, 0.999472412109375, 0.1823486328125, 192.0, 0.0, 0.0, 0.0, 0.0, 0.0, 0.0, 0.0, 0.0, 0.0, 1.695420025186943E9, 0.0, 2023-09-22 17:00:25.186
226.0, 20792.21854117138, 33061.82868025645, -51065.77885935055, -51182.74553808517, -36608.603490424575, -20844.633381919073, -187500.02235174447, -26395.197379016565, -9427.697590315056, 18720.681216797973, -47896.18973686573, -44101.08704579915, -18235.84952781791, -46773.551019853476, -49204.19147064585, -41537.16314281978, 0.029863037109374997, 0.999472412109375, 0.1823486328125, 192.0, 0.0, 0.0, 0.0, 0.0, 0.0, 0.0, 0.0, 0.0, 0.0, 1.695420025186953E9, 0.0, 2023-09-22 17:00:25.186
228.0, 20808.22239020138, 33079.710075820694, -51057.039327268525, -51162.27134016411, -36611.79978988168, -20824.852088076128, -187500.02235174447, -26383.909748066635, -9433.933727018086, 18731.56651634771, -47904.92926894776, -44109.40189473652, -18246.46660643418, -46783.341083924905, -49209.91351722641, -41546.19324757973, 0.029863037109374997, 0.999472412109375, 0.1823486328125, 192.0, 0.0, 0.0, 0.0, 0.0, 0.0, 0.0, 0.0, 0.0, 0.0, 1.695420025186956E9, 0.0, 2023-09-22 17:00:25.186
230.0, 20797.78412554075, 33066.433139614244, -51044.54470211801, -51158.91857849581, -36591.34794370508, -20821.32051245219, -187500.02235174447, -26370.565756626816, -9413.034845952374, 18739.36727516261, -47878.3530447904, -44083.89855431301, -18220.024492743552, -46755.222589400124, -49187.673531493376, -41516.107799542886, 0.029863037109374997, 0.999472412109375, 0.1823486328125, 192.0, 0.0, 0.0, 0.0, 0.0, 0.0, 0.0, 0.0, 0.0, 0.0, 1.695420025186959E9, 0.0, 2023-09-22 17:00:25.186
232.0, 20806.478954133865, 33084.962735767695, -51067.43288844024, -51177.492878138175, -36617.3430225066, -20840.006570816826, -187500.02235174447, -26391.732858625994, -9430.312744416326, 18742.742388575363, -47897.9555246777, -44100.416493465484, -18234.50842315059, -46775.87560127683, -49203.47621482328, -41534.74915441861, 0.0289315185546875, 0.9987362060546875, 0.18117431640624998, 192.0, 0.0, 112.0, 15.5, 24.0, 2.5, 80.0, 0.0, 0.0, 0.0, 1.695420025186962E9, 0.0, 2023-09-22 17:00:25.186
234.0, 20779.790971254228, 33059.57115406646, -51058.91687380277, -51170.94381701277, -36604.44606595589, -20833.12223352459, -187500.02235174447, -26382.054553276845, -9433.240822939972, 18718.580152819177, -47900.39186482333, -44105.937374345944, -18239.023475530565, -46775.20504894317, -49208.86298523701, -41535.866741641374, 0.0289315185546875, 0.9987362060546875, 0.18117431640624998, 192.0, 0.0, 0.0, 0.0, 0.0, 0.0, 0.0, 0.0, 0.0, 0.0, 1.695420025186965E9, 0.0, 2023-09-22 17:00:25.186
236.0, 20810.54697162473, 33090.86359630389, -51052.88190279984, -51162.20428493074, -36601.69680138789, -20826.394358443544, -187500.02235174447, -26376.332506696286, -9428.234032181983, 18745.402246165544, -47900.50362354561, -44099.030685309255, -18229.79220507052, -46768.54422909549, -49197.57535428707, -41530.39056424982, 0.0289315185546875, 0.9987362060546875, 0.18117431640624998, 192.0, 0.0, 0.0, 0.0, 0.0, 0.0, 0.0, 0.0, 0.0, 0.0, 1.695420025186969E9, 0.0, 2023-09-22 17:00:25.186
