%OpenBCI Raw EXG Data
%Number of channels = 16
%Sample Rate = 125 Hz
%Board = OpenBCI_GUI$BoardCytonSerialDaisy
Sample Index, EXG Channel 0, EXG Channel 1, EXG Channel 2, EXG Channel 3, EXG Channel 4, EXG Channel 5, EXG Channel 6, EXG Channel 7, EXG Channel 8, EXG Channel 9, EXG Channel 10, EXG Channel 11, EXG Channel 12, EXG Channel 13, EXG Channel 14, EXG Channel 15, Accel Channel 0, Accel Channel 1, Accel Channel 2, Other, Other, Other, Other, Other, Other, Other, Analog Channel 0, Analog Channel 1, Analog Channel 2, Timestamp, Other, Timestamp (Formatted)
0.0, -17486.261425764733, -163259.6896004307, -18164.435704283205, -19937.89016460063, -21531.368378563926, -20378.107771647905, -187500.02235174447, -20525.673988541843, 0.0, 0.0, 0.0, 0.0, 0.0, 0.0, 0.0, 0.0, 0.0, 0.0, 0.0, 192.0, 0.0, 0.0, 0.0, 0.0, 0.0, 0.0, 0.0, 0.0, 0.0, 1.695758935121047E9, 0.0, 2023-09-26 15:08:55.121
180.0, -17438.562803097106, -163206.5818556049, -18169.82247469693, -19948.75311240591, -21540.286724601596, -20383.583949039454, -187500.02235174447, -20532.044235711604, -12870.067402132441, -16118.111147655387, 7144.980984327911, -57366.6909178127, -22936.64490421354, -29699.746334522526, 14665.828903416266, 7472.9481307206315, 0.0, 0.0, 0.0, 192.0, 0.0, 0.0, 0.0, 0.0, 0.0, 0.0, 0.0, 0.0, 0.0, 1.695758935121065E9, 0.0, 2023-09-26 15:08:55.121
182.0, -17527.94742917388, -163286.06465888795, -18155.539709989993, -19934.492699443424, -21535.101119887964, -20374.26327160159, -187500.02235174447, -20525.78574726412, -12882.204399371672, -16143.14510144533, 7076.405832339029, -57434.95314537921, -22939.885907159558, -29696.438276343142, 14605.188620709017, 7441.119246616274, 0.0, 0.0, 0.0, 192.0, 0.0, 0.0, 0.0, 0.0, 0.0, 0.0, 0.0, 0.0, 0.0, 1.695758935121075E9, 0.0, 2023-09-26 15:08:55.121
184.0, -17454.656059104927, -163210.64987309574, -18160.099465858875, -19938.046626811818, -21533.96118092074, -20378.018364670083, -187500.02235174447, -20528.758529276674, -12860.187931083196, -16124.9060779698, 7129.759446353847, -57389.6461593683, -22931.280485544263, -29696.505331576507, 14650.920289864576, 7469.058927185408, 0.0, 0.0, 0.0, 192.0, 0.0, 0.0, 0.0, 0.0, 0.0, 0.0, 0.0, 0.0, 0.0, 1.695758935121108E9, 0.0, 2023-09-26 15:08:55.121
186.0, -17539.65974326846, -163281.68371697472, -18159.83124492541, -19933.151594776107, -21542.45484381376, -20376.31963209148, -187500.02235174447, -20529.607895565976, -12876.527056280025, -16148.978906748165, 7088.900457489545, -57434.863738401385, -22938.12011934759, -29687.452875072107, 14610.575391122746, 7448.897653686721, 0.028, 0.482, -0.134, 192.0, 0.5, 96.0, 15.0, 16.0, 123.5, 80.0, 0.0, 0.0, 0.0, 1.695758935121118E9, 0.0, 2023-09-26 15:08:55.121
188.0, -17440.954439753823, -163184.34186987186, -18166.536768262, -19941.578202435758, -21538.900916445367, -20387.719021763685, -187500.02235174447, -20536.26871541366, -12861.707849706156, -16139.568822332481, 7129.491225420383, -57395.278798971034, -22934.521488490285, -29693.800770497415, 14651.970821853974, 7474.311587132405, 0.028, 0.482, -0.134, 192.0, 0.0, 0.0, 0.0, 0.0, 0.0, 0.0, 0.0, 0.0, 0.0, 1.695758935121129E9, 0.0, 2023-09-26 15:08:55.121
190.0, -17551.215595151854, -163285.41645829874, -18165.6874019727, -19930.625847652656, -21542.343085091485, -20365.926070919762, -187500.02235174447, -20527.886811242915, -12886.831210473922, -16160.780627820568, 7109.866393788624, -57410.23211601164, -22950.882965431567, -29698.40522985521, 14635.251717001405, 7456.899578201721, 0.028, 0.482, -0.134, 192.0, 0.0, 0.0, 0.0, 0.0, 0.0, 0.0, 0.0, 0.0, 0.0, 1.695758935121138E9, 0.0, 2023-09-26 15:08:55.121
192.0, -17473.342117469565, -163210.4263556512, -18157.283146057503, -19928.256562740393, -21525.333407560996, -20359.287602816537, -187500.02235174447, -20516.889752970907, -12846.955698365653, -16127.744749515625, 7114.604963613148, -57413.16019453528, -22929.604104710117, -29688.905738461704, 14642.493682204926, 7474.356290621316, 0.028, 0.482, -0.134, 192.0, 0.0, 0.0, 0.0, 0.0, 0.0, 0.0, 0.0, 0.0, 0.0, 1.695758935121147E9, 0.0, 2023-09-26 15:08:55.121
194.0, -17585.570226379663, -163307.67879577624, -18166.69323047319, -19933.37511222066, -21533.670608242825, -20353.163224835782, -187500.02235174447, -20515.72746225923, -12848.386210010793, -16122.00035119061, 7091.001521468344, -57441.41279952679, -22927.413633753495, -29681.35084883581, 14613.078786501741, 7457.972461935576, 0.028, 0.482, -0.134, 192.0, 0.0, 0.0, 0.0, 0.0, 0.0, 0.0, 0.0, 0.0, 0.0, 1.695758935121157E9, 0.0, 2023-09-26 15:08:55.121
0.0, -6646.604138207929, -81087.1891483294, -9078.429231456426, -9920.77707299913, -10771.260949523563, -10210.25451543981, -93750.01117587223, -10232.807425595216, -6415.978838918071, -8033.865157826563, 3557.727164951225, -28712.045098786963, -11465.03674567184, -14846.833330015343, 7317.581155011792, 3737.5469490941705, 0.054, 0.964, -0.276, 192.0, 0.5, 88.0, 15.0, 16.0, 123.5, 48.0, 0.0, 0.0, 0.0, 1.69575893525863E9, 0.0, 2023-09-26 15:08:55.258
2.0, -13407.895077216039, -162283.5442165785, -18144.810872651444, -19831.182936570996, -21536.285762344094, -20408.03675747356, -187500.02235174447, -20456.204766774747, -13162.003536463206, -15584.55265576275, 6997.817098834169, -60484.49104839457, -22979.694364034458, -29608.506513655964, 13412.723054018386, 7445.18726410714, 0.054, 0.964, -0.276, 192.0, 0.0, 0.0, 0.0, 0.0, 0.0, 0.0, 0.0, 0.0, 0.0, 1.695758935258655E9, 0.0, 2023-09-26 15:08:55.258
4.0, -13290.079032192116, -162170.2208721901, -18141.39105574978, -19839.07310236372, -21523.232343582196, -20419.167926212303, -187500.02235174447, -20457.545871442067, -13145.038562421629, -15581.110487116634, 6997.191249989421, -60487.28501645148, -22972.60886104213, -29613.15567650267, 13418.243934898846, 7459.492380558537, 0.054, 0.964, -0.276, 192.0, 0.0, 0.0, 0.0, 0.0, 0.0, 0.0, 0.0, 0.0, 0.0, 1.695758935258665E9, 0.0, 2023-09-26 15:08:55.258
6.0, -13389.544295018231, -162262.89120470182, -18153.013962866542, -19846.02449488932, -21537.783329222602, -20416.932751766773, -187500.02235174447, -20460.67511566581, -13156.907338727397, -15605.540943806285, 7022.761645646292, -60461.04406846096, -22987.316308893718, -29625.71735688655, 13432.750217050341, 7451.423400810171, 0.054, 0.964, -0.276, 192.0, 0.0, 0.0, 0.0, 0.0, 0.0, 0.0, 0.0, 0.0, 0.0, 1.695758935258674E9, 0.0, 2023-09-26 15:08:55.258
8.0, -13301.34431139759, -162181.70966884014, -18134.171442290717, -19832.233468560396, -21518.471422013215, -20416.70923432222, -187500.02235174447, -20448.940449826772, -13138.98123967424, -15591.526400032808, 6999.4264244349515, -60485.54158038397, -22972.094770919655, -29621.33641497331, 13415.94170521995, 7452.116304888285, 0.058, 0.9580000000000001, -0.276, 192.0, 0.5, 104.0, 14.5, 120.0, 123.5, 48.0, 0.0, 0.0, 0.0, 1.695758935258684E9, 0.0, 2023-09-26 15:08:55.258
10.0, -13398.328530589168, -162271.38486759484, -18150.197643065174, -19839.654247719558, -21543.147747891875, -20405.600417327933, -187500.02235174447, -20456.71885689722, -13136.634306506432, -15598.835420469693, 7034.652773696515, -60448.52709156598, -22969.25609937383, -29616.19551374859, 13437.779359552786, 7454.1056101448075, 0.058, 0.9580000000000001, -0.276, 192.0, 0.0, 0.0, 0.0, 0.0, 0.0, 0.0, 0.0, 0.0, 0.0, 1.695758935258728E9, 0.0, 2023-09-26 15:08:55.258
12.0, -13328.859308822073, -162209.47053545364, -18127.26475325403, -19824.25389578985, -21517.30913130154, -20409.37786214088, -187500.02235174447, -20444.55950791353, -13125.21256508977, -15591.079365143702, 6970.056232220678, -60516.07406330992, -22964.651640016036, -29605.891359554695, 13386.996196150327, 7439.9569559045985, 0.058, 0.9580000000000001, -0.276, 192.0, 0.0, 0.0, 0.0, 0.0, 0.0, 0.0, 0.0, 0.0, 0.0, 1.695758935258738E9, 0.0, 2023-09-26 15:08:55.258
14.0, -13381.341204803135, -162256.99034416562, -18154.958564634155, -19847.410303045548, -21549.853271228465, -20417.446841889247, -187500.02235174447, -20462.61971743342, -13141.395228075413, -15612.492336331885, 7041.648869711026, -60440.56987053989, -22973.480579075884, -29619.928255072628, 13447.010630012826, 7461.57109279288, 0.058, 0.9580000000000001, -0.276, 192.0, 0.0, 0.0, 0.0, 0.0, 0.0, 0.0, 0.0, 0.0, 0.0, 1.695758935258747E9, 0.0, 2023-09-26 15:08:55.258
16.0, -13323.047855263694, -162204.03906155098, -18131.422177722714, -19829.104224336654, -21511.251808554152, -20414.80933604352, -187500.02235174447, -20445.99001955867, -13139.897661196908, -15625.076368460223, 6980.628607348038, -60503.64649339277, -22970.016058685313, -29619.14594401669, 13402.17303063548, 7444.203787351106, 0.058, 0.9580000000000001, -0.276, 192.0, 0.0, 0.0, 0.0, 0.0, 0.0, 0.0, 0.0, 0.0, 0.0, 1.695758935318956E9, 0.0, 2023-09-26 15:08:55.318
18.0, -13381.162390847492, -162261.93007969024, -18151.203471565663, -19845.82332918922, -21528.39559655137, -20414.94344651025, -187500.02235174447, -20454.260165007134, -13143.518643798667, -15635.42522614303, 7053.249425083331, -60431.606821013316, -22969.770189496303, -29620.040013794904, 13459.61701388562, 7462.688680015645, 0.058, 0.9540000000000001, -0.272, 192.0, 0.5, 104.0, 14.5, 104.0, 123.5, 64.0, 0.0, 0.0, 0.0, 1.695758935318979E9, 0.0, 2023-09-26 15:08:55.318
20.0, -13342.627983406543, -162226.72608217312, -18124.53784043048, -19824.8797446346, -21504.814506151022, -20407.99205398465, -187500.02235174447, -20433.383635685877, -13142.021076920162, -15639.403836656074, 6966.301139152186, -60521.79610989048, -22957.812006212713, -29622.85633359627, 13388.516114773289, 7431.418589522671, 0.058, 0.9540000000000001, -0.272, 192.0, 0.0, 0.0, 0.0, 0.0, 0.0, 0.0, 0.0, 0.0, 0.0, 1.69575893531899E9, 0.0, 2023-09-26 15:08:55.318
22.0, -13384.448097282422, -162265.93104194774, -18126.035407308987, -19824.43270974549, -21518.78434643559, -20388.478981075168, -187500.02235174447, -20432.75778684113, -13119.870498164952, -15616.158022422556, 7049.650794226026, -60442.290954862954, -22949.944192164447, -29607.746554344485, 13454.789037083274, 7470.578845808369, 0.058, 0.9540000000000001, -0.272, 192.0, 0.0, 0.0, 0.0, 0.0, 0.0, 0.0, 0.0, 0.0, 0.0, 1.695758935318999E9, 0.0, 2023-09-26 15:08:55.318
24.0, -13348.73000964284, -162235.7338351886, -18110.59035189037, -19808.473564204403, -21504.680395684292, -20395.072745689482, -187500.02235174447, -20425.493469893154, -13120.026960376139, -15623.176470181523, 6965.876456007535, -60534.22367980763, -22948.379570052573, -29596.883606539206, 13384.626911238065, 7448.696487986624, 0.058, 0.9540000000000001, -0.272, 192.0, 0.0, 0.0, 0.0, 0.0, 0.0, 0.0, 0.0, 0.0, 0.0, 1.695758935319008E9, 0.0, 2023-09-26 15:08:55.319
26.0, -13350.898128855006, -162238.9524863902, -18135.803119635955, -19831.607619715647, -21531.45778554175, -20401.04066145905, -187500.02235174447, -20443.66543813532, -13123.6479429779, -15629.077330717724, 7077.3222538616965, -60420.65446623021, -22958.750779479837, -29605.51137989895, 13481.253502518357, 7486.29212216045, 0.058, 0.9540000000000001, -0.272, 192.0, 0.0, 0.0, 0.0, 0.0, 0.0, 0.0, 0.0, 0.0, 0.0, 1.695758935319018E9, 0.0, 2023-09-26 15:08:55.319
28.0, -13380.916521658484, -162267.42860882625, -18121.810927606934, -19822.488107977882, -21515.364529533927, -20416.820993044497, -187500.02235174447, -20440.066807278017, -13125.324323812047, -15647.85279606018, 6973.520752611251, -60527.04876983748, -22955.576831767183, -29607.56774038884, 13390.55012351872, 7441.007487893998, 0.056, 0.962, -0.274, 192.0, 0.5, 96.0, 15.0, 8.0, 123.5, 56.0, 0.0, 0.0, 0.0, 1.695758935319027E9, 0.0, 2023-09-26 15:08:55.319
30.0, -13336.838881592617, -162220.9816838481, -18133.322076001416, -19836.79322442928, -21536.084596643996, -20416.441013388758, -187500.02235174447, -20447.308772481534, -13122.664466221866, -15650.982040283925, 7074.148306149043, -60425.81771919939, -22958.169634124, -29623.81745860785, 13481.231150773901, 7478.536066834458, 0.056, 0.962, -0.274, 192.0, 0.0, 0.0, 0.0, 0.0, 0.0, 0.0, 0.0, 0.0, 0.0, 1.695758935378517E9, 0.0, 2023-09-26 15:08:55.378
32.0, -13380.536542002743, -162261.39363782332, -18112.91493331372, -19817.458965475438, -21512.101174843454, -20405.75687953912, -187500.02235174447, -20425.337007681966, -13125.234916834226, -15667.835255603226, 6994.978427288345, -60504.652321893256, -22952.179366609977, -29611.635757879707, 13414.17591740798, 7448.428267053159, 0.056, 0.962, -0.274, 192.0, 0.0, 0.0, 0.0, 0.0, 0.0, 0.0, 0.0, 0.0, 0.0, 1.695758935378547E9, 0.0, 2023-09-26 15:08:55.378
34.0, -13325.484195409323, -162205.3354627294, -18142.39688425027, -19841.285925064796, -21531.07780588601, -20415.524591866088, -187500.02235174447, -20438.926868310795, -13128.341809313513, -15671.143313782612, 7091.917942991012, -60408.182192824155, -22955.73329397837, -29620.28588298391, 13499.581932971709, 7486.582694838369, 0.056, 0.962, -0.274, 192.0, 0.0, 0.0, 0.0, 0.0, 0.0, 0.0, 0.0, 0.0, 0.0, 1.695758935378557E9, 0.0, 2023-09-26 15:08:55.378
36.0, -13414.108862174615, -162289.17685618126, -18100.86734305231, -19804.49495369136, -21503.071070083508, -20394.22337940018, -187500.02235174447, -20411.47892611968, -13115.333094040525, -15681.738040654427, 7008.992971061823, -60496.15865900024, -22949.318343319697, -29596.10129548327, 13423.071911701192, 7449.612909509291, 0.056, 0.962, -0.274, 192.0, 0.0, 0.0, 0.0, 0.0, 0.0, 0.0, 0.0, 0.0, 0.0, 1.695758935378566E9, 0.0, 2023-09-26 15:08:55.378
38.0, -13332.904974568484, -162209.1352592868, -18121.8779828403, -19824.164488812028, -21526.78627095059, -20408.304978407024, -187500.02235174447, -20426.409891415824, -13099.150431054883, -15669.735153881928, 7086.911152233023, -60424.40955929871, -22945.295029317742, -29609.80291483437, 13490.015386344838, 7485.733328549067, 0.056, 0.97, -0.278, 192.0, 0.5, 96.0, 15.0, 40.0, 123.5, 40.0, 0.0, 0.0, 0.0, 1.695758935378575E9, 0.0, 2023-09-26 15:08:55.378
40.0, -13411.404301095523, -162276.61517579737, -18114.59131414787, -19816.25197127485, -21524.215820338228, -20399.341928880447, -187500.02235174447, -20418.586780856465, -13122.776224944142, -15700.91583739708, 7040.799503421725, -60466.83317027488, -22950.994724153847, -29607.76890608894, 13449.290507947268, 7459.134752647252, 0.056, 0.97, -0.278, 192.0, 0.0, 0.0, 0.0, 0.0, 0.0, 0.0, 0.0, 0.0, 0.0, 1.695758935378585E9, 0.0, 2023-09-26 15:08:55.378
42.0, -13346.293669497212, -162212.75624188856, -18119.911029328232, -19822.06342483323, -21524.439337782784, -20406.718004550698, -187500.02235174447, -20422.475984391687, -13103.374910756937, -15690.29875878081, 7091.78383252428, -60418.441643529135, -22941.070549615688, -29605.645490365685, 13493.636368946598, 7480.14539243524, 0.056, 0.97, -0.278, 192.0, 0.0, 0.0, 0.0, 0.0, 0.0, 0.0, 0.0, 0.0, 0.0, 1.695758935378595E9, 0.0, 2023-09-26 15:08:55.378
44.0, -13447.122388735103, -162303.2584551881, -18115.39597694826, -19815.87199161911, -21514.805735922546, -20404.147553938335, -187500.02235174447, -20419.90553377933, -13113.097919594995, -15719.624247506172, 7031.098846328122, -60476.28795817947, -22947.0161136408, -29600.214016463044, 13438.315801419712, 7448.338860075339, 0.056, 0.97, -0.278, 192.0, 0.0, 0.0, 0.0, 0.0, 0.0, 0.0, 0.0, 0.0, 0.0, 1.695758935378604E9, 0.0, 2023-09-26 15:08:55.378
46.0, -13365.113838328582, -162225.07205308345, -18105.807078576934, -19810.529924694292, -21511.34121553197, -20401.24182715915, -187500.02235174447, -20416.083385477472, -13098.92691361033, -15712.561096258296, 7069.007404924322, -60437.55238503843, -22936.62255246908, -29603.566778131342, 13481.789944385284, 7476.300892388927, 0.056, 0.97, -0.278, 192.0, 0.0, 0.0, 0.0, 0.0, 0.0, 0.0, 0.0, 0.0, 0.0, 1.695758935438157E9, 0.0, 2023-09-26 15:08:55.438
48.0, -13468.401249456556, -162316.49068790564, -18103.326034942394, -19809.68055840499, -21531.54719251957, -20399.051356202526, -187500.02235174447, -20415.74810931064, -13089.673291405832, -15726.530936542862, 7039.05606735421, -60470.677670321194, -22934.34267453464, -29593.776714059917, 13448.23997595787, 7459.984118936553, 0.052000000000000005, 0.972, -0.278, 192.0, 0.5, 80.0, 15.0, 48.0, 123.5, 40.0, 0.0, 0.0, 0.0, 1.695758935438181E9, 0.0, 2023-09-26 15:08:55.438
50.0, -13363.258643538791, -162210.76693663205, -18106.142354743763, -19813.7262241514, -21515.319826045015, -20409.64608307434, -187500.02235174447, -20413.021196487094, -13091.372023984435, -15725.480404553462, 7065.6993467449365, -60445.509606064516, -22936.376683280076, -29601.465714152542, 13478.928921095005, 7480.838296513355, 0.052000000000000005, 0.972, -0.278, 192.0, 0.0, 0.0, 0.0, 0.0, 0.0, 0.0, 0.0, 0.0, 0.0, 1.695758935438192E9, 0.0, 2023-09-26 15:08:55.438
52.0, -13463.685031376486, -162296.1953039402, -18123.44260495217, -19823.382177756095, -21530.07197738552, -20407.075632461983, -187500.02235174447, -20428.08627224997, -13104.336035768514, -15748.793274020349, 7078.976282951389, -60429.8633849458, -22940.467052515396, -29602.449190908577, 13487.467287476933, 7470.936473719654, 0.052000000000000005, 0.972, -0.278, 192.0, 0.0, 0.0, 0.0, 0.0, 0.0, 0.0, 0.0, 0.0, 0.0, 1.695758935438237E9, 0.0, 2023-09-26 15:08:55.438
54.0, -13384.068117626683, -162212.62213142184, -18105.762375088023, -19812.563933439724, -21506.982625363187, -20405.421603372288, -187500.02235174447, -20421.604266357932, -13093.45073621878, -15745.798140263338, 7071.0190619253, -60437.64179201625, -22940.198831581933, -29609.154714245167, 13490.23890378939, 7473.5963313098355, 0.052000000000000005, 0.972, -0.278, 192.0, 0.0, 0.0, 0.0, 0.0, 0.0, 0.0, 0.0, 0.0, 0.0, 1.695758935438247E9, 0.0, 2023-09-26 15:08:55.438
56.0, -13483.175752541514, -162293.2001701832, -18120.53687817298, -19818.01775908682, -21530.139032618885, -20405.399251627834, -187500.02235174447, -20428.600362372443, -13100.78210840012, -15751.520186843896, 7099.003445983344, -60411.15497483671, -22931.995741366834, -29601.80099031937, 13504.72283419643, 7475.026842954975, 0.052000000000000005, 0.972, -0.278, 192.0, 0.0, 0.0, 0.0, 0.0, 0.0, 0.0, 0.0, 0.0, 0.0, 1.695758935438274E9, 0.0, 2023-09-26 15:08:55.438
58.0, -13433.979562995382, -162237.67843695622, -18101.96257853062, -19803.73499437988, -21507.273198041108, -20405.33219639447, -187500.02235174447, -20417.17862095578, -13083.459506447258, -15742.378323361674, 7061.407811809518, -60450.9187282227, -22925.938418619447, -29593.79906580437, 13473.072764047714, 7472.0093574535085, 0.056, 0.97, -0.28400000000000003, 192.0, 0.5, 96.0, 15.0, 40.0, 123.5, 16.0, 0.0, 0.0, 0.0, 1.695758935438284E9, 0.0, 2023-09-26 15:08:55.438
60.0, -13516.85983143566, -162303.03493774353, -18116.692378126667, -19812.74274739537, -21536.330465833005, -20396.32444337898, -187500.02235174447, -20417.692711078253, -13085.5382186816, -15743.562965817806, 7098.645818072059, -60413.546611493424, -22918.048252826724, -29593.732010571006, 13492.541133468287, 7476.14443017774, 0.056, 0.97, -0.28400000000000003, 192.0, 0.0, 0.0, 0.0, 0.0, 0.0, 0.0, 0.0, 0.0, 0.0, 1.695758935498394E9, 0.0, 2023-09-26 15:08:55.498
62.0, -13442.316763677212, -162225.9437711172, -18115.887715326277, -19818.151869553552, -21520.997169136666, -20411.680091819777, -187500.02235174447, -20419.190277956757, -13094.344805996992, -15745.2169949075, 7055.506951273317, -60460.08294344938, -22925.334921519152, -29597.0847722393, 13462.925072065005, 7467.941339962643, 0.056, 0.97, -0.28400000000000003, 192.0, 0.0, 0.0, 0.0, 0.0, 0.0, 0.0, 0.0, 0.0, 0.0, 1.695758935498426E9, 0.0, 2023-09-26 15:08:55.498
64.0, -13524.213555361457, -162295.23417892866, -18125.63307590879, -19822.21988704442, -21536.911611188843, -20395.09509743394, -187500.02235174447, -20423.772385570097, -13091.908465851364, -15750.760227532415, 7136.822597601724, -60373.916968574165, -22928.35240702062, -29602.22567346402, 13530.829671720228, 7484.48163085957, 0.056, 0.97, -0.28400000000000003, 192.0, 0.0, 0.0, 0.0, 0.0, 0.0, 0.0, 0.0, 0.0, 0.0, 1.695758935498436E9, 0.0, 2023-09-26 15:08:55.498
66.0, -13506.510973752855, -162269.99905943862, -18105.024767520998, -19802.125668779096, -21515.319826045015, -20384.813294984495, -187500.02235174447, -20404.75105103863, -13069.243796973682, -15732.521204056884, 7047.281509313764, -60468.084867964375, -22900.122153773566, -29584.657202322152, 13455.437237672477, 7460.878188714766, 0.056, 0.97, -0.28400000000000003, 192.0, 0.0, 0.0, 0.0, 0.0, 0.0, 0.0, 0.0, 0.0, 0.0, 1.695758935498446E9, 0.0, 2023-09-26 15:08:55.498
68.0, -13553.181416175536, -162306.2088854562, -18122.16855551822, -19813.055671817743, -21539.37030307893, -20376.654908258308, -187500.02235174447, -20406.874466761885, -13062.270052703627, -15707.06256712229, 7118.382408426096, -60401.23080029855, -22900.72565087386, -29585.350106400267, 13505.035758618804, 7485.062776215408, 0.052000000000000005, 0.97, -0.28200000000000003, 192.0, 0.5, 80.0, 15.0, 40.0, 123.5, 24.0, 0.0, 0.0, 0.0, 1.695758935498455E9, 0.0, 2023-09-26 15:08:55.498
70.0, -13534.182433388523, -162279.99028921014, -18118.77109036101, -19809.01000607133, -21520.326616803006, -20386.40026884082, -187500.02235174447, -20400.817144014498, -13061.10776199195, -15685.023747089357, 7040.263061554798, -60481.13828672627, -22896.434115938442, -29581.52795809841, 13440.819196798706, 7463.135714904752, 0.052000000000000005, 0.97, -0.28200000000000003, 192.0, 0.0, 0.0, 0.0, 0.0, 0.0, 0.0, 0.0, 0.0, 0.0, 1.695758935498465E9, 0.0, 2023-09-26 15:08:55.498
72.0, -13515.384616301611, -162250.4412830402, -18147.15780581925, -19832.144061582574, -21545.204108381764, -20382.064030416495, -187500.02235174447, -20412.417699386802, -13078.184494755806, -15657.173473498044, 7157.207388544964, -60359.097762000296, -22910.023976567267, -29605.0866967543, 13539.591555546709, 7499.904334533732, 0.052000000000000005, 0.97, -0.28200000000000003, 192.0, 0.0, 0.0, 0.0, 0.0, 0.0, 0.0, 0.0, 0.0, 0.0, 1.695758935498474E9, 0.0, 2023-09-26 15:08:55.498
74.0, -13533.042494421303, -162261.3042308455, -18125.096634041864, -19812.072195061708, -21531.994227408675, -20371.156379122305, -187500.02235174447, -20394.80452475602, -13066.807456828054, -15620.941295735991, 7079.512724818316, -60436.412446071205, -22902.759659619293, -29591.56389135884, 13475.687918148986, 7467.471953329081, 0.052000000000000005, 0.97, -0.28200000000000003, 192.0, 0.0, 0.0, 0.0, 0.0, 0.0, 0.0, 0.0, 0.0, 0.0, 1.695758935498528E9, 0.0, 2023-09-26 15:08:55.498
76.0, -13518.71502622545, -162240.1371288463, -18144.49794822907, -19821.996369599863, -21546.567564793535, -20369.144722121328, -187500.02235174447, -20397.240864901647, -13053.105837476951, -15566.067763098214, 7167.869170650145, -60344.7926455489, -22886.979328033845, -29592.323850670324, 13549.381619618132, 7500.15020372274, 0.052000000000000005, 0.97, -0.28200000000000003, 192.0, 0.0, 0.0, 0.0, 0.0, 0.0, 0.0, 0.0, 0.0, 0.0, 1.695758935558663E9, 0.0, 2023-09-26 15:08:55.558
78.0, -13542.005543947882, -162260.27605060054, -18134.573773690914, -19809.948779338454, -21528.328541318006, -20368.675335487766, -187500.02235174447, -20389.216588642194, -13062.53827363709, -15539.089207540657, 7082.574913808694, -60426.95765816661, -22901.351499718607, -29589.373420402222, 13478.258368761346, 7465.817924239389, 0.052000000000000005, 0.962, -0.28400000000000003, 192.0, 0.5, 80.0, 15.0, 8.0, 123.5, 16.0, 0.0, 0.0, 0.0, 1.695758935558699E9, 0.0, 2023-09-26 15:08:55.558
80.0, -13525.174680373035, -162244.67453297073, -18139.178233048708, -19810.73109039439, -21535.436396054793, -20361.835701684442, -187500.02235174447, -20394.26808288909, -13048.25550893015, -15486.316738881676, 7157.6767751785255, -60351.051133996385, -22889.750944346302, -29585.037181977892, 13541.379695103133, 7492.304741418928, 0.052000000000000005, 0.962, -0.28400000000000003, 192.0, 0.0, 0.0, 0.0, 0.0, 0.0, 0.0, 0.0, 0.0, 0.0, 1.695758935558732E9, 0.0, 2023-09-26 15:08:55.558
82.0, -13556.131846443635, -162272.9494897067, -18133.50088995706, -19802.416241457016, -21531.32367507502, -20368.183597109746, -187500.02235174447, -20392.770516010587, -13052.234119443194, -15472.033974174736, 7078.126916662088, -60429.706922734615, -22896.992909549823, -29585.886548267194, 13473.586854170188, 7461.0346509259525, 0.052000000000000005, 0.962, -0.28400000000000003, 192.0, 0.0, 0.0, 0.0, 0.0, 0.0, 0.0, 0.0, 0.0, 0.0, 1.695758935558754E9, 0.0, 2023-09-26 15:08:55.558
84.0, -13493.591665457687, -162215.12552680084, -18139.15588130425, -19810.86520086112, -21535.861079199443, -20362.59566099592, -187500.02235174447, -20400.727737036676, -13042.846386771964, -15431.823185899639, 7169.187923573008, -60337.282459411916, -22894.19894149291, -29592.636775092695, 13556.936509244028, 7500.574886867391, 0.052000000000000005, 0.962, -0.28400000000000003, 192.0, 0.0, 0.0, 0.0, 0.0, 0.0, 0.0, 0.0, 0.0, 0.0, 1.695758935558768E9, 0.0, 2023-09-26 15:08:55.558
86.0, -13558.322317400256, -162276.7492862641, -18140.698151671666, -19815.268494518816, -21535.346989076974, -20375.447914057724, -187500.02235174447, -20401.755917281618, -13049.127226963905, -15422.435453228409, 7087.112317933121, -60416.42998652816, -22890.95793854689, -29588.926385513114, 13482.974586841416, 7462.711031760101, 0.052000000000000005, 0.962, -0.28400000000000003, 192.0, 0.0, 0.0, 0.0, 0.0, 0.0, 0.0, 0.0, 0.0, 0.0, 1.695758935558781E9, 0.0, 2023-09-26 15:08:55.558
88.0, -13479.308900750746, -162201.60272140536, -18142.374532505815, -19821.862259133133, -21532.821241953523, -20378.443047814733, -187500.02235174447, -20403.387594626856, -13052.882320032397, -15410.790194367195, 7152.044135575788, -60346.42432289414, -22887.202845478398, -29604.57260663183, 13548.219328906456, 7484.951017493131, 0.054, 0.97, -0.28400000000000003, 192.0, 0.5, 88.0, 15.0, 40.0, 123.5, 16.0, 0.0, 0.0, 0.0, 1.695758935558794E9, 0.0, 2023-09-26 15:08:55.558
90.0, -13549.96276497397, -162269.66378327177, -18142.285125527993, -19821.906962622044, -21538.69975074527, -20380.07472515997, -187500.02235174447, -20405.019271972094, -13054.871625288919, -15415.99815082528, 7102.892649518568, -60393.631207183746, -22896.0541362827, -29595.564853616343, 13503.649950462575, 7463.783915493956, 0.054, 0.97, -0.28400000000000003, 192.0, 0.0, 0.0, 0.0, 0.0, 0.0, 0.0, 0.0, 0.0, 0.0, 1.695758935618965E9, 0.0, 2023-09-26 15:08:55.618
92.0, -13468.490656434376, -162195.61245389134, -18146.21903255213, -19823.40452950055, -21539.50441354566, -20380.253539115613, -187500.02235174447, -20399.721908536187, -13044.321601906015, -15397.759127349751, 7152.89350186509, -60340.72462805804, -22890.53325540224, -29604.48319965401, 13554.92485224305, 7488.43788962816, 0.054, 0.97, -0.28400000000000003, 192.0, 0.0, 0.0, 0.0, 0.0, 0.0, 0.0, 0.0, 0.0, 0.0, 1.695758935619005E9, 0.0, 2023-09-26 15:08:55.619
94.0, -13581.970463033971, -162302.87847553237, -18134.082035312895, -19808.227695015394, -21530.161384363342, -20370.17290236627, -187500.02235174447, -20389.75303050912, -13050.691849075778, -15395.613359882042, 7095.561277337227, -60398.749756664016, -22887.47106641186, -29591.698001825574, 13495.871543392128, 7456.586653779346, 0.054, 0.97, -0.28400000000000003, 192.0, 0.0, 0.0, 0.0, 0.0, 0.0, 0.0, 0.0, 0.0, 0.0, 1.695758935619016E9, 0.0, 2023-09-26 15:08:55.619
96.0, -13461.516912164321, -162188.6387096213, -18135.87017486932, -19813.77092764031, -21531.614247752936, -20383.427486828266, -187500.02235174447, -20393.642234044342, -13037.683133802788, -15368.61245258003, 7121.086969505188, -60370.43009643914, -22884.118304743566, -29599.94579552958, 13525.889936195605, 7478.871343001288, 0.054, 0.97, -0.28400000000000003, 192.0, 0.0, 0.0, 0.0, 0.0, 0.0, 0.0, 0.0, 0.0, 0.0, 1.695758935619097E9, 0.0, 2023-09-26 15:08:55.619
98.0, -13546.744113772407, -162270.17787339425, -18141.39105574978, -19816.989578841876, -21548.467463072237, -20381.237015871648, -187500.02235174447, -20398.023175957584, -13047.696715318765, -15373.351022404555, 7122.137501494587, -60360.774142834445, -22881.793723320214, -29596.816551305837, 13526.024046662336, 7470.735308019556, 0.058, 0.97, -0.28400000000000003, 192.0, 0.5, 104.0, 15.0, 40.0, 123.5, 16.0, 0.0, 0.0, 0.0, 1.69575893561911E9, 0.0, 2023-09-26 15:08:55.619
100.0, -13470.770534368818, -162202.65325339476, -18138.82060513742, -19812.072195061708, -21532.754186720158, -20380.78998098254, -187500.02235174447, -20395.40802185631, -13033.749226778655, -15359.828217009095, 7116.638972358582, -60363.501055657995, -22876.071676739655, -29596.503626883463, 13527.834537963217, 7477.440831356148, 0.058, 0.97, -0.28400000000000003, 192.0, 0.0, 0.0, 0.0, 0.0, 0.0, 0.0, 0.0, 0.0, 0.0, 1.69575893561912E9, 0.0, 2023-09-26 15:08:55.619
102.0, -13575.913140286582, -162303.99606275512, -18145.59318370738, -19811.267532261318, -21541.292553102085, -20371.692820989232, -187500.02235174447, -20395.788001512054, -13046.48972111818, -15363.918586244416, 7101.909172762535, -60376.71093663108, -22877.14456047351, -29592.703830326063, 13505.840421419194, 7459.939415447643, 0.058, 0.97, -0.28400000000000003, 192.0, 0.0, 0.0, 0.0, 0.0, 0.0, 0.0, 0.0, 0.0, 0.0, 1.695758935619129E9, 0.0, 2023-09-26 15:08:55.619
104.0, -13499.760746927352, -162236.22557356663, -18128.561154432435, -19795.06251753122, -21516.951503390253, -20368.585928509943, -187500.02235174447, -20379.806504226508, -13030.798796510553, -15341.544490044653, 7064.7605734778135, -60417.77109119548, -22874.082371483135, -29589.440475635587, 13476.067897804725, 7458.9782904360645, 0.058, 0.97, -0.28400000000000003, 192.0, 0.0, 0.0, 0.0, 0.0, 0.0, 0.0, 0.0, 0.0, 0.0, 1.695758935619139E9, 0.0, 2023-09-26 15:08:55.619
106.0, -13543.950145715493, -162279.61030955438, -18147.180157563707, -19816.184916041486, -21550.59087879549, -20379.98531818215, -187500.02235174447, -20392.4128880993, -13033.413950611824, -15342.773835989696, 7115.07435024671, -60363.299889957896, -22885.01237452178, -29596.05659199436, 13516.099872124181, 7476.524409833481, 0.058, 0.97, -0.28400000000000003, 192.0, 0.0, 0.0, 0.0, 0.0, 0.0, 0.0, 0.0, 0.0, 0.0, 1.695758935678405E9, 0.0, 2023-09-26 15:08:55.678
108.0, -13459.751124352351, -162205.44722145167, -18139.73702666009, -19814.7767561408, -21533.40238730936, -20384.209797884203, -187500.02235174447, -20385.081515917962, -13032.318715133515, -15344.539623801664, 7079.512724818316, -60392.55832344989, -22879.156217474487, -29598.537635628898, 13499.693691693985, 7472.769316764989, 0.066, 0.976, -0.28800000000000003, 192.0, 1.0, 8.0, 15.0, 64.0, 123.5, 0.0, 0.0, 0.0, 0.0, 1.695758935678434E9, 0.0, 2023-09-26 15:08:55.678
110.0, -13520.14553787059, -162267.83094022644, -18157.193739079685, -19827.181974313495, -21556.000000953674, -20383.069858916984, -187500.02235174447, -20391.004728198615, -13044.411008883835, -15350.775760504695, 7137.4260947020175, -60328.900555241176, -22884.028897765744, -29605.109048498758, 13544.575994560242, 7482.157049436218, 0.066, 0.976, -0.28800000000000003, 192.0, 0.0, 0.0, 0.0, 0.0, 0.0, 0.0, 0.0, 0.0, 0.0, 1.695758935678444E9, 0.0, 2023-09-26 15:08:55.678
112.0, -13455.28077546129, -162211.25867501006, -18129.187003277184, -19810.194648527464, -21524.439337782784, -20388.926015964273, -187500.02235174447, -20377.057239658505, -13025.032046441085, -15339.152853387935, 7070.1026404026325, -60398.168611308174, -22875.62464185055, -29597.978842017514, 13495.089232336191, 7461.593444537336, 0.066, 0.976, -0.28800000000000003, 192.0, 0.0, 0.0, 0.0, 0.0, 0.0, 0.0, 0.0, 0.0, 0.0, 1.695758935678454E9, 0.0, 2023-09-26 15:08:55.678
114.0, -13498.643159704587, -162253.2576028416, -18146.800177907968, -19823.8292126452, -21548.065131672043, -20384.098039161927, -187500.02235174447, -20387.98724269715, -13033.950392478751, -15339.443426065855, 7158.570844956737, -60308.22519162002, -22883.96184253238, -29605.57843513232, 13569.92287277256, 7486.180363438173, 0.066, 0.976, -0.28800000000000003, 192.0, 0.0, 0.0, 0.0, 0.0, 0.0, 0.0, 0.0, 0.0, 0.0, 1.695758935678463E9, 0.0, 2023-09-26 15:08:55.678
116.0, -13459.773476096807, -162216.39957623478, -18130.706921900146, -19813.949741595956, -21527.680340728803, -20397.37497536838, -187500.02235174447, -20388.45662933071, -13028.63067729839, -15336.045960908648, 7073.187181137465, -60397.87803863025, -22875.15525521699, -29602.784467075406, 13501.347720783679, 7457.123095646274, 0.066, 0.976, -0.28800000000000003, 192.0, 0.0, 0.0, 0.0, 0.0, 0.0, 0.0, 0.0, 0.0, 0.0, 1.695758935678523E9, 0.0, 2023-09-26 15:08:55.678
118.0, -13481.164095540536, -162236.82907066692, -18137.658314425746, -19814.262666018327, -21534.40821580985, -20382.980451939162, -187500.02235174447, -20391.56352181, -13024.585011551979, -15329.60865850552, 7163.287063036807, -60305.65474100766, -22883.872435554556, -29602.538597886396, 13576.606044364697, 7485.286293659961, 0.066, 0.98, -0.29, 192.0, 1.0, 8.0, 15.0, 80.0, 123.0, 120.0, 0.0, 0.0, 0.0, 1.695758935678533E9, 0.0, 2023-09-26 15:08:55.678
120.0, -13466.52370292231, -162228.290704285, -18117.653503138245, -19799.286997233274, -21514.850439411457, -20375.403210568813, -187500.02235174447, -20382.019326927584, -13022.998037695652, -15323.84190843605, 7077.277550372786, -60392.49126821653, -22867.510958613275, -29585.148940700168, 13503.940523140494, 7460.47585731457, 0.066, 0.98, -0.29, 192.0, 0.0, 0.0, 0.0, 0.0, 0.0, 0.0, 0.0, 0.0, 0.0, 1.695758935738075E9, 0.0, 2023-09-26 15:08:55.738
122.0, -13485.589740942687, -162248.18375685022, -18123.17438401871, -19803.936160079975, -21526.942733161777, -20365.41198079729, -187500.02235174447, -20380.141780393336, -13017.00777018163, -15310.676730951875, 7155.173379799531, -60316.00359869047, -22865.834577779126, -29585.75243780046, 13563.485570369432, 7491.09774721834, 0.066, 0.98, -0.29, 192.0, 0.0, 0.0, 0.0, 0.0, 0.0, 0.0, 0.0, 0.0, 0.0, 1.6957589357381E9, 0.0, 2023-09-26 15:08:55.738
124.0, -13499.38076727161, -162258.68907674422, -18115.932418815188, -19796.895360576556, -21511.385919020882, -20373.88329194585, -187500.02235174447, -20373.302146590013, -13019.779386494087, -15317.963399644304, 7047.996765136334, -60424.946001165634, -22866.95216500189, -29577.482292351997, 13472.849246603162, 7457.704241002112, 0.066, 0.98, -0.29, 192.0, 0.0, 0.0, 0.0, 0.0, 0.0, 0.0, 0.0, 0.0, 0.0, 1.695758935738111E9, 0.0, 2023-09-26 15:08:55.738
126.0, -13456.018383028315, -162217.45010822418, -18143.983858106596, -19822.935142866987, -21538.856212956456, -20387.964890952695, -187500.02235174447, -20396.302091634523, -13035.827939012997, -15330.256859094723, 7154.435772232506, -60312.539078299895, -22884.967671032868, -29601.80099031937, 13566.950090760005, 7498.496174633047, 0.066, 0.98, -0.29, 192.0, 0.0, 0.0, 0.0, 0.0, 0.0, 0.0, 0.0, 0.0, 0.0, 1.69575893573812E9, 0.0, 2023-09-26 15:08:55.738
128.0, -13495.71508118094, -162253.86109994186, -18126.616552664826, -19811.893381106067, -21521.31009355904, -20386.959062452206, -187500.02235174447, -20387.003765941117, -13044.075732717007, -15351.245147138257, 7061.072535642688, -60407.01990211248, -22890.19797923541, -29592.39090590369, 13485.500333964865, 7452.630395010758, 0.064, 0.976, -0.28600000000000003, 192.0, 1.0, 0.0, 15.0, 64.0, 123.5, 8.0, 0.0, 0.0, 0.0, 1.69575893573813E9, 0.0, 2023-09-26 15:08:55.738
130.0, -13436.438254885466, -162198.92051207073, -18143.02273309502, -19828.97011386992, -21529.915515174333, -20387.249635130123, -187500.02235174447, -20398.045527702037, -13039.024238470107, -15344.785492990673, 7169.009109617366, -60300.156211871654, -22890.265034468775, -29605.801952576872, 13584.16093399059, 7494.405805397726, 0.064, 0.976, -0.28600000000000003, 192.0, 0.0, 0.0, 0.0, 0.0, 0.0, 0.0, 0.0, 0.0, 0.0, 1.69575893573814E9, 0.0, 2023-09-26 15:08:55.738
132.0, -13510.10960461016, -162268.14386464882, -18123.01792180752, -19813.234485773384, -21520.88541041439, -20382.5110653056, -187500.02235174447, -20383.852169972917, -13041.326468149004, -15354.396743106456, 7063.374765321585, -60408.584524224345, -22881.1008192421, -29589.619289591228, 13490.4847729784, 7448.09299088633, 0.064, 0.976, -0.28600000000000003, 192.0, 0.0, 0.0, 0.0, 0.0, 0.0, 0.0, 0.0, 0.0, 0.0, 1.695758935738149E9, 0.0, 2023-09-26 15:08:55.738
134.0, -13439.18751945347, -162201.15568651626, -18125.856593353343, -19820.945837610467, -21525.668683727825, -20380.499408304622, -187500.02235174447, -20388.993071197638, -13024.741473763166, -15338.191728376358, 7146.255033761863, -60328.475872096526, -22879.402086663496, -29600.169312974136, 13570.3028524283, 7488.840221028355, 0.064, 0.976, -0.28600000000000003, 192.0, 0.0, 0.0, 0.0, 0.0, 0.0, 0.0, 0.0, 0.0, 0.0, 1.695758935738159E9, 0.0, 2023-09-26 15:08:55.738
136.0, -13530.941430442504, -162290.3614986374, -18112.803174591445, -19806.30544499224, -21509.709538186737, -20372.095152389425, -187500.02235174447, -20377.951309436718, -13035.760883779632, -15346.886556969472, 7064.961739177912, -60413.68072196016, -22877.77040931826, -29582.08675170979, 13498.91138063805, 7449.635261253747, 0.064, 0.976, -0.28600000000000003, 192.0, 0.0, 0.0, 0.0, 0.0, 0.0, 0.0, 0.0, 0.0, 0.0, 1.695758935798967E9, 0.0, 2023-09-26 15:08:55.798
138.0, -13413.952399963428, -162178.66983159422, -18125.20839276414, -19822.130480066597, -21524.05935812704, -20384.902701962317, -187500.02235174447, -20390.08830667595, -13022.036912684074, -15332.424978306888, 7135.190920256487, -60346.78195080542, -22870.57314760365, -29593.62025184873, 13562.993831991414, 7485.599218082335, 0.062, 0.968, -0.28400000000000003, 192.0, 0.5, 120.0, 15.0, 32.0, 123.5, 16.0, 0.0, 0.0, 0.0, 1.695758935799072E9, 0.0, 2023-09-26 15:08:55.799
140.0, -13527.476910051932, -162286.82992301346, -18127.935305587685, -19819.560029454235, -21524.12641336041, -20374.196216368226, -187500.02235174447, -20387.674318274774, -13036.409084368835, -15353.770894261706, 7098.779928538791, -60380.51073318848, -22884.833560566138, -29596.23540595, 13526.895764696093, 7456.832522968355, 0.062, 0.968, -0.28400000000000003, 192.0, 0.0, 0.0, 0.0, 0.0, 0.0, 0.0, 0.0, 0.0, 0.0, 1.695758935799084E9, 0.0, 2023-09-26 15:08:55.799
142.0, -13428.391626881556, -162196.14889575826, -18115.038349036975, -19811.35693923914, -21509.866000397924, -20380.007669926606, -187500.02235174447, -20382.823989727975, -13015.174927136295, -15327.574649760087, 7105.4407483864725, -60377.560302920385, -22873.657688338484, -29585.975955245016, 13534.361247344166, 7472.836371998355, 0.062, 0.968, -0.28400000000000003, 192.0, 0.0, 0.0, 0.0, 0.0, 0.0, 0.0, 0.0, 0.0, 0.0, 1.695758935799094E9, 0.0, 2023-09-26 15:08:55.799
144.0, -13494.753956169363, -162255.29161158702, -18127.86825035432, -19822.175183555508, -21530.384901807894, -20388.83660898645, -187500.02235174447, -20393.709289277707, -13037.034933213585, -15348.98762094827, 7107.474757131906, -60371.43592493963, -22882.017240764766, -29598.202359462066, 13537.579898545731, 7466.622587039779, 0.062, 0.968, -0.28400000000000003, 192.0, 0.0, 0.0, 0.0, 0.0, 0.0, 0.0, 0.0, 0.0, 0.0, 1.695758935799103E9, 0.0, 2023-09-26 15:08:55.799
146.0, -13402.88828645805, -162168.00804948903, -18117.295875226962, -19819.045939331765, -21521.01952088112, -20389.216588642194, -187500.02235174447, -20391.496466576635, -13029.167119165317, -15340.091626655058, 7125.244393973875, -60351.31935492985, -22884.073601254655, -29602.829170564317, 13564.424343636554, 7478.7148807901, 0.062, 0.968, -0.28400000000000003, 192.0, 0.0, 0.0, 0.0, 0.0, 0.0, 0.0, 0.0, 0.0, 0.0, 1.695758935799113E9, 0.0, 2023-09-26 15:08:55.799
148.0, -13505.840421419194, -162262.42181806825, -18120.49217468407, -19814.419128229514, -21532.12833787541, -20373.525664034565, -187500.02235174447, -20388.568388052987, -13035.559718079534, -15350.596946549053, 7130.31823996523, -60340.32229665784, -22884.610043121582, -29597.889435039695, 13566.033669237337, 7472.165819664696, 0.06, 0.962, -0.276, 192.0, 0.5, 112.0, 15.0, 8.0, 123.5, 48.0, 0.0, 0.0, 0.0, 1.695758935799122E9, 0.0, 2023-09-26 15:08:55.799
150.0, -13428.771606537297, -162189.2869102105, -18107.081128010886, -19799.219941999905, -21507.183791063286, -20371.625765755864, -187500.02235174447, -20375.470265802178, -13011.710406745722, -15332.626144006987, 7092.744957535859, -60379.728422132546, -22869.723781314347, -29585.01483023344, 13539.368038102155, 7470.66825278619, 0.06, 0.962, -0.276, 192.0, 0.0, 0.0, 0.0, 0.0, 0.0, 0.0, 0.0, 0.0, 0.0, 1.695758935858834E9, 0.0, 2023-09-26 15:08:55.858
152.0, -13525.174680373035, -162278.53742582054, -18118.502869427546, -19804.405546713537, -21511.184753320784, -20368.27300408757, -187500.02235174447, -20377.19135012524, -13023.199203395749, -15333.095530640547, 7106.178355953498, -60364.5962911363, -22876.898691284503, -29575.113007439737, 13545.023029449349, 7473.19399990964, 0.06, 0.962, -0.276, 192.0, 0.0, 0.0, 0.0, 0.0, 0.0, 0.0, 0.0, 0.0, 0.0, 1.695758935858879E9, 0.0, 2023-09-26 15:08:55.858
154.0, -13413.728882518875, -162169.6844303232, -18113.093747269362, -19810.217000271918, -21516.616227223425, -20395.69859453423, -187500.02235174447, -20385.37208859588, -13025.81435749702, -15335.151891130436, 7081.122050419099, -60390.47961121555, -22879.513845385773, -29589.216958191035, 13531.544927542798, 7475.853857499821, 0.06, 0.962, -0.276, 192.0, 0.0, 0.0, 0.0, 0.0, 0.0, 0.0, 0.0, 0.0, 0.0, 1.695758935858889E9, 0.0, 2023-09-26 15:08:55.858
156.0, -13509.953142398972, -162255.11279763136, -18119.575753161404, -19813.145078795562, -21530.92134367482, -20372.22926285616, -187500.02235174447, -20383.963928695193, -13040.208880926239, -15345.187824390869, 7138.476626691417, -60329.235831408005, -22887.33695594513, -29593.396734404178, 13573.297986185311, 7480.078337201874, 0.06, 0.962, -0.276, 192.0, 0.0, 0.0, 0.0, 0.0, 0.0, 0.0, 0.0, 0.0, 0.0, 1.695758935858899E9, 0.0, 2023-09-26 15:08:55.858
158.0, -13440.506272376333, -162185.4871136531, -18097.983968017576, -19801.29865423425, -21504.322767773006, -20378.197178625727, -187500.02235174447, -20370.955213422207, -13015.979589936685, -15331.285039339667, 7067.979224679378, -60406.43875675664, -22868.360324902576, -29580.566833086832, 13514.669360479042, 7464.700337016623, 0.054, 0.964, -0.274, 192.0, 0.5, 88.0, 15.0, 16.0, 123.5, 56.0, 0.0, 0.0, 0.0, 1.695758935858908E9, 0.0, 2023-09-26 15:08:55.858
160.0, -13498.799621915774, -162237.2984573005, -18121.274485740007, -19817.816593386724, -21532.798890209066, -20381.169960638283, -187500.02235174447, -20386.80260024102, -13028.988305209674, -15346.66303952492, 7142.410533715551, -60329.99579071949, -22878.955051774392, -29592.301498925866, 13573.521503629865, 7484.079299459375, 0.054, 0.964, -0.274, 192.0, 0.0, 0.0, 0.0, 0.0, 0.0, 0.0, 0.0, 0.0, 0.0, 1.695758935858958E9, 0.0, 2023-09-26 15:08:55.858
162.0, -13440.70743807643, -162182.89431129626, -18108.8245640784, -19806.21603801442, -21515.945674889765, -20386.04264092954, -187500.02235174447, -20378.711268748197, -13035.939697735275, -15356.587214063074, 7077.121088161599, -60395.28523627344, -22885.213540221877, -29594.782542560406, 13526.135805384614, 7468.0754504293745, 0.054, 0.964, -0.274, 192.0, 0.0, 0.0, 0.0, 0.0, 0.0, 0.0, 0.0, 0.0, 0.0, 1.695758935858972E9, 0.0, 2023-09-26 15:08:55.858
164.0, -13494.798659658272, -162232.8504601539, -18118.413462449727, -19813.63681717358, -21531.92717217531, -20376.721963491676, -187500.02235174447, -20385.148571151327, -13025.747302263655, -15355.491978584765, 7156.335670511207, -60317.41175859115, -22879.08916224112, -29590.37924890271, 13588.005434036904, 7488.86257277281, 0.054, 0.964, -0.274, 192.0, 0.0, 0.0, 0.0, 0.0, 0.0, 0.0, 0.0, 0.0, 0.0, 1.695758935858988E9, 0.0, 2023-09-26 15:08:55.858
166.0, -13464.243824987869, -162202.49679118357, -18096.10642148333, -19798.9740728109, -21499.718308415213, -20383.852169972917, -187500.02235174447, -20371.826931455962, -13020.628752783388, -15358.397705363956, 7059.664375742004, -60420.609762741304, -22872.942432515913, -29581.416199376134, 13505.080462107715, 7455.71493574559, 0.054, 0.964, -0.274, 192.0, 0.0, 0.0, 0.0, 0.0, 0.0, 0.0, 0.0, 0.0, 0.0, 1.695758935918927E9, 0.0, 2023-09-26 15:08:55.918
168.0, -13443.546109622253, -162178.6251281053, -18123.219087507616, -19820.11882306562, -21534.519974532126, -20391.51881832109, -187500.02235174447, -20394.67041428929, -13039.67243905931, -15374.289795671679, 7174.954673642478, -60302.749014228466, -22890.62266238006, -29601.644528108183, 13607.160879035102, 7493.6681978307015, 0.058, 0.972, -0.266, 192.0, 0.5, 104.0, 15.0, 48.0, 123.5, 88.0, 0.0, 0.0, 0.0, 1.695758935918953E9, 0.0, 2023-09-26 15:08:55.918
170.0, -13456.75599059534, -162190.51625615553, -18103.840125064868, -19801.96920656791, -21516.660930712336, -20387.786076997054, -187500.02235174447, -20384.478018817666, -13032.609287811434, -15380.861208541539, 7088.49812608935, -60389.18321003714, -22888.52159840126, -29591.407429147654, 13534.920040955549, 7458.598310780324, 0.058, 0.972, -0.266, 192.0, 0.0, 0.0, 0.0, 0.0, 0.0, 0.0, 0.0, 0.0, 0.0, 1.695758935918975E9, 0.0, 2023-09-26 15:08:55.918
172.0, -13453.783208582785, -162183.96719503013, -18113.026692035997, -19804.53965718027, -21525.422814538815, -20378.21953037018, -187500.02235174447, -20381.50523680511, -13021.768691750609, -15370.534702603187, 7162.147124069586, -60314.55073530087, -22879.692659341414, -29583.51726335493, 13595.761489362894, 7490.024863484486, 0.058, 0.972, -0.266, 192.0, 0.0, 0.0, 0.0, 0.0, 0.0, 0.0, 0.0, 0.0, 0.0, 1.695758935918985E9, 0.0, 2023-09-26 15:08:55.918
174.0, -13460.712249363929, -162187.2305497206, -18106.030596021486, -19802.30448273474, -21513.35287253295, -20393.55282706652, -187500.02235174447, -20383.583949039454, -13036.00675296864, -15404.241133241789, 7080.384442852073, -60396.82750664085, -22890.689717613426, -29587.339411656787, 13530.047360664292, 7461.436982326149, 0.058, 0.972, -0.266, 192.0, 0.0, 0.0, 0.0, 0.0, 0.0, 0.0, 0.0, 0.0, 0.0, 1.695758935918994E9, 0.0, 2023-09-26 15:08:55.918
176.0, -13433.84545252865, -162160.0284767185, -18115.664197881724, -19810.328758994194, -21524.037006382587, -20378.018364670083, -187500.02235174447, -20386.959062452206, -13026.350799363947, -15398.273217472222, 7184.722385969447, -60290.27674082241, -22888.834522823636, -29591.653298336663, 13623.142376320646, 7499.971389767098, 0.058, 0.972, -0.266, 192.0, 0.0, 0.0, 0.0, 0.0, 0.0, 0.0, 0.0, 0.0, 0.0, 1.695758935919007E9, 0.0, 2023-09-26 15:08:55.919
178.0, -13493.4352032465, -162212.26450351055, -18097.022843005998, -19799.331700722185, -21501.841724138467, -20377.19135012524, -187500.02235174447, -20377.79484722553, -13021.09813941695, -15403.704691374862, 7078.171620150998, -60400.71671017608, -22877.323374429154, -29576.498815595965, 13526.091101895703, 7457.815999724388, 0.06, 0.968, -0.27, 192.0, 0.5, 112.0, 15.0, 32.0, 123.5, 72.0, 0.0, 0.0, 0.0, 1.695758935919021E9, 0.0, 2023-09-26 15:08:55.919
180.0, -13430.179766437981, -162145.67865677818, -18118.234648494083, -19823.046901589263, -21522.91941915982, -20395.60918755641, -187500.02235174447, -20397.28556839056, -13020.248773127649, -15407.057453043159, 7162.638862447604, -60314.55073530087, -22884.990022777325, -29595.363687916244, 13603.31637898879, 7493.601142597336, 0.06, 0.968, -0.27, 192.0, 0.0, 0.0, 0.0, 0.0, 0.0, 0.0, 0.0, 0.0, 0.0, 1.695758935978531E9, 0.0, 2023-09-26 15:08:55.978
182.0, -13503.962874884948, -162209.09055579788, -18114.16663100322, -19820.074119576708, -21523.12058485992, -20397.911417235307, -187500.02235174447, -20396.592664312444, -13045.461540873235, -15439.646296458995, 7090.3533208791405, -60384.01995706797, -22895.92002581597, -29602.583301375307, 13542.497282325898, 7453.8150374668885, 0.06, 0.968, -0.27, 192.0, 0.0, 0.0, 0.0, 0.0, 0.0, 0.0, 0.0, 0.0, 0.0, 1.695758935978605E9, 0.0, 2023-09-26 15:08:55.978
184.0, -13443.411999155522, -162149.23258414658, -18102.543723886458, -19811.8263258727, -21518.06909061302, -20385.75206825162, -187500.02235174447, -20384.79094324004, -13015.57725853649, -15424.357703251566, 7151.060658819754, -60325.92777322862, -22882.978365776347, -29593.86612103774, 13598.019015552882, 7489.108441961818, 0.06, 0.968, -0.27, 192.0, 0.0, 0.0, 0.0, 0.0, 0.0, 0.0, 0.0, 0.0, 0.0, 1.695758935978616E9, 0.0, 2023-09-26 15:08:55.978
186.0, -13541.670267781052, -162239.6453904683, -18099.615645362814, -19806.7748316258, -21518.650235968857, -20383.539245550543, -187500.02235174447, -20380.70057400472, -13029.904726732342, -15444.206052327878, 7085.458288843428, -60394.01118683949, -22881.167874475464, -29579.67276330862, 13535.76940724485, 7462.196941637629, 0.06, 0.968, -0.27, 192.0, 0.0, 0.0, 0.0, 0.0, 0.0, 0.0, 0.0, 0.0, 0.0, 1.695758935978625E9, 0.0, 2023-09-26 15:08:55.978
188.0, -13457.739467351374, -162154.03820920447, -18100.19679071865, -19809.68055840499, -21518.896105157866, -20386.444972329733, -187500.02235174447, -20386.243806629634, -13016.359569592425, -15442.283802304722, 7129.64768763157, -60352.50399738598, -22883.492455898817, -29592.52501637042, 13577.54481763182, 7486.895619260743, 0.056, 0.97, -0.274, 192.0, 0.5, 96.0, 15.0, 40.0, 123.5, 56.0, 0.0, 0.0, 0.0, 1.695758935978634E9, 0.0, 2023-09-26 15:08:55.978
190.0, -13557.897634255605, -162241.3441230469, -18108.042253022464, -19812.16160203953, -21519.700767958257, -20383.472190317178, -187500.02235174447, -20385.260329873603, -13025.38967435237, -15461.126322880546, 7100.031626228289, -60381.49420994452, -22886.57699663365, -29588.90403376866, 13546.878224239139, 7469.774183007978, 0.056, 0.97, -0.274, 192.0, 0.0, 0.0, 0.0, 0.0, 0.0, 0.0, 0.0, 0.0, 0.0, 1.695758935978645E9, 0.0, 2023-09-26 15:08:55.978
192.0, -13477.00667107185, -162163.60475583133, -18101.515543641515, -19805.433726958483, -21511.385919020882, -20384.969757195682, -187500.02235174447, -20379.873559459873, -13016.76190099262, -15457.72885772334, 7115.051998502255, -60367.81494233787, -22885.504112899795, -29588.412295390644, 13567.844160538216, 7484.079299459375, 0.056, 0.97, -0.274, 192.0, 0.0, 0.0, 0.0, 0.0, 0.0, 0.0, 0.0, 0.0, 0.0, 1.69575893597866E9, 0.0, 2023-09-26 15:08:55.978
194.0, -13601.058852798802, -162274.33529786294, -18102.119040741807, -19803.53382867978, -21518.046738868565, -20378.241882114635, -187500.02235174447, -20378.823027470473, -13029.01065695413, -15471.743401496817, 7090.152155179043, -60399.57677120886, -22881.503150642297, -29571.84965274926, 13537.781064245828, 7469.327148118872, 0.056, 0.97, -0.274, 192.0, 0.0, 0.0, 0.0, 0.0, 0.0, 0.0, 0.0, 0.0, 0.0, 1.695758935978669E9, 0.0, 2023-09-26 15:08:55.978
196.0, -13501.884162650606, -162174.75827631453, -18111.707939113134, -19818.68831142048, -21512.615264965923, -20401.08536494796, -187500.02235174447, -20392.681109032765, -13025.76965400811, -15479.320642867166, 7087.246428399852, -60408.67393120217, -22886.822865822658, -29592.14503671468, 13543.659573037574, 7476.8820377447655, 0.056, 0.97, -0.274, 192.0, 0.0, 0.0, 0.0, 0.0, 0.0, 0.0, 0.0, 0.0, 0.0, 1.695758936038197E9, 0.0, 2023-09-26 15:08:56.038
198.0, -13620.303704774822, -162279.83382699895, -18112.02086353551, -19816.117860808117, -21526.719215717225, -20386.17675139627, -187500.02235174447, -20389.238940386647, -13031.894031988864, -15493.893980252025, 7094.264876158819, -60402.9071811327, -22883.38069717654, -29588.18877794609, 13543.436055593022, 7464.007432938509, 0.058, 0.97, -0.27, 192.0, 0.5, 104.0, 15.0, 40.0, 123.5, 72.0, 0.0, 0.0, 0.0, 1.695758936038219E9, 0.0, 2023-09-26 15:08:56.038
200.0, -13527.25339260738, -162185.777686331, -18101.046157007953, -19812.228657272895, -21511.072994598508, -20395.631539300866, -187500.02235174447, -20389.104829919914, -13021.500470817145, -15488.596616816118, 7070.3932130805515, -60430.422178557186, -22886.554644889195, -29590.558062858352, 13529.086235652714, 7464.7897439944445, 0.058, 0.97, -0.27, 192.0, 0.0, 0.0, 0.0, 0.0, 0.0, 0.0, 0.0, 0.0, 0.0, 1.695758936038229E9, 0.0, 2023-09-26 15:08:56.038
202.0, -13605.238629011945, -162251.31300107396, -18120.358064217337, -19820.677616677003, -21534.385864065393, -20394.89393173384, -187500.02235174447, -20401.107716692415, -13043.606346083445, -15509.674311837472, 7125.825539329713, -60372.799381351404, -22901.172685762966, -29593.508493126454, 13571.487494884432, 7473.52927607647, 0.058, 0.97, -0.27, 192.0, 0.0, 0.0, 0.0, 0.0, 0.0, 0.0, 0.0, 0.0, 0.0, 1.695758936038239E9, 0.0, 2023-09-26 15:08:56.038
204.0, -13539.591555546709, -162186.06825900893, -18101.58259887488, -19808.942950837965, -21516.660930712336, -20397.643196301844, -187500.02235174447, -20391.18354215426, -13026.641372041866, -15509.517849626285, 7074.170657893498, -60426.30945757741, -22888.09691525661, -29586.37828664521, 13532.416645576555, 7462.7333835045565, 0.058, 0.97, -0.27, 192.0, 0.0, 0.0, 0.0, 0.0, 0.0, 0.0, 0.0, 0.0, 0.0, 1.695758936038278E9, 0.0, 2023-09-26 15:08:56.038
206.0, -13624.371722265689, -162262.82414946845, -18117.45233743815, -19819.11299456513, -21536.911611188843, -20386.623786285378, -187500.02235174447, -20396.391498612345, -13039.135997192383, -15528.628591135574, 7128.083065519699, -60367.92670106015, -22892.61196763658, -29594.983708260504, 13575.153180975101, 7472.4787440870705, 0.058, 0.97, -0.27, 192.0, 0.0, 0.0, 0.0, 0.0, 0.0, 0.0, 0.0, 0.0, 0.0, 1.695758936038287E9, 0.0, 2023-09-26 15:08:56.038
208.0, -13570.012279750381, -162206.78832611899, -18101.71670934161, -19808.58532292668, -21505.373299762407, -20397.12910617937, -187500.02235174447, -20386.377917096368, -13024.227383640693, -15527.22043123489, 7052.891797172046, -60446.60484154282, -22878.28449944073, -29583.89724301067, 13514.2893808233, 7456.139618890241, 0.058, 0.972, -0.266, 192.0, 0.5, 104.0, 15.0, 48.0, 123.5, 88.0, 0.0, 0.0, 0.0, 1.695758936038296E9, 0.0, 2023-09-26 15:08:56.038
210.0, -13629.154995579123, -162254.3975418088, -18118.413462449727, -19817.86129687563, -21534.45291929876, -20384.99210894014, -187500.02235174447, -20390.870617731885, -13035.403255868347, -15543.35839073162, 7136.017934801333, -60363.85868356928, -22894.601272893105, -29600.19166471859, 13582.395146178622, 7475.33976737735, 0.058, 0.972, -0.266, 192.0, 0.0, 0.0, 0.0, 0.0, 0.0, 0.0, 0.0, 0.0, 0.0, 1.69575893609836E9, 0.0, 2023-09-26 15:08:56.098
212.0, -13588.318358459277, -162208.59881741987, -18099.52623838499, -19805.5231339363, -21509.821296909013, -20397.307920135012, -187500.02235174447, -20384.433315328755, -13013.43149106878, -15536.608163906118, 7048.086172114155, -60458.719487037604, -22874.864682539068, -29578.37636213021, 13509.014369131848, 7453.390354322238, 0.058, 0.972, -0.266, 192.0, 0.0, 0.0, 0.0, 0.0, 0.0, 0.0, 0.0, 0.0, 0.0, 1.695758936098392E9, 0.0, 2023-09-26 15:08:56.098
214.0, -13634.675876459585, -162244.92040215974, -18115.664197881724, -19810.82049737221, -21540.420835068326, -20386.668489774285, -187500.02235174447, -20395.631539300866, -13031.134072677383, -15544.721847143395, 7144.310431994251, -60360.55062538989, -22889.90740655749, -29592.39090590369, 13589.324186959766, 7479.206619168118, 0.058, 0.972, -0.266, 192.0, 0.0, 0.0, 0.0, 0.0, 0.0, 0.0, 0.0, 0.0, 0.0, 1.695758936098482E9, 0.0, 2023-09-26 15:08:56.098
216.0, -13631.278411302377, -162230.8388031529, -18098.788630817966, -19795.844828587156, -21512.727023688203, -20391.11648692089, -187500.02235174447, -20383.852169972917, -13031.58110756649, -15544.87830935458, 7048.041468625244, -60461.222882416594, -22878.66447909647, -29578.62223131922, 13508.43322377601, 7452.250415355017, 0.058, 0.972, -0.266, 192.0, 0.0, 0.0, 0.0, 0.0, 0.0, 0.0, 0.0, 0.0, 0.0, 1.695758936098492E9, 0.0, 2023-09-26 15:08:56.098
218.0, -13617.397977995632, -162209.64934940927, -18117.988779305077, -19814.39677648506, -21532.396558808872, -20395.251559645123, -187500.02235174447, -20395.005690456117, -13028.317752876015, -15550.98033559088, 7153.899330365579, -60350.82761655183, -22889.929758301947, -29598.202359462066, 13600.008320809404, 7491.164802451707, 0.064, 0.968, -0.27, 192.0, 1.0, 0.0, 15.0, 32.0, 123.5, 72.0, 0.0, 0.0, 0.0, 1.695758936098502E9, 0.0, 2023-09-26 15:08:56.098
220.0, -13646.812873698816, -162232.6939979427, -18098.47570639559, -19799.465811188915, -21512.794078921568, -20393.999861955628, -187500.02235174447, -20384.589777539943, -13035.067979701518, -15564.458437497431, 7068.605073524127, -60435.00428617052, -22891.2038077359, -29588.233481435, 13528.929773441527, 7458.441848569138, 0.064, 0.968, -0.27, 192.0, 0.0, 0.0, 0.0, 0.0, 0.0, 0.0, 0.0, 0.0, 0.0, 1.695758936098512E9, 0.0, 2023-09-26 15:08:56.098
222.0, -13617.085053573259, -162192.12558175632, -18105.158877987727, -19809.479392704892, -21533.40238730936, -20393.97751021117, -187500.02235174447, -20387.69667001923, -13026.306095875037, -15561.083324084679, 7163.577635714726, -60338.668267568144, -22890.466200168874, -29588.769923301927, 13611.474765714976, 7497.311532176916, 0.064, 0.968, -0.27, 192.0, 0.0, 0.0, 0.0, 0.0, 0.0, 0.0, 0.0, 0.0, 0.0, 1.695758936098521E9, 0.0, 2023-09-26 15:08:56.098
224.0, -13706.492031394486, -162269.52967280505, -18086.182246945173, -19790.413354684515, -21509.240151553175, -20380.968794938184, -187500.02235174447, -20376.029059413562, -13018.95237194924, -15569.442876510964, 7071.2202276253975, -60429.95279192362, -22877.792761062716, -29571.894356238172, 13535.076503166736, 7461.436982326149, 0.064, 0.968, -0.27, 192.0, 0.0, 0.0, 0.0, 0.0, 0.0, 0.0, 0.0, 0.0, 0.0, 1.69575893609858E9, 0.0, 2023-09-26 15:08:56.098
226.0, -13697.551333612364, -162257.81735871045, -18090.42907839168, -19798.191761754962, -21517.242076068174, -20384.12039090638, -187500.02235174447, -20382.55576879451, -13000.378072306881, -15556.255347282333, 7107.184184453987, -60398.883867130746, -22867.086275468624, -29568.27337363641, 13560.11045695668, 7474.691566788146, 0.064, 0.968, -0.27, 192.0, 0.0, 0.0, 0.0, 0.0, 0.0, 0.0, 0.0, 0.0, 0.0, 1.695758936158795E9, 0.0, 2023-09-26 15:08:56.158
228.0, -13766.148837345701, -162314.83665881594, -18090.47378188059, -19802.930331579486, -21514.671625455812, -20393.776344511076, -187500.02235174447, -20384.32155660648, -13015.085520158473, -15584.999690651857, 7028.573099204672, -60477.673766335705, -22874.10472322759, -29576.476463851508, 13492.42937474601, 7447.221272852573, 0.058, 0.974, -0.272, 192.0, 0.5, 104.0, 15.0, 56.0, 123.5, 64.0, 0.0, 0.0, 0.0, 1.695758936158816E9, 0.0, 2023-09-26 15:08:56.158
230.0, -13699.42888014661, -162239.6900939572, -18106.05294776594, -19816.0284538303, -21517.644407468368, -20406.74035629515, -187500.02235174447, -20392.859922988406, -13016.985418437174, -15585.692594729971, 7105.373693153107, -60403.91300963319, -22883.179531476442, -29590.021620991425, 13560.579843590242, 7480.994758724542, 0.058, 0.974, -0.272, 192.0, 0.0, 0.0, 0.0, 0.0, 0.0, 0.0, 0.0, 0.0, 0.0, 1.695758936158827E9, 0.0, 2023-09-26 15:08:56.158
232.0, -13764.047773366901, -162289.78035328156, -18100.8226395634, -19808.093584548664, -21524.528744760602, -20400.079536447472, -187500.02235174447, -20384.254501373114, -13037.280802402593, -15620.293095146788, 7061.564274020705, -60445.30844036442, -22892.72372635886, -29592.033277992403, 13525.800529217784, 7457.23485436855, 0.058, 0.974, -0.272, 192.0, 0.0, 0.0, 0.0, 0.0, 0.0, 0.0, 0.0, 0.0, 0.0, 1.695758936158836E9, 0.0, 2023-09-26 15:08:56.158
234.0, -13672.427972844598, -162195.74656435807, -18104.57773263189, -19809.121764793606, -21528.239134340183, -20401.286530648056, -187500.02235174447, -20386.46732407419, -13026.06022668603, -15613.14053692109, 7122.495129405872, -60383.79643962341, -22887.42636292295, -29592.636775092695, 13585.92672180256, 7491.164802451707, 0.058, 0.974, -0.272, 192.0, 0.0, 0.0, 0.0, 0.0, 0.0, 0.0, 0.0, 0.0, 0.0, 1.695758936158845E9, 0.0, 2023-09-26 15:08:56.158
236.0, -13754.414171506665, -162263.4499983132, -18113.451375180648, -19814.061500318232, -21535.436396054793, -20403.253484160126, -187500.02235174447, -20393.955158466717, -13046.512072862635, -15642.108397735168, 7107.117129220621, -60395.017015339974, -22901.66442414098, -29593.307327426355, 13571.241625695424, 7474.691566788146, 0.058, 0.974, -0.272, 192.0, 0.0, 0.0, 0.0, 0.0, 0.0, 0.0, 0.0, 0.0, 0.0, 1.695758936158854E9, 0.0, 2023-09-26 15:08:56.158
238.0, -13674.104353678746, -162180.5920816174, -18104.10834599833, -19806.283093247785, -21517.018558623622, -20397.84436200194, -187500.02235174447, -20388.90366421982, -13031.20112791075, -15637.392179655097, 7133.559242911249, -60367.03263128193, -22890.890883313525, -29591.742705314486, 13600.187134765047, 7488.549648350436, 0.06, 0.968, -0.276, 192.0, 0.5, 112.0, 15.0, 32.0, 123.5, 48.0, 0.0, 0.0, 0.0, 1.695758936158863E9, 0.0, 2023-09-26 15:08:56.158
240.0, -13807.745433777027, -162300.08450747546, -18102.25315120854, -19800.069308289207, -21523.858192426946, -20383.226321128168, -187500.02235174447, -20383.203969383714, -13039.873604759408, -15655.988831041914, 7109.531117621794, -60386.94803559161, -22892.097877514112, -29579.89628075317, 13577.321300187266, 7470.914121975198, 0.06, 0.968, -0.276, 192.0, 0.0, 0.0, 0.0, 0.0, 0.0, 0.0, 0.0, 0.0, 0.0, 1.695758936219083E9, 0.0, 2023-09-26 15:08:56.219
242.0, -13711.185897730102, -162200.19456150467, -18107.595218133356, -19810.909904350032, -21518.806698180044, -20408.081460962472, -187500.02235174447, -20393.195199155238, -13022.640409784366, -15647.070485004246, 7098.176431438498, -60403.17540206616, -22875.80345580619, -29583.00317323246, 13569.788762305829, 7477.507886589514, 0.06, 0.968, -0.276, 192.0, 0.0, 0.0, 0.0, 0.0, 0.0, 0.0, 0.0, 0.0, 0.0, 1.695758936219117E9, 0.0, 2023-09-26 15:08:56.219
244.0, -13793.39561383672, -162268.21091988217, -18111.86440132432, -19820.34234051017, -21543.125396147418, -20407.81324002901, -187500.02235174447, -20397.33027187947, -13056.615061356433, -15680.86632262067, 7129.5582806537495, -60366.227968481544, -22904.860723598093, -29602.85152230877, 13597.16964926358, 7473.350462120827, 0.06, 0.968, -0.276, 192.0, 0.0, 0.0, 0.0, 0.0, 0.0, 0.0, 0.0, 0.0, 0.0, 1.695758936219127E9, 0.0, 2023-09-26 15:08:56.219
246.0, -13718.80784258936, -162188.2363782211, -18094.184171460172, -19810.64168341657, -21513.866962655422, -20402.18060042627, -187500.02235174447, -20387.316690363492, -13029.144767420861, -15669.846912604204, 7120.6399346160815, -60375.168666263664, -22888.789819334725, -29590.5357111139, 13596.432041696555, 7480.659482557712, 0.06, 0.968, -0.276, 192.0, 0.0, 0.0, 0.0, 0.0, 0.0, 0.0, 0.0, 0.0, 0.0, 1.695758936219167E9, 0.0, 2023-09-26 15:08:56.219
248.0, -13829.471329387587, -162279.76677176557, -18102.476668653093, -19819.29180852077, -21531.6813029863, -20401.4653446037, -187500.02235174447, -20394.357489866914, -13031.424645355302, -15682.967386599468, 7135.883824334601, -60357.86841605526, -22884.990022777325, -29580.700943553562, 13598.823678353272, 7472.568151064891, 0.06, 0.972, -0.274, 192.0, 0.5, 112.0, 15.0, 48.0, 123.5, 56.0, 0.0, 0.0, 0.0, 1.695758936219176E9, 0.0, 2023-09-26 15:08:56.219
250.0, -13759.15274133119, -162204.24022725108, -18099.258017451528, -19816.140212552575, -21502.28875902757, -20408.349681895936, -187500.02235174447, -20391.719984021187, -13027.088406930972, -15684.95669185599, 7101.909172762535, -60392.155992049695, -22888.52159840126, -29593.62025184873, 13574.72849783045, 7467.8966364737325, 0.06, 0.972, -0.274, 192.0, 0.0, 0.0, 0.0, 0.0, 0.0, 0.0, 0.0, 0.0, 0.0, 1.695758936219187E9, 0.0, 2023-09-26 15:08:56.219
252.0, -13856.963975067614, -162285.08648694595, -18106.47763091059, -19813.279189262295, -21528.060320384542, -20394.89393173384, -187500.02235174447, -20392.882274732863, -13032.408122111336, -15691.14812507011, 7144.55630118326, -60347.65366883918, -22887.33695594513, -29587.764094801438, 13602.444660955032, 7475.630340055269, 0.06, 0.972, -0.274, 192.0, 0.0, 0.0, 0.0, 0.0, 0.0, 0.0, 0.0, 0.0, 0.0, 1.695758936219201E9, 0.0, 2023-09-26 15:08:56.219
254.0, -13775.402459550198, -162197.89233182577, -18098.185133717674, -19814.73205265189, -21512.190581821273, -20415.1669639548, -187500.02235174447, -20395.09509743394, -13025.501433074645, -15694.880866394147, 7093.393158125063, -60398.68270143065, -22889.661537368484, -29588.993440746483, 13562.479741868943, 7469.394203352238, 0.06, 0.972, -0.274, 192.0, 0.0, 0.0, 0.0, 0.0, 0.0, 0.0, 0.0, 0.0, 0.0, 1.69575893621921E9, 0.0, 2023-09-26 15:08:56.219
0.0, -13861.903710592236, -162267.29449835952, -18119.039311294473, -19824.611523701136, -21539.660875756847, -20401.197123670237, -187500.02235174447, -20402.04648995954, -13048.031991485595, -15715.15389861511, 7172.339519541207, -60312.36026434425, -22906.53710443224, -29600.90692054116, 13627.299800789333, 7483.140526192252, 0.06, 0.972, -0.274, 192.0, 0.0, 0.0, 0.0, 0.0, 0.0, 0.0, 0.0, 0.0, 0.0, 1.695758936278477E9, 0.0, 2023-09-26 15:08:56.278
2.0, -13841.496567904542, -162242.5511172475, -18096.64286335026, -19803.466773446416, -21506.06620384052, -20404.348719638434, -187500.02235174447, -20384.54507405103, -13030.48587208818, -15704.447413021018, 7073.947140448945, -60411.9596376371, -22891.82965658065, -29581.52795809841, 13541.15617765858, 7455.513770045492, 0.06, 0.968, -0.28200000000000003, 192.0, 0.5, 112.0, 15.0, 32.0, 123.5, 24.0, 0.0, 0.0, 0.0, 1.695758936278503E9, 0.0, 2023-09-26 15:08:56.278
4.0, -13874.040707831467, -162265.81928322546, -18121.207430506638, -19826.243201046374, -21534.989361165688, -20406.60624582842, -187500.02235174447, -20402.962911482206, -13037.280802402593, -15709.476555523463, 7164.292891537296, -60316.83061323531, -22903.810191608693, -29595.09546698278, 13617.710902418006, 7482.2241046695835, 0.06, 0.968, -0.28200000000000003, 192.0, 0.0, 0.0, 0.0, 0.0, 0.0, 0.0, 0.0, 0.0, 0.0, 1.695758936278514E9, 0.0, 2023-09-26 15:08:56.278
6.0, -13866.083486805379, -162251.46946328515, -18105.225933221096, -19813.7262241514, -21519.298436558063, -20407.14268769535, -187500.02235174447, -20392.099963676927, -13028.697732531755, -15721.233573106954, 7081.949064963945, -60394.92760836216, -22901.06092704069, -29594.067286737834, 13556.511826099377, 7451.199883365618, 0.06, 0.968, -0.28200000000000003, 192.0, 0.0, 0.0, 0.0, 0.0, 0.0, 0.0, 0.0, 0.0, 0.0, 1.695758936278525E9, 0.0, 2023-09-26 15:08:56.278
8.0, -13882.355556768842, -162254.08461738643, -18115.999474048553, -19818.554200953746, -21536.88925944439, -20392.65875728831, -187500.02235174447, -20392.70346077722, -13024.987342952174, -15706.68258746655, 7171.400746274084, -60302.86077295074, -22900.949168318413, -29595.318984427333, 13630.943135135549, 7482.358215136316, 0.06, 0.968, -0.28200000000000003, 192.0, 0.0, 0.0, 0.0, 0.0, 0.0, 0.0, 0.0, 0.0, 0.0, 1.695758936278535E9, 0.0, 2023-09-26 15:08:56.278
10.0, -13898.292350565476, -162261.03600991203, -18104.510677398524, -19812.698043906457, -21512.16823007682, -20398.291396891047, -187500.02235174447, -20384.6121292844, -13013.632656768877, -15701.54168624183, 7085.726509776892, -60386.210428024584, -22892.81313333668, -29582.198510432067, 13560.088105212226, 7450.685793243146, 0.06, 0.968, -0.28200000000000003, 192.0, 0.0, 0.0, 0.0, 0.0, 0.0, 0.0, 0.0, 0.0, 0.0, 1.69575893627855E9, 0.0, 2023-09-26 15:08:56.278
12.0, -13907.590676258884, -162260.07488490044, -18117.25117173805, -19817.86129687563, -21534.855250698954, -20381.147608893825, -187500.02235174447, -20386.64613802983, -13012.33625559047, -15674.049040561802, 7175.714632953958, -60290.14263035567, -22897.797572350213, -29596.034240249905, 13635.927574149082, 7479.34072963485, 0.058, 0.976, -0.28400000000000003, 192.0, 0.5, 104.0, 15.0, 64.0, 123.5, 16.0, 0.0, 0.0, 0.0, 1.695758936278589E9, 0.0, 2023-09-26 15:08:56.278
14.0, -13941.207699919665, -162283.87949274536, -18107.326997199893, -19809.769965382813, -21520.371320291917, -20382.041678672038, -187500.02235174447, -20376.766666980588, -12995.438336782257, -15642.62248785764, 7073.120125904099, -60390.65842517119, -22879.692659341414, -29569.480367836997, 13547.816997506261, 7447.154217619207, 0.058, 0.976, -0.28400000000000003, 192.0, 0.0, 0.0, 0.0, 0.0, 0.0, 0.0, 0.0, 0.0, 0.0, 1.695758936338226E9, 0.0, 2023-09-26 15:08:56.338
16.0, -13902.338016311887, -162242.7969864365, -18119.709863628133, -19820.632913188092, -21536.911611188843, -20378.80067572602, -187500.02235174447, -20382.533417050054, -12995.52774376008, -15601.048243170768, 7164.56111247076, -60294.41181354664, -22890.667365868972, -29586.04301047838, 13627.053931600325, 7482.581732580868, 0.058, 0.976, -0.28400000000000003, 192.0, 0.0, 0.0, 0.0, 0.0, 0.0, 0.0, 0.0, 0.0, 0.0, 1.695758936338252E9, 0.0, 2023-09-26 15:08:56.338
18.0, -13955.781037304527, -162286.2934811465, -18114.278389725496, -19814.39677648506, -21531.100157630462, -20374.732658235152, -187500.02235174447, -20376.92312919177, -12996.265351327105, -15580.350527805154, 7092.163812180021, -60360.215349223065, -22889.438019923928, -29584.52309185542, 13570.079334983748, 7454.932624689654, 0.058, 0.976, -0.28400000000000003, 192.0, 0.0, 0.0, 0.0, 0.0, 0.0, 0.0, 0.0, 0.0, 0.0, 1.695758936338262E9, 0.0, 2023-09-26 15:08:56.338
20.0, -13924.488595067096, -162253.32465807494, -18112.177325746696, -19817.660131175537, -21529.289666329583, -20376.36433558039, -187500.02235174447, -20374.03975415704, -12973.466571982692, -15523.733559099861, 7144.131618038609, -60309.07455790932, -22873.52357787175, -29584.81366453334, 13609.574867436275, 7475.987967966554, 0.058, 0.976, -0.28400000000000003, 192.0, 0.0, 0.0, 0.0, 0.0, 0.0, 0.0, 0.0, 0.0, 0.0, 1.695758936338271E9, 0.0, 2023-09-26 15:08:56.338
22.0, -13987.699328386705, -162313.29438844853, -18107.125831499798, -19809.926427594, -21520.88541041439, -20375.291451846537, -187500.02235174447, -20372.45278030071, -12990.766822191099, -15511.194230460434, 7073.187181137465, -60378.43202095414, -22883.738325087827, -29586.154769200657, 13542.58668930372, 7445.097857129319, 0.058, 0.974, -0.28200000000000003, 192.0, 0.5, 104.0, 15.0, 56.0, 123.5, 24.0, 0.0, 0.0, 0.0, 1.69575893633828E9, 0.0, 2023-09-26 15:08:56.338
24.0, -13867.916329850714, -162203.4355644507, -18124.470785197114, -19823.896267878565, -21521.46655577023, -20392.12231542138, -187500.02235174447, -20386.154399651816, -12977.936920873753, -15478.381869600044, 7161.767144413847, -60284.91232215313, -22887.29225245622, -29596.973013517025, 13627.165690322601, 7485.532162848969, 0.058, 0.974, -0.28200000000000003, 192.0, 0.0, 0.0, 0.0, 0.0, 0.0, 0.0, 0.0, 0.0, 0.0, 1.695758936338289E9, 0.0, 2023-09-26 15:08:56.338
26.0, -13948.04733372299, -162281.13022817735, -18118.033482793988, -19813.122727051108, -21528.060320384542, -20382.399306583324, -187500.02235174447, -20380.588815282445, -12999.774575206588, -15476.549026554709, 7129.066542275732, -60310.75093874347, -22891.069697269166, -29592.592071603787, 13598.577809164264, 7457.994813680031, 0.058, 0.974, -0.28200000000000003, 192.0, 0.0, 0.0, 0.0, 0.0, 0.0, 0.0, 0.0, 0.0, 0.0, 1.695758936338298E9, 0.0, 2023-09-26 15:08:56.338
28.0, -13831.393579410742, -162178.46866589412, -18119.82162235041, -19816.542543952768, -21527.0321401396, -20396.74912652363, -187500.02235174447, -20384.142742650838, -12987.771688434088, -15444.608383728075, 7170.685490451514, -60263.43229573158, -22886.018203022268, -29600.973975774526, 13637.469844516498, 7479.944226735142, 0.058, 0.974, -0.28200000000000003, 192.0, 0.0, 0.0, 0.0, 0.0, 0.0, 0.0, 0.0, 0.0, 0.0, 1.695758936338307E9, 0.0, 2023-09-26 15:08:56.338
30.0, -13927.796653246482, -162275.43053334125, -18116.44650893766, -19808.942950837965, -21534.274105343116, -20379.739448993143, -187500.02235174447, -20381.527588549565, -12998.52287751709, -15444.317811050156, 7145.025687816821, -60279.97258662851, -22896.411764193985, -29592.681478581606, 13608.770204635885, 7458.330089846861, 0.058, 0.974, -0.28200000000000003, 192.0, 0.0, 0.0, 0.0, 0.0, 0.0, 0.0, 0.0, 0.0, 0.0, 1.695758936398417E9, 0.0, 2023-09-26 15:08:56.398
32.0, -13835.573355623885, -162199.83693359338, -18100.219142463106, -19799.555218166737, -21511.028291109596, -20379.337117592946, -187500.02235174447, -20373.860940201397, -12968.772705647078, -15402.274179729722, 7148.356097740662, -60279.23497906148, -22873.43417089393, -29579.1810249306, 13612.88292561566, 7472.635206298257, 0.064, 0.968, -0.278, 192.0, 1.0, 0.0, 15.0, 32.0, 123.5, 40.0, 0.0, 0.0, 0.0, 1.695758936398441E9, 0.0, 2023-09-26 15:08:56.398
34.0, -13933.161071915756, -162295.79297254002, -18102.16374423072, -19797.09652627665, -21523.187640093285, -20373.346850078924, -187500.02235174447, -20377.59368152543, -12977.065202839996, -15404.129374519513, 7131.592289399182, -60293.540095512886, -22874.77527556125, -29576.476463851508, 13591.3581957052, 7457.391316579738, 0.064, 0.968, -0.278, 192.0, 0.0, 0.0, 0.0, 0.0, 0.0, 0.0, 0.0, 0.0, 0.0, 1.695758936398485E9, 0.0, 2023-09-26 15:08:56.398
36.0, -13827.996114253536, -162202.74266037258, -18100.77793607449, -19802.840924601667, -21517.845573168466, -20386.959062452206, -187500.02235174447, -20382.22049262768, -12964.101191055917, -15383.4316591539, 7125.9820015409, -60296.22230484752, -22871.824845293148, -29581.639716820686, 13591.939341061037, 7468.701299274123, 0.064, 0.968, -0.278, 192.0, 0.0, 0.0, 0.0, 0.0, 0.0, 0.0, 0.0, 0.0, 0.0, 1.695758936398495E9, 0.0, 2023-09-26 15:08:56.398
38.0, -13908.484746037097, -162284.21476891218, -18109.78568908998, -19812.452174717448, -21536.911611188843, -20380.052373415518, -187500.02235174447, -20387.003765941117, -12982.183752320261, -15392.417060424932, 7150.591272186193, -60262.56057769783, -22888.365136190074, -29590.96039425855, 13607.384396479654, 7463.202770138118, 0.064, 0.968, -0.278, 192.0, 0.0, 0.0, 0.0, 0.0, 0.0, 0.0, 0.0, 0.0, 0.0, 1.695758936398504E9, 0.0, 2023-09-26 15:08:56.398
40.0, -13838.1661579807, -162226.70373042868, -18087.366889401306, -19793.609654141626, -21503.383994505883, -20374.7103064907, -187500.02235174447, -20365.948422664216, -12961.888368354843, -15369.148894446958, 7103.8537745301455, -60307.711101497545, -22870.550795859195, -29577.95167898556, 13571.755715817895, 7456.8101712238995, 0.064, 0.968, -0.278, 192.0, 0.0, 0.0, 0.0, 0.0, 0.0, 0.0, 0.0, 0.0, 0.0, 1.695758936398513E9, 0.0, 2023-09-26 15:08:56.398
42.0, -13894.738423197083, -162287.3440131359, -18111.462069924124, -19811.53575319478, -21530.139032618885, -20382.68987926124, -187500.02235174447, -20380.097076904425, -12980.105040085917, -15374.937996260882, 7143.394010471584, -60266.09215332176, -22880.0502872527, -29585.79714128937, 13599.158954520102, 7465.169723650185, 0.066, 0.966, -0.28200000000000003, 192.0, 1.0, 8.0, 15.0, 24.0, 123.5, 24.0, 0.0, 0.0, 0.0, 1.695758936398522E9, 0.0, 2023-09-26 15:08:56.398
44.0, -13797.240113883034, -162202.78736386148, -18104.44362216516, -19813.16743054002, -21517.175020834806, -20392.099963676927, -187500.02235174447, -20380.70057400472, -12976.6628714398, -15368.299528157655, 7106.603039098149, -60301.74318572798, -22883.067772754166, -29589.865158780238, 13576.87426529816, 7460.878188714766, 0.066, 0.966, -0.28200000000000003, 192.0, 0.0, 0.0, 0.0, 0.0, 0.0, 0.0, 0.0, 0.0, 0.0, 1.695758936460139E9, 0.0, 2023-09-26 15:08:56.460
46.0, -13861.814303614416, -162272.39069609533, -18122.950866574152, -19820.252933532352, -21538.69975074527, -20381.4605333162, -187500.02235174447, -20386.020289185082, -12995.259522826616, -15378.514275373731, 7175.13348759812, -60224.89788829064, -22900.211560751388, -29604.214978720545, 13631.278411302377, 7471.338805119849, 0.066, 0.966, -0.28200000000000003, 192.0, 0.0, 0.0, 0.0, 0.0, 0.0, 0.0, 0.0, 0.0, 0.0, 1.695758936460182E9, 0.0, 2023-09-26 15:08:56.460
48.0, -13794.602608037307, -162219.55117220298, -18101.694357597156, -19807.914770593023, -21510.245980053664, -20387.763725252596, -187500.02235174447, -20371.536358778045, -12981.200275564228, -15360.31995538711, 7091.82853601319, -60308.068729408835, -22883.850083810103, -29586.87002502323, 13562.792666291318, 7451.669269999179, 0.066, 0.966, -0.28200000000000003, 192.0, 0.0, 0.0, 0.0, 0.0, 0.0, 0.0, 0.0, 0.0, 0.0, 1.695758936460195E9, 0.0, 2023-09-26 15:08:56.460
50.0, -13847.464483674108, -162275.74345776363, -18114.34544495886, -19816.564895697225, -21532.038930897586, -20377.481922803156, -187500.02235174447, -20373.525664034565, -12998.075842627984, -15359.627051308997, 7166.617472960648, -60225.45668190202, -22893.886017070534, -29592.86029253725, 13624.79640541034, 7476.613816811302, 0.066, 0.966, -0.28200000000000003, 192.0, 0.0, 0.0, 0.0, 0.0, 0.0, 0.0, 0.0, 0.0, 0.0, 1.695758936460209E9, 0.0, 2023-09-26 15:08:56.460
52.0, -13785.907779444193, -162224.84853563888, -18109.517468156515, -19816.050805574752, -21510.760070176133, -20392.54699856603, -187500.02235174447, -20369.636460499343, -13008.536459033068, -15369.350060147055, 7086.620579555104, -60300.73735722749, -22899.116325273077, -29598.269414695435, 13565.430172137043, 7456.251377612517, 0.062, 0.968, -0.276, 192.0, 0.5, 120.0, 15.0, 32.0, 123.5, 48.0, 0.0, 0.0, 0.0, 1.695758936460225E9, 0.0, 2023-09-26 15:08:56.460
54.0, -13801.486945329541, -162245.3450853044, -18125.856593353343, -19829.663017948034, -21532.843593697977, -20388.300167119523, -187500.02235174447, -20379.158303637305, -13018.550040549046, -15372.479304370798, 7175.625225976137, -60201.74148103494, -22909.979273078356, -29605.466676410044, 13638.65448697263, 7481.844125013844, 0.062, 0.968, -0.276, 192.0, 0.0, 0.0, 0.0, 0.0, 0.0, 0.0, 0.0, 0.0, 0.0, 1.69575893646024E9, 0.0, 2023-09-26 15:08:56.460
56.0, -13777.63763399573, -162231.26348629757, -18114.077224025397, -19821.39287249957, -21517.175020834806, -20395.31861487849, -187500.02235174447, -20375.000879168616, -13027.155462164339, -15380.123600974513, 7085.21241965442, -60286.879275665204, -22913.242627768832, -29604.28203395391, 13564.312584914278, 7453.166836877685, 0.062, 0.968, -0.276, 192.0, 0.0, 0.0, 0.0, 0.0, 0.0, 0.0, 0.0, 0.0, 0.0, 1.69575893646031E9, 0.0, 2023-09-26 15:08:56.460
58.0, -13747.283965025421, -162210.54341918748, -18135.44549172467, -19841.621201231625, -21543.39361708088, -20398.537266080057, -187500.02235174447, -20391.250597387625, -13031.134072677383, -15377.217874195323, 7182.8001359462905, -60185.06707967128, -22921.15514530601, -29619.28005448342, 13648.422199299599, 7481.687662802657, 0.062, 0.968, -0.276, 192.0, 0.0, 0.0, 0.0, 0.0, 0.0, 0.0, 0.0, 0.0, 0.0, 1.695758936460321E9, 0.0, 2023-09-26 15:08:56.460
60.0, -13750.502616226986, -162222.45689898217, -18123.666122396724, -19833.932201139, -21526.07101512802, -20401.867676003894, -187500.02235174447, -20383.472190317178, -13043.181662938794, -15388.751374334262, 7103.809071041235, -60257.106752050735, -22926.161936064, -29610.942853801593, 13586.97725379196, 7449.009412408997, 0.062, 0.968, -0.276, 192.0, 0.0, 0.0, 0.0, 0.0, 0.0, 0.0, 0.0, 0.0, 0.0, 1.695758936520456E9, 0.0, 2023-09-26 15:08:56.520
62.0, -13730.207232261568, -162214.8796576118, -18139.267640026526, -19848.97492515742, -21540.577297279513, -20402.80644927102, -187500.02235174447, -20393.284606133057, -13043.114607705427, -15382.917569031426, 7175.424060276039, -60178.0039284234, -22926.29604653073, -29619.86119983926, 13647.371667310199, 7467.404898095715, 0.06, 0.964, -0.274, 192.0, 0.5, 112.0, 15.0, 16.0, 123.5, 56.0, 0.0, 0.0, 0.0, 1.695758936520481E9, 0.0, 2023-09-26 15:08:56.520
64.0, -13769.881578669738, -162263.62881226884, -18115.798308348454, -19834.088663350187, -21515.990378378676, -20398.157286424313, -187500.02235174447, -20374.598547768423, -13048.791950797076, -15392.484115658299, 7071.309634603219, -60280.93371164009, -22922.87622962907, -29606.38309793271, 13554.455465609488, 7425.607135964291, 0.06, 0.964, -0.274, 192.0, 0.0, 0.0, 0.0, 0.0, 0.0, 0.0, 0.0, 0.0, 0.0, 1.695758936520491E9, 0.0, 2023-09-26 15:08:56.520
66.0, -13698.937141768592, -162206.47540169663, -18136.96541034763, -19856.6862769945, -21535.21287861024, -20404.594588827444, -187500.02235174447, -20390.08830667595, -13053.932852021797, -15386.292682444178, 7162.348289769685, -60186.60935003869, -22935.0132268683, -29625.516191186452, 13637.380437538677, 7467.181380651162, 0.06, 0.964, -0.274, 192.0, 0.0, 0.0, 0.0, 0.0, 0.0, 0.0, 0.0, 0.0, 0.0, 1.695758936520501E9, 0.0, 2023-09-26 15:08:56.520
68.0, -13765.2994710564, -162278.51507407607, -18127.26475325403, -19848.818462946234, -21529.35672156295, -20403.409946371314, -187500.02235174447, -20384.32155660648, -13068.550892895568, -15409.04675829968, 7075.422355582996, -60268.26027253393, -22934.92381989048, -29617.62602539373, 13560.401029634599, 7430.010429621987, 0.06, 0.964, -0.274, 192.0, 0.0, 0.0, 0.0, 0.0, 0.0, 0.0, 0.0, 0.0, 0.0, 1.69575893652051E9, 0.0, 2023-09-26 15:08:56.520
70.0, -13650.344449322754, -162177.90987228273, -18146.040218596485, -19872.019573690843, -21544.131224647906, -20426.745167582652, -187500.02235174447, -20403.588760326955, -13069.646128373877, -15408.353854221567, 7159.397859501584, -60179.076812157255, -22940.0647211152, -29642.637627439217, 13639.861481173217, 7468.231912640562, 0.06, 0.964, -0.274, 192.0, 0.0, 0.0, 0.0, 0.0, 0.0, 0.0, 0.0, 0.0, 0.0, 1.69575893652052E9, 0.0, 2023-09-26 15:08:56.520
72.0, -13733.135310785212, -162266.6015942814, -18138.77590164851, -19863.794131731287, -21537.69392224478, -20422.923019280795, -187500.02235174447, -20398.470210846688, -13089.203904772272, -15429.208031798367, 7098.623466327605, -60231.49165290495, -22947.373741552085, -29634.85922036877, 13588.787745092839, 7428.959897632587, 0.058, 0.962, -0.272, 192.0, 0.5, 104.0, 15.0, 8.0, 123.5, 64.0, 0.0, 0.0, 0.0, 1.695758936520529E9, 0.0, 2023-09-26 15:08:56.520
74.0, -13633.513585747909, -162182.26846245152, -18136.808948136444, -19863.570614286735, -21530.586067507993, -20420.486679135167, -187500.02235174447, -20397.419678857288, -13069.869645818431, -15411.326636234122, 7136.755542368358, -60194.030129197854, -22938.00836062531, -29627.86312435426, 13624.50583273242, 7451.490456043537, 0.058, 0.962, -0.272, 192.0, 0.0, 0.0, 0.0, 0.0, 0.0, 0.0, 0.0, 0.0, 0.0, 1.695758936579214E9, 0.0, 2023-09-26 15:08:56.579
76.0, -13724.127557769723, -162274.35764960738, -18138.798253392968, -19861.849529963678, -21533.715311731736, -20411.27776041958, -187500.02235174447, -20394.290434633545, -13087.348709982482, -15432.851366144583, 7115.655495602548, -60208.29054216034, -22952.045256143243, -29632.020548822948, 13606.624437168175, 7436.023048880465, 0.058, 0.962, -0.272, 192.0, 0.0, 0.0, 0.0, 0.0, 0.0, 0.0, 0.0, 0.0, 0.0, 1.695758936579297E9, 0.0, 2023-09-26 15:08:56.579
78.0, -13629.22205081249, -162191.72325035612, -18137.12187255882, -19863.570614286735, -21523.32175056002, -20420.978417513183, -187500.02235174447, -20393.575178810977, -13069.757887096153, -15414.925267091427, 7122.897460806068, -60199.37219612268, -22944.043331628243, -29623.01279580746, 13615.811004139305, 7446.640127496735, 0.058, 0.962, -0.272, 192.0, 0.0, 0.0, 0.0, 0.0, 0.0, 0.0, 0.0, 0.0, 0.0, 1.695758936579311E9, 0.0, 2023-09-26 15:08:56.579
80.0, -13710.872973307727, -162276.88339673085, -18140.742855160577, -19867.03513467731, -21535.659913499345, -20416.306902922024, -187500.02235174447, -20393.03873694405, -13083.884189591909, -15434.348933023088, 7104.747844308358, -60209.698702061025, -22953.29695383274, -29630.590037177808, 13598.242532997434, 7433.542005245925, 0.058, 0.962, -0.272, 192.0, 0.0, 0.0, 0.0, 0.0, 0.0, 0.0, 0.0, 0.0, 0.0, 1.695758936579324E9, 0.0, 2023-09-26 15:08:56.579
82.0, -13602.735233632951, -162186.5823491314, -18132.293895756473, -19869.158550400563, -21527.188602350787, -20416.776289555586, -187500.02235174447, -20390.736507265152, -13070.987233041196, -15424.201241040379, 7104.703140819448, -60206.837678770746, -22951.19588985394, -29634.97097909105, 13607.630265668664, 7443.823807695367, 0.058, 0.96, -0.28, 192.0, 0.5, 104.0, 15.0, 0.0, 123.5, 32.0, 0.0, 0.0, 0.0, 1.695758936579338E9, 0.0, 2023-09-26 15:08:56.579
84.0, -13676.09365893527, -162267.20509138168, -18142.26277378354, -19874.74648651439, -21546.724027004722, -20415.457536632723, -187500.02235174447, -20393.41871659979, -13089.896808850386, -15441.09915984859, 7121.489300905383, -60183.50245755941, -22959.577794024684, -29637.988464592516, 13620.706036175017, 7442.549758261413, 0.058, 0.96, -0.28, 192.0, 0.0, 0.0, 0.0, 0.0, 0.0, 0.0, 0.0, 0.0, 0.0, 1.695758936579352E9, 0.0, 2023-09-26 15:08:56.579
86.0, -13578.21536996548, -162187.25290146505, -18127.220049765117, -19858.809692717754, -21519.231381324695, -20402.247655659638, -187500.02235174447, -20379.001841426118, -13078.363308711447, -15424.402406740477, 7089.4145476120175, -60211.240972428444, -22948.804253197224, -29628.176048776633, 13603.115213288691, 7447.176569363663, 0.058, 0.96, -0.28, 192.0, 0.0, 0.0, 0.0, 0.0, 0.0, 0.0, 0.0, 0.0, 0.0, 1.695758936579365E9, 0.0, 2023-09-26 15:08:56.579
88.0, -13647.438722543566, -162262.31005934597, -18141.83809063889, -19871.863111479655, -21535.50345128816, -20405.75687953912, -187500.02235174447, -20385.305033362514, -13099.910390366364, -15445.323639550645, 7124.640896873581, -60168.25856784089, -22963.17642488199, -29640.62597043824, 13631.770149680395, 7454.1056101448075, 0.058, 0.96, -0.28, 192.0, 0.0, 0.0, 0.0, 0.0, 0.0, 0.0, 0.0, 0.0, 0.0, 1.695758936579378E9, 0.0, 2023-09-26 15:08:56.579
90.0, -13554.164892931569, -162192.59496838987, -18127.600029420857, -19860.374314829627, -21518.717291202225, -20412.976492998183, -187500.02235174447, -20379.02419317057, -13089.963864083751, -15433.410159755966, 7077.813992239713, -60213.02911198487, -22957.297916090243, -29633.495763957, 13597.907256830606, 7445.835464696344, 0.058, 0.96, -0.28, 192.0, 0.0, 0.0, 0.0, 0.0, 0.0, 0.0, 0.0, 0.0, 0.0, 1.695758936638292E9, 0.0, 2023-09-26 15:08:56.638
92.0, -13632.08307410277, -162279.6550130433, -18140.00524759355, -19867.370410844138, -21539.37030307893, -20403.566408582497, -187500.02235174447, -20385.908530462806, -13094.121288552438, -15435.53357547922, 7129.5582806537495, -60155.0486868678, -22954.816872455704, -29637.720243659052, 13636.553422993831, 7453.792685722433, 0.062, 0.97, -0.278, 192.0, 0.5, 120.0, 15.0, 40.0, 123.5, 40.0, 0.0, 0.0, 0.0, 1.695758936638314E9, 0.0, 2023-09-26 15:08:56.638
94.0, -13564.647861081108, -162231.0846723419, -18128.203526521153, -19858.899099695576, -21511.58708472098, -20415.770461055097, -187500.02235174447, -20377.772495481076, -13087.39341347139, -15433.834842900616, 7044.778113934769, -60236.94547855204, -22948.133700863567, -29624.86799059725, 13569.16291346108, 7426.098874342308, 0.062, 0.97, -0.278, 192.0, 0.0, 0.0, 0.0, 0.0, 0.0, 0.0, 0.0, 0.0, 0.0, 1.695758936638325E9, 0.0, 2023-09-26 15:08:56.638
96.0, -13602.489364443943, -162285.3994113683, -18136.026637080507, -19866.006954432363, -21536.21870711073, -20405.823934772485, -187500.02235174447, -20381.348774593924, -13093.048404818584, -15432.627848700029, 7115.342571180174, -60161.530692759836, -22956.40384631203, -29636.222676780544, 13627.813890911806, 7445.969575163076, 0.062, 0.97, -0.278, 192.0, 0.0, 0.0, 0.0, 0.0, 0.0, 0.0, 0.0, 0.0, 0.0, 1.695758936638334E9, 0.0, 2023-09-26 15:08:56.638
98.0, -13528.192165874501, -162237.03023636702, -18118.078186282895, -19850.91952692503, -21514.44810801126, -20406.829763272974, -187500.02235174447, -20373.07862914546, -13090.053271061573, -15424.469461973842, 7035.636250452549, -60241.68404837657, -22952.849918943637, -29622.18578126261, 13566.145427959613, 7426.456502253593, 0.062, 0.97, -0.278, 192.0, 0.0, 0.0, 0.0, 0.0, 0.0, 0.0, 0.0, 0.0, 0.0, 1.695758936638378E9, 0.0, 2023-09-26 15:08:56.638
100.0, -13530.919078698049, -162256.72212323215, -18140.921669116222, -19866.9904311884, -21546.29934386007, -20406.785059784062, -187500.02235174447, -20387.383745596857, -13104.604256701978, -15428.850403887083, 7134.252146989364, -60141.32471577224, -22962.93055569298, -29634.948627346592, 13649.115103377713, 7456.251377612517, 0.062, 0.97, -0.278, 192.0, 0.0, 0.0, 0.0, 0.0, 0.0, 0.0, 0.0, 0.0, 0.0, 1.695758936638387E9, 0.0, 2023-09-26 15:08:56.638
102.0, -13504.745185940885, -162249.16723360625, -18121.520354929013, -19852.528852525815, -21517.622055723914, -20402.89585624884, -187500.02235174447, -20371.759876222597, -13104.35838751297, -15429.29743877619, 7042.4535325114175, -60233.63742037266, -22959.242517857852, -29616.86606608225, 13571.576901862252, 7426.434150509138, 0.062, 0.97, -0.28, 192.0, 0.5, 120.0, 15.0, 40.0, 123.5, 32.0, 0.0, 0.0, 0.0, 1.695758936638399E9, 0.0, 2023-09-26 15:08:56.638
104.0, -13472.916301836527, -162233.56571597647, -18147.560137219447, -19874.74648651439, -21547.79691073858, -20404.058146960517, -187500.02235174447, -20387.339042107946, -13115.73542544072, -15435.265354545756, 7142.946975582478, -60126.08082605372, -22973.681744775982, -29635.686234913617, 13655.999440669948, 7464.230950383062, 0.062, 0.97, -0.28, 192.0, 0.0, 0.0, 0.0, 0.0, 0.0, 0.0, 0.0, 0.0, 0.0, 1.695758936698487E9, 0.0, 2023-09-26 15:08:56.698
106.0, -13487.91432236604, -162267.29449835952, -18124.6272474083, -19851.8359484477, -21519.723119702714, -20392.591702054942, -187500.02235174447, -20368.56357676549, -13105.699492180287, -15435.421816756943, 7040.911262144001, -60222.081568489266, -22959.64484925805, -29613.13332475821, 13574.21440770798, 7431.9773831340535, 0.062, 0.97, -0.28, 192.0, 0.0, 0.0, 0.0, 0.0, 0.0, 0.0, 0.0, 0.0, 0.0, 1.695758936698522E9, 0.0, 2023-09-26 15:08:56.698
108.0, -13431.789092038762, -162230.6376374528, -18141.50281447206, -19864.487035809405, -21527.278009328606, -20398.492562591146, -187500.02235174447, -20378.37599258137, -13110.661579449366, -15423.62009568454, 7128.440693430984, -60131.132320300625, -22970.73131450788, -29622.275188240434, 13649.852710944739, 7470.265921385994, 0.062, 0.97, -0.28, 192.0, 0.0, 0.0, 0.0, 0.0, 0.0, 0.0, 0.0, 0.0, 0.0, 1.695758936698533E9, 0.0, 2023-09-26 15:08:56.698
110.0, -13435.454778129433, -162248.8543091839, -18124.359026474838, -19854.07112289323, -21515.8786196564, -20397.643196301844, -187500.02235174447, -20370.530530277556, -13117.612971974966, -15441.546194737697, 7055.931634417968, -60200.758004278905, -22973.279413375785, -29623.77275511894, 13592.2075619945, 7441.610984994291, 0.062, 0.97, -0.28, 192.0, 0.0, 0.0, 0.0, 0.0, 0.0, 0.0, 0.0, 0.0, 0.0, 1.695758936698542E9, 0.0, 2023-09-26 15:08:56.698
112.0, -13362.051649338204, -162197.60175914786, -18131.39982597826, -19865.492864309894, -21532.30715183105, -20405.868638261396, -187500.02235174447, -20378.107771647905, -13103.620779945944, -15431.420854499444, 7145.5844814282045, -60105.31605545474, -22962.528224292782, -29631.10412730028, 13673.031469944892, 7475.675043544179, 0.064, 0.972, -0.278, 192.0, 1.0, 0.0, 15.0, 48.0, 123.5, 40.0, 0.0, 0.0, 0.0, 1.695758936698552E9, 0.0, 2023-09-26 15:08:56.698
114.0, -13395.93689393245, -162246.2391550826, -18122.30266598495, -19853.512329281846, -21520.77365169211, -20401.934731237263, -187500.02235174447, -20373.056277401003, -13113.187326572815, -15447.849386674094, 7073.097774159643, -60173.8018004658, -22965.21043362742, -29621.38111846222, 13616.682722173062, 7443.488531528536, 0.064, 0.972, -0.278, 192.0, 0.0, 0.0, 0.0, 0.0, 0.0, 0.0, 0.0, 0.0, 0.0, 1.695758936698562E9, 0.0, 2023-09-26 15:08:56.698
116.0, -13312.408424902967, -162184.10130549685, -18136.630134180803, -19867.25865212186, -21535.615210010437, -20409.869600518894, -187500.02235174447, -20384.455667073213, -13102.793765401098, -15436.517052235253, 7151.865321620146, -60093.022596004324, -22965.612765027618, -29624.28684524141, 13692.991577743482, 7476.5914650668465, 0.064, 0.972, -0.278, 192.0, 0.0, 0.0, 0.0, 0.0, 0.0, 0.0, 0.0, 0.0, 0.0, 1.695758936698572E9, 0.0, 2023-09-26 15:08:56.698
118.0, -13384.515152515789, -162269.66378327177, -18121.855631095845, -19850.383085058103, -21521.958294148244, -20399.632501558364, -187500.02235174447, -20374.062105901492, -13113.92493413984, -15452.610308243075, 7077.992806195356, -60161.70950671548, -22969.278451118287, -29616.039051537402, 13629.266754301401, 7438.638202981735, 0.064, 0.972, -0.278, 192.0, 0.0, 0.0, 0.0, 0.0, 0.0, 0.0, 0.0, 0.0, 0.0, 1.695758936698582E9, 0.0, 2023-09-26 15:08:56.698
120.0, -13280.400726842969, -162188.01286077654, -18130.885735855787, -19859.077913651217, -21529.982570407697, -20404.75105103863, -187500.02235174447, -20380.45470481571, -13102.25732353417, -15442.037933115715, 7133.939222566989, -60105.45016592147, -22969.345506351652, -29619.592978905795, 13682.173333427112, 7469.595369052336, 0.064, 0.972, -0.278, 192.0, 0.0, 0.0, 0.0, 0.0, 0.0, 0.0, 0.0, 0.0, 0.0, 1.695758936758738E9, 0.0, 2023-09-26 15:08:56.758
122.0, -13357.804817891696, -162275.87756823035, -18121.006264806543, -19846.046846633773, -21520.97481739221, -20391.049431687527, -187500.02235174447, -20367.31187907599, -13106.347692769492, -15461.282785091733, 7080.1385736630655, -60154.66870721206, -22966.126855150087, -29608.48416191151, 13636.17344333809, 7447.109514130297, 0.064, 0.972, -0.276, 192.0, 1.0, 0.0, 15.0, 48.0, 123.5, 48.0, 0.0, 0.0, 0.0, 1.695758936758771E9, 0.0, 2023-09-26 15:08:56.758
124.0, -13270.521255793723, -162206.67656739673, -18121.319189228918, -19844.482224521904, -21506.15561081834, -20392.79286775504, -187500.02235174447, -20364.339097063435, -13093.942474596797, -15444.071941861146, 7112.973286267911, -60122.12456728513, -22953.721636977392, -29610.160542745656, 13668.784638498384, 7473.864552243299, 0.064, 0.972, -0.276, 192.0, 0.0, 0.0, 0.0, 0.0, 0.0, 0.0, 0.0, 0.0, 0.0, 1.695758936758781E9, 0.0, 2023-09-26 15:08:56.758
126.0, -13365.203245306402, -162306.9688447677, -18119.352235716848, -19846.359771056148, -21512.34704403246, -20390.3118241205, -187500.02235174447, -20358.88527141634, -13107.062948592062, -15463.160331625979, 7074.885913716068, -60157.19445433551, -22953.721636977392, -29606.047821765882, 13631.300763046833, 7455.737287490045, 0.064, 0.972, -0.276, 192.0, 0.0, 0.0, 0.0, 0.0, 0.0, 0.0, 0.0, 0.0, 0.0, 1.695758936758791E9, 0.0, 2023-09-26 15:08:56.758
128.0, -13253.846854430063, -162212.82329712194, -18122.436776451683, -19857.669753750535, -21512.481154499194, -20400.83949575895, -187500.02235174447, -20365.50138777511, -13091.260265262159, -15451.96210765387, 7092.141460435565, -60141.61528845016, -22943.305724061218, -29613.53565615841, 13653.585452268775, 7474.445697599137, 0.064, 0.972, -0.276, 192.0, 0.0, 0.0, 0.0, 0.0, 0.0, 0.0, 0.0, 0.0, 0.0, 1.6957589367588E9, 0.0, 2023-09-26 15:08:56.758
130.0, -13333.083788524127, -162297.93874000772, -18133.478538212603, -19860.329611340716, -21525.713387216736, -20404.75105103863, -187500.02235174447, -20375.537321035543, -13107.174707314338, -15477.845427733117, 7076.986977694867, -60155.2498525679, -22957.029695156776, -29614.452077681075, 13637.738065449961, 7454.686755500646, 0.064, 0.972, -0.276, 192.0, 0.0, 0.0, 0.0, 0.0, 0.0, 0.0, 0.0, 0.0, 0.0, 1.695758936758809E9, 0.0, 2023-09-26 15:08:56.758
132.0, -13225.057807571628, -162205.76014587405, -18127.287104998482, -19857.49093979489, -21520.863058669933, -20408.528495851577, -187500.02235174447, -20378.46539955919, -13099.351596754981, -15478.426573088953, 7084.787736509769, -60143.87281464015, -22961.097712647643, -29626.72318538704, 13656.312365092323, 7466.086145172852, 0.058, 0.976, -0.274, 192.0, 0.5, 104.0, 15.0, 64.0, 123.5, 56.0, 0.0, 0.0, 0.0, 1.695758936758818E9, 0.0, 2023-09-26 15:08:56.758
134.0, -13294.638788060998, -162282.87366424486, -18137.77007314802, -19860.754294485367, -21544.51120430365, -20404.773402783085, -187500.02235174447, -20386.310861863003, -13113.41084401737, -15494.586884330141, 7110.827518800202, -60113.295628225285, -22967.19973888394, -29626.834944109316, 13674.66314729013, 7461.124057903774, 0.058, 0.976, -0.274, 192.0, 0.0, 0.0, 0.0, 0.0, 0.0, 0.0, 0.0, 0.0, 0.0, 1.695758936819084E9, 0.0, 2023-09-26 15:08:56.819
136.0, -13205.388272450957, -162213.1809250332, -18113.943113558664, -19843.141119854587, -21515.29747430056, -20401.934731237263, -187500.02235174447, -20366.84249244243, -13092.780183885121, -15481.041727190224, 7073.924788704489, -60150.73480018793, -22952.849918943637, -29615.793182348396, 13647.975164410493, 7457.525427046469, 0.058, 0.976, -0.274, 192.0, 0.0, 0.0, 0.0, 0.0, 0.0, 0.0, 0.0, 0.0, 0.0, 1.695758936819108E9, 0.0, 2023-09-26 15:08:56.819
138.0, -13267.414363314434, -162277.82216999796, -18128.605857921346, -19852.238279847894, -21536.084596643996, -20397.665548046298, -187500.02235174447, -20372.966870423184, -13101.944399111797, -15490.697680794918, 7116.750731080858, -60105.405462432565, -22959.711904491414, -29614.250911980977, 13680.720470037517, 7463.225121882573, 0.058, 0.976, -0.274, 192.0, 0.0, 0.0, 0.0, 0.0, 0.0, 0.0, 0.0, 0.0, 0.0, 1.695758936819118E9, 0.0, 2023-09-26 15:08:56.819
140.0, -13175.548693603123, -162200.21691324914, -18122.637942151778, -19851.098340880675, -21512.235285310184, -20409.24375167415, -187500.02235174447, -20370.396419810822, -13097.742271154199, -15493.558704085197, 7075.623521283093, -60147.18087281953, -22961.477692303382, -29616.91076957116, 13656.245309858956, 7456.9219299461765, 0.058, 0.976, -0.274, 192.0, 0.0, 0.0, 0.0, 0.0, 0.0, 0.0, 0.0, 0.0, 0.0, 1.695758936819128E9, 0.0, 2023-09-26 15:08:56.819
142.0, -13213.501955688234, -162245.5015475156, -18141.21224179414, -19868.64446027809, -21540.622000768424, -20413.445879631745, -187500.02235174447, -20380.90173970482, -13110.505117238179, -15503.482878623354, 7136.979059812911, -60080.304453409255, -22969.74783775185, -29629.539505188408, 13704.368615671232, 7467.986043451553, 0.058, 0.976, -0.274, 192.0, 0.5, 104.0, 15.0, 64.0, 123.5, 56.0, 0.0, 0.0, 0.0, 1.695758936819171E9, 0.0, 2023-09-26 15:08:56.819
144.0, -13141.484635053235, -162188.4822474101, -18120.20160200615, -19852.8864804371, -21519.812526680533, -20412.350644153434, -187500.02235174447, -20364.070876129972, -13111.600352716488, -15512.02124500528, 7090.129803434587, -60123.73389288592, -22963.10936964862, -29633.24989476799, 13675.75838276844, 7456.6313572682575, 0.058, 0.976, -0.274, 192.0, 0.0, 0.0, 0.0, 0.0, 0.0, 0.0, 0.0, 0.0, 0.0, 1.695758936819181E9, 0.0, 2023-09-26 15:08:56.819
146.0, -13205.99176955125, -162261.05836165647, -18128.605857921346, -19851.8359484477, -21535.995189666177, -20395.810353256507, -187500.02235174447, -20364.629669741353, -13106.839431147508, -15515.061082251203, 7142.7681616268355, -60070.04500270427, -22958.169634124, -29621.045842295393, 13715.499784409974, 7468.343671362838, 0.058, 0.976, -0.274, 192.0, 0.0, 0.0, 0.0, 0.0, 0.0, 0.0, 0.0, 0.0, 0.0, 1.695758936819191E9, 0.0, 2023-09-26 15:08:56.819
148.0, -13164.931614986852, -162236.31498054447, -18114.16663100322, -19840.190689586485, -21511.877657398898, -20399.207818413714, -187500.02235174447, -20355.487806259134, -13098.92691361033, -15525.164070745, 7054.791695450747, -60158.98259389193, -22954.995686411345, -29618.52009517194, 13645.114141120213, 7443.399124550716, 0.058, 0.976, -0.274, 192.0, 0.0, 0.0, 0.0, 0.0, 0.0, 0.0, 0.0, 0.0, 0.0, 1.6957589368192E9, 0.0, 2023-09-26 15:08:56.819
150.0, -13176.7109843148, -162259.2031668667, -18124.53784043048, -19851.88065193661, -21538.02919841161, -20400.906550992317, -187500.02235174447, -20362.953288907207, -13096.378814742426, -15518.50325089732, 7132.911042322045, -60076.14702894056, -22956.49325328985, -29617.447211438088, 13708.190763973089, 7469.751831263523, 0.058, 0.976, -0.274, 192.0, 0.0, 0.0, 0.0, 0.0, 0.0, 0.0, 0.0, 0.0, 0.0, 1.695758936879479E9, 0.0, 2023-09-26 15:08:56.879
152.0, -13163.389344619436, -162259.80666396697, -18098.520409884502, -19832.233468560396, -21507.49671548566, -20398.201989913225, -187500.02235174447, -20345.07189334296, -13097.854029876475, -15530.863765581104, 7040.218358065887, -60171.387812064626, -22951.73233172087, -29611.032260779415, 13629.914954890604, 7435.017220379976, 0.058, 0.972, -0.274, 192.0, 0.5, 104.0, 15.0, 48.0, 123.5, 56.0, 0.0, 0.0, 0.0, 1.695758936879502E9, 0.0, 2023-09-26 15:08:56.879
154.0, -13112.941457383808, -162218.8359163804, -18126.281276497994, -19858.45206480647, -21534.251753598663, -20410.94248425275, -187500.02235174447, -20365.03200114155, -13101.698529922787, -15532.853070837626, 7149.049001818777, -60060.992546199865, -22958.728427735383, -29625.225618508535, 13724.887517081204, 7480.324206390883, 0.058, 0.972, -0.274, 192.0, 0.0, 0.0, 0.0, 0.0, 0.0, 0.0, 0.0, 0.0, 0.0, 1.695758936879512E9, 0.0, 2023-09-26 15:08:56.879
156.0, -13122.485652266223, -162239.6900939572, -18108.8245640784, -19842.179994843005, -21511.251808554152, -20403.789926027053, -187500.02235174447, -20349.20696606719, -13114.21550681776, -15558.46816998341, 7071.130820647576, -60132.67459066804, -22964.137549893567, -29625.24797025299, 13667.376478597698, 7446.036630396442, 0.058, 0.972, -0.274, 192.0, 0.0, 0.0, 0.0, 0.0, 0.0, 0.0, 0.0, 0.0, 0.0, 1.695758936879521E9, 0.0, 2023-09-26 15:08:56.879
158.0, -13084.867666347942, -162214.56673318945, -18123.95669507464, -19852.17122461453, -21520.304265058552, -20400.884199247863, -187500.02235174447, -20354.258460314093, -13106.727672425232, -15552.50025421384, 7154.301661765774, -60046.73213323738, -22963.824625471192, -29629.606560421773, 13742.232470778523, 7477.798459267433, 0.058, 0.972, -0.274, 192.0, 0.0, 0.0, 0.0, 0.0, 0.0, 0.0, 0.0, 0.0, 0.0, 1.69575893687953E9, 0.0, 2023-09-26 15:08:56.879
160.0, -13118.30587605308, -162258.08557964393, -18100.86734305231, -19834.088663350187, -21501.618206693915, -20396.07857418997, -187500.02235174447, -20338.612239195376, -13121.50217551019, -15567.565329976718, 7058.278567585775, -60142.26348903937, -22957.1191021346, -29617.00017654898, 13663.554330295841, 7440.158121604696, 0.058, 0.972, -0.274, 192.0, 0.0, 0.0, 0.0, 0.0, 0.0, 0.0, 0.0, 0.0, 0.0, 1.695758936879539E9, 0.0, 2023-09-26 15:08:56.879
162.0, -13038.845424514464, -162206.85538135236, -18105.06947100991, -19838.06727386323, -21511.274160298606, -20392.010556699104, -187500.02235174447, -20336.667637427767, -13099.463355477257, -15550.13096930158, 7144.779818627813, -60053.817636229716, -22955.286259089266, -29625.404432464176, 13740.936069600115, 7472.679909787168, 0.064, 0.97, -0.276, 192.0, 1.0, 0.0, 15.0, 40.0, 123.5, 48.0, 0.0, 0.0, 0.0, 1.695758936879581E9, 0.0, 2023-09-26 15:08:56.879
164.0, -13104.112518323962, -162299.2574929306, -18075.43105786217, -19809.479392704892, -21488.184808276274, -20365.63549824184, -187500.02235174447, -20308.325625458434, -13096.44586997579, -15562.402077007542, 7067.822762468191, -60127.73485514341, -22945.87617467358, -29608.260644466955, 13671.355089110744, 7438.504092515003, 0.064, 0.97, -0.276, 192.0, 0.0, 0.0, 0.0, 0.0, 0.0, 0.0, 0.0, 0.0, 0.0, 1.695758936938127E9, 0.0, 2023-09-26 15:08:56.938
166.0, -12988.419889023291, -162222.97098910465, -18082.67302306569, -19826.153794068552, -21496.454953724737, -20383.829818228463, -187500.02235174447, -20315.589942406412, -13084.331224481015, -15544.811254121216, 7125.803187585258, -60069.955595726446, -22940.645866471037, -29612.57453114683, 13722.250011235477, 7470.265921385994, 0.064, 0.97, -0.276, 192.0, 0.0, 0.0, 0.0, 0.0, 0.0, 0.0, 0.0, 0.0, 0.0, 1.695758936938153E9, 0.0, 2023-09-26 15:08:56.938
168.0, -13003.57437176399, -162299.9503970087, -18072.704145038624, -19807.803011870743, -21491.470514711204, -20367.490693031632, -187500.02235174447, -20298.78143057602, -13104.626608446433, -15555.428332737487, 7086.285303388275, -60102.72325309792, -22951.330000320675, -29609.892321812193, 13691.628121331707, 7448.6517844977125, 0.064, 0.97, -0.276, 192.0, 0.0, 0.0, 0.0, 0.0, 0.0, 0.0, 0.0, 0.0, 0.0, 1.695758936938163E9, 0.0, 2023-09-26 15:08:56.938
170.0, -12813.986875294075, -162233.3869020208, -18072.659441549713, -19802.550351923746, -21480.987546561664, -20366.484864531143, -187500.02235174447, -20281.995270490082, -13093.383680985413, -15534.663562138507, 7128.999487042366, -60058.98088919889, -22943.797462439237, -29607.254815966466, 13732.91179334066, 7470.936473719654, 0.064, 0.97, -0.276, 192.0, 0.0, 0.0, 0.0, 0.0, 0.0, 0.0, 0.0, 0.0, 0.0, 1.695758936938172E9, 0.0, 2023-09-26 15:08:56.938
172.0, -12760.409743834703, -162325.47608917666, -18078.560302085913, -19796.090697776162, -21482.999203562642, -20382.041678672038, -187500.02235174447, -20263.95741271465, -13100.089204322006, -15558.490521727863, 7101.9762279959, -60081.15381969856, -22956.202680611932, -29615.592016648297, 13707.721377339529, 7450.66344149869, 0.056, 0.978, -0.276, 192.0, 0.5, 96.0, 15.0, 72.0, 123.5, 48.0, 0.0, 0.0, 0.0, 1.695758936938181E9, 0.0, 2023-09-26 15:08:56.938
174.0, -12430.27447822982, -162244.294553315, -18071.7653717715, -19787.775848838788, -21472.315069713008, -20393.195199155238, -187500.02235174447, -20251.35102884186, -13072.596558641979, -15534.149472016034, 7143.729286638414, -60036.606792999126, -22951.665276487503, -29623.43747895211, 13752.380162761232, 7474.803325510422, 0.056, 0.978, -0.276, 192.0, 0.0, 0.0, 0.0, 0.0, 0.0, 0.0, 0.0, 0.0, 0.0, 1.695758936938191E9, 0.0, 2023-09-26 15:08:56.938
176.0, -12219.743397205282, -162370.6266129764, -18059.337801854348, -19764.597089838637, -21451.013857247097, -20381.058201916007, -187500.02235174447, -20245.092540394373, -13100.759756655665, -15542.710190142418, 7120.371713682618, -60050.88955770607, -22953.49811953284, -29615.949644559583, 13727.86029909376, 7453.211540366596, 0.056, 0.978, -0.276, 192.0, 0.0, 0.0, 0.0, 0.0, 0.0, 0.0, 0.0, 0.0, 0.0, 1.6957589369382E9, 0.0, 2023-09-26 15:08:56.938
178.0, -11624.494090615999, -162312.98146402615, -18053.414589573695, -19745.95573496291, -21422.358920855397, -20377.660736758797, -187500.02235174447, -20225.937095396173, -13076.508113921656, -15527.846280079637, 7124.372675940118, -60046.15098788154, -22935.616723968593, -29602.784467075406, 13734.610525919263, 7467.918988218187, 0.056, 0.978, -0.276, 192.0, 0.0, 0.0, 0.0, 0.0, 0.0, 0.0, 0.0, 0.0, 0.0, 1.695758936938214E9, 0.0, 2023-09-26 15:08:56.938
180.0, -11110.783947799677, -162433.90440152938, -18083.745906799544, -19842.291753565285, -21457.16058697231, -20375.805541969006, -187500.02235174447, -20203.540647451955, -13068.886169062396, -15549.013382078814, 7157.65442343407, -60001.022815826276, -22948.223107841386, -29621.492877184497, 13754.727095929038, 7474.043366198942, 0.056, 0.978, -0.276, 192.0, 0.0, 0.0, 0.0, 0.0, 0.0, 0.0, 0.0, 0.0, 0.0, 1.695758936998413E9, 0.0, 2023-09-26 15:08:56.998
182.0, -10559.008784175967, -162386.7869242176, -18136.652485925257, -19848.282021079307, -21450.946802013732, -20367.93772792074, -187500.02235174447, -20130.718664016567, -13025.948467963752, -15521.207811976412, 7153.474647220928, -59981.59914989462, -22944.40095953953, -29621.090545784304, 13751.933127872126, 7481.531200591469, 0.056, 0.98, -0.296, 192.0, 0.5, 96.0, 15.0, 80.0, 123.0, 96.0, 0.0, 0.0, 0.0, 1.695758936998452E9, 0.0, 2023-09-26 15:08:56.998
184.0, -10287.256275088344, -162557.73306581177, -18133.143262045774, -19839.11780585263, -21444.084816465955, -20343.03788459753, -187500.02235174447, -20137.290076886427, -13018.237116126671, -15511.998893260825, 7196.457051808483, -59869.34868924006, -22925.267866285787, -29614.496781169986, 13779.314014829877, 7484.8616105153105, 0.056, 0.98, -0.296, 192.0, 0.0, 0.0, 0.0, 0.0, 0.0, 0.0, 0.0, 0.0, 0.0, 1.695758936998508E9, 0.0, 2023-09-26 15:08:56.998
186.0, -9863.355441493446, -162540.87985049246, -18140.049951082463, -19825.527945223803, -21399.537789766528, -20355.957192892696, -187500.02235174447, -20141.089873443827, -13004.58020026448, -15497.894942509527, 7141.896443593078, -59783.1603626204, -22900.792706107226, -29594.335507671298, 13732.218889262545, 7481.888828502754, 0.056, 0.98, -0.296, 192.0, 0.0, 0.0, 0.0, 0.0, 0.0, 0.0, 0.0, 0.0, 0.0, 1.695758936998522E9, 0.0, 2023-09-26 15:08:56.998
188.0, -9402.283656869371, -162675.72792479134, -18176.259777100062, -19823.06925333372, -21409.081984648943, -20345.92125963226, -187500.02235174447, -20172.762295336997, -13028.742436020666, -15533.188347004456, 7207.834089736234, -59515.364112301366, -22924.53025871876, -29605.019641520936, 13785.326634088355, 7496.596276354347, 0.056, 0.98, -0.296, 192.0, 0.0, 0.0, 0.0, 0.0, 0.0, 0.0, 0.0, 0.0, 0.0, 1.695758936998536E9, 0.0, 2023-09-26 15:08:56.998
190.0, -8644.112484945355, -162642.0885493861, -18168.257852585062, -19809.50174444935, -21388.160751838775, -20344.378989264846, -187500.02235174447, -20185.502789676524, -13017.186584137271, -15551.069742568701, 7145.629184917115, -59384.87462817128, -22904.324281731166, -29596.168350716634, 13718.964304800547, 7486.761508794011, 0.056, 0.98, -0.296, 192.0, 0.0, 0.0, 0.0, 0.0, 0.0, 0.0, 0.0, 0.0, 0.0, 1.695758936998549E9, 0.0, 2023-09-26 15:08:56.998
192.0, -8224.950221174982, -162740.52563196726, -18169.576605507926, -19809.479392704892, -21403.270531090562, -20319.88147734183, -187500.02235174447, -20201.57369393989, -13037.325505891504, -15572.214492823423, 7245.273261698874, -59089.541028683314, -22922.093918573133, -29595.318984427333, 13779.895160185715, 7523.932459823187, 0.06, 0.982, -0.27, 192.0, 0.5, 112.0, 15.0, 88.0, 123.5, 72.0, 0.0, 0.0, 0.0, 1.695758936998562E9, 0.0, 2023-09-26 15:08:56.998
194.0, -7761.240930705182, -162755.72481819688, -18136.563078947434, -19782.612595869614, -21369.0947138184, -20305.285788212514, -187500.02235174447, -20194.577597925378, -13009.229363111182, -15575.142571347067, 7169.813772417757, -58982.25265529784, -22907.25236025481, -29578.28695515239, 13667.04120243087, 7504.195869469151, 0.06, 0.982, -0.27, 192.0, 0.0, 0.0, 0.0, 0.0, 0.0, 0.0, 0.0, 0.0, 0.0, 1.695758937058716E9, 0.0, 2023-09-26 15:08:57.058
196.0, -7405.691731654612, -162863.437874727, -18162.15582634876, -19796.29186347626, -21381.99167036911, -20294.31108168496, -187500.02235174447, -20212.615455700812, -13002.546191519046, -15590.811144210238, 7253.275186213874, -58712.042416577635, -22913.421441724473, -29578.28695515239, 13649.338620822266, 7528.335753480882, 0.06, 0.982, -0.27, 192.0, 0.0, 0.0, 0.0, 0.0, 0.0, 0.0, 0.0, 0.0, 0.0, 1.695758937058739E9, 0.0, 2023-09-26 15:08:57.058
198.0, -7065.453477555929, -162929.84490750372, -18149.772959920523, -19774.54361612125, -21342.920821061234, -20283.224616435127, -187500.02235174447, -20179.356059951315, -12983.860133154409, -15599.505972803352, 7155.910987366556, -58626.524642291624, -22907.162953276988, -29561.18787064408, 13463.036830787281, 7494.606971097824, 0.06, 0.982, -0.27, 192.0, 0.0, 0.0, 0.0, 0.0, 0.0, 0.0, 0.0, 0.0, 0.0, 1.695758937058749E9, 0.0, 2023-09-26 15:08:57.058
200.0, -6788.068328865568, -163002.30926302783, -18161.26175657055, -19768.95568000742, -21363.484425960116, -20264.09152318138, -187500.02235174447, -20160.71470507559, -12991.437374524758, -15603.149307149568, 7243.954508776011, -58353.98982214807, -22906.44769745442, -29565.4794055795, 13453.4255806715, 7520.065608032419, 0.06, 0.982, -0.27, 192.0, 0.0, 0.0, 0.0, 0.0, 0.0, 0.0, 0.0, 0.0, 0.0, 1.695758937058759E9, 0.0, 2023-09-26 15:08:57.058
202.0, -6506.704569662163, -163109.68704339114, -18151.225823310117, -19739.96546744889, -21339.50100415957, -20252.938002698185, -187500.02235174447, -20135.613696052278, -12969.934996358752, -15614.414586355042, 7134.721533622925, -58284.49824863652, -22874.10472322759, -29532.59998948574, 13299.19854392988, 7477.463183100604, 0.06, 0.986, -0.268, 192.0, 0.5, 112.0, 15.0, 104.0, 123.5, 80.0, 0.0, 0.0, 0.0, 1.69575893705877E9, 0.0, 2023-09-26 15:08:57.058
204.0, -6184.012434960894, -163153.58586950134, -18177.84675095639, -19760.81964502569, -21361.673934659237, -20262.325735369413, -187500.02235174447, -20157.317239918382, -12976.70757492871, -15683.190904044022, 7218.8534997527, -58020.92647801954, -22881.9501855314, -29558.23744037598, 13294.974064227828, 7508.375645682293, 0.06, 0.986, -0.268, 192.0, 0.0, 0.0, 0.0, 0.0, 0.0, 0.0, 0.0, 0.0, 0.0, 1.69575893705878E9, 0.0, 2023-09-26 15:08:57.058
206.0, -5947.709792579388, -163248.1784520362, -18159.943003647688, -19738.892583715035, -21341.087978015898, -20256.022543433017, -187500.02235174447, -20136.485414086033, -12975.791153406044, -15753.867120011702, 7149.764257641346, -57911.96172379991, -22883.29129019872, -29550.548440283354, 13168.820818522076, 7480.52537209098, 0.06, 0.986, -0.268, 192.0, 0.0, 0.0, 0.0, 0.0, 0.0, 0.0, 0.0, 0.0, 0.0, 1.69575893705882E9, 0.0, 2023-09-26 15:08:57.058
208.0, -5748.9133773938875, -163315.25603714658, -18158.44543676918, -19736.456243569406, -21349.13460601981, -20244.064360149427, -187500.02235174447, -20129.69048377162, -12954.355830473403, -15791.015719296423, 7218.3170578857735, -57675.52497095168, -22873.43417089393, -29551.196640872557, 13153.845149737019, 7508.710921849123, 0.06, 0.986, -0.268, 192.0, 0.0, 0.0, 0.0, 0.0, 0.0, 0.0, 0.0, 0.0, 0.0, 1.695758937058831E9, 0.0, 2023-09-26 15:08:57.058
210.0, -5713.642324643412, -163487.6997456193, -18129.29876199946, -19703.934455386934, -21318.17743994921, -20219.633903459777, -187500.02235174447, -20108.635140494724, -12946.264498980583, -15816.116728319734, 7113.755597323847, -57622.23841217023, -22859.978420731833, -29520.686509691062, 12987.794040178544, 7477.463183100604, 0.06, 0.986, -0.268, 192.0, 0.0, 0.0, 0.0, 0.0, 0.0, 0.0, 0.0, 0.0, 0.0, 1.695758937119129E9, 0.0, 2023-09-26 15:08:57.119
212.0, -5530.246261387618, -163506.00582432817, -18144.565003462434, -19719.535973016737, -21328.392187165286, -20229.446319275656, -187500.02235174447, -20135.568992563367, -12934.149853485806, -15822.129347578211, 7180.408499289572, -57399.03389203953, -22860.537214343218, -29525.670948704596, 12977.445182495736, 7527.5981459138575, 0.058, 0.978, -0.268, 192.0, 0.5, 104.0, 15.0, 72.0, 123.5, 80.0, 0.0, 0.0, 0.0, 1.695758937119155E9, 0.0, 2023-09-26 15:08:57.119
214.0, -5526.066485174476, -163681.4893700468, -18137.859480125844, -19706.52725774375, -21319.429137638705, -20216.325845280393, -187500.02235174447, -20135.121957674262, -12950.488978682635, -15861.42371433064, 7116.750731080858, -57303.524887982, -22872.00365924879, -29523.011091114415, 12856.634003714802, 7508.777977082489, 0.058, 0.978, -0.268, 192.0, 0.0, 0.0, 0.0, 0.0, 0.0, 0.0, 0.0, 0.0, 0.0, 1.695758937119166E9, 0.0, 2023-09-26 15:08:57.119
216.0, -5388.804422474435, -163722.90715252247, -18141.324000516415, -19704.22502806485, -21324.614742352336, -20212.123717322793, -187500.02235174447, -20130.27162912746, -12929.903022039298, -15866.274042877441, 7145.696240150481, -57125.13561548419, -22855.172795673945, -29518.719556178996, 12820.938267819676, 7539.422218730715, 0.058, 0.978, -0.268, 192.0, 0.0, 0.0, 0.0, 0.0, 0.0, 0.0, 0.0, 0.0, 0.0, 1.695758937119175E9, 0.0, 2023-09-26 15:08:57.119
218.0, -5423.941364758178, -163920.78714618532, -18139.22293653762, -19698.05594659519, -21330.06856799943, -20201.551342195435, -187500.02235174447, -20121.84502146781, -12918.503632367092, -15898.23703744853, 7078.775117251292, -57044.15524532262, -22853.652877050983, -29505.50967520591, 12692.84042034631, 7523.552480167446, 0.058, 0.978, -0.268, 192.0, 0.0, 0.0, 0.0, 0.0, 0.0, 0.0, 0.0, 0.0, 0.0, 1.695758937119184E9, 0.0, 2023-09-26 15:08:57.119
220.0, -5286.388729380218, -163953.53245181232, -18139.468805726625, -19698.48062973984, -21324.637094096794, -20198.869132860797, -187500.02235174447, -20120.816841222866, -12907.908905495276, -15911.491621910529, 7100.188088439476, -56881.70276662145, -22856.133920685523, -29510.069431074793, 12646.013515712442, 7548.7875996574885, 0.058, 0.978, -0.268, 192.0, 0.0, 0.0, 0.0, 0.0, 0.0, 0.0, 0.0, 0.0, 0.0, 1.695758937119193E9, 0.0, 2023-09-26 15:08:57.119
222.0, -5317.882337317746, -164139.81189010286, -18140.87696562731, -19701.051080352197, -21336.327056446917, -20210.84966788884, -187500.02235174447, -20126.40477733669, -12905.830193260932, -15938.157253045709, 7063.933558932968, -56776.738974659325, -22867.309792913176, -29511.566997953298, 12545.162444730096, 7537.544672196469, 0.058, 0.978, -0.272, 192.0, 0.5, 104.0, 15.0, 72.0, 123.5, 64.0, 0.0, 0.0, 0.0, 1.695758937119202E9, 0.0, 2023-09-26 15:08:57.119
224.0, -5177.043995504856, -164161.13545431322, -18138.261811526037, -19706.66136821048, -21324.32416967442, -20225.445357018158, -187500.02235174447, -20123.409643579682, -12878.650472003279, -15961.224253323586, 7070.124992147088, -56636.66059215792, -22863.398237633497, -29530.722442951497, 12488.701938235992, 7549.525207224514, 0.058, 0.978, -0.272, 192.0, 0.0, 0.0, 0.0, 0.0, 0.0, 0.0, 0.0, 0.0, 0.0, 1.695758937179548E9, 0.0, 2023-09-26 15:08:57.179
226.0, -5231.738714186992, -164360.8482910214, -18144.766169162533, -19710.19294383442, -21333.9354197902, -20222.24905756105, -187500.02235174447, -20120.906248200685, -12873.286053334004, -16021.484556375093, 7060.156114120021, -56518.621029689435, -22869.924947014446, -29531.616512729706, 12411.297847187263, 7541.880910620798, 0.058, 0.978, -0.272, 192.0, 0.0, 0.0, 0.0, 0.0, 0.0, 0.0, 0.0, 0.0, 0.0, 1.695758937179574E9, 0.0, 2023-09-26 15:08:57.179
228.0, -5100.779843423348, -164381.12132324235, -18142.799215650466, -19711.914028157476, -21317.864515526835, -20225.579467484888, -187500.02235174447, -20123.87903021324, -12846.240442543083, -16044.216280486142, 7048.0638203697, -56404.895353900836, -22877.0998569846, -29534.432832531078, 12349.003535390322, 7560.298748051971, 0.058, 0.978, -0.272, 192.0, 0.0, 0.0, 0.0, 0.0, 0.0, 0.0, 0.0, 0.0, 0.0, 1.695758937179616E9, 0.0, 2023-09-26 15:08:57.179
230.0, -5171.657225091127, -164584.96923267475, -18153.013962866542, -19717.278446826753, -21353.22497525513, -20224.551287239945, -187500.02235174447, -20142.967419978075, -12819.507756174537, -16089.56796998596, 7051.505989015817, -56276.9316168942, -22885.213540221877, -29523.189905070056, 12287.647996860505, 7562.176294586217, 0.058, 0.978, -0.272, 192.0, 0.0, 0.0, 0.0, 0.0, 0.0, 0.0, 0.0, 0.0, 0.0, 1.695758937179625E9, 0.0, 2023-09-26 15:08:57.179
232.0, -5053.885883556114, -164606.69512828533, -18142.88862262829, -19720.6535602395, -21343.79253909499, -20235.81656644542, -187500.02235174447, -20164.492149888534, -12798.608875108825, -16135.14317693033, 7027.053180581711, -56185.46827858309, -22887.42636292295, -29532.488230763465, 12216.79296693718, 7576.682576737711, 0.064, 0.98, -0.27, 192.0, 1.0, 0.0, 15.0, 80.0, 123.5, 72.0, 0.0, 0.0, 0.0, 1.695758937179634E9, 0.0, 2023-09-26 15:08:57.179
234.0, -5142.890529977147, -164816.46624999837, -18153.55040473347, -19734.533993546247, -21368.111237062363, -20236.91180192373, -187500.02235174447, -20196.09751654834, -12785.600159835836, -16182.73004087568, 7062.435992054462, -56031.95649766404, -22896.367060705074, -29530.02953887338, 12185.79109737767, 7583.723376241133, 0.064, 0.98, -0.27, 192.0, 0.0, 0.0, 0.0, 0.0, 0.0, 0.0, 0.0, 0.0, 0.0, 1.695758937179644E9, 0.0, 2023-09-26 15:08:57.179
236.0, -5050.242549209899, -164861.3262011202, -18148.40950350875, -19740.81483373819, -21354.208452011164, -20253.943831198674, -187500.02235174447, -20220.75149068254, -12759.783894989956, -16234.451977545259, 6996.677159866948, -55986.269531997394, -22889.77329609076, -29534.164611597615, 12082.079003105046, 7573.553332513969, 0.064, 0.98, -0.27, 192.0, 0.0, 0.0, 0.0, 0.0, 0.0, 0.0, 0.0, 0.0, 0.0, 1.695758937179653E9, 0.0, 2023-09-26 15:08:57.179
238.0, -5117.767169209382, -165059.0050290829, -18163.966317649643, -19751.23074665436, -21376.403734255284, -20250.792235230474, -187500.02235174447, -20243.34910432686, -12763.740153758545, -16319.61212391998, 7047.683840713959, -55821.67128582851, -22896.679985127448, -29542.635922746173, 12070.210226799278, 7581.287036095505, 0.064, 0.98, -0.27, 192.0, 0.0, 0.0, 0.0, 0.0, 0.0, 0.0, 0.0, 0.0, 0.0, 1.695758937179662E9, 0.0, 2023-09-26 15:08:57.179
240.0, -5012.535156313796, -165103.97673892698, -18167.430838040214, -19773.806008554224, -21365.317269005453, -20281.995270490082, -187500.02235174447, -20276.653203565267, -12768.925758472176, -16395.00455796773, 6970.883246765524, -55791.004692435825, -22897.506999672296, -29534.388129042167, 11963.79357144756, 7564.947910898675, 0.064, 0.98, -0.27, 192.0, 0.0, 0.0, 0.0, 0.0, 0.0, 0.0, 0.0, 0.0, 0.0, 1.695758937239001E9, 0.0, 2023-09-26 15:08:57.239
