%OpenBCI Raw EXG Data
%Number of channels = 16
%Sample Rate = 125 Hz
%Board = OpenBCI_GUI$BoardCytonSerialDaisy
Sample Index, EXG Channel 0, EXG Channel 1, EXG Channel 2, EXG Channel 3, EXG Channel 4, EXG Channel 5, EXG Channel 6, EXG Channel 7, EXG Channel 8, EXG Channel 9, EXG Channel 10, EXG Channel 11, EXG Channel 12, EXG Channel 13, EXG Channel 14, EXG Channel 15, Accel Channel 0, Accel Channel 1, Accel Channel 2, Other, Other, Other, Other, Other, Other, Other, Analog Channel 0, Analog Channel 1, Analog Channel 2, Timestamp, Other, Timestamp (Formatted)
0.0, 27336.630503729644, -187500.02235174447, -17532.37307457603, -18945.22684159599, -21342.160861749755, -20253.988534687585, -187500.02235174447, -19737.551479047714, 0.0, 0.0, 0.0, 0.0, 0.0, 0.0, 0.0, 0.0, 0.0, 0.0, 0.0, 192.0, 0.0, 0.0, 0.0, 0.0, 0.0, 0.0, 0.0, 0.0, 0.0, 1.695759013965205E9, 0.0, 2023-09-26 15:10:13.965
224.0, 27440.52141195791, -187500.02235174447, -17523.030045393712, -18920.326998272776, -21335.924725046723, -20260.314078368436, -187500.02235174447, -19743.117063417085, -12458.102400076676, -15380.145952718969, 7282.555971450326, -40182.66978057263, -22501.92582630227, -29423.970511432948, 16531.305495656194, 7228.598860335214, 0.0, 0.0, 0.0, 192.0, 0.0, 0.0, 0.0, 0.0, 0.0, 0.0, 0.0, 0.0, 0.0, 1.695759013965227E9, 0.0, 2023-09-26 15:10:13.965
226.0, 27313.585855196223, -187500.02235174447, -17529.534403030208, -18931.435815267065, -21333.84601281238, -20251.3286770974, -187500.02235174447, -19733.908144701498, -12470.217045571453, -15385.867999299528, 7269.703718388524, -40207.27905121792, -22502.97635829167, -29457.16285194908, 16518.475594338848, 7215.880717740145, 0.022, 0.502, -0.08, 192.0, 0.5, 48.0, 15.5, 48.0, 125.5, 0.0, 0.0, 0.0, 0.0, 1.695759013965237E9, 0.0, 2023-09-26 15:10:13.965
228.0, 27394.94620501354, -187500.02235174447, -17517.106833113055, -18913.353254002723, -21335.03065526851, -20250.38990383028, -187500.02235174447, -19726.28619984224, -12438.656382400559, -15360.141141431468, 7256.091506015242, -40236.895112621205, -22486.056087739, -29430.296055113802, 16514.876963481543, 7222.183909676542, 0.022, 0.502, -0.08, 192.0, 0.0, 0.0, 0.0, 0.0, 0.0, 0.0, 0.0, 0.0, 0.0, 1.695759013965247E9, 0.0, 2023-09-26 15:10:13.965
230.0, 27298.654889900077, -187500.02235174447, -17532.462481553852, -18931.055835611325, -21357.538861935005, -20249.607592774344, -187500.02235174447, -19731.56121153369, -12473.011013628366, -15427.91163061996, 7270.016642810899, -40228.379097983736, -22505.904436815315, -29482.576785394765, 16526.924553742952, 7216.327752629251, 0.022, 0.502, -0.08, 192.0, 0.0, 0.0, 0.0, 0.0, 0.0, 0.0, 0.0, 0.0, 0.0, 1.695759013965257E9, 0.0, 2023-09-26 15:10:13.965
232.0, 27368.16881515608, -187500.02235174447, -17522.627713993515, -18926.339617531255, -21349.380475208818, -20253.474444565112, -187500.02235174447, -19719.893600928022, -12447.865301116146, -15327.149966615436, 7251.688212357547, -40261.862011177785, -22493.27570119807, -29449.339741389722, 16520.040216450718, 7223.569717832771, 0.022, 0.502, -0.08, 192.0, 0.0, 0.0, 0.0, 0.0, 0.0, 0.0, 0.0, 0.0, 0.0, 1.695759013965266E9, 0.0, 2023-09-26 15:10:13.965
234.0, 27250.732749787898, -187500.02235174447, -17524.527612272217, -18931.860498411716, -21346.586507151904, -20235.86126993433, -187500.02235174447, -19710.058833367686, -12463.355060023674, -15421.697845661385, 7254.750401347924, -40275.340113084334, -22504.429221681265, -29445.02585470985, 16519.101443183594, 7210.538650815327, 0.022, 0.502, -0.08, 192.0, 0.0, 0.0, 0.0, 0.0, 0.0, 0.0, 0.0, 0.0, 0.0, 1.695759013965275E9, 0.0, 2023-09-26 15:10:13.965
236.0, 27332.8530589167, -187500.02235174447, -17499.784231160193, -18907.631207422164, -21336.617629124838, -20247.797101473465, -187500.02235174447, -19706.259036810283, -12432.107321275154, -15344.763141246218, 7217.825319507757, -40328.760782332516, -22493.901550042814, -29470.618602111175, 16495.49800103879, 7221.736874787435, 0.03, 0.747, -0.119, 192.0, 0.5, 24.0, 15.5, 0.0, 125.5, 8.0, 0.0, 0.0, 0.0, 1.695759013965288E9, 0.0, 2023-09-26 15:10:13.965
238.0, 27292.329346219227, -187500.02235174447, -17527.925077429423, -18953.787559722372, -21383.08690584742, -20260.358781857347, -187500.02235174447, -19728.968409176876, -12468.9429961375, -15384.370432421021, 7292.770718666401, -40260.096223365814, -22507.513762416096, -29430.296055113802, 16563.827283838666, 7235.684363327547, 0.03, 0.747, -0.119, 192.0, 0.0, 0.0, 0.0, 0.0, 0.0, 0.0, 0.0, 0.0, 0.0, 1.695759013965299E9, 0.0, 2023-09-26 15:10:13.965
0.0, 14286.005709887233, -93750.01117587223, -8753.054887420521, -9471.551712936367, -10678.903541434234, -10166.623910263052, -93750.01117587223, -9880.14160157938, -6215.126063242682, -7654.600757908912, 3623.6201076054704, -20162.435789398645, -11242.32396391916, -14743.612974120733, 8267.06090772878, 3618.6580203363924, 0.048, 0.994, -0.166, 192.0, 0.5, 64.0, 15.5, 8.0, 125.0, 104.0, 0.0, 0.0, 0.0, 1.695759014113969E9, 0.0, 2023-09-26 15:10:14.113
2.0, 28659.742016761546, -187500.02235174447, -17499.806582904646, -18939.437739782064, -21347.637039141304, -20338.5004804731, -187500.02235174447, -19762.853653771122, -12288.251493960797, -14285.0222331312, 7568.323024311427, -38645.31679693661, -22545.064693101012, -29366.14654852707, 17144.81617746546, 7208.929325214544, 0.048, 0.994, -0.166, 192.0, 0.0, 0.0, 0.0, 0.0, 0.0, 0.0, 0.0, 0.0, 0.0, 1.695759014113993E9, 0.0, 2023-09-26 15:10:14.113
4.0, 28597.738277642522, -187500.02235174447, -17517.531516257706, -18960.89541445916, -21375.621423199347, -20347.083550343938, -187500.02235174447, -19780.466828401903, -12291.827773073646, -14301.339006583574, 7608.734978286622, -38605.10600866151, -22546.495204746152, -29368.67229565052, 17174.029907468546, 7213.243211894419, 0.048, 0.994, -0.166, 192.0, 0.0, 0.0, 0.0, 0.0, 0.0, 0.0, 0.0, 0.0, 0.0, 1.695759014114037E9, 0.0, 2023-09-26 15:10:14.114
6.0, 28670.67201980019, -187500.02235174447, -17503.94165562888, -18953.787559722372, -21359.774036380535, -20357.6559254713, -187500.02235174447, -19784.40073542604, -12292.811249829681, -14327.222326662819, 7560.969300385631, -38647.75313708224, -22544.88587914537, -29376.920089354528, 17141.48576754162, 7202.067339666765, 0.048, 0.994, -0.166, 192.0, 0.0, 0.0, 0.0, 0.0, 0.0, 0.0, 0.0, 0.0, 0.0, 1.695759014114046E9, 0.0, 2023-09-26 15:10:14.114
8.0, 28600.08521081033, -187500.02235174447, -17516.726853457316, -18963.331754604787, -21376.984879611122, -20343.999009609106, -187500.02235174447, -19785.853598815633, -12297.348653954108, -14345.0366669937, 7636.585251877935, -38570.14788033341, -22552.731341449184, -29378.507063210855, 17204.204762483212, 7219.635810808637, 0.056, 1.0, -0.17, 192.0, 0.5, 96.0, 15.5, 32.0, 125.0, 88.0, 0.0, 0.0, 0.0, 1.695759014114055E9, 0.0, 2023-09-26 15:10:14.114
10.0, 28639.066653140388, -187500.02235174447, -17505.26040855174, -18954.1228358892, -21354.543728177992, -20362.662716229286, -187500.02235174447, -19786.43474417147, -12277.902636277991, -14343.427341392917, 7538.550500696958, -38670.5295646822, -22536.88395463037, -29360.53626066879, 17120.206906820167, 7190.980874416933, 0.056, 1.0, -0.17, 192.0, 0.0, 0.0, 0.0, 0.0, 0.0, 0.0, 0.0, 0.0, 0.0, 1.695759014114065E9, 0.0, 2023-09-26 15:10:14.114
12.0, 28606.835437635833, -187500.02235174447, -17518.202068591367, -18961.498911559454, -21379.80119941249, -20353.36439053588, -187500.02235174447, -19788.468752916902, -12296.700453364903, -14364.549739903181, 7628.292754685016, -38577.166328092375, -22550.2726495591, -29381.09986556767, 17198.102736246914, 7217.758264274391, 0.056, 1.0, -0.17, 192.0, 0.0, 0.0, 0.0, 0.0, 0.0, 0.0, 0.0, 0.0, 0.0, 1.695759014114073E9, 0.0, 2023-09-26 15:10:14.114
14.0, 28653.05884516941, -187500.02235174447, -17513.821126678125, -18955.1733678786, -21365.02669632753, -20372.36337332289, -187500.02235174447, -19793.184970996976, -12297.86274407658, -14373.043402796198, 7551.380402014304, -38650.100070250046, -22548.260992558124, -29374.550804442264, 17139.563517518465, 7197.664046009069, 0.056, 1.0, -0.17, 192.0, 0.0, 0.0, 0.0, 0.0, 0.0, 0.0, 0.0, 0.0, 0.0, 1.695759014114082E9, 0.0, 2023-09-26 15:10:14.114
16.0, 28626.817897178877, -187500.02235174447, -17524.75112971677, -18964.963431950026, -21372.402771997782, -20351.755064935096, -187500.02235174447, -19788.31229070572, -12302.24368598982, -14374.049231296687, 7647.917586316775, -38546.7456038887, -22552.060789115523, -29384.497330724877, 17224.03075981507, 7226.184871934041, 0.056, 1.0, -0.17, 192.0, 0.0, 0.0, 0.0, 0.0, 0.0, 0.0, 0.0, 0.0, 0.0, 1.695759014174218E9, 0.0, 2023-09-26 15:10:14.174
18.0, 28601.60512943329, -187500.02235174447, -17506.109774841043, -18948.825472453293, -21354.163748522253, -20356.136006848337, -187500.02235174447, -19782.456133658427, -12290.397261428507, -14376.329109231128, 7529.25217500355, -38669.2778669927, -22537.26393428611, -29365.207775259947, 17117.278828296523, 7186.354063314684, 0.06, 0.994, -0.17200000000000001, 192.0, 0.5, 112.0, 15.5, 8.0, 125.0, 80.0, 0.0, 0.0, 0.0, 1.695759014174242E9, 0.0, 2023-09-26 15:10:14.174
20.0, 28645.14632763223, -187500.02235174447, -17536.15051938898, -18980.073211201812, -21385.903225648788, -20366.954251164705, -187500.02235174447, -19802.43859320147, -12302.020168545267, -14390.120135560053, 7643.7601618480885, -38549.78544113463, -22551.680809459784, -29384.609089447153, 17220.432128957764, 7230.901090014111, 0.06, 0.994, -0.17200000000000001, 192.0, 0.0, 0.0, 0.0, 0.0, 0.0, 0.0, 0.0, 0.0, 0.0, 1.695759014174253E9, 0.0, 2023-09-26 15:10:14.174
22.0, 28591.725658384046, -187500.02235174447, -17520.07961512561, -18964.717562761016, -21364.713771905157, -20357.79003593803, -187500.02235174447, -19790.748630851347, -12303.025997045756, -14406.839240412623, 7543.378477499304, -38641.87462829049, -22549.780911181082, -29369.879289851106, 17133.550898259986, 7184.99060690291, 0.06, 0.994, -0.17200000000000001, 192.0, 0.0, 0.0, 0.0, 0.0, 0.0, 0.0, 0.0, 0.0, 0.0, 1.695759014174262E9, 0.0, 2023-09-26 15:10:14.174
24.0, 28657.61860103829, -187500.02235174447, -17546.499377071785, -18989.773868295415, -21387.04316461601, -20363.713248218686, -187500.02235174447, -19801.29865423425, -12307.094014536622, -14403.754699677791, 7643.6484031258115, -38532.12756301493, -22564.287193332577, -29391.918109884038, 17230.31160000701, 7227.637735323637, 0.06, 0.994, -0.17200000000000001, 192.0, 0.0, 0.0, 0.0, 0.0, 0.0, 0.0, 0.0, 0.0, 0.0, 1.695759014174271E9, 0.0, 2023-09-26 15:10:14.174
26.0, 28611.194027804617, -187500.02235174447, -17536.821071722636, -18976.161655922137, -21369.89937661879, -20355.957192892696, -187500.02235174447, -19791.53094190728, -12311.318494238674, -14405.319321789662, 7562.355108541859, -38600.72506674827, -22562.119074120412, -29382.19510104598, 17164.239843397125, 7190.690301739014, 0.06, 0.994, -0.17200000000000001, 192.0, 0.0, 0.0, 0.0, 0.0, 0.0, 0.0, 0.0, 0.0, 0.0, 1.695759014174315E9, 0.0, 2023-09-26 15:10:14.174
28.0, 28657.082159171365, -187500.02235174447, -17549.963897462356, -18984.655318815152, -21379.398868012297, -20349.050503856004, -187500.02235174447, -19792.62617738559, -12297.371005698564, -14374.540969674705, 7633.165434976272, -38526.427868178835, -22557.581669995987, -29385.77138015883, 17230.244544773646, 7220.060493953288, 0.052000000000000005, 0.998, -0.17, 192.0, 0.5, 80.0, 15.5, 24.0, 125.0, 88.0, 0.0, 0.0, 0.0, 1.695759014174324E9, 0.0, 2023-09-26 15:10:14.174
30.0, 28592.955004329087, -187500.02235174447, -17557.33997313261, -18988.969205495025, -21380.382344768328, -20352.73854169113, -187500.02235174447, -19798.16941001051, -12307.384587214541, -14363.141580002497, 7564.880855665309, -38587.29166833063, -22562.811978198526, -29384.899662125074, 17170.990070222626, 7187.6728162375475, 0.052000000000000005, 0.998, -0.17, 192.0, 0.0, 0.0, 0.0, 0.0, 0.0, 0.0, 0.0, 0.0, 0.0, 1.69575901423352E9, 0.0, 2023-09-26 15:10:14.233
32.0, 28692.375563666294, -187500.02235174447, -17579.28938618772, -19006.694138848085, -21392.38523154083, -20358.102960360404, -187500.02235174447, -19800.046956544753, -12293.079470763145, -14302.769518228713, 7632.27136519806, -38518.24712970819, -22566.544719522564, -29401.01526987735, 17232.435015730265, 7218.004133463399, 0.052000000000000005, 0.998, -0.17, 192.0, 0.0, 0.0, 0.0, 0.0, 0.0, 0.0, 0.0, 0.0, 0.0, 1.695759014233545E9, 0.0, 2023-09-26 15:10:14.233
34.0, 28604.734373657036, -187500.02235174447, -17584.027956012244, -19001.106202734256, -21391.871141418356, -20343.484919486633, -187500.02235174447, -19797.610616399124, -12310.089148293633, -14265.553863710627, 7595.078062424429, -38546.142106788415, -22574.546644037564, -29401.26113906636, 17200.27085545908, 7190.533839527827, 0.052000000000000005, 0.998, -0.17, 192.0, 0.0, 0.0, 0.0, 0.0, 0.0, 0.0, 0.0, 0.0, 0.0, 1.695759014233556E9, 0.0, 2023-09-26 15:10:14.233
36.0, 28677.131673947773, -187500.02235174447, -17586.754868835793, -19003.676653346618, -21384.18214132573, -20345.36246602088, -187500.02235174447, -19801.87979959009, -12288.698528849904, -14189.222656395754, 7619.597926091901, -38517.263652952155, -22555.57001299501, -29400.05414486577, 17227.40587322782, 7208.728159514447, 0.052000000000000005, 0.998, -0.17, 192.0, 0.0, 0.0, 0.0, 0.0, 0.0, 0.0, 0.0, 0.0, 0.0, 1.695759014233566E9, 0.0, 2023-09-26 15:10:14.233
38.0, 28596.46422820857, -187500.02235174447, -17592.43221192744, -19002.179086468113, -21388.004289627588, -20339.640419440322, -187500.02235174447, -19787.038241271763, -12301.953113311902, -14149.458903009761, 7576.414355804248, -38553.16055454738, -22563.482530532187, -29403.608072234165, 17183.618805839873, 7184.029481891333, 0.052000000000000005, 1.0, -0.17200000000000001, 192.0, 0.5, 80.0, 15.5, 32.0, 125.0, 80.0, 0.0, 0.0, 0.0, 1.695759014233575E9, 0.0, 2023-09-26 15:10:14.233
40.0, 28695.705973590135, -187500.02235174447, -17594.890903817522, -19001.329720178812, -21381.90226339129, -20350.436312012233, -187500.02235174447, -19791.642700629556, -12288.497363149807, -14098.519277396117, 7607.148004430295, -38520.16937973134, -22563.661344487828, -29409.128953114625, 17216.74409112264, 7204.704845512491, 0.052000000000000005, 1.0, -0.17200000000000001, 192.0, 0.0, 0.0, 0.0, 0.0, 0.0, 0.0, 0.0, 0.0, 0.0, 1.695759014233584E9, 0.0, 2023-09-26 15:10:14.233
42.0, 28598.073553809354, -187500.02235174447, -17602.28933123223, -19001.46383064554, -21399.671900233257, -20345.183652065236, -187500.02235174447, -19790.39100294006, -12297.303950465197, -14079.78851554257, 7599.928390971231, -38524.57267338904, -22567.304678834043, -29401.90933965556, 17204.1600589943, 7186.309359825774, 0.052000000000000005, 1.0, -0.17200000000000001, 192.0, 0.0, 0.0, 0.0, 0.0, 0.0, 0.0, 0.0, 0.0, 0.0, 1.695759014233593E9, 0.0, 2023-09-26 15:10:14.233
44.0, 28696.890616046265, -187500.02235174447, -17593.52744740575, -18991.80787704085, -21389.077173361442, -20355.867785914874, -187500.02235174447, -19791.10625876263, -12279.444906645407, -14029.139462606843, 7589.9371611997085, -38531.032327536625, -22554.56418449452, -29404.189217590003, 17202.48367816015, 7195.808851219279, 0.052000000000000005, 1.0, -0.17200000000000001, 192.0, 0.0, 0.0, 0.0, 0.0, 0.0, 0.0, 0.0, 0.0, 0.0, 1.695759014233602E9, 0.0, 2023-09-26 15:10:14.233
46.0, 28604.264987023475, -187500.02235174447, -17600.47883993135, -18993.03722298589, -21403.38228981284, -20349.36342827838, -187500.02235174447, -19795.286034975772, -12285.345767181609, -14013.537944977039, 7604.398739862292, -38506.71362956925, -22568.51167303463, -29400.612938477152, 17211.245561986634, 7192.210220361975, 0.052000000000000005, 1.0, -0.17200000000000001, 192.0, 0.0, 0.0, 0.0, 0.0, 0.0, 0.0, 0.0, 0.0, 0.0, 1.695759014293297E9, 0.0, 2023-09-26 15:10:14.293
48.0, 28701.986813782074, -187500.02235174447, -17590.062927015177, -18986.890493260682, -21377.856597644877, -20364.741428463632, -187500.02235174447, -19797.454154187937, -12266.279729161231, -13985.262988241077, 7576.526114526524, -38529.0430222801, -22557.201690340244, -29403.49631351189, 17195.711099590197, 7190.891467439112, 0.054, 0.994, -0.166, 192.0, 0.5, 88.0, 15.5, 8.0, 125.0, 104.0, 0.0, 0.0, 0.0, 1.695759014293371E9, 0.0, 2023-09-26 15:10:14.293
50.0, 28621.788754676432, -187500.02235174447, -17600.68000563145, -18998.602807355262, -21398.28609207703, -20354.280812058547, -187500.02235174447, -19799.376404211092, -12274.95220600989, -13980.703232372194, 7620.536699359024, -38482.75255951316, -22567.930527678793, -29410.693575226498, 17223.427262714777, 7193.3725110736505, 0.054, 0.994, -0.166, 192.0, 0.0, 0.0, 0.0, 0.0, 0.0, 0.0, 0.0, 0.0, 0.0, 1.695759014293387E9, 0.0, 2023-09-26 15:10:14.293
52.0, 28683.278403672983, -187500.02235174447, -17577.657708842482, -18980.363783879733, -21369.56410045196, -20354.72784694765, -187500.02235174447, -19786.993537782855, -12252.242833643299, -13961.413676907263, 7548.094695579374, -38554.0993278145, -22548.79743442505, -29400.545883243787, 17162.809331751985, 7177.189848088008, 0.054, 0.994, -0.166, 192.0, 0.0, 0.0, 0.0, 0.0, 0.0, 0.0, 0.0, 0.0, 0.0, 1.6957590142934E9, 0.0, 2023-09-26 15:10:14.293
54.0, 28640.743033974533, -187500.02235174447, -17602.28933123223, -18998.356938166256, -21407.80793521499, -20353.476149258157, -187500.02235174447, -19797.96824431041, -12269.81130478517, -13962.978299019134, 7627.108112228884, -38467.642780261376, -22566.388257311377, -29410.06772638175, 17228.41170172831, 7201.083862910732, 0.054, 0.994, -0.166, 192.0, 0.0, 0.0, 0.0, 0.0, 0.0, 0.0, 0.0, 0.0, 0.0, 1.695759014293414E9, 0.0, 2023-09-26 15:10:14.293
56.0, 28680.618546082802, -187500.02235174447, -17579.53525537673, -18979.112086190235, -21375.353202265884, -20350.83864341243, -187500.02235174447, -19787.351165694137, -12255.506188333773, -13939.508967341062, 7547.06651533443, -38540.598874163494, -22551.79256818206, -29390.800522661273, 17164.843340497417, 7180.9449411565, 0.054, 0.994, -0.166, 192.0, 0.0, 0.0, 0.0, 0.0, 0.0, 0.0, 0.0, 0.0, 0.0, 1.695759014293426E9, 0.0, 2023-09-26 15:10:14.293
58.0, 28627.734318701547, -187500.02235174447, -17594.600331139605, -18991.94198750758, -21389.881836161832, -20348.201137566703, -187500.02235174447, -19789.809857584223, -12253.71804877735, -13925.874403223324, 7606.499803841091, -38478.90805946685, -22550.496167003654, -29393.929766885016, 17209.92680906377, 7196.501755297394, 0.056, 1.0, -0.166, 192.0, 0.5, 96.0, 15.5, 32.0, 125.0, 104.0, 0.0, 0.0, 0.0, 1.695759014293439E9, 0.0, 2023-09-26 15:10:14.293
60.0, 28670.604964566824, -187500.02235174447, -17581.52456063325, -18981.213150169035, -21373.56506270946, -20357.968849893674, -187500.02235174447, -19791.57564539619, -12244.263260872754, -13922.56634504394, 7527.620497658312, -38553.22760978075, -22551.501995504143, -29392.1863308175, 17146.00081992159, 7171.691318952003, 0.056, 1.0, -0.166, 192.0, 0.0, 0.0, 0.0, 0.0, 0.0, 0.0, 0.0, 0.0, 0.0, 1.695759014353644E9, 0.0, 2023-09-26 15:10:14.353
62.0, 28665.128787175276, -187500.02235174447, -17600.18826725343, -18995.317100920332, -21400.94594966721, -20355.42075102577, -187500.02235174447, -19799.8234391002, -12241.80456898267, -13910.876382693814, 7622.548356360002, -38450.40958528633, -22552.64193447136, -29408.748973458885, 17228.746977895138, 7199.988627432422, 0.056, 1.0, -0.166, 192.0, 0.0, 0.0, 0.0, 0.0, 0.0, 0.0, 0.0, 0.0, 0.0, 1.695759014353676E9, 0.0, 2023-09-26 15:10:14.353
64.0, 28677.6681158147, -187500.02235174447, -17579.870531543558, -18976.541635577876, -21375.643774943805, -20360.51694876158, -187500.02235174447, -19794.369613453106, -12232.863871200547, -13904.684949479693, 7530.369762226315, -38538.85543809598, -22544.50589948963, -29391.96281337295, 17149.085360656423, 7164.449353748483, 0.056, 1.0, -0.166, 192.0, 0.0, 0.0, 0.0, 0.0, 0.0, 0.0, 0.0, 0.0, 0.0, 1.695759014353707E9, 0.0, 2023-09-26 15:10:14.353
66.0, 28684.77597055149, -187500.02235174447, -17590.711127604383, -18985.303519404355, -21393.838094930423, -20351.106864345893, -187500.02235174447, -19792.96145355242, -12228.617039754039, -13893.03969061848, 7620.000257492096, -38449.247294574656, -22546.763425679615, -29394.2873947963, 17221.54971618053, 7194.08776689622, 0.056, 1.0, -0.166, 192.0, 0.0, 0.0, 0.0, 0.0, 0.0, 0.0, 0.0, 0.0, 0.0, 1.695759014353719E9, 0.0, 2023-09-26 15:10:14.353
68.0, 28677.824578025888, -187500.02235174447, -17582.172761222453, -18976.452228600054, -21370.726391163636, -20355.21958532567, -187500.02235174447, -19786.747668593845, -12230.583993266106, -13890.759812684038, 7532.962564583131, -38534.58625490502, -22547.165757079812, -29386.57604295922, 17146.649020510795, 7166.70687993847, 0.052000000000000005, 0.998, -0.168, 192.0, 0.5, 80.0, 15.5, 24.0, 125.0, 96.0, 0.0, 0.0, 0.0, 1.695759014353729E9, 0.0, 2023-09-26 15:10:14.353
70.0, 28715.286101732985, -187500.02235174447, -17596.14260150702, -18992.94781600807, -21391.535865251528, -20354.5043295031, -187500.02235174447, -19798.124706521598, -12230.963972921845, -13878.756925911537, 7627.733961073633, -38435.970358368206, -22553.424245527298, -29401.26113906636, 17228.098777305935, 7201.441490822017, 0.052000000000000005, 0.998, -0.168, 192.0, 0.0, 0.0, 0.0, 0.0, 0.0, 0.0, 0.0, 0.0, 0.0, 1.695759014353778E9, 0.0, 2023-09-26 15:10:14.353
72.0, 28668.66036279921, -187500.02235174447, -17578.171798964955, -18976.18400766659, -21369.18412079622, -20345.049541598506, -187500.02235174447, -19782.746706336344, -12231.90274618897, -13876.722917166106, 7531.107369793341, -38528.730097857726, -22545.51172799012, -29384.273813280324, 17143.96681117616, 7164.717574681947, 0.052000000000000005, 0.998, -0.168, 192.0, 0.0, 0.0, 0.0, 0.0, 0.0, 0.0, 0.0, 0.0, 0.0, 1.695759014353788E9, 0.0, 2023-09-26 15:10:14.353
74.0, 28740.8341456454, -187500.02235174447, -17603.205752754897, -18999.027490499913, -21397.749650210102, -20362.528605762556, -187500.02235174447, -19802.88562809058, -12229.578164765617, -13864.407105971231, 7621.430769137236, -38438.674919447294, -22554.251260072146, -29407.229054835923, 17223.337855736954, 7203.81077573428, 0.052000000000000005, 0.998, -0.168, 192.0, 0.0, 0.0, 0.0, 0.0, 0.0, 0.0, 0.0, 0.0, 0.0, 1.695759014353797E9, 0.0, 2023-09-26 15:10:14.353
76.0, 28702.232682971084, -187500.02235174447, -17586.173723479955, -18985.728202549006, -21385.32208029295, -20364.562614507988, -187500.02235174447, -19799.309348977727, -12231.388656066496, -13866.307004249931, 7557.5941869728795, -38499.06933296553, -22548.75273093614, -29391.71694418394, 17164.888043986328, 7171.8924846521, 0.052000000000000005, 0.998, -0.168, 192.0, 0.0, 0.0, 0.0, 0.0, 0.0, 0.0, 0.0, 0.0, 0.0, 1.695759014414056E9, 0.0, 2023-09-26 15:10:14.414
78.0, 28764.07995987892, -187500.02235174447, -17593.840371828126, -18991.85258052976, -21390.32887105094, -20364.003820896607, -187500.02235174447, -19806.5736659257, -12222.55971700665, -13852.046591287446, 7648.699897372711, -38405.326116719974, -22550.85379491494, -29403.5410170008, 17244.817882158506, 7204.61543853467, 0.05, 0.996, -0.17, 192.0, 0.5, 72.0, 15.5, 16.0, 125.0, 88.0, 0.0, 0.0, 0.0, 1.695759014414097E9, 0.0, 2023-09-26 15:10:14.414
80.0, 28705.83131382839, -187500.02235174447, -17576.875397786545, -18979.447362357067, -21384.56212098147, -20365.88136743085, -187500.02235174447, -19807.78066012629, -12229.958144421356, -13852.31481222091, 7573.553332513969, -38477.18697514379, -22547.903364646838, -29385.123179569626, 17172.957023734692, 7170.37256602914, 0.05, 0.996, -0.17, 192.0, 0.0, 0.0, 0.0, 0.0, 0.0, 0.0, 0.0, 0.0, 0.0, 1.69575901441411E9, 0.0, 2023-09-26 15:10:14.414
82.0, 28782.56485254346, -187500.02235174447, -17579.602310610095, -18982.308385647346, -21387.691365205214, -20357.477111515655, -187500.02235174447, -19800.114011778118, -12222.671475728926, -13842.97178303859, 7645.704763615699, -38401.45926492921, -22552.396065282355, -29397.30488029777, 17242.247431546144, 7203.5202030563605, 0.05, 0.996, -0.17, 192.0, 0.0, 0.0, 0.0, 0.0, 0.0, 0.0, 0.0, 0.0, 0.0, 1.695759014414119E9, 0.0, 2023-09-26 15:10:14.414
84.0, 28690.162740965217, -187500.02235174447, -17574.640223341015, -18976.295766388866, -21390.820609428956, -20352.73854169113, -187500.02235174447, -19790.882741318077, -12230.51693803274, -13850.280803475476, 7584.662149508256, -38459.171469112815, -22545.17645182329, -29377.903566110563, 17181.4059831388, 7176.184019587519, 0.05, 0.996, -0.17, 192.0, 0.0, 0.0, 0.0, 0.0, 0.0, 0.0, 0.0, 0.0, 0.0, 1.695759014414129E9, 0.0, 2023-09-26 15:10:14.414
86.0, 28777.245137363094, -187500.02235174447, -17577.635357098028, -18983.202455425555, -21383.533940736528, -20362.863881929385, -187500.02235174447, -19800.762212367325, -12224.839594941091, -13843.865852816803, 7618.323876657949, -38420.74882039414, -22544.550602978543, -29388.47594123792, 17220.007445813113, 7200.860345466179, 0.05, 0.996, -0.17, 192.0, 0.0, 0.0, 0.0, 0.0, 0.0, 0.0, 0.0, 0.0, 0.0, 1.69575901441414E9, 0.0, 2023-09-26 15:10:14.414
88.0, 28659.38438885026, -187500.02235174447, -17576.316604175165, -18980.788467024384, -21375.241443543608, -20346.256535799093, -187500.02235174447, -19789.16165699502, -12240.597574782083, -13859.579129168884, 7574.268588336538, -38461.71956798072, -22552.753693193637, -29374.819025375728, 17174.186369679734, 7172.495981752394, 0.052000000000000005, 0.99, -0.18, 192.0, 0.5, 80.0, 15.0, 120.0, 125.0, 48.0, 0.0, 0.0, 0.0, 1.695759014414148E9, 0.0, 2023-09-26 15:10:14.414
90.0, 28765.8904511798, -187500.02235174447, -17574.170836707453, -18984.56591183733, -21376.001402855087, -20366.797788953518, -187500.02235174447, -19799.041128044264, -12226.359513564053, -13845.229309228578, 7581.331739584415, -38452.93533240978, -22533.75471040663, -29375.422522476023, 17186.815105296984, 7189.595066260704, 0.052000000000000005, 0.99, -0.18, 192.0, 0.0, 0.0, 0.0, 0.0, 0.0, 0.0, 0.0, 0.0, 0.0, 1.695759014414158E9, 0.0, 2023-09-26 15:10:14.414
92.0, 28683.211348439618, -187500.02235174447, -17590.979348537847, -18996.747612565472, -21397.749650210102, -20366.484864531143, -187500.02235174447, -19810.082889805188, -12252.46635108785, -13872.409030486231, 7603.527021828535, -38418.04425931505, -22558.22987058519, -29390.465246494445, 17205.299997961523, 7181.771955701346, 0.052000000000000005, 0.99, -0.18, 192.0, 0.0, 0.0, 0.0, 0.0, 0.0, 0.0, 0.0, 0.0, 0.0, 1.695759014475253E9, 0.0, 2023-09-26 15:10:14.475
94.0, 28777.669820507745, -187500.02235174447, -17576.920101275457, -18989.416240384133, -21376.6943069332, -20370.12819887736, -187500.02235174447, -19807.914770593023, -12237.490682302796, -13862.88718734827, 7586.4726408091365, -38428.28135827558, -22547.769254180104, -29387.134836570604, 17197.141611235336, 7186.287008081318, 0.052000000000000005, 0.99, -0.18, 192.0, 0.0, 0.0, 0.0, 0.0, 0.0, 0.0, 0.0, 0.0, 0.0, 1.695759014475283E9, 0.0, 2023-09-26 15:10:14.475
96.0, 28684.23952868456, -187500.02235174447, -17590.599368882104, -18994.91476952014, -21389.255987317087, -20361.07574237296, -187500.02235174447, -19808.741785137867, -12246.744304507292, -13875.091239820867, 7609.629048064834, -38399.26879397259, -22563.08019913199, -29384.787903402797, 17210.485602675155, 7186.130545870131, 0.052000000000000005, 0.99, -0.18, 192.0, 0.0, 0.0, 0.0, 0.0, 0.0, 0.0, 0.0, 0.0, 0.0, 1.695759014475292E9, 0.0, 2023-09-26 15:10:14.475
98.0, 28752.859384162355, -187500.02235174447, -17566.683002314927, -18975.222882655013, -21364.60201318288, -20355.5548614925, -187500.02235174447, -19802.907979835032, -12236.015467168745, -13861.41197221422, 7566.534884755002, -38444.32991079449, -22550.22794607019, -29372.941478841483, 17175.25925341359, 7181.950769656989, 0.052000000000000005, 0.998, -0.182, 192.0, 0.5, 80.0, 15.5, 24.0, 125.0, 40.0, 0.0, 0.0, 0.0, 1.695759014475301E9, 0.0, 2023-09-26 15:10:14.475
100.0, 28672.19193842315, -187500.02235174447, -17575.176665207942, -18978.307423389844, -21384.18214132573, -20344.580154964944, -187500.02235174447, -19800.918674578512, -12229.779330465715, -13857.276899489987, 7605.65043755179, -38404.07441903048, -22543.16479482231, -29370.81806311823, 17199.667358358784, 7192.791365717812, 0.052000000000000005, 0.998, -0.182, 192.0, 0.0, 0.0, 0.0, 0.0, 0.0, 0.0, 0.0, 0.0, 0.0, 1.695759014475311E9, 0.0, 2023-09-26 15:10:14.475
102.0, 28757.620305731336, -187500.02235174447, -17569.879301772035, -18981.66018505814, -21365.920766105744, -20367.110713375892, -187500.02235174447, -19811.044014816765, -12224.861946685547, -13857.276899489987, 7561.192817830184, -38443.61465497192, -22544.1706233228, -29379.04350507778, 17170.02894521105, 7190.6679499945585, 0.052000000000000005, 0.998, -0.182, 192.0, 0.0, 0.0, 0.0, 0.0, 0.0, 0.0, 0.0, 0.0, 0.0, 1.69575901447532E9, 0.0, 2023-09-26 15:10:14.475
104.0, 28697.896444546754, -187500.02235174447, -17585.05613625719, -18988.14219095018, -21387.534902994026, -20350.816291667976, -187500.02235174447, -19802.595055412658, -12243.570356794638, -13874.487742720574, 7636.205272222194, -38360.33205513145, -22556.777007195593, -29388.230072048915, 17232.010332585614, 7203.050816422799, 0.052000000000000005, 0.998, -0.182, 192.0, 0.0, 0.0, 0.0, 0.0, 0.0, 0.0, 0.0, 0.0, 0.0, 1.695759014475329E9, 0.0, 2023-09-26 15:10:14.475
106.0, 28732.184020541197, -187500.02235174447, -17562.05619121268, -18967.288013373378, -21358.85761485787, -20355.5548614925, -187500.02235174447, -19793.989633797366, -12228.32646707612, -13853.03006804348, 7551.760381670044, -38445.84982941745, -22536.906306374825, -29362.86084209214, 17159.568328805963, 7183.962426657967, 0.052000000000000005, 0.998, -0.182, 192.0, 0.0, 0.0, 0.0, 0.0, 0.0, 0.0, 0.0, 0.0, 0.0, 1.695759014534113E9, 0.0, 2023-09-26 15:10:14.534
108.0, 28718.907084334744, -187500.02235174447, -17589.34767119261, -18992.05374622986, -21391.602920484893, -20361.07574237296, -187500.02235174447, -19813.39094798457, -12237.177757880421, -13855.533463422475, 7636.764065833577, -38358.67802604175, -22552.84310017146, -29376.227185276413, 17233.239678530656, 7210.4492438375055, 0.052000000000000005, 1.0, -0.184, 192.0, 0.5, 80.0, 15.5, 32.0, 125.0, 32.0, 0.0, 0.0, 0.0, 1.695759014534152E9, 0.0, 2023-09-26 15:10:14.534
110.0, 28760.704846466168, -187500.02235174447, -17574.349650663098, -18984.543560092876, -21371.084019074922, -20372.184559367248, -187500.02235174447, -19815.11203230763, -12242.139845149499, -13873.236045031077, 7568.077155122418, -38421.285262261066, -22557.961649651726, -29384.34086851369, 17182.38945989483, 7186.287008081318, 0.052000000000000005, 1.0, -0.184, 192.0, 0.0, 0.0, 0.0, 0.0, 0.0, 0.0, 0.0, 0.0, 0.0, 1.695759014534168E9, 0.0, 2023-09-26 15:10:14.534
112.0, 28758.424968531726, -187500.02235174447, -17590.554665393196, -19001.732051579005, -21398.487257777128, -20368.004783154105, -187500.02235174447, -19825.170317312517, -12239.256470114764, -13876.0747165769, 7660.188694022739, -38324.032822136025, -22553.446597271755, -29395.740258185895, 17261.201710844245, 7211.835051993734, 0.052000000000000005, 1.0, -0.184, 192.0, 0.0, 0.0, 0.0, 0.0, 0.0, 0.0, 0.0, 0.0, 0.0, 1.695759014534221E9, 0.0, 2023-09-26 15:10:14.534
114.0, 28765.666933735247, -187500.02235174447, -17575.1990169524, -18988.343356650275, -21373.56506270946, -20374.68795474624, -187500.02235174447, -19816.810764886235, -12236.507205546763, -13884.188399814178, 7574.805030203465, -38403.82854984147, -22545.802300668038, -29387.447760992978, 17189.653776842806, 7178.888580666612, 0.052000000000000005, 1.0, -0.184, 192.0, 0.0, 0.0, 0.0, 0.0, 0.0, 0.0, 0.0, 0.0, 0.0, 1.69575901453423E9, 0.0, 2023-09-26 15:10:14.534
116.0, 28781.4919688096, -187500.02235174447, -17590.95699679339, -18999.22865620001, -21394.530999008537, -20369.32353607697, -187500.02235174447, -19819.269456776317, -12236.70837124686, -13884.300158536455, 7672.213932539694, -38303.200996303676, -22555.167681594812, -29395.42733376352, 17273.85279820595, 7211.432720593539, 0.052000000000000005, 1.0, -0.184, 192.0, 0.0, 0.0, 0.0, 0.0, 0.0, 0.0, 0.0, 0.0, 0.0, 1.695759014534239E9, 0.0, 2023-09-26 15:10:14.534
118.0, 28737.816660143933, -187500.02235174447, -17563.86668251356, -18973.14417042067, -21367.530091706525, -20357.03007662655, -187500.02235174447, -19800.717508878413, -12237.401275324974, -13889.061080105434, 7567.11603011084, -38404.09677077494, -22550.876146659393, -29376.182481787502, 17180.53426510504, 7174.194714330997, 0.054, 0.996, -0.18, 192.0, 0.5, 88.0, 15.5, 16.0, 125.0, 48.0, 0.0, 0.0, 0.0, 1.695759014534248E9, 0.0, 2023-09-26 15:10:14.534
120.0, 28812.449134880204, -187500.02235174447, -17594.265054972777, -19001.37442366772, -21401.57179851196, -20376.31963209148, -187500.02235174447, -19825.930276624, -12241.022257926734, -13890.13396383929, 7670.157572049806, -38297.188377045204, -22555.50295776164, -29396.455514008467, 17270.94707142676, 7216.126586929154, 0.054, 0.996, -0.18, 192.0, 0.0, 0.0, 0.0, 0.0, 0.0, 0.0, 0.0, 0.0, 0.0, 1.695759014534257E9, 0.0, 2023-09-26 15:10:14.534
122.0, 28750.110119594352, -187500.02235174447, -17572.069772728657, -18982.08486820279, -21381.27641454654, -20369.36823956588, -187500.02235174447, -19814.508535207337, -12246.409028340464, -13911.435176305196, 7587.813745476455, -38375.73240706115, -22558.475739774196, -29381.256327778858, 17197.11925949088, 7176.251074820885, 0.054, 0.996, -0.18, 192.0, 0.0, 0.0, 0.0, 0.0, 0.0, 0.0, 0.0, 0.0, 0.0, 1.695759014594403E9, 0.0, 2023-09-26 15:10:14.594
124.0, 28804.044878965007, -187500.02235174447, -17581.81513331117, -18996.837019543294, -21384.048030858998, -20368.675335487766, -187500.02235174447, -19820.029416087797, -12235.546080535183, -13910.295237337976, 7672.482153473157, -38289.231156019116, -22556.1735100953, -29390.398191261076, 17272.55639702754, 7209.421063592561, 0.054, 0.996, -0.18, 192.0, 0.0, 0.0, 0.0, 0.0, 0.0, 0.0, 0.0, 0.0, 0.0, 1.695759014594426E9, 0.0, 2023-09-26 15:10:14.594
126.0, 28743.941038124685, -187500.02235174447, -17575.847217541603, -18994.534789864396, -21377.297804033497, -20371.02226865557, -187500.02235174447, -19817.458965475438, -12239.725856748326, -13924.890926467291, 7589.624236777335, -38367.082281956944, -22551.054960615034, -29379.892871367083, 17195.241712956635, 7171.043118362799, 0.054, 0.996, -0.18, 192.0, 0.0, 0.0, 0.0, 0.0, 0.0, 0.0, 0.0, 0.0, 0.0, 1.695759014594437E9, 0.0, 2023-09-26 15:10:14.594
128.0, 28799.529826585036, -187500.02235174447, -17579.065868743168, -18999.407470155653, -21381.9469668802, -20372.27396634507, -187500.02235174447, -19819.78354689879, -12234.629659012517, -13926.500252068074, 7650.845664840421, -38303.58097595942, -22551.591402481965, -29392.968641873438, 17251.746922939652, 7194.311284340773, 0.056, 0.992, -0.178, 192.0, 0.5, 96.0, 15.5, 0.0, 125.0, 56.0, 0.0, 0.0, 0.0, 1.695759014594447E9, 0.0, 2023-09-26 15:10:14.594
130.0, 28698.20936896913, -187500.02235174447, -17582.172761222453, -18997.798144554872, -21380.918786635255, -20372.050448900514, -187500.02235174447, -19819.78354689879, -12245.447903328884, -13952.495330869597, 7578.7836407165105, -38373.76545354909, -22549.17741408079, -29384.43027549151, 17183.708212817695, 7161.767144413847, 0.056, 0.992, -0.178, 192.0, 0.0, 0.0, 0.0, 0.0, 0.0, 0.0, 0.0, 0.0, 0.0, 1.695759014594457E9, 0.0, 2023-09-26 15:10:14.594
132.0, 28796.825265505944, -187500.02235174447, -17581.47985714434, -19003.184914968602, -21369.9440801077, -20380.65587051581, -187500.02235174447, -19823.15866031154, -12246.051400429178, -13958.28443268352, 7613.630010322334, -38338.96378743217, -22561.336763064475, -29401.6411187221, 17213.83836434345, 7182.9789499019325, 0.056, 0.992, -0.178, 192.0, 0.0, 0.0, 0.0, 0.0, 0.0, 0.0, 0.0, 0.0, 0.0, 1.695759014594466E9, 0.0, 2023-09-26 15:10:14.594
134.0, 28700.645709114757, -187500.02235174447, -17577.635357098028, -18999.787449811396, -21383.71275469217, -20376.92312919177, -187500.02235174447, -19821.30346552175, -12254.23213889982, -13977.238711981621, 7587.299655353982, -38360.33205513145, -22558.140463607368, -29382.373915001623, 17183.81997153997, 7164.359946770662, 0.056, 0.992, -0.178, 192.0, 0.0, 0.0, 0.0, 0.0, 0.0, 0.0, 0.0, 0.0, 0.0, 1.695759014594503E9, 0.0, 2023-09-26 15:10:14.594
136.0, 28780.597899031392, -187500.02235174447, -17570.125170961044, -18997.798144554872, -21376.26962378855, -20378.912434448295, -187500.02235174447, -19819.180049798495, -12242.9892114388, -13975.71879335866, 7602.945876472698, -38341.26601711107, -22557.112283362425, -29396.880197153117, 17204.428279927764, 7181.816659190257, 0.056, 0.992, -0.178, 192.0, 0.0, 0.0, 0.0, 0.0, 0.0, 0.0, 0.0, 0.0, 0.0, 1.695759014654578E9, 0.0, 2023-09-26 15:10:14.654
138.0, 28684.06071472892, -187500.02235174447, -17567.13003720403, -18995.786487553894, -21385.32208029295, -20367.960079665194, -187500.02235174447, -19811.222828772407, -12239.94937419288, -13986.849962097403, 7583.030472163019, -38362.52252608806, -22548.439806513765, -29382.10569406816, 17179.394326137823, 7168.472667750439, 0.048, 0.988, -0.178, 192.0, 0.5, 64.0, 15.0, 112.0, 125.0, 56.0, 0.0, 0.0, 0.0, 1.695759014654602E9, 0.0, 2023-09-26 15:10:14.654
140.0, 28797.51816958406, -187500.02235174447, -17567.174740692943, -19002.71552833504, -21377.051934844487, -20387.517856063587, -187500.02235174447, -19822.242238788873, -12237.714199747348, -13998.718738403171, 7591.054748422474, -38357.11340392988, -22549.646800714352, -29398.847150665184, 17193.54298037803, 7181.056699878776, 0.048, 0.988, -0.178, 192.0, 0.0, 0.0, 0.0, 0.0, 0.0, 0.0, 0.0, 0.0, 0.0, 1.695759014654613E9, 0.0, 2023-09-26 15:10:14.654
142.0, 28690.7215345766, -187500.02235174447, -17578.775296065247, -19005.867124303237, -21391.647623973804, -20372.676297745264, -187500.02235174447, -19811.938084594978, -12256.914348234457, -14023.059788115, 7608.064425952963, -38332.66059549578, -22561.292059575568, -29397.193121575492, 17205.948198550726, 7177.4580690214725, 0.048, 0.988, -0.178, 192.0, 0.0, 0.0, 0.0, 0.0, 0.0, 0.0, 0.0, 0.0, 0.0, 1.695759014654622E9, 0.0, 2023-09-26 15:10:14.654
144.0, 28785.090599666906, -187500.02235174447, -17572.069772728657, -18997.239350943488, -21377.498969733595, -20380.521760049076, -187500.02235174447, -19810.328758994194, -12245.626717284527, -14013.694407188226, 7572.011062146553, -38367.931648246245, -22555.50295776164, -29388.565348215743, 17179.43902962673, 7177.838048677212, 0.048, 0.988, -0.178, 192.0, 0.0, 0.0, 0.0, 0.0, 0.0, 0.0, 0.0, 0.0, 0.0, 1.695759014654631E9, 0.0, 2023-09-26 15:10:14.654
146.0, 28699.639880614268, -187500.02235174447, -17586.28548220223, -19004.794240569383, -21395.872103675858, -20368.809445954495, -187500.02235174447, -19810.06053806073, -12268.894883262503, -14039.15304412282, 7614.188803933716, -38320.68006046773, -22566.90234743385, -29393.303918040267, 17213.368977709888, 7182.733080712925, 0.048, 0.988, -0.178, 192.0, 0.0, 0.0, 0.0, 0.0, 0.0, 0.0, 0.0, 0.0, 0.0, 1.69575901465464E9, 0.0, 2023-09-26 15:10:14.654
148.0, 28763.275297078526, -187500.02235174447, -17562.458522612873, -18987.42693512761, -21365.22786202763, -20370.396419810822, -187500.02235174447, -19805.567837425213, -12247.861891730057, -14036.604945254916, 7559.963471885142, -38372.44670062622, -22549.535041992076, -29382.66448767954, 17174.34283189092, 7180.1626301005645, 0.05, 0.992, -0.178, 192.0, 0.5, 72.0, 15.5, 0.0, 125.0, 56.0, 0.0, 0.0, 0.0, 1.695759014654649E9, 0.0, 2023-09-26 15:10:14.654
150.0, 28715.956654066642, -187500.02235174447, -17582.128057733546, -19006.224752214523, -21394.083964119432, -20373.302146590013, -187500.02235174447, -19814.039148573775, -12259.32833663563, -14049.412494827808, 7615.5299086010355, -38313.5945574754, -22558.095760118456, -29390.33113602771, 17214.68773063275, 7195.51827854136, 0.05, 0.992, -0.178, 192.0, 0.0, 0.0, 0.0, 0.0, 0.0, 0.0, 0.0, 0.0, 0.0, 1.695759014654659E9, 0.0, 2023-09-26 15:10:14.654
152.0, 28777.669820507745, -187500.02235174447, -17571.198054694898, -18998.222827699523, -21371.955737108678, -20382.019326927584, -187500.02235174447, -19815.223791029908, -12265.89974950549, -14070.199617171244, 7567.652471977767, -38354.095918428415, -22556.397027539853, -29403.29514781179, 17183.3058814175, 7183.560095257771, 0.05, 0.992, -0.178, 192.0, 0.0, 0.0, 0.0, 0.0, 0.0, 0.0, 0.0, 0.0, 0.0, 1.695759014714947E9, 0.0, 2023-09-26 15:10:14.714
154.0, 28741.907029379254, -187500.02235174447, -17587.67129035846, -19013.980807540513, -21408.053804403997, -20374.240919857137, -187500.02235174447, -19816.654302675048, -12275.66746183246, -14081.286082421075, 7658.51231318859, -38255.52472538051, -22571.819731214015, -29413.4428397945, 17261.2240625887, 7209.309304870285, 0.05, 0.992, -0.178, 192.0, 0.0, 0.0, 0.0, 0.0, 0.0, 0.0, 0.0, 0.0, 0.0, 1.695759014714971E9, 0.0, 2023-09-26 15:10:14.714
156.0, 28772.908898938764, -187500.02235174447, -17562.65968831297, -18996.255874187456, -21378.75066742309, -20381.147608893825, -187500.02235174447, -19810.26170376083, -12264.402182626985, -14082.515428366118, 7563.45034402017, -38345.64695902431, -22556.441731028764, -29389.325307527222, 17184.1552477068, 7179.156801600076, 0.05, 0.992, -0.178, 192.0, 0.0, 0.0, 0.0, 0.0, 0.0, 0.0, 0.0, 0.0, 0.0, 1.695759014715039E9, 0.0, 2023-09-26 15:10:14.715
158.0, 28768.37149481434, -187500.02235174447, -17581.122229233057, -19010.09160400529, -21400.722432222658, -20378.733620492654, -187500.02235174447, -19819.31416026523, -12266.391487883508, -14089.042137747067, 7658.981699822152, -38244.50531536404, -22557.89459441836, -29399.5400547433, 17266.074391135502, 7209.33165661474, 0.054, 0.992, -0.184, 192.0, 0.5, 88.0, 15.5, 0.0, 125.0, 32.0, 0.0, 0.0, 0.0, 1.695759014715049E9, 0.0, 2023-09-26 15:10:14.715
160.0, 28780.799064731487, -187500.02235174447, -17566.012449981266, -18998.96043526655, -21374.995574354598, -20381.348774593924, -187500.02235174447, -19815.983750341387, -12269.43132512943, -14104.286027465587, 7576.324948826426, -38316.50028425459, -22554.810053683526, -29394.510912240854, 17198.952102536216, 7179.313263811263, 0.054, 0.992, -0.184, 192.0, 0.0, 0.0, 0.0, 0.0, 0.0, 0.0, 0.0, 0.0, 0.0, 1.69575901471506E9, 0.0, 2023-09-26 15:10:14.715
162.0, 28805.721259799157, -187500.02235174447, -17586.419592668964, -19015.165449996646, -21398.554313010492, -20384.075687417473, -187500.02235174447, -19818.30833176474, -12272.314700164165, -14106.968236800223, 7666.7154034036885, -38220.23132088558, -22564.242489843666, -29404.502142012378, 17278.12198139691, 7210.583354304237, 0.054, 0.992, -0.184, 192.0, 0.0, 0.0, 0.0, 0.0, 0.0, 0.0, 0.0, 0.0, 0.0, 1.695759014715071E9, 0.0, 2023-09-26 15:10:14.715
164.0, 28808.157599944785, -187500.02235174447, -17583.603272867593, -19010.963322039046, -21388.920711150255, -20388.791905497543, -187500.02235174447, -19821.14700331056, -12291.425441673451, -14135.37730400292, 7607.0138939635635, -38273.76374885604, -22574.189016126278, -29414.53807527281, 17226.578858682973, 7182.733080712925, 0.054, 0.992, -0.184, 192.0, 0.0, 0.0, 0.0, 0.0, 0.0, 0.0, 0.0, 0.0, 0.0, 1.695759014715081E9, 0.0, 2023-09-26 15:10:14.715
166.0, 28806.280053410537, -187500.02235174447, -17582.57509262265, -19015.321912207834, -21398.442554288216, -20377.303108847515, -187500.02235174447, -19814.799107885257, -12275.063964732166, -14126.41425447634, 7673.957368607208, -38204.9650794226, -22560.71091421973, -29404.412735034555, 17276.959690685235, 7199.85451696569, 0.054, 0.992, -0.184, 192.0, 0.0, 0.0, 0.0, 0.0, 0.0, 0.0, 0.0, 0.0, 0.0, 1.695759014775319E9, 0.0, 2023-09-26 15:10:14.775
168.0, 28769.42202680374, -187500.02235174447, -17570.303984916685, -19005.062461502846, -21389.635966972826, -20384.723888006676, -187500.02235174447, -19813.368596240118, -12281.344804924109, -14152.297574555585, 7580.88470469531, -38296.271955522534, -22560.80032119755, -29403.317499556244, 17195.375823423365, 7161.677737436025, 0.054, 0.998, -0.184, 192.0, 0.5, 88.0, 15.5, 24.0, 125.0, 32.0, 0.0, 0.0, 0.0, 1.695759014775344E9, 0.0, 2023-09-26 15:10:14.775
170.0, 28776.395771073792, -187500.02235174447, -17573.880264029536, -19011.835040072805, -21398.107278121388, -20378.35364083691, -187500.02235174447, -19817.526020708803, -12269.0960489626, -14148.028391364622, 7651.829141596454, -38228.07678318939, -22556.821710684504, -29404.09981061218, 17253.803283429537, 7184.521220269349, 0.054, 0.998, -0.184, 192.0, 0.0, 0.0, 0.0, 0.0, 0.0, 0.0, 0.0, 0.0, 0.0, 1.695759014775354E9, 0.0, 2023-09-26 15:10:14.775
172.0, 28702.411496926725, -187500.02235174447, -17566.370077892552, -19008.86225806025, -21384.159789581274, -20385.4614955737, -187500.02235174447, -19813.748575895857, -12273.298176920198, -14172.212978865264, 7551.670974692223, -38332.88411294033, -22547.769254180104, -29404.457438523466, 17158.517796816563, 7141.583519170705, 0.054, 0.998, -0.184, 192.0, 0.0, 0.0, 0.0, 0.0, 0.0, 0.0, 0.0, 0.0, 0.0, 1.695759014775364E9, 0.0, 2023-09-26 15:10:14.775
174.0, 28748.769014927035, -187500.02235174447, -17566.817112781657, -19015.724243608027, -21381.27641454654, -20391.51881832109, -187500.02235174447, -19823.985674856387, -12257.830769757125, -14170.402487564385, 7609.338475386915, -38277.92117332473, -22552.08314085998, -29408.704269969974, 17207.982207296158, 7167.489190994405, 0.054, 0.998, -0.184, 192.0, 0.0, 0.0, 0.0, 0.0, 0.0, 0.0, 0.0, 0.0, 0.0, 1.695759014775373E9, 0.0, 2023-09-26 15:10:14.775
176.0, 28694.051944500443, -187500.02235174447, -17578.48472338733, -19030.364636226255, -21394.24042633062, -20410.04841447454, -187500.02235174447, -19834.31218079474, -12279.1990374564, -14207.841659527025, 7554.755515427055, -38333.17468561824, -22560.75561770864, -29426.093927156202, 17157.623727038354, 7137.962536568944, 0.054, 0.998, -0.184, 192.0, 0.0, 0.0, 0.0, 0.0, 0.0, 0.0, 0.0, 0.0, 0.0, 1.695759014775382E9, 0.0, 2023-09-26 15:10:14.775
178.0, 28730.35117749586, -187500.02235174447, -17570.728668061336, -19020.462813432554, -21381.119952335353, -20389.484809575657, -187500.02235174447, -19820.141174810073, -12270.347746652096, -14208.66867407187, 7607.103300941384, -38284.49258619459, -22562.476702031698, -29425.87040971165, 17204.651797372317, 7156.358022255662, 0.054, 0.994, -0.184, 192.0, 0.5, 88.0, 15.5, 8.0, 125.0, 32.0, 0.0, 0.0, 0.0, 1.695759014775421E9, 0.0, 2023-09-26 15:10:14.775
180.0, 28631.62352223677, -187500.02235174447, -17570.594557594606, -19020.485165177008, -21395.581530997937, -20391.764687510098, -187500.02235174447, -19818.91182886503, -12278.215560700364, -14220.58215386655, 7535.667125662223, -38359.43798535323, -22558.743960707663, -29409.06189788126, 17136.1437006168, 7127.010181785844, 0.054, 0.994, -0.184, 192.0, 0.0, 0.0, 0.0, 0.0, 0.0, 0.0, 0.0, 0.0, 0.0, 1.695759014775431E9, 0.0, 2023-09-26 15:10:14.775
182.0, 28739.35893051135, -187500.02235174447, -17582.552740878196, -19032.823328116338, -21398.487257777128, -20412.70827206472, -187500.02235174447, -19831.853488904657, -12273.409935642474, -14221.856203300502, 7569.507666767558, -38326.78208670403, -22562.811978198526, -29425.937464945015, 17172.73350629014, 7151.753562897869, 0.054, 0.994, -0.184, 192.0, 0.0, 0.0, 0.0, 0.0, 0.0, 0.0, 0.0, 0.0, 0.0, 1.695759014834267E9, 0.0, 2023-09-26 15:10:14.834
184.0, 28630.81885943638, -187500.02235174447, -17584.452639156894, -19032.62216241624, -21412.680615506248, -20402.56058008201, -187500.02235174447, -19827.673712691514, -12296.76750859827, -14258.624822929482, 7555.090791593885, -38343.14356364532, -22576.69241150527, -29430.296055113802, 17152.21460488017, 7133.022801044322, 0.054, 0.994, -0.184, 192.0, 0.0, 0.0, 0.0, 0.0, 0.0, 0.0, 0.0, 0.0, 0.0, 1.695759014834295E9, 0.0, 2023-09-26 15:10:14.834
186.0, 28698.00820326903, -187500.02235174447, -17575.355479163587, -19028.084758291814, -21396.833228687436, -20405.71217605021, -187500.02235174447, -19828.97011386992, -12279.131982223033, -14252.813369371102, 7550.128704324807, -38355.34761611791, -22565.18126311079, -29428.239694623913, 17147.45368331119, 7143.84104536069, 0.054, 0.994, -0.184, 192.0, 0.0, 0.0, 0.0, 0.0, 0.0, 0.0, 0.0, 0.0, 0.0, 1.695759014834305E9, 0.0, 2023-09-26 15:10:14.834
188.0, 28596.575986930846, -187500.02235174447, -17579.71406933237, -19032.510403693963, -21407.964397426178, -20400.303053892025, -187500.02235174447, -19830.110052837143, -12287.178610226943, -14271.521779480194, 7548.765247913033, -38359.415633608776, -22565.538891022075, -29422.24942710989, 17136.367218061354, 7139.638917403093, 0.05, 1.002, -0.184, 192.0, 0.5, 72.0, 15.5, 40.0, 125.0, 32.0, 0.0, 0.0, 0.0, 1.69575901483432E9, 0.0, 2023-09-26 15:10:14.834
190.0, 28654.824632981377, -187500.02235174447, -17563.397295879997, -19019.792261098894, -21391.625272229347, -20397.598492812933, -187500.02235174447, -19815.6261224301, -12267.956109995379, -14265.77738115518, 7523.887756334277, -38389.970468279185, -22552.329010048987, -29413.845171194695, 17118.552877730475, 7143.662231405048, 0.05, 1.002, -0.184, 192.0, 0.0, 0.0, 0.0, 0.0, 0.0, 0.0, 0.0, 0.0, 0.0, 1.695759014834331E9, 0.0, 2023-09-26 15:10:14.834
192.0, 28543.89292524969, -187500.02235174447, -17572.159179706476, -19022.452118689074, -21403.315234579473, -20394.156324166815, -187500.02235174447, -19816.0284538303, -12273.387583898018, -14285.849247676046, 7528.514567436525, -38389.90341304582, -22555.36884729491, -29414.694537483996, 17113.52373522803, 7140.398876714573, 0.05, 1.002, -0.184, 192.0, 0.0, 0.0, 0.0, 0.0, 0.0, 0.0, 0.0, 0.0, 0.0, 1.69575901483434E9, 0.0, 2023-09-26 15:10:14.834
194.0, 28606.500161469005, -187500.02235174447, -17563.218481924356, -19016.841830830792, -21383.690402947715, -20405.04162371655, -187500.02235174447, -19824.83504114569, -12264.111609949066, -14285.893951164957, 7481.777069780478, -38446.00629162863, -22546.87518440189, -29413.174618861034, 17076.553949898953, 7137.180225513009, 0.05, 1.002, -0.184, 192.0, 0.0, 0.0, 0.0, 0.0, 0.0, 0.0, 0.0, 0.0, 0.0, 1.69575901483435E9, 0.0, 2023-09-26 15:10:14.834
196.0, 28529.565457053835, -187500.02235174447, -17580.228159454844, -19032.353941482776, -21413.977016684654, -20405.55571383902, -187500.02235174447, -19832.8816691496, -12278.103801978088, -14305.518782796715, 7529.341581981371, -38398.93351780576, -22565.78476021108, -29425.959816689472, 17112.96494161665, 7144.690411649992, 0.05, 1.002, -0.184, 192.0, 0.0, 0.0, 0.0, 0.0, 0.0, 0.0, 0.0, 0.0, 0.0, 1.695759014894399E9, 0.0, 2023-09-26 15:10:14.894
198.0, 28588.395248460205, -187500.02235174447, -17564.827807525136, -19026.1401565242, -21388.317214049963, -20416.329254666478, -187500.02235174447, -19829.55125922576, -12265.162141938466, -14303.507125795739, 7470.802363252922, -38459.238524346176, -22556.732303706685, -29420.17071487555, 17068.261452706036, 7135.615603401137, 0.054, 0.996, -0.18, 192.0, 0.5, 88.0, 15.5, 16.0, 125.0, 48.0, 0.0, 0.0, 0.0, 1.69575901489443E9, 0.0, 2023-09-26 15:10:14.894
200.0, 28532.448832088572, -187500.02235174447, -17583.37975542304, -19042.52398520994, -21422.649493533314, -20413.669397076297, -187500.02235174447, -19833.30635229425, -12279.087278734121, -14318.259277136242, 7543.490236221581, -38386.461244399696, -22569.025763157104, -29430.474869069443, 17127.582982490418, 7155.933339111011, 0.054, 0.996, -0.18, 192.0, 0.0, 0.0, 0.0, 0.0, 0.0, 0.0, 0.0, 0.0, 0.0, 1.695759014894472E9, 0.0, 2023-09-26 15:10:14.894
202.0, 28593.983184574034, -187500.02235174447, -17574.059077985177, -19035.10320605078, -21408.38908057083, -20423.504164636634, -187500.02235174447, -19835.653285462056, -12282.1494677245, -14330.329219142106, 7481.508848847014, -38449.00142538565, -22567.304678834043, -29427.52443880134, 17081.314871467934, 7142.611699415648, 0.054, 0.996, -0.18, 192.0, 0.0, 0.0, 0.0, 0.0, 0.0, 0.0, 0.0, 0.0, 0.0, 1.695759014894483E9, 0.0, 2023-09-26 15:10:14.894
204.0, 28541.389529870696, -187500.02235174447, -17577.031859997733, -19032.979790327525, -21416.36865334137, -20404.03579521606, -187500.02235174447, -19829.35009352566, -12282.775316569248, -14338.308791912652, 7561.662204463745, -38370.43504362524, -22567.23762360068, -29421.78004047633, 17146.78313097753, 7166.75158342738, 0.054, 0.996, -0.18, 192.0, 0.0, 0.0, 0.0, 0.0, 0.0, 0.0, 0.0, 0.0, 0.0, 1.695759014894492E9, 0.0, 2023-09-26 15:10:14.894
206.0, 28549.570268341336, -187500.02235174447, -17551.75203701878, -19011.09743250578, -21385.411487270772, -20403.61111207141, -187500.02235174447, -19817.324855008705, -12274.1475432095, -14340.007524491255, 7459.537084047447, -38476.315257110036, -22551.524347248596, -29407.787848447308, 17058.47138863461, 7142.857568604657, 0.054, 0.996, -0.18, 192.0, 0.0, 0.0, 0.0, 0.0, 0.0, 0.0, 0.0, 0.0, 0.0, 1.695759014894501E9, 0.0, 2023-09-26 15:10:14.894
208.0, 28558.8909457792, -187500.02235174447, -17577.99298500931, -19034.924392095138, -21412.14417363932, -20407.634426073364, -187500.02235174447, -19840.63772447559, -12281.657729346482, -14343.136768714998, 7565.551407998969, -38369.51862210257, -22568.064638145523, -29425.959816689472, 17153.511006058576, 7182.017824890355, 0.05, 0.996, -0.184, 192.0, 0.5, 72.0, 15.5, 16.0, 125.0, 32.0, 0.0, 0.0, 0.0, 1.69575901489451E9, 0.0, 2023-09-26 15:10:14.894
210.0, 28554.666466077146, -187500.02235174447, -17558.502263844286, -19020.19459249909, -21391.535865251528, -20412.104774964428, -187500.02235174447, -19835.675637206514, -12278.260264189275, -14357.933623544412, 7475.630340055269, -38459.1267656239, -22556.866414173415, -29418.851961952685, 17079.81730458943, 7149.786609385802, 0.05, 0.996, -0.184, 192.0, 0.0, 0.0, 0.0, 0.0, 0.0, 0.0, 0.0, 0.0, 0.0, 1.69575901489452E9, 0.0, 2023-09-26 15:10:14.894
212.0, 28563.562460370358, -187500.02235174447, -17570.974537250346, -19032.420996716144, -21409.37255732686, -20408.059109218015, -187500.02235174447, -19839.855413419657, -12272.962900753368, -14362.202806735375, 7574.469754036636, -38356.30874112949, -22562.834329942983, -29424.283435855323, 17163.837511996928, 7182.822487690746, 0.05, 0.996, -0.184, 192.0, 0.0, 0.0, 0.0, 0.0, 0.0, 0.0, 0.0, 0.0, 0.0, 1.695759014954721E9, 0.0, 2023-09-26 15:10:14.954
214.0, 28548.340922396295, -187500.02235174447, -17560.849197012092, -19020.14988901018, -21397.32496706545, -20413.55763835402, -187500.02235174447, -19831.562916226736, -12281.791839813213, -14378.988966821309, 7489.309607661916, -38435.00923335663, -22562.856681687437, -29418.315520085758, 17092.490743695587, 7151.1053623086655, 0.05, 0.996, -0.184, 192.0, 0.0, 0.0, 0.0, 0.0, 0.0, 0.0, 0.0, 0.0, 0.0, 1.695759014954743E9, 0.0, 2023-09-26 15:10:14.954
216.0, 28588.909338582678, -187500.02235174447, -17569.164045949467, -19025.11197627926, -21411.71949049467, -20405.443955116745, -187500.02235174447, -19831.607619715647, -12277.701470577893, -14380.128905788531, 7584.438632063703, -38339.343767087914, -22556.642896728863, -29426.943293445504, 17175.01338422458, 7188.18690636002, 0.05, 0.996, -0.184, 192.0, 0.0, 0.0, 0.0, 0.0, 0.0, 0.0, 0.0, 0.0, 0.0, 1.695759014954753E9, 0.0, 2023-09-26 15:10:14.954
218.0, 28532.962922211045, -187500.02235174447, -17555.328316131632, -19009.42105167163, -21395.62623448685, -20403.432298115767, -187500.02235174447, -19825.34913126816, -12279.400203156496, -14390.969501849355, 7498.160898466218, -38426.62732918589, -22558.140463607368, -29407.944310658495, 17098.749232143073, 7155.106324566165, 0.052000000000000005, 0.998, -0.19, 192.0, 0.5, 80.0, 15.5, 24.0, 125.0, 8.0, 0.0, 0.0, 0.0, 1.695759014954762E9, 0.0, 2023-09-26 15:10:14.954
220.0, 28610.814048148877, -187500.02235174447, -17577.00950825328, -19034.700874650585, -21419.967284198676, -20422.543039625056, -187500.02235174447, -19846.31506756724, -12283.959959025378, -14395.261036784774, 7587.567876287446, -38336.70626124219, -22564.957745666237, -29426.473906811945, 17182.232997683644, 7191.092633139209, 0.052000000000000005, 0.998, -0.19, 192.0, 0.0, 0.0, 0.0, 0.0, 0.0, 0.0, 0.0, 0.0, 0.0, 1.695759014954807E9, 0.0, 2023-09-26 15:10:14.954
222.0, 28532.292369877385, -187500.02235174447, -17564.0454964692, -19026.006046057468, -21402.17529561225, -20408.774365040586, -187500.02235174447, -19836.502651751358, -12297.415709187473, -14425.637057499536, 7518.210413242628, -38402.08511377396, -22562.65551598734, -29424.506953299875, 17122.978523132628, 7152.647632676081, 0.052000000000000005, 0.998, -0.19, 192.0, 0.0, 0.0, 0.0, 0.0, 0.0, 0.0, 0.0, 0.0, 0.0, 1.695759014954816E9, 0.0, 2023-09-26 15:10:14.954
224.0, 28597.045373564408, -187500.02235174447, -17571.823903539647, -19033.940915339103, -21407.495010792616, -20413.267065676104, -187500.02235174447, -19836.055616862253, -12280.830714801636, -14420.920839419467, 7572.6816144802115, -38350.4525840822, -22553.021914127105, -29428.619674279653, 17173.001727223604, 7175.424060276039, 0.052000000000000005, 0.998, -0.19, 192.0, 0.0, 0.0, 0.0, 0.0, 0.0, 0.0, 0.0, 0.0, 0.0, 1.695759014954825E9, 0.0, 2023-09-26 15:10:14.954
226.0, 28492.34980253575, -187500.02235174447, -17557.831711510626, -19017.84765933128, -21401.929426423245, -20400.928902736774, -187500.02235174447, -19822.510459722336, -12287.133906738032, -14445.753627509312, 7504.598200869346, -38421.777000639086, -22557.447559529253, -29413.889874683606, 17106.70645316916, 7141.091780792687, 0.052000000000000005, 0.998, -0.19, 192.0, 0.0, 0.0, 0.0, 0.0, 0.0, 0.0, 0.0, 0.0, 0.0, 1.695759015015012E9, 0.0, 2023-09-26 15:10:15.015
228.0, 28574.112483753262, -187500.02235174447, -17562.771447035248, -19018.585266898306, -21403.114068879375, -20404.102850449428, -187500.02235174447, -19828.076044091707, -12275.578054854639, -14435.85180471561, 7548.899358379765, -38381.45445364171, -22555.50295776164, -29423.45642131048, 17147.67720075574, 7172.965368385955, 0.052000000000000005, 0.998, -0.184, 192.0, 0.5, 80.0, 15.5, 24.0, 125.0, 32.0, 0.0, 0.0, 0.0, 1.69575901501505E9, 0.0, 2023-09-26 15:10:15.015
230.0, 28486.11366583272, -187500.02235174447, -17561.966784234857, -19018.875839576227, -21406.198609614206, -20403.119373693393, -187500.02235174447, -19830.802956915257, -12292.990063785322, -14462.115104450597, 7513.181270740184, -38413.55155867953, -22563.035495643082, -29415.186275862012, 17114.261342795056, 7154.8604553771565, 0.052000000000000005, 0.998, -0.184, 192.0, 0.0, 0.0, 0.0, 0.0, 0.0, 0.0, 0.0, 0.0, 0.0, 1.695759015015071E9, 0.0, 2023-09-26 15:10:15.015
232.0, 28563.964791770555, -187500.02235174447, -17565.90069125899, -19025.067272790347, -21399.783658955534, -20414.786984299062, -187500.02235174447, -19835.78739592879, -12283.781145069737, -14464.43968587395, 7536.516491951525, -38394.82079682598, -22561.023838642104, -29421.712985242964, 17140.591697763408, 7170.551379984782, 0.052000000000000005, 0.998, -0.184, 192.0, 0.0, 0.0, 0.0, 0.0, 0.0, 0.0, 0.0, 0.0, 0.0, 1.695759015015087E9, 0.0, 2023-09-26 15:10:15.015
234.0, 28467.181738279076, -187500.02235174447, -17566.3477261481, -19025.71547337955, -21405.08102239144, -20405.71217605021, -187500.02235174447, -19832.70285519396, -12297.81804058767, -14490.814744331212, 7519.573869654402, -38413.0151168126, -22563.527234021098, -29418.807258463774, 17116.83179340742, 7149.205464029964, 0.052000000000000005, 0.998, -0.184, 192.0, 0.0, 0.0, 0.0, 0.0, 0.0, 0.0, 0.0, 0.0, 0.0, 1.695759015015097E9, 0.0, 2023-09-26 15:10:15.015
236.0, 28574.492463409006, -187500.02235174447, -17565.543063347704, -19029.33645598131, -21405.14807762481, -20418.072690733992, -187500.02235174447, -19838.20138432996, -12286.91038929348, -14491.842924576154, 7531.755570382545, -38403.090942274444, -22554.407722283333, -29427.815011479262, 17134.422616293745, 7165.589292715704, 0.052000000000000005, 0.998, -0.184, 192.0, 0.0, 0.0, 0.0, 0.0, 0.0, 0.0, 0.0, 0.0, 0.0, 1.695759015015106E9, 0.0, 2023-09-26 15:10:15.015
238.0, 28489.77935192339, -187500.02235174447, -17579.49055188782, -19042.635743932216, -21435.8593745064, -20421.291341935557, -187500.02235174447, -19847.67852397901, -12308.636284904038, -14523.783567402788, 7554.084963093396, -38374.48070937165, -22567.684658489783, -29440.68961628552, 17148.3477530894, 7156.9168158670445, 0.058, 0.998, -0.19, 192.0, 0.5, 104.0, 15.5, 24.0, 125.0, 8.0, 0.0, 0.0, 0.0, 1.695759015015116E9, 0.0, 2023-09-26 15:10:15.015
240.0, 28577.55465239938, -187500.02235174447, -17563.732572046825, -19032.264534504957, -21405.90803693629, -20421.00076925764, -187500.02235174447, -19837.128500596107, -12292.43127017394, -14524.8788028811, 7537.522320452013, -38389.478729901166, -22564.488359032675, -29431.45834582548, 17141.843395452906, 7160.426039746528, 0.058, 0.998, -0.19, 192.0, 0.0, 0.0, 0.0, 0.0, 0.0, 0.0, 0.0, 0.0, 0.0, 1.695759015015126E9, 0.0, 2023-09-26 15:10:15.015
242.0, 28475.02720058289, -187500.02235174447, -17573.81320879617, -19035.304371750877, -21421.50955456609, -20407.433260373266, -187500.02235174447, -19836.748520940368, -12300.567305155671, -14539.921526899521, 7563.584454486901, -38363.5060028441, -22566.36590556692, -29429.62550278014, 17156.215567137668, 7157.587368200704, 0.058, 0.998, -0.19, 192.0, 0.0, 0.0, 0.0, 0.0, 0.0, 0.0, 0.0, 0.0, 0.0, 1.695759015075434E9, 0.0, 2023-09-26 15:10:15.075
244.0, 28521.541180794382, -187500.02235174447, -17557.451731854886, -19023.14502276719, -21388.65249021679, -20410.540152852554, -187500.02235174447, -19829.327741781206, -12291.648959118005, -14529.527965727802, 7506.989837526065, -38424.59332044045, -22562.677867731796, -29425.557485289275, 17111.04269159349, 7146.791475628791, 0.058, 0.998, -0.19, 192.0, 0.0, 0.0, 0.0, 0.0, 0.0, 0.0, 0.0, 0.0, 0.0, 1.695759015075473E9, 0.0, 2023-09-26 15:10:15.075
246.0, 28474.513110460415, -187500.02235174447, -17573.85791228508, -19040.2441072755, -21421.57660979946, -20421.98424601367, -187500.02235174447, -19840.034227375298, -12298.265075476775, -14532.523099484813, 7549.793428157977, -38384.80721531001, -22563.75075146565, -29429.089060913215, 17141.753988475084, 7157.3862025006065, 0.058, 0.998, -0.19, 192.0, 0.0, 0.0, 0.0, 0.0, 0.0, 0.0, 0.0, 0.0, 0.0, 1.695759015075483E9, 0.0, 2023-09-26 15:10:15.075
248.0, 28502.49749451846, -187500.02235174447, -17552.13201667452, -19018.786432598405, -21387.22197857165, -20410.89778076384, -187500.02235174447, -19822.421052744514, -12296.275770220253, -14539.742712943878, 7509.180308482684, -38423.76630589561, -22565.762408466628, -29431.30188361429, 17116.541220729498, 7150.36775474164, 0.06, 1.0, -0.188, 192.0, 0.5, 112.0, 15.5, 32.0, 125.0, 16.0, 0.0, 0.0, 0.0, 1.695759015075492E9, 0.0, 2023-09-26 15:10:15.075
250.0, 28446.707540358013, -187500.02235174447, -17560.402162122984, -19022.56387741135, -21411.317159094473, -20409.266103418602, -187500.02235174447, -19827.58430571369, -12283.825848558647, -14528.745654671868, 7542.104428065351, -38395.53605264855, -22549.93737339227, -29413.599302005685, 17135.070816882948, 7158.861417634656, 0.06, 1.0, -0.188, 192.0, 0.0, 0.0, 0.0, 0.0, 0.0, 0.0, 0.0, 0.0, 0.0, 1.695759015075503E9, 0.0, 2023-09-26 15:10:15.075
252.0, 28486.605404210735, -187500.02235174447, -17555.61888880955, -19017.735900609005, -21395.492124020115, -20413.490583120656, -187500.02235174447, -19827.383140013593, -12295.359348697586, -14546.157663602551, 7487.5661715944025, -38447.88383816288, -22562.633164242885, -29425.848057967196, 17097.072851308927, 7146.210330272953, 0.06, 1.0, -0.188, 192.0, 0.0, 0.0, 0.0, 0.0, 0.0, 0.0, 0.0, 0.0, 0.0, 1.695759015075512E9, 0.0, 2023-09-26 15:10:15.075
254.0, 28442.281894955864, -187500.02235174447, -17570.013412238768, -19033.493880449998, -21409.171391626765, -20409.17669644078, -187500.02235174447, -19836.033265117796, -12294.219409730365, -14541.30733505575, 7558.644718962279, -38381.65561934181, -22559.548623508053, -29424.68576725552, 17150.58292753493, 7166.729231682924, 0.06, 1.0, -0.188, 192.0, 0.0, 0.0, 0.0, 0.0, 0.0, 0.0, 0.0, 0.0, 0.0, 1.695759015075522E9, 0.0, 2023-09-26 15:10:15.075
0.0, 28484.906671632132, -187500.02235174447, -17554.523653331238, -19025.67076989064, -21397.123801365353, -20424.28647569257, -187500.02235174447, -19832.367579027126, -12298.868572577068, -14556.573576518724, 7468.746002763034, -38475.35413209845, -22561.873204931406, -29427.613845779164, 17074.363478942334, 7140.667097648036, 0.06, 1.0, -0.188, 192.0, 0.0, 0.0, 0.0, 0.0, 0.0, 0.0, 0.0, 0.0, 0.0, 1.695759015134305E9, 0.0, 2023-09-26 15:10:15.134
2.0, 28491.29927054635, -187500.02235174447, -17572.42740063994, -19044.37917999973, -21430.025569203564, -20424.08530999247, -187500.02235174447, -19841.442387275983, -12304.411805201986, -14566.006012678865, 7588.9983879325855, -38350.40788059329, -22570.52333003561, -29443.371825620157, 17183.3058814175, 7184.923551669544, 0.054, 1.0, -0.184, 192.0, 0.5, 88.0, 15.5, 32.0, 125.0, 32.0, 0.0, 0.0, 0.0, 1.695759015134329E9, 0.0, 2023-09-26 15:10:15.134
4.0, 28472.25558427043, -187500.02235174447, -17563.03966796871, -19037.226621774033, -21414.424051573762, -20433.42833917479, -187500.02235174447, -19843.319933810228, -12303.160107512487, -14579.21589365195, 7496.238648443062, -38443.592303227466, -22565.00244915515, -29435.124031916148, 17102.727842656117, 7146.187978528497, 0.054, 1.0, -0.184, 192.0, 0.0, 0.0, 0.0, 0.0, 0.0, 0.0, 0.0, 0.0, 0.0, 1.69575901513434E9, 0.0, 2023-09-26 15:10:15.134
6.0, 28474.40135173814, -187500.02235174447, -17572.71797331786, -19043.038075332413, -21427.030435446555, -20423.79473731455, -187500.02235174447, -19840.50361400886, -12297.415709187473, -14577.763030262357, 7575.363823814849, -38367.19404067923, -22566.947050922758, -29449.29503790081, 17166.29620388701, 7163.957615370467, 0.054, 1.0, -0.184, 192.0, 0.0, 0.0, 0.0, 0.0, 0.0, 0.0, 0.0, 0.0, 0.0, 1.695759015134349E9, 0.0, 2023-09-26 15:10:15.134
8.0, 28435.419909408083, -187500.02235174447, -17549.33804861761, -19016.61831338624, -21403.315234579473, -20411.70244356423, -187500.02235174447, -19825.55029696826, -12298.91327606598, -14580.154666919074, 7485.755680293522, -38458.36680631242, -22557.201690340244, -29426.004520178383, 17089.67442389422, 7140.644745903582, 0.054, 1.0, -0.184, 192.0, 0.0, 0.0, 0.0, 0.0, 0.0, 0.0, 0.0, 0.0, 0.0, 1.695759015134392E9, 0.0, 2023-09-26 15:10:15.134
10.0, 28481.553909963837, -187500.02235174447, -17561.340935390108, -19024.19555475659, -21414.044071918022, -20408.394385384847, -187500.02235174447, -19828.076044091707, -12298.53329641024, -14567.682393513012, 7568.904169667265, -38378.23580244015, -22567.23762360068, -29425.713947500462, 17164.93274747524, 7183.895371424601, 0.054, 1.0, -0.184, 192.0, 0.0, 0.0, 0.0, 0.0, 0.0, 0.0, 0.0, 0.0, 0.0, 1.695759015134401E9, 0.0, 2023-09-26 15:10:15.134
12.0, 28428.647330838125, -187500.02235174447, -17544.845347982093, -19008.884609804703, -21403.985786913134, -20401.55475158152, -187500.02235174447, -19818.68831142048, -12309.418595959974, -14581.205198908472, 7489.756642551022, -38460.356111568944, -22560.979135153193, -29403.29514781179, 17093.5859791739, 7153.854626876668, 0.056, 0.996, -0.182, 192.0, 0.5, 96.0, 15.5, 16.0, 125.0, 40.0, 0.0, 0.0, 0.0, 1.695759015134411E9, 0.0, 2023-09-26 15:10:15.134
14.0, 28488.795875167358, -187500.02235174447, -17558.32344988864, -19023.547354167385, -21419.632008031847, -20405.734527794662, -187500.02235174447, -19831.6299714601, -12305.14941276901, -14579.573521563236, 7577.107259882362, -38375.419482638776, -22559.995658397158, -29416.661490996063, 17173.091134201426, 7191.360854072673, 0.056, 0.996, -0.182, 192.0, 0.0, 0.0, 0.0, 0.0, 0.0, 0.0, 0.0, 0.0, 0.0, 1.69575901513442E9, 0.0, 2023-09-26 15:10:15.134
16.0, 28400.931167713545, -187500.02235174447, -17548.71219977286, -19010.248066216478, -21408.94787418221, -20406.539190595056, -187500.02235174447, -19831.227640059908, -12313.508965195295, -14597.36551014966, 7502.9441717796535, -38450.0743091195, -22566.455312544742, -29405.798543190784, 17104.538333956996, 7152.960557098456, 0.056, 0.996, -0.182, 192.0, 0.0, 0.0, 0.0, 0.0, 0.0, 0.0, 0.0, 0.0, 0.0, 1.695759015194564E9, 0.0, 2023-09-26 15:10:15.194
18.0, 28483.25264254244, -187500.02235174447, -17561.787970279216, -19022.67563613363, -21408.52319103756, -20419.65966459032, -187500.02235174447, -19838.983695385898, -12306.982255814346, -14594.03510022582, 7556.454248005659, -38394.39611368133, -22569.629260257396, -29423.143496888104, 17160.59650905091, 7181.8613626791675, 0.056, 0.996, -0.182, 192.0, 0.0, 0.0, 0.0, 0.0, 0.0, 0.0, 0.0, 0.0, 0.0, 1.695759015194585E9, 0.0, 2023-09-26 15:10:15.194
20.0, 28403.591025303725, -187500.02235174447, -17560.469217356353, -19019.1887639986, -21416.681577763746, -20411.054242975028, -187500.02235174447, -19828.947762125466, -12329.334000269653, -14624.545231407314, 7511.996628284053, -38436.21622755721, -22577.027687672104, -29419.611921264164, 17118.888153897304, 7154.145199554587, 0.056, 0.996, -0.182, 192.0, 0.0, 0.0, 0.0, 0.0, 0.0, 0.0, 0.0, 0.0, 0.0, 1.695759015194595E9, 0.0, 2023-09-26 15:10:15.194
22.0, 28506.900788176157, -187500.02235174447, -17558.681077799927, -19024.173203012135, -21413.641740517825, -20416.508068622123, -187500.02235174447, -19830.914715637533, -12310.759700627292, -14613.548173135303, 7562.533922497502, -38387.869404300385, -22574.65840275984, -29425.468078311456, 17173.96285223518, 7186.666987737059, 0.05, 0.992, -0.176, 192.0, 0.5, 72.0, 15.5, 0.0, 125.0, 64.0, 0.0, 0.0, 0.0, 1.695759015194604E9, 0.0, 2023-09-26 15:10:15.194
24.0, 28378.8476441917, -187500.02235174447, -17555.149502175987, -19017.870011075738, -21418.134441153343, -20394.17867591127, -187500.02235174447, -19814.620293929613, -12325.601258945617, -14634.491757689924, 7536.851768118355, -38411.629308656375, -22582.03447843009, -29420.036604408815, 17148.504215300585, 7164.359946770662, 0.05, 0.992, -0.176, 192.0, 0.0, 0.0, 0.0, 0.0, 0.0, 0.0, 0.0, 0.0, 0.0, 1.695759015194614E9, 0.0, 2023-09-26 15:10:15.194
26.0, 28442.39365367814, -187500.02235174447, -17543.392484592496, -19005.867124303237, -21398.442554288216, -20403.09702194894, -187500.02235174447, -19812.273360761807, -12282.037709002223, -14610.329521933738, 7514.321209707405, -38446.721547451205, -22556.32997230649, -29405.172694346034, 17126.085415611913, 7173.971196886444, 0.05, 0.992, -0.176, 192.0, 0.0, 0.0, 0.0, 0.0, 0.0, 0.0, 0.0, 0.0, 0.0, 1.695759015194623E9, 0.0, 2023-09-26 15:10:15.194
28.0, 28347.063463576254, -187500.02235174447, -17553.026086452734, -19015.165449996646, -21417.307426608495, -20403.164077182304, -187500.02235174447, -19820.49880272136, -12298.175668498954, -14633.016542555875, 7514.902355063243, -38451.10248936445, -22572.98202192569, -29410.268892081847, 17119.357540530866, 7163.443525247994, 0.05, 0.992, -0.176, 192.0, 0.0, 0.0, 0.0, 0.0, 0.0, 0.0, 0.0, 0.0, 0.0, 1.695759015194631E9, 0.0, 2023-09-26 15:10:15.194
30.0, 28439.018540265388, -187500.02235174447, -17545.85117648258, -19012.14796449518, -21407.38325207034, -20414.675225576786, -187500.02235174447, -19827.71841618042, -12286.57511312665, -14631.362513466182, 7512.175442239695, -38458.746785968164, -22566.723533478205, -29416.1921043625, 17123.492613255097, 7172.160705585565, 0.05, 0.992, -0.176, 192.0, 0.0, 0.0, 0.0, 0.0, 0.0, 0.0, 0.0, 0.0, 0.0, 1.695759015254657E9, 0.0, 2023-09-26 15:10:15.254
32.0, 28326.097527277176, -187500.02235174447, -17552.020257952245, -19017.825307586827, -21421.77777549956, -20399.543094580546, -187500.02235174447, -19825.43853824598, -12295.493459164318, -14656.463522489492, 7532.627288416302, -38441.133611337376, -22569.539853279573, -29415.521552028844, 17139.518814029554, 7170.618435218148, 0.056, 0.994, -0.184, 192.0, 0.5, 96.0, 15.5, 8.0, 125.0, 32.0, 0.0, 0.0, 0.0, 1.695759015254702E9, 0.0, 2023-09-26 15:10:15.254
34.0, 28380.076990136742, -187500.02235174447, -17536.08346415561, -19000.256836444954, -21396.02856588704, -20404.08049870497, -187500.02235174447, -19817.414261986527, -12275.71216532137, -14646.964031095986, 7475.742098777545, -38507.85356853647, -22553.066617616012, -29404.032755378816, 17093.675386151717, 7165.969272371444, 0.056, 0.994, -0.184, 192.0, 0.0, 0.0, 0.0, 0.0, 0.0, 0.0, 0.0, 0.0, 0.0, 1.695759015254721E9, 0.0, 2023-09-26 15:10:15.254
36.0, 28292.30168966075, -187500.02235174447, -17557.183510921423, -19016.819479086338, -21425.175240656765, -20403.812277771507, -187500.02235174447, -19828.053692347254, -12294.889962064024, -14664.7113161935, 7517.718674864612, -38467.5310215391, -22569.47279804621, -29414.850999695183, 17124.073758610935, 7171.557208485271, 0.056, 0.994, -0.184, 192.0, 0.0, 0.0, 0.0, 0.0, 0.0, 0.0, 0.0, 0.0, 0.0, 1.695759015254736E9, 0.0, 2023-09-26 15:10:15.254
38.0, 28334.568838425737, -187500.02235174447, -17545.58295554912, -19003.497839390977, -21397.61553974337, -20410.94248425275, -187500.02235174447, -19822.845735889165, -12286.508057893285, -14662.90082489262, 7448.495322286525, -38542.16349627537, -22565.024800899602, -29406.893778669095, 17066.160388727236, 7149.764257641346, 0.056, 0.994, -0.184, 192.0, 0.0, 0.0, 0.0, 0.0, 0.0, 0.0, 0.0, 0.0, 0.0, 1.695759015254746E9, 0.0, 2023-09-26 15:10:15.254
40.0, 28272.83332024018, -187500.02235174447, -17564.224310424845, -19018.585266898306, -21430.651418048314, -20405.93569349476, -187500.02235174447, -19831.562916226736, -12300.813174344681, -14674.970766898487, 7515.6846661191785, -38476.315257110036, -22577.854702216948, -29415.476848539933, 17120.631589964818, 7169.65731020657, 0.056, 0.994, -0.184, 192.0, 0.0, 0.0, 0.0, 0.0, 0.0, 0.0, 0.0, 0.0, 0.0, 1.695759015254755E9, 0.0, 2023-09-26 15:10:15.254
42.0, 28296.861445529634, -187500.02235174447, -17537.670438011937, -18996.09941197627, -21400.74478396711, -20403.789926027053, -187500.02235174447, -19822.421052744514, -12283.043537502712, -14669.405182529115, 7429.786912177434, -38566.906877387395, -22559.906251419336, -29399.562406487752, 17049.284821663477, 7147.149103540076, 0.058, 0.992, -0.184, 192.0, 0.5, 104.0, 15.5, 0.0, 125.0, 32.0, 0.0, 0.0, 0.0, 1.695759015254764E9, 0.0, 2023-09-26 15:10:15.254
44.0, 28254.88486944257, -187500.02235174447, -17558.18933942191, -19014.114918007246, -21431.8584122489, -20403.47700160468, -187500.02235174447, -19828.679541192003, -12293.928837052446, -14678.837618689255, 7504.978180525087, -38497.75058004267, -22568.22110035671, -29412.34760431619, 17108.38283400331, 7169.32203403974, 0.058, 0.992, -0.184, 192.0, 0.0, 0.0, 0.0, 0.0, 0.0, 0.0, 0.0, 0.0, 0.0, 1.695759015254773E9, 0.0, 2023-09-26 15:10:15.254
46.0, 28279.292974387765, -187500.02235174447, -17537.648086267483, -18999.675691089116, -21397.9508159102, -20410.316635408002, -187500.02235174447, -19824.723282423412, -12288.81028757218, -14694.014453174408, 7418.052246338398, -38593.21488061129, -22565.00244915515, -29405.999708890882, 17035.42674010119, 7146.5232546953275, 0.058, 0.992, -0.184, 192.0, 0.0, 0.0, 0.0, 0.0, 0.0, 0.0, 0.0, 0.0, 0.0, 1.695759015314424E9, 0.0, 2023-09-26 15:10:15.314
48.0, 28255.801290965235, -187500.02235174447, -17554.81422600916, -19021.58040065532, -21428.19272615823, -20405.488658605656, -187500.02235174447, -19833.328704038704, -12289.592598628116, -14695.400261330637, 7520.8479190883545, -38495.00131547467, -22562.90138517635, -29422.718813743453, 17123.559668488466, 7179.469726022449, 0.058, 0.992, -0.184, 192.0, 0.0, 0.0, 0.0, 0.0, 0.0, 0.0, 0.0, 0.0, 0.0, 1.695759015314445E9, 0.0, 2023-09-26 15:10:15.314
50.0, 28243.463128025905, -187500.02235174447, -17532.66364725395, -19002.603769612764, -21401.9517781677, -20399.878370747374, -187500.02235174447, -19813.748575895857, -12278.48378163383, -14695.377909586181, 7418.722798672056, -38602.7143720048, -22553.89363216086, -29406.446743779987, 17033.884469733774, 7146.120923295131, 0.058, 0.992, -0.184, 192.0, 0.0, 0.0, 0.0, 0.0, 0.0, 0.0, 0.0, 0.0, 0.0, 1.695759015314455E9, 0.0, 2023-09-26 15:10:15.314
52.0, 28276.70017203095, -187500.02235174447, -17564.403124380486, -19028.732958881017, -21435.926429739768, -20397.665548046298, -187500.02235174447, -19824.522116723314, -12271.57709259714, -14678.569397755791, 7520.15501501024, -38500.63395507741, -22560.152120608345, -29425.088098655713, 17124.900773155783, 7186.75639471488, 0.054, 0.998, -0.184, 192.0, 0.5, 88.0, 15.5, 24.0, 125.0, 32.0, 0.0, 0.0, 0.0, 1.695759015314493E9, 0.0, 2023-09-26 15:10:15.314
54.0, 28233.58365697666, -187500.02235174447, -17551.14853991849, -19010.605694127764, -21411.04893816101, -20376.94548093623, -187500.02235174447, -19804.830229858188, -12267.643185573004, -14651.814359642787, 7437.833540181344, -38583.98361015125, -22556.97817289569, -29409.799505448285, 17054.604536843843, 7154.36871699914, 0.054, 0.998, -0.184, 192.0, 0.0, 0.0, 0.0, 0.0, 0.0, 0.0, 0.0, 0.0, 0.0, 1.695759015314505E9, 0.0, 2023-09-26 15:10:15.314
56.0, 28272.78861675127, -187500.02235174447, -17573.433229140428, -19023.837926845306, -21424.99642670112, -20374.062105901492, -187500.02235174447, -19808.38415722658, -12244.84440622859, -14565.916605701042, 7519.842090587866, -38506.646574335886, -22544.79647216755, -29411.49823802689, 17124.543145244497, 7192.523144784349, 0.054, 0.998, -0.184, 192.0, 0.0, 0.0, 0.0, 0.0, 0.0, 0.0, 0.0, 0.0, 0.0, 1.695759015314522E9, 0.0, 2023-09-26 15:10:15.314
58.0, 28224.77706966127, -187500.02235174447, -17568.962880249368, -19009.62221737173, -21401.23652234513, -20363.93676566324, -187500.02235174447, -19794.48137217538, -12248.420685341442, -14501.498878180848, 7431.820920922866, -38595.67357250137, -22548.41745476931, -29407.027889135825, 17048.94954549665, 7151.731211153414, 0.054, 0.998, -0.184, 192.0, 0.0, 0.0, 0.0, 0.0, 0.0, 0.0, 0.0, 0.0, 0.0, 1.695759015314531E9, 0.0, 2023-09-26 15:10:15.314
60.0, 28294.425105384005, -187500.02235174447, -17582.37392692255, -19017.199458742078, -21420.883705721346, -20361.612184239886, -187500.02235174447, -19803.176200768496, -12231.165138621944, -14394.456373984382, 7524.1336255232845, -38505.77485630213, -22539.70027443174, -29411.945272915993, 17132.120386614846, 7197.038197164321, 0.054, 0.998, -0.184, 192.0, 0.0, 0.0, 0.0, 0.0, 0.0, 0.0, 0.0, 0.0, 0.0, 1.69575901537469E9, 0.0, 2023-09-26 15:10:15.374
62.0, 28239.462165768407, -187500.02235174447, -17580.071697243657, -19006.224752214523, -21415.899266707813, -20360.06991387247, -187500.02235174447, -19796.62713964309, -12235.501377046274, -14325.948277228867, 7457.391316579738, -38568.0021128657, -22541.041379099057, -29407.20670309147, 17072.95531904165, 7165.499885737883, 0.058, 0.996, -0.18, 192.0, 0.5, 104.0, 15.5, 16.0, 125.0, 48.0, 0.0, 0.0, 0.0, 1.695759015374716E9, 0.0, 2023-09-26 15:10:15.374
64.0, 28324.622312143125, -187500.02235174447, -17593.214522983377, -19018.71937736504, -21428.19272615823, -20369.234129099146, -187500.02235174447, -19807.467735703915, -12220.637466983495, -14237.055389530111, 7536.717657651622, -38483.37840835791, -22540.817861654505, -29413.01815664985, 17146.02317166605, 7197.686397753525, 0.058, 0.996, -0.18, 192.0, 0.0, 0.0, 0.0, 0.0, 0.0, 0.0, 0.0, 0.0, 0.0, 1.695759015374727E9, 0.0, 2023-09-26 15:10:15.374
66.0, 28252.0685496412, -187500.02235174447, -17581.47985714434, -18999.295711433377, -21417.597999286416, -20350.65982945679, -187500.02235174447, -19789.899264562042, -12218.961086149346, -14175.23046436673, 7480.592427324346, -38532.082859526025, -22531.89951561684, -29391.985165117403, 17095.083546052403, 7170.909007896067, 0.058, 0.996, -0.18, 192.0, 0.0, 0.0, 0.0, 0.0, 0.0, 0.0, 0.0, 0.0, 0.0, 1.695759015374737E9, 0.0, 2023-09-26 15:10:15.374
68.0, 28369.459911520473, -187500.02235174447, -17591.851066571602, -19008.169353982135, -21413.306464350997, -20366.395457553324, -187500.02235174447, -19794.950758808944, -12212.769652935225, -14111.639751391382, 7547.5582537124465, -38459.1267656239, -22538.873259886892, -29407.094944369193, 17163.5022358301, 7210.270429881863, 0.058, 0.996, -0.18, 192.0, 0.0, 0.0, 0.0, 0.0, 0.0, 0.0, 0.0, 0.0, 0.0, 1.69575901537475E9, 0.0, 2023-09-26 15:10:15.374
70.0, 28292.0781722162, -187500.02235174447, -17590.085278759634, -19001.575589367818, -21421.598961543914, -20356.895966159816, -187500.02235174447, -19794.950758808944, -12232.081560144612, -14088.908027280335, 7528.849843603354, -38468.51449829513, -22550.540870492565, -29404.703307712476, 17147.766607733563, 7185.258827836375, 0.058, 0.996, -0.18, 192.0, 0.0, 0.0, 0.0, 0.0, 0.0, 0.0, 0.0, 0.0, 0.0, 1.695759015374759E9, 0.0, 2023-09-26 15:10:15.374
72.0, 28403.546321814814, -187500.02235174447, -17586.28548220223, -18998.289882932888, -21413.842906217924, -20370.307012833004, -187500.02235174447, -19801.902151334543, -12203.963065619835, -14034.705046976214, 7559.270567807027, -38430.89651237685, -22530.916038860803, -29402.222264077936, 17179.371974393365, 7205.844784479712, 0.058, 0.998, -0.178, 192.0, 0.5, 104.0, 15.5, 24.0, 125.0, 56.0, 0.0, 0.0, 0.0, 1.695759015374769E9, 0.0, 2023-09-26 15:10:15.374
74.0, 28329.025605800824, -187500.02235174447, -17593.43804042793, -18999.496877133475, -21422.58243829995, -20365.434332541747, -187500.02235174447, -19801.857447845632, -12223.073807129122, -14031.598154496927, 7565.864332421343, -38413.93153833527, -22545.198803567746, -29404.837418179206, 17180.73543080514, 7193.171345373553, 0.058, 0.998, -0.178, 192.0, 0.0, 0.0, 0.0, 0.0, 0.0, 0.0, 0.0, 0.0, 0.0, 1.695759015374811E9, 0.0, 2023-09-26 15:10:15.374
76.0, 28457.235211996463, -187500.02235174447, -17585.570226379663, -18999.876856789215, -21409.19374337122, -20374.062105901492, -187500.02235174447, -19801.43276470098, -12207.092309843578, -14003.926694861257, 7576.839038948899, -38396.050142771026, -22536.749844163638, -29403.317499556244, 17198.147439735825, 7200.56977278826, 0.058, 0.998, -0.178, 192.0, 0.0, 0.0, 0.0, 0.0, 0.0, 0.0, 0.0, 0.0, 0.0, 1.695759015435003E9, 0.0, 2023-09-26 15:10:15.435
78.0, 28360.98860037191, -187500.02235174447, -17586.978386280345, -18997.70873757705, -21415.876914963355, -20362.12627436236, -187500.02235174447, -19797.945892565953, -12223.811414696147, -14011.079253086955, 7597.424995592237, -38363.99774122211, -22546.89753614635, -29406.424392035533, 17211.759652109107, 7188.388072060117, 0.058, 0.998, -0.178, 192.0, 0.0, 0.0, 0.0, 0.0, 0.0, 0.0, 0.0, 0.0, 0.0, 1.695759015435029E9, 0.0, 2023-09-26 15:10:15.435
80.0, 28469.953354591533, -187500.02235174447, -17572.00271749529, -18981.056687957847, -21396.09562112041, -20370.575233766467, -187500.02235174447, -19794.503723919835, -12196.98932134978, -13983.944235318213, 7574.268588336538, -38387.377665922366, -22527.3174080035, -29400.43412452151, 17196.515762390587, 7190.220915105452, 0.058, 0.998, -0.178, 192.0, 0.0, 0.0, 0.0, 0.0, 0.0, 0.0, 0.0, 0.0, 0.0, 1.695759015435039E9, 0.0, 2023-09-26 15:10:15.435
82.0, 28401.71347876948, -187500.02235174447, -17584.20676996789, -18992.634891585694, -21414.066423662476, -20355.107826603395, -187500.02235174447, -19789.385174439572, -12212.747301190771, -13988.19106676472, 7623.621240093857, -38330.00073790559, -22535.36403600741, -29402.602243733676, 17238.2688210331, 7200.100386154698, 0.056, 0.988, -0.176, 192.0, 0.5, 96.0, 15.0, 112.0, 125.0, 64.0, 0.0, 0.0, 0.0, 1.695759015435048E9, 0.0, 2023-09-26 15:10:15.435
84.0, 28491.589843224272, -187500.02235174447, -17567.666479070962, -18981.459019358044, -21392.407583285283, -20370.03879189954, -187500.02235174447, -19792.313252963217, -12197.41400449443, -13962.106580985377, 7567.518361511035, -38385.008381010106, -22523.5176114461, -29385.927842370016, 17196.225189712666, 7193.1936971180085, 0.056, 0.988, -0.176, 192.0, 0.0, 0.0, 0.0, 0.0, 0.0, 0.0, 0.0, 0.0, 0.0, 1.695759015435058E9, 0.0, 2023-09-26 15:10:15.435
86.0, 28443.757110089915, -187500.02235174447, -17588.34184269212, -18998.96043526655, -21421.71072026619, -20363.489730774134, -187500.02235174447, -19797.700023376947, -12223.967876907334, -13975.919959058758, 7639.200405979205, -38302.999830603585, -22541.84604189945, -29403.71983095644, 17257.46896952021, 7206.761206002379, 0.056, 0.988, -0.176, 192.0, 0.0, 0.0, 0.0, 0.0, 0.0, 0.0, 0.0, 0.0, 0.0, 1.695759015435067E9, 0.0, 2023-09-26 15:10:15.435
88.0, 28536.785070512902, -187500.02235174447, -17582.75390657829, -18997.351109665768, -21406.176257869753, -20379.761800737597, -187500.02235174447, -19806.21603801442, -12209.841574411581, -13966.62163336535, 7585.6903297532, -38347.658616025285, -22537.93448661977, -29403.09398211169, 17219.202783012723, 7192.143165128608, 0.056, 0.988, -0.176, 192.0, 0.0, 0.0, 0.0, 0.0, 0.0, 0.0, 0.0, 0.0, 0.0, 1.695759015435076E9, 0.0, 2023-09-26 15:10:15.435
90.0, 28479.139921562662, -187500.02235174447, -17600.836467842637, -19010.158659238656, -21427.186897657743, -20372.02809715606, -187500.02235174447, -19810.596979927657, -12224.906650174458, -13969.10267699989, 7661.283929501049, -38265.40419642976, -22547.858661157927, -29407.497275769387, 17280.625376775908, 7197.395825075606, 0.056, 0.988, -0.176, 192.0, 0.0, 0.0, 0.0, 0.0, 0.0, 0.0, 0.0, 0.0, 0.0, 1.695759015495343E9, 0.0, 2023-09-26 15:10:15.495
92.0, 28522.54700929487, -187500.02235174447, -17575.780162308238, -18990.51147586244, -21395.782696698036, -20374.062105901492, -187500.02235174447, -19795.420145442506, -12213.730777946805, -13965.19112172021, 7575.185009859206, -38350.29612187101, -22533.88882087336, -29399.271833809835, 17207.06578577349, 7166.170438071542, 0.054, 0.99, -0.176, 192.0, 0.5, 88.0, 15.0, 120.0, 125.0, 64.0, 0.0, 0.0, 0.0, 1.695759015495367E9, 0.0, 2023-09-26 15:10:15.495
94.0, 28520.244779615972, -187500.02235174447, -17598.62364514156, -19013.265551717945, -21432.350150626917, -20379.918262948784, -187500.02235174447, -19813.68152066249, -12220.838632683592, -13963.514740886063, 7672.415098239791, -38242.96304499663, -22542.538945977565, -29415.610959006663, 17291.71184202574, 7196.367644830661, 0.054, 0.99, -0.176, 192.0, 0.0, 0.0, 0.0, 0.0, 0.0, 0.0, 0.0, 0.0, 0.0, 1.69575901549541E9, 0.0, 2023-09-26 15:10:15.495
96.0, 28542.41771011564, -187500.02235174447, -17575.914272774968, -18998.066365488336, -21401.348281067407, -20380.186483882248, -187500.02235174447, -19799.622273400102, -12216.055359370155, -13969.505008400085, 7590.473603066636, -38319.428362778235, -22533.419434239797, -29410.984147904415, 17224.209573770713, 7164.069374092744, 0.054, 0.99, -0.176, 192.0, 0.0, 0.0, 0.0, 0.0, 0.0, 0.0, 0.0, 0.0, 0.0, 1.69575901549542E9, 0.0, 2023-09-26 15:10:15.495
98.0, 28523.709300006547, -187500.02235174447, -17589.302967703698, -19013.466717418043, -21410.199571871708, -20375.783190224553, -187500.02235174447, -19807.601846170648, -12209.394539522475, -13967.00161302109, 7670.962234850197, -38235.65402455974, -22529.329065004476, -29420.97537767594, 17292.248283892666, 7187.5610575152705, 0.054, 0.99, -0.176, 192.0, 0.0, 0.0, 0.0, 0.0, 0.0, 0.0, 0.0, 0.0, 0.0, 1.69575901549543E9, 0.0, 2023-09-26 15:10:15.495
100.0, 28510.231198099995, -187500.02235174447, -17578.350612920596, -19011.410356928154, -21398.978996155143, -20391.60822529891, -187500.02235174447, -19810.64168341657, -12206.064129598633, -13969.81793282246, 7562.265701564039, -38337.26505485357, -22518.086137543458, -29418.427278808034, 17200.293207203533, 7148.132580296109, 0.054, 0.99, -0.176, 192.0, 0.0, 0.0, 0.0, 0.0, 0.0, 0.0, 0.0, 0.0, 0.0, 1.695759015495439E9, 0.0, 2023-09-26 15:10:15.495
102.0, 28559.65090509068, -187500.02235174447, -17595.53910440673, -19029.80584261487, -21424.281170878552, -20392.457591588212, -187500.02235174447, -19819.29180852077, -12214.155461091455, -13965.347583931398, 7657.059449798996, -38234.51408559252, -22532.12303306139, -29442.477755841945, 17285.76627800063, 7179.6932434670025, 0.054, 0.994, -0.184, 192.0, 0.5, 88.0, 15.5, 8.0, 125.0, 32.0, 0.0, 0.0, 0.0, 1.695759015495448E9, 0.0, 2023-09-26 15:10:15.495
104.0, 28546.776300284422, -187500.02235174447, -17585.61492986857, -19017.132403508713, -21412.077118405952, -20393.61988229989, -187500.02235174447, -19814.82145962971, -12224.392560051985, -13975.33881370292, 7590.920637955742, -38293.85796712136, -22538.359169764422, -29433.604113293186, 17231.585649440964, 7157.408554245062, 0.054, 0.994, -0.184, 192.0, 0.0, 0.0, 0.0, 0.0, 0.0, 0.0, 0.0, 0.0, 0.0, 1.695759015495458E9, 0.0, 2023-09-26 15:10:15.495
106.0, 28592.217396762062, -187500.02235174447, -17593.840371828126, -19022.38506345571, -21417.262723119584, -20390.13301016486, -187500.02235174447, -19814.21796252942, -12213.820184924625, -13957.591528605406, 7676.70663317521, -38202.12640787678, -22535.587553451962, -29436.241619138913, 17307.782746289104, 7190.735005227924, 0.054, 0.994, -0.184, 192.0, 0.0, 0.0, 0.0, 0.0, 0.0, 0.0, 0.0, 0.0, 0.0, 1.695759015554791E9, 0.0, 2023-09-26 15:10:15.554
108.0, 28535.9357042236, -187500.02235174447, -17578.015336753768, -19008.61638887124, -21403.024661901556, -20382.913396705797, -187500.02235174447, -19799.15288676654, -12219.452824527363, -13961.100752484888, 7592.59701878989, -38278.36820821383, -22531.608942938918, -29426.362148089665, 17234.35726575342, 7156.648594933581, 0.054, 0.994, -0.184, 192.0, 0.0, 0.0, 0.0, 0.0, 0.0, 0.0, 0.0, 0.0, 0.0, 1.695759015554813E9, 0.0, 2023-09-26 15:10:15.554
110.0, 28614.211513306083, -187500.02235174447, -17586.95603453589, -19022.18389775561, -21420.168449898774, -20396.07857418997, -187500.02235174447, -19812.74274739537, -12207.628751710505, -13950.327211657432, 7661.1945225232275, -38204.67450674468, -22519.22607651068, -29427.233866123424, 17295.019900205123, 7188.6115895046705, 0.054, 0.994, -0.184, 192.0, 0.0, 0.0, 0.0, 0.0, 0.0, 0.0, 0.0, 0.0, 0.0, 1.695759015554822E9, 0.0, 2023-09-26 15:10:15.554
112.0, 28555.64994283318, -187500.02235174447, -17590.465258415374, -19023.368540211744, -21416.458060319193, -20394.84922824493, -187500.02235174447, -19814.508535207337, -12236.70837124686, -13982.312557972975, 7618.592097591412, -38241.554885095946, -22545.198803567746, -29436.95687496148, 17257.446617775753, 7161.364813013651, 0.052000000000000005, 0.994, -0.186, 192.0, 0.5, 80.0, 15.5, 8.0, 125.0, 24.0, 0.0, 0.0, 0.0, 1.695759015554832E9, 0.0, 2023-09-26 15:10:15.554
114.0, 28618.883027897245, -187500.02235174447, -17587.76069733628, -19021.535697166408, -21408.56789452647, -20391.205893898714, -187500.02235174447, -19815.223791029908, -12217.217650081831, -13966.643985109806, 7663.541455691035, -38196.49376827404, -22531.921867361292, -29429.87137196915, 17297.05390895056, 7181.637845234614, 0.052000000000000005, 0.994, -0.186, 192.0, 0.0, 0.0, 0.0, 0.0, 0.0, 0.0, 0.0, 0.0, 0.0, 1.695759015554841E9, 0.0, 2023-09-26 15:10:15.554
116.0, 28513.69571849057, -187500.02235174447, -17582.19511296691, -19012.483240662008, -21394.262778075074, -20383.047507172527, -187500.02235174447, -19800.38223271158, -12224.638429240995, -13986.537037675029, 7596.8662019808535, -38257.33521668139, -22534.917001118305, -29415.052165395282, 17233.016161086103, 7148.244339018386, 0.052000000000000005, 0.994, -0.186, 192.0, 0.0, 0.0, 0.0, 0.0, 0.0, 0.0, 0.0, 0.0, 0.0, 1.695759015554887E9, 0.0, 2023-09-26 15:10:15.554
118.0, 28636.071519383375, -187500.02235174447, -17598.57894165265, -19036.690179907106, -21409.596074771416, -20412.484754620167, -187500.02235174447, -19827.271381291317, -12222.17973735091, -13986.33587197493, 7637.6581356117895, -38211.55884403692, -22539.588515709464, -29437.739186017418, 17274.679812750794, 7175.13348759812, 0.052000000000000005, 0.994, -0.186, 192.0, 0.0, 0.0, 0.0, 0.0, 0.0, 0.0, 0.0, 0.0, 0.0, 1.695759015554901E9, 0.0, 2023-09-26 15:10:15.554
120.0, 28543.289428149397, -187500.02235174447, -17593.348633450107, -19032.778624627426, -21414.37934808485, -20400.12423993638, -187500.02235174447, -19818.621256187114, -12244.822054484137, -14015.77311942257, 7621.922507515253, -38219.22549238509, -22548.70802744723, -29441.896610486107, 17257.17839684229, 7151.954728597967, 0.052000000000000005, 0.994, -0.186, 192.0, 0.0, 0.0, 0.0, 0.0, 0.0, 0.0, 0.0, 0.0, 0.0, 1.695759015614422E9, 0.0, 2023-09-26 15:10:15.614
122.0, 28642.642932253235, -187500.02235174447, -17581.9492437779, -19025.983694313014, -21401.258874089584, -20406.18156268377, -187500.02235174447, -19822.19753529996, -12219.251658827265, -13993.063747055978, 7632.249013453605, -38209.99422192505, -22530.178431293778, -29434.051148182294, 17267.147274869356, 7166.6621764495585, 0.054, 1.0, -0.184, 192.0, 0.5, 88.0, 15.5, 32.0, 125.0, 32.0, 0.0, 0.0, 0.0, 1.695759015614452E9, 0.0, 2023-09-26 15:10:15.614
124.0, 28546.21750667304, -187500.02235174447, -17585.279653701742, -19024.2402582455, -21414.446403318216, -20394.022213700082, -187500.02235174447, -19812.34041599517, -12225.957182163856, -14002.540886705028, 7633.388952420825, -38203.10988463282, -22535.520498218597, -29430.184296391526, 17262.475760278197, 7160.247225790886, 0.054, 1.0, -0.184, 192.0, 0.0, 0.0, 0.0, 0.0, 0.0, 0.0, 0.0, 0.0, 0.0, 1.695759015614465E9, 0.0, 2023-09-26 15:10:15.614
126.0, 28639.200763607118, -187500.02235174447, -17581.681022844437, -19019.792261098894, -21391.580568740435, -20400.459516103212, -187500.02235174447, -19811.53575319478, -12215.60832448105, -13989.934502832235, 7617.183937690728, -38220.61130054132, -22526.423338225286, -29428.73143300193, 17253.155082840334, 7163.756449670369, 0.054, 1.0, -0.184, 192.0, 0.0, 0.0, 0.0, 0.0, 0.0, 0.0, 0.0, 0.0, 0.0, 1.695759015614477E9, 0.0, 2023-09-26 15:10:15.614
128.0, 28556.096977722285, -187500.02235174447, -17597.059023029688, -19031.079892048823, -21412.85942946189, -20395.340966622945, -187500.02235174447, -19809.166468282518, -12229.622868254528, -13998.33875874743, 7636.585251877935, -38198.25955608601, -22532.83828888396, -29426.4962585564, 17263.54864401205, 7163.220007803441, 0.054, 1.0, -0.184, 192.0, 0.0, 0.0, 0.0, 0.0, 0.0, 0.0, 0.0, 0.0, 0.0, 1.695759015614489E9, 0.0, 2023-09-26 15:10:15.614
130.0, 28649.080234656365, -187500.02235174447, -17594.600331139605, -19028.040054802903, -21400.76713571157, -20404.08049870497, -187500.02235174447, -19810.172296783006, -12232.126263633521, -13994.315444745476, 7617.899193513298, -38209.65894575822, -22537.04041684156, -29442.34364537521, 17258.743018954163, 7162.013013602855, 0.054, 1.0, -0.184, 192.0, 0.0, 0.0, 0.0, 0.0, 0.0, 0.0, 0.0, 0.0, 0.0, 1.695759015614498E9, 0.0, 2023-09-26 15:10:15.614
132.0, 28555.247611432984, -187500.02235174447, -17600.925874820456, -19026.94481932459, -21411.384214327838, -20389.03777468655, -187500.02235174447, -19801.991558312366, -12235.32256309063, -13997.176468035756, 7648.878711328353, -38173.69498892963, -22539.812033154016, -29431.88302897013, 17278.54666454156, 7164.6058159596705, 0.06, 0.996, -0.188, 192.0, 0.5, 112.0, 15.5, 16.0, 125.0, 16.0, 0.0, 0.0, 0.0, 1.695759015614508E9, 0.0, 2023-09-26 15:10:15.614
134.0, 28640.96655141909, -187500.02235174447, -17580.004642010288, -19015.299560463376, -21391.55821699598, -20403.09702194894, -187500.02235174447, -19803.466773446416, -12219.206955338354, -13989.86744759887, 7587.7690419875435, -38236.9727774826, -22527.831498125972, -29424.01521492186, 17232.859698874916, 7155.821580388735, 0.06, 0.996, -0.188, 192.0, 0.0, 0.0, 0.0, 0.0, 0.0, 0.0, 0.0, 0.0, 0.0, 1.695759015614517E9, 0.0, 2023-09-26 15:10:15.614
136.0, 28606.120181813265, -187500.02235174447, -17602.73636612134, -19037.226621774033, -21418.983807442644, -20396.235036401158, -187500.02235174447, -19814.44147997397, -12238.47415905883, -14008.82172689697, 7681.132278577362, -38138.558046645885, -22547.635143713374, -29441.226058152446, 17313.549496358573, 7181.5707900012485, 0.06, 0.996, -0.188, 192.0, 0.0, 0.0, 0.0, 0.0, 0.0, 0.0, 0.0, 0.0, 0.0, 1.695759015674697E9, 0.0, 2023-09-26 15:10:15.674
138.0, 28670.180281422174, -187500.02235174447, -17586.933682791434, -19022.943857067094, -21396.743821709613, -20405.13103069437, -187500.02235174447, -19811.379290983594, -12231.61217351105, -14004.507840217095, 7604.488146840114, -38212.385858581765, -22541.711931432717, -29436.711005772475, 17251.568108984007, 7156.782705400313, 0.06, 0.996, -0.188, 192.0, 0.0, 0.0, 0.0, 0.0, 0.0, 0.0, 0.0, 0.0, 0.0, 1.695759015674761E9, 0.0, 2023-09-26 15:10:15.674
140.0, 28637.636141495248, -187500.02235174447, -17596.76845035177, -19027.95064782508, -21419.363787098384, -20388.769553753085, -187500.02235174447, -19813.54741019576, -12242.341010849597, -14008.709968174693, 7694.230400828172, -38117.41329639117, -22548.1715855803, -29443.952970975995, 17328.033426765614, 7184.543572013805, 0.06, 0.996, -0.188, 192.0, 0.0, 0.0, 0.0, 0.0, 0.0, 0.0, 0.0, 0.0, 0.0, 1.695759015674773E9, 0.0, 2023-09-26 15:10:15.674
142.0, 28639.357225818305, -187500.02235174447, -17569.63343258303, -19004.369557424732, -21388.47367626115, -20386.80260024102, -187500.02235174447, -19798.191761754962, -12223.096158873577, -14000.953912848701, 7590.07127166644, -38222.4217918422, -22528.74791964864, -29416.415621807057, 17238.2688210331, 7152.357059998162, 0.058, 1.002, -0.19, 192.0, 0.5, 104.0, 15.5, 40.0, 125.0, 8.0, 0.0, 0.0, 0.0, 1.695759015674784E9, 0.0, 2023-09-26 15:10:15.674
144.0, 28635.691539727635, -187500.02235174447, -17596.00849104029, -19032.33158973832, -21419.073214420463, -20397.598492812933, -187500.02235174447, -19814.195610784962, -12232.729760733815, -14003.792584394525, 7671.230455783661, -38137.932197801136, -22538.56033546452, -29435.034624938326, 17305.167592187834, 7181.146106856598, 0.058, 1.002, -0.19, 192.0, 0.0, 0.0, 0.0, 0.0, 0.0, 0.0, 0.0, 0.0, 0.0, 1.695759015674795E9, 0.0, 2023-09-26 15:10:15.674
146.0, 28644.76634797649, -187500.02235174447, -17571.33216516163, -19013.2879034624, -21379.331812778928, -20394.42454510028, -187500.02235174447, -19803.980863568886, -12228.572336265128, -14012.77798566556, 7583.768079730044, -38220.74541100805, -22530.156079549324, -29426.96564518996, 17232.613829685906, 7150.703030908469, 0.058, 1.002, -0.19, 192.0, 0.0, 0.0, 0.0, 0.0, 0.0, 0.0, 0.0, 0.0, 0.0, 1.695759015674812E9, 0.0, 2023-09-26 15:10:15.674
148.0, 28676.394066380748, -187500.02235174447, -17596.38847069603, -19040.065293319858, -21411.451269561207, -20405.399251627834, -187500.02235174447, -19817.280151519793, -12234.47319680133, -14022.232773570155, 7688.418947269792, -38108.04791546439, -22540.683751187775, -29444.489412842922, 17323.786595319103, 7189.773880216347, 0.058, 1.002, -0.19, 192.0, 0.0, 0.0, 0.0, 0.0, 0.0, 0.0, 0.0, 0.0, 0.0, 1.695759015674821E9, 0.0, 2023-09-26 15:10:15.674
150.0, 28668.973287221586, -187500.02235174447, -17582.61979611156, -19029.470566448043, -21396.386193798327, -20405.287492905558, -187500.02235174447, -19806.17133452551, -12242.631583527516, -14052.429980329274, 7614.546431845001, -38172.823270895875, -22537.733320919673, -29444.623523309652, 17261.31346956652, 7153.541702454294, 0.058, 1.002, -0.19, 192.0, 0.0, 0.0, 0.0, 0.0, 0.0, 0.0, 0.0, 0.0, 0.0, 1.695759015735002E9, 0.0, 2023-09-26 15:10:15.735
152.0, 28726.931360594197, -187500.02235174447, -17593.773316594757, -19038.031284574423, -21416.078080663454, -20406.494487106145, -187500.02235174447, -19818.50949746484, -12237.200109624877, -14051.267689617598, 7715.173985382794, -38068.57473475632, -22544.148271578346, -29441.471927341456, 17350.228709009734, 7193.886601196123, 0.058, 1.002, -0.184, 192.0, 0.5, 104.0, 15.5, 40.0, 125.0, 32.0, 0.0, 0.0, 0.0, 1.695759015735027E9, 0.0, 2023-09-26 15:10:15.735
154.0, 28663.92179297469, -187500.02235174447, -17567.53236860423, -19012.75146159547, -21391.826437929445, -20392.837571243952, -187500.02235174447, -19801.83509610118, -12237.513034047251, -14061.63889904486, 7622.391894148815, -38156.99823582151, -22533.12886156188, -29420.10365964218, 17267.549606269553, 7153.295833265285, 0.058, 1.002, -0.184, 192.0, 0.0, 0.0, 0.0, 0.0, 0.0, 0.0, 0.0, 0.0, 0.0, 1.695759015735037E9, 0.0, 2023-09-26 15:10:15.735
156.0, 28761.062474377453, -187500.02235174447, -17585.81609556867, -19030.72226413754, -21407.830286959444, -20410.786022041564, -187500.02235174447, -19815.313198007727, -12233.0873886451, -14056.63210828687, 7704.154575366328, -38070.80990920185, -22542.56129772202, -29438.655607540088, 17341.48917692771, 7189.796231960801, 0.058, 1.002, -0.184, 192.0, 0.0, 0.0, 0.0, 0.0, 0.0, 0.0, 0.0, 0.0, 0.0, 1.695759015735047E9, 0.0, 2023-09-26 15:10:15.735
158.0, 28706.412459184226, -187500.02235174447, -17589.705299103895, -19037.696008407594, -21405.818629958467, -20416.37395815539, -187500.02235174447, -19818.50949746484, -12258.993060468802, -14095.993530272668, 7663.809676624499, -38102.147054928195, -22554.474777516698, -29452.536040846833, 17309.19090618979, 7159.129638568121, 0.058, 1.002, -0.184, 192.0, 0.0, 0.0, 0.0, 0.0, 0.0, 0.0, 0.0, 0.0, 0.0, 1.695759015735056E9, 0.0, 2023-09-26 15:10:15.735
160.0, 28790.70088752519, -187500.02235174447, -17589.90646480399, -19044.58034569983, -21413.217057373175, -20414.60817034342, -187500.02235174447, -19820.92348586601, -12248.37598185253, -14091.657291848338, 7728.517976822613, -38035.941187851575, -22553.55835599403, -29455.531174603842, 17366.38902025092, 7181.302569067785, 0.058, 1.002, -0.184, 192.0, 0.0, 0.0, 0.0, 0.0, 0.0, 0.0, 0.0, 0.0, 0.0, 1.695759015735103E9, 0.0, 2023-09-26 15:10:15.735
162.0, 28671.16375817821, -187500.02235174447, -17572.740325062314, -19025.603714657274, -21402.28705433453, -20394.491600333644, -187500.02235174447, -19805.321968236207, -12245.961993451358, -14111.617399646926, 7650.488036929136, -38107.89145325321, -22543.433015755774, -29434.67699702704, 17292.33769087049, 7138.633088902604, 0.056, 0.996, -0.182, 192.0, 0.5, 96.0, 15.5, 16.0, 125.0, 40.0, 0.0, 0.0, 0.0, 1.695759015735112E9, 0.0, 2023-09-26 15:10:15.735
164.0, 28788.8456927354, -187500.02235174447, -17578.931758276434, -19030.588153670808, -21404.410470057785, -20408.46144061821, -187500.02235174447, -19817.21309628643, -12234.115568890044, -14095.993530272668, 7696.845554929442, -38058.11411835124, -22538.739149420162, -29439.50497382939, 17335.230688480224, 7170.909007896067, 0.056, 0.996, -0.182, 192.0, 0.0, 0.0, 0.0, 0.0, 0.0, 0.0, 0.0, 0.0, 0.0, 1.695759015735122E9, 0.0, 2023-09-26 15:10:15.735
166.0, 28688.553415364437, -187500.02235174447, -17579.155275720987, -19025.134328023712, -21409.171391626765, -20395.966815467695, -187500.02235174447, -19809.121764793606, -12255.886167989513, -14120.803966618058, 7667.497714459624, -38079.080054650316, -22551.591402481965, -29434.431127838034, 17305.793441032583, 7151.977080342422, 0.056, 0.996, -0.182, 192.0, 0.0, 0.0, 0.0, 0.0, 0.0, 0.0, 0.0, 0.0, 0.0, 1.695759015795201E9, 0.0, 2023-09-26 15:10:15.795
168.0, 28800.02156496305, -187500.02235174447, -17577.85887454258, -19024.508479178963, -21400.61067350038, -20401.331234136967, -187500.02235174447, -19810.619331672115, -12244.75499925077, -14109.717501368226, 7691.525839749079, -38057.264752061936, -22544.930582634282, -29433.15707840408, 17332.280258212122, 7170.529028240327, 0.056, 0.996, -0.182, 192.0, 0.0, 0.0, 0.0, 0.0, 0.0, 0.0, 0.0, 0.0, 0.0, 1.695759015795222E9, 0.0, 2023-09-26 15:10:15.795
170.0, 28702.679717860192, -187500.02235174447, -17575.847217541603, -19015.3889674412, -21411.80889747249, -20384.098039161927, -187500.02235174447, -19798.795258855254, -12255.908519733968, -14125.453129464762, 7672.61626393989, -38071.12283362423, -22549.4232832698, -29421.02008116485, 17308.475650367218, 7155.598062944182, 0.056, 0.996, -0.182, 192.0, 0.0, 0.0, 0.0, 0.0, 0.0, 0.0, 0.0, 0.0, 0.0, 1.695759015795232E9, 0.0, 2023-09-26 15:10:15.795
172.0, 28793.964242215665, -187500.02235174447, -17562.704391801883, -19003.631949857707, -21392.787562941023, -20381.773457738575, -187500.02235174447, -19791.687404118467, -12243.61506028355, -14111.639751391382, 7674.605569196412, -38064.529069009914, -22540.527288976587, -29409.86656068165, 17318.198659205278, 7175.066432364754, 0.056, 0.996, -0.176, 192.0, 0.5, 96.0, 15.5, 16.0, 125.0, 64.0, 0.0, 0.0, 0.0, 1.695759015795242E9, 0.0, 2023-09-26 15:10:15.795
174.0, 28711.21808424212, -187500.02235174447, -17563.777275535736, -19001.66499634564, -21399.13545836633, -20374.93382393525, -187500.02235174447, -19786.63590987157, -12250.409990597964, -14123.21795501923, 7678.070089586984, -38052.25796130395, -22541.577820965984, -29400.3894210326, 17318.578638861018, 7175.982853887422, 0.056, 0.996, -0.176, 192.0, 0.0, 0.0, 0.0, 0.0, 0.0, 0.0, 0.0, 0.0, 0.0, 1.695759015795252E9, 0.0, 2023-09-26 15:10:15.795
176.0, 28830.777565333556, -187500.02235174447, -17563.821979024648, -19007.76702258194, -21381.969318624655, -20396.50325733462, -187500.02235174447, -19796.671843132, -12252.801627254681, -14127.263620765641, 7671.453973228214, -38052.637940959685, -22538.44857674224, -29411.654700238076, 17323.42896740782, 7186.018787147855, 0.056, 0.996, -0.176, 192.0, 0.0, 0.0, 0.0, 0.0, 0.0, 0.0, 0.0, 0.0, 0.0, 1.695759015795262E9, 0.0, 2023-09-26 15:10:15.795
178.0, 28782.07311416544, -187500.02235174447, -17584.20676996789, -19025.156679768166, -21418.156792897797, -20393.79869625553, -187500.02235174447, -19809.45704096044, -12277.05326998869, -14153.482217011717, 7730.619040801412, -37981.15706219162, -22564.644821243863, -29421.847095709694, 17374.14507557691, 7195.607685519181, 0.056, 0.996, -0.176, 192.0, 0.0, 0.0, 0.0, 0.0, 0.0, 0.0, 0.0, 0.0, 0.0, 1.695759015795271E9, 0.0, 2023-09-26 15:10:15.795
180.0, 28879.794940924043, -187500.02235174447, -17557.027048710235, -18999.80980155585, -21384.33860353692, -20381.214664127194, -187500.02235174447, -19789.47458141739, -12263.955147737879, -14152.342278044496, 7706.054473645029, -37996.915042032604, -22554.49712926115, -29409.531284514822, 17364.1985492943, 7197.105252397687, 0.056, 0.996, -0.176, 192.0, 0.0, 0.0, 0.0, 0.0, 0.0, 0.0, 0.0, 0.0, 0.0, 1.695759015856156E9, 0.0, 2023-09-26 15:10:15.856
182.0, 28827.111879242886, -187500.02235174447, -17564.179606935933, -19004.503667891466, -21404.18695261323, -20369.636460499343, -187500.02235174447, -19789.005194783833, -12262.323470392641, -14151.090580355, 7766.8512185634645, -37926.30588129829, -22553.69246646076, -29404.837418179206, 17415.473451074773, 7214.316095628274, 0.052000000000000005, 0.99, -0.18, 192.0, 0.5, 80.0, 15.0, 120.0, 125.0, 48.0, 0.0, 0.0, 0.0, 1.695759015856214E9, 0.0, 2023-09-26 15:10:15.856
184.0, 28903.912473191318, -187500.02235174447, -17546.275859627232, -18988.678632817107, -21375.46496098816, -20376.520797791578, -187500.02235174447, -19780.556235379725, -12244.151502150477, -14144.809740163058, 7701.8746974318865, -37986.05209422733, -22535.699312174238, -29391.29226103929, 17366.67959292884, 7201.687360011025, 0.052000000000000005, 0.99, -0.18, 192.0, 0.0, 0.0, 0.0, 0.0, 0.0, 0.0, 0.0, 0.0, 0.0, 1.695759015856225E9, 0.0, 2023-09-26 15:10:15.856
186.0, 28871.256574542116, -187500.02235174447, -17562.793798779705, -19009.353996438265, -21395.67093797576, -20369.479998288156, -187500.02235174447, -19782.947872036442, -12258.881301746524, -14164.479275283727, 7791.013454319651, -37889.44785469149, -22548.75273093614, -29402.155208844568, 17443.07785547708, 7223.18973817703, 0.052000000000000005, 0.99, -0.18, 192.0, 0.0, 0.0, 0.0, 0.0, 0.0, 0.0, 0.0, 0.0, 0.0, 1.695759015856234E9, 0.0, 2023-09-26 15:10:15.856
188.0, 28923.35849086744, -187500.02235174447, -17546.00763869377, -18994.08775497529, -21366.680725417224, -20376.856073958406, -187500.02235174447, -19780.220959212897, -12258.054287201678, -14174.470505055251, 7720.158424396328, -37952.14449788863, -22545.802300668038, -29397.796618675784, 17390.417145540374, 7198.692226254014, 0.052000000000000005, 0.99, -0.18, 192.0, 0.0, 0.0, 0.0, 0.0, 0.0, 0.0, 0.0, 0.0, 0.0, 1.695759015856243E9, 0.0, 2023-09-26 15:10:15.856
190.0, 28917.256464631137, -187500.02235174447, -17569.119342460555, -19015.61248488575, -21405.66216774728, -20385.685013018254, -187500.02235174447, -19796.71654662091, -12261.228234914332, -14181.667766769859, 7804.938591115308, -37861.82109854473, -22547.679847202286, -29403.406906534066, 17462.993259786756, 7221.6027643207035, 0.052000000000000005, 0.99, -0.18, 192.0, 0.0, 0.0, 0.0, 0.0, 0.0, 0.0, 0.0, 0.0, 0.0, 1.695759015856252E9, 0.0, 2023-09-26 15:10:15.856
192.0, 28939.40704338635, -187500.02235174447, -17551.059132940667, -18996.501743376462, -21386.19379832671, -20379.627690270867, -187500.02235174447, -19792.737936107867, -12268.671365817949, -14201.113784445977, 7733.2788983915925, -37925.769439431366, -22553.13367284938, -29410.224188592936, 17406.108070148002, 7187.494002281905, 0.052000000000000005, 0.998, -0.184, 192.0, 0.5, 80.0, 15.5, 24.0, 125.0, 32.0, 0.0, 0.0, 0.0, 1.695759015856261E9, 0.0, 2023-09-26 15:10:15.856
194.0, 28933.595589827968, -187500.02235174447, -17568.33703140462, -19007.923484793126, -21413.418223073273, -20377.83955071444, -187500.02235174447, -19799.510514677826, -12255.66265054496, -14190.697871529803, 7801.786995147109, -37855.11557520814, -22542.047207599546, -29394.66737445204, 17461.69685860835, 7205.688322268525, 0.052000000000000005, 0.998, -0.184, 192.0, 0.0, 0.0, 0.0, 0.0, 0.0, 0.0, 0.0, 0.0, 0.0, 1.695759015856271E9, 0.0, 2023-09-26 15:10:15.856
196.0, 28920.944502466264, -187500.02235174447, -17552.176720163432, -18994.66890033113, -21390.060650117477, -20375.447914057724, -187500.02235174447, -19787.19470348295, -12266.279729161231, -14217.989351509734, 7714.168156882305, -37939.29224482683, -22546.763425679615, -29394.6897261965, 17389.903055417904, 7174.306473053274, 0.052000000000000005, 0.998, -0.184, 192.0, 0.0, 0.0, 0.0, 0.0, 0.0, 0.0, 0.0, 0.0, 0.0, 1.6957590159144E9, 0.0, 2023-09-26 15:10:15.914
198.0, 28934.132031694895, -187500.02235174447, -17568.113513960066, -19010.650397616675, -21397.593187998915, -20377.459571058702, -187500.02235174447, -19795.330738464683, -12263.530464593228, -14220.76096782219, 7796.467279966746, -37853.461546118444, -22549.445635014254, -29403.42925827852, 17457.762951584216, 7206.135357157631, 0.052000000000000005, 0.998, -0.184, 192.0, 0.0, 0.0, 0.0, 0.0, 0.0, 0.0, 0.0, 0.0, 0.0, 1.695759015914423E9, 0.0, 2023-09-26 15:10:15.914
200.0, 28897.966909166207, -187500.02235174447, -17551.75203701878, -18996.233522443, -21385.7467634376, -20377.213701869692, -187500.02235174447, -19786.30063370474, -12263.172836681942, -14243.403284955417, 7697.0020171406295, -37951.4068903216, -22543.99180936716, -29395.650851208076, 17364.06443882757, 7164.806981659768, 0.052000000000000005, 0.998, -0.184, 192.0, 0.0, 0.0, 0.0, 0.0, 0.0, 0.0, 0.0, 0.0, 0.0, 1.695759015914433E9, 0.0, 2023-09-26 15:10:15.914
202.0, 28931.561581082533, -187500.02235174447, -17558.72578128884, -19003.94487428008, -21399.068403132966, -20380.208835626705, -187500.02235174447, -19794.19079949746, -12256.266147645254, -14242.755084366214, 7775.881323323408, -37871.92408703853, -22542.494242488654, -29403.29514781179, 17428.54922158113, 7196.121775641654, 0.054, 0.998, -0.182, 192.0, 0.5, 88.0, 15.5, 24.0, 125.0, 40.0, 0.0, 0.0, 0.0, 1.695759015914474E9, 0.0, 2023-09-26 15:10:15.914
204.0, 28862.85231862692, -187500.02235174447, -17549.941545717902, -18996.881723032206, -21388.496028005604, -20380.544111793533, -187500.02235174447, -19790.435706428972, -12267.24085417281, -14266.336174766562, 7697.225534585183, -37947.51768678638, -22541.711931432717, -29395.270871552333, 17358.454150969286, 7164.672871193036, 0.054, 0.998, -0.182, 192.0, 0.0, 0.0, 0.0, 0.0, 0.0, 0.0, 0.0, 0.0, 0.0, 1.695759015914484E9, 0.0, 2023-09-26 15:10:15.914
206.0, 28920.25159838815, -187500.02235174447, -17558.546967333194, -19006.76119408145, -21398.04022288802, -20386.98141419666, -187500.02235174447, -19802.662110646022, -12259.551854080184, -14260.301203763629, 7746.108799708939, -37897.33802048421, -22541.778986666082, -29401.305842555266, 17398.039090399634, 7185.974083658944, 0.054, 0.998, -0.182, 192.0, 0.0, 0.0, 0.0, 0.0, 0.0, 0.0, 0.0, 0.0, 0.0, 1.695759015914492E9, 0.0, 2023-09-26 15:10:15.914
208.0, 28868.216737296196, -187500.02235174447, -17554.23308065332, -19004.503667891466, -21396.117972864864, -20387.093172918936, -187500.02235174447, -19801.83509610118, -12271.599444341595, -14286.855076176535, 7694.9456566507415, -37944.0531663958, -22543.99180936716, -29401.14938034408, 17351.078075299036, 7164.516408981849, 0.054, 0.998, -0.182, 192.0, 0.0, 0.0, 0.0, 0.0, 0.0, 0.0, 0.0, 0.0, 0.0, 1.695759015914501E9, 0.0, 2023-09-26 15:10:15.914
210.0, 28920.81039199953, -187500.02235174447, -17555.127150431534, -19005.688310347596, -21390.485333262128, -20382.26519611659, -187500.02235174447, -19798.750555366347, -12265.966804738857, -14284.575198242093, 7746.53348285359, -37890.185462258516, -22549.535041992076, -29404.613900734654, 17399.938988678336, 7188.477479037939, 0.054, 0.998, -0.182, 192.0, 0.0, 0.0, 0.0, 0.0, 0.0, 0.0, 0.0, 0.0, 0.0, 1.695759015974657E9, 0.0, 2023-09-26 15:10:15.974
212.0, 28816.718318071165, -187500.02235174447, -17549.181586406423, -19000.927388778615, -21396.60971124288, -20380.633518771356, -187500.02235174447, -19793.96728205291, -12273.879322276036, -14303.21655311782, 7675.387880252348, -37962.31454161579, -22547.836309413473, -29392.298089539778, 17327.318170943043, 7155.642766433092, 0.054, 0.996, -0.182, 192.0, 0.5, 88.0, 15.5, 16.0, 125.0, 40.0, 0.0, 0.0, 0.0, 1.695759015974684E9, 0.0, 2023-09-26 15:10:15.974
214.0, 28900.492656289658, -187500.02235174447, -17555.03774345371, -19011.56681913934, -21401.258874089584, -20391.831742743463, -187500.02235174447, -19799.935197822477, -12265.273900660743, -14302.657759506435, 7703.2828573325705, -37933.726660457454, -22550.40676002583, -29404.92682515703, 17354.833168367528, 7177.949807399489, 0.054, 0.996, -0.182, 192.0, 0.0, 0.0, 0.0, 0.0, 0.0, 0.0, 0.0, 0.0, 0.0, 1.695759015974694E9, 0.0, 2023-09-26 15:10:15.974
216.0, 28790.544425314, -187500.02235174447, -17548.891013728502, -19004.14603998018, -21399.42603104425, -20372.922166934273, -187500.02235174447, -19791.508590162826, -12280.830714801636, -14328.116396441032, 7679.478249487669, -37955.72077700148, -22554.2736118166, -29402.848112922686, 17328.70397909927, 7161.029536846821, 0.054, 0.996, -0.182, 192.0, 0.0, 0.0, 0.0, 0.0, 0.0, 0.0, 0.0, 0.0, 0.0, 1.695759015974703E9, 0.0, 2023-09-26 15:10:15.974
218.0, 28871.502443731126, -187500.02235174447, -17542.27489736973, -18999.00513875546, -21388.18310358323, -20382.84634147243, -187500.02235174447, -19796.73889836537, -12257.920176734946, -14314.124204412008, 7671.275159272571, -37969.46709984149, -22538.113300575413, -29397.90837739806, 17325.79825232008, 7166.461010749461, 0.054, 0.996, -0.182, 192.0, 0.0, 0.0, 0.0, 0.0, 0.0, 0.0, 0.0, 0.0, 0.0, 1.695759015974712E9, 0.0, 2023-09-26 15:10:15.974
220.0, 28769.15380587027, -187500.02235174447, -17546.253507882775, -19002.80493531286, -21398.263740332575, -20380.745277493632, -187500.02235174447, -19797.230636743385, -12272.269996675253, -14334.151367443965, 7662.513275446091, -37979.19010867955, -22547.053998357536, -29397.48369425341, 17308.967388745237, 7150.993603586388, 0.054, 0.996, -0.182, 192.0, 0.0, 0.0, 0.0, 0.0, 0.0, 0.0, 0.0, 0.0, 0.0, 1.695759015974721E9, 0.0, 2023-09-26 15:10:15.974
222.0, 28869.803711152523, -187500.02235174447, -17552.042609696702, -19009.443403416088, -21396.85558043189, -20396.994995712637, -187500.02235174447, -19806.059575803232, -12270.280691418731, -14340.208690191352, 7661.0157085675855, -37977.55843133431, -22545.60113496794, -29408.3913455476, 17315.58350510401, 7166.349252027185, 0.056, 0.998, -0.188, 192.0, 0.5, 96.0, 15.5, 24.0, 125.0, 16.0, 0.0, 0.0, 0.0, 1.695759015974731E9, 0.0, 2023-09-26 15:10:15.974
224.0, 28773.378285572326, -187500.02235174447, -17561.18447317892, -19014.830173829814, -21406.51153403658, -20388.03194618606, -187500.02235174447, -19805.7242996364, -12279.869589790058, -14357.665402610946, 7665.351946991915, -37972.30577138731, -22556.866414173415, -29406.983185646917, 17312.990702747193, 7156.98387110041, 0.056, 0.998, -0.188, 192.0, 0.0, 0.0, 0.0, 0.0, 0.0, 0.0, 0.0, 0.0, 0.0, 1.695759015974778E9, 0.0, 2023-09-26 15:10:15.974
226.0, 28889.696763717744, -187500.02235174447, -17552.824920752635, -19014.00315928497, -21391.669975718258, -20400.504219592123, -187500.02235174447, -19809.837020616178, -12274.90750252098, -14359.520597400737, 7656.523007932068, -37978.49720460144, -22559.07923687449, -29416.102697384682, 17316.075243482024, 7165.27636829333, 0.056, 0.998, -0.188, 192.0, 0.0, 0.0, 0.0, 0.0, 0.0, 0.0, 0.0, 0.0, 0.0, 1.695759016034991E9, 0.0, 2023-09-26 15:10:16.034
228.0, 28829.905847299797, -187500.02235174447, -17570.080467472133, -19031.48222344902, -21422.247162133117, -20399.073707946984, -187500.02235174447, -19823.24806728936, -12295.918142308969, -14386.074469813642, 7725.031104687585, -37905.96579384396, -22570.411571313332, -29425.423374822545, 17373.809799410083, 7175.714632953958, 0.056, 0.998, -0.188, 192.0, 0.0, 0.0, 0.0, 0.0, 0.0, 0.0, 0.0, 0.0, 0.0, 1.695759016035016E9, 0.0, 2023-09-26 15:10:16.035
230.0, 28875.011667610608, -187500.02235174447, -17540.75497874677, -19006.62708361472, -21383.28807154752, -20387.83078048596, -187500.02235174447, -19804.696119391458, -12278.975520011845, -14382.788763378712, 7659.406382966803, -37970.87525974218, -22556.955821151238, -29412.05703163827, 17321.08203424001, 7158.995528101388, 0.056, 0.998, -0.188, 192.0, 0.0, 0.0, 0.0, 0.0, 0.0, 0.0, 0.0, 0.0, 0.0, 1.695759016035027E9, 0.0, 2023-09-26 15:10:16.035
232.0, 28784.487102566614, -187500.02235174447, -17550.612098051562, -19014.62900812972, -21397.52613276555, -20382.399306583324, -187500.02235174447, -19806.059575803232, -12273.0970112201, -14385.13569654652, 7699.8183369419985, -37930.239788322426, -22548.88684140287, -29403.09398211169, 17347.926479330836, 7170.193752073497, 0.054, 0.996, -0.186, 192.0, 0.5, 88.0, 15.5, 16.0, 125.0, 24.0, 0.0, 0.0, 0.0, 1.695759016035037E9, 0.0, 2023-09-26 15:10:16.035
234.0, 28845.552068418514, -187500.02235174447, -17542.364304347553, -19008.929313293615, -21382.32694653594, -20401.979434726174, -187500.02235174447, -19810.909904350032, -12270.593615841106, -14392.46706872786, 7616.155757445784, -38015.176417252595, -22539.812033154016, -29409.2407118369, 17278.412554074832, 7146.769123884335, 0.054, 0.996, -0.186, 192.0, 0.0, 0.0, 0.0, 0.0, 0.0, 0.0, 0.0, 0.0, 0.0, 1.695759016035047E9, 0.0, 2023-09-26 15:10:16.035
236.0, 28789.851521235887, -187500.02235174447, -17555.104798687076, -19013.980807540513, -21402.599978756905, -20387.02611768557, -187500.02235174447, -19811.87102936161, -12273.588749598117, -14399.127888575542, 7697.784328196565, -37933.36903254617, -22550.630277470384, -29410.2912438263, 17344.059627540068, 7168.293853794797, 0.054, 0.996, -0.186, 192.0, 0.0, 0.0, 0.0, 0.0, 0.0, 0.0, 0.0, 0.0, 0.0, 1.695759016035056E9, 0.0, 2023-09-26 15:10:16.035
238.0, 28819.199361705705, -187500.02235174447, -17543.861871226058, -19008.303464448865, -21387.110219849375, -20399.297225391536, -187500.02235174447, -19812.988616584375, -12273.05230773119, -14403.441775255416, 7608.7796817755325, -38025.12294353521, -22544.863527400914, -29406.133819357616, 17267.259033591632, 7138.923661580523, 0.054, 0.996, -0.186, 192.0, 0.0, 0.0, 0.0, 0.0, 0.0, 0.0, 0.0, 0.0, 0.0, 1.695759016035065E9, 0.0, 2023-09-26 15:10:16.035
240.0, 28786.766980501056, -187500.02235174447, -17559.642202811505, -19021.736862866506, -21408.14321138182, -20393.17284741078, -187500.02235174447, -19813.97209334041, -12281.903598535491, -14416.271676572762, 7697.851383429931, -37936.23005583645, -22557.89459441836, -29418.092002641202, 17339.656333882373, 7166.550417727282, 0.054, 0.996, -0.186, 192.0, 0.0, 0.0, 0.0, 0.0, 0.0, 0.0, 0.0, 0.0, 0.0, 1.695759016095157E9, 0.0, 2023-09-26 15:10:16.095
242.0, 28771.07605589343, -187500.02235174447, -17536.731664744817, -19004.682481847107, -21386.864350660366, -20398.246693402136, -187500.02235174447, -19808.361805482127, -12270.548912352195, -14427.581659267147, 7581.5999605178795, -38058.49409800698, -22538.381521508876, -29401.2387873219, 17238.045303588548, 7126.674905619015, 0.052000000000000005, 0.994, -0.184, 192.0, 0.5, 80.0, 15.5, 8.0, 125.0, 32.0, 0.0, 0.0, 0.0, 1.695759016095194E9, 0.0, 2023-09-26 15:10:16.095
