%OpenBCI Raw EXG Data
%Number of channels = 16
%Sample Rate = 125 Hz
%Board = OpenBCI_GUI$BoardCytonSerialDaisy
Sample Index, EXG Channel 0, EXG Channel 1, EXG Channel 2, EXG Channel 3, EXG Channel 4, EXG Channel 5, EXG Channel 6, EXG Channel 7, EXG Channel 8, EXG Channel 9, EXG Channel 10, EXG Channel 11, EXG Channel 12, EXG Channel 13, EXG Channel 14, EXG Channel 15, Accel Channel 0, Accel Channel 1, Accel Channel 2, Other, Other, Other, Other, Other, Other, Other, Analog Channel 0, Analog Channel 1, Analog Channel 2, Timestamp, Other, Timestamp (Formatted)
0.0, 40492.66612442328, 36089.886556850266, 23353.996676683033, -1508.6533437554056, -9348.035973076341, -3574.7591942261693, -187500.02235174447, -15255.222052958257, 0.0, 0.0, 0.0, 0.0, 0.0, 0.0, 0.0, 0.0, 0.0, 0.0, 0.0, 192.0, 0.0, 0.0, 0.0, 0.0, 0.0, 0.0, 0.0, 0.0, 0.0, 1.695327662995386E9, 0.0, 2023-09-21 15:21:02.995
12.0, 40484.217165019174, 36080.67763813468, 23342.105548632808, -1521.4832450727517, -9357.714278425488, -3587.7902612436133, -187500.02235174447, -15271.203550243801, 25654.237050323136, 4460.424716523256, -9496.093928348295, 24010.80268750223, -6679.572961279508, -17182.612977339384, -1525.1712829078774, -14457.041258459241, 0.0, 0.0, 0.0, 192.0, 0.0, 0.0, 0.0, 0.0, 0.0, 0.0, 0.0, 0.0, 0.0, 1.695327662995393E9, 0.0, 2023-09-21 15:21:02.995
14.0, 40491.92851685626, 36088.88072834977, 23352.90144120472, -1510.799111223115, -9343.811493374287, -3569.439479045806, -187500.02235174447, -15250.148206966902, 25656.583983490942, 4458.569521733466, -9494.55165798088, 23996.050536161725, -6681.361100835932, -17177.427372625752, -1529.798094010126, -14463.456209117916, 0.0, 0.0, 0.0, 192.0, 0.0, 0.0, 0.0, 0.0, 0.0, 0.0, 0.0, 0.0, 0.0, 1.695327662995397E9, 0.0, 2023-09-21 15:21:02.995
16.0, 40475.34352247042, 36072.27338221948, 23337.67990323066, -1530.5580533216064, -9358.384830759149, -3588.863144977468, -187500.02235174447, -15275.83036134605, 25655.3546375459, 4458.077783355449, -9498.6420272162, 23998.576283285176, -6680.80230722455, -17176.1533231918, -1523.9642887072907, -14464.797313785233, 0.0, 0.0, 0.0, 192.0, 0.0, 0.0, 0.0, 0.0, 0.0, 0.0, 0.0, 0.0, 0.0, 1.695327662995401E9, 0.0, 2023-09-21 15:21:02.995
18.0, 40493.98487734615, 36090.37829522828, 23354.063731916398, -1510.7544077342043, -9334.13318802514, -3557.7718684401357, -187500.02235174447, -15241.520433607155, 25647.956210131197, 4449.964100118173, -9502.575934240334, 23996.877550706573, -6688.51365906163, -17191.01723325458, -1529.1722451653775, -14469.20060744293, 0.126, 0.9580000000000001, 0.298, 192.0, 1.5, 120.0, 14.5, 120.0, 4.5, 40.0, 0.0, 0.0, 0.0, 1.695327662995404E9, 0.0, 2023-09-21 15:21:02.995
20.0, 40496.98001110316, 36092.92639409618, 23358.556432551915, -1514.6212595249724, -9338.156502027095, -3564.0750603765323, -187500.02235174447, -15260.564119883076, 25665.681143484253, 4473.500487029611, -9483.219323542038, 23988.830922702662, -6669.358214063432, -17159.76949450606, -1508.3180675885758, -14446.133607165053, 0.126, 0.9580000000000001, 0.298, 192.0, 0.0, 0.0, 0.0, 0.0, 0.0, 0.0, 0.0, 0.0, 0.0, 1.695327662995407E9, 0.0, 2023-09-21 15:21:02.995
22.0, 40491.30266801151, 36088.14312078275, 23348.96753418059, -1518.3987043379193, -9343.90090035211, -3579.475412306239, -187500.02235174447, -15261.413486172378, 25654.952306145708, 4461.430545023745, -9495.959817881563, 24001.102030408627, -6683.171592136811, -17180.53426510504, -1517.482282815252, -14465.557273096714, 0.126, 0.9580000000000001, 0.298, 192.0, 0.0, 0.0, 0.0, 0.0, 0.0, 0.0, 0.0, 0.0, 0.0, 1.69532766299541E9, 0.0, 2023-09-21 15:21:02.995
24.0, 40502.8585198949, 36098.78255114348, 23362.982077954064, -1506.8428524545257, -9335.630754903646, -3564.9691301547446, -187500.02235174447, -15252.673954090353, 25660.02615213706, 4464.895065414317, -9492.316483535347, 23991.7142977374, -6680.1764583798, -17172.577044078953, -1509.7709309781708, -14452.727371779369, 0.126, 0.9580000000000001, 0.298, 192.0, 0.0, 0.0, 0.0, 0.0, 0.0, 0.0, 0.0, 0.0, 0.0, 1.695327662995413E9, 0.0, 2023-09-21 15:21:02.995
26.0, 40502.63500245035, 36098.64844067674, 23359.04817092993, -1507.3569425769977, -9334.401408958603, -3568.701871478781, -187500.02235174447, -15260.139436738426, 25666.12817837336, 4471.60058875091, -9486.415622999148, 24009.461582834912, -6672.867437942915, -17166.475017842655, -1508.988619922235, -14447.631174043558, 0.126, 0.9580000000000001, 0.298, 192.0, 0.0, 0.0, 0.0, 0.0, 0.0, 0.0, 0.0, 0.0, 0.0, 1.695327662995417E9, 0.0, 2023-09-21 15:21:02.995
0.0, 20206.781650397978, 17980.52555090494, 11648.902195561195, -787.1613844825488, -4716.732170192262, -1830.0267255338103, -93750.01117587223, -7673.644444184833, 12826.123872533308, 2229.0947710388627, -4750.03626943067, 12000.942170732282, -3340.9599472236573, -8586.64614995076, -756.6065498121441, -7228.040066723832, 0.14, 0.9520000000000001, 0.31, 192.0, 2.0, 48.0, 14.5, 96.0, 4.5, 88.0, 0.0, 0.0, 0.0, 1.695327663171379E9, 0.0, 2023-09-21 15:21:03.171
2.0, 40414.591481040894, 35961.14050878769, 23297.42441146665, -1575.440356187863, -9429.888061271675, -3658.220608022286, -187500.02235174447, -15351.289850627167, 25524.48517376008, 4363.172276398215, -9616.323961773393, 23451.53968948599, -6758.0052325731795, -17274.880978450892, -1597.3003622651534, -14541.64261122258, 0.14, 0.9520000000000001, 0.31, 192.0, 0.0, 0.0, 0.0, 0.0, 0.0, 0.0, 0.0, 0.0, 0.0, 1.695327663171409E9, 0.0, 2023-09-21 15:21:03.171
4.0, 40397.85002444387, 35943.59438939028, 23285.734449116524, -1591.1983360288546, -9452.552730149357, -3675.0291198526766, -187500.02235174447, -15366.71255430133, 25518.941941135163, 4357.919616451218, -9622.940078132162, 23450.69032319669, -6765.694232665805, -17281.720612254216, -1598.730873910293, -14547.096436869675, 0.14, 0.9520000000000001, 0.31, 192.0, 0.0, 0.0, 0.0, 0.0, 0.0, 0.0, 0.0, 0.0, 0.0, 1.695327663171413E9, 0.0, 2023-09-21 15:21:03.171
6.0, 40394.00552439756, 35940.97923528901, 23272.815140821356, -1600.5637169556283, -9454.92201506162, -3679.700634443836, -187500.02235174447, -15369.03713572468, 25503.586292694366, 4343.48038953309, -9640.352087062847, 23463.810797191956, -6783.48622125223, -17300.80900201905, -1622.9378131553906, -14566.743620245888, 0.14, 0.9520000000000001, 0.31, 192.0, 0.0, 0.0, 0.0, 0.0, 0.0, 0.0, 0.0, 0.0, 0.0, 1.695327663171416E9, 0.0, 2023-09-21 15:21:03.171
8.0, 40397.961783166145, 35942.34269170078, 23279.006574035477, -1603.2235745458097, -9453.826779583309, -3672.212800051308, -187500.02235174447, -15371.317013659122, 25509.04011834146, 4348.911863435729, -9636.060552127428, 23446.264677794537, -6775.529000226141, -17291.71184202574, -1619.3391822980861, -14562.206216121462, 0.14400000000000002, 0.9500000000000001, 0.312, 192.0, 2.0, 64.0, 14.5, 88.0, 4.5, 96.0, 0.0, 0.0, 0.0, 1.69532766317142E9, 0.0, 2023-09-21 15:21:03.171
10.0, 40400.264012845044, 35945.60604639126, 23274.715039100058, -1598.6414669324718, -9448.708230103044, -3673.0845180850647, -187500.02235174447, -15353.837949495071, 25507.743717163055, 4345.424991300702, -9640.150921362749, 23459.273393067528, -6780.1334595839335, -17301.457202608253, -1623.8095311891475, -14565.648384767579, 0.14400000000000002, 0.9500000000000001, 0.312, 192.0, 0.0, 0.0, 0.0, 0.0, 0.0, 0.0, 0.0, 0.0, 0.0, 1.695327663171423E9, 0.0, 2023-09-21 15:21:03.171
12.0, 40372.279628787, 35920.281519923396, 23258.621783092236, -1625.4188567899296, -9475.060936815851, -3707.9308876908885, -187500.02235174447, -15399.346101206078, 25491.695164644145, 4329.66701145971, -9653.33845059138, 23441.25788703655, -6792.873953923458, -17311.694301568783, -1631.632641748505, -14576.444277339493, 0.14400000000000002, 0.9500000000000001, 0.312, 192.0, 0.0, 0.0, 0.0, 0.0, 0.0, 0.0, 0.0, 0.0, 0.0, 1.695327663171427E9, 0.0, 2023-09-21 15:21:03.171
14.0, 40403.683829746704, 35950.99281680499, 23273.03865826591, -1598.4179494879186, -9449.222320225515, -3672.01163435121, -187500.02235174447, -15361.728115287795, 25490.398763465735, 4327.945927136651, -9658.05466867145, 23466.44830303768, -6797.590172003529, -17311.873115524428, -1635.5441970281836, -14590.592931579702, 0.14400000000000002, 0.9500000000000001, 0.312, 192.0, 0.0, 0.0, 0.0, 0.0, 0.0, 0.0, 0.0, 0.0, 0.0, 1.69532766317143E9, 0.0, 2023-09-21 15:21:03.171
16.0, 40406.835425714904, 35955.15024127367, 23289.93657707412, -1589.1866790278768, -9451.278680715404, -3668.9047418719224, -187500.02235174447, -15364.298565900155, 25521.467688258614, 4360.132439152293, -9623.521223488, 23421.387186215783, -6765.62717743244, -17288.1802664018, -1605.7493216692594, -14552.907890428054, 0.14400000000000002, 0.9500000000000001, 0.312, 192.0, 0.0, 0.0, 0.0, 0.0, 0.0, 0.0, 0.0, 0.0, 0.0, 1.695327663229688E9, 0.0, 2023-09-21 15:21:03.229
18.0, 40411.68575426171, 35958.6371134087, 23283.096943270797, -1591.1536325399438, -9446.897738802165, -3666.5354569596598, -187500.02235174447, -15364.94676648936, 25510.24711254205, 4349.783581469486, -9632.528976503489, 23466.850634437877, -6782.793317174115, -17291.845952492473, -1615.0923508515777, -14565.581329534214, 0.148, 0.9520000000000001, 0.314, 192.0, 2.0, 80.0, 14.5, 96.0, 4.5, 104.0, 0.0, 0.0, 0.0, 1.695327663229698E9, 0.0, 2023-09-21 15:21:03.229
20.0, 40403.81794021344, 35950.41167144915, 23281.37585894774, -1597.8815076209912, -9455.905491817653, -3670.4470122393386, -187500.02235174447, -15361.415190865422, 25510.582388708877, 4349.895340191762, -9633.199528837149, 23428.763261886033, -6784.022663119157, -17292.717670526228, -1608.8338624040919, -14556.21594860744, 0.148, 0.9520000000000001, 0.314, 192.0, 0.0, 0.0, 0.0, 0.0, 0.0, 0.0, 0.0, 0.0, 0.0, 1.695327663229702E9, 0.0, 2023-09-21 15:21:03.229
22.0, 40405.3378588364, 35952.7362528725, 23274.37976293323, -1600.7872344001812, -9457.313651718337, -3677.9571983763217, -187500.02235174447, -15372.769877048717, 25512.594045709855, 4349.224787858104, -9635.255889327036, 23463.83314893641, -6780.558142728584, -17295.489286838685, -1610.4208362604186, -14558.965213175443, 0.148, 0.9520000000000001, 0.314, 192.0, 0.0, 0.0, 0.0, 0.0, 0.0, 0.0, 0.0, 0.0, 0.0, 1.695327663229705E9, 0.0, 2023-09-21 15:21:03.229
24.0, 40405.22610011412, 35949.7858226044, 23279.632422880226, -1600.2284407887985, -9460.040564541885, -3677.8677913985007, -187500.02235174447, -15369.75239154725, 25506.469667729103, 4343.592148255366, -9640.977935907595, 23430.864325864834, -6786.0566718645905, -17298.37266187342, -1618.4227607754185, -14565.223701622928, 0.148, 0.9520000000000001, 0.314, 192.0, 0.0, 0.0, 0.0, 0.0, 0.0, 0.0, 0.0, 0.0, 0.0, 1.695327663229708E9, 0.0, 2023-09-21 15:21:03.229
26.0, 40422.928681722726, 35967.466052468546, 23287.008498550476, -1583.6210946585054, -9442.807369566843, -3663.3615092470063, -187500.02235174447, -15357.570690819108, 25516.90793238973, 4346.09554363436, -9628.036275867973, 23471.432742051216, -6781.653378206895, -17296.89744673937, -1608.9009176374577, -14555.321878829227, 0.148, 0.9520000000000001, 0.314, 192.0, 0.0, 0.0, 0.0, 0.0, 0.0, 0.0, 0.0, 0.0, 0.0, 1.695327663229711E9, 0.0, 2023-09-21 15:21:03.229
28.0, 40416.357268852866, 35959.10650004226, 23287.45553343958, -1593.701731407849, -9449.82581732581, -3670.603474450526, -187500.02235174447, -15372.367545648522, 25524.5745807379, 4354.544503038466, -9621.733083931576, 23422.25890424954, -6774.299654281099, -17287.867341979425, -1604.9446588688684, -14553.958422417454, 0.152, 0.9480000000000001, 0.316, 192.0, 2.0, 96.0, 14.5, 80.0, 4.5, 112.0, 0.0, 0.0, 0.0, 1.695327663229715E9, 0.0, 2023-09-21 15:21:03.229
30.0, 40409.3388210939, 35952.04334879439, 23272.36810593225, -1599.8708128775136, -9458.475942430014, -3661.7521836462242, -187500.02235174447, -15362.08574319908, 25517.220856812106, 4346.229654101093, -9630.114988102316, 23467.632945493813, -6781.8321921625375, -17297.925626984314, -1612.8124729171363, -14554.919547429032, 0.152, 0.9480000000000001, 0.316, 192.0, 0.0, 0.0, 0.0, 0.0, 0.0, 0.0, 0.0, 0.0, 0.0, 1.695327663289973E9, 0.0, 2023-09-21 15:21:03.289
32.0, 40411.77516123953, 35955.574924418324, 23285.622690394248, -1596.9650860983238, -9453.916186561131, -3675.2302855527746, -187500.02235174447, -15373.395725893466, 25511.588217209366, 4341.535787765478, -9634.205357337638, 23430.372587486814, -6790.415262033375, -17307.536877100098, -1621.6861154658934, -14562.541492288292, 0.152, 0.9480000000000001, 0.316, 192.0, 0.0, 0.0, 0.0, 0.0, 0.0, 0.0, 0.0, 0.0, 0.0, 1.695327663289984E9, 0.0, 2023-09-21 15:21:03.289
34.0, 40427.533141080516, 35970.10355831427, 23292.23880675302, -1586.1244900374998, -9441.309802688338, -3662.0204045796877, -187500.02235174447, -15362.376315877, 25511.074127086893, 4343.7262587220985, -9631.925479403197, 23476.014849664552, -6791.2199248337665, -17301.636016563894, -1610.9349263828906, -14562.16151263255, 0.152, 0.9480000000000001, 0.316, 192.0, 0.0, 0.0, 0.0, 0.0, 0.0, 0.0, 0.0, 0.0, 0.0, 1.695327663289988E9, 0.0, 2023-09-21 15:21:03.289
36.0, 40435.17743768424, 35976.31734327285, 23306.499219715504, -1575.5074114212289, -9430.223337438505, -3645.547168916127, -187500.02235174447, -15350.641650037964, 25539.036159400483, 4367.419107844724, -9606.332732001869, 23422.90710483874, -6764.57664544304, -17279.9771761867, -1588.2926092496646, -14536.50170999786, 0.152, 0.9480000000000001, 0.316, 192.0, 0.0, 0.0, 0.0, 0.0, 0.0, 0.0, 0.0, 0.0, 0.0, 1.695327663289991E9, 0.0, 2023-09-21 15:21:03.289
38.0, 40415.798475241485, 35956.9383808301, 23285.779152605435, -1595.1322430529885, -9449.423485925614, -3673.308035529618, -187500.02235174447, -15368.165417690923, 25520.417156269214, 4347.570758768411, -9622.33658103187, 23463.855500680864, -6780.334625284032, -17291.80124900356, -1592.1371092959773, -14544.190710090485, 0.15, 0.9520000000000001, 0.324, 192.0, 2.0, 88.0, 14.5, 96.0, 5.0, 16.0, 0.0, 0.0, 0.0, 1.695327663289995E9, 0.0, 2023-09-21 15:21:03.289
40.0, 40432.24935916059, 35973.12104381574, 23302.431202224638, -1578.3237312225976, -9434.87250028521, -3656.72304114378, -187500.02235174447, -15353.770894261706, 25523.43464177068, 4353.091639648872, -9620.794310664452, 23436.49696546757, -6774.187895558822, -17296.115135683434, -1596.3168855091199, -14547.409361292048, 0.15, 0.9520000000000001, 0.324, 192.0, 0.0, 0.0, 0.0, 0.0, 0.0, 0.0, 0.0, 0.0, 0.0, 1.695327663289998E9, 0.0, 2023-09-21 15:21:03.289
42.0, 40418.14540840929, 35958.34654073078, 23288.014327050965, -1595.6463331754605, -9449.132913247695, -3670.603474450526, -187500.02235174447, -15367.025478723703, 25529.111984862328, 4357.986671684584, -9617.061569340416, 23462.44734078018, -6772.57856995804, -17281.65355702085, -1587.8455743605584, -14543.54250950128, 0.15, 0.9520000000000001, 0.324, 192.0, 0.0, 0.0, 0.0, 0.0, 0.0, 0.0, 0.0, 0.0, 0.0, 1.695327663290001E9, 0.0, 2023-09-21 15:21:03.290
44.0, 40421.69933577768, 35962.92864834412, 23283.052239781886, -1590.0136935727232, -9447.188311480084, -3665.2837592701626, -187500.02235174447, -15364.723249044806, 25509.174228808195, 4342.943947666162, -9636.172310849704, 23444.230669049106, -6793.075119623557, -17306.03931022159, -1610.5772984716057, -14561.066277154241, 0.15, 0.9520000000000001, 0.324, 192.0, 0.0, 0.0, 0.0, 0.0, 0.0, 0.0, 0.0, 0.0, 0.0, 1.695327663290004E9, 0.0, 2023-09-21 15:21:03.290
46.0, 40415.932585708215, 35958.234782008505, 23276.860806567765, -1593.9476005968572, -9453.670317372122, -3663.920302858389, -187500.02235174447, -15369.461818869331, 25521.355929536337, 4352.286976848481, -9629.109159601827, 23447.717541184134, -6780.379328772942, -17293.2317606487, -1600.9436966113683, -14549.823349693223, 0.15, 0.9520000000000001, 0.324, 192.0, 0.0, 0.0, 0.0, 0.0, 0.0, 0.0, 0.0, 0.0, 0.0, 1.695327663350249E9, 0.0, 2023-09-21 15:21:03.350
48.0, 40416.424324086234, 35961.43108146561, 23269.305916941874, -1596.2274785312986, -9452.664488871633, -3667.720099415791, -187500.02235174447, -15380.592987608075, 25500.23353102607, 4334.606746984333, -9649.918633689718, 23445.50471848306, -6804.943895929325, -17311.89546726888, -1625.5529672566615, -14570.386954592104, 0.152, 0.9500000000000001, 0.322, 192.0, 2.0, 96.0, 14.5, 88.0, 5.0, 8.0, 0.0, 0.0, 0.0, 1.695327663350262E9, 0.0, 2023-09-21 15:21:03.350
50.0, 40418.3912775983, 35964.962657089556, 23277.061972267864, -1591.5783156845946, -9452.10569526025, -3669.754108161224, -187500.02235174447, -15366.08670545658, 25519.992473124563, 4358.701927507153, -9630.293802057959, 23441.8837358813, -6779.86523865047, -17285.56511230053, -1610.5772984716057, -14552.729076472411, 0.152, 0.9500000000000001, 0.322, 192.0, 0.0, 0.0, 0.0, 0.0, 0.0, 0.0, 0.0, 0.0, 0.0, 1.695327663350265E9, 0.0, 2023-09-21 15:21:03.350
52.0, 40432.27171090504, 35980.36300901926, 23285.823856094346, -1578.4801934337847, -9439.231090453994, -3655.4936951987384, -187500.02235174447, -15356.766028018717, 25523.00995862603, 4360.601825785855, -9628.304496801436, 23437.703959668157, -6777.495953738207, -17280.513618053632, -1612.7454176837705, -14548.59400374818, 0.152, 0.9500000000000001, 0.322, 192.0, 0.0, 0.0, 0.0, 0.0, 0.0, 0.0, 0.0, 0.0, 0.0, 1.695327663350269E9, 0.0, 2023-09-21 15:21:03.350
54.0, 40405.76254198105, 35953.85384009527, 23269.015344263953, -1605.9057838804465, -9467.30488148986, -3687.590800236559, -187500.02235174447, -15390.09247900158, 25515.85740040033, 4355.215055372126, -9635.23353758258, 23436.586372445392, -6783.8885526524255, -17290.773068758615, -1614.9358886403907, -14558.205253863962, 0.152, 0.9500000000000001, 0.322, 192.0, 0.0, 0.0, 0.0, 0.0, 0.0, 0.0, 0.0, 0.0, 0.0, 1.695327663350272E9, 0.0, 2023-09-21 15:21:03.350
56.0, 40405.3378588364, 35954.79261336239, 23261.236937193506, -1604.4976239797622, -9467.886026845697, -3688.7754426926904, -187500.02235174447, -15386.51619988873, 25496.5678449354, 4337.132494107783, -9652.578491279899, 23465.8895094263, -6803.692198239827, -17314.980008003713, -1630.6715167369268, -14575.058469183263, 0.152, 0.9500000000000001, 0.322, 192.0, 0.0, 0.0, 0.0, 0.0, 0.0, 0.0, 0.0, 0.0, 0.0, 1.695327663350275E9, 0.0, 2023-09-21 15:21:03.350
58.0, 40409.428228071716, 35954.16676451764, 23274.916204800156, -1605.2575832912426, -9463.795657610377, -3688.1272421034864, -187500.02235174447, -15377.240225939779, 25500.971138593097, 4338.473598775101, -9648.510473789034, 23443.91774462673, -6800.942933671825, -17312.94599925828, -1620.7696939432258, -14572.55507380427, 0.156, 0.9520000000000001, 0.33, 192.0, 2.0, 112.0, 14.5, 96.0, 5.0, 40.0, 0.0, 0.0, 0.0, 1.695327663350279E9, 0.0, 2023-09-21 15:21:03.350
60.0, 40422.23577764461, 35966.39316873469, 23272.301050698883, -1600.0719785776114, -9457.581872651801, -3677.845439654045, -187500.02235174447, -15383.699880087363, 25507.967234607608, 4342.251043588048, -9641.872005685807, 23458.915765156242, -6792.158698100889, -17307.17924918881, -1615.0699991071224, -14565.02253592283, 0.156, 0.9520000000000001, 0.33, 192.0, 0.0, 0.0, 0.0, 0.0, 0.0, 0.0, 0.0, 0.0, 0.0, 1.695327663412477E9, 0.0, 2023-09-21 15:21:03.412
62.0, 40414.47972231862, 35957.65363665267, 23270.624669864737, -1609.1914903153768, -9466.857846600753, -3685.757957191224, -187500.02235174447, -15385.935054532893, 25509.777725908487, 4340.552311009445, -9643.57073826441, 23429.6796834087, -6800.048863893612, -17313.504792869662, -1622.3790195440079, -14580.802867508277, 0.156, 0.9520000000000001, 0.33, 192.0, 0.0, 0.0, 0.0, 0.0, 0.0, 0.0, 0.0, 0.0, 0.0, 1.695327663412487E9, 0.0, 2023-09-21 15:21:03.412
64.0, 40431.91408299376, 35975.35621826127, 23280.928824058632, -1589.4996034502512, -9447.970622536019, -3663.406212735917, -187500.02235174447, -15358.911795486427, 25514.985682366572, 4344.687383733676, -9637.893395172763, 23463.900204169775, -6790.638779477928, -17308.073318967025, -1617.5510427416616, -14560.909814943054, 0.156, 0.9520000000000001, 0.33, 192.0, 0.0, 0.0, 0.0, 0.0, 0.0, 0.0, 0.0, 0.0, 0.0, 1.69532766341249E9, 0.0, 2023-09-21 15:21:03.412
66.0, 40436.138562695814, 35977.949020618085, 23294.429277709638, -1584.8727923480026, -9443.746142833967, -3665.596683692537, -187500.02235174447, -15367.293699657166, 25532.978836653096, 4364.871008976818, -9619.967296119607, 23422.30360773845, -6777.048918849101, -17280.938301198283, -1597.0991965650555, -14545.598869991169, 0.156, 0.9520000000000001, 0.33, 192.0, 0.0, 0.0, 0.0, 0.0, 0.0, 0.0, 0.0, 0.0, 0.0, 1.695327663412494E9, 0.0, 2023-09-21 15:21:03.412
68.0, 40419.710030521164, 35964.02388382243, 23270.22233846454, -1599.9602198553348, -9457.96185230754, -3680.706462944325, -187500.02235174447, -15378.89425502947, 25518.04787135695, 4349.962395425128, -9635.635868982778, 23463.296707069483, -6789.2306195772435, -17297.2327229062, -1605.5258042247062, -14560.753352731866, 0.148, 0.9480000000000001, 0.332, 192.0, 2.0, 80.0, 14.5, 80.0, 5.0, 48.0, 0.0, 0.0, 0.0, 1.695327663412497E9, 0.0, 2023-09-21 15:21:03.412
70.0, 40432.74109753861, 35977.01024735096, 23291.27768174144, -1585.2974754926533, -9447.121256246717, -3670.022329094688, -187500.02235174447, -15376.010879994737, 25519.523086491, 4353.158694882238, -9636.775807949998, 23421.8789245938, -6788.895343410414, -17300.51842934113, -1609.951449626857, -14555.746561973878, 0.148, 0.9480000000000001, 0.332, 192.0, 0.0, 0.0, 0.0, 0.0, 0.0, 0.0, 0.0, 0.0, 0.0, 1.695327663412501E9, 0.0, 2023-09-21 15:21:03.412
72.0, 40422.772219511535, 35963.10746229976, 23262.712152327556, -1604.765844913226, -9466.835494856297, -3695.1903933513636, -187500.02235174447, -15393.668758114429, 25516.460897500623, 4348.24131110207, -9642.76607546402, 23466.582413504413, -6795.8020324471045, -17306.620455577427, -1616.276993307709, -14569.425829580527, 0.148, 0.9480000000000001, 0.332, 192.0, 0.0, 0.0, 0.0, 0.0, 0.0, 0.0, 0.0, 0.0, 0.0, 1.695327663412505E9, 0.0, 2023-09-21 15:21:03.412
74.0, 40442.37469939884, 35984.3416195323, 23283.499274670994, -1583.4199289584076, -9456.576044151312, -3663.8755993694786, -187500.02235174447, -15349.725228515295, 25530.497793018556, 4353.091639648872, -9633.154825348238, 23417.40857570274, -6789.5211922551625, -17302.932417742304, -1618.1992433308653, -14562.519140543836, 0.148, 0.9480000000000001, 0.332, 192.0, 0.0, 0.0, 0.0, 0.0, 0.0, 0.0, 0.0, 0.0, 0.0, 1.695327663412508E9, 0.0, 2023-09-21 15:21:03.412
76.0, 40432.89755974979, 35980.07243634134, 23278.201911235086, -1588.3373127385753, -9454.67614587261, -3671.698709928836, -187500.02235174447, -15374.46860962732, 25528.48613601758, 4366.2121136441365, -9624.214127566114, 23468.12468387183, -6785.0061398751905, -17289.074336180012, -1601.346028011564, -14540.480320510904, 0.148, 0.9480000000000001, 0.332, 192.0, 0.0, 0.0, 0.0, 0.0, 0.0, 0.0, 0.0, 0.0, 0.0, 1.695327663470732E9, 0.0, 2023-09-21 15:21:03.470
78.0, 40429.03070795903, 35978.12783457373, 23274.826797822334, -1593.1429377964662, -9458.431238941102, -3683.4557275123275, -187500.02235174447, -15377.866074784528, 25514.96333062212, 4354.633910016288, -9638.474540528601, 23437.011055590043, -6797.903096425903, -17302.57478983102, -1618.9144991534351, -14562.921471944032, 0.14400000000000002, 0.9420000000000001, 0.324, 192.0, 2.0, 64.0, 14.5, 56.0, 5.0, 16.0, 0.0, 0.0, 0.0, 1.695327663470749E9, 0.0, 2023-09-21 15:21:03.470
80.0, 40422.66046078926, 35972.07051182634, 23268.456550652572, -1600.541365211173, -9458.565349407834, -3690.9212101604, -187500.02235174447, -15389.466630156832, 25508.347214263347, 4354.43274431619, -9643.660145242233, 23484.530864302025, -6802.418148805875, -17294.57286531602, -1614.9135368959353, -14569.112905158152, 0.14400000000000002, 0.9420000000000001, 0.324, 192.0, 0.0, 0.0, 0.0, 0.0, 0.0, 0.0, 0.0, 0.0, 0.0, 1.695327663470753E9, 0.0, 2023-09-21 15:21:03.470
82.0, 40454.645807104804, 36005.352259320294, 23305.538094703927, -1562.6775101038827, -9427.205851937038, -3642.7755526036685, -187500.02235174447, -15346.372466847, 25530.63190348529, 4376.203343415659, -9620.995476364551, 23434.418253233227, -6779.1946863168105, -17288.336728612987, -1595.2887052641756, -14540.905003655555, 0.14400000000000002, 0.9420000000000001, 0.324, 192.0, 0.0, 0.0, 0.0, 0.0, 0.0, 0.0, 0.0, 0.0, 0.0, 1.695327663470756E9, 0.0, 2023-09-21 15:21:03.470
84.0, 40444.296949422, 35993.01409638096, 23286.784981105924, -1578.9272283228909, -9446.785980079887, -3652.5879684195484, -187500.02235174447, -15360.744638531762, 25534.588162253876, 4379.131421939304, -9617.977990863084, 23472.975012418632, -6778.792354916615, -17278.99369943067, -1593.3664552410194, -14536.993448375875, 0.14400000000000002, 0.9420000000000001, 0.324, 192.0, 0.0, 0.0, 0.0, 0.0, 0.0, 0.0, 0.0, 0.0, 0.0, 1.695327663470759E9, 0.0, 2023-09-21 15:21:03.470
86.0, 40445.1463157113, 35995.36102954877, 23286.717925872555, -1578.7931178561591, -9442.53914863338, -3657.7959248776347, -187500.02235174447, -15373.149856704458, 25527.457955772636, 4370.458945090645, -9626.494005500557, 23446.39878826127, -6788.224791076755, -17284.33576635549, -1607.4927577367732, -14543.45310252346, 0.14400000000000002, 0.9420000000000001, 0.324, 192.0, 0.0, 0.0, 0.0, 0.0, 0.0, 0.0, 0.0, 0.0, 0.0, 1.695327663470762E9, 0.0, 2023-09-21 15:21:03.470
88.0, 40435.11038245087, 35986.39798002219, 23280.95117580309, -1587.5773534270947, -9447.38947718018, -3676.6384454534586, -187500.02235174447, -15386.203275466356, 25526.496830761058, 4373.431727103201, -9624.616458966311, 23471.7903699625, -6789.543543999618, -17289.789592002584, -1600.9436966113683, -14549.197500848473, 0.15, 0.9460000000000001, 0.328, 192.0, 2.0, 88.0, 14.5, 72.0, 5.0, 32.0, 0.0, 0.0, 0.0, 1.695327663470766E9, 0.0, 2023-09-21 15:21:03.470
90.0, 40434.93156849522, 35985.280392799425, 23285.756800860978, -1583.151708024944, -9437.688820086578, -3667.653044182425, -187500.02235174447, -15368.165417690923, 25518.561961479423, 4365.809782243941, -9631.254927069536, 23438.01688409053, -6788.269494565666, -17296.875094994914, -1604.0729408351112, -14552.706724727956, 0.15, 0.9460000000000001, 0.328, 192.0, 0.0, 0.0, 0.0, 0.0, 0.0, 0.0, 0.0, 0.0, 0.0, 1.695327663529556E9, 0.0, 2023-09-21 15:21:03.529
92.0, 40433.45635336117, 35983.335791031815, 23284.12512351574, -1588.113795294022, -9437.48765438648, -3660.209913278808, -187500.02235174447, -15367.941900246371, 25527.457955772636, 4371.3753666133125, -9622.09071184286, 23450.980895874607, -6777.205381060288, -17289.878998980403, -1593.8358418745806, -14544.481282768404, 0.15, 0.9460000000000001, 0.328, 192.0, 0.0, 0.0, 0.0, 0.0, 0.0, 0.0, 0.0, 0.0, 0.0, 1.695327663529569E9, 0.0, 2023-09-21 15:21:03.529
94.0, 40436.071507462446, 35988.25317481198, 23286.986146806023, -1579.8212981011031, -9432.637325839678, -3655.918378343389, -187500.02235174447, -15349.479359326288, 25515.656234700233, 4361.6300060307985, -9634.115950359816, 23440.006189347052, -6791.890477167425, -17290.348385613965, -1606.6880949363822, -14554.181939862006, 0.15, 0.9460000000000001, 0.328, 192.0, 0.0, 0.0, 0.0, 0.0, 0.0, 0.0, 0.0, 0.0, 0.0, 1.695327663529573E9, 0.0, 2023-09-21 15:21:03.529
96.0, 40419.53121656552, 35973.52337521593, 23276.19025423411, -1593.0311790741896, -9448.529416147401, -3672.928055873878, -187500.02235174447, -15368.299528157655, 25516.080917844884, 4364.043994431972, -9634.80885443793, 23455.16067208775, -6793.946837657313, -17298.193847917777, -1603.3800367569968, -14543.520157756826, 0.15, 0.9460000000000001, 0.328, 192.0, 0.0, 0.0, 0.0, 0.0, 0.0, 0.0, 0.0, 0.0, 0.0, 1.695327663529576E9, 0.0, 2023-09-21 15:21:03.529
98.0, 40443.961673255166, 35998.49027377251, 23291.143571274708, -1571.3052834636312, -9427.161148448127, -3649.43637245135, -187500.02235174447, -15350.596946549053, 25516.81852541191, 4364.088697920883, -9632.48427301458, 23455.294782554483, -6793.790375446127, -17296.763336272637, -1604.0282373462007, -14545.084779868697, 0.158, 0.9480000000000001, 0.33, 192.0, 2.0, 120.0, 14.5, 80.0, 5.0, 40.0, 0.0, 0.0, 0.0, 1.695327663529579E9, 0.0, 2023-09-21 15:21:03.529
100.0, 40436.71970805165, 35990.62245972425, 23289.89187358521, -1579.888353334469, -9438.761703820432, -3667.5189337156935, -187500.02235174447, -15372.367545648522, 25532.017711641518, 4382.372424885324, -9617.061569340416, 23452.701980197668, -6777.29478803811, -17277.27261510761, -1588.3596644830304, -14532.344285529172, 0.158, 0.9480000000000001, 0.33, 192.0, 0.0, 0.0, 0.0, 0.0, 0.0, 0.0, 0.0, 0.0, 0.0, 1.695327663529582E9, 0.0, 2023-09-21 15:21:03.529
102.0, 40432.56228358296, 35987.71673294505, 23281.197044992095, -1583.6881498918713, -9443.29910794486, -3663.6520819249254, -187500.02235174447, -15370.132371202992, 25518.6737202017, 4366.994424700073, -9630.986706136073, 23458.49108201159, -6795.958494658291, -17292.3823943594, -1611.471368249818, -14555.50069278487, 0.158, 0.9480000000000001, 0.33, 192.0, 0.0, 0.0, 0.0, 0.0, 0.0, 0.0, 0.0, 0.0, 0.0, 1.695327663529585E9, 0.0, 2023-09-21 15:21:03.529
104.0, 40427.86841724735, 35984.095750343295, 23280.07945776933, -1586.0350830596785, -9449.043506269874, -3666.960140104311, -187500.02235174447, -15373.798057293661, 25515.455069000134, 4361.317081608425, -9635.032371882484, 23451.74085518609, -6791.890477167425, -17295.24341764968, -1612.5442519836727, -14556.12654162962, 0.158, 0.9480000000000001, 0.33, 192.0, 0.0, 0.0, 0.0, 0.0, 0.0, 0.0, 0.0, 0.0, 0.0, 1.695327663529588E9, 0.0, 2023-09-21 15:21:03.529
106.0, 40432.629338816325, 35988.364933534256, 23285.332117716327, -1583.7105016363266, -9442.561500377835, -3666.8930848709447, -187500.02235174447, -15380.056545741147, 25523.747566193055, 4373.767003270031, -9629.19856657965, 23459.74277970109, -6783.508572996685, -17276.445600562765, -1608.3644757705304, -14552.21498634994, 0.158, 0.9480000000000001, 0.33, 192.0, 0.0, 0.0, 0.0, 0.0, 0.0, 0.0, 0.0, 0.0, 0.0, 1.695327663590007E9, 0.0, 2023-09-21 15:21:03.590
108.0, 40429.47774284813, 35985.012171865965, 23287.410829950673, -1587.6220569160052, -9448.708230103044, -3673.1962768073413, -187500.02235174447, -15377.933130017893, 25520.037176613474, 4369.184895656693, -9634.115950359816, 23438.15099455726, -6789.901171910903, -17299.75847002965, -1603.5141472237287, -14557.087666641197, 0.152, 0.9500000000000001, 0.324, 192.0, 2.0, 96.0, 14.5, 88.0, 5.0, 16.0, 0.0, 0.0, 0.0, 1.695327663590016E9, 0.0, 2023-09-21 15:21:03.590
110.0, 40438.82077203045, 35992.38824753621, 23288.88604508472, -1581.6094376575277, -9440.527491632402, -3658.8464568670342, -187500.02235174447, -15373.060449726636, 25520.931246391687, 4372.068270691428, -9634.227709082093, 23463.676686725223, -6789.476488766252, -17292.94118797078, -1605.3469902690638, -14551.857358438654, 0.152, 0.9500000000000001, 0.324, 192.0, 0.0, 0.0, 0.0, 0.0, 0.0, 0.0, 0.0, 0.0, 0.0, 1.69532766359002E9, 0.0, 2023-09-21 15:21:03.590
112.0, 40436.9432254962, 35991.494177758, 23287.008498550476, -1581.9000103354467, -9441.712134088533, -3660.880465612467, -187500.02235174447, -15368.120714202014, 25523.501697004045, 4373.029395703005, -9631.880775914286, 23437.882773623798, -6788.805936432593, -17296.740984528184, -1602.8659466345248, -14551.723247971922, 0.152, 0.9500000000000001, 0.324, 192.0, 0.0, 0.0, 0.0, 0.0, 0.0, 0.0, 0.0, 0.0, 0.0, 1.695327663590023E9, 0.0, 2023-09-21 15:21:03.590
114.0, 40441.61474008736, 35996.00923013798, 23290.584777663324, -1572.4005189419413, -9436.235956696983, -3656.8795033549673, -187500.02235174447, -15366.645499067963, 25530.76601395202, 4386.976884243118, -9623.722389188099, 23464.414294292248, -6780.513439239674, -17273.40576331684, -1594.1711180414104, -14535.87586115311, 0.152, 0.9500000000000001, 0.324, 192.0, 0.0, 0.0, 0.0, 0.0, 0.0, 0.0, 0.0, 0.0, 0.0, 1.695327663590027E9, 0.0, 2023-09-21 15:21:03.590
116.0, 40444.162838955264, 35998.62438423924, 23302.94529234711, -1567.8631148175139, -9438.180558464594, -3646.508293927705, -187500.02235174447, -15352.876824483494, 25525.826278427397, 4384.093509208383, -9624.683514199676, 23438.01688409053, -6783.955607885791, -17278.211388374733, -1587.7785191271926, -14532.321933784717, 0.152, 0.9500000000000001, 0.324, 192.0, 0.0, 0.0, 0.0, 0.0, 0.0, 0.0, 0.0, 0.0, 0.0, 1.69532766359003E9, 0.0, 2023-09-21 15:21:03.590
118.0, 40419.41945784324, 35974.26098278296, 23270.736428587014, -1595.176946541899, -9466.276701244915, -3680.8405734110565, -187500.02235174447, -15381.218836452823, 25515.99151086706, 4374.1916864146815, -9638.251023084047, 23481.35691658937, -6792.9857126457355, -17282.435868076787, -1601.0107518447344, -14546.559995002746, 0.152, 0.9500000000000001, 0.326, 192.0, 2.0, 96.0, 14.5, 88.0, 5.0, 24.0, 0.0, 0.0, 0.0, 1.695327663590034E9, 0.0, 2023-09-21 15:21:03.590
120.0, 40420.291175877, 35978.53016597393, 23280.12416125824, -1591.1983360288546, -9463.259215743448, -3677.6889774428582, -187500.02235174447, -15385.398612665966, 25505.173266550693, 4366.569741555421, -9648.264604600025, 23451.763206930544, -6802.954590672803, -17309.14620270088, -1611.5160717387287, -14553.511387528348, 0.152, 0.9500000000000001, 0.326, 192.0, 0.0, 0.0, 0.0, 0.0, 0.0, 0.0, 0.0, 0.0, 0.0, 1.695327663650139E9, 0.0, 2023-09-21 15:21:03.650
122.0, 40412.98215544011, 35971.109386814765, 23266.355486673772, -1602.2848012786867, -9472.334023992304, -3687.3225793030956, -187500.02235174447, -15397.982644794303, 25505.6203014398, 4366.457982833145, -9650.566834278921, 23491.191684149708, -6800.6747127383605, -17305.994606732682, -1616.5228624967174, -14561.200387620973, 0.152, 0.9500000000000001, 0.326, 192.0, 0.0, 0.0, 0.0, 0.0, 0.0, 0.0, 0.0, 0.0, 0.0, 1.695327663650151E9, 0.0, 2023-09-21 15:21:03.650
124.0, 40418.48068457612, 35978.88779388521, 23274.871501311245, -1591.6900744068712, -9465.382631466702, -3669.955273861322, -187500.02235174447, -15378.916606773926, 25504.078031072382, 4366.122706666316, -9654.567796536421, 23444.610648704846, -6803.625143006461, -17300.786650274593, -1623.854234678058, -14561.826236465722, 0.152, 0.9500000000000001, 0.326, 192.0, 0.0, 0.0, 0.0, 0.0, 0.0, 0.0, 0.0, 0.0, 0.0, 1.695327663650154E9, 0.0, 2023-09-21 15:21:03.650
126.0, 40426.25909164656, 35986.77795967793, 23276.905510056677, -1586.5938766710613, -9463.035698298896, -3673.0621663406096, -187500.02235174447, -15370.020612480714, 25517.310263789925, 4381.053671962461, -9642.944889419663, 23475.9924979201, -6785.229657319744, -17285.14042915588, -1612.8124729171363, -14557.892329441587, 0.152, 0.9500000000000001, 0.326, 192.0, 0.0, 0.0, 0.0, 0.0, 0.0, 0.0, 0.0, 0.0, 0.0, 1.695327663650157E9, 0.0, 2023-09-21 15:21:03.650
128.0, 40432.80815277197, 35993.50583475898, 23284.952138060587, -1580.4918504347625, -9465.762611122444, -3661.9980528352326, -187500.02235174447, -15356.676621040897, 25516.86322890082, 4383.266494663536, -9640.441494040668, 23433.59123868838, -6782.726261940749, -17281.65355702085, -1617.0816561081, -14562.921471944032, 0.156, 0.96, 0.324, 192.0, 2.0, 112.0, 15.0, 0.0, 5.0, 16.0, 0.0, 0.0, 0.0, 1.69532766365016E9, 0.0, 2023-09-21 15:21:03.650
130.0, 40435.915045251255, 35999.473750528545, 23280.437085680616, -1577.6308271444832, -9464.220340755028, -3660.6122446790037, -187500.02235174447, -15357.458932096832, 25528.419080784213, 4400.834965805408, -9627.499834001044, 23472.997364163086, -6775.663110692873, -17264.93445216828, -1608.5656414706282, -14561.200387620973, 0.156, 0.96, 0.324, 192.0, 0.0, 0.0, 0.0, 0.0, 0.0, 0.0, 0.0, 0.0, 0.0, 1.695327663650163E9, 0.0, 2023-09-21 15:21:03.650
132.0, 40445.86157153387, 36007.27450934345, 23294.764553876466, -1568.086632262067, -9454.095000516772, -3648.4528956953163, -187500.02235174447, -15335.598926019542, 25535.884563432286, 4410.535622899011, -9617.910935629718, 23430.797270631465, -6764.978976843236, -17267.23668184718, -1611.627830461005, -14561.937995187998, 0.156, 0.96, 0.324, 192.0, 0.0, 0.0, 0.0, 0.0, 0.0, 0.0, 0.0, 0.0, 0.0, 1.695327663650167E9, 0.0, 2023-09-21 15:21:03.650
134.0, 40438.35138539688, 35998.66908772816, 23280.88412056972, -1579.3072079786311, -9461.716945376033, -3661.9086458574116, -187500.02235174447, -15341.388027833465, 25534.029368642496, 4405.618239118843, -9620.369627519802, 23477.199492120682, -6766.029508832635, -17266.923757424804, -1608.4538827483516, -14570.901044714576, 0.156, 0.96, 0.324, 192.0, 0.0, 0.0, 0.0, 0.0, 0.0, 0.0, 0.0, 0.0, 0.0, 1.69532766365017E9, 0.0, 2023-09-21 15:21:03.650
136.0, 40446.420365145255, 36007.76624772147, 23293.937539331622, -1567.5725421395948, -9451.144570248673, -3644.943671815833, -187500.02235174447, -15330.79330096165, 25545.875793203806, 4419.230451492125, -9607.09269131335, 23438.441567235182, -6752.551406926085, -17255.233795074677, -1609.5491182266617, -14563.904948700065, 0.156, 0.96, 0.324, 192.0, 0.0, 0.0, 0.0, 0.0, 0.0, 0.0, 0.0, 0.0, 0.0, 1.695327663710448E9, 0.0, 2023-09-21 15:21:03.710
138.0, 40446.15214421179, 36005.32990757584, 23287.7461061175, -1564.666815360405, -9449.669355114622, -3644.7201543712804, -187500.02235174447, -15326.188841603858, 25541.09251989037, 4419.431617192223, -9609.461976225612, 23472.46092229616, -6758.944005840302, -17256.619603230905, -1605.2352315467874, -14562.675602755024, 0.15, 0.9540000000000001, 0.322, 192.0, 2.0, 88.0, 14.5, 104.0, 5.0, 8.0, 0.0, 0.0, 0.0, 1.695327663710462E9, 0.0, 2023-09-21 15:21:03.710
140.0, 40452.298873937, 36012.39305882371, 23296.95502483309, -1554.4520681443296, -9442.986183522486, -3637.9475758013223, -187500.02235174447, -15316.823460677084, 25551.44137757318, 4428.68523939672, -9599.157822031715, 23448.812776662446, -6747.298746979088, -17238.87231813339, -1601.658952433938, -14545.442407779981, 0.15, 0.9540000000000001, 0.322, 192.0, 0.0, 0.0, 0.0, 0.0, 0.0, 0.0, 0.0, 0.0, 0.0, 1.695327663710465E9, 0.0, 2023-09-21 15:21:03.710
142.0, 40456.45629840568, 36014.24825361351, 23300.061917312374, -1554.764992566704, -9440.77336082141, -3640.316860713585, -187500.02235174447, -15310.117937340492, 25555.129415408304, 4428.1935010187035, -9597.6155516643, 23471.678611240222, -6740.883796320414, -17256.261975319623, -1598.6638186769271, -14544.168358346029, 0.15, 0.9540000000000001, 0.322, 192.0, 0.0, 0.0, 0.0, 0.0, 0.0, 0.0, 0.0, 0.0, 0.0, 1.695327663710468E9, 0.0, 2023-09-21 15:21:03.710
144.0, 40446.80034480099, 36001.55246276289, 23293.311690486873, -1564.8232775715921, -9447.72475334701, -3657.080669055065, -187500.02235174447, -15325.98767590376, 25557.09636892037, 4426.673582395742, -9592.452298695123, 23453.707808698156, -6742.135494009912, -17248.282402549077, -1597.6132866875275, -14540.882651911099, 0.15, 0.9540000000000001, 0.322, 192.0, 0.0, 0.0, 0.0, 0.0, 0.0, 0.0, 0.0, 0.0, 0.0, 1.695327663710472E9, 0.0, 2023-09-21 15:21:03.710
146.0, 40434.730402795125, 35987.6943812006, 23281.12998975873, -1575.3733009544972, -9459.124143019217, -3670.402308750428, -187500.02235174447, -15337.856452209528, 25542.657142002245, 4411.16147174376, -9606.198621535137, 23471.27627984003, -6754.272491249143, -17266.85670219144, -1605.570507713617, -14551.946765416476, 0.15, 0.9540000000000001, 0.322, 192.0, 0.0, 0.0, 0.0, 0.0, 0.0, 0.0, 0.0, 0.0, 0.0, 1.695327663710475E9, 0.0, 2023-09-21 15:21:03.710
148.0, 40431.2435306601, 35982.93345963162, 23267.9424605301, -1584.604571414539, -9465.561445422345, -3674.269160541196, -187500.02235174447, -15347.333591858578, 25528.173211595204, 4402.913678039751, -9619.207336808126, 23472.818550207445, -6767.080040822035, -17276.71382149623, -1625.3965050454742, -14564.530797544814, 0.148, 0.9500000000000001, 0.324, 192.0, 2.0, 80.0, 14.5, 88.0, 5.0, 16.0, 0.0, 0.0, 0.0, 1.695327663710478E9, 0.0, 2023-09-21 15:21:03.710
150.0, 40449.549609368994, 35997.84207318331, 23290.003632307486, -1563.728042093282, -9443.410866667136, -3664.9484831033333, -187500.02235174447, -15335.12953938598, 25537.046854143962, 4405.908811796762, -9614.625229194788, 23459.251041323074, -6756.462962205764, -17273.85279820595, -1617.4169322749296, -14557.31118408575, 0.148, 0.9500000000000001, 0.324, 192.0, 0.0, 0.0, 0.0, 0.0, 0.0, 0.0, 0.0, 0.0, 0.0, 1.695327663769805E9, 0.0, 2023-09-21 15:21:03.769
152.0, 40449.124926224344, 35997.08211387183, 23287.0979055283, -1562.8339723150698, -9443.477921900501, -3660.2546167677187, -187500.02235174447, -15333.721379485296, 25546.43458681519, 4414.87186132334, -9603.00232207803, 23457.395846533283, -6749.623328402439, -17256.93252765328, -1606.665743191927, -14543.430750779004, 0.148, 0.9500000000000001, 0.324, 192.0, 0.0, 0.0, 0.0, 0.0, 0.0, 0.0, 0.0, 0.0, 0.0, 1.695327663769817E9, 0.0, 2023-09-21 15:21:03.769
154.0, 40434.52923709503, 35978.75368341848, 23281.241748481007, -1575.1721352543993, -9453.670317372122, -3667.8542098825233, -187500.02235174447, -15340.873937710994, 25537.985627411086, 4403.584230373411, -9613.775862905486, 23446.130567327808, -6760.4639244632635, -17279.55249304205, -1611.2254990608096, -14547.16349210304, 0.148, 0.9500000000000001, 0.324, 192.0, 0.0, 0.0, 0.0, 0.0, 0.0, 0.0, 0.0, 0.0, 0.0, 1.69532766376982E9, 0.0, 2023-09-21 15:21:03.769
156.0, 40436.18326618472, 35980.78769216391, 23279.02892577993, -1564.9350362938687, -9444.953137034552, -3664.0320615806654, -187500.02235174447, -15330.592135261553, 25537.8291651999, 4400.522041383033, -9613.597048949845, 23451.204413319163, -6752.3055377370765, -17272.55639702754, -1611.404313016452, -14542.02259087832, 0.148, 0.9500000000000001, 0.324, 192.0, 0.0, 0.0, 0.0, 0.0, 0.0, 0.0, 0.0, 0.0, 0.0, 1.695327663769824E9, 0.0, 2023-09-21 15:21:03.769
158.0, 40435.780934784525, 35982.21820380905, 23282.31463221486, -1566.6114171280167, -9451.993936537974, -3665.686090670358, -187500.02235174447, -15339.152853387935, 25534.029368642496, 4401.237297205603, -9611.250115782037, 23423.5776571724, -6761.849732619493, -17270.14240862637, -1607.3586472700415, -14536.077026853209, 0.146, 0.9500000000000001, 0.324, 192.0, 2.0, 72.0, 14.5, 88.0, 5.0, 16.0, 0.0, 0.0, 0.0, 1.695327663769827E9, 0.0, 2023-09-21 15:21:03.769
160.0, 40429.23187365912, 35974.32803801633, 23271.719905343045, -1576.0215015437009, -9458.475942430014, -3670.1564395614196, -187500.02235174447, -15344.51727205721, 25530.56484825192, 4397.638666348299, -9614.200546050137, 23451.427930763715, -6763.704927409283, -17275.171551128813, -1616.2993450521644, -14541.329686800205, 0.146, 0.9500000000000001, 0.324, 192.0, 0.0, 0.0, 0.0, 0.0, 0.0, 0.0, 0.0, 0.0, 0.0, 1.69532766376983E9, 0.0, 2023-09-21 15:21:03.769
162.0, 40440.541856353506, 35984.20750906557, 23287.88021658423, -1570.925303807891, -9450.183445237095, -3654.286700998152, -187500.02235174447, -15330.994466661748, 25520.90889464723, 4386.619256331833, -9621.91189788722, 23425.902238595754, -6769.136401311923, -17282.435868076787, -1617.4169322749296, -14545.800035691267, 0.146, 0.9500000000000001, 0.324, 192.0, 0.0, 0.0, 0.0, 0.0, 0.0, 0.0, 0.0, 0.0, 0.0, 1.695327663769833E9, 0.0, 2023-09-21 15:21:03.769
164.0, 40436.51854235155, 35977.92666887363, 23279.051277524388, -1573.0710712756004, -9453.402096438658, -3663.7191371582912, -187500.02235174447, -15348.652344781442, 25543.215935613625, 4405.931163541218, -9601.728272644075, 23449.93036388521, -6748.393982457398, -17266.141446368867, -1604.7211414243152, -14530.131462828096, 0.146, 0.9500000000000001, 0.324, 192.0, 0.0, 0.0, 0.0, 0.0, 0.0, 0.0, 0.0, 0.0, 0.0, 1.695327663769836E9, 0.0, 2023-09-21 15:21:03.769
166.0, 40430.416516115256, 35969.88004086972, 23279.721829858045, -1577.6084754000278, -9464.332099477304, -3670.4470122393386, -187500.02235174447, -15341.008048177726, 25528.553191250943, 4385.479317364611, -9617.262735040515, 23417.274465236005, -6769.069346078557, -17283.866379721927, -1615.852310163058, -14546.202367091462, 0.146, 0.9500000000000001, 0.324, 192.0, 0.0, 0.0, 0.0, 0.0, 0.0, 0.0, 0.0, 0.0, 0.0, 1.695327663830686E9, 0.0, 2023-09-21 15:21:03.830
168.0, 40446.263902934064, 35983.55930847637, 23277.531358901426, -1570.925303807891, -9450.406962681647, -3664.6579104254142, -187500.02235174447, -15337.029437664682, 25532.62120874181, 4385.00993073105, -9617.262735040515, 23453.30547729796, -6759.167523284856, -17278.591368030473, -1621.0379148766895, -14543.386047290094, 0.146, 0.9460000000000001, 0.326, 192.0, 2.0, 72.0, 14.5, 72.0, 5.0, 24.0, 0.0, 0.0, 0.0, 1.695327663830696E9, 0.0, 2023-09-21 15:21:03.830
170.0, 40434.1939609282, 35969.72357865853, 23279.051277524388, -1583.59874291405, -9463.30391923236, -3673.1068698295203, -187500.02235174447, -15348.652344781442, 25543.975894925108, 4392.3860064013015, -9607.159746546717, 23404.981005785587, -6755.613595916462, -17281.340632598476, -1610.2867257936866, -14543.58721299019, 0.146, 0.9460000000000001, 0.326, 192.0, 0.0, 0.0, 0.0, 0.0, 0.0, 0.0, 0.0, 0.0, 0.0, 1.6953276638307E9, 0.0, 2023-09-21 15:21:03.830
172.0, 40432.18230392722, 35968.96361934705, 23266.377838418226, -1589.6784174058937, -9461.716945376033, -3681.5781809780815, -187500.02235174447, -15354.486150084276, 25528.128508106292, 4369.3190061234245, -9626.516357245011, 23452.232593564106, -6771.550389713096, -17298.66323455134, -1629.8445021920804, -14561.759181232355, 0.146, 0.9460000000000001, 0.326, 192.0, 0.0, 0.0, 0.0, 0.0, 0.0, 0.0, 0.0, 0.0, 0.0, 1.695327663830703E9, 0.0, 2023-09-21 15:21:03.830
174.0, 40433.16578068326, 35974.55155546088, 23273.46334141056, -1581.6764928908938, -9461.225206998017, -3672.6821866848695, -187500.02235174447, -15349.94874595985, 25533.582333753388, 4381.1207271958265, -9619.341447274857, 23401.091802250365, -6763.615520431462, -17282.10059190996, -1628.5928045025832, -14554.07018113973, 0.146, 0.9460000000000001, 0.326, 192.0, 0.0, 0.0, 0.0, 0.0, 0.0, 0.0, 0.0, 0.0, 0.0, 1.695327663830706E9, 0.0, 2023-09-21 15:21:03.830
176.0, 40440.273635420046, 35982.73229393152, 23273.820969321845, -1574.1886584983658, -9450.742238848477, -3669.1953145498414, -187500.02235174447, -15344.360809846023, 25535.079900631896, 4386.2839801650025, -9616.882755384775, 23436.206392789652, -6759.458095962775, -17286.034498934092, -1628.36928705803, -14550.605660749157, 0.146, 0.9460000000000001, 0.326, 192.0, 0.0, 0.0, 0.0, 0.0, 0.0, 0.0, 0.0, 0.0, 0.0, 1.695327663830709E9, 0.0, 2023-09-21 15:21:03.830
178.0, 40430.394164370795, 35971.444662981594, 23270.445855909093, -1585.3645307260194, -9463.147457021172, -3677.085480342565, -187500.02235174447, -15353.346211117056, 25536.979798910597, 4388.1615266992485, -9615.586354206367, 23394.810962058422, -6767.303558266588, -17282.055888421048, -1628.1904731023876, -14549.622183993124, 0.15, 0.9540000000000001, 0.326, 192.0, 2.0, 88.0, 14.5, 104.0, 5.0, 24.0, 0.0, 0.0, 0.0, 1.695327663830712E9, 0.0, 2023-09-21 15:21:03.830
180.0, 40427.2425684026, 35965.20852627856, 23257.906527269668, -1591.3995017289521, -9469.338890235293, -3688.3507595480396, -187500.02235174447, -15361.3257838876, 25521.15476383624, 4368.559046811944, -9633.691267215165, 23442.956619615154, -6775.953683370792, -17298.66323455134, -1639.8580837080578, -14568.285890613306, 0.15, 0.9540000000000001, 0.326, 192.0, 0.0, 0.0, 0.0, 0.0, 0.0, 0.0, 0.0, 0.0, 0.0, 1.695327663890433E9, 0.0, 2023-09-21 15:21:03.890
182.0, 40439.17839994173, 35974.75272116098, 23276.860806567765, -1575.3509492100418, -9453.715020861033, -3672.793945407146, -187500.02235174447, -15350.798112249151, 25527.614417983823, 4375.175163170715, -9625.130549088783, 23401.40472667274, -6777.272436293654, -17294.014071704634, -1636.5276737842173, -14559.725172486922, 0.15, 0.9540000000000001, 0.326, 192.0, 0.0, 0.0, 0.0, 0.0, 0.0, 0.0, 0.0, 0.0, 0.0, 1.695327663890443E9, 0.0, 2023-09-21 15:21:03.890
184.0, 40437.47966736313, 35974.05981708286, 23275.251480966985, -1576.088556777067, -9456.620747640223, -3673.017462851699, -187500.02235174447, -15352.206272149835, 25535.035197142985, 4385.076985964416, -9614.669932683699, 23429.8808491088, -6767.795296644605, -17281.631205276397, -1620.7696939432258, -14544.436579279492, 0.15, 0.9540000000000001, 0.326, 192.0, 0.0, 0.0, 0.0, 0.0, 0.0, 0.0, 0.0, 0.0, 0.0, 1.695327663890447E9, 0.0, 2023-09-21 15:21:03.890
186.0, 40445.43688838922, 35982.86640439826, 23284.683917127124, -1570.634731129972, -9450.183445237095, -3666.5354569596598, -187500.02235174447, -15357.503635585743, 25536.19748785466, 4386.44044237619, -9610.400749492735, 23400.175380727695, -6769.494029223208, -17277.227911618702, -1621.7531706992593, -14541.195576333474, 0.15, 0.9540000000000001, 0.326, 192.0, 0.0, 0.0, 0.0, 0.0, 0.0, 0.0, 0.0, 0.0, 0.0, 1.695327663890451E9, 0.0, 2023-09-21 15:21:03.890
188.0, 40434.01514697256, 35970.97527634803, 23273.37393443274, -1581.9000103354467, -9464.622672155223, -3676.3255210310845, -187500.02235174447, -15364.924414744904, 25531.660083730232, 4378.527924839011, -9616.770996662497, 23428.67385490821, -6768.644662933906, -17292.740022270682, -1625.955298656857, -14551.276213082816, 0.16, 0.9540000000000001, 0.324, 192.0, 2.5, 0.0, 14.5, 104.0, 5.0, 16.0, 0.0, 0.0, 0.0, 1.695327663890455E9, 0.0, 2023-09-21 15:21:03.890
190.0, 40427.399030613786, 35963.062758810855, 23272.792789076902, -1590.0136935727232, -9468.377765223715, -3686.1602885914194, -187500.02235174447, -15368.724211302306, 25521.020653369505, 4365.027471188006, -9628.460959012624, 23407.842029075866, -6781.787488673626, -17307.55922884455, -1634.6277755055162, -14561.401553321071, 0.16, 0.9540000000000001, 0.324, 192.0, 0.0, 0.0, 0.0, 0.0, 0.0, 0.0, 0.0, 0.0, 0.0, 1.695327663890459E9, 0.0, 2023-09-21 15:21:03.890
192.0, 40437.65848131877, 35972.495194970994, 23278.22426297954, -1583.1070045360334, -9460.599358153268, -3677.800736165135, -187500.02235174447, -15360.23054840929, 25522.853496414842, 4370.883628235296, -9626.71752294511, 23422.147145527262, -6780.491087495218, -17297.366833372933, -1628.0116591467452, -14548.616355492635, 0.16, 0.9540000000000001, 0.324, 192.0, 0.0, 0.0, 0.0, 0.0, 0.0, 0.0, 0.0, 0.0, 0.0, 1.695327663890462E9, 0.0, 2023-09-21 15:21:03.890
194.0, 40441.41357438726, 35975.8926601282, 23274.536225144413, -1580.469498690307, -9459.124143019217, -3678.136012331964, -187500.02235174447, -15362.130446687992, 25528.687301717677, 4377.4773928496115, -9620.839014153364, 23409.853686076844, -6769.33756701202, -17297.970330473225, -1624.569490500628, -14545.576518246713, 0.16, 0.9540000000000001, 0.324, 192.0, 0.0, 0.0, 0.0, 0.0, 0.0, 0.0, 0.0, 0.0, 0.0, 1.695327663890465E9, 0.0, 2023-09-21 15:21:03.890
196.0, 40440.184228442224, 35975.13270081672, 23274.044486766397, -1583.7105016363266, -9456.933672062596, -3678.337178032062, -187500.02235174447, -15369.797095036161, 25526.563885994423, 4381.72422429612, -9621.777787420486, 23414.9275320682, -6773.137363569423, -17292.51650482613, -1619.1827200868988, -14548.884576426099, 0.16, 0.9540000000000001, 0.324, 192.0, 0.0, 0.0, 0.0, 0.0, 0.0, 0.0, 0.0, 0.0, 0.0, 1.695327663950201E9, 0.0, 2023-09-21 15:21:03.950
198.0, 40431.19882717119, 35968.091901313295, 23261.16988196014, -1592.539440696173, -9461.046393042374, -3679.3877100214613, -187500.02235174447, -15355.648440795952, 25515.18684806667, 4371.621235802321, -9632.596031736855, 23415.285159979485, -6780.379328772942, -17294.461106593742, -1626.245871334776, -14555.92537592952, 0.154, 0.9520000000000001, 0.322, 192.0, 2.0, 104.0, 14.5, 96.0, 5.0, 8.0, 0.0, 0.0, 0.0, 1.695327663950211E9, 0.0, 2023-09-21 15:21:03.950
200.0, 40437.90435050778, 35972.986933349006, 23270.825835564832, -1583.3975772139522, -9456.307823217849, -3669.038852338654, -187500.02235174447, -15349.479359326288, 25519.254865557537, 4373.051747447461, -9629.28797355747, 23413.45231693415, -6773.584398458529, -17301.479554352707, -1619.4732927648179, -14543.184881589996, 0.154, 0.9520000000000001, 0.322, 192.0, 0.0, 0.0, 0.0, 0.0, 0.0, 0.0, 0.0, 0.0, 0.0, 1.695327663950215E9, 0.0, 2023-09-21 15:21:03.950
202.0, 40430.885902748814, 35964.940305345095, 23258.778245303423, -1594.3052285081421, -9465.06970704433, -3666.3566430040173, -187500.02235174447, -15354.106170428537, 25518.24903705705, 4371.822401502419, -9628.460959012624, 23423.7788228725, -6782.323930540554, -17301.054871208056, -1622.2896125661866, -14549.175149104018, 0.154, 0.9520000000000001, 0.322, 192.0, 0.0, 0.0, 0.0, 0.0, 0.0, 0.0, 0.0, 0.0, 0.0, 1.695327663950219E9, 0.0, 2023-09-21 15:21:03.950
204.0, 40436.02680397354, 35973.746892660485, 23265.774341317934, -1586.5268214376954, -9459.63823314169, -3666.5578087041154, -187500.02235174447, -15353.010934950225, 25515.745641678055, 4370.280131135003, -9631.76901719201, 23403.99752902955, -6780.446384006308, -17297.255074650657, -1625.1059323675554, -14550.605660749157, 0.154, 0.9520000000000001, 0.322, 192.0, 0.0, 0.0, 0.0, 0.0, 0.0, 0.0, 0.0, 0.0, 0.0, 1.695327663950222E9, 0.0, 2023-09-21 15:21:03.950
206.0, 40419.01712644305, 35956.71486338555, 23250.731617299512, -1600.183737299888, -9474.703308904565, -3683.947465890344, -187500.02235174447, -15368.455990368842, 25512.594045709855, 4368.357881111847, -9637.647525983755, 23422.571828671913, -6780.178163072845, -17302.083051453003, -1629.0845428805999, -14554.517216028837, 0.154, 0.9520000000000001, 0.322, 192.0, 0.0, 0.0, 0.0, 0.0, 0.0, 0.0, 0.0, 0.0, 0.0, 1.695327663950226E9, 0.0, 2023-09-21 15:21:03.950
208.0, 40415.03851593, 35949.5846569043, 23252.676219067125, -1605.1681763134213, -9480.671224674134, -3684.953294390833, -187500.02235174447, -15375.876769528006, 25503.29572001645, 4351.281148347992, -9648.376363322302, 23401.181209228183, -6792.158698100889, -17313.124813213923, -1635.3206795836306, -14564.55314928927, 0.158, 0.9500000000000001, 0.324, 192.0, 2.0, 120.0, 14.5, 88.0, 5.0, 16.0, 0.0, 0.0, 0.0, 1.695327663950229E9, 0.0, 2023-09-21 15:21:03.950
210.0, 40427.22021665814, 35962.45926171056, 23256.006628990966, -1587.890277849469, -9461.694593631577, -3666.177829048375, -187500.02235174447, -15349.568766304108, 25501.932263604675, 4348.956566924639, -9647.10231388835, 23433.278314266005, -6795.1538318579005, -17316.164650459847, -1632.079676637611, -14564.486094055903, 0.158, 0.9500000000000001, 0.324, 192.0, 0.0, 0.0, 0.0, 0.0, 0.0, 0.0, 0.0, 0.0, 0.0, 1.695327664010518E9, 0.0, 2023-09-21 15:21:04.010
212.0, 40432.2940626495, 35970.6400001812, 23272.613975121258, -1581.5423824241618, -9453.715020861033, -3669.642349438948, -187500.02235174447, -15350.194615148857, 25520.372452780302, 4367.4414595891785, -9628.840938668363, 23383.545682852946, -6770.231636790233, -17298.976158973714, -1614.3547432845526, -14545.68827696899, 0.158, 0.9500000000000001, 0.324, 192.0, 0.0, 0.0, 0.0, 0.0, 0.0, 0.0, 0.0, 0.0, 0.0, 1.695327664010547E9, 0.0, 2023-09-21 15:21:04.010
214.0, 40429.61185331486, 35971.42231123713, 23263.069780238842, -1585.9680278263127, -9457.179541251606, -3673.173925062886, -187500.02235174447, -15346.484225569277, 25517.28791204547, 4367.48616307809, -9629.399732279746, 23415.866305335323, -6778.300616538599, -17294.79638276057, -1614.7123711958375, -14547.543471758781, 0.158, 0.9500000000000001, 0.324, 192.0, 0.0, 0.0, 0.0, 0.0, 0.0, 0.0, 0.0, 0.0, 0.0, 1.695327664010551E9, 0.0, 2023-09-21 15:21:04.010
216.0, 40420.04530668799, 35963.42038672214, 23261.46045463806, -1593.992304085768, -9470.25531175796, -3679.2535995547296, -187500.02235174447, -15365.460856611831, 25512.012900354017, 4364.938064210184, -9634.920613160208, 23381.466970618603, -6780.558142728584, -17301.94894098627, -1619.562699742639, -14555.232471851406, 0.158, 0.9500000000000001, 0.324, 192.0, 0.0, 0.0, 0.0, 0.0, 0.0, 0.0, 0.0, 0.0, 0.0, 1.695327664010554E9, 0.0, 2023-09-21 15:21:04.010
218.0, 40431.91408299376, 35975.75854966146, 23263.807387805868, -1582.1011760355445, -9461.404020953658, -3670.983454106266, -187500.02235174447, -15359.649403053452, 25508.928359619185, 4361.875875219807, -9636.95462190564, 23425.20933451764, -6783.374462529953, -17302.887714253393, -1622.5578334996503, -14560.21691086494, 0.154, 0.9500000000000001, 0.328, 192.0, 2.0, 104.0, 14.5, 88.0, 5.0, 32.0, 0.0, 0.0, 0.0, 1.695327664010566E9, 0.0, 2023-09-21 15:21:04.010
220.0, 40416.26786187504, 35958.234782008505, 23258.08534122531, -1593.9028971079467, -9479.64304442919, -3683.1875065788636, -187500.02235174447, -15359.023554208703, 25508.034289840973, 4360.713584508131, -9635.926441660697, 23383.81390378641, -6785.944913142313, -17308.90033351187, -1618.243946819776, -14558.87580619762, 0.154, 0.9500000000000001, 0.328, 192.0, 0.0, 0.0, 0.0, 0.0, 0.0, 0.0, 0.0, 0.0, 0.0, 1.69532766401057E9, 0.0, 2023-09-21 15:21:04.010
222.0, 40423.822751500935, 35967.823680379835, 23255.291373168395, -1580.6259609014942, -9473.83159087081, -3666.334291259562, -187500.02235174447, -15346.528929058186, 25500.591158937357, 4356.869084461819, -9639.882700429285, 23431.691340409678, -6792.96336090128, -17305.592275332485, -1624.502435267262, -14548.035210136797, 0.154, 0.9500000000000001, 0.328, 192.0, 0.0, 0.0, 0.0, 0.0, 0.0, 0.0, 0.0, 0.0, 0.0, 1.695327664010573E9, 0.0, 2023-09-21 15:21:04.010
224.0, 40432.74109753861, 35976.56321246186, 23271.921071043143, -1572.6240363864943, -9467.573102423323, -3671.4081372509168, -187500.02235174447, -15348.294716870156, 25511.521161976, 4369.34135786788, -9630.71848520261, 23385.95967125412, -6788.537715499129, -17299.110269440447, -1619.5403479981837, -14542.000239133864, 0.154, 0.9500000000000001, 0.328, 192.0, 0.0, 0.0, 0.0, 0.0, 0.0, 0.0, 0.0, 0.0, 0.0, 1.695327664010576E9, 0.0, 2023-09-21 15:21:04.010
226.0, 40443.268769177055, 35988.856671912275, 23274.08919025531, -1567.5501903951397, -9456.866616829231, -3665.015538336699, -187500.02235174447, -15343.779664490185, 25523.63580747078, 4381.701872551665, -9622.247174054048, 23414.68166287919, -6776.467773493264, -17284.13460065539, -1613.3489147840637, -14539.519195499326, 0.154, 0.9500000000000001, 0.328, 192.0, 0.0, 0.0, 0.0, 0.0, 0.0, 0.0, 0.0, 0.0, 0.0, 1.695327664070795E9, 0.0, 2023-09-21 15:21:04.070
228.0, 40442.26294067656, 35984.49808174349, 23279.163036246664, -1568.0419287731563, -9453.044468527374, -3665.8425528815455, -187500.02235174447, -15340.628068521986, 25526.92151390571, 4383.512363852545, -9619.721426930599, 23371.00635421352, -6769.024642589646, -17285.74392625617, -1606.3528187695526, -14538.468663509926, 0.148, 0.9500000000000001, 0.328, 192.0, 2.0, 80.0, 14.5, 88.0, 5.0, 32.0, 0.0, 0.0, 0.0, 1.695327664070805E9, 0.0, 2023-09-21 15:21:04.070
230.0, 40428.06958294744, 35968.18130829112, 23263.717980828045, -1582.50350743574, -9465.092058788785, -3672.436317495861, -187500.02235174447, -15351.491016327265, 25519.701900446642, 4372.180029413704, -9626.583412478378, 23411.44065993317, -6774.947854870303, -17292.80707750405, -1605.7046181803487, -14544.011896134842, 0.148, 0.9500000000000001, 0.328, 192.0, 0.0, 0.0, 0.0, 0.0, 0.0, 0.0, 0.0, 0.0, 0.0, 1.695327664070808E9, 0.0, 2023-09-21 15:21:04.070
232.0, 40434.752754539586, 35975.02094209444, 23274.80444607788, -1573.2722369756982, -9455.21258773954, -3654.331404487062, -187500.02235174447, -15337.454120809332, 25515.05273759994, 4369.095488678871, -9629.243270068559, 23383.63508983077, -6781.049881106602, -17292.114173425936, -1612.4324932613963, -14546.224718835918, 0.148, 0.9500000000000001, 0.328, 192.0, 0.0, 0.0, 0.0, 0.0, 0.0, 0.0, 0.0, 0.0, 0.0, 1.695327664070812E9, 0.0, 2023-09-21 15:21:04.070
234.0, 40426.86258874686, 35961.721654143534, 23263.203890705576, -1585.543344681662, -9463.214512254539, -3668.1224308159867, -187500.02235174447, -15358.017725708214, 25516.326787033893, 4361.853523475352, -9627.812758423419, 23409.92074131021, -6781.809840418082, -17300.361967129942, -1602.6200774455165, -14545.35300080216, 0.148, 0.9500000000000001, 0.328, 192.0, 0.0, 0.0, 0.0, 0.0, 0.0, 0.0, 0.0, 0.0, 0.0, 1.695327664070815E9, 0.0, 2023-09-21 15:21:04.070
236.0, 40437.01028072957, 35971.15409030367, 23273.731562344023, -1575.4850596767735, -9457.179541251606, -3666.4907534707495, -187500.02235174447, -15352.765065761218, 25516.259731800525, 4361.987633942083, -9629.422084024201, 23383.523331108492, -6775.506648481685, -17300.361967129942, -1610.599650216061, -14550.806826449256, 0.148, 0.9500000000000001, 0.328, 192.0, 0.0, 0.0, 0.0, 0.0, 0.0, 0.0, 0.0, 0.0, 0.0, 1.695327664070818E9, 0.0, 2023-09-21 15:21:04.070
238.0, 40416.71489676415, 35950.903409827166, 23253.97262024553, -1594.1711180414104, -9479.128954306718, -3682.2934368006513, -187500.02235174447, -15370.221778180812, 25509.777725908487, 4359.14896239626, -9631.657258469731, 23409.473706421104, -6783.128593340945, -17296.1821909168, -1608.342124026075, -14552.326745072216, 0.146, 0.9520000000000001, 0.326, 192.0, 2.0, 72.0, 14.5, 96.0, 5.0, 24.0, 0.0, 0.0, 0.0, 1.695327664070822E9, 0.0, 2023-09-21 15:21:04.070
240.0, 40434.95392023968, 35969.67887516962, 23265.908451784668, -1582.5929144135612, -9462.476904687514, -3670.4470122393386, -187500.02235174447, -15374.580368349598, 25507.34138576286, 4354.8797792052965, -9634.473578271101, 23395.414459158714, -6789.00710213269, -17304.988778232193, -1622.535481755195, -14559.814579464744, 0.146, 0.9520000000000001, 0.326, 192.0, 0.0, 0.0, 0.0, 0.0, 0.0, 0.0, 0.0, 0.0, 0.0, 1.69532766413015E9, 0.0, 2023-09-21 15:21:04.130
242.0, 40438.61960633035, 35973.1433955602, 23274.826797822334, -1576.8708678330026, -9460.644061642179, -3659.6734714118807, -187500.02235174447, -15339.778702232685, 25510.828257897887, 4357.561988539933, -9629.958525891128, 23401.851761561844, -6786.2354858202325, -17302.463031108742, -1610.5549467271503, -14556.059486396252, 0.146, 0.9520000000000001, 0.326, 192.0, 0.0, 0.0, 0.0, 0.0, 0.0, 0.0, 0.0, 0.0, 0.0, 1.695327664130158E9, 0.0, 2023-09-21 15:21:04.130
244.0, 40419.508864821066, 35953.138584272696, 23254.866690023744, -1597.5238797097063, -9476.469096716535, -3683.701596701336, -187500.02235174447, -15373.462781126831, 25509.24128404156, 4358.232540873592, -9629.310325301925, 23387.59134859936, -6789.700006210805, -17296.383356616898, -1613.6171357175274, -14544.59304149068, 0.146, 0.9520000000000001, 0.326, 192.0, 0.0, 0.0, 0.0, 0.0, 0.0, 0.0, 0.0, 0.0, 0.0, 1.695327664130161E9, 0.0, 2023-09-21 15:21:04.130
246.0, 40427.2425684026, 35957.96656107504, 23261.527509871426, -1591.734777895782, -9470.165904780139, -3678.6277507099812, -187500.02235174447, -15363.963289733327, 25496.679603657678, 4345.201473856148, -9642.587261508377, 23398.186075471174, -6798.216020848277, -17306.799269533072, -1627.564624257639, -14567.570634790736, 0.146, 0.9520000000000001, 0.326, 192.0, 0.0, 0.0, 0.0, 0.0, 0.0, 0.0, 0.0, 0.0, 0.0, 1.695327664130165E9, 0.0, 2023-09-21 15:21:04.130
248.0, 40435.31154815097, 35970.4388344811, 23266.400190162683, -1583.665798147416, -9457.626576140712, -3680.1700210773975, -187500.02235174447, -15365.505560100743, 25512.549342220944, 4356.1091251503385, -9631.120816602805, 23390.43002014518, -6783.910904396881, -17310.532010857107, -1615.9417171408793, -14559.278137597817, 0.14, 0.9540000000000001, 0.326, 192.0, 2.0, 48.0, 14.5, 104.0, 5.0, 24.0, 0.0, 0.0, 0.0, 1.695327664130168E9, 0.0, 2023-09-21 15:21:04.130
250.0, 40434.95392023968, 35970.662351925654, 23269.440027408604, -1586.6385801599718, -9459.951157564063, -3682.114622845009, -187500.02235174447, -15367.874845013004, 25513.354005021338, 4361.026508930506, -9631.344334047359, 23374.403819370727, -6779.082927594534, -17305.391109632386, -1614.8688334070246, -14561.580367276714, 0.14, 0.9540000000000001, 0.326, 192.0, 0.0, 0.0, 0.0, 0.0, 0.0, 0.0, 0.0, 0.0, 0.0, 1.695327664130171E9, 0.0, 2023-09-21 15:21:04.130
252.0, 40438.35138539688, 35973.41161649366, 23269.395323919693, -1588.4043679719412, -9454.67614587261, -3675.856134397523, -187500.02235174447, -15370.04296422517, 25519.187810324172, 4367.843790989375, -9625.28701129997, 23387.792514299457, -6778.412375260875, -17298.0820891955, -1605.4140455024299, -14555.344230573683, 0.14, 0.9540000000000001, 0.326, 192.0, 0.0, 0.0, 0.0, 0.0, 0.0, 0.0, 0.0, 0.0, 0.0, 1.695327664130174E9, 0.0, 2023-09-21 15:21:04.130
254.0, 40423.48747533411, 35958.234782008505, 23261.661620338156, -1603.5812024570946, -9469.763573379943, -3675.476154741783, -187500.02235174447, -15371.384068892488, 25508.86130438582, 4354.186875127181, -9637.982802150584, 23371.855720502823, -6786.928389898347, -17316.3881679044, -1615.0699991071224, -14569.559940047258, 0.14, 0.9540000000000001, 0.326, 192.0, 0.0, 0.0, 0.0, 0.0, 0.0, 0.0, 0.0, 0.0, 0.0, 1.695327664130177E9, 0.0, 2023-09-21 15:21:04.130
0.0, 40425.1415044238, 35957.20660176356, 23251.871556266735, -1605.9057838804465, -9471.909340847653, -3688.954256648333, -187500.02235174447, -15383.252845198256, 25494.578539678878, 4341.33462206538, -9652.824360468909, 23403.25992146253, -6806.039131407635, -17320.27737143962, -1626.9387754128904, -14580.26642564135, 0.14, 0.9540000000000001, 0.326, 192.0, 0.0, 0.0, 0.0, 0.0, 0.0, 0.0, 0.0, 0.0, 0.0, 1.695327664189757E9, 0.0, 2023-09-21 15:21:04.189
2.0, 40433.121077194344, 35963.35333148877, 23266.422541907137, -1598.2391355322761, -9472.714003648043, -3693.044625883654, -187500.02235174447, -15392.2829499582, 25513.555170721433, 4358.076078662405, -9634.853557926841, 23367.38537161176, -6780.066404350568, -17299.490249096187, -1619.6521067204603, -14575.572559305736, 0.138, 0.9540000000000001, 0.328, 192.0, 2.0, 40.0, 14.5, 104.0, 5.0, 32.0, 0.0, 0.0, 0.0, 1.695327664189778E9, 0.0, 2023-09-21 15:21:04.189
4.0, 40431.310585893465, 35966.08024431232, 23258.06298948085, -1596.5627546981282, -9472.088154803296, -3690.6082857380256, -187500.02235174447, -15382.917569031426, 25510.29181603096, 4358.925444951707, -9638.563947506422, 23401.047098761454, -6788.895343410414, -17316.52227837113, -1628.7492667137703, -14580.400536108082, 0.138, 0.9540000000000001, 0.328, 192.0, 0.0, 0.0, 0.0, 0.0, 0.0, 0.0, 0.0, 0.0, 0.0, 1.695327664189782E9, 0.0, 2023-09-21 15:21:04.189
6.0, 40438.016109230055, 35973.746892660485, 23267.406018663172, -1588.4937749497624, -9463.81800935483, -3678.0689570985983, -187500.02235174447, -15364.387972877978, 25507.162571807217, 4355.5279797945, -9642.38609580828, 23366.29013613345, -6790.884648666936, -17312.968351002735, -1628.1681213579325, -14576.377222106126, 0.138, 0.9540000000000001, 0.328, 192.0, 0.0, 0.0, 0.0, 0.0, 0.0, 0.0, 0.0, 0.0, 0.0, 1.695327664189785E9, 0.0, 2023-09-21 15:21:04.189
8.0, 40417.38544909781, 35950.25520923796, 23245.769530030433, -1608.476234492807, -9483.73341366451, -3690.563582249115, -187500.02235174447, -15389.556037134653, 25513.28694978797, 4358.4784100626, -9639.234499840082, 23398.320185937904, -6784.335587541532, -17305.27935091011, -1620.6355834764938, -14569.202312135973, 0.138, 0.9540000000000001, 0.328, 192.0, 0.0, 0.0, 0.0, 0.0, 0.0, 0.0, 0.0, 0.0, 0.0, 1.695327664189788E9, 0.0, 2023-09-21 15:21:04.189
10.0, 40416.0890479194, 35946.99185454749, 23255.067855723843, -1605.8834321359911, -9480.715928163043, -3687.546096747649, -187500.02235174447, -15391.321824946623, 25495.025574567986, 4338.294784819458, -9658.300537860458, 23365.99956345553, -6806.0167796631795, -17322.981932518713, -1637.7346679848038, -14585.250864654883, 0.138, 0.9540000000000001, 0.328, 192.0, 0.0, 0.0, 0.0, 0.0, 0.0, 0.0, 0.0, 0.0, 0.0, 1.695327664189792E9, 0.0, 2023-09-21 15:21:04.189
12.0, 40436.38443188482, 35968.06954956884, 23262.376876160728, -1585.2304202592875, -9463.30391923236, -3679.700634443836, -187500.02235174447, -15377.37433640651, 25505.217970039605, 4349.515360536023, -9648.689287744677, 23400.465953405615, -6793.097471368012, -17313.169516702834, -1628.5257492692174, -14572.376259848626, 0.14400000000000002, 0.9520000000000001, 0.33, 192.0, 2.0, 64.0, 14.5, 96.0, 5.0, 40.0, 0.0, 0.0, 0.0, 1.695327664189795E9, 0.0, 2023-09-21 15:21:04.189
14.0, 40428.56132132546, 35961.76635763244, 23264.589698861804, -1588.5831819275836, -9472.959872837053, -3679.6782826993804, -187500.02235174447, -15379.877731785506, 25512.079955587382, 4356.556160039444, -9639.547424262455, 23354.264897616496, -6790.77288994466, -17305.994606732682, -1619.249775320265, -14562.094457399186, 0.14400000000000002, 0.9520000000000001, 0.33, 192.0, 0.0, 0.0, 0.0, 0.0, 0.0, 0.0, 0.0, 0.0, 0.0, 1.695327664250036E9, 0.0, 2023-09-21 15:21:04.250
16.0, 40434.79745802849, 35970.058854825365, 23264.008553505966, -1588.2255540162987, -9461.672241887121, -3668.1671343048974, -187500.02235174447, -15371.406420636944, 25507.900179374243, 4354.209226871637, -9643.10135163085, 23402.20938947313, -6792.0469393786125, -17304.1841154318, -1619.3838857869966, -14562.273271354828, 0.14400000000000002, 0.9520000000000001, 0.33, 192.0, 0.0, 0.0, 0.0, 0.0, 0.0, 0.0, 0.0, 0.0, 0.0, 1.695327664250044E9, 0.0, 2023-09-21 15:21:04.250
18.0, 40424.22508290113, 35958.92768608662, 23257.683009825112, -1597.1662517984214, -9467.416640212135, -3691.9270386608887, -187500.02235174447, -15389.556037134653, 25506.179095051182, 4351.86229370383, -9646.007078410039, 23359.115226163296, -6791.599904489506, -17320.411481906354, -1618.087484608589, -14560.708649242957, 0.14400000000000002, 0.9520000000000001, 0.33, 192.0, 0.0, 0.0, 0.0, 0.0, 0.0, 0.0, 0.0, 0.0, 0.0, 1.695327664250047E9, 0.0, 2023-09-21 15:21:04.250
20.0, 40421.69933577768, 35958.01126456395, 23251.402169633173, -1597.5909349430724, -9467.595454167778, -3678.3595297765173, -187500.02235174447, -15366.265519412224, 25498.28892925846, 4340.418200542713, -9655.685383759188, 23399.34836618285, -6801.009988905191, -17319.51741212814, -1621.7978741881698, -14567.302413857273, 0.14400000000000002, 0.9520000000000001, 0.33, 192.0, 0.0, 0.0, 0.0, 0.0, 0.0, 0.0, 0.0, 0.0, 0.0, 1.695327664250051E9, 0.0, 2023-09-21 15:21:04.250
22.0, 40419.39710609879, 35956.78191861891, 23260.901661026677, -1595.5569261976393, -9467.215474512039, -3682.963989134311, -187500.02235174447, -15376.636728839485, 25505.95557760663, 4349.962395425128, -9649.449247056156, 23354.220194127585, -6793.9244859128585, -17311.42608063532, -1612.1866240723878, -14558.965213175443, 0.14400000000000002, 0.9460000000000001, 0.328, 192.0, 2.0, 64.0, 14.5, 72.0, 5.0, 32.0, 0.0, 0.0, 0.0, 1.695327664250054E9, 0.0, 2023-09-21 15:21:04.250
24.0, 40429.18717017021, 35966.773148390435, 23258.577079603325, -1591.891240106969, -9464.332099477304, -3682.2934368006513, -187500.02235174447, -15382.582292864598, 25498.13246704727, 4339.725296464598, -9656.467694815123, 23399.54953188295, -6806.173241874367, -17324.323037186034, -1619.9426793983794, -14571.705707514968, 0.14400000000000002, 0.9460000000000001, 0.328, 192.0, 0.0, 0.0, 0.0, 0.0, 0.0, 0.0, 0.0, 0.0, 0.0, 1.695327664250057E9, 0.0, 2023-09-21 15:21:04.250
26.0, 40433.836333016916, 35969.52241295844, 23264.343829672795, -1590.8854116064801, -9463.683898888099, -3674.15740181892, -187500.02235174447, -15376.56967360612, 25511.789382909465, 4351.839941959374, -9642.520206275012, 23360.25516513052, -6791.622256233962, -17314.823545792526, -1616.7687316857257, -14562.809713221755, 0.14400000000000002, 0.9460000000000001, 0.328, 192.0, 0.0, 0.0, 0.0, 0.0, 0.0, 0.0, 0.0, 0.0, 0.0, 1.69532766425006E9, 0.0, 2023-09-21 15:21:04.250
28.0, 40415.865530474846, 35948.13179351471, 23244.294314896386, -1614.9582403848458, -9481.297073518881, -3696.106814874031, -187500.02235174447, -15400.843668084583, 25500.94878684864, 4340.082924375883, -9652.064401157428, 23392.553435868434, -6802.44050055033, -17317.19283070479, -1618.534519497695, -14574.991413949898, 0.14400000000000002, 0.9460000000000001, 0.328, 192.0, 0.0, 0.0, 0.0, 0.0, 0.0, 0.0, 0.0, 0.0, 0.0, 1.695327664250063E9, 0.0, 2023-09-21 15:21:04.250
30.0, 40412.222196128634, 35945.47193592453, 23243.55670732936, -1615.8746619075134, -9483.331082264314, -3698.3866928084726, -187500.02235174447, -15397.535609905197, 25490.063487298907, 4322.603860211832, -9663.173218151715, 23368.570014067893, -6812.7670064886825, -17344.77488336264, -1639.4781040523178, -14589.832972268221, 0.14400000000000002, 0.9460000000000001, 0.328, 192.0, 0.0, 0.0, 0.0, 0.0, 0.0, 0.0, 0.0, 0.0, 0.0, 1.695327664310402E9, 0.0, 2023-09-21 15:21:04.310
32.0, 40419.12888516532, 35954.14441277318, 23246.015399219443, -1605.5928594580723, -9479.575989195822, -3685.3556257910286, -187500.02235174447, -15387.14204873348, 25486.84483609734, 4322.939136378663, -9667.174180409214, 23392.665194590714, -6817.505576313207, -17336.415330936354, -1636.7511912287703, -14586.055527455275, 0.14400000000000002, 0.9540000000000001, 0.33, 192.0, 2.0, 64.0, 14.5, 104.0, 5.0, 40.0, 0.0, 0.0, 0.0, 1.695327664310407E9, 0.0, 2023-09-21 15:21:04.310
34.0, 40434.90921675077, 35972.15991880416, 23262.823911049833, -1588.985513327779, -9462.476904687514, -3672.2575035402187, -187500.02235174447, -15380.503580630253, 25507.028461340484, 4347.660165746232, -9645.761209221031, 23375.29788914894, -6801.211154605288, -17314.57767660352, -1626.4470370348738, -14566.855378968166, 0.14400000000000002, 0.9540000000000001, 0.33, 192.0, 0.0, 0.0, 0.0, 0.0, 0.0, 0.0, 0.0, 0.0, 0.0, 1.695327664310423E9, 0.0, 2023-09-21 15:21:04.310
36.0, 40432.71874579415, 35971.869346126245, 23264.36618141725, -1591.1536325399438, -9471.462305958546, -3679.722986188291, -187500.02235174447, -15381.040022497182, 25516.99733936755, 4357.047898417461, -9633.892432915263, 23380.908177007223, -6788.448308521308, -17308.76622304514, -1614.8688334070246, -14559.702820742468, 0.14400000000000002, 0.9540000000000001, 0.33, 192.0, 0.0, 0.0, 0.0, 0.0, 0.0, 0.0, 0.0, 0.0, 0.0, 1.69532766431044E9, 0.0, 2023-09-21 15:21:04.310
38.0, 40427.77901026953, 35965.05206406737, 23258.08534122531, -1595.4228157309076, -9472.021099569929, -3674.850305897034, -187500.02235174447, -15371.317013659122, 25500.479400215077, 4337.758342952531, -9646.521168532512, 23388.284252677473, -6809.458948309297, -17321.126737728922, -1633.6219470050273, -14565.380163834116, 0.14400000000000002, 0.9540000000000001, 0.33, 192.0, 0.0, 0.0, 0.0, 0.0, 0.0, 0.0, 0.0, 0.0, 0.0, 1.695327664310443E9, 0.0, 2023-09-21 15:21:04.310
40.0, 40428.80719051447, 35964.35915998926, 23267.473073896537, -1591.6900744068712, -9461.24755874247, -3671.3187302730958, -187500.02235174447, -15384.415135909932, 25503.385126994268, 4336.573700496399, -9643.458979542134, 23386.54081660996, -6801.904058683403, -17326.021769764637, -1618.467464264329, -14558.831102708711, 0.14400000000000002, 0.9540000000000001, 0.33, 192.0, 0.0, 0.0, 0.0, 0.0, 0.0, 0.0, 0.0, 0.0, 0.0, 1.695327664310446E9, 0.0, 2023-09-21 15:21:04.310
42.0, 40425.163856168256, 35963.44273846659, 23260.61108834876, -1593.7687866412148, -9456.129009262206, -3675.409099508417, -187500.02235174447, -15383.4316591539, 25504.14508630575, 4339.188854597671, -9647.526997033001, 23390.586482356368, -6795.511459769185, -17323.741891830196, -1619.2944788091754, -14567.972966190931, 0.14400000000000002, 0.9540000000000001, 0.326, 192.0, 2.0, 64.0, 14.5, 104.0, 5.0, 24.0, 0.0, 0.0, 0.0, 1.69532766431045E9, 0.0, 2023-09-21 15:21:04.310
44.0, 40424.40389685678, 35964.15799428916, 23268.478902397026, -1590.8183563731143, -9451.792770837876, -3674.6714919413917, -187500.02235174447, -15372.94869100436, 25513.398708510245, 4351.772886726008, -9642.788427208476, 23371.38633386926, -6784.58145673054, -17306.687510810796, -1607.8056821591476, -14559.41224806455, 0.14400000000000002, 0.9540000000000001, 0.326, 192.0, 0.0, 0.0, 0.0, 0.0, 0.0, 0.0, 0.0, 0.0, 0.0, 1.695327664371385E9, 0.0, 2023-09-21 15:21:04.371
46.0, 40418.48068457612, 35960.58171517631, 23257.571251102836, -1598.7085221658376, -9458.520645918923, -3679.275951299185, -187500.02235174447, -15371.831103781595, 25501.775801393487, 4345.536750022978, -9655.037183169983, 23392.77695331299, -6796.897267925414, -17316.835202793503, -1615.695847951871, -14567.056544668263, 0.14400000000000002, 0.9540000000000001, 0.326, 192.0, 0.0, 0.0, 0.0, 0.0, 0.0, 0.0, 0.0, 0.0, 0.0, 1.695327664371404E9, 0.0, 2023-09-21 15:21:04.371
48.0, 40415.59730954139, 35957.050139552375, 23260.476977882026, -1606.0398943471785, -9462.611015154245, -3694.2963235731513, -187500.02235174447, -15388.885484800994, 25507.207275296125, 4348.353069824347, -9649.158674378237, 23367.787703011956, -6791.912828911881, -17318.33276967201, -1612.5442519836727, -14566.609509779157, 0.14400000000000002, 0.9540000000000001, 0.326, 192.0, 0.0, 0.0, 0.0, 0.0, 0.0, 0.0, 0.0, 0.0, 0.0, 1.695327664371407E9, 0.0, 2023-09-21 15:21:04.371
50.0, 40424.605062556875, 35966.348465245785, 23254.79963479038, -1599.9602198553348, -9454.139704005684, -3685.914419402411, -187500.02235174447, -15383.409307409443, 25502.62516768279, 4337.9148051637185, -9657.205302382148, 23391.30173817894, -6795.913791169381, -17322.423138907332, -1626.402333545963, -14582.434544853515, 0.14400000000000002, 0.9540000000000001, 0.326, 192.0, 0.0, 0.0, 0.0, 0.0, 0.0, 0.0, 0.0, 0.0, 0.0, 1.695327664371411E9, 0.0, 2023-09-21 15:21:04.371
52.0, 40408.176530382225, 35949.65171213767, 23253.436178378604, -1609.3479525265639, -9467.595454167778, -3692.5528875056375, -187500.02235174447, -15392.729984847307, 25499.540626947957, 4334.293822561958, -9657.96526169363, 23352.342647593337, -6806.352055830009, -17335.208336735766, -1623.7424759557816, -14574.589082549703, 0.15, 0.9540000000000001, 0.334, 192.0, 2.0, 88.0, 14.5, 104.0, 5.0, 56.0, 0.0, 0.0, 0.0, 1.695327664371414E9, 0.0, 2023-09-21 15:21:04.371
54.0, 40411.12696065033, 35953.5856191618, 23249.189346932097, -1607.9621443703347, -9465.15911402215, -3675.3643960195063, -187500.02235174447, -15393.71346160334, 25496.70195540213, 4331.611613227322, -9663.776715252008, 23389.401839900238, -6804.4298058068525, -17328.70397909927, -1632.3478975710748, -14578.098306429185, 0.15, 0.9540000000000001, 0.334, 192.0, 0.0, 0.0, 0.0, 0.0, 0.0, 0.0, 0.0, 0.0, 0.0, 1.695327664371417E9, 0.0, 2023-09-21 15:21:04.371
56.0, 40417.83248398692, 35959.777052375925, 23258.46532088105, -1600.3625512555304, -9464.756782621955, -3679.052433854632, -187500.02235174447, -15390.695976101873, 25507.09551657385, 4340.23938658707, -9656.71356400413, 23350.80037722592, -6798.439538292831, -17319.47270863923, -1626.916423668435, -14570.40930633656, 0.15, 0.9540000000000001, 0.334, 192.0, 0.0, 0.0, 0.0, 0.0, 0.0, 0.0, 0.0, 0.0, 0.0, 1.69532766437142E9, 0.0, 2023-09-21 15:21:04.371
58.0, 40421.67698403323, 35965.856726867765, 23246.037750963897, -1597.2556587762426, -9466.388459967191, -3677.4207565093943, -187500.02235174447, -15382.448182397866, 25502.915740360706, 4346.833151201386, -9657.741744249075, 23399.169552227206, -6806.4861662967405, -17315.024711492624, -1628.4363422913962, -14568.21883537994, 0.15, 0.9540000000000001, 0.334, 192.0, 0.0, 0.0, 0.0, 0.0, 0.0, 0.0, 0.0, 0.0, 0.0, 1.695327664371423E9, 0.0, 2023-09-21 15:21:04.371
60.0, 40424.448600345684, 35968.69539841359, 23257.392437147195, -1592.539440696173, -9465.06970704433, -3676.571390220093, -187500.02235174447, -15376.167342205925, 25503.921568861195, 4355.662090261232, -9654.076058158405, 23353.974324938576, -6808.810747720093, -17305.592275332485, -1627.4975690242732, -14558.674640497524, 0.15, 0.9540000000000001, 0.334, 192.0, 0.0, 0.0, 0.0, 0.0, 0.0, 0.0, 0.0, 0.0, 0.0, 1.695327664430187E9, 0.0, 2023-09-21 15:21:04.430
62.0, 40420.402934599275, 35966.482575712515, 23241.20977416155, -1602.7541879122482, -9470.501180946969, -3684.9979978797437, -187500.02235174447, -15392.61822612503, 25502.28989151596, 4348.286014590981, -9657.227654126604, 23404.891598807764, -6806.597925019018, -17307.983911989202, -1626.603499246061, -14568.509408057858, 0.156, 0.9500000000000001, 0.33, 192.0, 2.0, 112.0, 14.5, 88.0, 5.0, 40.0, 0.0, 0.0, 0.0, 1.695327664430196E9, 0.0, 2023-09-21 15:21:04.430
64.0, 40429.27657714803, 35974.238631038505, 23257.21362319155, -1588.31496099412, -9469.137724535194, -3675.789079164157, -187500.02235174447, -15385.912702788437, 25505.396783995246, 4346.207302356637, -9655.797142481464, 23366.75952276701, -6806.06148315209, -17322.80311856307, -1631.9008626819686, -14566.855378968166, 0.156, 0.9500000000000001, 0.33, 192.0, 0.0, 0.0, 0.0, 0.0, 0.0, 0.0, 0.0, 0.0, 0.0, 1.6953276644302E9, 0.0, 2023-09-21 15:21:04.430
66.0, 40429.38833587031, 35974.8421281388, 23251.156300444163, -1592.6511994184496, -9477.363166494748, -3684.1933350793524, -187500.02235174447, -15392.506467402753, 25513.95750212163, 4357.070250161916, -9648.398715066758, 23414.234627990085, -6808.050788408612, -17309.32501665652, -1626.1788161014101, -14561.02157366533, 0.156, 0.9500000000000001, 0.33, 192.0, 0.0, 0.0, 0.0, 0.0, 0.0, 0.0, 0.0, 0.0, 0.0, 1.695327664430203E9, 0.0, 2023-09-21 15:21:04.430
68.0, 40421.09583867739, 35966.52727920142, 23245.344846885782, -1607.6268682035052, -9485.029814842917, -3696.6432567409583, -187500.02235174447, -15403.704691374862, 25511.990548609563, 4353.33750883788, -9657.160598893237, 23376.259014160518, -6809.861279709492, -17309.01209223415, -1634.6054237610608, -14570.521065058836, 0.156, 0.9500000000000001, 0.33, 192.0, 0.0, 0.0, 0.0, 0.0, 0.0, 0.0, 0.0, 0.0, 0.0, 1.695327664430207E9, 0.0, 2023-09-21 15:21:04.430
70.0, 40421.25230088858, 35967.42134897964, 23239.041654949386, -1614.0641706066335, -9472.44578271458, -3700.979495165288, -187500.02235174447, -15410.544325178185, 25504.368603750303, 4340.082924375883, -9670.526942077511, 23404.24339821856, -6816.902079212914, -17331.47559541173, -1645.624833777527, -14590.257655412872, 0.156, 0.9500000000000001, 0.33, 192.0, 0.0, 0.0, 0.0, 0.0, 0.0, 0.0, 0.0, 0.0, 0.0, 1.69532766443021E9, 0.0, 2023-09-21 15:21:04.430
72.0, 40415.82082698594, 35962.52631694393, 23245.255439907964, -1613.9077083954464, -9468.266006501437, -3697.7831957081794, -187500.02235174447, -15396.976816293814, 25499.09359205885, 4342.452209288145, -9670.214017655137, 23352.47675806007, -6817.885555968947, -17326.737025587205, -1638.628737763016, -14592.671643814045, 0.154, 0.9440000000000001, 0.334, 192.0, 2.0, 104.0, 14.5, 64.0, 5.0, 56.0, 0.0, 0.0, 0.0, 1.695327664430213E9, 0.0, 2023-09-21 15:21:04.430
74.0, 40423.66628928975, 35970.12591005873, 23255.716056313046, -1604.2294030462986, -9459.079439530307, -3677.10783208702, -187500.02235174447, -15373.775705549206, 25502.692222916154, 4341.2005115986485, -9668.492933332078, 23384.842084031356, -6806.44146280783, -17324.43479590831, -1628.5928045025832, -14578.232416895917, 0.154, 0.9440000000000001, 0.334, 192.0, 0.0, 0.0, 0.0, 0.0, 0.0, 0.0, 0.0, 0.0, 0.0, 1.695327664490103E9, 0.0, 2023-09-21 15:21:04.490
76.0, 40412.60217578437, 35962.571020432835, 23253.726751056525, -1608.3197722816196, -9463.907416332653, -3681.3546635335283, -187500.02235174447, -15383.185789964891, 25510.33651951987, 4352.3540320818465, -9661.988575695585, 23351.113301648296, -6799.288904582132, -17307.42511837782, -1623.697772466871, -14566.385992334604, 0.154, 0.9440000000000001, 0.334, 192.0, 0.0, 0.0, 0.0, 0.0, 0.0, 0.0, 0.0, 0.0, 0.0, 1.695327664490113E9, 0.0, 2023-09-21 15:21:04.490
78.0, 40414.21150138516, 35962.03457856591, 23246.015399219443, -1603.6929611793712, -9461.292262231382, -3673.956236118822, -187500.02235174447, -15376.882598028495, 25493.19273152265, 4334.76320919552, -9680.495820104577, 23388.328956166384, -6813.951648944813, -17335.633019880417, -1635.3877348169965, -14573.091515671196, 0.154, 0.9440000000000001, 0.334, 192.0, 0.0, 0.0, 0.0, 0.0, 0.0, 0.0, 0.0, 0.0, 0.0, 1.695327664490117E9, 0.0, 2023-09-21 15:21:04.490
80.0, 40406.16487338125, 35952.1327557722, 23239.578096816316, -1614.086522351089, -9471.931692592108, -3684.7744804351905, -187500.02235174447, -15394.696938359373, 25496.23256876857, 4339.881758675785, -9676.047822957971, 23365.597232055337, -6815.739788501238, -17322.736063329707, -1635.2983278391753, -14568.598815035679, 0.154, 0.9440000000000001, 0.334, 192.0, 0.0, 0.0, 0.0, 0.0, 0.0, 0.0, 0.0, 0.0, 0.0, 1.69532766449012E9, 0.0, 2023-09-21 15:21:04.490
82.0, 40418.033649687015, 35968.226011780025, 23249.234050421008, -1600.854289633547, -9458.25242498546, -3677.4207565093943, -187500.02235174447, -15379.52010387422, 25493.99739432304, 4340.976994154095, -9678.215942170136, 23383.880959019778, -6816.879727468458, -17320.90322028437, -1639.6569180079603, -14569.582291791714, 0.156, 0.934, 0.336, 192.0, 2.0, 112.0, 14.5, 24.0, 5.0, 64.0, 0.0, 0.0, 0.0, 1.695327664490124E9, 0.0, 2023-09-21 15:21:04.490
84.0, 40418.52538806503, 35969.52241295844, 23251.89390801119, -1602.3965600009633, -9468.82480011282, -3682.8745821564894, -187500.02235174447, -15387.410269666943, 25505.441487484157, 4356.913787950729, -9663.329680362902, 23366.42424660018, -6806.262648852187, -17313.124813213923, -1630.0680196366334, -14558.585233519701, 0.156, 0.934, 0.336, 192.0, 0.0, 0.0, 0.0, 0.0, 0.0, 0.0, 0.0, 0.0, 0.0, 1.695327664490128E9, 0.0, 2023-09-21 15:21:04.490
86.0, 40417.94424270919, 35967.73427340201, 23245.45660560806, -1611.60547871655, -9473.451611215069, -3698.5208032752043, -187500.02235174447, -15404.129374519513, 25495.070278056894, 4342.161636610226, -9674.90788399075, 23380.975232240588, -6816.96913444628, -17328.458109910265, -1636.0806388951112, -14576.198408150483, 0.156, 0.934, 0.336, 192.0, 0.0, 0.0, 0.0, 0.0, 0.0, 0.0, 0.0, 0.0, 0.0, 1.695327664490131E9, 0.0, 2023-09-21 15:21:04.490
88.0, 40425.40972535726, 35973.72454091603, 23254.531413856916, -1603.1341675679885, -9469.24948325747, -3689.557753748626, -187500.02235174447, -15387.365566178032, 25501.95461534913, 4346.900206434751, -9668.448229843169, 23378.360078139314, -6815.762140245693, -17318.66804583884, -1636.0806388951112, -14579.059431440763, 0.156, 0.934, 0.336, 192.0, 0.0, 0.0, 0.0, 0.0, 0.0, 0.0, 0.0, 0.0, 0.0, 1.695327664490134E9, 0.0, 2023-09-21 15:21:04.490
90.0, 40433.09872544989, 35977.41257875116, 23260.9910680045, -1599.5802401995945, -9457.96185230754, -3676.571390220093, -187500.02235174447, -15377.70961257334, 25510.49298173106, 4352.264625104025, -9661.072154172916, 23368.65942104571, -6799.713587726783, -17325.328865686522, -1623.2730893222201, -14566.520102801336, 0.156, 0.934, 0.336, 192.0, 0.0, 0.0, 0.0, 0.0, 0.0, 0.0, 0.0, 0.0, 0.0, 1.695327664550265E9, 0.0, 2023-09-21 15:21:04.550
92.0, 40431.53410333802, 35977.97137236254, 23256.45366388007, -1598.4626529768293, -9459.191198252583, -3685.556791491126, -187500.02235174447, -15379.006013751748, 25511.163534064715, 4355.326814094403, -9660.602767539354, 23376.43782811616, -6798.394834803919, -17317.66221733835, -1624.4130282894407, -14570.364602847649, 0.15, 0.9440000000000001, 0.326, 192.0, 2.0, 88.0, 14.5, 64.0, 5.0, 24.0, 0.0, 0.0, 0.0, 1.695327664550274E9, 0.0, 2023-09-21 15:21:04.550
94.0, 40412.512768806555, 35958.793575619886, 23248.384684131706, -1616.7687316857257, -9478.92778860662, -3707.372094079506, -187500.02235174447, -15410.253752500268, 25505.10621131733, 4347.660165746232, -9667.44240134268, 23361.573918053382, -6806.709683741294, -17325.82060406454, -1629.6209847475272, -14579.595873307691, 0.15, 0.9440000000000001, 0.326, 192.0, 0.0, 0.0, 0.0, 0.0, 0.0, 0.0, 0.0, 0.0, 0.0, 1.695327664550278E9, 0.0, 2023-09-21 15:21:04.550
96.0, 40419.12888516532, 35967.91308735765, 23246.59654457528, -1609.0126763597343, -9470.858808858253, -3694.0057508952323, -187500.02235174447, -15392.484115658299, 25486.28604248596, 4331.656316716232, -9686.620198085333, 23392.77695331299, -6824.948707216824, -17340.773921105138, -1643.65788026546, -14594.996225237397, 0.15, 0.9440000000000001, 0.326, 192.0, 0.0, 0.0, 0.0, 0.0, 0.0, 0.0, 0.0, 0.0, 0.0, 1.695327664550281E9, 0.0, 2023-09-21 15:21:04.550
98.0, 40431.42234461574, 35979.17836656313, 23265.729637829023, -1599.1779087993991, -9458.766515107933, -3684.618018224003, -187500.02235174447, -15391.85826681355, 25508.682490430176, 4351.951700681651, -9665.430744341702, 23354.778987738966, -6804.787433718137, -17324.926534286325, -1624.9941736452788, -14576.131352917118, 0.15, 0.9440000000000001, 0.326, 192.0, 0.0, 0.0, 0.0, 0.0, 0.0, 0.0, 0.0, 0.0, 0.0, 1.695327664550285E9, 0.0, 2023-09-21 15:21:04.550
100.0, 40430.14829518179, 35979.17836656313, 23257.392437147195, -1607.1351298254883, -9454.609090639246, -3689.6471607264475, -187500.02235174447, -15399.793136095184, 25517.176153323195, 4359.126610651804, -9658.76992449402, 23378.9188717507, -6787.86716316547, -17317.081071982513, -1618.6239264755163, -14573.69501277149, 0.15, 0.9440000000000001, 0.326, 192.0, 0.0, 0.0, 0.0, 0.0, 0.0, 0.0, 0.0, 0.0, 0.0, 1.69532766455029E9, 0.0, 2023-09-21 15:21:04.550
102.0, 40414.390315340795, 35961.36402623225, 23248.65290506517, -1619.6744584649157, -9466.455515200558, -3695.749186962746, -187500.02235174447, -15393.355833692056, 25503.7204031611, 4343.234520344081, -9673.142096178783, 23346.0618074014, -6804.206288362299, -17321.75258657367, -1630.0680196366334, -14591.934036247021, 0.14200000000000002, 0.9560000000000001, 0.326, 192.0, 2.0, 56.0, 14.5, 112.0, 5.0, 24.0, 0.0, 0.0, 0.0, 1.695327664550293E9, 0.0, 2023-09-21 15:21:04.550
104.0, 40425.52148407954, 35972.428139737625, 23253.61499233425, -1603.312981523631, -9457.336003462793, -3681.667587955903, -187500.02235174447, -15379.743621318774, 25500.211179281614, 4342.429857543691, -9676.047822957971, 23385.73615380957, -6803.379273817453, -17334.873060568938, -1625.0612288786447, -14580.959329719464, 0.14200000000000002, 0.9560000000000001, 0.326, 192.0, 0.0, 0.0, 0.0, 0.0, 0.0, 0.0, 0.0, 0.0, 0.0, 1.69532766461051E9, 0.0, 2023-09-21 15:21:04.610
106.0, 40423.688641034205, 35971.19879379258, 23260.454626137573, -1607.023371103212, -9470.054146057862, -3687.210820580819, -187500.02235174447, -15401.983607051803, 25515.455069000134, 4358.254892618048, -9660.33454660589, 23338.0598828864, -6789.0518056216015, -17314.15299345887, -1619.2944788091754, -14575.93018721702, 0.14200000000000002, 0.9560000000000001, 0.326, 192.0, 0.0, 0.0, 0.0, 0.0, 0.0, 0.0, 0.0, 0.0, 0.0, 1.695327664610519E9, 0.0, 2023-09-21 15:21:04.610
108.0, 40407.6400885153, 35956.692511641086, 23233.27490487992, -1626.469388779329, -9495.848059159287, -3705.5839545230815, -187500.02235174447, -15410.790194367195, 25502.37929849378, 4347.14607562376, -9670.839866499886, 23388.597177099848, -6802.462852294785, -17327.117005242944, -1640.081601152611, -14604.138088719617, 0.14200000000000002, 0.9560000000000001, 0.326, 192.0, 0.0, 0.0, 0.0, 0.0, 0.0, 0.0, 0.0, 0.0, 0.0, 1.695327664610523E9, 0.0, 2023-09-21 15:21:04.610
110.0, 40430.77414402654, 35979.15601481867, 23252.899736511677, -1601.636600689483, -9482.995806097486, -3677.0407768536543, -187500.02235174447, -15365.058525211636, 25511.118830575804, 4359.059555418438, -9660.33454660589, 23345.324199834373, -6793.700968468305, -17310.263789923643, -1647.4800285673177, -14596.806716538278, 0.14200000000000002, 0.9560000000000001, 0.326, 192.0, 0.0, 0.0, 0.0, 0.0, 0.0, 0.0, 0.0, 0.0, 0.0, 1.695327664610526E9, 0.0, 2023-09-21 15:21:04.610
112.0, 40446.93445526773, 35996.14334060471, 23260.096998226287, -1586.4150627154188, -9467.39428846768, -3666.468401726294, -187500.02235174447, -15355.626089051497, 25523.211124326128, 4374.616369559332, -9645.045953398461, 23391.368793412305, -6784.8273259195485, -17300.250208407666, -1634.4266098054184, -14585.943768732997, 0.14, 0.9580000000000001, 0.328, 192.0, 2.0, 48.0, 14.5, 120.0, 5.0, 32.0, 0.0, 0.0, 0.0, 1.69532766461053E9, 0.0, 2023-09-21 15:21:04.610
114.0, 40435.4456586177, 35985.66037245517, 23256.744236557992, -1598.5520599546505, -9477.050242072373, -3679.208896065819, -187500.02235174447, -15367.18194093489, 25534.185830853683, 4384.540544097489, -9635.613517238322, 23350.82272897038, -6769.315215267565, -17286.883865223394, -1631.9902696597899, -14590.704690301978, 0.14, 0.9580000000000001, 0.328, 192.0, 0.0, 0.0, 0.0, 0.0, 0.0, 0.0, 0.0, 0.0, 0.0, 1.695327664610533E9, 0.0, 2023-09-21 15:21:04.610
116.0, 40441.01124298707, 35989.057837612374, 23256.90069876918, -1590.3266179950974, -9465.181465766605, -3672.525724473682, -187500.02235174447, -15345.3219348576, 25534.945790165162, 4387.20040168767, -9636.731104461087, 23398.05196500444, -6767.683537922328, -17286.213312889733, -1629.531577769706, -14589.721213545945, 0.14, 0.9580000000000001, 0.328, 192.0, 0.0, 0.0, 0.0, 0.0, 0.0, 0.0, 0.0, 0.0, 0.0, 1.695327664610536E9, 0.0, 2023-09-21 15:21:04.610
118.0, 40432.27171090504, 35980.117139830254, 23251.0892452108, -1598.7979291436588, -9475.26210251595, -3682.5393059896596, -187500.02235174447, -15353.994411706259, 25535.28106633199, 4382.9982737300725, -9637.267546328014, 23360.076351174874, -6769.516380967663, -17295.04225194958, -1629.9786126588122, -14592.850457769688, 0.14, 0.9580000000000001, 0.328, 192.0, 0.0, 0.0, 0.0, 0.0, 0.0, 0.0, 0.0, 0.0, 0.0, 1.695327664610539E9, 0.0, 2023-09-21 15:21:04.610
120.0, 40428.85189400338, 35974.32803801633, 23243.55670732936, -1603.0447605901672, -9476.06676531634, -3675.409099508417, -187500.02235174447, -15348.406475592432, 25528.95552265114, 4378.080889949905, -9640.19562485166, 23403.282273206984, -6771.684500179827, -17294.215237404733, -1636.2371011062983, -14588.089536200707, 0.14, 0.9580000000000001, 0.328, 192.0, 0.0, 0.0, 0.0, 0.0, 0.0, 0.0, 0.0, 0.0, 0.0, 1.69532766467171E9, 0.0, 2023-09-21 15:21:04.671
122.0, 40420.84996948838, 35965.856726867765, 23243.713169540548, -1606.5763362141058, -9475.083288560307, -3679.722986188291, -187500.02235174447, -15359.448237353354, 25518.874885901798, 4365.943892710673, -9649.4268953117, 23375.87903450478, -6780.58049447304, -17305.256999165656, -1649.1340576570103, -14597.186696194018, 0.148, 0.9480000000000001, 0.322, 192.0, 2.0, 80.0, 14.5, 80.0, 5.0, 8.0, 0.0, 0.0, 0.0, 1.69532766467172E9, 0.0, 2023-09-21 15:21:04.671
124.0, 40424.20273115668, 35968.78480539141, 23249.569326587836, -1598.216783787821, -9464.7344308775, -3684.528611246182, -187500.02235174447, -15356.095475685059, 25519.27721730199, 4366.167410155226, -9647.594052266366, 23398.25313070454, -6776.065442093068, -17301.85953400845, -1639.3439935855858, -14592.291664158305, 0.148, 0.9480000000000001, 0.322, 192.0, 0.0, 0.0, 0.0, 0.0, 0.0, 0.0, 0.0, 0.0, 0.0, 1.695327664671724E9, 0.0, 2023-09-21 15:21:04.671
126.0, 40428.69543179219, 35974.01511359395, 23255.581945846316, -1590.214859272821, -9459.414715697136, -3670.5140674727045, -187500.02235174447, -15343.08676041207, 25530.56484825192, 4377.030357960505, -9633.557156748433, 23364.39023785475, -6763.302596009087, -17293.74585077117, -1630.0009644032675, -14568.799980735777, 0.148, 0.9480000000000001, 0.322, 192.0, 0.0, 0.0, 0.0, 0.0, 0.0, 0.0, 0.0, 0.0, 0.0, 1.695327664671727E9, 0.0, 2023-09-21 15:21:04.671
128.0, 40413.697411262685, 35956.71486338555, 23235.621838047726, -1609.7502839267593, -9472.423430970124, -3691.077672371587, -187500.02235174447, -15363.069219955114, 25512.795211409953, 4364.20045664316, -9649.583357522888, 23390.63118584528, -6782.189820073822, -17298.193847917777, -1641.4897610532953, -14580.758164019368, 0.148, 0.9480000000000001, 0.322, 192.0, 0.0, 0.0, 0.0, 0.0, 0.0, 0.0, 0.0, 0.0, 0.0, 1.69532766467173E9, 0.0, 2023-09-21 15:21:04.671
130.0, 40427.30962363596, 35967.77897689092, 23248.742312042992, -1590.796004628659, -9456.330174962304, -3668.569465705093, -187500.02235174447, -15336.805920220128, 25518.09257484586, 4366.837962488886, -9646.252947599049, 23370.134636179762, -6771.908017624381, -17305.2346474212, -1647.9941186897897, -14571.303376114773, 0.148, 0.9480000000000001, 0.322, 192.0, 0.0, 0.0, 0.0, 0.0, 0.0, 0.0, 0.0, 0.0, 0.0, 1.695327664671733E9, 0.0, 2023-09-21 15:21:04.671
132.0, 40430.10359169288, 35970.55059320338, 23251.49157661099, -1587.7338156382818, -9456.330174962304, -3659.3605469895065, -187500.02235174447, -15324.601867747531, 25515.61153121132, 4369.3190061234245, -9643.436627797679, 23378.650650817235, -6778.300616538599, -17297.076260695012, -1640.573339530628, -14561.870939954631, 0.146, 0.9420000000000001, 0.33, 192.0, 2.0, 72.0, 14.5, 56.0, 5.0, 40.0, 0.0, 0.0, 0.0, 1.695327664671737E9, 0.0, 2023-09-21 15:21:04.671
134.0, 40436.406783629274, 35979.35718051877, 23255.02315223493, -1582.7270248802931, -9446.607166124246, -3657.3488899885288, -187500.02235174447, -15329.876879438983, 25522.96525513712, 4376.337453882391, -9633.154825348238, 23365.977211711077, -6772.5562182135845, -17290.683661780797, -1639.7239732413261, -14559.367544575638, 0.146, 0.9420000000000001, 0.33, 192.0, 0.0, 0.0, 0.0, 0.0, 0.0, 0.0, 0.0, 0.0, 0.0, 1.69532766467174E9, 0.0, 2023-09-21 15:21:04.671
136.0, 40434.57394058394, 35976.87613688423, 23257.548899358382, -1583.5093359362288, -9451.591605137779, -3665.5519802036265, -187500.02235174447, -15330.03334165017, 25525.602760982845, 4379.489049850589, -9625.018790366506, 23359.67401977468, -6766.565950699563, -17286.19096114528, -1628.861025436047, -14557.512349785848, 0.146, 0.9420000000000001, 0.33, 192.0, 0.0, 0.0, 0.0, 0.0, 0.0, 0.0, 0.0, 0.0, 0.0, 1.695327664730576E9, 0.0, 2023-09-21 15:21:04.730
138.0, 40432.47287660514, 35972.22697403753, 23253.480881867516, -1583.4199289584076, -9454.720849361522, -3672.01163435121, -187500.02235174447, -15338.437597565366, 25519.456031257636, 4374.996349215073, -9629.757360191032, 23364.34553436584, -6773.852619391992, -17289.320205369022, -1637.2429296067871, -14560.887463198598, 0.146, 0.9420000000000001, 0.33, 192.0, 0.0, 0.0, 0.0, 0.0, 0.0, 0.0, 0.0, 0.0, 0.0, 1.695327664730584E9, 0.0, 2023-09-21 15:21:04.730
140.0, 40437.43496387422, 35975.44562523909, 23262.086303482807, -1580.7824231126815, -9455.6819743731, -3676.861962898012, -187500.02235174447, -15344.584327290575, 25519.970121380105, 4374.392852114779, -9627.76805493451, 23353.594345282836, -6771.416279246364, -17288.00145244616, -1634.247795849776, -14568.129428402119, 0.146, 0.9420000000000001, 0.33, 192.0, 0.0, 0.0, 0.0, 0.0, 0.0, 0.0, 0.0, 0.0, 0.0, 1.695327664730587E9, 0.0, 2023-09-21 15:21:04.730
142.0, 40433.38929812781, 35970.6400001812, 23257.79476854739, -1581.6541411464384, -9462.007518053952, -3680.2817797996736, -187500.02235174447, -15340.158681888424, 25519.85836265783, 4373.521134081022, -9622.873022898797, 23372.10158969183, -6777.071270593557, -17296.986853717193, -1630.2244818478207, -14565.447219067482, 0.15, 0.9440000000000001, 0.328, 192.0, 2.0, 88.0, 14.5, 64.0, 5.0, 32.0, 0.0, 0.0, 0.0, 1.695327664730591E9, 0.0, 2023-09-21 15:21:04.730
144.0, 40436.339728395906, 35972.852822882276, 23263.807387805868, -1580.31303647912, -9459.817047097331, -3679.745337932746, -187500.02235174447, -15347.110074414024, 25518.785478923975, 4367.352052611358, -9623.09654034335, 23351.42622607067, -6769.739898412216, -17302.552438086565, -1633.0408016491892, -14566.162474890052, 0.15, 0.9440000000000001, 0.328, 192.0, 0.0, 0.0, 0.0, 0.0, 0.0, 0.0, 0.0, 0.0, 0.0, 1.695327664730594E9, 0.0, 2023-09-21 15:21:04.730
146.0, 40435.915045251255, 35973.16574730465, 23257.057160980363, -1581.7435481242596, -9458.833570341298, -3673.576256463082, -187500.02235174447, -15337.118844642502, 25516.684414945175, 4369.38606135679, -9623.744740932554, 23373.934432737165, -6776.043090348612, -17296.539818828085, -1631.3644208150413, -14566.900082457076, 0.15, 0.9440000000000001, 0.328, 192.0, 0.0, 0.0, 0.0, 0.0, 0.0, 0.0, 0.0, 0.0, 0.0, 1.695327664730598E9, 0.0, 2023-09-21 15:21:04.730
148.0, 40419.8888444768, 35955.843145351784, 23250.84337602179, -1593.0758825631003, -9471.261140258448, -3682.405195522928, -187500.02235174447, -15353.346211117056, 25519.254865557537, 4369.766041012531, -9625.599935722345, 23342.57493526637, -6773.405584502886, -17290.974234458714, -1627.698734724371, -14561.155684132062, 0.15, 0.9440000000000001, 0.328, 192.0, 0.0, 0.0, 0.0, 0.0, 0.0, 0.0, 0.0, 0.0, 0.0, 1.695327664730601E9, 0.0, 2023-09-21 15:21:04.730
150.0, 40413.764466496046, 35947.84122083679, 23235.040692691888, -1600.0943303220668, -9470.30001524687, -3677.398404764939, -187500.02235174447, -15347.422998836399, 25494.645594912243, 4346.028488400994, -9650.656241256744, 23379.276499661984, -6793.656264979394, -17316.499926626675, -1646.3177378556418, -14580.17701866353, 0.15, 0.9440000000000001, 0.328, 192.0, 0.0, 0.0, 0.0, 0.0, 0.0, 0.0, 0.0, 0.0, 0.0, 1.695327664790845E9, 0.0, 2023-09-21 15:21:04.790
152.0, 40418.27951887602, 35953.42915695062, 23249.055236465363, -1594.4169872304187, -9462.052221542863, -3673.3303872740735, -187500.02235174447, -15338.571708032097, 25504.301548516938, 4354.745668738565, -9640.888528929774, 23332.42724328366, -6782.43568926283, -17295.355176371955, -1635.723010983826, -14569.582291791714, 0.148, 0.9480000000000001, 0.326, 192.0, 2.0, 80.0, 14.5, 80.0, 5.0, 24.0, 0.0, 0.0, 0.0, 1.695327664790857E9, 0.0, 2023-09-21 15:21:04.790
154.0, 40436.4961906071, 35971.42231123713, 23257.817120291846, -1570.7688415967039, -9441.44391315507, -3654.756087631713, -187500.02235174447, -15324.959495658815, 25511.610568953824, 4365.474506077112, -9632.685438714676, 23362.691505276147, -6777.048918849101, -17294.952844971758, -1627.27405157972, -14559.859282953656, 0.148, 0.9480000000000001, 0.326, 192.0, 0.0, 0.0, 0.0, 0.0, 0.0, 0.0, 0.0, 0.0, 0.0, 1.69532766479086E9, 0.0, 2023-09-21 15:21:04.790
156.0, 40429.03070795903, 35964.69443615609, 23256.520719113436, -1578.6143039005167, -9452.44097142708, -3672.793945407146, -187500.02235174447, -15341.119806900002, 25523.211124326128, 4380.830154517907, -9618.939115874662, 23309.04731858341, -6758.921654095848, -17277.004394174146, -1615.1594060849436, -14550.35979156015, 0.148, 0.9480000000000001, 0.326, 192.0, 0.0, 0.0, 0.0, 0.0, 0.0, 0.0, 0.0, 0.0, 0.0, 1.695327664790864E9, 0.0, 2023-09-21 15:21:04.790
158.0, 40433.836333016916, 35971.01997983694, 23250.46339636605, -1573.2051817423323, -9451.859826071242, -3660.433430723361, -187500.02235174447, -15316.152908343425, 25511.118830575804, 4369.1401921677825, -9631.836072425374, 23357.975287196077, -6772.600921702496, -17288.917873968825, -1631.7667522152367, -14558.831102708711, 0.148, 0.9480000000000001, 0.326, 192.0, 0.0, 0.0, 0.0, 0.0, 0.0, 0.0, 0.0, 0.0, 0.0, 1.695327664790868E9, 0.0, 2023-09-21 15:21:04.790
160.0, 40420.268824132545, 35956.15606977416, 23247.043579464385, -1590.2595627617316, -9465.740259377988, -3677.890143142956, -187500.02235174447, -15347.46770232531, 25508.52602821899, 4366.301520621958, -9634.898261415752, 23312.93652211863, -6779.10527933899, -17289.431964091298, -1630.8950341814798, -14560.954518431965, 0.148, 0.9480000000000001, 0.326, 192.0, 0.0, 0.0, 0.0, 0.0, 0.0, 0.0, 0.0, 0.0, 0.0, 1.695327664790871E9, 0.0, 2023-09-21 15:21:04.790
162.0, 40432.0928969494, 35965.54380244539, 23246.685951553103, -1584.8057371146367, -9454.765552850433, -3672.950407618333, -187500.02235174447, -15340.292792355156, 25504.033327583475, 4356.712622250631, -9642.229633597093, 23359.115226163296, -6780.4240322618525, -17307.536877100098, -1635.5889005170943, -14573.06916392674, 0.14400000000000002, 0.9540000000000001, 0.328, 192.0, 2.0, 64.0, 14.5, 104.0, 5.0, 32.0, 0.0, 0.0, 0.0, 1.695327664790874E9, 0.0, 2023-09-21 15:21:04.790
164.0, 40416.02199268604, 35949.3834912042, 23244.093149196287, -1602.6200774455165, -9472.535189692402, -3696.1962218518524, -187500.02235174447, -15363.85153101105, 25512.594045709855, 4364.356918854346, -9633.244232326058, 23308.935559861133, -6775.573703715051, -17287.062679179035, -1632.8172842046363, -14576.041945939298, 0.14400000000000002, 0.9540000000000001, 0.328, 192.0, 0.0, 0.0, 0.0, 0.0, 0.0, 0.0, 0.0, 0.0, 0.0, 1.695327664790878E9, 0.0, 2023-09-21 15:21:04.790
166.0, 40412.82569322893, 35945.20371499106, 23238.460509593548, -1605.0117141022342, -9475.463268216046, -3686.4061577804277, -187500.02235174447, -15357.257766396735, 25485.280213985472, 4333.444456272657, -9656.91472970423, 23360.925717464175, -6802.395797061419, -17331.699112856284, -1659.4829153398175, -14597.298454916294, 0.14400000000000002, 0.9540000000000001, 0.328, 192.0, 0.0, 0.0, 0.0, 0.0, 0.0, 0.0, 0.0, 0.0, 0.0, 1.695327664851185E9, 0.0, 2023-09-21 15:21:04.851
168.0, 40412.088085661904, 35943.57203764583, 23244.830756763313, -1603.7153129238263, -9478.190181039594, -3695.30215207364, -187500.02235174447, -15364.56678683362, 25501.03819382646, 4350.700002992154, -9637.379305050292, 23314.94817911961, -6791.175221344855, -17308.229781178212, -1644.306080854664, -14577.964195962453, 0.14400000000000002, 0.9540000000000001, 0.328, 192.0, 0.0, 0.0, 0.0, 0.0, 0.0, 0.0, 0.0, 0.0, 0.0, 1.695327664851194E9, 0.0, 2023-09-21 15:21:04.851
170.0, 40436.63030107383, 35967.75662514647, 23262.39922790518, -1578.8378213450696, -9454.92201506162, -3674.53738147466, -187500.02235174447, -15336.761216731218, 25499.00418508103, 4346.699040734654, -9639.748589962554, 23353.571993538382, -6791.778718445149, -17310.911990512846, -1640.1933598748876, -14579.148838418585, 0.14400000000000002, 0.9540000000000001, 0.328, 192.0, 0.0, 0.0, 0.0, 0.0, 0.0, 0.0, 0.0, 0.0, 0.0, 1.695327664851197E9, 0.0, 2023-09-21 15:21:04.851
172.0, 40424.33684162341, 35954.189116262096, 23259.225280192528, -1587.957333082835, -9463.370974465726, -3682.3828437784728, -187500.02235174447, -15353.882652983983, 25514.873923644296, 4359.998328685561, -9625.219956066603, 23314.590551208326, -6770.701023423794, -17292.09182168148, -1622.9601648998457, -14561.848588210178, 0.15, 0.9540000000000001, 0.322, 192.0, 2.0, 88.0, 14.5, 104.0, 5.0, 8.0, 0.0, 0.0, 0.0, 1.695327664851201E9, 0.0, 2023-09-21 15:21:04.851
174.0, 40423.040440445, 35951.663369138645, 23259.158224959163, -1588.9408098388685, -9470.389422224693, -3685.3779775354838, -187500.02235174447, -15366.332574645588, 25507.05081308494, 4351.459962303635, -9630.405560780235, 23344.6089440118, -6784.335587541532, -17309.61558933444, -1622.1107986105442, -14568.330594102215, 0.15, 0.9540000000000001, 0.322, 192.0, 0.0, 0.0, 0.0, 0.0, 0.0, 0.0, 0.0, 0.0, 0.0, 1.695327664851206E9, 0.0, 2023-09-21 15:21:04.851
176.0, 40435.40095512879, 35963.50979369996, 23269.507082641972, -1577.5190684222066, -9460.331137219804, -3678.0019018652324, -187500.02235174447, -15356.140179173968, 25505.217970039605, 4352.801066970953, -9632.66308697022, 23325.811126924888, -6784.782622430637, -17298.57382757352, -1629.4198190474297, -14572.800942993277, 0.15, 0.9540000000000001, 0.322, 192.0, 0.0, 0.0, 0.0, 0.0, 0.0, 0.0, 0.0, 0.0, 0.0, 1.695327664851209E9, 0.0, 2023-09-21 15:21:04.851
178.0, 40424.6944695347, 35952.17745926112, 23261.572213360338, -1586.6162284155166, -9471.238788513994, -3681.242904811252, -187500.02235174447, -15347.780626747684, 25508.52602821899, 4352.443439059668, -9629.71265670212, 23340.160946865195, -6780.826363662049, -17309.079147467513, -1623.7424759557816, -14565.849550467678, 0.15, 0.9540000000000001, 0.322, 192.0, 0.0, 0.0, 0.0, 0.0, 0.0, 0.0, 0.0, 0.0, 0.0, 1.695327664851212E9, 0.0, 2023-09-21 15:21:04.851
180.0, 40413.831521729415, 35943.0355957789, 23244.227259663017, -1597.8368041320807, -9484.716890420543, -3692.77640495019, -187500.02235174447, -15366.824313023606, 25498.93712984766, 4345.7826192119865, -9642.05081964145, 23330.393234538227, -6788.2918463101205, -17307.693339311285, -1635.208920861354, -14568.308242357762, 0.15, 0.9540000000000001, 0.322, 192.0, 0.0, 0.0, 0.0, 0.0, 0.0, 0.0, 0.0, 0.0, 0.0, 1.695327664911414E9, 0.0, 2023-09-21 15:21:04.911
182.0, 40434.037498717014, 35960.22408726503, 23256.520719113436, -1589.5890104280725, -9468.422468712624, -3678.3148262876066, -187500.02235174447, -15350.507539571232, 25501.66404267121, 4348.777752968997, -9643.10135163085, 23333.745996206522, -6787.688349209828, -17307.983911989202, -1640.439229063896, -14579.104134929674, 0.152, 0.9520000000000001, 0.32, 192.0, 2.0, 96.0, 14.5, 96.0, 5.0, 0.0, 0.0, 0.0, 0.0, 1.695327664911424E9, 0.0, 2023-09-21 15:21:04.911
184.0, 40439.6477865753, 35967.197831535086, 23258.93470751461, -1589.2537342612427, -9462.521608176423, -3671.0728610840874, -187500.02235174447, -15354.195577406357, 25515.09744108885, 4359.059555418438, -9633.221880581605, 23321.407833267192, -6772.355052513487, -17295.958673472247, -1636.6841359954044, -14570.923396459031, 0.152, 0.9520000000000001, 0.32, 192.0, 0.0, 0.0, 0.0, 0.0, 0.0, 0.0, 0.0, 0.0, 0.0, 1.695327664911427E9, 0.0, 2023-09-21 15:21:04.911
186.0, 40425.90146373528, 35955.12788952922, 23253.816158034344, -1601.2342692892873, -9477.184352539105, -3682.718119945302, -187500.02235174447, -15357.816560008117, 25520.752432436042, 4366.726203766609, -9626.71752294511, 23314.41173725268, -6767.795296644605, -17285.81098148954, -1628.9057289249574, -14571.21396913695, 0.152, 0.9520000000000001, 0.32, 192.0, 0.0, 0.0, 0.0, 0.0, 0.0, 0.0, 0.0, 0.0, 0.0, 1.695327664911432E9, 0.0, 2023-09-21 15:21:04.911
188.0, 40404.37673382482, 35935.167781730626, 23228.402224588663, -1620.4344177763962, -9496.384501026214, -3708.2214603688076, -187500.02235174447, -15385.108039988047, 25484.073219784885, 4331.1645783382155, -9662.39090709578, 23337.590496252837, -6804.58626801804, -17332.3920169344, -1663.238008408309, -14600.427699140037, 0.152, 0.9520000000000001, 0.32, 192.0, 0.0, 0.0, 0.0, 0.0, 0.0, 0.0, 0.0, 0.0, 0.0, 1.695327664911435E9, 0.0, 2023-09-21 15:21:04.911
190.0, 40420.402934599275, 35951.2833894829, 23248.496442853982, -1604.8776036355025, -9478.190181039594, -3690.049492126643, -187500.02235174447, -15360.431714109387, 25491.76221987751, 4339.233558086581, -9653.24904361356, 23315.641083197723, -6788.135384098934, -17322.95958077426, -1653.626758292527, -14599.757146806378, 0.152, 0.9520000000000001, 0.32, 192.0, 0.0, 0.0, 0.0, 0.0, 0.0, 0.0, 0.0, 0.0, 0.0, 1.695327664911439E9, 0.0, 2023-09-21 15:21:04.911
192.0, 40428.98600447011, 35957.83245060831, 23253.659695823157, -1598.5520599546505, -9467.215474512039, -3681.600532722537, -187500.02235174447, -15355.648440795952, 25503.65334792773, 4351.571721025911, -9640.62030799631, 23329.05212987091, -6776.758346171182, -17312.163688202345, -1640.0592494081557, -14584.64736755459, 0.14200000000000002, 0.9540000000000001, 0.322, 192.0, 2.0, 56.0, 14.5, 104.0, 5.0, 8.0, 0.0, 0.0, 0.0, 1.695327664911442E9, 0.0, 2023-09-21 15:21:04.911
194.0, 40418.57009155394, 35948.35531095926, 23249.099939954274, -1607.6492199479605, -9478.905436862164, -3699.504280031238, -187500.02235174447, -15374.71447881633, 25502.759278149522, 4349.135380880282, -9641.71554347462, 23302.051222568898, -6779.395852016909, -17316.254057437665, -1634.4713132943289, -14594.83976302621, 0.14200000000000002, 0.9540000000000001, 0.322, 192.0, 0.0, 0.0, 0.0, 0.0, 0.0, 0.0, 0.0, 0.0, 0.0, 1.695327664911445E9, 0.0, 2023-09-21 15:21:04.911
196.0, 40426.12498117983, 35959.575886675826, 23249.591678332294, -1597.2556587762426, -9471.797582125377, -3692.0387973831653, -187500.02235174447, -15365.617318823019, 25504.346252005846, 4356.354994339346, -9638.161616106227, 23329.47681301556, -6778.479430494241, -17308.498002111675, -1639.2322348633093, -14591.442297869004, 0.14200000000000002, 0.9540000000000001, 0.322, 192.0, 0.0, 0.0, 0.0, 0.0, 0.0, 0.0, 0.0, 0.0, 0.0, 1.695327664971736E9, 0.0, 2023-09-21 15:21:04.971
198.0, 40413.831521729415, 35948.802345848366, 23247.02122771993, -1604.274106535209, -9483.576951453322, -3691.144727604953, -187500.02235174447, -15359.001202464247, 25493.505655945024, 4350.118857636316, -9645.314174331925, 23301.29126325742, -6789.744709699716, -17320.031502250615, -1637.7123162403484, -14589.050661212286, 0.14200000000000002, 0.9540000000000001, 0.322, 192.0, 0.0, 0.0, 0.0, 0.0, 0.0, 0.0, 0.0, 0.0, 0.0, 1.695327664971759E9, 0.0, 2023-09-21 15:21:04.971
200.0, 40430.61768181535, 35966.72844490152, 23249.189346932097, -1585.7221586373043, -9467.461343701047, -3687.7472624477464, -187500.02235174447, -15353.077990183592, 25489.683507643167, 4348.755401224542, -9649.00221216705, 23338.61867649778, -6792.0469393786125, -17316.47757488222, -1646.116572155544, -14590.615283324158, 0.14200000000000002, 0.9540000000000001, 0.322, 192.0, 0.0, 0.0, 0.0, 0.0, 0.0, 0.0, 0.0, 0.0, 0.0, 1.695327664971777E9, 0.0, 2023-09-21 15:21:04.971
202.0, 40426.61671955785, 35959.66529365365, 23256.40896039116, -1589.4548999613405, -9476.87142811673, -3690.563582249115, -187500.02235174447, -15357.525987330198, 25505.441487484157, 4366.2121136441365, -9632.48427301458, 23291.076516041343, -6776.0207386041575, -17306.016958477136, -1631.3867725594966, -14573.918530216042, 0.136, 0.9540000000000001, 0.322, 192.0, 2.0, 32.0, 14.5, 104.0, 5.0, 8.0, 0.0, 0.0, 0.0, 1.69532766497178E9, 0.0, 2023-09-21 15:21:04.971
204.0, 40425.90146373528, 35959.352369231274, 23241.477995095014, -1590.572487184106, -9478.570160695333, -3691.792928194157, -187500.02235174447, -15366.28787115668, 25496.009051324017, 4360.914750208229, -9639.90505217374, 23338.082234630852, -6789.118860854967, -17308.36389164494, -1644.797819232681, -14581.763992519856, 0.136, 0.9540000000000001, 0.322, 192.0, 0.0, 0.0, 0.0, 0.0, 0.0, 0.0, 0.0, 0.0, 0.0, 1.695327664971783E9, 0.0, 2023-09-21 15:21:04.971
206.0, 40437.9937574856, 35969.92474435863, 23255.313724912852, -1584.8057371146367, -9470.814105369343, -3679.790041421657, -187500.02235174447, -15356.006068707236, 25505.016804339506, 4371.978863713606, -9629.220918324103, 23290.495370685505, -6779.90994213938, -17300.227856663212, -1638.5840342741055, -14576.131352917118, 0.136, 0.9540000000000001, 0.322, 192.0, 0.0, 0.0, 0.0, 0.0, 0.0, 0.0, 0.0, 0.0, 0.0, 1.695327664971786E9, 0.0, 2023-09-21 15:21:04.971
208.0, 40440.92183600925, 35972.45049148208, 23250.6869138106, -1584.7163301368155, -9462.990994809985, -3681.4217187668946, -187500.02235174447, -15362.488074599276, 25502.781629893976, 4361.808819986441, -9633.847729426352, 23334.014217139986, -6784.939084641825, -17308.81092653405, -1638.5840342741055, -14579.774687263332, 0.136, 0.9540000000000001, 0.322, 192.0, 0.0, 0.0, 0.0, 0.0, 0.0, 0.0, 0.0, 0.0, 0.0, 1.69532766497179E9, 0.0, 2023-09-21 15:21:04.971
210.0, 40438.038460974516, 35967.86838386874, 23255.89487026869, -1589.6560656614383, -9469.048317557374, -3684.685073457369, -187500.02235174447, -15365.259690911735, 25511.27529278699, 4373.632892803299, -9624.325886288392, 23286.539111916914, -6775.953683370792, -17282.547626799063, -1633.8007609606698, -14575.8407802392, 0.136, 0.9540000000000001, 0.322, 192.0, 0.0, 0.0, 0.0, 0.0, 0.0, 0.0, 0.0, 0.0, 0.0, 1.695327665031086E9, 0.0, 2023-09-21 15:21:05.031
212.0, 40433.3445946389, 35960.49230819849, 23247.334152142306, -1596.7192169093153, -9470.6352914137, -3688.9989601372436, -187500.02235174447, -15366.444333367865, 25503.7204031611, 4357.785505984486, -9632.327810803392, 23336.025874140963, -6788.560067243585, -17312.923647513824, -1636.9747086733234, -14584.826181510232, 0.138, 0.9520000000000001, 0.322, 192.0, 2.0, 40.0, 14.5, 96.0, 5.0, 8.0, 0.0, 0.0, 0.0, 1.695327665031096E9, 0.0, 2023-09-21 15:21:05.031
214.0, 40421.162893910754, 35946.410709191645, 23240.628628805713, -1614.1982810733655, -9485.387442754203, -3707.439149312872, -187500.02235174447, -15389.310167945645, 25497.216045524605, 4346.319061078913, -9640.128569618293, 23302.542960946914, -6796.897267925414, -17323.63013310792, -1643.9484529433792, -14593.342196147705, 0.138, 0.9520000000000001, 0.322, 192.0, 0.0, 0.0, 0.0, 0.0, 0.0, 0.0, 0.0, 0.0, 0.0, 1.6953276650311E9, 0.0, 2023-09-21 15:21:05.031
216.0, 40425.27561489053, 35950.97046506053, 23238.59462006028, -1609.9067461379466, -9482.01232934145, -3695.011579395721, -187500.02235174447, -15369.953557247349, 25486.062525041405, 4332.036296371973, -9652.846712213364, 23348.207574869106, -6810.576535532062, -17337.555269903572, -1657.4489065943847, -14606.932056776532, 0.138, 0.9520000000000001, 0.322, 192.0, 0.0, 0.0, 0.0, 0.0, 0.0, 0.0, 0.0, 0.0, 0.0, 1.695327665031103E9, 0.0, 2023-09-21 15:21:05.031
218.0, 40432.15995218277, 35955.39611046268, 23252.519756855938, -1603.8717751350136, -9472.222265270027, -3691.5917624940594, -187500.02235174447, -15377.553150362153, 25507.251978785036, 4350.43178205869, -9631.389037536268, 23303.682899914136, -6789.029453877146, -17318.37747316092, -1640.4839325528067, -14584.736774532412, 0.138, 0.9520000000000001, 0.322, 192.0, 0.0, 0.0, 0.0, 0.0, 0.0, 0.0, 0.0, 0.0, 0.0, 1.695327665031107E9, 0.0, 2023-09-21 15:21:05.031
220.0, 40430.05888820397, 35953.42915695062, 23248.60820157626, -1605.4587489913404, -9473.5857216818, -3695.2127450958187, -187500.02235174447, -15371.629938081496, 25497.57367343589, 4340.820531942908, -9638.318078317414, 23345.637124256747, -6795.824384191559, -17328.368702932443, -1635.6112522615497, -14589.520047845846, 0.138, 0.9520000000000001, 0.322, 192.0, 0.0, 0.0, 0.0, 0.0, 0.0, 0.0, 0.0, 0.0, 0.0, 1.69532766503111E9, 0.0, 2023-09-21 15:21:05.031
222.0, 40467.54276365552, 35991.27066031345, 23282.493446170505, -1569.6512543739384, -9440.974526521508, -3665.015538336699, -187500.02235174447, -15339.219908621302, 25515.656234700233, 4357.71845075112, -9621.576621720389, 23309.963740106075, -6781.3628055289755, -17307.3357114, -1625.3294498121084, -14566.318937101238, 0.138, 0.9500000000000001, 0.328, 192.0, 2.0, 40.0, 14.5, 88.0, 5.0, 32.0, 0.0, 0.0, 0.0, 1.695327665031115E9, 0.0, 2023-09-21 15:21:05.031
224.0, 40436.965577240655, 35957.11719478574, 23262.8909662832, -1596.8533273760472, -9469.830628613308, -3700.219535853808, -187500.02235174447, -15374.71447881633, 25526.496830761058, 4366.547389810967, -9610.579563448378, 23319.93261813314, -6769.717546667761, -17289.70018502476, -1603.0224088457119, -14554.606623006657, 0.138, 0.9500000000000001, 0.328, 192.0, 0.0, 0.0, 0.0, 0.0, 0.0, 0.0, 0.0, 0.0, 0.0, 1.695327665031118E9, 0.0, 2023-09-21 15:21:05.031
226.0, 40434.104553950376, 35954.949075573575, 23257.593602847293, -1600.116682066522, -9474.815067626843, -3700.241887598263, -187500.02235174447, -15373.887464271482, 25503.09455431635, 4340.060572631428, -9636.90991841673, 23312.735356418536, -6793.209230090289, -17333.19667973479, -1632.6831737379043, -14580.087611685707, 0.138, 0.9500000000000001, 0.328, 192.0, 0.0, 0.0, 0.0, 0.0, 0.0, 0.0, 0.0, 0.0, 0.0, 1.695327665092277E9, 0.0, 2023-09-21 15:21:05.092
228.0, 40437.41261212977, 35957.7877471194, 23255.82781503532, -1601.658952433938, -9471.931692592108, -3694.9445241623553, -187500.02235174447, -15379.095420729569, 25503.407478738725, 4342.7874854549755, -9639.14509286226, 23321.05020535591, -6795.019721391168, -17323.317208685545, -1632.9737464158234, -14580.735812274912, 0.138, 0.9500000000000001, 0.328, 192.0, 0.0, 0.0, 0.0, 0.0, 0.0, 0.0, 0.0, 0.0, 0.0, 1.695327665092282E9, 0.0, 2023-09-21 15:21:05.092
230.0, 40442.57586509894, 35966.482575712515, 23250.0387132214, -1596.7192169093153, -9472.557541436856, -3684.282742057174, -187500.02235174447, -15367.405458379444, 25511.14118232026, 4352.130514637293, -9633.512453259524, 23303.14645804721, -6786.481355009241, -17320.187964461802, -1642.696755253882, -14579.864094241155, 0.138, 0.9500000000000001, 0.328, 192.0, 0.0, 0.0, 0.0, 0.0, 0.0, 0.0, 0.0, 0.0, 0.0, 1.695327665092286E9, 0.0, 2023-09-21 15:21:05.092
232.0, 40436.04915571799, 35960.13468028721, 23248.384684131706, -1606.1516530694548, -9477.5866839393, -3698.721968975302, -187500.02235174447, -15380.972967263815, 25507.453144485135, 4350.118857636316, -9640.776770207498, 23309.04731858341, -6794.036244635135, -17316.52227837113, -1648.3517466010746, -14583.753297776379, 0.14, 0.9560000000000001, 0.326, 192.0, 2.0, 48.0, 14.5, 112.0, 5.0, 24.0, 0.0, 0.0, 0.0, 1.695327665092289E9, 0.0, 2023-09-21 15:21:05.092
234.0, 40426.32614687993, 35947.37183420322, 23233.16314615764, -1622.2672608217313, -9486.25916078796, -3718.6150215405255, -187500.02235174447, -15397.669720371929, 25502.580464193878, 4345.179122111693, -9647.90697668874, 23307.817972638368, -6798.685407481838, -17322.490194140697, -1655.6160635490494, -14597.141992705107, 0.14, 0.9560000000000001, 0.326, 192.0, 0.0, 0.0, 0.0, 0.0, 0.0, 0.0, 0.0, 0.0, 0.0, 1.695327665092293E9, 0.0, 2023-09-21 15:21:05.092
236.0, 40426.16968466874, 35947.327130714315, 23236.895887481678, -1625.2176910898318, -9484.225152042527, -3713.4070650824387, -187500.02235174447, -15395.792173837683, 25496.120810046294, 4332.796255683453, -9657.786447737986, 23291.27768174144, -6805.055654651601, -17324.725368586227, -1668.244799166298, -14615.381016180638, 0.14, 0.9560000000000001, 0.326, 192.0, 0.0, 0.0, 0.0, 0.0, 0.0, 0.0, 0.0, 0.0, 0.0, 1.695327665092296E9, 0.0, 2023-09-21 15:21:05.092
