%OpenBCI Raw EXG Data
%Number of channels = 16
%Sample Rate = 125 Hz
%Board = OpenBCI_GUI$BoardCytonSerialDaisy
Sample Index, EXG Channel 0, EXG Channel 1, EXG Channel 2, EXG Channel 3, EXG Channel 4, EXG Channel 5, EXG Channel 6, EXG Channel 7, EXG Channel 8, EXG Channel 9, EXG Channel 10, EXG Channel 11, EXG Channel 12, EXG Channel 13, EXG Channel 14, EXG Channel 15, Accel Channel 0, Accel Channel 1, Accel Channel 2, Other, Other, Other, Other, Other, Other, Other, Analog Channel 0, Analog Channel 1, Analog Channel 2, Timestamp, Other, Timestamp (Formatted)
0.0, 40596.31116346254, 35375.63656278093, 22130.84216485526, -2044.4023066046605, -9888.568209239033, -4051.0748685687627, -187500.02235174447, -15899.891066538225, 0.0, 0.0, 0.0, 0.0, 0.0, 0.0, 0.0, 0.0, 0.0, 0.0, 0.0, 192.0, 0.0, 0.0, 0.0, 0.0, 0.0, 0.0, 0.0, 0.0, 0.0, 1.69532778440978E9, 0.0, 2023-09-21 15:23:04.409
14.0, 40595.32768670651, 35376.08359767003, 22139.76051089293, -2043.5082368264482, -9889.506982506155, -4043.967013831975, -187500.02235174447, -15898.728775826548, 23960.958297366895, 3739.4691991173268, -10251.046449070745, 24481.68688794218, -7340.73756226749, -17831.752339810413, -2588.5108218802, -15163.937528602783, 0.0, 0.0, 0.0, 192.0, 0.0, 0.0, 0.0, 0.0, 0.0, 0.0, 0.0, 0.0, 0.0, 1.695327784409795E9, 0.0, 2023-09-21 15:23:04.409
16.0, 40582.386026666885, 35363.00782716368, 22119.107499016227, -2059.31092015635, -9900.057005889059, -4055.3664035041816, -187500.02235174447, -15911.044587021423, 23946.921401848962, 3725.856986744045, -10268.570216723707, 24525.42925184122, -7356.272024663928, -17839.30722943631, -2598.010313273706, -15172.453543240255, 0.0, 0.0, 0.0, 192.0, 0.0, 0.0, 0.0, 0.0, 0.0, 0.0, 0.0, 0.0, 0.0, 1.695327784409799E9, 0.0, 2023-09-21 15:23:04.409
18.0, 40586.856375557945, 35365.86885045396, 22129.23283925448, -2054.3711846317274, -9898.15710761036, -4053.7347261589443, -187500.02235174447, -15905.255485207497, 23950.296515261714, 3730.6849635463914, -10269.240769057365, 24490.56053049094, -7349.231225160507, -17831.394711899127, -2601.452481919823, -15172.14061881788, -0.23600000000000002, 0.9440000000000001, 0.23600000000000002, 192.0, 124.0, 80.0, 14.5, 64.0, 3.5, 48.0, 0.0, 0.0, 0.0, 1.695327784409802E9, 0.0, 2023-09-21 15:23:04.409
20.0, 40569.77964279409, 35349.61913223495, 22105.718804087497, -2068.162210960652, -9909.981180427216, -4064.351804775215, -187500.02235174447, -15916.34195045733, 23940.50645119029, 3722.5042250757488, -10277.913245906026, 24518.634321526806, -7355.534417096904, -17837.206165457508, -2607.8227290895857, -15179.270825299123, -0.23600000000000002, 0.9440000000000001, 0.23600000000000002, 192.0, 0.0, 0.0, 0.0, 0.0, 0.0, 0.0, 0.0, 0.0, 0.0, 1.695327784409805E9, 0.0, 2023-09-21 15:23:04.409
22.0, 40587.973962780714, 35367.81345222157, 22134.932534090585, -2044.7822862604007, -9879.269883545623, -4032.1429410151177, -187500.02235174447, -15893.297301923909, 23940.64056165702, 3721.2972308751623, -10278.539094750775, 24490.672289213217, -7356.629652575213, -17839.083711991752, -2597.4738714067785, -15171.827694395506, -0.23600000000000002, 0.9440000000000001, 0.23600000000000002, 192.0, 0.0, 0.0, 0.0, 0.0, 0.0, 0.0, 0.0, 0.0, 0.0, 1.695327784409808E9, 0.0, 2023-09-21 15:23:04.409
24.0, 40599.730980364206, 35378.31877211556, 22138.777034136896, -2034.9922221889763, -9872.38554625339, -4023.2022432329945, -187500.02235174447, -15878.276929649941, 23954.6551054305, 3738.97746073931, -10262.378783509586, 24498.070716627924, -7345.140855925186, -17820.017673971375, -2577.066728719083, -15153.655726153342, -0.23600000000000002, 0.9440000000000001, 0.23600000000000002, 192.0, 0.0, 0.0, 0.0, 0.0, 0.0, 0.0, 0.0, 0.0, 0.0, 1.695327784409812E9, 0.0, 2023-09-21 15:23:04.409
26.0, 40583.97300052321, 35364.080710897535, 22136.161880035626, -2044.8940449826773, -9885.327206293012, -4032.031182292841, -187500.02235174447, -15889.229284433042, 23956.532651964742, 3745.571225353626, -10258.422524740998, 24464.85602436734, -7342.123370423719, -17809.11002267719, -2575.233885673748, -15143.016295792617, -0.23600000000000002, 0.9440000000000001, 0.23600000000000002, 192.0, 0.0, 0.0, 0.0, 0.0, 0.0, 0.0, 0.0, 0.0, 0.0, 1.695327784409815E9, 0.0, 2023-09-21 15:23:04.409
28.0, 40585.49291914617, 35365.06418765357, 22131.24449625546, -2044.2905478823839, -9882.644996958375, -4022.7552083438886, -187500.02235174447, -15883.686051808127, 23937.086634288626, 3722.2583558867404, -10277.823838928205, 24499.18830385069, -7356.02615547492, -17830.29947642082, -2590.187202714348, -15160.204787278748, -0.23600000000000002, 0.9480000000000001, 0.234, 192.0, 124.0, 80.0, 14.5, 80.0, 3.5, 40.0, 0.0, 0.0, 0.0, 1.695327784409818E9, 0.0, 2023-09-21 15:23:04.409
30.0, 40571.7242445617, 35351.16140260237, 22124.4719176855, -2058.729774800512, -9895.251380831169, -4054.7629064038883, -187500.02235174447, -15901.276874694453, 23945.110910548083, 3731.4449228578715, -10268.793734168261, 24467.225309279598, -7346.303146636862, -17819.682397804547, -2589.6507608474208, -15152.761656375129, -0.23600000000000002, 0.9480000000000001, 0.234, 192.0, 0.0, 0.0, 0.0, 0.0, 0.0, 0.0, 0.0, 0.0, 0.0, 1.695327784409821E9, 0.0, 2023-09-21 15:23:04.409
0.0, 20272.71929654113, 17671.0209454323, 11126.318410196116, -1024.7827797869181, -4936.360411210109, -2010.5617654993257, -93750.01117587223, -7935.785703156675, 11962.385411546877, 1853.0043188338661, -5144.7904282558475, 12240.910499204458, -3684.595666479548, -8921.29646793562, -1300.8491755544158, -7589.557181543968, -0.136, 0.958, 0.228, 192.0, 127.0, 112.0, 15.0, 32.0, 3.0, 120.0, 0.0, 0.0, 0.0, 1.695327784570653E9, 0.0, 2023-09-21 15:23:04.570
2.0, 40550.423032095794, 35347.54042000061, 22258.11299778378, -2045.3410798717834, -9868.85397062945, -4017.5919553747126, -187500.02235174447, -15864.016516687456, 23936.3490267216, 3727.30985013364, -10329.635182575606, 22375.884339318793, -7318.765797467923, -17831.685284577048, -2596.4903946507447, -15124.553754872531, -0.136, 0.958, 0.228, 192.0, 0.0, 0.0, 0.0, 0.0, 0.0, 0.0, 0.0, 0.0, 0.0, 1.695327784570674E9, 0.0, 2023-09-21 15:23:04.570
4.0, 40548.81370649501, 35348.61330373446, 22261.3540007298, -2037.1156379122303, -9864.070697316016, -4011.3781704161374, -187500.02235174447, -15861.133141652721, 23944.306247747692, 3742.8666642745334, -10317.520537080829, 22377.538368408488, -7316.105939877742, -17817.33546463674, -2590.3660166699906, -15116.060091979516, -0.136, 0.958, 0.228, 192.0, 0.0, 0.0, 0.0, 0.0, 0.0, 0.0, 0.0, 0.0, 0.0, 1.695327784570678E9, 0.0, 2023-09-21 15:23:04.570
6.0, 40521.25400558162, 35317.27615800812, 22250.133425013235, -2058.5956643337804, -9890.758680195651, -4034.355763716193, -187500.02235174447, -15887.776421043447, 23928.145936506506, 3730.550853079659, -10331.42332213203, 22376.10785676335, -7329.516986550926, -17827.840784530734, -2595.4622144058008, -15125.716045584208, -0.136, 0.958, 0.228, 192.0, 0.0, 0.0, 0.0, 0.0, 0.0, 0.0, 0.0, 0.0, 0.0, 1.695327784570681E9, 0.0, 2023-09-21 15:23:04.570
8.0, 40522.0139648931, 35311.19648351628, 22248.12176801226, -2052.203065419563, -9865.635319427887, -4023.1128362551735, -187500.02235174447, -15871.727868524536, 23922.87092481505, 3711.596573781559, -10339.827578047227, 22401.05240357547, -7332.109788907742, -17831.841746788235, -2607.643915133943, -15138.970630046206, 0.06, 0.976, 0.20400000000000001, 192.0, 0.5, 112.0, 15.0, 64.0, 3.0, 48.0, 0.0, 0.0, 0.0, 1.695327784570684E9, 0.0, 2023-09-21 15:23:04.570
10.0, 40496.957659358704, 35282.60860235794, 22251.273363980457, -2056.427545121616, -9869.837447385484, -4024.1410165001175, -187500.02235174447, -15871.414944102162, 23924.659064371477, 3709.428454569394, -10339.313487924754, 22337.506394089032, -7319.279887590395, -17834.680418334057, -2589.1143189804934, -15121.022179248594, 0.06, 0.976, 0.20400000000000001, 192.0, 0.0, 0.0, 0.0, 0.0, 0.0, 0.0, 0.0, 0.0, 0.0, 1.695327784570687E9, 0.0, 2023-09-21 15:23:04.570
12.0, 40477.82456610496, 35264.90602074934, 22234.24133470551, -2059.31092015635, -9870.686813674785, -4024.945679300509, -187500.02235174447, -15869.582101056827, 23909.705747330874, 3690.9435619048554, -10353.551549142785, 22388.155447024757, -7326.186576627086, -17845.67747660607, -2597.675037106876, -15126.364246173413, 0.06, 0.976, 0.20400000000000001, 192.0, 0.0, 0.0, 0.0, 0.0, 0.0, 0.0, 0.0, 0.0, 0.0, 1.695327784570691E9, 0.0, 2023-09-21 15:23:04.570
14.0, 40449.79547855801, 35240.54261929305, 22239.22577371905, -2059.355623645261, -9880.968616124228, -4021.5705658877573, -187500.02235174447, -15865.782304499426, 23889.209197665357, 3682.8745821564894, -10367.499037682896, 22322.59778053734, -7337.9435942105765, -17843.755226582914, -2603.75471159872, -15125.872507795395, 0.06, 0.976, 0.20400000000000001, 192.0, 0.0, 0.0, 0.0, 0.0, 0.0, 0.0, 0.0, 0.0, 0.0, 1.695327784570694E9, 0.0, 2023-09-21 15:23:04.570
16.0, 40427.2425684026, 35224.13643886286, 22224.78654680092, -2062.4401643800934, -9877.593502711476, -4026.6667636235675, -187500.02235174447, -15865.558787054872, 23878.614470793542, 3676.7725559201904, -10372.461124951975, 22401.879418120316, -7344.537358824892, -17841.408293415105, -2600.0666737635943, -15120.530440870578, 0.06, 0.976, 0.20400000000000001, 192.0, 0.0, 0.0, 0.0, 0.0, 0.0, 0.0, 0.0, 0.0, 0.0, 1.695327784630965E9, 0.0, 2023-09-21 15:23:04.630
18.0, 40402.722704735126, 35203.01404035259, 22227.133479968725, -2071.1349929732078, -9888.165877838836, -4032.6570311375895, -187500.02235174447, -15878.47809535004, 23867.34919158807, 3670.3576052615176, -10381.692395412016, 22305.40928905121, -7347.867768748733, -17845.87864230617, -2603.0618075206053, -15121.916249026806, 0.108, 0.978, 0.202, 192.0, 1.5, 48.0, 15.0, 72.0, 3.0, 40.0, 0.0, 0.0, 0.0, 1.695327784630975E9, 0.0, 2023-09-21 15:23:04.630
20.0, 40394.22904184211, 35195.794426893524, 22218.68452056462, -2070.062109239353, -9875.447735243766, -4029.125455513651, -187500.02235174447, -15866.229339388532, 23847.500842511756, 3652.9455963308333, -10397.383320019642, 22402.840543131893, -7360.7870770439, -17860.116703524196, -2613.522423925689, -15133.449749165744, 0.108, 0.978, 0.202, 192.0, 0.0, 0.0, 0.0, 0.0, 0.0, 0.0, 0.0, 0.0, 0.0, 1.695327784630979E9, 0.0, 2023-09-21 15:23:04.630
22.0, 40383.2319835701, 35187.92661284526, 22230.799166059394, -2070.799716806378, -9877.369985266923, -4032.455865437492, -187500.02235174447, -15871.839627246813, 23849.601906490556, 3662.0427563241433, -10390.878962383147, 22284.577463218866, -7351.399344372671, -17843.799930071822, -2603.5311941541668, -15126.699522340241, 0.108, 0.978, 0.202, 192.0, 0.0, 0.0, 0.0, 0.0, 0.0, 0.0, 0.0, 0.0, 0.0, 1.695327784630982E9, 0.0, 2023-09-21 15:23:04.630
24.0, 40382.36026553634, 35185.89260409983, 22215.667035063154, -2074.308940685861, -9876.364156766434, -4028.7007723690003, -187500.02235174447, -15866.89989172219, 23845.042150621673, 3653.4596864533055, -10396.86922989717, 22387.104915035357, -7353.656870562658, -17858.462674434504, -2606.0569412776163, -15129.09115899696, 0.108, 0.978, 0.202, 192.0, 0.0, 0.0, 0.0, 0.0, 0.0, 0.0, 0.0, 0.0, 0.0, 1.695327784630985E9, 0.0, 2023-09-21 15:23:04.630
26.0, 40386.3835795383, 35191.52524370256, 22230.240372448014, -2067.178734204618, -9873.793706154074, -4021.5705658877573, -187500.02235174447, -15861.468417819551, 23852.86526118103, 3662.445087724339, -10389.940189116025, 22268.663021166685, -7344.40324835816, -17844.82811031677, -2600.8936883084402, -15118.921115269795, 0.108, 0.978, 0.202, 192.0, 0.0, 0.0, 0.0, 0.0, 0.0, 0.0, 0.0, 0.0, 0.0, 1.695327784630988E9, 0.0, 2023-09-21 15:23:04.630
28.0, 40375.386521266286, 35178.91885982977, 22208.134497181716, -2084.478984413026, -9885.506020248655, -4041.5306736863467, -187500.02235174447, -15878.768668027958, 23836.123804584004, 3650.0398695516433, -10405.54170674583, 22391.016470315037, -7364.989205001499, -17865.43641870456, -2607.353342456024, -15135.975496289195, 0.134, 0.982, 0.202, 192.0, 2.0, 24.0, 15.0, 88.0, 3.0, 40.0, 0.0, 0.0, 0.0, 1.695327784630992E9, 0.0, 2023-09-21 15:23:04.630
30.0, 40384.9307161487, 35189.67004891277, 22217.946912997595, -2080.9474087890876, -9886.5342004936, -4039.8542928521983, -187500.02235174447, -15878.589854072316, 23840.884726152985, 3651.8503608525234, -10402.34540728872, 22277.424904993168, -7362.955196256065, -17862.888319836657, -2613.164796014404, -15138.23302247918, 0.134, 0.982, 0.202, 192.0, 0.0, 0.0, 0.0, 0.0, 0.0, 0.0, 0.0, 0.0, 0.0, 1.695327784691071E9, 0.0, 2023-09-21 15:23:04.691
32.0, 40398.744094222086, 35203.416371752784, 22213.49891585099, -2077.482888398515, -9879.24753180117, -4030.712429369978, -187500.02235174447, -15874.231263903532, 23837.978999373794, 3654.689032398347, -10406.502831757407, 22391.396449970776, -7367.894931780688, -17868.275090250383, -2614.4611971928116, -15146.86079583893, 0.134, 0.982, 0.202, 192.0, 0.0, 0.0, 0.0, 0.0, 0.0, 0.0, 0.0, 0.0, 0.0, 1.695327784691082E9, 0.0, 2023-09-21 15:23:04.691
34.0, 40406.72366699263, 35210.03248811156, 22226.172354957147, -2071.514972628948, -9883.516714992133, -4029.3713247026594, -187500.02235174447, -15876.600548815793, 23861.045999651673, 3678.426585009883, -10382.966444845968, 22287.4608382536, -7345.967870470032, -17844.112854494197, -2600.1560807414153, -15125.09019673946, 0.134, 0.982, 0.202, 192.0, 0.0, 0.0, 0.0, 0.0, 0.0, 0.0, 0.0, 0.0, 0.0, 1.695327784691086E9, 0.0, 2023-09-21 15:23:04.691
36.0, 40397.35828606586, 35200.555348462505, 22204.558218068865, -2092.0785775278305, -9897.218334343235, -4046.1798365330505, -187500.02235174447, -15890.413926889174, 23834.648589449953, 3651.045698052132, -10410.168517848077, 22399.53248495251, -7374.6898620951015, -17868.49860769494, -2617.7916071166524, -15153.074580797504, 0.134, 0.982, 0.202, 192.0, 0.0, 0.0, 0.0, 0.0, 0.0, 0.0, 0.0, 0.0, 0.0, 1.695327784691089E9, 0.0, 2023-09-21 15:23:04.691
38.0, 40426.32614687993, 35228.450325542726, 22231.626180604242, -2067.134030715708, -9880.09689809047, -4029.7289526139443, -187500.02235174447, -15869.716211523559, 23859.95076417336, 3669.731756416769, -10391.080128083246, 22298.99433839254, -7350.438219361094, -17861.48015993597, -2614.0141623037057, -15140.959935302728, 0.14400000000000002, 0.984, 0.2, 192.0, 2.0, 64.0, 15.0, 96.0, 3.0, 32.0, 0.0, 0.0, 0.0, 1.695327784691092E9, 0.0, 2023-09-21 15:23:04.691
40.0, 40424.0909724344, 35227.15392436432, 22224.764195056465, -2078.5334203879142, -9890.289293562091, -4044.0564208097962, -187500.02235174447, -15880.400345373197, 23863.4823397973, 3674.6938436858472, -10385.335729758232, 22382.67926963321, -7355.69087930809, -17854.77463659938, -2599.8208045745855, -15137.204842234236, 0.14400000000000002, 0.984, 0.2, 192.0, 0.0, 0.0, 0.0, 0.0, 0.0, 0.0, 0.0, 0.0, 0.0, 1.695327784691095E9, 0.0, 2023-09-21 15:23:04.691
42.0, 40431.04236496, 35237.681596002774, 22225.43474739012, -2076.275894197928, -9887.540028994088, -4038.8261126072543, -187500.02235174447, -15874.834761003825, 23860.509557784746, 3672.8162971516012, -10388.464973981974, 22323.69301601565, -7355.623824074724, -17866.218729760498, -2611.1754907578816, -15144.335048715478, 0.14400000000000002, 0.984, 0.2, 192.0, 0.0, 0.0, 0.0, 0.0, 0.0, 0.0, 0.0, 0.0, 0.0, 1.695327784691099E9, 0.0, 2023-09-21 15:23:04.691
44.0, 40438.48549586362, 35245.92938970678, 22223.4454421336, -2076.2088389645623, -9889.81990692853, -4035.450999194503, -187500.02235174447, -15877.539322082917, 23865.784569476196, 3678.0019018652324, -10386.363910003176, 22381.85225508836, -7352.449876362071, -17859.379095957174, -2608.582688401066, -15141.228156236191, 0.14400000000000002, 0.984, 0.2, 192.0, 0.0, 0.0, 0.0, 0.0, 0.0, 0.0, 0.0, 0.0, 0.0, 1.695327784691102E9, 0.0, 2023-09-21 15:23:04.691
46.0, 40450.55543786949, 35258.20049741274, 22224.093642722804, -2071.6043796067693, -9892.81504068554, -4027.829054335243, -187500.02235174447, -15875.348851126297, 23873.47356956882, 3690.3624165490173, -10379.0995930552, 22336.969952222105, -7351.801675772867, -17850.416046430593, -2613.388313458957, -15140.825824835996, 0.14400000000000002, 0.984, 0.2, 192.0, 0.0, 0.0, 0.0, 0.0, 0.0, 0.0, 0.0, 0.0, 0.0, 1.695327784751428E9, 0.0, 2023-09-21 15:23:04.751
48.0, 40457.86445830637, 35263.74373003766, 22229.882744536728, -2070.6879580841014, -9889.864610417439, -4029.818359591766, -187500.02235174447, -15868.509217322973, 23875.73109575881, 3694.3857305509728, -10377.602026176695, 22378.678307375707, -7349.8570740052555, -17848.91847955209, -2611.846043091541, -15148.447769695256, 0.14200000000000002, 0.984, 0.192, 192.0, 2.0, 56.0, 15.0, 96.0, 3.0, 0.0, 0.0, 0.0, 0.0, 1.695327784751438E9, 0.0, 2023-09-21 15:23:04.751
50.0, 40474.024769547555, 35280.08285523449, 22237.862317307274, -2053.9688532315317, -9877.280578289101, -4018.2625077083717, -187500.02235174447, -15848.236185102009, 23899.558055348167, 3720.134940163486, -10356.121999755145, 22353.823167541406, -7323.59377427027, -17826.499679863417, -2603.0841592650604, -15131.192222975758, 0.14200000000000002, 0.984, 0.192, 192.0, 0.0, 0.0, 0.0, 0.0, 0.0, 0.0, 0.0, 0.0, 0.0, 1.695327784751442E9, 0.0, 2023-09-21 15:23:04.751
52.0, 40460.256094963086, 35266.470642861204, 22225.45709913458, -2076.1417837311965, -9904.72852048022, -4034.668688138567, -187500.02235174447, -15866.497560321995, 23886.661098797453, 3710.657800514436, -10369.421287706053, 22369.04470551547, -7339.709382022546, -17835.082749734254, -2607.0180662891944, -15147.888976083874, 0.14200000000000002, 0.984, 0.192, 192.0, 0.0, 0.0, 0.0, 0.0, 0.0, 0.0, 0.0, 0.0, 0.0, 1.695327784751445E9, 0.0, 2023-09-21 15:23:04.751
54.0, 40483.16663302978, 35288.710628594235, 22224.495974123, -2065.256484181462, -9889.551685995066, -4024.7221618559556, -187500.02235174447, -15840.144853609188, 23893.545436089687, 3717.922117462411, -10364.638014392616, 22385.13796152329, -7337.518911065926, -17836.133281723654, -2620.160892028915, -15155.846197109962, 0.14200000000000002, 0.984, 0.192, 192.0, 0.0, 0.0, 0.0, 0.0, 0.0, 0.0, 0.0, 0.0, 0.0, 1.695327784751448E9, 0.0, 2023-09-21 15:23:04.751
56.0, 40481.780824873545, 35283.65913434734, 22229.234543947525, -2072.051414495875, -9899.319398322034, -4034.579281160746, -187500.02235174447, -15849.644345002693, 23902.597892594087, 3727.7121815338355, -10356.680793366528, 22357.600612354352, -7328.533509794893, -17824.08569146224, -2609.744979112742, -15151.241737752169, 0.14200000000000002, 0.984, 0.192, 192.0, 0.0, 0.0, 0.0, 0.0, 0.0, 0.0, 0.0, 0.0, 0.0, 1.695327784751451E9, 0.0, 2023-09-21 15:23:04.751
58.0, 40513.43089502226, 35315.26450100714, 22238.890497552216, -2046.033983949898, -9876.945302122273, -4010.6629145935676, -187500.02235174447, -15822.419920256129, 23913.416136910455, 3737.7704665387237, -10345.95195602798, 22404.47222047713, -7322.92322193661, -17817.022540214366, -2611.3990082024347, -15150.213557507224, 0.15, 0.982, 0.192, 192.0, 2.0, 88.0, 15.0, 88.0, 3.0, 0.0, 0.0, 0.0, 0.0, 1.695327784751454E9, 0.0, 2023-09-21 15:23:04.751
60.0, 40519.063534625, 35319.80190513157, 22252.435654692134, -2043.2400158929845, -9874.374851509912, -4013.881565795132, -187500.02235174447, -15827.56082148085, 23934.516183676267, 3763.5420278956926, -10325.880089507114, 22354.225498941603, -7302.985465882477, -17795.453106814995, -2599.530231896667, -15128.934696785773, 0.15, 0.982, 0.192, 192.0, 0.0, 0.0, 0.0, 0.0, 0.0, 0.0, 0.0, 0.0, 0.0, 1.695327784811637E9, 0.0, 2023-09-21 15:23:04.811
62.0, 40535.40265982183, 35336.96804487325, 22257.397741961213, -2025.3139168398282, -9858.23689201318, -4008.2712779368494, -187500.02235174447, -15813.523925962918, 23945.580297181645, 3773.6450163894915, -10312.066711433734, 22417.168011327747, -7294.961189623022, -17786.311243332773, -2589.829574803063, -15123.212650205214, 0.15, 0.982, 0.192, 192.0, 0.0, 0.0, 0.0, 0.0, 0.0, 0.0, 0.0, 0.0, 0.0, 1.695327784811648E9, 0.0, 2023-09-21 15:23:04.811
64.0, 40525.72435447268, 35327.82618139102, 22258.425922206156, -2033.8746349662108, -9873.123153820414, -4018.2848594528273, -187500.02235174447, -15828.857222659259, 23943.747454136308, 3770.7839930992122, -10314.056016690258, 22357.55590886544, -7298.448061758049, -17795.631920770636, -2592.5341358821556, -15121.08923448196, 0.15, 0.982, 0.192, 192.0, 0.0, 0.0, 0.0, 0.0, 0.0, 0.0, 0.0, 0.0, 0.0, 1.695327784811651E9, 0.0, 2023-09-21 15:23:04.811
66.0, 40523.0644968825, 35326.35096625698, 22240.365712686267, -2039.708440269046, -9871.916159619828, -4015.5579466292797, -187500.02235174447, -15825.504460990962, 23930.69403537441, 3759.4069551714606, -10325.924792996026, 22453.131968156336, -7308.819271185312, -17807.81362149878, -2608.1803570008706, -15130.141690986358, 0.15, 0.982, 0.192, 192.0, 0.0, 0.0, 0.0, 0.0, 0.0, 0.0, 0.0, 0.0, 0.0, 1.695327784811654E9, 0.0, 2023-09-21 15:23:04.811
68.0, 40516.85071192392, 35317.67848940832, 22251.87686108075, -2044.4023066046605, -9877.079412589004, -4020.296516453805, -187500.02235174447, -15831.919411649635, 23934.002093553794, 3765.3525191965723, -10320.001580715369, 22361.154539722746, -7311.099149119753, -17797.062432415776, -2599.03849351865, -15120.217516448203, 0.158, 0.986, 0.194, 192.0, 2.0, 120.0, 15.0, 104.0, 3.0, 8.0, 0.0, 0.0, 0.0, 1.695327784811657E9, 0.0, 2023-09-21 15:23:04.811
70.0, 40514.34731654493, 35314.45983820675, 22228.005198002484, -2055.198199176574, -9886.847124915974, -4030.444208436514, -187500.02235174447, -15841.977696654523, 23925.97781729434, 3755.8306760586115, -10329.255202919865, 22463.659639794787, -7314.854242188245, -17815.793194269325, -2613.3659617145017, -15132.04158926506, 0.158, 0.986, 0.194, 192.0, 0.0, 0.0, 0.0, 0.0, 0.0, 0.0, 0.0, 0.0, 0.0, 1.695327784811661E9, 0.0, 2023-09-21 15:23:04.811
72.0, 40517.655374724316, 35319.37722198692, 22240.07514000835, -2054.482943354004, -9891.473936018221, -4029.863063080676, -187500.02235174447, -15847.94561242409, 23918.48998290181, 3757.6411673594916, -10330.752769798371, 22362.13801647878, -7326.991239427476, -17815.61438031368, -2620.5185199402, -15140.311734713523, 0.158, 0.986, 0.194, 192.0, 0.0, 0.0, 0.0, 0.0, 0.0, 0.0, 0.0, 0.0, 0.0, 1.695327784811664E9, 0.0, 2023-09-21 15:23:04.811
74.0, 40542.041127925055, 35342.37716703143, 22242.35501794279, -2036.3109751118393, -9873.614892198431, -4017.1449204856067, -187500.02235174447, -15830.444196515584, 23932.72804411984, 3771.6780628774245, -10321.074464449222, 22464.73252352864, -7315.21187009953, -17796.816563226766, -2614.4164937039013, -15137.629525378887, 0.158, 0.986, 0.194, 192.0, 0.0, 0.0, 0.0, 0.0, 0.0, 0.0, 0.0, 0.0, 0.0, 1.695327784811667E9, 0.0, 2023-09-21 15:23:04.811
76.0, 40535.201494121735, 35331.51421922615, 22243.78552958793, -2041.4295245921046, -9888.590560983486, -4037.8202841067655, -187500.02235174447, -15846.336286823307, 23937.153689521994, 3771.0522140326757, -10317.65464754756, 22359.455807144142, -7310.339189808273, -17813.24509540142, -2617.456330949823, -15132.645086365354, 0.158, 0.986, 0.194, 192.0, 0.0, 0.0, 0.0, 0.0, 0.0, 0.0, 0.0, 0.0, 0.0, 1.695327784871014E9, 0.0, 2023-09-21 15:23:04.871
78.0, 40543.851619225934, 35338.01857686265, 22245.79718658891, -2037.7638385014343, -9880.298063790568, -4032.5899759042236, -187500.02235174447, -15844.27992633342, 23931.297532474702, 3771.7674698552455, -10315.464176590942, 22479.037639980037, -7320.486881790982, -17807.835973243236, -2619.870319350996, -15139.440016679768, 0.156, 0.99, 0.194, 192.0, 2.0, 112.0, 15.0, 120.0, 3.0, 8.0, 0.0, 0.0, 0.0, 1.695327784871023E9, 0.0, 2023-09-21 15:23:04.871
80.0, 40555.943912976254, 35348.09921361199, 22268.908890355695, -2027.0126494184317, -9868.004604340149, -4019.514205397869, -187500.02235174447, -15836.255650073965, 23950.98941933983, 3782.786879871712, -10297.493374048874, 22364.216728713123, -7301.644361215158, -17792.81560096927, -2607.845080834041, -15127.303019440535, 0.156, 0.99, 0.194, 192.0, 0.0, 0.0, 0.0, 0.0, 0.0, 0.0, 0.0, 0.0, 0.0, 1.695327784871027E9, 0.0, 2023-09-21 15:23:04.871
82.0, 40541.86231396942, 35335.7386989282, 22249.395817446213, -2043.8211612488226, -9884.4331365148, -4030.5559671587907, -187500.02235174447, -15842.84941468828, 23941.98166632434, 3773.913237322955, -10308.646894532072, 22476.73541030114, -7312.6414194871695, -17801.823353984757, -2607.398045944935, -15136.534289900577, 0.156, 0.99, 0.194, 192.0, 0.0, 0.0, 0.0, 0.0, 0.0, 0.0, 0.0, 0.0, 0.0, 1.69532778487103E9, 0.0, 2023-09-21 15:23:04.871
84.0, 40527.95952891821, 35325.72511741223, 22239.695160352607, -2056.8522282662666, -9893.418537785834, -4039.6531271521008, -187500.02235174447, -15862.921281209146, 23924.144974249004, 3759.0940307490864, -10327.33295289671, 22385.29442373448, -7326.812425471834, -17818.251886159407, -2622.5972321745435, -15149.475949940199, 0.156, 0.99, 0.194, 192.0, 0.0, 0.0, 0.0, 0.0, 0.0, 0.0, 0.0, 0.0, 0.0, 1.695327784871033E9, 0.0, 2023-09-21 15:23:04.871
86.0, 40551.54061931856, 35348.72506245674, 22255.609602404787, -2040.446047836071, -9870.731517163696, -4014.4403594065143, -187500.02235174447, -15838.960211153057, 23930.939904563416, 3767.8559145755667, -10323.734322039405, 22471.326288142955, -7318.363466067728, -17809.84763024421, -2616.785778616164, -15142.971592303706, 0.156, 0.99, 0.194, 192.0, 0.0, 0.0, 0.0, 0.0, 0.0, 0.0, 0.0, 0.0, 0.0, 1.695327784871037E9, 0.0, 2023-09-21 15:23:04.871
88.0, 40543.73986050366, 35338.75618442967, 22253.463834937076, -2039.194350146574, -9879.359290523445, -4013.322772183749, -187500.02235174447, -15840.949516409579, 23940.26058200128, 3774.5837896566145, -10310.099757921667, 22382.925138822215, -7308.551050251848, -17800.146973150608, -2606.079293022072, -15129.001752019138, 0.158, 0.986, 0.194, 192.0, 2.0, 120.0, 15.0, 104.0, 3.0, 8.0, 0.0, 0.0, 0.0, 1.69532778487104E9, 0.0, 2023-09-21 15:23:04.871
90.0, 40529.188874863255, 35324.67458542283, 22244.053750521394, -2052.292472397384, -9889.886962161894, -4030.801836347799, -187500.02235174447, -15853.913528193658, 23925.575485894144, 3754.400164413472, -10327.601173830173, 22463.905508983793, -7317.245878844962, -17819.056548959798, -2615.6681913933985, -15137.584821889976, 0.158, 0.986, 0.194, 192.0, 0.0, 0.0, 0.0, 0.0, 0.0, 0.0, 0.0, 0.0, 0.0, 1.695327784931033E9, 0.0, 2023-09-21 15:23:04.931
92.0, 40544.65628202633, 35338.51031524066, 22258.06829429487, -2041.3401176142834, -9874.039575343082, -4006.5725453582463, -187500.02235174447, -15838.267307074942, 23927.274218472747, 3757.3505946815726, -10323.622563317129, 22400.538313453, -7325.806596971345, -17812.731005278947, -2616.204633260326, -15137.607173634431, 0.158, 0.986, 0.194, 192.0, 0.0, 0.0, 0.0, 0.0, 0.0, 0.0, 0.0, 0.0, 0.0, 1.695327784931045E9, 0.0, 2023-09-21 15:23:04.931
94.0, 40534.53094178807, 35330.64250119239, 22247.317105211867, -2054.3488328872722, -9885.014281870637, -4025.616231634168, -187500.02235174447, -15850.9407461811, 23928.481212673334, 3754.176646968919, -10326.818862774237, 22446.001761675092, -7321.380951569195, -17812.641598301125, -2611.4437116913455, -15137.607173634431, 0.158, 0.986, 0.194, 192.0, 0.0, 0.0, 0.0, 0.0, 0.0, 0.0, 0.0, 0.0, 0.0, 1.695327784931049E9, 0.0, 2023-09-21 15:23:04.931
96.0, 40535.84969471094, 35333.36941401594, 22240.96920978656, -2053.097135197775, -9883.42730801431, -4026.8232258347543, -187500.02235174447, -15851.588946770305, 23928.39180569551, 3756.4788766478155, -10327.467063363441, 22412.00475835857, -7322.833814958789, -17811.054624444798, -2617.836310605563, -15140.08821726897, 0.158, 0.986, 0.194, 192.0, 0.0, 0.0, 0.0, 0.0, 0.0, 0.0, 0.0, 0.0, 0.0, 1.695327784931052E9, 0.0, 2023-09-21 15:23:04.931
98.0, 40520.5611015035, 35319.399573731374, 22228.58634335832, -2072.341987173794, -9900.10170937797, -4042.000060319908, -187500.02235174447, -15864.217682387554, 23917.461802656868, 3746.554702109659, -10337.368886157143, 22443.855994207384, -7336.513082565437, -17819.10125244871, -2617.8586623500187, -15152.985173819683, 0.16, 0.99, 0.198, 192.0, 2.5, 0.0, 15.0, 120.0, 3.0, 24.0, 0.0, 0.0, 0.0, 1.695327784931056E9, 0.0, 2023-09-21 15:23:04.931
100.0, 40523.377421304875, 35321.41123073235, 22224.115994467258, -2067.5587138603587, -9890.378700539912, -4036.590938161724, -187500.02235174447, -15857.020420672945, 23914.15374447748, 3739.4691991173268, -10342.353325170676, 22432.098976623893, -7334.523777308915, -17829.137185709144, -2624.295964753147, -15160.271842512113, 0.16, 0.99, 0.198, 192.0, 0.0, 0.0, 0.0, 0.0, 0.0, 0.0, 0.0, 0.0, 0.0, 1.695327784931059E9, 0.0, 2023-09-21 15:23:04.931
102.0, 40525.38907830585, 35320.07012606503, 22233.45902364958, -2069.2797981834174, -9892.05508137406, -4043.0729440537625, -187500.02235174447, -15862.317784108853, 23910.577465364633, 3741.4361526293937, -10347.918909540047, 22418.218543317147, -7338.971774455521, -17839.039008502845, -2623.133674041471, -15163.535197202587, 0.16, 0.99, 0.198, 192.0, 0.0, 0.0, 0.0, 0.0, 0.0, 0.0, 0.0, 0.0, 0.0, 1.695327784931062E9, 0.0, 2023-09-21 15:23:04.931
104.0, 40534.86621795491, 35330.39663200339, 22232.900230038194, -2064.518876614437, -9877.928778878306, -4038.51318818488, -187500.02235174447, -15855.813426472358, 23921.26159921427, 3745.459466631349, -10338.28530767981, 22426.4439852767, -7329.047599917365, -17825.51620310738, -2622.9101565969177, -15161.702354157253, 0.16, 0.99, 0.198, 192.0, 0.0, 0.0, 0.0, 0.0, 0.0, 0.0, 0.0, 0.0, 0.0, 1.695327784931065E9, 0.0, 2023-09-21 15:23:04.931
106.0, 40538.68836625676, 35331.916550626345, 22242.64559062071, -2066.9999202489757, -9882.667348702831, -4034.288708482827, -187500.02235174447, -15860.28377536342, 23922.110965503573, 3747.0240887432205, -10334.597269844684, 22388.021336558028, -7329.293469106373, -17827.550211852817, -2615.869357093496, -15161.881168112895, 0.16, 0.99, 0.198, 192.0, 0.0, 0.0, 0.0, 0.0, 0.0, 0.0, 0.0, 0.0, 0.0, 1.695327784991195E9, 0.0, 2023-09-21 15:23:04.991
108.0, 40538.15192438984, 35330.75425991467, 22226.35116891279, -2074.644216852691, -9884.76841268163, -4045.509284199391, -187500.02235174447, -15862.586005042316, 23917.148878234493, 3740.564434595637, -10338.553528613273, 22439.072720893946, -7335.909585465144, -17834.076921233765, -2625.2123862758144, -15169.100781571959, 0.158, 0.986, 0.194, 192.0, 2.0, 120.0, 15.0, 104.0, 3.0, 8.0, 0.0, 0.0, 0.0, 1.695327784991212E9, 0.0, 2023-09-21 15:23:04.991
110.0, 40540.49885755764, 35333.97291111624, 22237.16941322916, -2073.8619057967553, -9887.607084227453, -4041.709487641989, -187500.02235174447, -15866.206987644076, 23920.59104688061, 3745.727687564813, -10336.47481637893, 22374.00679278455, -7331.0145534294315, -17831.037083987845, -2620.9879065737614, -15166.865607126429, 0.158, 0.986, 0.194, 192.0, 0.0, 0.0, 0.0, 0.0, 0.0, 0.0, 0.0, 0.0, 0.0, 1.695327784991216E9, 0.0, 2023-09-21 15:23:04.991
112.0, 40548.411375094816, 35340.61137921946, 22241.483299909032, -2067.156382460163, -9875.783011410596, -4039.94369983002, -187500.02235174447, -15858.56269104036, 23920.658102113975, 3745.4147631424385, -10334.261993677854, 22447.58873553142, -7334.9484604535655, -17827.170232197077, -2617.523386183189, -15165.658612925841, 0.158, 0.986, 0.194, 192.0, 0.0, 0.0, 0.0, 0.0, 0.0, 0.0, 0.0, 0.0, 0.0, 1.69532778499122E9, 0.0, 2023-09-21 15:23:04.991
114.0, 40532.69809874274, 35325.12162031193, 22243.36084644328, -2078.3099029433615, -9894.111441863948, -4052.1030488137067, -187500.02235174447, -15872.756048769481, 23916.344215434103, 3736.697582804869, -10335.178415200522, 22376.487836419088, -7342.235129145995, -17843.37524692717, -2613.8353483480632, -15159.914214600829, 0.158, 0.986, 0.194, 192.0, 0.0, 0.0, 0.0, 0.0, 0.0, 0.0, 0.0, 0.0, 0.0, 1.695327784991223E9, 0.0, 2023-09-21 15:23:04.991
116.0, 40519.197645091735, 35310.14595152688, 22212.962473984062, -2097.2641822414616, -9906.650770503375, -4069.6268164666676, -187500.02235174447, -15887.95523499909, 23906.800020551687, 3722.437169842383, -10348.678868851528, 22474.835512022437, -7348.851245504767, -17855.042857532844, -2627.268746765703, -15171.850046139962, 0.158, 0.986, 0.194, 192.0, 0.0, 0.0, 0.0, 0.0, 0.0, 0.0, 0.0, 0.0, 0.0, 1.695327784991226E9, 0.0, 2023-09-21 15:23:04.991
118.0, 40532.29576734254, 35322.99820458868, 22236.051826006395, -2083.070824512342, -9893.887924419394, -4056.0369558378407, -187500.02235174447, -15875.058278448378, 23902.419078638446, 3722.459521586838, -10352.52336889784, 22371.101066005358, -7352.136951939697, -17854.886395321657, -2631.001488089739, -15173.973461863216, 0.154, 0.986, 0.198, 192.0, 2.0, 104.0, 15.0, 104.0, 3.0, 24.0, 0.0, 0.0, 0.0, 1.69532778499123E9, 0.0, 2023-09-21 15:23:04.991
120.0, 40537.59313077845, 35328.65319593587, 22221.67965432163, -2078.1087372432635, -9893.418537785834, -4047.386830733637, -187500.02235174447, -15866.743429511003, 23910.48805838681, 3734.0377252146873, -10343.739133326904, 22466.58771831843, -7343.26330939094, -17845.85629056171, -2622.8654531080074, -15167.692621671275, 0.154, 0.986, 0.198, 192.0, 0.0, 0.0, 0.0, 0.0, 0.0, 0.0, 0.0, 0.0, 0.0, 1.695327785051442E9, 0.0, 2023-09-21 15:23:05.051
122.0, 40549.57366580649, 35339.2926262966, 22241.125671997746, -2065.3682429037385, -9882.220313813725, -4029.0807520247404, -187500.02235174447, -15857.378048584229, 23918.4452794129, 3747.6722893324245, -10336.027781489824, 22354.225498941603, -7334.791998242378, -17823.973932739966, -2616.6963716383425, -15157.679040155297, 0.154, 0.986, 0.198, 192.0, 0.0, 0.0, 0.0, 0.0, 0.0, 0.0, 0.0, 0.0, 0.0, 1.695327785051452E9, 0.0, 2023-09-21 15:23:05.051
124.0, 40541.348223846944, 35334.487001238704, 22220.942046754604, -2072.5208011294367, -9884.880171403905, -4031.740609614922, -187500.02235174447, -15856.506330550472, 23918.601741624087, 3743.3807543970056, -10337.927679768525, 22465.470131095666, -7329.6063935287475, -17825.695017063026, -2616.584612916066, -15156.71791514372, 0.154, 0.986, 0.198, 192.0, 0.0, 0.0, 0.0, 0.0, 0.0, 0.0, 0.0, 0.0, 0.0, 1.695327785051456E9, 0.0, 2023-09-21 15:23:05.051
126.0, 40526.26079633961, 35320.60656793196, 22222.35020665529, -2080.567429133347, -9897.53125876561, -4037.2167870064723, -187500.02235174447, -15871.504351079984, 23913.617302610553, 3745.3477079090726, -10343.806188560271, 22358.539385621476, -7334.702591264558, -17827.237287430442, -2624.966517086806, -15157.746095388664, 0.154, 0.986, 0.198, 192.0, 0.0, 0.0, 0.0, 0.0, 0.0, 0.0, 0.0, 0.0, 0.0, 1.695327785051459E9, 0.0, 2023-09-21 15:23:05.051
128.0, 40528.29480508504, 35324.786344145105, 22214.281226906925, -2079.248676210484, -9887.294159805078, -4024.945679300509, -187500.02235174447, -15860.730810252526, 23897.613453580554, 3732.271937402718, -10360.972328301947, 22480.87048302537, -7350.706440294557, -17834.14397646713, -2636.701182925842, -15172.118267073425, 0.16, 0.982, 0.19, 192.0, 2.5, 0.0, 15.0, 88.0, 2.5, 120.0, 0.0, 0.0, 0.0, 1.695327785051463E9, 0.0, 2023-09-21 15:23:05.051
130.0, 40536.58730227796, 35331.491867481694, 22235.984770773026, -2069.12333597223, -9877.705261433752, -4012.3392954277156, -187500.02235174447, -15851.857167703769, 23912.432660154424, 3748.4769521328158, -10348.90238629608, 22367.94947003716, -7335.127274409208, -17816.62020881417, -2628.7439618997532, -15157.567281433021, 0.16, 0.982, 0.19, 192.0, 0.0, 0.0, 0.0, 0.0, 0.0, 0.0, 0.0, 0.0, 0.0, 1.695327785051466E9, 0.0, 2023-09-21 15:23:05.051
132.0, 40523.55623526052, 35316.247977763174, 22218.68452056462, -2085.350702446783, -9890.401052284367, -4036.613289906179, -187500.02235174447, -15865.961118455067, 23907.247055440792, 3744.0289549862096, -10353.23862472041, 22470.856901509393, -7341.4081146011495, -17825.91853450758, -2622.2172525188034, -15163.736362902686, 0.16, 0.982, 0.19, 192.0, 0.0, 0.0, 0.0, 0.0, 0.0, 0.0, 0.0, 0.0, 0.0, 1.695327785051475E9, 0.0, 2023-09-21 15:23:05.051
134.0, 40543.717508759204, 35335.202257061275, 22236.029474261937, -2065.8152777928444, -9877.884075389395, -4018.5307286418356, -187500.02235174447, -15851.812464214858, 23908.49875313029, 3741.4361526293937, -10353.1939212315, 22374.72204860712, -7336.5354343098925, -17819.280066404353, -2629.325107255591, -15163.937528602783, 0.16, 0.982, 0.19, 192.0, 0.0, 0.0, 0.0, 0.0, 0.0, 0.0, 0.0, 0.0, 0.0, 1.695327785051478E9, 0.0, 2023-09-21 15:23:05.051
136.0, 40541.30352035803, 35332.7882686601, 22233.68254109413, -2068.609245849758, -9885.90835164885, -4038.937871329531, -187500.02235174447, -15862.04956317539, 23917.97589277934, 3752.4555626458605, -10338.195900701989, 22452.886098967327, -7334.054390675354, -17832.646409588626, -2608.7615023567087, -15148.559528417532, 0.16, 0.982, 0.19, 192.0, 0.0, 0.0, 0.0, 0.0, 0.0, 0.0, 0.0, 0.0, 0.0, 1.695327785111718E9, 0.0, 2023-09-21 15:23:05.111
138.0, 40550.04305244006, 35340.90195189738, 22237.3482271848, -2062.909551013655, -9889.439927272788, -4037.0156213063747, -187500.02235174447, -15857.892138706702, 23907.87290428554, 3745.7723910537234, -10343.314450182253, 22390.2341592591, -7345.274966391918, -17835.283915434353, -2629.101589811038, -15163.602252435954, 0.16, 0.982, 0.196, 192.0, 2.5, 0.0, 15.0, 88.0, 3.0, 16.0, 0.0, 0.0, 0.0, 1.695327785111727E9, 0.0, 2023-09-21 15:23:05.111
140.0, 40552.56879956351, 35339.58319897451, 22241.46094816458, -2065.5023533704702, -9893.753813952662, -4041.5306736863467, -187500.02235174447, -15865.201159143588, 23919.83108756913, 3755.1154202360417, -10332.742075054894, 22460.888023482326, -7332.981506941499, -17828.131357208655, -2618.0151245612055, -15155.242700009669, 0.16, 0.982, 0.196, 192.0, 0.0, 0.0, 0.0, 0.0, 0.0, 0.0, 0.0, 0.0, 0.0, 1.695327785111731E9, 0.0, 2023-09-21 15:23:05.111
142.0, 40552.389985607864, 35339.672605952335, 22236.454157406588, -2066.8881615266996, -9895.609008742453, -4039.7872376188325, -187500.02235174447, -15866.85518823328, 23916.053642756182, 3753.684908590902, -10337.234775690411, 22415.089299093404, -7334.635536031192, -17831.372360154674, -2622.9548600858284, -15161.210615779235, 0.16, 0.982, 0.196, 192.0, 0.0, 0.0, 0.0, 0.0, 0.0, 0.0, 0.0, 0.0, 0.0, 1.695327785111734E9, 0.0, 2023-09-21 15:23:05.111
144.0, 40557.03914845457, 35342.75714668717, 22240.298657452902, -2059.288568411895, -9890.646921473375, -4034.8922055831204, -187500.02235174447, -15859.702630007581, 23921.663930614464, 3760.3904319274943, -10332.116226210144, 22455.68006702424, -7333.115617408231, -17815.167345424576, -2618.0821797945714, -15152.538138930577, 0.16, 0.982, 0.196, 192.0, 0.0, 0.0, 0.0, 0.0, 0.0, 0.0, 0.0, 0.0, 0.0, 1.695327785111738E9, 0.0, 2023-09-21 15:23:05.111
146.0, 40562.33651189048, 35348.635655478916, 22242.712645854073, -2057.5004288554705, -9888.724671450218, -4030.734781114433, -187500.02235174447, -15859.65792651867, 23929.241171984813, 3769.2864262207063, -10322.169699927534, 22429.282656822525, -7325.828948715801, -17811.032272700344, -2617.0763512940825, -15142.099874269948, 0.16, 0.982, 0.196, 192.0, 0.0, 0.0, 0.0, 0.0, 0.0, 0.0, 0.0, 0.0, 0.0, 1.695327785111741E9, 0.0, 2023-09-21 15:23:05.111
148.0, 40548.14315416136, 35334.62111170544, 22232.00616025998, -2070.6656063396463, -9900.861668689451, -4035.026316049852, -187500.02235174447, -15872.398420858197, 23914.15374447748, 3752.433210901405, -10336.05013323428, 22455.81417749097, -7342.615108801736, -17828.109005464197, -2628.3639822440127, -15161.56824369052, 0.156, 0.986, 0.194, 192.0, 2.0, 112.0, 15.0, 104.0, 3.0, 8.0, 0.0, 0.0, 0.0, 1.695327785111744E9, 0.0, 2023-09-21 15:23:05.111
150.0, 40555.69804378725, 35345.193486832795, 22232.00616025998, -2057.9474637445765, -9887.920008649828, -4031.137112514629, -187500.02235174447, -15858.428580573629, 23911.091555487106, 3751.4497341453716, -10339.358191413665, 22453.981334445638, -7347.308975137351, -17825.29268566283, -2635.09185732506, -15159.042496567072, 0.156, 0.986, 0.194, 192.0, 0.0, 0.0, 0.0, 0.0, 0.0, 0.0, 0.0, 0.0, 0.0, 1.695327785171012E9, 0.0, 2023-09-21 15:23:05.171
152.0, 40545.59505529345, 35333.36941401594, 22235.090700994817, -2070.3303301728165, -9895.72076746473, -4037.6861736400338, -187500.02235174447, -15866.274042877441, 23921.865096314563, 3757.1270772370194, -10330.417493631541, 22429.640284733807, -7333.361486597239, -17813.893295990623, -2621.7925693741527, -15148.403066206345, 0.156, 0.986, 0.194, 192.0, 0.0, 0.0, 0.0, 0.0, 0.0, 0.0, 0.0, 0.0, 0.0, 1.695327785171024E9, 0.0, 2023-09-21 15:23:05.171
154.0, 40550.80301175154, 35337.169210573345, 22233.30256143839, -2062.283702168906, -9882.935569636295, -4024.3421822002156, -187500.02235174447, -15858.406228829173, 23912.946750276897, 3744.207768941852, -10341.168682714544, 22461.22329964916, -7338.949422711065, -17823.9068775066, -2631.940261356862, -15156.852025610451, 0.156, 0.986, 0.194, 192.0, 0.0, 0.0, 0.0, 0.0, 0.0, 0.0, 0.0, 0.0, 0.0, 1.695327785171027E9, 0.0, 2023-09-21 15:23:05.171
156.0, 40551.98765420767, 35339.15851582986, 22249.909907568683, -2057.2545596664622, -9882.71205219174, -4026.219728734461, -187500.02235174447, -15861.08843816381, 23925.86605857206, 3753.9307777799104, -10329.121092453133, 22411.289502536, -7329.673448762113, -17816.396691369617, -2611.980153558273, -15139.149444001849, 0.156, 0.986, 0.194, 192.0, 0.0, 0.0, 0.0, 0.0, 0.0, 0.0, 0.0, 0.0, 0.0, 1.695327785171031E9, 0.0, 2023-09-21 15:23:05.171
158.0, 40566.65039857035, 35354.02242589265, 22249.01583779047, -2049.319690384828, -9868.33988050698, -4021.548214143302, -187500.02235174447, -15848.61616475775, 23924.25673297128, 3757.462353403849, -10329.925755253525, 22467.839416007926, -7329.360524339739, -17814.80971751329, -2612.918926825396, -15141.943412058761, 0.156, 0.984, 0.194, 192.0, 2.0, 112.0, 15.0, 96.0, 3.0, 8.0, 0.0, 0.0, 0.0, 1.695327785171034E9, 0.0, 2023-09-21 15:23:05.171
160.0, 40554.37929086439, 35339.85141990798, 22253.79911110391, -2057.746298044479, -9882.24266555818, -4035.8756823391536, -187500.02235174447, -15864.172978898643, 23924.726119604842, 3751.5391411231926, -10326.70710405196, 22401.857066375862, -7329.44993131756, -17820.911743749588, -2604.492319165745, -15140.669362624809, 0.156, 0.984, 0.194, 192.0, 0.0, 0.0, 0.0, 0.0, 0.0, 0.0, 0.0, 0.0, 0.0, 1.695327785171037E9, 0.0, 2023-09-21 15:23:05.171
162.0, 40565.28694215858, 35349.954408401776, 22249.574631401854, -2050.7949055188783, -9872.072621831016, -4029.9524700584975, -187500.02235174447, -15859.099132907288, 23930.738738863318, 3756.948263281377, -10319.75571152636, 22485.78786680554, -7323.392608570172, -17817.91660999258, -2603.821766832086, -15138.5235951571, 0.156, 0.984, 0.194, 192.0, 0.0, 0.0, 0.0, 0.0, 0.0, 0.0, 0.0, 0.0, 0.0, 1.695327785171041E9, 0.0, 2023-09-21 15:23:05.171
164.0, 40536.7661162336, 35320.27129176513, 22240.58923013082, -2076.4323564091155, -9906.114328636448, -4056.461638982492, -187500.02235174447, -15886.971758243057, 23916.478325900833, 3737.345783394073, -10335.290173922798, 22406.372118755833, -7334.434370331093, -17834.121624722677, -2620.4961681957448, -15154.438037209278, 0.156, 0.984, 0.194, 192.0, 0.0, 0.0, 0.0, 0.0, 0.0, 0.0, 0.0, 0.0, 0.0, 1.695327785171044E9, 0.0, 2023-09-21 15:23:05.171
166.0, 40552.322930374496, 35337.303321040075, 22236.454157406588, -2065.278835925917, -9885.394261526379, -4040.033106807841, -187500.02235174447, -15872.085496435822, 23904.408383894966, 3728.4721408453156, -10346.913081039558, 22507.60316939392, -7353.5004083514705, -17845.85629056171, -2626.061752565116, -15157.656688410842, 0.156, 0.984, 0.194, 192.0, 0.0, 0.0, 0.0, 0.0, 0.0, 0.0, 0.0, 0.0, 0.0, 1.695327785230906E9, 0.0, 2023-09-21 15:23:05.230
168.0, 40547.47260182769, 35331.84949539298, 22247.294753467413, -2069.2350946945066, -9894.87140117543, -4039.6307754076456, -187500.02235174447, -15879.819200017359, 23914.82429681114, 3740.1173997065307, -10337.033609990312, 22394.548045938976, -7341.184597156596, -17827.75137755291, -2619.646801906443, -15150.459426696234, 0.158, 0.986, 0.196, 192.0, 2.0, 120.0, 15.0, 104.0, 3.0, 16.0, 0.0, 0.0, 0.0, 1.695327785230925E9, 0.0, 2023-09-21 15:23:05.230
170.0, 40567.008026481635, 35351.27316132464, 22247.6523813787, -2054.5276468429147, -9874.19603755427, -4017.390789674615, -187500.02235174447, -15860.127313152232, 23920.278122458236, 3741.1008764625644, -10331.289211665298, 22506.01619553759, -7335.619012787225, -17833.04874098882, -2611.1531390134264, -15143.977420804194, 0.158, 0.986, 0.196, 192.0, 0.0, 0.0, 0.0, 0.0, 0.0, 0.0, 0.0, 0.0, 0.0, 1.695327785230928E9, 0.0, 2023-09-21 15:23:05.230
172.0, 40559.2743229001, 35342.91360889836, 22255.184919260137, -2058.8638852672443, -9881.706223691252, -4024.5656996447683, -187500.02235174447, -15865.268214376953, 23931.856326086086, 3758.892865048989, -10322.840252261192, 22385.495589434577, -7325.404265571149, -17816.217877413976, -2601.60894413101, -15130.655781108831, 0.158, 0.986, 0.196, 192.0, 0.0, 0.0, 0.0, 0.0, 0.0, 0.0, 0.0, 0.0, 0.0, 1.695327785230932E9, 0.0, 2023-09-21 15:23:05.230
174.0, 40553.39581410835, 35337.48213499572, 22235.336570183823, -2071.805545306867, -9887.562380738544, -4033.0146590488744, -187500.02235174447, -15874.499484836995, 23911.717404331852, 3739.715068306335, -10344.81201706076, 22505.725622859674, -7345.207911158552, -17828.556040353305, -2619.5573949286218, -15150.504130185143, 0.158, 0.986, 0.196, 192.0, 0.0, 0.0, 0.0, 0.0, 0.0, 0.0, 0.0, 0.0, 0.0, 1.695327785230935E9, 0.0, 2023-09-21 15:23:05.230
176.0, 40553.32875887499, 35335.38107101692, 22249.5522796574, -2066.5305336154147, -9889.81990692853, -4035.294536983316, -187500.02235174447, -15873.694822036603, 23924.05556727118, 3749.7062980778574, -10331.937412254503, 22388.177798769215, -7330.858091218244, -17828.01959848638, -2614.841176848552, -15140.267031224614, 0.158, 0.986, 0.196, 192.0, 0.0, 0.0, 0.0, 0.0, 0.0, 0.0, 0.0, 0.0, 0.0, 1.695327785230938E9, 0.0, 2023-09-21 15:23:05.230
178.0, 40559.36372987792, 35342.91360889836, 22244.076102265848, -2066.3964231486825, -9885.662482459842, -4041.3518597307043, -187500.02235174447, -15880.534455839928, 23914.39961366649, 3735.825864771112, -10342.152159470577, 22504.675090870274, -7340.067009933831, -17838.837842802746, -2616.428150704879, -15152.538138930577, 0.156, 0.988, 0.194, 192.0, 2.0, 112.0, 15.0, 112.0, 3.0, 8.0, 0.0, 0.0, 0.0, 1.695327785230941E9, 0.0, 2023-09-21 15:23:05.230
180.0, 40575.21111669673, 35361.063225396065, 22265.533776942942, -2051.3313473858057, -9872.877284631406, -4022.2187664769613, -187500.02235174447, -15866.922243466646, 23937.041930799714, 3757.909388292955, -10319.643952804083, 22391.888188348796, -7319.1010736347525, -17813.915647735077, -2607.2862872226583, -15138.724760857198, 0.156, 0.988, 0.194, 192.0, 0.0, 0.0, 0.0, 0.0, 0.0, 0.0, 0.0, 0.0, 0.0, 1.695327785291219E9, 0.0, 2023-09-21 15:23:05.291
182.0, 40562.35886363493, 35351.697844469294, 22242.287962709423, -2067.893990027188, -9893.574999997021, -4044.5258074433577, -187500.02235174447, -15886.636482076226, 23924.524953904744, 3747.8734550325225, -10329.970458742435, 22495.399116921322, -7330.813387729334, -17832.601706099715, -2604.6934848658425, -15146.503167927644, 0.156, 0.988, 0.194, 192.0, 0.0, 0.0, 0.0, 0.0, 0.0, 0.0, 0.0, 0.0, 0.0, 1.695327785291248E9, 0.0, 2023-09-21 15:23:05.291
184.0, 40558.91669498882, 35348.076861867536, 22243.11497725427, -2069.6374260947023, -9896.123098864926, -4048.8396941232318, -187500.02235174447, -15890.056298977888, 23919.562866635664, 3751.650899845469, -10334.32904891122, 22409.322549023935, -7337.9435942105765, -17829.87479327617, -2622.194900774348, -15155.220348265213, 0.156, 0.988, 0.194, 192.0, 0.0, 0.0, 0.0, 0.0, 0.0, 0.0, 0.0, 0.0, 0.0, 1.69532778529126E9, 0.0, 2023-09-21 15:23:05.291
186.0, 40564.79520378056, 35350.781422946624, 22243.941991799118, -2066.2399609374957, -9889.797555184074, -4042.804723120299, -187500.02235174447, -15885.250673919998, 23914.19844796639, 3742.576091596615, -10340.47577863643, 22493.096887242424, -7343.598585557769, -17836.334447423753, -2621.3455344850463, -15160.473008212211, 0.156, 0.988, 0.194, 192.0, 0.0, 0.0, 0.0, 0.0, 0.0, 0.0, 0.0, 0.0, 0.0, 1.695327785291289E9, 0.0, 2023-09-21 15:23:05.291
188.0, 40568.43853812677, 35355.00590264868, 22250.289887224422, -2062.1048882132636, -9884.321377792523, -4036.635641650634, -187500.02235174447, -15885.273025664454, 23922.35683469258, 3748.521655621726, -10329.724589553427, 22419.67140670674, -7336.647193032169, -17833.942810767032, -2619.6691536508984, -15151.822883108007, 0.152, 0.996, 0.192, 192.0, 2.0, 96.0, 15.5, 16.0, 3.0, 0.0, 0.0, 0.0, 0.0, 1.695327785291295E9, 0.0, 2023-09-21 15:23:05.291
190.0, 40570.293732916565, 35358.93980967281, 22253.329724470346, -2061.4790393685153, -9883.3826045254, -4035.003964305397, -187500.02235174447, -15879.260406405976, 23922.535648648223, 3746.0406119871873, -10329.590479086695, 22477.696535312716, -7333.160320897141, -17831.931153766054, -2607.263935478203, -15150.302964485047, 0.152, 0.996, 0.192, 192.0, 0.0, 0.0, 0.0, 0.0, 0.0, 0.0, 0.0, 0.0, 0.0, 1.6953277852913E9, 0.0, 2023-09-21 15:23:05.291
192.0, 40582.877765044905, 35375.122472658455, 22266.807826376895, -2046.3692601167274, -9869.435115985289, -4013.881565795132, -187500.02235174447, -15859.65792651867, 23936.281971488235, 3762.6479581174804, -10315.732397524405, 22426.734557954616, -7316.217698600019, -17811.27814188935, -2599.686694107854, -15133.18152823228, 0.152, 0.996, 0.192, 192.0, 0.0, 0.0, 0.0, 0.0, 0.0, 0.0, 0.0, 0.0, 0.0, 1.695327785291305E9, 0.0, 2023-09-21 15:23:05.291
194.0, 40566.31512240352, 35357.68811198331, 22256.906003583194, -2066.5975888487806, -9885.885999904394, -4025.5938798897128, -187500.02235174447, -15877.0475837049, 23922.893276559505, 3750.4886091337935, -10327.958801741457, 22470.275756153555, -7327.617088272225, -17833.182851455553, -2596.8480225620297, -15138.61300213492, 0.152, 0.996, 0.192, 192.0, 0.0, 0.0, 0.0, 0.0, 0.0, 0.0, 0.0, 0.0, 0.0, 1.695327785291308E9, 0.0, 2023-09-21 15:23:05.291
196.0, 40573.22181144021, 35365.06418765357, 22258.291811739426, -2056.762821288445, -9881.19213356878, -4032.32175497076, -187500.02235174447, -15872.353717369286, 23922.759166092776, 3748.052268988165, -10327.154138941067, 22459.032828692536, -7329.807559228845, -17832.62405784417, -2609.297944223636, -15142.122226014404, 0.152, 0.996, 0.192, 192.0, 0.0, 0.0, 0.0, 0.0, 0.0, 0.0, 0.0, 0.0, 0.0, 1.695327785351521E9, 0.0, 2023-09-21 15:23:05.351
198.0, 40559.54254383356, 35352.32369331404, 22252.390951203222, -2074.1524784746744, -9898.939418666294, -4054.226464536961, -187500.02235174447, -15891.889142023223, 23917.797078823696, 3742.21846368533, -10330.171624442533, 22469.58285207544, -7335.350791853762, -17833.853403789213, -2610.5272901686776, -15150.302964485047, 0.154, 0.988, 0.19, 192.0, 2.0, 104.0, 15.0, 112.0, 2.5, 120.0, 0.0, 0.0, 0.0, 1.695327785351531E9, 0.0, 2023-09-21 15:23:05.351
200.0, 40580.66494234383, 35376.97766744824, 22259.31999198437, -2051.5325130859032, -9877.705261433752, -4031.718257870467, -187500.02235174447, -15867.145760911199, 23921.999206781293, 3744.9677282533326, -10326.371827885132, 22477.07068646797, -7329.002896428454, -17837.742607324435, -2618.193938516848, -15148.179548761791, 0.154, 0.988, 0.19, 192.0, 0.0, 0.0, 0.0, 0.0, 0.0, 0.0, 0.0, 0.0, 0.0, 1.695327785351534E9, 0.0, 2023-09-21 15:23:05.351
202.0, 40565.666921814314, 35365.28770509812, 22262.851567608308, -2061.7249085575236, -9884.544895237077, -4038.356725973693, -187500.02235174447, -15880.735621540025, 23928.97295105135, 3751.405030656461, -10323.175528428023, 22451.232069877635, -7324.9125271931325, -17832.66876133308, -2602.771234842686, -15138.657705623831, 0.154, 0.988, 0.19, 192.0, 0.0, 0.0, 0.0, 0.0, 0.0, 0.0, 0.0, 0.0, 0.0, 1.695327785351538E9, 0.0, 2023-09-21 15:23:05.351
204.0, 40571.545430606064, 35372.887298212925, 22259.40939896219, -2052.538341586392, -9871.893807875373, -4024.1857199890283, -187500.02235174447, -15865.156455654676, 23921.663930614464, 3744.654803830958, -10329.27755466432, 22488.894759284827, -7326.477149305004, -17830.590049098737, -2606.191051744348, -15140.937583558272, 0.154, 0.988, 0.19, 192.0, 0.0, 0.0, 0.0, 0.0, 0.0, 0.0, 0.0, 0.0, 0.0, 1.695327785351541E9, 0.0, 2023-09-21 15:23:05.351
206.0, 40566.82921252599, 35367.47817605474, 22275.882634625752, -2049.7443735294787, -9874.95599686575, -4024.878624067143, -187500.02235174447, -15869.313880123364, 23930.671683629953, 3752.008527756754, -10320.694484793483, 22430.176726600734, -7315.122463121708, -17821.694054805525, -2589.494298636234, -15127.772406074097, 0.154, 0.988, 0.19, 192.0, 0.0, 0.0, 0.0, 0.0, 0.0, 0.0, 0.0, 0.0, 0.0, 1.695327785351544E9, 0.0, 2023-09-21 15:23:05.351
208.0, 40560.3248548895, 35357.017559649656, 22254.78258785994, -2057.9027602556657, -9881.661520202342, -4037.6638218955786, -187500.02235174447, -15876.891121493712, 23920.79221258071, 3744.587748597592, -10331.579784343217, 22501.188218735246, -7325.3819138266945, -17833.316961922286, -2598.7032173518205, -15138.389484690368, 0.158, 0.988, 0.194, 192.0, 2.0, 120.0, 15.0, 112.0, 3.0, 8.0, 0.0, 0.0, 0.0, 1.695327785351547E9, 0.0, 2023-09-21 15:23:05.351
210.0, 40557.419128110305, 35351.496678769196, 22258.78355011744, -2067.6257690937246, -9887.830601672007, -4041.2401010084277, -187500.02235174447, -15888.178752443642, 23917.88648580152, 3740.4079723844497, -10336.675982079028, 22435.295276081, -7328.935841195088, -17839.597802114225, -2602.815938331597, -15146.056133038537, 0.158, 0.988, 0.194, 192.0, 0.0, 0.0, 0.0, 0.0, 0.0, 0.0, 0.0, 0.0, 0.0, 1.695327785411642E9, 0.0, 2023-09-21 15:23:05.411
212.0, 40576.06048298603, 35368.3498940885, 22260.258765251492, -2054.6170538207357, -9870.552703208054, -4025.1021415116957, -187500.02235174447, -15864.977641699033, 23919.898142802496, 3740.564434595637, -10334.060827977757, 22519.65075965533, -7329.718152251024, -17833.428720644562, -2604.067636021094, -15148.201900506247, 0.158, 0.988, 0.194, 192.0, 0.0, 0.0, 0.0, 0.0, 0.0, 0.0, 0.0, 0.0, 0.0, 1.695327785411655E9, 0.0, 2023-09-21 15:23:05.411
214.0, 40573.55708760704, 35366.4946992987, 22276.664945681685, -2048.939710729088, -9868.026956084605, -4028.5890136467237, -187500.02235174447, -15861.267252119453, 23936.036102299226, 3757.0600220036536, -10320.51567083784, 22409.031976346014, -7313.155509609642, -17823.504546106404, -2592.2659149486917, -15128.912345041317, 0.158, 0.988, 0.194, 192.0, 0.0, 0.0, 0.0, 0.0, 0.0, 0.0, 0.0, 0.0, 0.0, 1.695327785411658E9, 0.0, 2023-09-21 15:23:05.411
216.0, 40578.40741615384, 35372.08263541253, 22271.70285841261, -2044.1340856711968, -9860.159142036337, -4022.039952521319, -187500.02235174447, -15855.18757762761, 23933.331541220134, 3752.4108591569498, -10324.203708672967, 22508.988977550147, -7312.306143320339, -17825.136223451642, -2584.1298799669603, -15130.968705531206, 0.158, 0.988, 0.194, 192.0, 0.0, 0.0, 0.0, 0.0, 0.0, 0.0, 0.0, 0.0, 0.0, 1.695327785411662E9, 0.0, 2023-09-21 15:23:05.411
218.0, 40565.15283169184, 35358.71629222826, 22273.98273634705, -2055.801696276867, -9877.168819566825, -4029.8854148251316, -187500.02235174447, -15872.443124347106, 23937.734834877832, 3756.6800423479135, -10320.493319093386, 22405.880380377817, -7308.104015362742, -17816.419043114074, -2583.906362522407, -15127.548888629544, 0.152, 0.99, 0.196, 192.0, 2.0, 96.0, 15.0, 120.0, 3.0, 16.0, 0.0, 0.0, 0.0, 1.695327785411665E9, 0.0, 2023-09-21 15:23:05.411
220.0, 40567.99150323767, 35361.04087365161, 22253.575593659352, -2065.256484181462, -9878.465220745233, -4044.749324887911, -187500.02235174447, -15878.008708716477, 23921.35100619209, 3741.682021818402, -10338.553528613273, 22531.40777723882, -7329.047599917365, -17844.20226147202, -2595.104586494516, -15148.872452839907, 0.152, 0.99, 0.196, 192.0, 0.0, 0.0, 0.0, 0.0, 0.0, 0.0, 0.0, 0.0, 0.0, 1.695327785411668E9, 0.0, 2023-09-21 15:23:05.411
222.0, 40567.03037822609, 35357.88927768341, 22255.87782333825, -2077.996978520987, -9887.271808060625, -4056.215769793483, -187500.02235174447, -15889.631615833237, 23927.36362545057, 3740.8773590180112, -10335.04430473379, 22411.62477870283, -7325.292506848873, -17841.229479459464, -2605.0511127771274, -15155.354458731945, 0.152, 0.99, 0.196, 192.0, 0.0, 0.0, 0.0, 0.0, 0.0, 0.0, 0.0, 0.0, 0.0, 1.695327785411672E9, 0.0, 2023-09-21 15:23:05.411
224.0, 40567.23154392619, 35363.52191728615, 22251.027494791448, -2070.710309828557, -9876.81119165554, -4052.1254005581623, -187500.02235174447, -15881.830857018336, 23916.657139856477, 3736.2952514046733, -10345.639031605606, 22528.07736731498, -7334.16614939763, -17847.309153951308, -2610.035551790661, -15170.218368794725, 0.152, 0.99, 0.196, 192.0, 0.0, 0.0, 0.0, 0.0, 0.0, 0.0, 0.0, 0.0, 0.0, 1.695327785411675E9, 0.0, 2023-09-21 15:23:05.411
226.0, 40559.877820000394, 35353.41892879235, 22261.711628641086, -2066.061146981853, -9882.689700447287, -4048.549121445313, -187500.02235174447, -15883.61899657476, 23926.670721372455, 3745.6829840759024, -10328.338781397199, 22417.61504621685, -7312.775529953901, -17841.855328304213, -2594.7916620721417, -15149.18537726228, 0.152, 0.99, 0.196, 192.0, 0.0, 0.0, 0.0, 0.0, 0.0, 0.0, 0.0, 0.0, 0.0, 1.695327785471917E9, 0.0, 2023-09-21 15:23:05.471
228.0, 40564.281113658086, 35358.67158873935, 22263.186843775136, -2060.897894012677, -9882.265017302636, -4045.5986911772125, -187500.02235174447, -15878.120467438755, 23913.125564232538, 3738.083390961098, -10338.95586001347, 22533.039454584057, -7337.585966299292, -17845.09633125023, -2600.9607435418066, -15157.52257794411, 0.148, 0.99, 0.198, 192.0, 2.0, 80.0, 15.0, 120.0, 3.0, 24.0, 0.0, 0.0, 0.0, 1.695327785471927E9, 0.0, 2023-09-21 15:23:05.471
230.0, 40551.45121234074, 35350.60260899098, 22262.002201319006, -2065.4352981371044, -9889.551685995066, -4052.9524151030087, -187500.02235174447, -15890.235112933531, 23917.774727079242, 3749.371021911028, -10329.299906408776, 22432.031921390524, -7326.901832449656, -17835.77565381237, -2601.3854266864573, -15151.264089496624, 0.148, 0.99, 0.198, 192.0, 0.0, 0.0, 0.0, 0.0, 0.0, 0.0, 0.0, 0.0, 0.0, 1.695327785471931E9, 0.0, 2023-09-21 15:23:05.471
232.0, 40553.39581410835, 35355.676454982335, 22250.379294202245, -2065.3011876703727, -9884.187267325791, -4046.3362987442374, -187500.02235174447, -15882.81433377437, 23901.413250137957, 3740.855007273556, -10349.327069440731, 22531.94421910575, -7340.69285877858, -17843.598764371727, -2604.6711331213874, -15158.550758189054, 0.148, 0.99, 0.198, 192.0, 0.0, 0.0, 0.0, 0.0, 0.0, 0.0, 0.0, 0.0, 0.0, 1.695327785471934E9, 0.0, 2023-09-21 15:23:05.471
234.0, 40562.045939212556, 35365.24300160921, 22262.538643185933, -2052.225417164018, -9872.094973575471, -4025.4597694229806, -187500.02235174447, -15868.28569987842, 23910.041023497706, 3748.9686905108324, -10344.610851360661, 22434.132985369324, -7328.3770475837055, -17832.62405784417, -2608.1133017675047, -15150.61588890742, 0.148, 0.99, 0.198, 192.0, 0.0, 0.0, 0.0, 0.0, 0.0, 0.0, 0.0, 0.0, 0.0, 1.695327785471937E9, 0.0, 2023-09-21 15:23:05.471
236.0, 40556.27918914309, 35358.60453350598, 22259.185881517635, -2057.545132344381, -9875.537142221589, -4024.968031044964, -187500.02235174447, -15866.542263810905, 23912.92439853244, 3757.2835394482067, -10339.33583966921, 22506.954968804715, -7325.471320804516, -17821.783461783347, -2584.934542767351, -15130.991057275662, 0.148, 0.99, 0.198, 192.0, 0.0, 0.0, 0.0, 0.0, 0.0, 0.0, 0.0, 0.0, 0.0, 1.69532778547194E9, 0.0, 2023-09-21 15:23:05.471
238.0, 40555.74274727616, 35358.135146872424, 22260.92931758515, -2048.0903444397863, -9875.201866054758, -4022.5093391548803, -187500.02235174447, -15863.725944009537, 23902.843761783097, 3746.3535364095615, -10346.287232194809, 22448.147529142803, -7333.8308732308005, -17839.418988158584, -2597.8985545514292, -15136.444882922755, 0.152, 0.984, 0.198, 192.0, 2.0, 96.0, 15.0, 96.0, 3.0, 24.0, 0.0, 0.0, 0.0, 1.695327785471944E9, 0.0, 2023-09-21 15:23:05.471
240.0, 40579.301485932054, 35382.610307050985, 22276.35202125931, -2028.1078848967416, -9866.685851417285, -4004.2032604459837, -187500.02235174447, -15857.51215905096, 23919.4958114023, 3766.9618447973544, -10327.288249407799, 22504.518628659087, -7324.510195792937, -17814.832069257747, -2578.3407781530354, -15113.780214045075, 0.152, 0.984, 0.198, 192.0, 0.0, 0.0, 0.0, 0.0, 0.0, 0.0, 0.0, 0.0, 0.0, 1.695327785530865E9, 0.0, 2023-09-21 15:23:05.530
242.0, 40598.76985535263, 35404.403257894905, 22283.37046901828, -2017.7366754694792, -9860.4273629698, -3998.861193521165, -187500.02235174447, -15850.024324658434, 23935.74552962131, 3784.6420746615026, -10308.982170698902, 22476.534244601044, -7312.172032853608, -17800.638711528627, -2577.9607984972954, -15106.851173263929, 0.152, 0.984, 0.198, 192.0, 0.0, 0.0, 0.0, 0.0, 0.0, 0.0, 0.0, 0.0, 0.0, 1.695327785530877E9, 0.0, 2023-09-21 15:23:05.530
244.0, 40573.646494584864, 35378.475234326754, 22265.176149031657, -2051.0184229634315, -9884.76841268163, -4027.136150257129, -187500.02235174447, -15878.14281918321, 23927.78830859522, 3776.751908868779, -10319.532194081807, 22508.541942661042, -7323.884346948189, -17811.52401107836, -2582.811127044097, -15117.75882455812, 0.152, 0.984, 0.198, 192.0, 0.0, 0.0, 0.0, 0.0, 0.0, 0.0, 0.0, 0.0, 0.0, 1.695327785530882E9, 0.0, 2023-09-21 15:23:05.530
246.0, 40579.994390010164, 35382.65501053989, 22264.483244953542, -2044.7599345159454, -9865.4788572167, -4023.0904845107184, -187500.02235174447, -15865.84935973279, 23922.915628303963, 3761.150391238975, -10329.232851175411, 22492.918073286783, -7319.369294568217, -17824.62213332917, -2598.256182462714, -15132.198051476247, 0.152, 0.984, 0.198, 192.0, 0.0, 0.0, 0.0, 0.0, 0.0, 0.0, 0.0, 0.0, 0.0, 1.695327785530886E9, 0.0, 2023-09-21 15:23:05.530
248.0, 40576.015779497124, 35376.48592907023, 22268.305393255403, -2045.6316525497023, -9871.558531708542, -4029.4383799360253, -187500.02235174447, -15870.409115601673, 23923.295607959702, 3758.1552574819634, -10332.965592499446, 22472.91326199928, -7317.961134667532, -17826.43262463005, -2592.735301582253, -15131.080464253482, 0.156, 0.986, 0.2, 192.0, 2.0, 112.0, 15.0, 104.0, 3.0, 32.0, 0.0, 0.0, 0.0, 1.695327785530899E9, 0.0, 2023-09-21 15:23:05.530
250.0, 40573.288866673574, 35373.73666450223, 22263.678582153152, -2046.481018839004, -9873.391374753879, -4030.712429369978, -187500.02235174447, -15868.24099638951, 23930.135241763026, 3765.084298263109, -10323.555508083762, 22486.748991817116, -7317.290582333873, -17814.876772746655, -2590.3436649255354, -15126.27483919559, 0.156, 0.986, 0.2, 192.0, 0.0, 0.0, 0.0, 0.0, 0.0, 0.0, 0.0, 0.0, 0.0, 1.695327785530902E9, 0.0, 2023-09-21 15:23:05.530
252.0, 40569.1761456938, 35370.20508887829, 22263.969154831073, -2055.8463997657777, -9888.612912727942, -4043.967013831975, -187500.02235174447, -15884.736583797525, 23920.099308502595, 3752.634376601503, -10333.412627388552, 22468.57702357495, -7334.434370331093, -17842.123549237676, -2603.3523801985243, -15141.18345274728, 0.156, 0.986, 0.2, 192.0, 0.0, 0.0, 0.0, 0.0, 0.0, 0.0, 0.0, 0.0, 0.0, 1.695327785530906E9, 0.0, 2023-09-21 15:23:05.530
254.0, 40579.2791341876, 35382.252679139696, 22250.401645946702, -2051.845437508278, -9878.845200400972, -4038.0885050402294, -187500.02235174447, -15877.002880215989, 23922.02155852575, 3760.8374668166, -10330.015162231346, 22520.276608500077, -7330.478111562505, -17831.640581088137, -2609.029723290172, -15143.03864753707, 0.156, 0.986, 0.2, 192.0, 0.0, 0.0, 0.0, 0.0, 0.0, 0.0, 0.0, 0.0, 0.0, 1.69532778553091E9, 0.0, 2023-09-21 15:23:05.530
0.0, 40569.310256160534, 35374.13899590242, 22258.828253606353, -2053.9465014870766, -9884.880171403905, -4033.3052317267934, -187500.02235174447, -15879.148647683698, 23926.514259161268, 3766.1348302525084, -10329.1881476865, 22446.2476308641, -7319.302239334851, -17822.208144927998, -2601.6759993643764, -15136.601345133942, 0.156, 0.986, 0.2, 192.0, 0.0, 0.0, 0.0, 0.0, 0.0, 0.0, 0.0, 0.0, 0.0, 1.695327785591162E9, 0.0, 2023-09-21 15:23:05.591
2.0, 40564.30346540254, 35368.551059788595, 22247.942954056616, -2059.288568411895, -9880.499229490666, -4035.1157230276735, -187500.02235174447, -15874.119505181254, 23916.366567178557, 3755.0930684915866, -10343.247394948889, 22519.427242210775, -7325.292506848873, -17823.459842617493, -2611.04138029115, -15140.04351378006, 0.156, 0.988, 0.198, 192.0, 2.0, 112.0, 15.0, 112.0, 3.0, 24.0, 0.0, 0.0, 0.0, 1.69532778559117E9, 0.0, 2023-09-21 15:23:05.591
4.0, 40554.82632575349, 35354.42475729284, 22251.765102358473, -2066.0387952373976, -9893.686758719297, -4038.7590573738885, -187500.02235174447, -15880.75797328448, 23914.109040988573, 3748.2981381771733, -10347.874206051136, 22435.16116561427, -7330.567518540325, -17828.7572060534, -2609.364999457002, -15136.824862578496, 0.156, 0.988, 0.198, 192.0, 0.0, 0.0, 0.0, 0.0, 0.0, 0.0, 0.0, 0.0, 0.0, 1.695327785591174E9, 0.0, 2023-09-21 15:23:05.591
6.0, 40567.47741311519, 35368.685170255325, 22249.798148846407, -2056.092268954786, -9883.851991158961, -4023.8504438221985, -187500.02235174447, -15869.42563884564, 23912.410308409966, 3744.9900799977877, -10349.125903740634, 22524.188163779756, -7335.820178487323, -17834.054569489308, -2612.3377814695577, -15134.701446855242, 0.156, 0.988, 0.198, 192.0, 0.0, 0.0, 0.0, 0.0, 0.0, 0.0, 0.0, 0.0, 0.0, 1.695327785591177E9, 0.0, 2023-09-21 15:23:05.591
8.0, 40577.98273300919, 35383.21380415127, 22271.166416545682, -2043.7988095043672, -9877.459392244744, -4013.9486210284977, -187500.02235174447, -15863.837702731813, 23931.07401503015, 3762.8714755620335, -10326.640048818595, 22420.409014273766, -7316.843547444767, -17821.112909449686, -2594.746958583231, -15117.244734435646, 0.156, 0.988, 0.198, 192.0, 0.0, 0.0, 0.0, 0.0, 0.0, 0.0, 0.0, 0.0, 0.0, 1.69532778559118E9, 0.0, 2023-09-21 15:23:05.591
10.0, 40566.67275031481, 35375.100120914, 22237.839965562816, -2058.729774800512, -9892.993854641183, -4028.1419787576174, -187500.02235174447, -15873.605415058782, 23912.96910202135, 3757.0600220036536, -10340.609889103162, 22538.582687208975, -7334.0096871864425, -17830.90297352111, -2606.615734888999, -15131.035760764571, 0.156, 0.988, 0.198, 192.0, 0.0, 0.0, 0.0, 0.0, 0.0, 0.0, 0.0, 0.0, 0.0, 1.695327785591183E9, 0.0, 2023-09-21 15:23:05.591
12.0, 40558.201439166245, 35366.09236789851, 22252.033323291937, -2062.641330080191, -9902.76156696815, -4035.965089316975, -187500.02235174447, -15880.04271746191, 23916.523029389744, 3760.6139493720475, -10338.66528733555, 22435.652903992286, -7329.226413873007, -17823.258676917398, -2612.5389471696553, -15129.068807252504, 0.158, 0.988, 0.198, 192.0, 2.0, 120.0, 15.0, 112.0, 3.0, 24.0, 0.0, 0.0, 0.0, 1.695327785591186E9, 0.0, 2023-09-21 15:23:05.591
14.0, 40564.95166599174, 35370.76388248967, 22246.6018493893, -2064.4294696366155, -9894.916104664338, -4038.4237812070587, -187500.02235174447, -15877.248749404998, 23901.904988515973, 3743.604271841559, -10350.534063641318, 22559.123940363403, -7345.07380069182, -17842.257659704406, -2618.2833454946694, -15146.771388861107, 0.158, 0.988, 0.198, 192.0, 0.0, 0.0, 0.0, 0.0, 0.0, 0.0, 0.0, 0.0, 0.0, 1.695327785651483E9, 0.0, 2023-09-21 15:23:05.651
16.0, 40575.389930652374, 35378.475234326754, 22267.880710110752, -2056.0475654658753, -9887.33886329399, -4028.4996066689027, -187500.02235174447, -15874.790057514914, 23929.68820687392, 3765.1960569853854, -10324.069598206235, 22432.18838360171, -7318.810500956834, -17814.8544210022, -2605.006409288217, -15129.51584214161, 0.158, 0.988, 0.198, 192.0, 0.0, 0.0, 0.0, 0.0, 0.0, 0.0, 0.0, 0.0, 0.0, 1.695327785651496E9, 0.0, 2023-09-21 15:23:05.651
18.0, 40562.78354677958, 35366.00296092069, 22241.170375486658, -2072.699615085079, -9898.939418666294, -4034.422818949559, -187500.02235174447, -15883.998976230501, 23914.891352044506, 3748.3428416660836, -10340.207557702966, 22547.188108824266, -7332.35565809675, -17840.603630614714, -2609.029723290172, -15143.3739237039, 0.158, 0.988, 0.198, 192.0, 0.0, 0.0, 0.0, 0.0, 0.0, 0.0, 0.0, 0.0, 0.0, 1.695327785651499E9, 0.0, 2023-09-21 15:23:05.651
20.0, 40565.51045960313, 35373.49079531322, 22253.01680004797, -2062.8201440358334, -9897.352444809967, -4030.8241880922546, -187500.02235174447, -15875.90764473768, 23915.763070078265, 3754.60133011357, -10337.681810579517, 22438.02218890455, -7333.964983697532, -17833.808700300302, -2618.864490850507, -15140.334086457979, 0.158, 0.988, 0.198, 192.0, 0.0, 0.0, 0.0, 0.0, 0.0, 0.0, 0.0, 0.0, 0.0, 1.695327785651502E9, 0.0, 2023-09-21 15:23:05.651
22.0, 40563.45409911324, 35373.021408679655, 22248.322933712356, -2070.106812728264, -9898.000645399172, -4039.027278307352, -187500.02235174447, -15882.0990779518, 23904.386032150513, 3749.102800977564, -10344.610851360661, 22544.66236170082, -7341.989259956988, -17844.67164810558, -2612.2483744917363, -15141.585784147477, 0.164, 0.982, 0.202, 192.0, 2.5, 16.0, 15.0, 88.0, 3.0, 40.0, 0.0, 0.0, 0.0, 1.695327785651505E9, 0.0, 2023-09-21 15:23:05.651
24.0, 40568.77381429361, 35377.93879245983, 22260.21406176258, -2062.127239957719, -9890.781031940107, -4031.4053334480923, -187500.02235174447, -15875.974699971046, 23915.316035189157, 3755.249530702774, -10337.033609990312, 22450.829738477438, -7331.0145534294315, -17834.211031700495, -2609.297944223636, -15138.456539923733, 0.164, 0.982, 0.202, 192.0, 0.0, 0.0, 0.0, 0.0, 0.0, 0.0, 0.0, 0.0, 0.0, 1.695327785651509E9, 0.0, 2023-09-21 15:23:05.651
26.0, 40567.075081715004, 35374.94365870281, 22259.297640239914, -2060.0708794678308, -9890.781031940107, -4034.7580951163886, -187500.02235174447, -15869.827970245835, 23915.606607867077, 3757.1941324703853, -10336.117188467644, 22534.73818716266, -7327.550033038859, -17831.394711899127, -2604.224098232281, -15140.311734713523, 0.164, 0.982, 0.202, 192.0, 0.0, 0.0, 0.0, 0.0, 0.0, 0.0, 0.0, 0.0, 0.0, 1.695327785651512E9, 0.0, 2023-09-21 15:23:05.651
28.0, 40568.03620672658, 35374.65308602489, 22264.55030018691, -2054.9299782431103, -9881.90738939135, -4020.5647373872685, -187500.02235174447, -15856.103999150277, 23925.240209727315, 3764.8384290741005, -10329.165795942044, 22453.82487223445, -7313.78135845439, -17816.754319280903, -2593.092929493538, -15126.56541187351, 0.164, 0.982, 0.202, 192.0, 0.0, 0.0, 0.0, 0.0, 0.0, 0.0, 0.0, 0.0, 0.0, 1.695327785651515E9, 0.0, 2023-09-21 15:23:05.651
30.0, 40567.700930559746, 35372.596725535004, 22260.16935827367, -2058.5509608448697, -9888.210581327747, -4014.0380280063187, -187500.02235174447, -15853.824121215835, 23919.272293957747, 3763.4749726623268, -10336.698333823482, 22526.579800436473, -7316.508271277938, -17820.889392005134, -2595.9316010393622, -15137.204842234236, 0.164, 0.982, 0.202, 192.0, 0.0, 0.0, 0.0, 0.0, 0.0, 0.0, 0.0, 0.0, 0.0, 1.695327785711771E9, 0.0, 2023-09-21 15:23:05.711
32.0, 40566.2257154257, 35371.412083078874, 22258.627087906254, -2056.8745800107217, -9885.014281870637, -4025.169196745062, -187500.02235174447, -15840.99421989849, 23929.040006284715, 3773.17562975593, -10326.751807540872, 22466.29714564051, -7308.931029907589, -17803.52208656336, -2602.234792975759, -15137.070731767504, 0.156, 0.978, 0.2, 192.0, 2.0, 112.0, 15.0, 72.0, 3.0, 32.0, 0.0, 0.0, 0.0, 1.69532778571178E9, 0.0, 2023-09-21 15:23:05.711
34.0, 40567.58917183747, 35373.91547845787, 22262.337477485835, -2052.0242514639203, -9886.467145260232, -4021.41410367657, -187500.02235174447, -15834.51221400645, 23923.317959704156, 3771.789821599701, -10329.143444197589, 22514.621617152887, -7311.322666564306, -17814.832069257747, -2594.5904963720436, -15141.652839380842, 0.156, 0.978, 0.2, 192.0, 0.0, 0.0, 0.0, 0.0, 0.0, 0.0, 0.0, 0.0, 0.0, 1.695327785711783E9, 0.0, 2023-09-21 15:23:05.711
36.0, 40583.637724356384, 35390.58987982153, 22268.663021166685, -2037.0485826788645, -9870.686813674785, -4002.9739145009416, -187500.02235174447, -15815.982617853, 23939.21005001188, 3790.766452642257, -10313.787795756793, 22477.473017868164, -7294.782375667379, -17795.408403326084, -2593.875240549474, -15136.914269556317, 0.156, 0.978, 0.2, 192.0, 0.0, 0.0, 0.0, 0.0, 0.0, 0.0, 0.0, 0.0, 0.0, 1.695327785711787E9, 0.0, 2023-09-21 15:23:05.711
38.0, 40553.03818619707, 35361.353798073986, 22248.434692434632, -2063.64715858068, -9903.342712323989, -4032.5452724153133, -187500.02235174447, -15839.049618130877, 23941.26641050177, 3798.27663877924, -10313.206650400954, 22491.509913386097, -7291.6307796991805, -17792.05564165779, -2588.197897457826, -15132.622734620898, 0.156, 0.978, 0.2, 192.0, 0.0, 0.0, 0.0, 0.0, 0.0, 0.0, 0.0, 0.0, 0.0, 1.69532778571179E9, 0.0, 2023-09-21 15:23:05.711
40.0, 40565.957494492235, 35374.78719649163, 22248.993486046016, -2056.069917210331, -9887.294159805078, -4020.944717043009, -187500.02235174447, -15825.146833079676, 23926.424852183445, 3778.428289702927, -10333.949069255481, 22502.350509446922, -7310.070968874809, -17815.502621591404, -2617.6574966499206, -15155.577976176499, 0.156, 0.978, 0.2, 192.0, 0.0, 0.0, 0.0, 0.0, 0.0, 0.0, 0.0, 0.0, 0.0, 1.695327785711793E9, 0.0, 2023-09-21 15:23:05.711
42.0, 40568.37148289341, 35375.413045336376, 22254.760236115486, -2057.098097455275, -9890.378700539912, -4037.1497317731064, -187500.02235174447, -15837.46264427455, 23943.635695414032, 3798.1201765680526, -10317.833461503204, 22478.21062543519, -7296.190535568063, -17799.677586517046, -2602.547717398133, -15141.585784147477, 0.154, 0.984, 0.2, 192.0, 2.0, 104.0, 15.0, 96.0, 3.0, 32.0, 0.0, 0.0, 0.0, 1.695327785711796E9, 0.0, 2023-09-21 15:23:05.711
44.0, 40581.3801981664, 35390.85810075499, 22260.325820484857, -2045.2740246384174, -9877.19117131128, -4023.93985080002, -187500.02235174447, -15819.335379521297, 23948.843651872117, 3804.9598103713765, -10308.378673598609, 22509.659529883807, -7289.4626604870155, -17801.443374329017, -2608.2697639786916, -15141.742246358663, 0.154, 0.984, 0.2, 192.0, 0.0, 0.0, 0.0, 0.0, 0.0, 0.0, 0.0, 0.0, 0.0, 1.695327785772182E9, 0.0, 2023-09-21 15:23:05.772
46.0, 40568.86322127142, 35378.45288258229, 22264.170320531168, -2049.5655595738363, -9891.876267418416, -4039.541368429824, -187500.02235174447, -15836.03213262941, 23948.441320471924, 3804.0657405931643, -10306.434071830998, 22474.857863766894, -7288.501535475438, -17809.84763024421, -2602.771234842686, -15138.680057368287, 0.154, 0.984, 0.2, 192.0, 0.0, 0.0, 0.0, 0.0, 0.0, 0.0, 0.0, 0.0, 0.0, 1.695327785772193E9, 0.0, 2023-09-21 15:23:05.772
48.0, 40571.612485839425, 35378.38582734893, 22251.49688142501, -2048.515027584437, -9890.378700539912, -4040.7036591415003, -187500.02235174447, -15835.1380628512, 23940.752320379295, 3795.885002122522, -10312.3349323672, 22536.280457530076, -7298.224544313496, -17813.468612845973, -2616.5622611716108, -15145.117359771415, 0.154, 0.984, 0.2, 192.0, 0.0, 0.0, 0.0, 0.0, 0.0, 0.0, 0.0, 0.0, 0.0, 1.695327785772197E9, 0.0, 2023-09-21 15:23:05.772
50.0, 40575.30052367455, 35375.86008022548, 22270.115884556282, -2041.161303658641, -9886.265979560136, -4034.020487549363, -187500.02235174447, -15836.389760540696, 23947.815471627175, 3802.858746392578, -10305.629409030606, 22462.83262524994, -7290.53554422087, -17807.81362149878, -2605.073464521583, -15135.707275355731, 0.154, 0.984, 0.2, 192.0, 0.0, 0.0, 0.0, 0.0, 0.0, 0.0, 0.0, 0.0, 0.0, 1.6953277857722E9, 0.0, 2023-09-21 15:23:05.772
52.0, 40582.05075050006, 35379.458711082785, 22264.483244953542, -2034.5451872998701, -9878.95695912325, -4021.8164350767656, -187500.02235174447, -15826.018551113433, 23956.867928131574, 3807.0608743501753, -10299.348568838665, 22536.59338195245, -7278.4208987260945, -17801.24220862892, -2601.0277987751724, -15126.766577573608, 0.158, 0.992, 0.202, 192.0, 2.0, 120.0, 15.5, 0.0, 3.0, 40.0, 0.0, 0.0, 0.0, 1.695327785772203E9, 0.0, 2023-09-21 15:23:05.772
54.0, 40565.64457006986, 35362.605495763484, 22264.863224609286, -2042.7482775149679, -9890.021072628626, -4024.677458367045, -187500.02235174447, -15835.249821573476, 23949.223631527857, 3800.534164969226, -10305.271781119322, 22448.572212287454, -7292.055462843831, -17796.727156248948, -2606.3028104666246, -15120.284571681568, 0.158, 0.992, 0.202, 192.0, 0.0, 0.0, 0.0, 0.0, 0.0, 0.0, 0.0, 0.0, 0.0, 1.695327785772206E9, 0.0, 2023-09-21 15:23:05.772
56.0, 40562.98471247968, 35361.979646918735, 22249.351113957302, -2044.9834519604985, -9884.991930126183, -4026.934984557031, -187500.02235174447, -15836.32270530733, 23932.102195275093, 3785.4020339729827, -10322.99671447238, 22556.59819323995, -7300.862050159222, -17818.52010709287, -2619.3785809729793, -15133.382693932379, 0.158, 0.992, 0.202, 192.0, 0.0, 0.0, 0.0, 0.0, 0.0, 0.0, 0.0, 0.0, 0.0, 1.69532778577221E9, 0.0, 2023-09-21 15:23:05.772
58.0, 40564.772852036105, 35363.67837949734, 22265.69023915413, -2041.7871525033895, -9888.05411911656, -4031.472388681458, -187500.02235174447, -15836.009780884957, 23943.814509369673, 3797.628438190036, -10310.233868388399, 22447.96871518716, -7292.34603552175, -17792.368566080164, -2613.254202992225, -15119.859888536917, 0.158, 0.992, 0.202, 192.0, 0.0, 0.0, 0.0, 0.0, 0.0, 0.0, 0.0, 0.0, 0.0, 1.695327785772213E9, 0.0, 2023-09-21 15:23:05.772
60.0, 40560.03428221158, 35361.73377772973, 22246.35598020029, -2049.297338640373, -9889.19405808378, -4038.8261126072543, -187500.02235174447, -15840.457778031563, 23928.660026628975, 3780.2834844927174, -10323.0861214502, 22558.498091518653, -7305.913544406122, -17825.605610085204, -2625.5700141870993, -15131.415740420312, 0.158, 0.992, 0.202, 192.0, 0.0, 0.0, 0.0, 0.0, 0.0, 0.0, 0.0, 0.0, 0.0, 1.695327785831704E9, 0.0, 2023-09-21 15:23:05.831
62.0, 40544.16454364831, 35346.48988801121, 22251.720398869562, -2059.31092015635, -9901.420462300834, -4045.79985687731, -187500.02235174447, -15856.70749625057, 23933.06332028667, 3785.4467374618935, -10317.118205680634, 22442.11255813987, -7303.678369960591, -17815.077938446753, -2618.9986013172393, -15124.441996150255, 0.17200000000000001, 0.988, 0.198, 192.0, 2.5, 48.0, 15.0, 112.0, 3.0, 24.0, 0.0, 0.0, 0.0, 1.695327785831713E9, 0.0, 2023-09-21 15:23:05.831
64.0, 40557.39677636585, 35357.71046372777, 22245.618372633264, -2056.069917210331, -9887.808249927552, -4039.6978306410115, -187500.02235174447, -15848.929089180123, 23911.471535142846, 3764.45844941836, -10342.152159470577, 22565.404780555342, -7323.347905081261, -17834.792177056333, -2637.7293631707867, -15149.341839473467, 0.17200000000000001, 0.988, 0.198, 192.0, 0.0, 0.0, 0.0, 0.0, 0.0, 0.0, 0.0, 0.0, 0.0, 1.695327785831717E9, 0.0, 2023-09-21 15:23:05.831
66.0, 40554.82632575349, 35353.57539100354, 22254.15673901519, -2053.3430043867834, -9889.90931390635, -4039.4296097075476, -187500.02235174447, -15849.71140023606, 23934.06914878716, 3785.7149583953574, -10321.007409215857, 22437.083415637426, -7300.839698414768, -17810.67464478906, -2617.6574966499206, -15126.99009501816, 0.17200000000000001, 0.988, 0.198, 192.0, 0.0, 0.0, 0.0, 0.0, 0.0, 0.0, 0.0, 0.0, 0.0, 1.69532778583172E9, 0.0, 2023-09-21 15:23:05.831
68.0, 40553.59697980845, 35354.13418461492, 22241.349189442302, -2059.4673823675375, -9892.278598818613, -4044.2799382543494, -187500.02235174447, -15853.555900282372, 23925.240209727315, 3779.590580414603, -10328.584650586206, 22544.014161111612, -7309.690989219069, -17808.595932554716, -2621.412589718412, -15137.718932356709, 0.17200000000000001, 0.988, 0.198, 192.0, 0.0, 0.0, 0.0, 0.0, 0.0, 0.0, 0.0, 0.0, 0.0, 1.695327785831723E9, 0.0, 2023-09-21 15:23:05.831
70.0, 40550.087755928966, 35350.53555375762, 22246.244221478013, -2057.2769114109174, -9893.887924419394, -4044.101124298707, -187500.02235174447, -15857.735676495515, 23922.915628303963, 3775.6119699015585, -10329.501072108875, 22442.20196511769, -7312.194384598063, -17826.76790079688, -2629.2804037666806, -15139.641182379864, 0.17200000000000001, 0.988, 0.198, 192.0, 0.0, 0.0, 0.0, 0.0, 0.0, 0.0, 0.0, 0.0, 0.0, 1.695327785831726E9, 0.0, 2023-09-21 15:23:05.831
72.0, 40551.83119199648, 35353.53068751463, 22242.846756320807, -2059.7803067899117, -9890.021072628626, -4038.3790777181484, -187500.02235174447, -15852.013629914956, 23912.20914270987, 3768.235894231307, -10341.705124581471, 22542.494242488654, -7322.587945769781, -17830.545345609826, -2629.816845633608, -15147.106665027937, 0.17400000000000002, 0.99, 0.198, 192.0, 2.5, 56.0, 15.0, 120.0, 3.0, 24.0, 0.0, 0.0, 0.0, 1.695327785831729E9, 0.0, 2023-09-21 15:23:05.831
74.0, 40557.53088683258, 35357.911629427865, 22252.100378525305, -2051.2419404079847, -9886.847124915974, -4030.734781114433, -187500.02235174447, -15843.765836210947, 23921.5968753811, 3775.2990454791843, -10334.373752400132, 22443.16309012927, -7311.166204353119, -17819.48123210445, -2624.9888688312612, -15137.629525378887, 0.17400000000000002, 0.99, 0.198, 192.0, 0.0, 0.0, 0.0, 0.0, 0.0, 0.0, 0.0, 0.0, 0.0, 1.695327785892437E9, 0.0, 2023-09-21 15:23:05.892
76.0, 40562.940008990765, 35362.65019925239, 22252.458006436587, -2047.933882228599, -9880.320415535023, -4032.388810204126, -187500.02235174447, -15840.927164665123, 23923.11679400406, 3781.1999060153853, -10331.222156431933, 22526.35628299192, -7311.21090784203, -17811.367548867172, -2614.0141623037057, -15130.253449708636, 0.17400000000000002, 0.99, 0.198, 192.0, 0.0, 0.0, 0.0, 0.0, 0.0, 0.0, 0.0, 0.0, 0.0, 1.695327785892447E9, 0.0, 2023-09-21 15:23:05.892
78.0, 40569.95845674974, 35369.311019100074, 22262.851567608308, -2041.0048414474538, -9879.33693877899, -4025.929156056542, -187500.02235174447, -15835.85331867377, 23945.26737275927, 3797.8072521456784, -10312.200821900466, 22446.58290703093, -7287.741576163957, -17791.742717235415, -2605.6993133663314, -15120.105757725927, 0.17400000000000002, 0.99, 0.198, 192.0, 0.0, 0.0, 0.0, 0.0, 0.0, 0.0, 0.0, 0.0, 0.0, 1.695327785892451E9, 0.0, 2023-09-21 15:23:05.892
80.0, 40564.012892724626, 35364.46069055327, 22252.72622737005, -2049.0514694513645, -9887.651787716364, -4029.550138658302, -187500.02235174447, -15843.519967021939, 23921.68628235892, 3785.245571761796, -10331.780950043316, 22520.880105600372, -7316.418864300116, -17804.639673786125, -2617.881014094474, -15138.054208523537, 0.17400000000000002, 0.99, 0.198, 192.0, 0.0, 0.0, 0.0, 0.0, 0.0, 0.0, 0.0, 0.0, 0.0, 1.695327785892454E9, 0.0, 2023-09-21 15:23:05.892
82.0, 40563.63291306888, 35365.533574287125, 22251.139253513724, -2047.285681639395, -9889.708148206253, -4025.9515078009977, -187500.02235174447, -15838.222603586031, 23927.520087661756, 3792.107557309575, -10325.90244125157, 22468.711134041685, -7305.175936839097, -17804.885542975135, -2617.098703038538, -15131.080464253482, 0.17400000000000002, 0.988, 0.196, 192.0, 2.5, 56.0, 15.0, 112.0, 3.0, 16.0, 0.0, 0.0, 0.0, 1.695327785892457E9, 0.0, 2023-09-21 15:23:05.892
84.0, 40565.86808751441, 35369.467481311265, 22258.87295709526, -2046.3916118611828, -9891.831563929507, -4020.3412199427153, -187500.02235174447, -15842.491786776995, 23928.324750462147, 3794.4768422218376, -10323.667266806038, 22509.88304732836, -7307.724035707001, -17800.03521442833, -2608.1133017675047, -15129.202917719236, 0.17400000000000002, 0.988, 0.196, 192.0, 0.0, 0.0, 0.0, 0.0, 0.0, 0.0, 0.0, 0.0, 0.0, 1.69532778589246E9, 0.0, 2023-09-21 15:23:05.892
86.0, 40566.42688112579, 35370.83093772303, 22253.17326225916, -2046.5257223279148, -9888.367043538934, -4018.106045497185, -187500.02235174447, -15836.434464029608, 23930.4481661854, 3792.5545921986813, -10322.639086561096, 22497.45547741121, -7306.561744995326, -17800.03521442833, -2617.5680896720996, -15130.991057275662, 0.17400000000000002, 0.988, 0.196, 192.0, 0.0, 0.0, 0.0, 0.0, 0.0, 0.0, 0.0, 0.0, 0.0, 1.695327785892464E9, 0.0, 2023-09-21 15:23:05.892
88.0, 40550.13245941788, 35352.63661773642, 22249.529927912943, -2064.1165452142413, -9906.24843910318, -4033.975784060453, -187500.02235174447, -15855.500502049985, 23917.50650614578, 3784.262095005762, -10331.400970387574, 22514.934541575258, -7320.017495157421, -17808.43947034353, -2618.2833454946694, -15135.640220122365, 0.17400000000000002, 0.988, 0.196, 192.0, 0.0, 0.0, 0.0, 0.0, 0.0, 0.0, 0.0, 0.0, 0.0, 1.695327785892467E9, 0.0, 2023-09-21 15:23:05.892
90.0, 40567.566820093016, 35369.176908633344, 22256.570727416365, -2049.4761525960153, -9889.037595872593, -4019.715371097967, -187500.02235174447, -15840.480129776017, 23913.706709588376, 3776.148411768486, -10333.658496577562, 22525.26104751361, -7322.900870192155, -17816.19552566952, -2627.0899328100604, -15142.546909159055, 0.17400000000000002, 0.988, 0.196, 192.0, 0.0, 0.0, 0.0, 0.0, 0.0, 0.0, 0.0, 0.0, 0.0, 1.695327785952165E9, 0.0, 2023-09-21 15:23:05.952
92.0, 40572.238334684174, 35372.93200170183, 22272.239300279536, -2041.8318559923002, -9889.238761572691, -4013.0769029947405, -187500.02235174447, -15841.061275131855, 23936.281971488235, 3796.8684788785554, -10310.345627110675, 22487.665413339786, -7300.705587948035, -17798.18001963854, -2597.4515196623233, -15114.428414634278, 0.17400000000000002, 0.982, 0.192, 192.0, 2.5, 56.0, 15.0, 88.0, 3.0, 0.0, 0.0, 0.0, 0.0, 1.695327785952174E9, 0.0, 2023-09-21 15:23:05.952
94.0, 40574.205288196245, 35373.69196101331, 22262.538643185933, -2039.8872542246884, -9887.182401082802, -4012.1828332165283, -187500.02235174447, -15836.523871007428, 23934.382073209534, 3793.8733451215444, -10313.050188189769, 22526.870373114394, -7300.839698414768, -17805.042005186322, -2607.196880244837, -15117.08827222446, 0.17400000000000002, 0.982, 0.192, 192.0, 0.0, 0.0, 0.0, 0.0, 0.0, 0.0, 0.0, 0.0, 0.0, 1.695327785952177E9, 0.0, 2023-09-21 15:23:05.952
96.0, 40556.726224032194, 35357.5987050055, 22260.37052397377, -2056.8969317551773, -9909.936476938305, -4028.879586324643, -187500.02235174447, -15860.32847885233, 23915.740718333807, 3772.7732983557344, -10329.434016875508, 22488.134799973348, -7322.722056236513, -17817.626037314658, -2616.830482105074, -15132.108644498427, 0.17400000000000002, 0.982, 0.192, 192.0, 0.0, 0.0, 0.0, 0.0, 0.0, 0.0, 0.0, 0.0, 0.0, 1.695327785952181E9, 0.0, 2023-09-21 15:23:05.952
98.0, 40573.154756206844, 35376.28476337013, 22263.566823430876, -2040.580158302803, -9887.785898183096, -4020.989420531919, -187500.02235174447, -15844.726961222526, 23919.853439313585, 3784.0609293056646, -10322.728493538916, 22551.434940270778, -7315.793015455368, -17813.647426801614, -2613.164796014404, -15131.102815997938, 0.17400000000000002, 0.982, 0.192, 192.0, 0.0, 0.0, 0.0, 0.0, 0.0, 0.0, 0.0, 0.0, 0.0, 1.695327785952184E9, 0.0, 2023-09-21 15:23:05.952
100.0, 40555.608636809426, 35359.63271375093, 22260.057599551394, -2057.321614899828, -9913.982142684716, -4040.3013277413047, -187500.02235174447, -15867.458685333573, 23919.227590468836, 3787.6819119074244, -10323.063769705746, 22476.936576001237, -7317.223527100507, -17808.327711621252, -2610.549641913133, -15128.867641552406, 0.17400000000000002, 0.982, 0.192, 192.0, 0.0, 0.0, 0.0, 0.0, 0.0, 0.0, 0.0, 0.0, 0.0, 1.695327785952187E9, 0.0, 2023-09-21 15:23:05.952
102.0, 40569.46671837172, 35372.08263541253, 22257.01776230547, -2046.6598327946465, -9897.084223876504, -4028.387847946626, -187500.02235174447, -15851.298374092386, 23906.6435583405, 3775.3884524570053, -10335.42428438953, 22572.914966692326, -7328.645268517169, -17814.027406457353, -2625.257089764725, -15146.592574905466, 0.17200000000000001, 0.986, 0.192, 192.0, 2.5, 48.0, 15.0, 104.0, 3.0, 0.0, 0.0, 0.0, 0.0, 1.69532778595219E9, 0.0, 2023-09-21 15:23:05.952
104.0, 40567.83504102648, 35372.61907727946, 22277.84958813782, -2038.613204790736, -9896.950113409772, -4023.4928159109136, -187500.02235174447, -15851.298374092386, 23925.396671938503, 3794.387435244016, -10315.777101013315, 22463.234956650133, -7312.283791575885, -17808.774746510357, -2609.2755924791804, -15120.4186821483, 0.17200000000000001, 0.986, 0.192, 192.0, 0.0, 0.0, 0.0, 0.0, 0.0, 0.0, 0.0, 0.0, 0.0, 1.69532778601174E9, 0.0, 2023-09-21 15:23:06.011
106.0, 40578.09449173147, 35380.73276051674, 22276.59789044832, -2029.9183761976215, -9882.376776024912, -4012.4287024055366, -187500.02235174447, -15836.36740879624, 23929.799965596198, 3795.9073538669772, -10310.792661999782, 22562.52140552061, -7305.757082194935, -17796.861266715678, -2601.1172057529934, -15119.077577480983, 0.17200000000000001, 0.986, 0.192, 192.0, 0.0, 0.0, 0.0, 0.0, 0.0, 0.0, 0.0, 0.0, 0.0, 1.695327786011751E9, 0.0, 2023-09-21 15:23:06.011
108.0, 40569.444366627264, 35371.00975167868, 22279.70478292761, -2033.3828965881942, -9892.569171496532, -4016.742589085411, -187500.02235174447, -15841.441254787596, 23932.102195275093, 3799.684798679924, -10308.713949765439, 22454.808348990482, -7300.236201314474, -17794.134353892132, -2598.8149760740966, -15115.814222790506, 0.17200000000000001, 0.986, 0.192, 192.0, 0.0, 0.0, 0.0, 0.0, 0.0, 0.0, 0.0, 0.0, 0.0, 1.695327786011755E9, 0.0, 2023-09-21 15:23:06.011
110.0, 40581.64841909986, 35382.118568672966, 22273.669811924676, -2025.8503587067555, -9882.19796206927, -4007.5560221142796, -187500.02235174447, -15832.835833172303, 23924.25673297128, 3794.5662491996586, -10313.676037034516, 22571.395048069364, -7306.517041506415, -17799.14114465012, -2603.1512144984263, -15121.156289715325, 0.17200000000000001, 0.986, 0.192, 192.0, 0.0, 0.0, 0.0, 0.0, 0.0, 0.0, 0.0, 0.0, 0.0, 1.695327786011758E9, 0.0, 2023-09-21 15:23:06.011
112.0, 40554.69221528676, 35354.38005380393, 22262.985678075038, -2051.64427180818, -9904.125023379926, -4034.1769497605505, -187500.02235174447, -15859.680278263126, 23921.5968753811, 3789.112423552564, -10315.955914968958, 22468.97935497515, -7309.735692707979, -17800.61635978417, -2606.615734888999, -15126.543060129055, 0.17200000000000001, 0.988, 0.192, 192.0, 2.5, 48.0, 15.0, 112.0, 3.0, 0.0, 0.0, 0.0, 0.0, 1.695327786011761E9, 0.0, 2023-09-21 15:23:06.011
114.0, 40569.42201488281, 35366.96408593227, 22259.87878559575, -2041.6977455255683, -9884.991930126183, -4020.609440876179, -187500.02235174447, -15840.793054198391, 23910.35394792008, 3775.6790251349244, -10330.037513975802, 22588.404725599852, -7322.811463214334, -17811.546362822817, -2615.534080926667, -15137.09308351196, 0.17200000000000001, 0.988, 0.192, 192.0, 0.0, 0.0, 0.0, 0.0, 0.0, 0.0, 0.0, 0.0, 0.0, 1.695327786011764E9, 0.0, 2023-09-21 15:23:06.011
116.0, 40566.78450903708, 35360.66089399587, 22269.333573500346, -2044.6258240492136, -9892.122136607426, -4024.0516095222965, -187500.02235174447, -15846.671562990137, 23929.531744662734, 3791.816984631656, -10311.61967654463, 22462.609107805387, -7304.840660672267, -17798.13531614963, -2604.6711331213874, -15117.065920480005, 0.17200000000000001, 0.988, 0.192, 192.0, 0.0, 0.0, 0.0, 0.0, 0.0, 0.0, 0.0, 0.0, 0.0, 1.695327786011768E9, 0.0, 2023-09-21 15:23:06.011
118.0, 40563.4764508577, 35357.95633291678, 22253.30737272589, -2054.6170538207357, -9895.72076746473, -4029.460731680481, -187500.02235174447, -15854.964060183056, 23910.577465364633, 3770.493420421293, -10329.702237808971, 22580.22398712921, -7323.392608570172, -17819.95061873801, -2621.122017040493, -15140.825824835996, 0.17200000000000001, 0.988, 0.192, 192.0, 0.0, 0.0, 0.0, 0.0, 0.0, 0.0, 0.0, 0.0, 0.0, 1.695327786011771E9, 0.0, 2023-09-21 15:23:06.011
120.0, 40571.88070677289, 35368.46165281077, 22274.005088091504, -2039.9766612025096, -9881.259188802147, -4018.418969919559, -187500.02235174447, -15840.904812920668, 23927.20716323938, 3789.268885763751, -10315.017141701835, 22469.091113697425, -7305.44415777256, -17802.180981896043, -2613.656534392421, -15125.38076941738, 0.17200000000000001, 0.988, 0.192, 192.0, 0.0, 0.0, 0.0, 0.0, 0.0, 0.0, 0.0, 0.0, 0.0, 1.695327786071406E9, 0.0, 2023-09-21 15:23:06.071
122.0, 40568.72911080469, 35364.639504508916, 22269.84766362282, -2045.4081351051493, -9882.354424280456, -4017.3684379301594, -187500.02235174447, -15842.268269332442, 23924.05556727118, 3785.7373101398125, -10317.274667891821, 22562.14142586487, -7308.059311873832, -17807.321883120763, -2604.4699674212898, -15126.051321751038, 0.166, 0.986, 0.19, 192.0, 2.5, 24.0, 15.0, 104.0, 2.5, 120.0, 0.0, 0.0, 0.0, 1.695327786071415E9, 0.0, 2023-09-21 15:23:06.071
124.0, 40571.41132013933, 35366.181774876335, 22272.619279935276, -2041.5636350588366, -9885.52837199311, -4024.588051389224, -187500.02235174447, -15847.610336257261, 23925.799003338696, 3787.9948363297985, -10315.218307401932, 22476.936576001237, -7305.019474627909, -17801.823353984757, -2609.6332203904653, -15129.985228775173, 0.166, 0.986, 0.19, 192.0, 0.0, 0.0, 0.0, 0.0, 0.0, 0.0, 0.0, 0.0, 0.0, 1.695327786071418E9, 0.0, 2023-09-21 15:23:06.071
126.0, 40566.11395670342, 35359.386844561915, 22262.82921586385, -2051.6666235526354, -9895.631360486908, -4033.2828799823383, -187500.02235174447, -15856.66279276166, 23919.87579105804, 3776.9977780577874, -10321.700313293972, 22554.787701939073, -7313.311971820828, -17819.883563504645, -2615.779950115675, -15136.578993389487, 0.166, 0.986, 0.19, 192.0, 0.0, 0.0, 0.0, 0.0, 0.0, 0.0, 0.0, 0.0, 0.0, 1.695327786071422E9, 0.0, 2023-09-21 15:23:06.071
128.0, 40574.495860874165, 35365.98060917624, 22272.999259591015, -2044.9387484715878, -9883.67317720332, -4021.5705658877573, -187500.02235174447, -15845.866900189747, 23924.904933560483, 3780.4846501928155, -10315.37476961312, 22488.93946277374, -7312.082625875786, -17811.658121545093, -2611.197842502337, -15131.214574720214, 0.166, 0.986, 0.19, 192.0, 0.0, 0.0, 0.0, 0.0, 0.0, 0.0, 0.0, 0.0, 0.0, 1.695327786071425E9, 0.0, 2023-09-21 15:23:06.071
130.0, 40570.919581761314, 35362.06905389656, 22266.427846721155, -2046.54807407237, -9885.260151059647, -4026.5326531568353, -187500.02235174447, -15855.165225883155, 23925.463727171868, 3782.205734515874, -10317.520537080829, 22534.93935286276, -7312.842585187267, -17816.91078149209, -2601.4748336642783, -15132.75684508763, 0.166, 0.986, 0.19, 192.0, 0.0, 0.0, 0.0, 0.0, 0.0, 0.0, 0.0, 0.0, 0.0, 1.695327786071428E9, 0.0, 2023-09-21 15:23:06.071
132.0, 40565.73397704768, 35358.80569920608, 22254.35790471529, -2051.197236919074, -9893.10561336346, -4031.4053334480923, -187500.02235174447, -15863.971813198545, 23915.807773567176, 3774.4496791898823, -10325.365999384643, 22503.892779814338, -7318.810500956834, -17821.850517016712, -2617.7916071166524, -15143.485682426177, 0.17, 0.986, 0.19, 192.0, 2.5, 40.0, 15.0, 104.0, 2.5, 120.0, 0.0, 0.0, 0.0, 1.695327786071431E9, 0.0, 2023-09-21 15:23:06.071
134.0, 40564.906962502835, 35358.87275443945, 22260.12465478476, -2054.706460798557, -9897.15127910987, -4037.1720835175615, -187500.02235174447, -15866.743429511003, 23915.383090422525, 3775.36610071255, -10326.036551718302, 22531.139556305356, -7322.029152158399, -17823.30338040631, -2615.6011361600326, -15143.820958593007, 0.17, 0.986, 0.19, 192.0, 0.0, 0.0, 0.0, 0.0, 0.0, 0.0, 0.0, 0.0, 0.0, 1.695327786131625E9, 0.0, 2023-09-21 15:23:06.131
136.0, 40591.46083491574, 35386.9018419864, 22277.111980570793, -2029.0019546749538, -9865.657671172343, -4010.484100637925, -187500.02235174447, -15837.395589041185, 23926.670721372455, 3784.5750194281363, -10315.0841969352, 22517.236771254156, -7315.055407888342, -17807.85832498769, -2608.448577934334, -15131.438092164766, 0.17, 0.986, 0.19, 192.0, 0.0, 0.0, 0.0, 0.0, 0.0, 0.0, 0.0, 0.0, 0.0, 1.695327786131636E9, 0.0, 2023-09-21 15:23:06.131
138.0, 40573.1771079513, 35365.46651905376, 22273.13337005775, -2047.1962746615739, -9883.784935925596, -4025.0797897672405, -187500.02235174447, -15854.405266571674, 23934.762052865273, 3794.27567652174, -10307.641066031583, 22506.105602515414, -7302.739596693468, -17796.257769615386, -2593.4952608937338, -15117.222382691192, 0.17, 0.986, 0.19, 192.0, 0.0, 0.0, 0.0, 0.0, 0.0, 0.0, 0.0, 0.0, 0.0, 1.69532778613164E9, 0.0, 2023-09-21 15:23:06.131
140.0, 40559.11786068891, 35350.915533413354, 22252.659172136686, -2053.745335786979, -9889.10465110596, -4031.740609614922, -187500.02235174447, -15859.434409074118, 23912.5444188767, 3767.3194727086393, -10330.551604098273, 22529.17260279329, -7321.202137613552, -17826.298514163318, -2614.5059006817223, -15131.527499142589, 0.17, 0.986, 0.19, 192.0, 0.0, 0.0, 0.0, 0.0, 0.0, 0.0, 0.0, 0.0, 0.0, 1.695327786131643E9, 0.0, 2023-09-21 15:23:06.131
142.0, 40557.48618334367, 35354.80473694858, 22258.87295709526, -2049.9455392295768, -9893.61970348593, -4028.186682246528, -187500.02235174447, -15862.384839342218, 23904.944825761897, 3766.358347697061, -10336.81009254576, 22502.12699200237, -7325.270155104417, -17824.890354262632, -2614.260031492714, -15130.566374131009, 0.17200000000000001, 0.988, 0.194, 192.0, 2.5, 48.0, 15.0, 112.0, 3.0, 8.0, 0.0, 0.0, 0.0, 1.695327786131646E9, 0.0, 2023-09-21 15:23:06.131
144.0, 40570.47254687221, 35369.4004260779, 22261.30929724089, -2042.1447804146744, -9881.080374846504, -4013.3674756726596, -187500.02235174447, -15851.521891536939, 23907.738793818808, 3773.7791268562232, -10332.004467487868, 22550.920850148304, -7325.873652204711, -17823.03515947284, -2612.4942436807446, -15124.03966475006, 0.17200000000000001, 0.988, 0.194, 192.0, 0.0, 0.0, 0.0, 0.0, 0.0, 0.0, 0.0, 0.0, 0.0, 1.695327786131649E9, 0.0, 2023-09-21 15:23:06.131
146.0, 40558.53671533307, 35354.849440437494, 22262.560994930387, -2055.6899375545904, -9899.00647389966, -4028.544310157813, -187500.02235174447, -15866.519912066451, 23912.36560492106, 3777.8694960915445, -10329.90340350907, 22491.912244786294, -7322.230317858496, -17815.61438031368, -2604.3805604434683, -15117.89293502485, 0.17200000000000001, 0.988, 0.194, 192.0, 0.0, 0.0, 0.0, 0.0, 0.0, 0.0, 0.0, 0.0, 0.0, 1.695327786131653E9, 0.0, 2023-09-21 15:23:06.131
148.0, 40571.36661665042, 35366.09236789851, 22257.08481753884, -2046.5704258168253, -9886.668310960331, -4013.099254739196, -187500.02235174447, -15852.1924438706, 23902.93316876092, 3765.9336645524104, -10337.57005185724, 22565.4271322998, -7331.908623207644, -17820.37530188266, -2618.3056972391246, -15131.281629953579, 0.17200000000000001, 0.988, 0.194, 192.0, 0.0, 0.0, 0.0, 0.0, 0.0, 0.0, 0.0, 0.0, 0.0, 1.695327786131656E9, 0.0, 2023-09-21 15:23:06.131
150.0, 40576.28400043058, 35371.72500750125, 22278.967175360583, -2038.6579082796466, -9886.62360747142, -4019.357743186682, -187500.02235174447, -15856.059295661367, 23918.31116894617, 3781.5351821822146, -10320.985057471402, 22474.768456789072, -7317.469396289515, -17804.058528430287, -2610.4825866797673, -15117.714121069208, 0.17200000000000001, 0.988, 0.194, 192.0, 0.0, 0.0, 0.0, 0.0, 0.0, 0.0, 0.0, 0.0, 0.0, 1.695327786191811E9, 0.0, 2023-09-21 15:23:06.191
152.0, 40570.74076780567, 35368.48400455523, 22260.459930951587, -2042.7035740260571, -9892.792688941085, -4024.968031044964, -187500.02235174447, -15861.08843816381, 23921.708634103376, 3788.620685174547, -10317.386426614097, 22570.009239913135, -7315.703608477546, -17808.685339532538, -2600.5360603971553, -15116.216554190703, 0.17200000000000001, 0.986, 0.202, 192.0, 2.5, 48.0, 15.0, 104.0, 3.0, 40.0, 0.0, 0.0, 0.0, 1.69532778619182E9, 0.0, 2023-09-21 15:23:06.191
154.0, 40561.777718279096, 35362.404330063386, 22256.414265205178, -2058.707423056057, -9907.254267603668, -4034.4675224384696, -187500.02235174447, -15875.728830782036, 23904.58719785061, 3775.164935012452, -10333.792607044294, 22483.485637126643, -7331.059256918342, -17823.52689785086, -2620.809092618119, -15138.23302247918, 0.17200000000000001, 0.986, 0.202, 192.0, 0.0, 0.0, 0.0, 0.0, 0.0, 0.0, 0.0, 0.0, 0.0, 1.695327786191824E9, 0.0, 2023-09-21 15:23:06.191
156.0, 40580.68729408828, 35379.61517329397, 22261.622221663263, -2043.2176641485291, -9877.90642713385, -4011.5346326273243, -187500.02235174447, -15847.453874046074, 23906.509447873766, 3778.852972847578, -10329.47872036442, 22582.012126685637, -7333.8308732308005, -17814.876772746655, -2617.903365838929, -15134.835557321974, 0.17200000000000001, 0.986, 0.202, 192.0, 0.0, 0.0, 0.0, 0.0, 0.0, 0.0, 0.0, 0.0, 0.0, 1.695327786191827E9, 0.0, 2023-09-21 15:23:06.191
158.0, 40556.48035484319, 35351.921361913846, 22257.73301812804, -2063.356585902761, -9903.05213964607, -4030.0195252918634, -187500.02235174447, -15874.074801692344, 23917.171229978947, 3781.758699626768, -10322.974362727924, 22470.83454976494, -7317.961134667532, -17812.105156434198, -2607.8897843229515, -15123.927906027784, 0.17200000000000001, 0.986, 0.202, 192.0, 0.0, 0.0, 0.0, 0.0, 0.0, 0.0, 0.0, 0.0, 0.0, 1.69532778619183E9, 0.0, 2023-09-21 15:23:06.191
160.0, 40573.55708760704, 35371.43443482333, 22266.092570554327, -2041.965966459032, -9879.918084134828, -4021.347048443204, -187500.02235174447, -15857.400400328685, 23900.20625593737, 3764.8384290741005, -10337.301830923776, 22598.015975715636, -7338.949422711065, -17826.410272885594, -2614.595307659544, -15139.976458546695, 0.17200000000000001, 0.986, 0.202, 192.0, 0.0, 0.0, 0.0, 0.0, 0.0, 0.0, 0.0, 0.0, 0.0, 1.695327786191834E9, 0.0, 2023-09-21 15:23:06.191
162.0, 40589.94091629278, 35390.96985947727, 22294.166361590193, -2018.8989661811552, -9864.316566505024, -3995.7543010418776, -187500.02235174447, -15837.999086141479, 23930.962256307874, 3798.1872318014184, -10304.958856696947, 22475.818988778472, -7303.611314727225, -17796.883618460135, -2585.0239497451726, -15104.727757540675, 0.16, 0.984, 0.202, 192.0, 2.5, 0.0, 15.0, 96.0, 3.0, 40.0, 0.0, 0.0, 0.0, 1.695327786191837E9, 0.0, 2023-09-21 15:23:06.191
164.0, 40580.46377664373, 35381.09038842802, 22273.06631482438, -2039.6860885245908, -9879.560456223542, -4005.8349377912214, -187500.02235174447, -15852.035981659412, 23931.20812549688, 3805.071569093653, -10302.94719969597, 22581.878016218903, -7302.739596693468, -17788.635824756126, -2576.753804296709, -15100.279760394069, 0.16, 0.984, 0.202, 192.0, 0.0, 0.0, 0.0, 0.0, 0.0, 0.0, 0.0, 0.0, 0.0, 1.695327786252304E9, 0.0, 2023-09-21 15:23:06.252
166.0, 40554.915732731315, 35353.798908448094, 22260.258765251492, -2058.8191817783336, -9904.706168735764, -4029.41602819157, -187500.02235174447, -15873.650118547694, 23908.521104874744, 3774.404975700972, -10327.33295289671, 22486.92780577276, -7324.867823704222, -17823.124566450664, -2607.8897843229515, -15123.70438858323, 0.16, 0.984, 0.202, 192.0, 0.0, 0.0, 0.0, 0.0, 0.0, 0.0, 0.0, 0.0, 0.0, 1.695327786252316E9, 0.0, 2023-09-21 15:23:06.252
168.0, 40555.049843198045, 35351.11669911345, 22258.31416348388, -2059.6014928342693, -9898.470032032732, -4027.6725921240563, -187500.02235174447, -15869.76091501247, 23890.639709310497, 3747.135847465497, -10347.114246739657, 22590.23756864519, -7339.239995388984, -17839.083711991752, -2614.930583826373, -15133.874432310395, 0.16, 0.984, 0.202, 192.0, 0.0, 0.0, 0.0, 0.0, 0.0, 0.0, 0.0, 0.0, 0.0, 1.69532778625232E9, 0.0, 2023-09-21 15:23:06.252
170.0, 40570.919581761314, 35368.01461792167, 22281.5599777174, -2036.5344925563925, -9889.864610417439, -4017.971935030453, -187500.02235174447, -15861.110789908265, 23913.416136910455, 3771.5439524106923, -10323.779025528316, 22481.07164872547, -7320.956268424544, -17822.744586794925, -2606.9286593113734, -15115.546001857043, 0.16, 0.984, 0.202, 192.0, 0.0, 0.0, 0.0, 0.0, 0.0, 0.0, 0.0, 0.0, 0.0, 1.695327786252323E9, 0.0, 2023-09-21 15:23:06.252
172.0, 40561.777718279096, 35365.533574287125, 22264.84087286483, -2047.5762543173141, -9904.236782102202, -4040.6813073970447, -187500.02235174447, -15882.747278541003, 23913.259674699268, 3776.886019335511, -10320.873298749126, 22576.75946673864, -7322.587945769781, -17820.82233677177, -2599.7090458523094, -15116.931810013273, 0.166, 0.98, 0.202, 192.0, 2.5, 24.0, 15.0, 80.0, 3.0, 40.0, 0.0, 0.0, 0.0, 1.695327786252326E9, 0.0, 2023-09-21 15:23:06.252
174.0, 40584.80001506806, 35391.685115299835, 22277.715477671085, -2035.3945535891717, -9886.087165604493, -4024.0739612667517, -187500.02235174447, -15866.452856833084, 23915.45014565589, 3788.6653886634576, -10316.581763813707, 22499.69065185674, -7324.30903009284, -17815.48026984695, -2608.1580052564154, -15122.09506298245, 0.166, 0.98, 0.202, 192.0, 0.0, 0.0, 0.0, 0.0, 0.0, 0.0, 0.0, 0.0, 0.0, 1.695327786252329E9, 0.0, 2023-09-21 15:23:06.252
176.0, 40561.062462456524, 35367.209955121274, 22251.899212825207, -2068.4080801496602, -9904.01326465765, -4042.491798697925, -187500.02235174447, -15886.949406498601, 23899.62511058153, 3779.300007736684, -10332.831482032714, 22561.202652597745, -7338.681201777602, -17824.71154030699, -2612.3377814695577, -15136.914269556317, 0.166, 0.98, 0.202, 192.0, 0.0, 0.0, 0.0, 0.0, 0.0, 0.0, 0.0, 0.0, 0.0, 1.695327786252332E9, 0.0, 2023-09-21 15:23:06.252
178.0, 40563.90113400235, 35365.46651905376, 22254.84964309331, -2068.7210045720344, -9893.843220930485, -4033.126417771151, -187500.02235174447, -15876.846418004801, 23900.07214547064, 3765.307815707662, -10338.106493724168, 22498.953044289716, -7331.819216229823, -17824.08569146224, -2632.6331654349765, -15152.180511019293, 0.166, 0.98, 0.202, 192.0, 0.0, 0.0, 0.0, 0.0, 0.0, 0.0, 0.0, 0.0, 0.0, 1.695327786252335E9, 0.0, 2023-09-21 15:23:06.252
180.0, 40561.97888397919, 35359.96798991776, 22263.477416453054, -2068.475135383026, -9891.272770318124, -4026.8232258347543, -187500.02235174447, -15874.253615647987, 23903.402555394478, 3756.6800423479135, -10339.022915246835, 22534.671131929295, -7327.393570827672, -17831.551174110315, -2620.8984995959404, -15147.643106894864, 0.166, 0.98, 0.202, 192.0, 0.0, 0.0, 0.0, 0.0, 0.0, 0.0, 0.0, 0.0, 0.0, 1.695327786311718E9, 0.0, 2023-09-21 15:23:06.311
182.0, 40568.10326195994, 35372.1496906459, 22261.957497830095, -2065.4352981371044, -9888.434098772299, -4032.098237526207, -187500.02235174447, -15876.980528471535, 23920.59104688061, 3770.336958210106, -10328.249374419376, 22497.83545706695, -7315.614201499725, -17819.74945303791, -2618.484511194767, -15139.75294110214, 0.164, 0.98, 0.202, 192.0, 2.5, 16.0, 15.0, 80.0, 3.0, 40.0, 0.0, 0.0, 0.0, 1.695327786311757E9, 0.0, 2023-09-21 15:23:06.311
184.0, 40587.012837769136, 35400.8046270376, 22273.51334971349, -2038.6355565351912, -9885.461316759744, -4023.5375193998243, -187500.02235174447, -15867.90572022268, 23907.87290428554, 3777.042481546698, -10331.199804687478, 22527.9656085927, -7327.818253972323, -17834.635714845146, -2620.2726507511916, -15144.983249304683, 0.164, 0.98, 0.202, 192.0, 0.0, 0.0, 0.0, 0.0, 0.0, 0.0, 0.0, 0.0, 0.0, 1.695327786311763E9, 0.0, 2023-09-21 15:23:06.311
186.0, 40585.738788335184, 35404.02327823917, 22264.97498333156, -2028.5325680413926, -9891.362177295945, -4023.6269263776458, -187500.02235174447, -15865.603490543783, 23917.595913123598, 3808.781958673234, -10314.860679490648, 22536.101643574435, -7315.390684055172, -17805.19846739751, -2608.783854101164, -15122.98913276066, 0.164, 0.98, 0.202, 192.0, 0.0, 0.0, 0.0, 0.0, 0.0, 0.0, 0.0, 0.0, 0.0, 1.695327786311768E9, 0.0, 2023-09-21 15:23:06.311
188.0, 40565.77868053659, 35376.62003953696, 22265.444369965124, -2044.6928792825795, -9902.67215999033, -4028.6337171356345, -187500.02235174447, -15874.052449947889, 23902.843761783097, 3784.329150239128, -10329.970458742435, 22536.41456799681, -7330.187538884586, -17814.295627390817, -2615.847005349041, -15126.61011536242, 0.164, 0.98, 0.202, 192.0, 0.0, 0.0, 0.0, 0.0, 0.0, 0.0, 0.0, 0.0, 0.0, 1.695327786311774E9, 0.0, 2023-09-21 15:23:06.311
190.0, 40570.785471294585, 35372.77553949065, 22270.898195612215, -2041.1389519141856, -9889.931665650805, -4016.3626094296706, -187500.02235174447, -15864.195330643099, 23914.332558433125, 3771.3204349661396, -10325.455406362464, 22558.721608963206, -7318.721093979013, -17813.915647735077, -2609.387351201457, -15122.743263571652, 0.164, 0.98, 0.202, 192.0, 0.0, 0.0, 0.0, 0.0, 0.0, 0.0, 0.0, 0.0, 0.0, 1.695327786311779E9, 0.0, 2023-09-21 15:23:06.311
192.0, 40572.1265759619, 35369.75805398918, 22287.55024523142, -2038.8143704908337, -9887.964712138739, -4021.1458827431065, -187500.02235174447, -15863.837702731813, 23921.82039282565, 3767.297120964184, -10320.113339437645, 22508.49723917213, -7317.871727689711, -17816.24022915843, -2598.524403396178, -15116.931810013273, 0.168, 0.978, 0.202, 192.0, 2.5, 32.0, 15.0, 72.0, 3.0, 40.0, 0.0, 0.0, 0.0, 1.695327786311803E9, 0.0, 2023-09-21 15:23:06.311
194.0, 40591.818462827025, 35397.273051413664, 22284.242187052034, -2021.3576580712388, -9868.608101440443, -4013.3004204392937, -187500.02235174447, -15848.504406035472, 23924.480250415832, 3773.9579408118657, -10315.732397524405, 22563.661344487828, -7313.244916587462, -17823.52689785086, -2598.0773685070717, -15112.617923333399, 0.168, 0.978, 0.202, 192.0, 0.0, 0.0, 0.0, 0.0, 0.0, 0.0, 0.0, 0.0, 0.0, 1.695327786371466E9, 0.0, 2023-09-21 15:23:06.371
196.0, 40578.0274364981, 35390.500472843705, 22280.17416956117, -2032.488826809982, -9887.160049338347, -4028.9466415580087, -187500.02235174447, -15867.57044405585, 23922.35683469258, 3792.2863712652174, -10313.631333545605, 22503.378689691865, -7312.328495064795, -17809.802926755303, -2591.818880059586, -15108.03581572006, 0.168, 0.978, 0.202, 192.0, 0.0, 0.0, 0.0, 0.0, 0.0, 0.0, 0.0, 0.0, 0.0, 1.695327786371494E9, 0.0, 2023-09-21 15:23:06.371
198.0, 40569.84669802746, 35382.878527984445, 22261.42105596317, -2042.8823879816996, -9891.406880784856, -4033.931080571542, -187500.02235174447, -15869.13506616772, 23903.223741438836, 3781.2893129932063, -10332.89853726608, 22593.098591935468, -7326.432445816094, -17825.247982173918, -2608.1803570008706, -15126.587763617965, 0.168, 0.978, 0.202, 192.0, 0.0, 0.0, 0.0, 0.0, 0.0, 0.0, 0.0, 0.0, 0.0, 1.695327786371498E9, 0.0, 2023-09-21 15:23:06.371
200.0, 40577.22277369771, 35384.26433614067, 22294.188713334646, -2032.287661109884, -9878.353462022957, -4016.6531821075896, -187500.02235174447, -15863.703592265081, 23915.427793911433, 3783.1668595274523, -10321.968534227435, 22500.182390234757, -7312.149681109153, -17817.33546463674, -2604.0452842766385, -15119.435205392267, 0.168, 0.978, 0.202, 192.0, 0.0, 0.0, 0.0, 0.0, 0.0, 0.0, 0.0, 0.0, 0.0, 1.695327786371501E9, 0.0, 2023-09-21 15:23:06.371
202.0, 40579.41324465433, 35378.408179093385, 22278.65425093821, -2042.7929810038784, -9873.056098587049, -4013.7474553284, -187500.02235174447, -15861.446066075096, 23924.189677737915, 3771.3427867105947, -10319.487490592897, 22590.192865156278, -7307.165242095619, -17818.743624537423, -2597.3397609400467, -15121.826842048984, 0.162, 0.984, 0.21, 192.0, 2.5, 8.0, 15.0, 96.0, 3.0, 72.0, 0.0, 0.0, 0.0, 1.695327786371505E9, 0.0, 2023-09-21 15:23:06.371
204.0, 40552.63585479687, 35350.870829924446, 22255.430788449146, -2070.1738679616296, -9901.264000089646, -4050.4266679795587, -187500.02235174447, -15888.648139077204, 23919.138183491013, 3759.0493272601757, -10327.847043019181, 22483.306823171, -7309.40041654115, -17826.924363008067, -2609.8343860905634, -15133.025066021093, 0.162, 0.984, 0.21, 192.0, 0.0, 0.0, 0.0, 0.0, 0.0, 0.0, 0.0, 0.0, 0.0, 1.695327786371508E9, 0.0, 2023-09-21 15:23:06.371
206.0, 40548.65724428383, 35355.36353055996, 22230.620352103753, -2079.9415802885987, -9904.10267163547, -4050.4713714684694, -187500.02235174447, -15886.792944287414, 23889.611529065554, 3742.1290567075084, -10356.85960732217, 22596.116077436935, -7344.939690225088, -17841.408293415105, -2637.5952527040545, -15158.23783376668, 0.162, 0.984, 0.21, 192.0, 0.0, 0.0, 0.0, 0.0, 0.0, 0.0, 0.0, 0.0, 0.0, 1.695327786371511E9, 0.0, 2023-09-21 15:23:06.371
208.0, 40530.32881383048, 35346.08755661101, 22221.5455438549, -2086.289475713906, -9925.739160268207, -4053.0194703363745, -187500.02235174447, -15903.377938673251, 23873.451217824368, 3747.180550954408, -10372.751697629894, 22484.849093538418, -7355.065030463342, -17853.947622054533, -2652.8614941670294, -15165.390391992378, 0.162, 0.984, 0.21, 192.0, 0.0, 0.0, 0.0, 0.0, 0.0, 0.0, 0.0, 0.0, 0.0, 1.695327786371514E9, 0.0, 2023-09-21 15:23:06.371
210.0, 40559.16256417782, 35376.038894181125, 22245.104282510794, -2054.6841090541016, -9892.412709285345, -4018.642487364112, -187500.02235174447, -15862.809522486868, 23879.91087197195, 3766.1795337414187, -10364.258034736877, 22593.56797856903, -7350.013536216443, -17832.512299121892, -2637.774066659697, -15150.168854018315, 0.162, 0.984, 0.21, 192.0, 0.0, 0.0, 0.0, 0.0, 0.0, 0.0, 0.0, 0.0, 0.0, 1.695327786431758E9, 0.0, 2023-09-21 15:23:06.431
212.0, 40560.95070373425, 35371.38973133442, 22266.427846721155, -2051.890140997188, -9889.842258672985, -4015.3791326736373, -187500.02235174447, -15866.229339388532, 23904.58719785061, 3778.629455403025, -10340.252261191878, 22474.947270744717, -7323.124387636708, -17813.62507505716, -2614.036514048161, -15127.012446762616, 0.162, 0.98, 0.20600000000000002, 192.0, 2.5, 8.0, 15.0, 80.0, 3.0, 56.0, 0.0, 0.0, 0.0, 1.695327786431767E9, 0.0, 2023-09-21 15:23:06.431
214.0, 40572.68536957328, 35377.04472268161, 22266.293736254425, -2043.8882164821885, -9873.681947431796, -4011.6240396051458, -187500.02235174447, -15850.180786869621, 23901.234436182312, 3759.0716790046313, -10346.488397894907, 22590.729307023204, -7331.528643551904, -17832.400540399616, -2615.779950115675, -15136.37782768939, 0.162, 0.98, 0.20600000000000002, 192.0, 0.0, 0.0, 0.0, 0.0, 0.0, 0.0, 0.0, 0.0, 0.0, 1.69532778643177E9, 0.0, 2023-09-21 15:23:06.431
216.0, 40562.06829095701, 35367.72404524375, 22269.579442689355, -2047.8891787396883, -9880.275712046112, -4022.1740629880505, -187500.02235174447, -15858.026249173434, 23925.597837638597, 3774.784955356712, -10323.913135995048, 22465.31366888448, -7306.785262439878, -17807.724214520957, -2598.300885951625, -15113.4672896227, 0.162, 0.98, 0.20600000000000002, 192.0, 0.0, 0.0, 0.0, 0.0, 0.0, 0.0, 0.0, 0.0, 0.0, 1.695327786431773E9, 0.0, 2023-09-21 15:23:06.431
218.0, 40556.18978216527, 35368.64046676642, 22258.4035704617, -2049.9902427184875, -9877.839371900483, -4028.3431444577154, -187500.02235174447, -15865.469380077051, 23898.35106114758, 3762.692661606391, -10348.053020006779, 22577.675888261307, -7324.711361493035, -17823.795118784325, -2603.464138920801, -15129.068807252504, 0.162, 0.98, 0.20600000000000002, 192.0, 0.0, 0.0, 0.0, 0.0, 0.0, 0.0, 0.0, 0.0, 0.0, 1.695327786431777E9, 0.0, 2023-09-21 15:23:06.431
220.0, 40539.180104634775, 35358.4480712948, 22249.12759651275, -2057.2769114109174, -9900.302875078069, -4037.8202841067655, -187500.02235174447, -15884.848342519803, 23886.88461624201, 3764.3466906960834, -10355.786723588315, 22496.851980310916, -7329.718152251024, -17833.652238089115, -2616.1152262825044, -15135.23788872217, 0.162, 0.98, 0.20600000000000002, 192.0, 0.0, 0.0, 0.0, 0.0, 0.0, 0.0, 0.0, 0.0, 0.0, 1.69532778643178E9, 0.0, 2023-09-21 15:23:06.431
222.0, 40538.71071800122, 35357.86692593896, 22245.908945311185, -2060.5402661013923, -9912.238706617201, -4046.0457260663184, -187500.02235174447, -15892.649101334704, 23879.553244060666, 3757.596463870581, -10365.017994048358, 22595.445525103274, -7347.286623392895, -17844.358723683206, -2625.23473802027, -15150.548833674055, 0.164, 0.982, 0.20600000000000002, 192.0, 2.5, 16.0, 15.0, 88.0, 3.0, 56.0, 0.0, 0.0, 0.0, 1.695327786431783E9, 0.0, 2023-09-21 15:23:06.431
224.0, 40555.65334029834, 35368.5957632775, 22261.331648985346, -2043.8211612488226, -9893.15031685237, -4032.8581968376875, -187500.02235174447, -15873.337194125319, 23892.114924444548, 3764.2349319738073, -10353.059810764767, 22525.93159984727, -7338.100056421764, -17828.600743842217, -2627.4252089768897, -15142.278688225591, 0.164, 0.982, 0.20600000000000002, 192.0, 0.0, 0.0, 0.0, 0.0, 0.0, 0.0, 0.0, 0.0, 0.0, 1.695327786492053E9, 0.0, 2023-09-21 15:23:06.492
226.0, 40551.25004664064, 35357.62105674995, 22257.800073361406, -2054.17001893163, -9893.977331397216, -4035.741571872422, -187500.02235174447, -15877.38285987173, 23898.418116380944, 3759.8986935494777, -10350.2434909634, 22572.22206261421, -7328.868785961722, -17835.37332241217, -2612.4048367029236, -15135.304943955534, 0.164, 0.982, 0.20600000000000002, 192.0, 0.0, 0.0, 0.0, 0.0, 0.0, 0.0, 0.0, 0.0, 0.0, 1.695327786492065E9, 0.0, 2023-09-21 15:23:06.492
228.0, 40556.234485654175, 35362.96312367477, 22262.806864119397, -2049.587911318292, -9876.05123234406, -4021.9505455434974, -187500.02235174447, -15861.915452708658, 23907.40351765198, 3765.084298263109, -10340.676944336528, 22507.46905892719, -7318.139948623175, -17821.112909449686, -2609.5214616681887, -15124.441996150255, 0.164, 0.982, 0.20600000000000002, 192.0, 0.0, 0.0, 0.0, 0.0, 0.0, 0.0, 0.0, 0.0, 0.0, 1.695327786492069E9, 0.0, 2023-09-21 15:23:06.492
230.0, 40546.69029077176, 35357.88927768341, 22254.514366926476, -2065.904684770666, -9883.04732835857, -4028.4101996910813, -187500.02235174447, -15866.631670788727, 23891.57848257762, 3752.9025975349664, -10357.351345700186, 22541.153137821333, -7329.293469106373, -17834.613363100692, -2611.913098324907, -15138.925926557295, 0.164, 0.982, 0.20600000000000002, 192.0, 0.0, 0.0, 0.0, 0.0, 0.0, 0.0, 0.0, 0.0, 0.0, 1.695327786492072E9, 0.0, 2023-09-21 15:23:06.492
232.0, 40556.83798275447, 35372.596725535004, 22246.98182904504, -2062.5072196134593, -9887.115345849437, -4021.101179254196, -187500.02235174447, -15869.313880123364, 23904.430735639424, 3770.0687372766424, -10347.717743839949, 22517.54969567653, -7314.831890443789, -17835.082749734254, -2615.936412326862, -15131.95218228724, 0.162, 0.98, 0.20600000000000002, 192.0, 2.5, 8.0, 15.0, 80.0, 3.0, 56.0, 0.0, 0.0, 0.0, 1.695327786492076E9, 0.0, 2023-09-21 15:23:06.492
234.0, 40556.14507867635, 35372.37320809045, 22245.819538333362, -2073.5936848632914, -9907.276619348124, -4032.612327648679, -187500.02235174447, -15888.871656521756, 23902.150857704983, 3769.8005163431785, -10353.1939212315, 22540.214364554213, -7336.043695931876, -17838.77078756938, -2633.169607301904, -15150.772351118607, 0.162, 0.98, 0.20600000000000002, 192.0, 0.0, 0.0, 0.0, 0.0, 0.0, 0.0, 0.0, 0.0, 0.0, 1.695327786492079E9, 0.0, 2023-09-21 15:23:06.492
236.0, 40560.63777931187, 35371.25562086768, 22244.567840643864, -2069.100984227775, -9897.263037832146, -4047.2750720113604, -187500.02235174447, -15883.306072152385, 23909.3928229085, 3774.0920512785974, -10344.38733391611, 22552.150196093346, -7329.6063935287475, -17830.38888339864, -2641.4397527503675, -15153.767484875618, 0.162, 0.98, 0.20600000000000002, 192.0, 0.0, 0.0, 0.0, 0.0, 0.0, 0.0, 0.0, 0.0, 0.0, 1.695327786492082E9, 0.0, 2023-09-21 15:23:06.492
238.0, 40555.9215612318, 35363.74543473071, 22257.88948033923, -2066.0834987263083, -9893.776165697118, -4044.749324887911, -187500.02235174447, -15877.248749404998, 23905.97300600684, 3760.6810046054134, -10346.108418239168, 22523.718777146194, -7328.332344094795, -17833.696941578026, -2629.6603834224206, -15152.918118586316, 0.162, 0.98, 0.20600000000000002, 192.0, 0.0, 0.0, 0.0, 0.0, 0.0, 0.0, 0.0, 0.0, 0.0, 1.695327786492085E9, 0.0, 2023-09-21 15:23:06.492
240.0, 40557.843811254956, 35370.07097841155, 22255.676657638152, -2055.2429026654845, -9879.448697501266, -4036.255661994894, -187500.02235174447, -15863.122446909243, 23903.24609318329, 3753.729612079813, -10345.706086838973, 22553.31248680502, -7324.689009748579, -17843.263488204895, -2617.0092960607167, -15140.736417858174, 0.162, 0.98, 0.20600000000000002, 192.0, 0.0, 0.0, 0.0, 0.0, 0.0, 0.0, 0.0, 0.0, 0.0, 1.695327786553187E9, 0.0, 2023-09-21 15:23:06.553
242.0, 40562.58238107948, 35378.22936513774, 22276.106152070304, -2046.3692601167274, -9876.833543399995, -4033.931080571542, -187500.02235174447, -15865.290566121408, 23908.96813976385, 3768.9287983094214, -10338.66528733555, 22502.88695131385, -7318.363466067728, -17825.91853450758, -2598.971438285284, -15126.632467106876, 0.166, 0.976, 0.20400000000000001, 192.0, 2.5, 24.0, 15.0, 64.0, 3.0, 48.0, 0.0, 0.0, 0.0, 1.695327786553202E9, 0.0, 2023-09-21 15:23:06.553
244.0, 40561.01775896761, 35379.21284189378, 22255.363733215778, -2047.352736872761, -9884.209619070247, -4033.9087288270866, -187500.02235174447, -15871.19142665761, 23906.889427529506, 3771.141621010497, -10340.364019914154, 22578.547606295062, -7322.8561667032445, -17830.746511309924, -2607.8227290895857, -15132.823900320996, 0.166, 0.976, 0.20400000000000001, 192.0, 0.0, 0.0, 0.0, 0.0, 0.0, 0.0, 0.0, 0.0, 0.0, 1.695327786553206E9, 0.0, 2023-09-21 15:23:06.553
