%OpenBCI Raw EXG Data
%Number of channels = 16
%Sample Rate = 125 Hz
%Board = OpenBCI_GUI$BoardCytonSerialDaisy
Sample Index, EXG Channel 0, EXG Channel 1, EXG Channel 2, EXG Channel 3, EXG Channel 4, EXG Channel 5, EXG Channel 6, EXG Channel 7, EXG Channel 8, EXG Channel 9, EXG Channel 10, EXG Channel 11, EXG Channel 12, EXG Channel 13, EXG Channel 14, EXG Channel 15, Accel Channel 0, Accel Channel 1, Accel Channel 2, Other, Other, Other, Other, Other, Other, Other, Analog Channel 0, Analog Channel 1, Analog Channel 2, Timestamp, Other, Timestamp (Formatted)
252.0, 40705.34297291553, 36445.92749427885, 23691.21744528025, -1393.0277696881021, -9082.251379758285, -3393.933581582735, -187500.02235174447, -15044.668620189264, 25941.188745640367, 4837.565700717652, -9129.748836725812, 20937.70604583097, -6386.608646703798, -16936.184994719624, -1198.232316760101, -14388.823734381645, 0.0, 0.0, 0.0, 192.0, 0.0, 0.0, 0.0, 0.0, 0.0, 0.0, 0.0, 0.0, 0.0, 1.695327646580623E9, 0.0, 2023-09-21 15:20:46.580
254.0, 40720.318641700585, 36460.679645619355, 23705.5449134761, -1373.1123653784234, -9067.566283651147, -3384.679959378238, -187500.02235174447, -15025.982561824629, 25940.339379351066, 4829.004982591269, -9121.746912210812, 20874.2270915779, -6379.411384989189, -16921.76811954595, -1188.4199009442211, -14384.286330257217, 0.0, 0.0, 0.0, 192.0, 0.0, 0.0, 0.0, 0.0, 0.0, 0.0, 0.0, 0.0, 0.0, 1.695327646580637E9, 0.0, 2023-09-21 15:20:46.580
0.0, 40724.788990591645, 36464.77001485467, 23710.998739123195, -1354.2474930581443, -9057.12801899052, -3372.587665627917, -187500.02235174447, -15022.83096585643, 25957.863147004027, 4843.913596142959, -9100.780975911734, 20794.96780573938, -6365.9556348270935, -16944.902175057196, -1174.718281593118, -14356.972498532832, 0.0, 0.0, 0.0, 192.0, 0.0, 0.0, 0.0, 0.0, 0.0, 0.0, 0.0, 0.0, 0.0, 1.695327646580641E9, 0.0, 2023-09-21 15:20:46.580
2.0, 40718.552853888614, 36460.97021829727, 23717.614855481967, -1353.7334029356723, -9065.644033627992, -3381.036625032023, -187500.02235174447, -15027.837756614419, 25940.585248540076, 4828.334430257611, -9113.94615339591, 20715.015615822747, -6395.54934448592, -16961.889500843226, -1177.691063605674, -14363.834484080611, -0.246, 0.968, -0.034, 192.0, 124.0, 40.0, 15.0, 32.0, 127.0, 120.0, 0.0, 0.0, 0.0, 1.695327646580645E9, 0.0, 2023-09-21 15:20:46.580
4.0, 40725.347784203026, 36471.14026202443, 23711.17755307884, -1355.8121151700159, -9058.402068424472, -3379.494354664607, -187500.02235174447, -15028.016570570062, 25947.938972465872, 4832.156578559468, -9103.597295713103, 20677.598795604565, -6374.046966319915, -16927.043131237406, -1166.9845780115818, -14360.45937066786, -0.246, 0.968, -0.034, 192.0, 0.0, 0.0, 0.0, 0.0, 0.0, 0.0, 0.0, 0.0, 0.0, 1.695327646580648E9, 0.0, 2023-09-21 15:20:46.580
6.0, 40715.17774047586, 36458.98091304075, 23713.16685833536, -1362.674100717795, -9067.096897017587, -3382.3330262104305, -187500.02235174447, -15025.624933913343, 25944.966190453317, 4825.942793600892, -9108.313513793173, 20581.93332933585, -6370.6495011627085, -16917.856564266272, -1170.3149879354226, -14370.115324272552, -0.246, 0.968, -0.034, 192.0, 0.0, 0.0, 0.0, 0.0, 0.0, 0.0, 0.0, 0.0, 0.0, 1.695327646580651E9, 0.0, 2023-09-21 15:20:46.580
8.0, 40710.796798562624, 36456.92455255086, 23696.291291271602, -1370.4748595326973, -9061.46425741485, -3379.807279086981, -187500.02235174447, -15029.089454303916, 25919.172277351892, 4799.388921187988, -9129.771188470268, 20592.282187018656, -6390.676664194663, -16972.908910859696, -1185.4471189316653, -14379.74892613279, -0.246, 0.968, -0.034, 192.0, 0.0, 0.0, 0.0, 0.0, 0.0, 0.0, 0.0, 0.0, 0.0, 1.695327646580654E9, 0.0, 2023-09-21 15:20:46.580
10.0, 40707.175815960865, 36455.11406124998, 23704.94141637581, -1378.4767840476973, -9069.17560925193, -3385.8198983454586, -187500.02235174447, -15034.230355528636, 25935.645513015454, 4809.916592826437, -9113.744987695813, 20496.10263062747, -6350.957614297583, -16954.960460062084, -1179.0321682729923, -14368.595405649592, -0.246, 0.968, -0.034, 192.0, 0.0, 0.0, 0.0, 0.0, 0.0, 0.0, 0.0, 0.0, 0.0, 1.695327646580658E9, 0.0, 2023-09-21 15:20:46.580
12.0, 40694.27885941015, 36444.00524425569, 23689.7422301462, -1380.711958493228, -9074.070641287643, -3385.998712301101, -187500.02235174447, -15036.890213118819, 25911.304463303622, 4793.622171118519, -9133.839205961134, 20533.027712467636, -6420.784463975962, -16958.603794408296, -1181.3343979518888, -14382.811115123168, -0.276, 0.964, -0.05, 192.0, 123.5, 48.0, 15.0, 16.0, 127.0, 56.0, 0.0, 0.0, 0.0, 1.695327646580661E9, 0.0, 2023-09-21 15:20:46.580
0.0, 20295.741593330098, 18157.573718735424, 11794.680272898708, -668.8983045695192, -4565.768488141119, -1671.3963951344963, -93750.01117587223, -7512.130738750785, 12956.143970029829, 2397.671627720789, -4569.85885737644, 10220.625724867074, -3196.29945710891, -8483.001110911502, -597.5068327792684, -7191.7855372173235, -0.17500000000000002, 0.963, 0.039, 192.0, 126.5, 88.0, 15.0, 8.0, 2.0, 0.0, 0.0, 0.0, 0.0, 1.695327646761874E9, 0.0, 2023-09-21 15:20:46.761
2.0, 40577.46864288672, 36301.8705012644, 23594.076763877485, -1344.256263286622, -9133.61568851658, -3341.406982112763, -187500.02235174447, -15018.919410576751, 25918.814649440606, 4631.169692417347, -9254.292756830782, 25371.77805564142, -6490.387796209789, -17026.97778069708, -1240.0524306359805, -14261.329384008573, -0.17500000000000002, 0.963, 0.039, 192.0, 0.0, 0.0, 0.0, 0.0, 0.0, 0.0, 0.0, 0.0, 0.0, 1.695327646761884E9, 0.0, 2023-09-21 15:20:46.761
4.0, 40552.79231700806, 36277.507099808114, 23576.10596133542, -1352.5934639684515, -9141.14822639802, -3357.5896450984055, -187500.02235174447, -15027.904811847784, 25903.593111466544, 4617.937459699805, -9266.988547681398, 25393.30278555188, -6496.936857335193, -17030.151728409735, -1248.970776673648, -14267.409058500418, -0.17500000000000002, 0.963, 0.039, 192.0, 0.0, 0.0, 0.0, 0.0, 0.0, 0.0, 0.0, 0.0, 0.0, 1.695327646761888E9, 0.0, 2023-09-21 15:20:46.761
6.0, 40515.84488342344, 36245.94643663722, 23564.57246119648, -1364.775164696594, -9156.705040538913, -3371.0453952605008, -187500.02235174447, -15036.934916607728, 25880.682573399852, 4601.307761825056, -9286.568675824246, 25363.820834615333, -6516.025247100026, -17041.014676215014, -1264.3934803478098, -14275.723907437792, -0.17500000000000002, 0.963, 0.039, 192.0, 0.0, 0.0, 0.0, 0.0, 0.0, 0.0, 0.0, 0.0, 0.0, 1.695327646761891E9, 0.0, 2023-09-21 15:20:46.761
8.0, 40504.44549375123, 36233.63062544235, 23562.627859428867, -1361.355347794932, -9144.09865666612, -3357.9249212652353, -187500.02235174447, -15029.312971748468, 25859.984858034237, 4581.951151126761, -9303.265428932362, 25391.06761110635, -6526.731732694117, -17051.296478664455, -1274.5411723305194, -14282.585892985571, 0.03, 0.9580000000000001, 0.20800000000000002, 192.0, 0.0, 120.0, 14.5, 120.0, 3.0, 64.0, 0.0, 0.0, 0.0, 1.695327646761894E9, 0.0, 2023-09-21 15:20:46.761
10.0, 40490.22978427765, 36221.583035180935, 23578.18467356976, -1355.2980250475437, -9139.360086841594, -3362.7976015564923, -187500.02235174447, -15038.700704419698, 25869.104369772, 4594.401072788367, -9290.346120637194, 25334.33888367878, -6514.438273243699, -17027.491870819555, -1255.877465710338, -14265.44210498835, 0.03, 0.9580000000000001, 0.20800000000000002, 192.0, 0.0, 0.0, 0.0, 0.0, 0.0, 0.0, 0.0, 0.0, 0.0, 1.695327646761897E9, 0.0, 2023-09-21 15:20:46.761
12.0, 40472.59425790242, 36211.45769494268, 23568.349906009425, -1346.4467342432422, -9134.777979228256, -3348.80540952747, -187500.02235174447, -15010.425747683734, 25857.01207602168, 4586.108575595448, -9301.03025448683, 25369.185253284606, -6520.160319824257, -17044.41214137222, -1262.5382855580194, -14267.811389900613, 0.03, 0.9580000000000001, 0.20800000000000002, 192.0, 0.0, 0.0, 0.0, 0.0, 0.0, 0.0, 0.0, 0.0, 0.0, 1.6953276467619E9, 0.0, 2023-09-21 15:20:46.761
14.0, 40456.45629840568, 36198.56073839196, 23568.774589154076, -1350.067716845002, -9144.031601432753, -3349.6324240723166, -187500.02235174447, -15024.283829246026, 25850.39595966291, 4584.789822672585, -9303.444242888003, 25320.59256083877, -6523.155453581268, -17037.75132152454, -1258.939654700715, -14252.63455541546, 0.03, 0.9580000000000001, 0.20800000000000002, 192.0, 0.0, 0.0, 0.0, 0.0, 0.0, 0.0, 0.0, 0.0, 0.0, 1.695327646761903E9, 0.0, 2023-09-21 15:20:46.761
16.0, 40454.08701349342, 36199.566566892456, 23568.05933333151, -1345.9326441207702, -9134.554461783704, -3341.451685601674, -187500.02235174447, -15016.930105320229, 25847.333770672532, 4581.14648832637, -9306.685245834024, 25359.529299679914, -6523.781302426017, -17032.208088899624, -1261.711271013173, -14253.998011827232, 0.03, 0.9580000000000001, 0.20800000000000002, 192.0, 0.0, 0.0, 0.0, 0.0, 0.0, 0.0, 0.0, 0.0, 0.0, 1.695327646822158E9, 0.0, 2023-09-21 15:20:46.822
18.0, 40428.82954225893, 36173.95146774667, 23552.122539534874, -1369.8266589434934, -9155.43099110496, -3359.578950354928, -187500.02235174447, -15044.020419600061, 25840.225915935745, 4578.665444691831, -9313.569583126258, 25309.662557800122, -6531.090322862902, -17036.320809879402, -1259.7890209900168, -14249.706476891814, 0.084, 0.9560000000000001, 0.258, 192.0, 1.0, 80.0, 14.5, 112.0, 4.0, 8.0, 0.0, 0.0, 0.0, 1.695327646822167E9, 0.0, 2023-09-21 15:20:46.822
20.0, 40437.85964701887, 36184.43443589621, 23546.489899932134, -1367.5691327535073, -9151.966470714387, -3353.968662496646, -187500.02235174447, -15031.659904916276, 25820.77989825963, 4558.95120608225, -9335.22842350345, 25358.009381056952, -6551.2068928726785, -17055.543310110967, -1280.0620532109801, -14273.533436481172, 0.084, 0.9560000000000001, 0.258, 192.0, 0.0, 0.0, 0.0, 0.0, 0.0, 0.0, 0.0, 0.0, 0.0, 1.695327646822171E9, 0.0, 2023-09-21 15:20:46.822
22.0, 40450.71190008067, 36196.86200581336, 23561.577327439467, -1351.9452633792478, -9146.57970030066, -3354.8180287859477, -187500.02235174447, -15035.16912879576, 25838.415424634866, 4580.073604592515, -9316.65412386109, 25293.301080858837, -6526.731732694117, -17043.495719849554, -1263.8570384808825, -14251.271099003685, 0.084, 0.9560000000000001, 0.258, 192.0, 0.0, 0.0, 0.0, 0.0, 0.0, 0.0, 0.0, 0.0, 0.0, 1.695327646822174E9, 0.0, 2023-09-21 15:20:46.822
24.0, 40445.19101920021, 36192.63752611131, 23542.93597256374, -1366.4068420418314, -9159.342546384638, -3362.5293806230284, -187500.02235174447, -15037.046675330004, 25826.01020646217, 4568.09306956447, -9327.852347833199, 25338.898639547664, -6547.9211864377485, -17054.917461266217, -1275.7034630421954, -14272.996994614245, 0.084, 0.9560000000000001, 0.258, 192.0, 0.0, 0.0, 0.0, 0.0, 0.0, 0.0, 0.0, 0.0, 0.0, 1.695327646822177E9, 0.0, 2023-09-21 15:20:46.822
26.0, 40455.29400769401, 36203.478122172135, 23551.89902209032, -1364.5292955075856, -9159.946043484932, -3352.9851857406125, -187500.02235174447, -15038.074855574949, 25841.678779325342, 4583.225200560713, -9313.837804059722, 25291.065906413307, -6534.644250231297, -17034.487966834065, -1266.1592681597792, -14258.446008973839, 0.084, 0.9560000000000001, 0.258, 192.0, 0.0, 0.0, 0.0, 0.0, 0.0, 0.0, 0.0, 0.0, 0.0, 1.69532764682218E9, 0.0, 2023-09-21 15:20:46.822
28.0, 40454.1987722157, 36202.427590182735, 23543.271248730573, -1375.191077612767, -9165.869255765589, -3370.710119093671, -187500.02235174447, -15050.614184214377, 25831.955770487282, 4571.445831232766, -9326.623001888156, 25336.81992731332, -6547.161227126268, -17056.95147001165, -1277.8939339988153, -14277.422640016395, 0.108, 0.9560000000000001, 0.28, 192.0, 1.5, 48.0, 14.5, 112.0, 4.0, 96.0, 0.0, 0.0, 0.0, 1.695327646822183E9, 0.0, 2023-09-21 15:20:46.822
30.0, 40458.33384493993, 36203.99221229461, 23540.969019051674, -1382.611856771929, -9170.987805245853, -3387.451575690696, -187500.02235174447, -15065.656908232799, 25829.944113486305, 4563.890941606873, -9330.42279844556, 25300.923025718097, -6550.335174838922, -17062.986441014582, -1289.7180068156729, -14291.928922167888, 0.108, 0.9560000000000001, 0.28, 192.0, 0.0, 0.0, 0.0, 0.0, 0.0, 0.0, 0.0, 0.0, 0.0, 1.695327646883778E9, 0.0, 2023-09-21 15:20:46.883
32.0, 40481.82552836246, 36229.60731144039, 23554.782397125055, -1366.2056763417336, -9159.320194640184, -3376.029834274034, -187500.02235174447, -15052.469379004167, 25845.143299715914, 4583.605180216454, -9314.396597671104, 25331.6790260886, -6543.719058480151, -17053.106969965338, -1279.8608875108823, -14291.928922167888, 0.108, 0.9560000000000001, 0.28, 192.0, 0.0, 0.0, 0.0, 0.0, 0.0, 0.0, 0.0, 0.0, 0.0, 1.695327646883788E9, 0.0, 2023-09-21 15:20:46.883
34.0, 40484.664199908286, 36233.384756253334, 23553.597754668925, -1366.898580419848, -9168.551465100225, -3378.7567470975814, -187500.02235174447, -15057.677335462253, 25854.285163198136, 4592.232953576202, -9305.768824311355, 25306.041575198364, -6539.002840400081, -17050.692981564163, -1274.0941374414133, -14279.724869695292, 0.108, 0.9560000000000001, 0.28, 192.0, 0.0, 0.0, 0.0, 0.0, 0.0, 0.0, 0.0, 0.0, 0.0, 1.695327646883792E9, 0.0, 2023-09-21 15:20:46.883
36.0, 40492.84493837893, 36243.84537265842, 23553.37423722437, -1367.703243220239, -9163.8128952757, -3376.521572652051, -187500.02235174447, -15063.287623320535, 25855.559212632088, 4591.361235542445, -9310.283876691326, 25331.924895277607, -6538.287584577512, -17051.43058913119, -1278.452727610198, -14283.658776719425, 0.108, 0.9560000000000001, 0.28, 192.0, 0.0, 0.0, 0.0, 0.0, 0.0, 0.0, 0.0, 0.0, 0.0, 1.695327646883795E9, 0.0, 2023-09-21 15:20:46.883
38.0, 40508.267642053084, 36256.809384442495, 23566.114731563895, -1355.5662459810073, -9157.688517294946, -3366.463287647163, -187500.02235174447, -15047.551995224, 25858.06260801108, 4596.6585989783525, -9305.567658611257, 25311.09306944526, -6539.561634011464, -17051.02825773099, -1280.4643846111758, -14279.836628417568, 0.12, 0.96, 0.294, 192.0, 1.5, 96.0, 15.0, 0.0, 4.5, 24.0, 0.0, 0.0, 0.0, 1.695327646883798E9, 0.0, 2023-09-21 15:20:46.883
40.0, 40513.60970897791, 36256.87643967586, 23567.120560064384, -1358.069641360002, -9163.231749919862, -3374.711081351171, -187500.02235174447, -15055.799788928009, 25872.434779695843, 4607.990933417193, -9296.582257340224, 25326.694587075068, -6529.972735640137, -17037.572507568897, -1271.9036664847931, -14267.25259628923, 0.12, 0.96, 0.294, 192.0, 0.0, 0.0, 0.0, 0.0, 0.0, 0.0, 0.0, 0.0, 0.0, 1.695327646883801E9, 0.0, 2023-09-21 15:20:46.883
42.0, 40523.82445619398, 36267.873497947876, 23569.132217065362, -1351.9229116347924, -9154.648680049024, -3367.71498533666, -187500.02235174447, -15041.718189921165, 25875.228747752757, 4601.0618926360485, -9296.872830018143, 25323.699453318055, -6528.2516513170785, -17033.862117989316, -1268.3497391163992, -14268.124314322988, 0.12, 0.96, 0.294, 192.0, 0.0, 0.0, 0.0, 0.0, 0.0, 0.0, 0.0, 0.0, 0.0, 1.695327646883804E9, 0.0, 2023-09-21 15:20:46.883
44.0, 40527.423087051284, 36270.08632064895, 23575.301298535025, -1352.6605192018176, -9145.886796222543, -3362.350566667386, -187500.02235174447, -15048.446065002212, 25880.727276888763, 4608.773244473129, -9293.095385205197, 25319.609084082735, -6520.942630880193, -17038.533632580475, -1262.0912506689133, -14265.509160221716, 0.12, 0.96, 0.294, 192.0, 0.0, 0.0, 0.0, 0.0, 0.0, 0.0, 0.0, 0.0, 0.0, 1.695327646883807E9, 0.0, 2023-09-21 15:20:46.883
46.0, 40519.30940381401, 36259.893925177326, 23556.458777959204, -1369.5584380100297, -9160.750706285324, -3374.264046462065, -187500.02235174447, -15054.16811158277, 25884.772942635173, 4608.10269213947, -9291.307245648772, 25324.459412629538, -6517.008723856059, -17035.873774990294, -1262.7618030025726, -14269.018384101199, 0.12, 0.96, 0.294, 192.0, 0.0, 0.0, 0.0, 0.0, 0.0, 0.0, 0.0, 0.0, 0.0, 1.695327646942677E9, 0.0, 2023-09-21 15:20:46.942
48.0, 40534.48623829916, 36275.78601548505, 23569.37808625437, -1363.769336196105, -9149.306613124207, -3369.0113865150674, -187500.02235174447, -15045.31682077847, 25876.256927997703, 4595.920991411328, -9302.12548996514, 25318.022110226408, -6530.0174391290475, -17047.295516406957, -1275.5022973420976, -14283.748183697247, 0.128, 0.964, 0.28800000000000003, 192.0, 2.0, 0.0, 15.0, 16.0, 4.5, 0.0, 0.0, 0.0, 0.0, 1.695327646942687E9, 0.0, 2023-09-21 15:20:46.942
50.0, 40528.9653574187, 36269.92985843776, 23552.6589814018, -1376.1074991354346, -9165.9139592545, -3373.392328428308, -187500.02235174447, -15064.941652410229, 25883.722410645772, 4603.4088258038555, -9294.88352476162, 25330.717901077023, -6521.9708111251375, -17034.733836023075, -1269.3332158724327, -14283.748183697247, 0.128, 0.964, 0.28800000000000003, 192.0, 0.0, 0.0, 0.0, 0.0, 0.0, 0.0, 0.0, 0.0, 0.0, 1.695327646942691E9, 0.0, 2023-09-21 15:20:46.942
52.0, 40541.1694098913, 36282.7150562662, 23564.57246119648, -1370.9442461662586, -9156.615633561092, -3373.4817354061292, -187500.02235174447, -15059.890158163329, 25881.06255305559, 4600.1231193689255, -9298.12452770764, 25309.595502566757, -6527.446988516687, -17043.60747857183, -1277.5363060875304, -14291.124259367498, 0.128, 0.964, 0.28800000000000003, 192.0, 0.0, 0.0, 0.0, 0.0, 0.0, 0.0, 0.0, 0.0, 0.0, 1.695327646942694E9, 0.0, 2023-09-21 15:20:46.942
54.0, 40541.281168613576, 36285.196099900735, 23551.38493196785, -1376.5321822800854, -9168.260892422306, -3380.5895901429167, -187500.02235174447, -15067.51210302259, 25887.052820569614, 4610.874308451928, -9292.22366717144, 25334.450642401058, -6525.725904193629, -17035.091463934357, -1277.9609892321814, -14289.40317504444, 0.128, 0.964, 0.28800000000000003, 192.0, 0.0, 0.0, 0.0, 0.0, 0.0, 0.0, 0.0, 0.0, 0.0, 1.695327646942697E9, 0.0, 2023-09-21 15:20:46.942
56.0, 40555.56393332052, 36301.4681698642, 23564.438350729746, -1361.0424233725576, -9170.920750012488, -3374.28639820652, -187500.02235174447, -15062.013573886583, 25880.6602216554, 4610.3378665850005, -9300.918495764554, 25316.166915436617, -6544.076686391436, -17041.95344948214, -1294.6353905958404, -14300.087308894075, 0.128, 0.964, 0.28800000000000003, 192.0, 0.0, 0.0, 0.0, 0.0, 0.0, 0.0, 0.0, 0.0, 0.0, 1.6953276469427E9, 0.0, 2023-09-21 15:20:46.942
58.0, 40549.84188673996, 36293.868576749395, 23560.973830339175, -1370.0278246435912, -9166.249235421328, -3383.808241344481, -187500.02235174447, -15069.054373390005, 25902.252006799223, 4632.935480229316, -9280.041966443297, 25339.85976455924, -6512.538374964997, -17023.89323996225, -1268.39444260531, -14279.88133190648, 0.13, 0.968, 0.294, 192.0, 2.0, 8.0, 15.0, 32.0, 4.5, 24.0, 0.0, 0.0, 0.0, 1.695327646942704E9, 0.0, 2023-09-21 15:20:46.942
60.0, 40539.78360173507, 36279.45170157572, 23551.42963545676, -1386.255191118144, -9178.497991382837, -3400.639104919327, -187500.02235174447, -15084.633539275354, 25878.112122787494, 4599.027883890615, -9305.813527800266, 25310.958958978532, -6536.3429828099, -17057.107932222836, -1287.9969224926142, -14308.938599698378, 0.13, 0.968, 0.294, 192.0, 0.0, 0.0, 0.0, 0.0, 0.0, 0.0, 0.0, 0.0, 0.0, 1.695327647003035E9, 0.0, 2023-09-21 15:20:47.003
62.0, 40567.83504102648, 36305.536187355065, 23561.376161739372, -1365.0433856300576, -9161.264796407795, -3375.3369301959196, -187500.02235174447, -15054.97277438316, 25885.465846713287, 4600.48074728021, -9298.146879452095, 25342.67608436061, -6530.19625308469, -17051.81056878693, -1290.813242293983, -14304.892933951967, 0.13, 0.968, 0.294, 192.0, 0.0, 0.0, 0.0, 0.0, 0.0, 0.0, 0.0, 0.0, 0.0, 1.695327647003047E9, 0.0, 2023-09-21 15:20:47.003
64.0, 40567.924448004305, 36304.82093153249, 23572.015592100095, -1366.4291937862868, -9169.400831389527, -3387.2057065016875, -187500.02235174447, -15061.477132019656, 25910.432745269867, 4628.018096449148, -9272.6882425175, 25285.835598210764, -6510.459662730654, -17029.145899909247, -1272.8871432408266, -14283.547017997149, 0.13, 0.968, 0.294, 192.0, 0.0, 0.0, 0.0, 0.0, 0.0, 0.0, 0.0, 0.0, 0.0, 1.69532764700305E9, 0.0, 2023-09-21 15:20:47.003
66.0, 40567.87974451539, 36304.75387629913, 23557.37519948187, -1371.6371502443733, -9177.112183226607, -3392.3913112153186, -187500.02235174447, -15071.267196091081, 25889.5115124597, 4612.260116608157, -9292.916571249554, 25346.721750107023, -6532.610241485863, -17039.98649597007, -1287.259314925589, -14302.59070427307, 0.13, 0.968, 0.294, 192.0, 0.0, 0.0, 0.0, 0.0, 0.0, 0.0, 0.0, 0.0, 0.0, 1.695327647003054E9, 0.0, 2023-09-21 15:20:47.003
68.0, 40560.90600024533, 36295.00851571662, 23557.039923315042, -1377.7168247362167, -9182.118973984596, -3405.3776747438524, -187500.02235174447, -15080.789039229041, 25899.458038742312, 4616.395189332389, -9285.205219412474, 25297.078525671786, -6530.062142617959, -17050.961202497627, -1284.1747741907566, -14300.243771105263, 0.128, 0.968, 0.29, 192.0, 2.0, 0.0, 15.0, 32.0, 4.5, 8.0, 0.0, 0.0, 0.0, 1.695327647003057E9, 0.0, 2023-09-21 15:20:47.003
70.0, 40564.92931424729, 36300.372934385894, 23554.402417469315, -1373.6488072453508, -9177.29099718225, -3393.777119371548, -187500.02235174447, -15067.243882089126, 25888.50568395921, 4603.431177548311, -9297.901010263087, 25347.280543718403, -6540.321593322944, -17056.23621418908, -1289.4721376266643, -14308.044529920166, 0.128, 0.968, 0.29, 192.0, 0.0, 0.0, 0.0, 0.0, 0.0, 0.0, 0.0, 0.0, 0.0, 1.69532764700306E9, 0.0, 2023-09-21 15:20:47.003
72.0, 40581.91664003333, 36316.734411327176, 23573.021420600584, -1362.6517489733399, -9164.282281909262, -3385.037587289523, -187500.02235174447, -15061.588890741932, 25903.727221933274, 4621.357276601467, -9282.433603100015, 25297.033822182875, -6523.669543703741, -17039.22653665859, -1275.0105589640807, -14293.605303002038, 0.128, 0.968, 0.29, 192.0, 0.0, 0.0, 0.0, 0.0, 0.0, 0.0, 0.0, 0.0, 0.0, 1.695327647003063E9, 0.0, 2023-09-21 15:20:47.003
74.0, 40574.8758405299, 36310.69944032424, 23562.80667338451, -1371.8159642000157, -9172.57477910218, -3393.8888780938246, -187500.02235174447, -15071.289547835535, 25908.823419669083, 4621.3125731125565, -9279.036137942809, 25339.8821163037, -6518.550994223475, -17040.969972726103, -1274.2058961636897, -14295.661663491925, 0.128, 0.968, 0.29, 192.0, 0.0, 0.0, 0.0, 0.0, 0.0, 0.0, 0.0, 0.0, 0.0, 1.695327647003066E9, 0.0, 2023-09-21 15:20:47.003
76.0, 40579.0779684875, 36316.019155504604, 23566.070028074984, -1367.7479467091498, -9173.692366324945, -3389.418529202763, -187500.02235174447, -15073.949405425717, 25908.152867335426, 4617.825700977529, -9281.293664132794, 25300.498342573446, -6521.791997169495, -17044.814472772418, -1283.1465939458126, -14299.662625749424, 0.128, 0.968, 0.29, 192.0, 0.0, 0.0, 0.0, 0.0, 0.0, 0.0, 0.0, 0.0, 0.0, 1.695327647062708E9, 0.0, 2023-09-21 15:20:47.062
78.0, 40582.542488878076, 36319.05899275053, 23563.298411762527, -1363.3670047959097, -9169.803162789722, -3390.0443780475116, -187500.02235174447, -15058.370239540369, 25906.051803356626, 4620.15028240088, -9283.014748455853, 25333.02013075592, -6522.842529158894, -17049.41893213021, -1282.677207312251, -14293.53824776867, 0.128, 0.97, 0.29, 192.0, 2.0, 0.0, 15.0, 40.0, 4.5, 8.0, 0.0, 0.0, 0.0, 1.695327647062718E9, 0.0, 2023-09-21 15:20:47.062
80.0, 40580.9778667662, 36316.89087353836, 23570.04863858803, -1366.6080077419292, -9166.137476699052, -3400.8402706194247, -187500.02235174447, -15076.184579871247, 25914.18783833836, 4627.079323182025, -9277.382108853115, 25302.01826119641, -6514.974715110626, -17036.298458134945, -1277.8939339988153, -14286.96683489881, 0.128, 0.97, 0.29, 192.0, 0.0, 0.0, 0.0, 0.0, 0.0, 0.0, 0.0, 0.0, 0.0, 1.695327647062721E9, 0.0, 2023-09-21 15:20:47.062
82.0, 40582.453081900254, 36317.69553633875, 23565.33242050796, -1366.3621385529207, -9168.998499989331, -3394.9841135721344, -187500.02235174447, -15065.612204743888, 25902.85550389952, 4617.602183532976, -9291.709577048967, 25330.516735376925, -6524.518909993042, -17049.865967019316, -1287.4828323701422, -14306.88223920849, 0.128, 0.97, 0.29, 192.0, 0.0, 0.0, 0.0, 0.0, 0.0, 0.0, 0.0, 0.0, 0.0, 1.695327647062725E9, 0.0, 2023-09-21 15:20:47.062
84.0, 40569.91375326082, 36305.35737339943, 23559.18569078275, -1374.6993392347504, -9174.675843080979, -3400.8849741083354, -187500.02235174447, -15071.982451913651, 25911.4162220259, 4626.29701212609, -9285.249922901383, 25300.297176873348, -6515.131177321813, -17031.22461214359, -1283.0124834790806, -14294.9240559249, 0.128, 0.97, 0.29, 192.0, 0.0, 0.0, 0.0, 0.0, 0.0, 0.0, 0.0, 0.0, 0.0, 1.695327647062728E9, 0.0, 2023-09-21 15:20:47.062
86.0, 40571.52307886161, 36307.65960307832, 23561.554975695013, -1366.6527112308397, -9175.502857625826, -3396.7275496396483, -187500.02235174447, -15063.68995472073, 25893.199550294823, 4610.851956707473, -9299.398577141594, 25330.494383632467, -6532.498482763587, -17061.51122588053, -1287.5275358590527, -14300.132012382986, 0.128, 0.97, 0.29, 192.0, 0.0, 0.0, 0.0, 0.0, 0.0, 0.0, 0.0, 0.0, 0.0, 1.695327647062731E9, 0.0, 2023-09-21 15:20:47.062
88.0, 40582.2295644557, 36322.881141052385, 23566.941746108743, -1356.7285366926833, -9165.62338657658, -3383.5400204110174, -187500.02235174447, -15060.65011747481, 25899.79331490914, 4624.777093503129, -9294.056510216775, 25311.00366246744, -6526.888194905305, -17043.160443682726, -1286.812280036483, -14294.789945458167, 0.126, 0.976, 0.28600000000000003, 192.0, 1.5, 120.0, 15.0, 64.0, 4.0, 120.0, 0.0, 0.0, 0.0, 1.695327647062734E9, 0.0, 2023-09-21 15:20:47.062
90.0, 40569.22084918271, 36312.2193589472, 23552.90485059081, -1372.0171299001133, -9174.653491336525, -3396.839308361925, -187500.02235174447, -15061.901815164307, 25897.714602674798, 4630.096808683492, -9297.11869920715, 25316.457488114534, -6523.62484021483, -17041.729932037586, -1279.3467973884103, -14293.91822742441, 0.126, 0.976, 0.28600000000000003, 192.0, 0.0, 0.0, 0.0, 0.0, 0.0, 0.0, 0.0, 0.0, 0.0, 1.69532764712211E9, 0.0, 2023-09-21 15:20:47.122
92.0, 40570.11491896092, 36308.71013506772, 23554.402417469315, -1367.0773943754905, -9165.265758665295, -3388.1444797688105, -187500.02235174447, -15055.442161016723, 25892.663108427896, 4621.692552768297, -9302.773690554344, 25305.05809844233, -6531.939689152204, -17039.76297852552, -1284.3759398908544, -14295.326387325096, 0.126, 0.976, 0.28600000000000003, 192.0, 0.0, 0.0, 0.0, 0.0, 0.0, 0.0, 0.0, 0.0, 0.0, 1.695327647122121E9, 0.0, 2023-09-21 15:20:47.122
94.0, 40569.95845674974, 36309.62655659039, 23552.346056979426, -1368.2620368316218, -9173.647662836036, -3388.233886746632, -187500.02235174447, -15054.011649371583, 25896.105277074013, 4619.77030274514, -9302.818394043255, 25301.504171073935, -6523.043694858992, -17032.409254599723, -1279.7938322775165, -14298.50033503775, 0.126, 0.976, 0.28600000000000003, 192.0, 0.0, 0.0, 0.0, 0.0, 0.0, 0.0, 0.0, 0.0, 0.0, 1.695327647122125E9, 0.0, 2023-09-21 15:20:47.122
96.0, 40580.575535366006, 36320.66831835131, 23563.387818740346, -1355.5438942365522, -9161.689479552446, -3373.839363317414, -187500.02235174447, -15037.158434052282, 25909.04693711364, 4628.040448193604, -9288.870905503143, 25300.610101295722, -6510.772587153028, -17036.36551336831, -1279.3467973884103, -14287.659738976925, 0.126, 0.976, 0.28600000000000003, 192.0, 0.0, 0.0, 0.0, 0.0, 0.0, 0.0, 0.0, 0.0, 0.0, 1.695327647122128E9, 0.0, 2023-09-21 15:20:47.122
98.0, 40572.01481723962, 36309.55950135702, 23558.157510537807, -1362.6293972288845, -9170.183142445463, -3378.3991191862965, -187500.02235174447, -15037.605468941389, 25911.013890625705, 4632.555500573576, -9288.781498525323, 25289.367173834704, -6506.615162684341, -17025.413158585212, -1275.390538619821, -14292.152439612442, 0.124, 0.972, 0.28800000000000003, 192.0, 1.5, 112.0, 15.0, 48.0, 4.5, 0.0, 0.0, 0.0, 0.0, 1.695327647122131E9, 0.0, 2023-09-21 15:20:47.122
100.0, 40565.08577645848, 36302.49635010915, 23547.406321454804, -1371.7042054777392, -9178.207418704918, -3380.81310758747, -187500.02235174447, -15029.000047326095, 25909.02458536918, 4627.571061560043, -9294.235324172418, 25310.847200256256, -6505.855203372861, -17028.050664430935, -1282.4536898676981, -14299.9755501718, 0.124, 0.972, 0.28800000000000003, 192.0, 0.0, 0.0, 0.0, 0.0, 0.0, 0.0, 0.0, 0.0, 0.0, 1.695327647122134E9, 0.0, 2023-09-21 15:20:47.122
102.0, 40572.1265759619, 36306.89964376684, 23555.989391325642, -1372.3747578113982, -9175.413450648004, -3377.8850290638247, -187500.02235174447, -15034.856204373385, 25907.54937023513, 4627.459302837766, -9295.442318373003, 25292.20584538053, -6509.856165630361, -17034.286801133967, -1288.6898265707287, -14313.297189867162, 0.124, 0.972, 0.28800000000000003, 192.0, 0.0, 0.0, 0.0, 0.0, 0.0, 0.0, 0.0, 0.0, 0.0, 1.695327647122138E9, 0.0, 2023-09-21 15:20:47.122
104.0, 40584.46473890123, 36320.936539284776, 23558.224565771172, -1362.5399902510633, -9166.271587165784, -3373.347624939397, -187500.02235174447, -15018.87470708784, 25926.32483557759, 4641.697364055796, -9276.510390819358, 25313.305892146338, -6489.359615964844, -17020.741643994053, -1280.3302741444438, -14306.949294441856, 0.124, 0.972, 0.28800000000000003, 192.0, 0.0, 0.0, 0.0, 0.0, 0.0, 0.0, 0.0, 0.0, 0.0, 1.695327647122141E9, 0.0, 2023-09-21 15:20:47.122
106.0, 40573.6241428404, 36312.66639383631, 23558.47043496018, -1364.1493158518454, -9171.211322690408, -3376.7003866076934, -187500.02235174447, -15025.200250768692, 25926.302483833133, 4644.044297223603, -9277.35975710866, 25285.366211577206, -6491.818307854928, -17017.478289303577, -1281.224343922656, -14305.474079307805, 0.124, 0.972, 0.28800000000000003, 192.0, 0.0, 0.0, 0.0, 0.0, 0.0, 0.0, 0.0, 0.0, 0.0, 1.69532764718245E9, 0.0, 2023-09-21 15:20:47.182
108.0, 40576.708683575234, 36316.309728182525, 23551.295524990026, -1358.0249378710912, -9168.350299400128, -3384.5458489115063, -187500.02235174447, -15029.111806048371, 25927.218905355803, 4643.753724545685, -9276.756260008367, 25326.67223533061, -6487.213848497135, -17029.302362120434, -1285.292361413522, -14306.859887464034, 0.116, 0.97, 0.29, 192.0, 1.5, 80.0, 15.0, 40.0, 4.5, 8.0, 0.0, 0.0, 0.0, 1.69532764718246E9, 0.0, 2023-09-21 15:20:47.182
110.0, 40567.65622707084, 36306.34085015546, 23550.490862189636, -1364.8198681855044, -9181.828401306677, -3391.877221092847, -187500.02235174447, -15031.726960149643, 25919.664015729908, 4639.663355310364, -9281.539533321802, 25281.991098164453, -6495.6181044123305, -17024.94377195165, -1294.8812597848487, -14311.330236355096, 0.116, 0.97, 0.29, 192.0, 0.0, 0.0, 0.0, 0.0, 0.0, 0.0, 0.0, 0.0, 0.0, 1.695327647182463E9, 0.0, 2023-09-21 15:20:47.182
112.0, 40583.32479993401, 36318.88017879488, 23555.69881864772, -1353.4651820022086, -9158.224959161873, -3378.801450586492, -187500.02235174447, -15005.486012159112, 25930.41520481291, 4646.525340858143, -9276.063355930251, 25325.91227601913, -6485.04572928497, -17019.489946304555, -1288.1086812148908, -14301.741337983769, 0.116, 0.97, 0.29, 192.0, 0.0, 0.0, 0.0, 0.0, 0.0, 0.0, 0.0, 0.0, 0.0, 1.695327647182466E9, 0.0, 2023-09-21 15:20:47.182
114.0, 40587.23635521369, 36320.19893171775, 23564.23718502965, -1350.0230133560913, -9157.710869039402, -3374.867543562358, -187500.02235174447, -14999.898076045285, 25933.365635081012, 4649.364012403967, -9270.654233772068, 25281.29819408634, -6477.312025703433, -17017.634751514765, -1279.4362043662316, -14293.046509390655, 0.116, 0.97, 0.29, 192.0, 0.0, 0.0, 0.0, 0.0, 0.0, 0.0, 0.0, 0.0, 0.0, 1.69532764718247E9, 0.0, 2023-09-21 15:20:47.182
116.0, 40579.14502372086, 36311.88408278037, 23546.46754818768, -1361.6235687283956, -9171.367784901595, -3390.893744336813, -187500.02235174447, -15019.142928021305, 25932.963303680815, 4650.1910269488135, -9268.687280260001, 25322.850087028753, -6476.864990814328, -17019.55700153792, -1288.6898265707287, -14297.807430959634, 0.116, 0.97, 0.29, 192.0, 0.0, 0.0, 0.0, 0.0, 0.0, 0.0, 0.0, 0.0, 0.0, 1.695327647182473E9, 0.0, 2023-09-21 15:20:47.182
118.0, 40569.19849743826, 36302.58575708696, 23547.04869354352, -1367.7255949646944, -9180.15202047253, -3388.8820873358354, -187500.02235174447, -15031.16816653826, 25919.015815140705, 4637.91991924285, -9279.438469343004, 25288.160179634117, -6496.623932912819, -17025.524917307488, -1305.4312831677537, -14312.760748000235, 0.116, 0.968, 0.29, 192.0, 1.5, 80.0, 15.0, 32.0, 4.5, 8.0, 0.0, 0.0, 0.0, 1.695327647182476E9, 0.0, 2023-09-21 15:20:47.182
120.0, 40568.99733173816, 36300.32823089698, 23539.42674868426, -1368.7984786985492, -9174.42997389197, -3404.5059567100952, -187500.02235174447, -15038.611297441877, 25912.08677435956, 4628.308669127067, -9284.288797889805, 25335.814098812833, -6502.100110304369, -17040.210013414624, -1307.5323471465526, -14314.88416372349, 0.116, 0.968, 0.29, 192.0, 0.0, 0.0, 0.0, 0.0, 0.0, 0.0, 0.0, 0.0, 0.0, 1.695327647242643E9, 0.0, 2023-09-21 15:20:47.242
122.0, 40579.54735512106, 36311.01236474662, 23558.358676237905, -1357.7567169376275, -9164.14817144253, -3390.8266891034473, -187500.02235174447, -15021.467509444656, 25913.785506938162, 4629.314497627556, -9280.019614698842, 25285.34385983275, -6495.707511390151, -17038.064245946916, -1303.6207918668738, -14312.179602644397, 0.116, 0.968, 0.29, 192.0, 0.0, 0.0, 0.0, 0.0, 0.0, 0.0, 0.0, 0.0, 0.0, 1.695327647242655E9, 0.0, 2023-09-21 15:20:47.242
124.0, 40590.65617211535, 36322.814085819016, 23565.57828969697, -1349.9559581227254, -9155.72156378288, -3385.2387529896205, -187500.02235174447, -15017.175974509237, 25927.80005071164, 4644.066648968059, -9267.748506992879, 25315.295197402862, -6478.563723392931, -17029.257658631523, -1285.582934091441, -14295.505201280737, 0.116, 0.968, 0.29, 192.0, 0.0, 0.0, 0.0, 0.0, 0.0, 0.0, 0.0, 0.0, 0.0, 1.695327647242658E9, 0.0, 2023-09-21 15:20:47.242
126.0, 40583.74948307866, 36319.70719333973, 23563.611336184902, -1357.712013448717, -9166.09277321014, -3392.6818838932377, -187500.02235174447, -15031.056407815982, 25933.991483925758, 4648.7828670481285, -9263.389916824093, 25268.9153276581, -6478.250798970556, -17019.042911415447, -1283.0571869679914, -14292.130087867987, 0.116, 0.968, 0.29, 192.0, 0.0, 0.0, 0.0, 0.0, 0.0, 0.0, 0.0, 0.0, 0.0, 1.695327647242661E9, 0.0, 2023-09-21 15:20:47.242
128.0, 40592.28784946059, 36324.93750154227, 23559.252746016115, -1357.6002547264404, -9163.164694686497, -3381.3048459654865, -187500.02235174447, -15024.283829246026, 25923.329701820578, 4644.066648968059, -9272.55413205077, 25309.036708955373, -6490.343092720877, -17022.574487039386, -1291.1708702052679, -14302.97068392881, 0.116, 0.964, 0.296, 192.0, 1.5, 80.0, 15.0, 16.0, 4.5, 32.0, 0.0, 0.0, 0.0, 1.695327647242664E9, 0.0, 2023-09-21 15:20:47.242
130.0, 40583.995352267666, 36312.24171069166, 23555.72117039218, -1363.0093768846248, -9172.23950293535, -3390.7596338700814, -187500.02235174447, -15031.749311894097, 25923.97790240978, 4639.149265187892, -9270.676585516523, 25274.30209807183, -6490.477203187609, -17033.236269144567, -1292.646085339318, -14294.432317546883, 0.116, 0.964, 0.296, 192.0, 0.0, 0.0, 0.0, 0.0, 0.0, 0.0, 0.0, 0.0, 0.0, 1.695327647242668E9, 0.0, 2023-09-21 15:20:47.242
132.0, 40579.03326499859, 36304.642117576856, 23546.51225167659, -1373.090013633968, -9176.553389615225, -3402.5613549424834, -187500.02235174447, -15048.379009768845, 25924.80491695463, 4633.471922096243, -9274.74460300739, 25301.99590945195, -6492.131232277302, -17034.4209116007, -1293.9201347732705, -14301.227247861296, 0.116, 0.964, 0.296, 192.0, 0.0, 0.0, 0.0, 0.0, 0.0, 0.0, 0.0, 0.0, 0.0, 1.695327647242671E9, 0.0, 2023-09-21 15:20:47.242
134.0, 40585.42586391281, 36309.02305949009, 23551.653152901312, -1364.0152053851134, -9166.964491243898, -3389.619694902861, -187500.02235174447, -15026.317837991457, 25911.349166792534, 4618.67506726683, -9288.915608992054, 25280.270013841393, -6504.536450449998, -17045.70854255063, -1303.7996058225162, -14311.576105544103, 0.116, 0.964, 0.296, 192.0, 0.0, 0.0, 0.0, 0.0, 0.0, 0.0, 0.0, 0.0, 0.0, 1.695327647242674E9, 0.0, 2023-09-21 15:20:47.242
136.0, 40586.65520985785, 36313.04637349205, 23555.363542480893, -1364.2387228296666, -9167.299767410728, -3391.7878141150254, -187500.02235174447, -15038.007800341584, 25926.123669877492, 4637.96462273176, -9271.749469250379, 25287.24375811145, -6488.309083975445, -17029.41412084271, -1282.5878003344299, -14292.107736123531, 0.116, 0.964, 0.296, 192.0, 0.0, 0.0, 0.0, 0.0, 0.0, 0.0, 0.0, 0.0, 0.0, 1.69532764730288E9, 0.0, 2023-09-21 15:20:47.302
138.0, 40600.58034665351, 36325.18337073128, 23562.27023151758, -1357.8237721709934, -9156.615633561092, -3383.6964826222043, -187500.02235174447, -15030.296448504503, 25925.922504177393, 4638.724582043241, -9273.7387745069, 25276.492569028447, -6486.923275819216, -17027.402463841732, -1290.455614382698, -14301.562524028126, 0.11800000000000001, 0.96, 0.296, 192.0, 1.5, 88.0, 15.0, 0.0, 4.5, 32.0, 0.0, 0.0, 0.0, 1.695327647302889E9, 0.0, 2023-09-21 15:20:47.302
140.0, 40591.349076193466, 36314.9239200263, 23559.65507741631, -1363.456411773731, -9164.57285458718, -3383.2270959886428, -187500.02235174447, -15031.25757351608, 25938.03714967217, 4651.107448471481, -9257.422001054527, 25274.972650405485, -6475.702700102652, -17017.254771859025, -1267.098041426902, -14282.943520896855, 0.11800000000000001, 0.96, 0.296, 192.0, 0.0, 0.0, 0.0, 0.0, 0.0, 0.0, 0.0, 0.0, 0.0, 1.695327647302893E9, 0.0, 2023-09-21 15:20:47.302
142.0, 40591.43848317128, 36314.58864385947, 23552.077836045963, -1367.9491124092476, -9169.378479645071, -3390.960799570179, -187500.02235174447, -15034.319762506459, 25920.021643641194, 4632.376686617933, -9275.6386727856, 25280.47117954149, -6495.439290456688, -17041.506414593034, -1295.2835911850443, -14302.0766141506, 0.11800000000000001, 0.96, 0.296, 192.0, 0.0, 0.0, 0.0, 0.0, 0.0, 0.0, 0.0, 0.0, 0.0, 1.695327647302897E9, 0.0, 2023-09-21 15:20:47.302
144.0, 40595.77472159561, 36318.3213851835, 23558.492786704635, -1369.8490106879487, -9166.785677288255, -3391.2066687591873, -187500.02235174447, -15051.418847014767, 25928.850582701038, 4637.96462273176, -9267.16736163704, 25273.7656562049, -6492.690025888685, -17030.84463248785, -1291.6849603277399, -14299.26029434923, 0.11800000000000001, 0.96, 0.296, 192.0, 0.0, 0.0, 0.0, 0.0, 0.0, 0.0, 0.0, 0.0, 0.0, 1.695327647302902E9, 0.0, 2023-09-21 15:20:47.302
146.0, 40577.96038126473, 36299.34475414095, 23544.03120804205, -1380.2425718596664, -9179.14619197204, -3406.897593366813, -187500.02235174447, -15050.256556303091, 25924.156716365425, 4631.437913350811, -9273.381146595615, 25277.94543241804, -6496.5568776794535, -17043.294554149456, -1291.617905094374, -14312.067843922121, 0.11800000000000001, 0.96, 0.296, 192.0, 0.0, 0.0, 0.0, 0.0, 0.0, 0.0, 0.0, 0.0, 0.0, 1.695327647302905E9, 0.0, 2023-09-21 15:20:47.302
148.0, 40571.903058517346, 36293.51094883811, 23546.489899932134, -1383.5729817835072, -9182.923636784988, -3407.478738722651, -187500.02235174447, -15050.79299817002, 25905.336547534054, 4611.120177640936, -9291.709577048967, 25271.530481759368, -6507.799805140473, -17060.348935168855, -1299.262201698089, -14314.235963134286, 0.11800000000000001, 0.962, 0.292, 192.0, 1.5, 88.0, 15.0, 8.0, 4.5, 16.0, 0.0, 0.0, 0.0, 1.695327647302908E9, 0.0, 2023-09-21 15:20:47.302
150.0, 40592.3325529495, 36317.82964680548, 23557.106978548407, -1363.2775978180885, -9153.396982359527, -3398.739206640626, -187500.02235174447, -15039.952402109195, 25913.18200983787, 4623.614802791453, -9284.69112929, 25285.81324646631, -6500.647246914774, -17043.786292527475, -1295.3506464184102, -14308.536268298181, 0.11800000000000001, 0.962, 0.292, 192.0, 0.0, 0.0, 0.0, 0.0, 0.0, 0.0, 0.0, 0.0, 0.0, 1.695327647363228E9, 0.0, 2023-09-21 15:20:47.363
152.0, 40581.693122588775, 36309.13481821237, 23552.882498846353, -1373.9840834121806, -9171.43484013496, -3409.5350992125395, -187500.02235174447, -15052.357620281891, 25922.949722164838, 4635.483579097221, -9270.810695983255, 25250.117510571185, -6490.007816554048, -17041.75228378204, -1277.513954343075, -14297.293340837163, 0.11800000000000001, 0.962, 0.292, 192.0, 0.0, 0.0, 0.0, 0.0, 0.0, 0.0, 0.0, 0.0, 0.0, 1.695327647363241E9, 0.0, 2023-09-21 15:20:47.363
154.0, 40602.25672748766, 36326.166847487315, 23553.955382580207, -1366.876228675393, -9164.550502842725, -3394.2688577495646, -187500.02235174447, -15044.243937044614, 25929.543486779152, 4632.309631384567, -9270.900102961077, 25282.72870573148, -6493.0923572888805, -17043.00398147154, -1287.393425392321, -14303.015387417721, 0.11800000000000001, 0.962, 0.292, 192.0, 0.0, 0.0, 0.0, 0.0, 0.0, 0.0, 0.0, 0.0, 0.0, 1.695327647363244E9, 0.0, 2023-09-21 15:20:47.363
156.0, 40598.59104139698, 36326.5244753986, 23560.593850683435, -1365.6915862192616, -9171.367784901595, -3399.119186296366, -187500.02235174447, -15054.615146471877, 25934.863201959517, 4642.390268133911, -9265.222759869428, 25242.294400011826, -6494.813441611939, -17035.158519167726, -1286.0076172360918, -14300.757861227736, 0.11800000000000001, 0.962, 0.292, 192.0, 0.0, 0.0, 0.0, 0.0, 0.0, 0.0, 0.0, 0.0, 0.0, 1.695327647363247E9, 0.0, 2023-09-21 15:20:47.363
158.0, 40589.53858489259, 36318.58960611696, 23548.07687378846, -1369.4019757988426, -9177.559218115714, -3401.734340397637, -187500.02235174447, -15050.971812125661, 25911.952663892826, 4635.237709908212, -9278.633806542612, 25289.90361570163, -6509.699703419174, -17038.13130118028, -1294.747149318117, -14307.39632933096, 0.122, 0.964, 0.296, 192.0, 1.5, 104.0, 15.0, 16.0, 4.5, 32.0, 0.0, 0.0, 0.0, 1.695327647363251E9, 0.0, 2023-09-21 15:20:47.363
160.0, 40596.24410822918, 36327.709117854734, 23557.084626803953, -1362.8305629289823, -9171.636005835058, -3393.128918782344, -187500.02235174447, -15052.424675515256, 25918.45702152932, 4641.227977422235, -9272.26355937285, 25249.692827426534, -6503.7764911385175, -17046.33439139538, -1293.808376050994, -14293.247675090752, 0.122, 0.964, 0.296, 192.0, 0.0, 0.0, 0.0, 0.0, 0.0, 0.0, 0.0, 0.0, 0.0, 1.695327647363254E9, 0.0, 2023-09-21 15:20:47.363
162.0, 40601.76498910964, 36335.532228414086, 23555.363542480893, -1358.1366965933678, -9164.930482498465, -3391.6537036482937, -187500.02235174447, -15064.114637865381, 25916.490068017254, 4649.319308915056, -9272.732946006412, 25288.67426975659, -6504.536450449998, -17029.83880398736, -1285.001788735603, -14292.644177990458, 0.122, 0.964, 0.296, 192.0, 0.0, 0.0, 0.0, 0.0, 0.0, 0.0, 0.0, 0.0, 0.0, 1.695327647363257E9, 0.0, 2023-09-21 15:20:47.363
164.0, 40602.81552109904, 36336.85098133695, 23568.752237409622, -1350.8500279009377, -9167.925616255478, -3376.5662761409612, -187500.02235174447, -15028.128329292338, 25918.300559318133, 4656.49421888521, -9267.077954659218, 25253.313810028292, -6500.267267259034, -17019.17702188218, -1276.4634223536757, -14281.11067785152, 0.122, 0.964, 0.296, 192.0, 0.0, 0.0, 0.0, 0.0, 0.0, 0.0, 0.0, 0.0, 0.0, 1.69532764736326E9, 0.0, 2023-09-21 15:20:47.363
166.0, 40600.40153269786, 36332.76061210163, 23548.881536588855, -1363.769336196105, -9175.52520937028, -3389.6643983917716, -187500.02235174447, -15051.68706794823, 25905.962396378804, 4643.932538501327, -9279.25965538736, 25310.310758389325, -6516.092302333392, -17039.114777936313, -1287.7510533036059, -14286.385689542973, 0.122, 0.964, 0.296, 192.0, 0.0, 0.0, 0.0, 0.0, 0.0, 0.0, 0.0, 0.0, 0.0, 1.695327647422158E9, 0.0, 2023-09-21 15:20:47.422
168.0, 40613.5890619265, 36344.85290585195, 23569.46749323219, -1352.392298268354, -9160.14720918503, -3379.9413895537127, -187500.02235174447, -15041.807596898985, 25925.40841405492, 4665.501971900699, -9264.105172646663, 25255.39252226264, -6499.373197480822, -17011.55507702292, -1279.6820735552399, -14279.143724339454, 0.12, 0.962, 0.304, 192.0, 1.5, 96.0, 15.0, 8.0, 4.5, 64.0, 0.0, 0.0, 0.0, 1.695327647422177E9, 0.0, 2023-09-21 15:20:47.422
170.0, 40612.1361985369, 36343.60120816246, 23567.075856575473, -1352.5934639684515, -9161.220092918884, -3378.890857564313, -187500.02235174447, -15039.304201519992, 25927.218905355803, 4663.155038732892, -9259.813637711244, 25299.112534417218, -6500.691950403685, -17024.98847544056, -1276.1728496757567, -14277.959081883322, 0.12, 0.962, 0.304, 192.0, 0.0, 0.0, 0.0, 0.0, 0.0, 0.0, 0.0, 0.0, 0.0, 1.695327647422181E9, 0.0, 2023-09-21 15:20:47.422
172.0, 40609.431637457805, 36342.19304826177, 23576.642403202346, -1353.7334029356723, -9159.09667719563, -3372.1629824832658, -187500.02235174447, -15030.4976142046, 25923.284998331666, 4660.5845881205305, -9261.221797611928, 25263.57326073328, -6503.66473241624, -17026.664856274707, -1275.904628742293, -14279.210779572819, 0.12, 0.962, 0.304, 192.0, 0.0, 0.0, 0.0, 0.0, 0.0, 0.0, 0.0, 0.0, 0.0, 1.695327647422184E9, 0.0, 2023-09-21 15:20:47.422
174.0, 40605.20715775575, 36337.40977494833, 23571.792074655543, -1359.8801326608816, -9160.549540585225, -3374.711081351171, -187500.02235174447, -15034.565631695466, 25922.457983786822, 4656.561274118576, -9263.680489502012, 25307.427383354592, -6505.072892316925, -17024.832013229374, -1267.5897798049189, -14279.791924928657, 0.12, 0.962, 0.304, 192.0, 0.0, 0.0, 0.0, 0.0, 0.0, 0.0, 0.0, 0.0, 0.0, 1.69532764742219E9, 0.0, 2023-09-21 15:20:47.422
176.0, 40611.71151539225, 36342.68478663979, 23577.156493324816, -1355.320376791999, -9152.726430025868, -3369.19020047071, -187500.02235174447, -15032.419864227757, 25924.022605898692, 4659.3999456644, -9261.892349945587, 25266.72485670148, -6498.859107358349, -17027.290705119456, -1272.7083292851842, -14282.943520896855, 0.12, 0.962, 0.304, 192.0, 0.0, 0.0, 0.0, 0.0, 0.0, 0.0, 0.0, 0.0, 0.0, 1.695327647422193E9, 0.0, 2023-09-21 15:20:47.422
178.0, 40618.595852684484, 36350.17262103232, 23576.195368313238, -1348.5701499664963, -9146.266775878285, -3372.1629824832658, -187500.02235174447, -15024.954381579684, 25934.103242648038, 4667.983015535237, -9255.365640564638, 25290.998851179942, -6491.818307854928, -17006.861210687304, -1266.4945443266088, -14281.177733084885, 0.116, 0.9580000000000001, 0.302, 192.0, 1.5, 80.0, 14.5, 120.0, 4.5, 56.0, 0.0, 0.0, 0.0, 1.695327647422197E9, 0.0, 2023-09-21 15:20:47.422
180.0, 40623.31207076455, 36353.81595537853, 23580.397496270838, -1345.4632574872087, -9133.570985027669, -3361.5682556114502, -187500.02235174447, -15031.63755317182, 25936.89721070495, 4670.419355680866, -9253.622204497124, 25261.069865354286, -6489.359615964844, -17017.634751514765, -1264.7064047701842, -14270.806523657624, 0.116, 0.9580000000000001, 0.302, 192.0, 0.0, 0.0, 0.0, 0.0, 0.0, 0.0, 0.0, 0.0, 0.0, 1.695327647482405E9, 0.0, 2023-09-21 15:20:47.482
182.0, 40599.75333210866, 36329.54196090007, 23557.263440759594, -1368.5079060206301, -9162.740011541846, -3381.707177365682, -187500.02235174447, -15045.674448689753, 25927.353015822533, 4659.243483453212, -9265.111001147152, 25286.282633099872, -6494.276999745011, -17022.64154227275, -1267.8132972494718, -14286.318634309608, 0.116, 0.9580000000000001, 0.302, 192.0, 0.0, 0.0, 0.0, 0.0, 0.0, 0.0, 0.0, 0.0, 0.0, 1.695327647482422E9, 0.0, 2023-09-21 15:20:47.482
184.0, 40615.600718927475, 36346.797507619565, 23565.55593795251, -1349.352461022432, -9150.088924180141, -3367.2455987030985, -187500.02235174447, -15027.144852536305, 25921.1168791195, 4654.706079328786, -9271.972986694931, 25274.257394582917, -6502.614200426841, -17035.337333123367, -1279.6373700663294, -14284.888122664468, 0.116, 0.9580000000000001, 0.302, 192.0, 0.0, 0.0, 0.0, 0.0, 0.0, 0.0, 0.0, 0.0, 0.0, 1.695327647482429E9, 0.0, 2023-09-21 15:20:47.482
186.0, 40607.66584964584, 36339.935522071784, 23562.113769306394, -1357.3990890263426, -9160.191912673941, -3386.4904506791177, -187500.02235174447, -15040.667657931765, 25924.916675676905, 4659.489352642221, -9263.188751123995, 25288.9201389456, -6500.714302148141, -17028.765920253507, -1265.0193291925584, -14278.093192350054, 0.116, 0.9580000000000001, 0.302, 192.0, 0.0, 0.0, 0.0, 0.0, 0.0, 0.0, 0.0, 0.0, 0.0, 1.695327647482434E9, 0.0, 2023-09-21 15:20:47.482
188.0, 40613.52200669313, 36347.40100471985, 23562.002010584118, -1358.9413593937588, -9155.743915527335, -3381.6177703878607, -187500.02235174447, -15038.767759653063, 25925.810745455117, 4661.769230576662, -9264.418097069038, 25282.259319097917, -6497.227430013112, -17028.832975486872, -1272.7977362630054, -14285.893951164957, 0.114, 0.9560000000000001, 0.304, 192.0, 1.5, 72.0, 14.5, 112.0, 4.5, 64.0, 0.0, 0.0, 0.0, 1.69532764748244E9, 0.0, 2023-09-21 15:20:47.482
190.0, 40605.251861244666, 36336.20278074775, 23557.509309948604, -1372.6876822337726, -9169.490238367349, -3395.0064653165896, -187500.02235174447, -15053.899890649307, 25925.631931499476, 4654.907245028883, -9266.943844192487, 25282.05815339782, -6499.529659692009, -17029.41412084271, -1274.6529310527958, -14290.297244822652, 0.114, 0.9560000000000001, 0.304, 192.0, 0.0, 0.0, 0.0, 0.0, 0.0, 0.0, 0.0, 0.0, 0.0, 1.695327647482451E9, 0.0, 2023-09-21 15:20:47.482
192.0, 40624.966099854246, 36358.50982171414, 23571.34503976644, -1347.2290452991779, -9149.396020102027, -3362.127049222833, -187500.02235174447, -15020.864012344362, 25928.537658278663, 4654.862541539972, -9265.714498247446, 25283.466313298504, -6499.574363180919, -17036.65608604623, -1280.7996607780053, -14289.716099466814, 0.114, 0.9560000000000001, 0.304, 192.0, 0.0, 0.0, 0.0, 0.0, 0.0, 0.0, 0.0, 0.0, 0.0, 1.695327647482462E9, 0.0, 2023-09-21 15:20:47.482
194.0, 40614.63959391589, 36347.75863263114, 23570.361563010403, -1351.6993941902392, -9162.248273163828, -3370.5760086269393, -187500.02235174447, -15035.102073562393, 25934.304408348133, 4667.11129750148, -9254.717439975433, 25271.79870269283, -6496.042787556981, -17022.060396916913, -1260.7054425126842, -14268.638404445459, 0.114, 0.9560000000000001, 0.304, 192.0, 0.0, 0.0, 0.0, 0.0, 0.0, 0.0, 0.0, 0.0, 0.0, 1.695327647482465E9, 0.0, 2023-09-21 15:20:47.482
196.0, 40614.2372625157, 36351.20080127726, 23563.633687929356, -1348.0113563551135, -9157.397944617027, -3367.6926335922044, -187500.02235174447, -15037.851338130396, 25923.55321926513, 4659.221131708758, -9266.720326747934, 25289.121304645694, -6503.217697527135, -17031.22461214359, -1270.942541473215, -14277.512046994216, 0.114, 0.9560000000000001, 0.304, 192.0, 0.0, 0.0, 0.0, 0.0, 0.0, 0.0, 0.0, 0.0, 0.0, 1.695327647542529E9, 0.0, 2023-09-21 15:20:47.542
198.0, 40608.29169849059, 36345.9257895858, 23566.561766453, -1347.832542399471, -9159.633119062557, -3374.3758051843415, -187500.02235174447, -15042.768721910565, 25923.352053565035, 4658.863503797473, -9267.636748270601, 25262.790949677343, -6503.150642293768, -17032.74453076655, -1263.8570384808825, -14275.992128371256, 0.11800000000000001, 0.9520000000000001, 0.304, 192.0, 1.5, 88.0, 14.5, 96.0, 4.5, 64.0, 0.0, 0.0, 0.0, 1.695327647542539E9, 0.0, 2023-09-21 15:20:47.542
200.0, 40615.06427706055, 36352.34074024448, 23571.121522321882, -1345.0162225981026, -9148.569005557181, -3363.6246161013387, -187500.02235174447, -15034.051541572993, 25926.548353022143, 4665.703137600796, -9260.93122493401, 25284.025106909885, -6501.921296348727, -17021.21103062761, -1257.5091430555754, -14267.073782333588, 0.11800000000000001, 0.9520000000000001, 0.304, 192.0, 0.0, 0.0, 0.0, 0.0, 0.0, 0.0, 0.0, 0.0, 0.0, 1.695327647542542E9, 0.0, 2023-09-21 15:20:47.542
202.0, 40619.60168118497, 36357.72751065821, 23574.89896713483, -1336.388449238354, -9148.591357301637, -3360.741241066604, -187500.02235174447, -15024.507346690578, 25924.08966113206, 4663.490314899721, -9265.222759869428, 25257.962972874997, -6505.631685928308, -17028.520051064497, -1262.1583059022792, -14272.102924836032, 0.11800000000000001, 0.9520000000000001, 0.304, 192.0, 0.0, 0.0, 0.0, 0.0, 0.0, 0.0, 0.0, 0.0, 0.0, 1.695327647542546E9, 0.0, 2023-09-21 15:20:47.542
204.0, 40615.734829394205, 36354.79943213456, 23568.886347876352, -1339.8976731178373, -9153.66520329299, -3367.133839980822, -187500.02235174447, -15034.140948550816, 25927.75534722273, 4670.978149292248, -9260.104210389163, 25279.778275463377, -6499.820232369928, -17019.467594560097, -1256.9056459552821, -14260.122389807986, 0.11800000000000001, 0.9520000000000001, 0.304, 192.0, 0.0, 0.0, 0.0, 0.0, 0.0, 0.0, 0.0, 0.0, 0.0, 1.695327647542549E9, 0.0, 2023-09-21 15:20:47.542
206.0, 40603.95546006626, 36345.612865163435, 23562.024362328575, -1351.4982284901416, -9169.177313944974, -3381.3048459654865, -187500.02235174447, -15046.188538812226, 25917.98763489576, 4667.78184983514, -9266.653271514568, 25253.582030961756, -6506.995142340082, -17023.84853647334, -1264.2817216255335, -14272.572311469594, 0.11800000000000001, 0.9520000000000001, 0.304, 192.0, 0.0, 0.0, 0.0, 0.0, 0.0, 0.0, 0.0, 0.0, 0.0, 1.695327647542552E9, 0.0, 2023-09-21 15:20:47.542
208.0, 40602.61435539894, 36344.763498874134, 23558.783359382556, -1353.4651820022086, -9163.477619108871, -3382.4671366771627, -187500.02235174447, -15041.986410854628, 25906.252969056724, 4653.744954317207, -9280.779574010323, 25298.643147783656, -6519.020380857037, -17038.578336069386, -1275.5917043199188, -14283.703480208336, 0.124, 0.9540000000000001, 0.302, 192.0, 1.5, 112.0, 14.5, 104.0, 4.5, 56.0, 0.0, 0.0, 0.0, 1.695327647542555E9, 0.0, 2023-09-21 15:20:47.542
210.0, 40599.149835008364, 36339.89081858288, 23558.492786704635, -1359.1648768383118, -9171.948930257431, -3383.00357854409, -187500.02235174447, -15054.212815071682, 25906.32002429009, 4654.527265373143, -9282.947693222486, 25257.38182751916, -6516.76285466705, -17034.689132534164, -1278.4080241212876, -14284.262273819719, 0.124, 0.9540000000000001, 0.302, 192.0, 0.0, 0.0, 0.0, 0.0, 0.0, 0.0, 0.0, 0.0, 0.0, 1.695327647602873E9, 0.0, 2023-09-21 15:20:47.602
212.0, 40610.348058980475, 36349.39030997638, 23554.581231424956, -1354.5827692249738, -9172.999462246831, -3377.0803662634335, -187500.02235174447, -15053.274041804558, 25919.596960496543, 4665.613730622975, -9271.6377105281, 25293.122266903196, -6510.102034819369, -17028.78827199796, -1275.9940357201142, -14280.283663306674, 0.124, 0.9540000000000001, 0.302, 192.0, 0.0, 0.0, 0.0, 0.0, 0.0, 0.0, 0.0, 0.0, 0.0, 1.695327647602896E9, 0.0, 2023-09-21 15:20:47.602
214.0, 40600.69210537578, 36341.053109294546, 23555.072969802975, -1363.8140396850158, -9172.708889568912, -3389.3738257138525, -187500.02235174447, -15055.620974972366, 25913.60669298252, 4655.756611318185, -9278.387937353604, 25245.021312835375, -6515.846433144383, -17038.555984324932, -1283.9512567462036, -14293.247675090752, 0.124, 0.9540000000000001, 0.302, 192.0, 0.0, 0.0, 0.0, 0.0, 0.0, 0.0, 0.0, 0.0, 0.0, 1.695327647602899E9, 0.0, 2023-09-21 15:20:47.602
216.0, 40612.04679155908, 36351.93840884428, 23557.19638552623, -1354.6945279472504, -9158.67199405098, -3369.4360696597187, -187500.02235174447, -15041.248803287603, 25913.65139647143, 4657.008309007681, -9278.432640842515, 25286.8190749668, -6515.131177321813, -17033.102158677837, -1276.7986985205052, -14284.441087775362, 0.124, 0.9540000000000001, 0.302, 192.0, 0.0, 0.0, 0.0, 0.0, 0.0, 0.0, 0.0, 0.0, 0.0, 1.695327647602902E9, 0.0, 2023-09-21 15:20:47.602
218.0, 40603.642535643885, 36341.74601337266, 23553.37423722437, -1363.3670047959097, -9175.793430303745, -3378.3320639529306, -187500.02235174447, -15054.436332516234, 25918.926408162883, 4660.964567776271, -9276.935073964009, 25233.934847585544, -6511.6443051867855, -17034.689132534164, -1280.419681122265, -14285.40221278694, 0.12, 0.964, 0.3, 192.0, 1.5, 96.0, 15.0, 16.0, 4.5, 48.0, 0.0, 0.0, 0.0, 1.695327647602906E9, 0.0, 2023-09-21 15:20:47.602
220.0, 40611.75621888116, 36350.10556579895, 23553.28483024655, -1360.997719883647, -9170.71958431239, -3387.451575690696, -187500.02235174447, -15057.677335462253, 25913.27141681569, 4656.673032840852, -9282.210085655463, 25278.57128126279, -6517.321648278434, -17037.684266291173, -1281.2466956671115, -14291.68305297888, 0.12, 0.964, 0.3, 192.0, 0.0, 0.0, 0.0, 0.0, 0.0, 0.0, 0.0, 0.0, 0.0, 1.695327647602909E9, 0.0, 2023-09-21 15:20:47.602
222.0, 40602.63670714339, 36341.43308895029, 23548.166280766283, -1371.6371502443733, -9184.421203663493, -3392.7042356376933, -187500.02235174447, -15065.969832655173, 25912.578512737575, 4656.337756674023, -9281.204257154974, 25232.66079815159, -6518.349828523377, -17037.438397102167, -1284.5994573354076, -14292.68888147937, 0.12, 0.964, 0.3, 192.0, 0.0, 0.0, 0.0, 0.0, 0.0, 0.0, 0.0, 0.0, 0.0, 1.695327647602912E9, 0.0, 2023-09-21 15:20:47.602
224.0, 40604.827178100015, 36343.712966884734, 23545.23820224264, -1371.927722922292, -9183.43772690746, -3394.581782171939, -187500.02235174447, -15066.193350099726, 25906.14121033445, 4651.867407782961, -9286.568675824246, 25270.256432325416, -6524.362447781855, -17041.595821570852, -1294.5459836180191, -14305.563486285626, 0.12, 0.964, 0.3, 192.0, 0.0, 0.0, 0.0, 0.0, 0.0, 0.0, 0.0, 0.0, 0.0, 1.695327647602915E9, 0.0, 2023-09-21 15:20:47.602
226.0, 40611.42094271433, 36350.507897199146, 23555.989391325642, -1360.1036501054348, -9184.331796685672, -3387.1162995238665, -187500.02235174447, -15057.587928484432, 25914.098431360537, 4655.0637072400705, -9278.298530375783, 25226.84934459321, -6519.24389830159, -17043.160443682726, -1290.5673731049744, -14292.666529734914, 0.12, 0.964, 0.3, 192.0, 0.0, 0.0, 0.0, 0.0, 0.0, 0.0, 0.0, 0.0, 0.0, 1.695327647662245E9, 0.0, 2023-09-21 15:20:47.662
228.0, 40602.301430976564, 36341.88012383939, 23545.28290573155, -1370.676025232795, -9188.556276387724, -3399.8344421189363, -187500.02235174447, -15073.859998447895, 25910.946835392337, 4651.889759527417, -9282.344196122194, 25256.778330418867, -6528.653982717274, -17045.46267336162, -1286.5440591030192, -14293.49354427976, 0.12, 0.96, 0.294, 192.0, 1.5, 96.0, 15.0, 0.0, 4.5, 24.0, 0.0, 0.0, 0.0, 1.695327647662258E9, 0.0, 2023-09-21 15:20:47.662
230.0, 40604.335439721995, 36343.780022118095, 23546.08756853194, -1373.7158624787169, -9193.272494467796, -3407.836366633936, -187500.02235174447, -15081.526646796066, 25906.968224879292, 4646.4359338803215, -9287.440393858004, 25235.09713829722, -6530.486825762609, -17053.933984510182, -1293.8977830288152, -14303.127146139997, 0.12, 0.96, 0.294, 192.0, 0.0, 0.0, 0.0, 0.0, 0.0, 0.0, 0.0, 0.0, 0.0, 1.695327647662261E9, 0.0, 2023-09-21 15:20:47.662
232.0, 40608.26934674613, 36347.75863263114, 23552.346056979426, -1369.1784583542894, -9188.086889754164, -3406.5623171999837, -187500.02235174447, -15069.74727746812, 25907.54937023513, 4643.530207101132, -9288.669739803045, 25257.04655135233, -6529.3692385398435, -17054.738647310573, -1294.389521406832, -14304.289436851674, 0.12, 0.96, 0.294, 192.0, 0.0, 0.0, 0.0, 0.0, 0.0, 0.0, 0.0, 0.0, 0.0, 1.695327647662264E9, 0.0, 2023-09-21 15:20:47.662
234.0, 40628.318861522544, 36366.377635762416, 23569.199272298727, -1346.4690859876976, -9165.891607510044, -3376.029834274034, -187500.02235174447, -15047.730809179642, 25923.642626242952, 4660.226960209246, -9270.49777156088, 25230.962065572985, -6512.225450542624, -17037.79602501345, -1279.1679834327679, -14280.887160406966, 0.12, 0.96, 0.294, 192.0, 0.0, 0.0, 0.0, 0.0, 0.0, 0.0, 0.0, 0.0, 0.0, 1.695327647662267E9, 0.0, 2023-09-21 15:20:47.662
236.0, 40604.536605422094, 36340.11433602743, 23550.490862189636, -1368.7314234651833, -9183.661244352013, -3399.2980002520085, -187500.02235174447, -15076.072821148971, 25920.17810585238, 4655.130762473436, -9277.225646641928, 25242.22734477846, -6515.354694766366, -17039.114777936313, -1281.291399156022, -14289.045547133155, 0.12, 0.96, 0.294, 192.0, 0.0, 0.0, 0.0, 0.0, 0.0, 0.0, 0.0, 0.0, 0.0, 1.695327647662271E9, 0.0, 2023-09-21 15:20:47.662
238.0, 40602.659058887846, 36339.75670811614, 23545.41701619828, -1370.385452554876, -9186.566971131202, -3395.4982036946067, -187500.02235174447, -15064.092286120927, 25904.286015544658, 4640.311555899568, -9292.424832871537, 25241.24386802243, -6528.363410039355, -17050.4247606307, -1293.7189690731727, -14297.561561770626, 0.12, 0.964, 0.292, 192.0, 1.5, 96.0, 15.0, 16.0, 4.5, 16.0, 0.0, 0.0, 0.0, 1.695327647662274E9, 0.0, 2023-09-21 15:20:47.662
240.0, 40606.05652404505, 36345.2775889966, 23551.496690690125, -1366.6527112308397, -9185.896418797543, -3388.7479768691037, -187500.02235174447, -15066.238053588637, 25905.582416723064, 4644.133704201425, -9291.039024715308, 25227.47519343796, -6530.173901340235, -17051.944679253662, -1296.356474918899, -14294.16409661342, 0.12, 0.964, 0.292, 192.0, 0.0, 0.0, 0.0, 0.0, 0.0, 0.0, 0.0, 0.0, 0.0, 1.695327647722107E9, 0.0, 2023-09-21 15:20:47.722
242.0, 40610.213948513745, 36349.54677218757, 23550.021475556074, -1365.6915862192616, -9174.944064014444, -3389.0832530359335, -187500.02235174447, -15064.136989609837, 25910.74566969224, 4647.240596680713, -9286.07693744623, 25227.028158548852, -6527.379933283321, -17050.335353652878, -1288.7792335485499, -14289.269064577707, 0.12, 0.964, 0.292, 192.0, 0.0, 0.0, 0.0, 0.0, 0.0, 0.0, 0.0, 0.0, 0.0, 1.695327647722119E9, 0.0, 2023-09-21 15:20:47.722
244.0, 40602.12261702092, 36343.98118781819, 23555.050618058518, -1369.8937141768592, -9185.874067053088, -3396.772253128559, -187500.02235174447, -15063.332326809446, 25913.003195882226, 4651.688593827319, -9283.528838578324, 25209.862018807176, -6522.663715203252, -17041.841690759862, -1281.1125852003795, -14284.105811608531, 0.12, 0.964, 0.292, 192.0, 0.0, 0.0, 0.0, 0.0, 0.0, 0.0, 0.0, 0.0, 0.0, 1.695327647722123E9, 0.0, 2023-09-21 15:20:47.722
246.0, 40606.2353380007, 36348.13861228688, 23549.417978455782, -1366.8315251864822, -9176.329872170672, -3389.1726600137545, -187500.02235174447, -15063.891120420829, 25905.247140556236, 4642.613785578464, -9291.128431693129, 25232.37022547367, -6532.610241485863, -17050.335353652878, -1290.2544486826002, -14293.985282657777, 0.12, 0.964, 0.292, 192.0, 0.0, 0.0, 0.0, 0.0, 0.0, 0.0, 0.0, 0.0, 0.0, 1.695327647722126E9, 0.0, 2023-09-21 15:20:47.722
248.0, 40598.30046871906, 36341.58955116148, 23554.067141302487, -1371.2348188441777, -9179.414412905504, -3397.375750228852, -187500.02235174447, -15069.702573979208, 25908.108163846515, 4644.804256535084, -9288.51327759186, 25201.70363208099, -6529.480997262121, -17045.932059995182, -1283.8618497683824, -14291.236018089774, 0.122, 0.962, 0.28400000000000003, 192.0, 1.5, 104.0, 15.0, 8.0, 4.0, 112.0, 0.0, 0.0, 0.0, 1.695327647722129E9, 0.0, 2023-09-21 15:20:47.722
250.0, 40601.474416431716, 36343.847077351464, 23548.6580191443, -1371.8606676889262, -9179.727337327879, -3397.487508951129, -187500.02235174447, -15068.942614667729, 25907.6164254685, 4644.692497812807, -9289.83203051472, 25226.268199237373, -6523.7365989371065, -17044.23332741658, -1283.2360009236338, -14291.571294256604, 0.122, 0.962, 0.28400000000000003, 192.0, 0.0, 0.0, 0.0, 0.0, 0.0, 0.0, 0.0, 0.0, 0.0, 1.695327647722132E9, 0.0, 2023-09-21 15:20:47.722
252.0, 40591.08085526, 36335.9792633032, 23545.349960964915, -1377.6274177583955, -9192.62429387859, -3408.573974200961, -187500.02235174447, -15076.609263015898, 25902.3637655215, 4638.434009365322, -9299.93501900852, 25198.932015768532, -6525.345924537889, -17053.84457753236, -1293.450748139709, -14298.768555971214, 0.122, 0.962, 0.28400000000000003, 192.0, 0.0, 0.0, 0.0, 0.0, 0.0, 0.0, 0.0, 0.0, 0.0, 1.695327647722135E9, 0.0, 2023-09-21 15:20:47.722
254.0, 40588.17512848081, 36332.38063244589, 23536.901001560807, -1376.0404439020688, -9182.186029217963, -3398.761558385081, -187500.02235174447, -15068.830855945453, 25894.160675306404, 4633.96366047426, -9308.138109223617, 25241.17681278906, -6543.786113713517, -17059.09723747936, -1294.2107074511896, -14298.701500737847, 0.122, 0.962, 0.28400000000000003, 192.0, 0.0, 0.0, 0.0, 0.0, 0.0, 0.0, 0.0, 0.0, 0.0, 1.695327647722139E9, 0.0, 2023-09-21 15:20:47.722
0.0, 40595.238279728685, 36339.309673227035, 23543.18184175275, -1373.5370485230744, -9189.96443628841, -3394.514726938573, -187500.02235174447, -15068.339117567435, 25900.709736431807, 4640.244500666202, -9301.387882398116, 25198.328518668237, -6533.750180453084, -17051.40823738673, -1286.454652125198, -14287.995015143755, 0.122, 0.962, 0.28400000000000003, 192.0, 0.0, 0.0, 0.0, 0.0, 0.0, 0.0, 0.0, 0.0, 0.0, 1.695327647783934E9, 0.0, 2023-09-21 15:20:47.783
2.0, 40603.0837420325, 36344.47292619621, 23538.018588783576, -1369.8937141768592, -9188.82449732119, -3395.319389738964, -187500.02235174447, -15077.548036283022, 25904.68834694485, 4642.2114541782685, -9302.684283576524, 25239.27691451036, -6537.661735732763, -17047.787254784973, -1292.8472510394158, -14294.25350359124, 0.126, 0.96, 0.28400000000000003, 192.0, 1.5, 120.0, 15.0, 0.0, 4.0, 112.0, 0.0, 0.0, 0.0, 1.695327647783948E9, 0.0, 2023-09-21 15:20:47.783
4.0, 40592.48901516068, 36333.60997839093, 23545.99816155412, -1379.0802811479905, -9189.271532210294, -3406.4058549887964, -187500.02235174447, -15083.94063519724, 25911.550332492632, 4644.49133211271, -9296.291684662305, 25184.336326639215, -6528.206947828168, -17046.915536751218, -1289.382730648843, -14294.812297202623, 0.126, 0.96, 0.28400000000000003, 192.0, 0.0, 0.0, 0.0, 0.0, 0.0, 0.0, 0.0, 0.0, 0.0, 1.695327647783951E9, 0.0, 2023-09-21 15:20:47.783
6.0, 40588.9797912812, 36331.33010045649, 23537.951533550207, -1380.2649236041218, -9188.221000220896, -3411.9490876137124, -187500.02235174447, -15076.676318249265, 25893.713640417296, 4623.503044069176, -9315.13420523813, 25224.32359746976, -6540.299241578489, -17066.294499193966, -1301.0056377656028, -14307.955122942343, 0.126, 0.96, 0.28400000000000003, 192.0, 0.0, 0.0, 0.0, 0.0, 0.0, 0.0, 0.0, 0.0, 0.0, 1.695327647783954E9, 0.0, 2023-09-21 15:20:47.783
8.0, 40596.55703265155, 36340.89664708336, 23553.016609313087, -1372.352406066943, -9180.57670361718, -3395.542907183517, -187500.02235174447, -15070.954271668706, 25903.66016669991, 4638.501064598688, -9300.426757386536, 25174.859186990165, -6531.582061240919, -17049.821263530404, -1288.7568818040945, -14290.945445411855, 0.126, 0.96, 0.28400000000000003, 192.0, 0.0, 0.0, 0.0, 0.0, 0.0, 0.0, 0.0, 0.0, 0.0, 1.695327647783957E9, 0.0, 2023-09-21 15:20:47.783
10.0, 40605.98946881169, 36352.13957454438, 23558.895118104832, -1362.8529146734375, -9168.90909301151, -3391.027854803545, -187500.02235174447, -15061.253614575102, 25910.32098654759, 4649.5428263596095, -9291.59781832669, 25218.98153054494, -6527.357581538866, -17038.198356413646, -1276.2622566535779, -14283.34585229705, 0.126, 0.96, 0.28400000000000003, 192.0, 0.0, 0.0, 0.0, 0.0, 0.0, 0.0, 0.0, 0.0, 0.0, 1.69532764778396E9, 0.0, 2023-09-21 15:20:47.783
12.0, 40595.037114028586, 36340.784888361086, 23557.978696582162, -1373.7158624787169, -9179.325005927683, -3396.2134595171765, -187500.02235174447, -15067.445047789222, 25913.36082379351, 4650.123971715448, -9287.440393858004, 25171.68523927751, -6522.775473925528, -17045.261507661522, -1274.8540967528936, -14282.988224385766, 0.126, 0.96, 0.28200000000000003, 192.0, 1.5, 120.0, 15.0, 0.0, 4.0, 104.0, 0.0, 0.0, 0.0, 1.695327647783964E9, 0.0, 2023-09-21 15:20:47.783
14.0, 40584.04005575658, 36327.61971087691, 23539.22558298416, -1381.874249204904, -9192.154907245029, -3403.231907276143, -187500.02235174447, -15077.592739771932, 25890.897320615928, 4627.258137137668, -9309.434510402025, 25224.211838747484, -6545.0378114030145, -17060.505397380042, -1288.8462887819157, -14300.936675183377, 0.126, 0.96, 0.28200000000000003, 192.0, 0.0, 0.0, 0.0, 0.0, 0.0, 0.0, 0.0, 0.0, 0.0, 1.695327647842757E9, 0.0, 2023-09-21 15:20:47.842
16.0, 40590.298544204066, 36335.3757662029, 23546.981638310153, -1372.4418130447643, -9187.081061253675, -3400.0132560745787, -187500.02235174447, -15077.302167094012, 25892.618404938985, 4630.387381361411, -9306.372321411649, 25185.140989439606, -6541.908567179271, -17061.578281113896, -1293.7860243065388, -14297.986244915277, 0.126, 0.96, 0.28200000000000003, 192.0, 0.0, 0.0, 0.0, 0.0, 0.0, 0.0, 0.0, 0.0, 0.0, 1.695327647842768E9, 0.0, 2023-09-21 15:20:47.842
18.0, 40583.03422725609, 36329.54196090007, 23541.684274874246, -1379.907295692837, -9189.852677566132, -3416.1288638268547, -187500.02235174447, -15089.036832933049, 25891.56787294959, 4630.767361017151, -9306.551135367292, 25218.310978211284, -6544.501369536087, -17063.880510792795, -1292.8919545283263, -14302.836573462078, 0.126, 0.96, 0.28200000000000003, 192.0, 0.0, 0.0, 0.0, 0.0, 0.0, 0.0, 0.0, 0.0, 0.0, 1.695327647842772E9, 0.0, 2023-09-21 15:20:47.842
20.0, 40600.1333117644, 36348.29507449807, 23554.51417619159, -1362.0259001285913, -9180.755517572823, -3393.7324158826373, -187500.02235174447, -15058.481998262645, 25894.495951473233, 4636.243538408701, -9301.074957975741, 25181.140027182108, -6537.929956666227, -17054.09044672137, -1284.8900300133264, -14293.49354427976, 0.126, 0.96, 0.28200000000000003, 192.0, 0.0, 0.0, 0.0, 0.0, 0.0, 0.0, 0.0, 0.0, 0.0, 1.695327647842775E9, 0.0, 2023-09-21 15:20:47.842
22.0, 40595.43944542878, 36340.67312963881, 23550.736731378645, -1367.4126705423203, -9186.276398453283, -3399.029779318545, -187500.02235174447, -15066.573329755465, 25902.743745177242, 4640.53507334412, -9298.37039689665, 25208.52091413986, -6537.393514799299, -17051.542347853465, -1283.2807044125443, -14285.290454064663, 0.128, 0.96, 0.29, 192.0, 2.0, 0.0, 15.0, 0.0, 4.5, 8.0, 0.0, 0.0, 0.0, 1.695327647842778E9, 0.0, 2023-09-21 15:20:47.842
24.0, 40606.83883510099, 36351.1784495328, 23558.716304149188, -1360.6624437168175, -9179.615578605602, -3397.6216194178605, -187500.02235174447, -15070.864864690884, 25905.18008532287, 4639.931576243827, -9294.928228250532, 25188.002012729885, -6534.398381042288, -17042.46753960461, -1283.906553257293, -14291.459535534328, 0.128, 0.96, 0.29, 192.0, 0.0, 0.0, 0.0, 0.0, 0.0, 0.0, 0.0, 0.0, 0.0, 1.695327647842781E9, 0.0, 2023-09-21 15:20:47.842
26.0, 40605.318916478034, 36345.79167911907, 23559.029228571562, -1361.8917896618593, -9181.671939095491, -3400.7955671305144, -187500.02235174447, -15071.960100169195, 25914.836038927562, 4643.3960966344, -9286.389861868603, 25206.688071094522, -6527.111712349858, -17055.006868244036, -1282.2078206786896, -14288.822029688601, 0.128, 0.96, 0.29, 192.0, 0.0, 0.0, 0.0, 0.0, 0.0, 0.0, 0.0, 0.0, 0.0, 1.695327647842785E9, 0.0, 2023-09-21 15:20:47.842
28.0, 40601.966154809736, 36343.10946978444, 23561.264403017092, -1360.7742024390939, -9179.749689072334, -3390.9160960812687, -187500.02235174447, -15068.182655356248, 25911.03624237016, 4639.797465777096, -9289.40734737007, 25194.12639071064, -6535.67243047624, -17050.04478097496, -1281.5596200894856, -14288.106773866031, 0.128, 0.96, 0.29, 192.0, 0.0, 0.0, 0.0, 0.0, 0.0, 0.0, 0.0, 0.0, 0.0, 1.695327647842788E9, 0.0, 2023-09-21 15:20:47.842
30.0, 40603.79899785507, 36343.578856418, 23569.780417654565, -1357.7343651931722, -9171.501895368327, -3393.285380993531, -187500.02235174447, -15055.88919590583, 25910.946835392337, 4634.991840719204, -9289.876734003632, 25197.568559356758, -6528.609279228363, -17050.871795519804, -1277.5363060875304, -14286.229227331785, 0.128, 0.96, 0.29, 192.0, 0.0, 0.0, 0.0, 0.0, 0.0, 0.0, 0.0, 0.0, 0.0, 1.69532764790306E9, 0.0, 2023-09-21 15:20:47.903
32.0, 40604.51425367764, 36347.02102506412, 23570.94270836624, -1357.5108477486192, -9165.131648198563, -3390.4020059587965, -187500.02235174447, -15058.616108729377, 25913.852562171527, 4635.2824133971235, -9289.161478181062, 25197.41209714557, -6526.731732694117, -17049.016600730014, -1273.4906403411198, -14282.362375541017, 0.124, 0.9560000000000001, 0.28200000000000003, 192.0, 1.5, 112.0, 14.5, 112.0, 4.0, 104.0, 0.0, 0.0, 0.0, 1.695327647903073E9, 0.0, 2023-09-21 15:20:47.903
34.0, 40602.34613446547, 36343.98118781819, 23570.13804556585, -1364.4398885297644, -9176.687500081956, -3401.8013956310033, -187500.02235174447, -15068.942614667729, 25916.445364528343, 4639.372782632445, -9288.893257247599, 25186.392687129104, -6520.517947735542, -17047.429626873687, -1270.58491356193, -14282.138858096465, 0.124, 0.9560000000000001, 0.28200000000000003, 192.0, 0.0, 0.0, 0.0, 0.0, 0.0, 0.0, 0.0, 0.0, 0.0, 1.695327647903076E9, 0.0, 2023-09-21 15:20:47.903
36.0, 40602.860224587945, 36346.81985936402, 23564.594812940933, -1368.642016487362, -9183.080098996175, -3400.2367735191315, -187500.02235174447, -15069.859036190395, 25917.071213373092, 4641.20562567778, -9287.842725258199, 25198.194408201507, -6526.038828616003, -17046.110873950824, -1279.100928199402, -14288.665567477414, 0.124, 0.9560000000000001, 0.28200000000000003, 192.0, 0.0, 0.0, 0.0, 0.0, 0.0, 0.0, 0.0, 0.0, 0.0, 1.69532764790308E9, 0.0, 2023-09-21 15:20:47.903
38.0, 40617.12063755043, 36363.29309502758, 23568.774589154076, -1357.3096820485214, -9176.15105821503, -3389.4408809472184, -187500.02235174447, -15061.097152363916, 25917.83117268457, 4645.273643168645, -9288.401518869581, 25178.860149247666, -6521.8590524028605, -17037.974838969094, -1285.135899202335, -14297.807430959634, 0.124, 0.9560000000000001, 0.28200000000000003, 192.0, 0.0, 0.0, 0.0, 0.0, 0.0, 0.0, 0.0, 0.0, 0.0, 1.695327647903083E9, 0.0, 2023-09-21 15:20:47.903
40.0, 40617.79118988409, 36363.516612472136, 23556.95051633722, -1361.1988855837449, -9178.877971038577, -3388.8150321024696, -187500.02235174447, -15056.135065094837, 25934.393815325955, 4659.712870086774, -9275.035175685309, 25189.723097052945, -6504.491746961087, -17038.08659769137, -1282.006654978592, -14293.091212879564, 0.124, 0.9560000000000001, 0.28200000000000003, 192.0, 0.0, 0.0, 0.0, 0.0, 0.0, 0.0, 0.0, 0.0, 0.0, 1.695327647903086E9, 0.0, 2023-09-21 15:20:47.903
42.0, 40612.89615784838, 36357.61575193593, 23565.891214119343, -1358.2037518267337, -9182.208380962418, -3385.328159967442, -187500.02235174447, -15046.859091145885, 25931.510440291222, 4662.506838143688, -9279.393765854093, 25158.855337960165, -6503.754139394062, -17026.709559763618, -1284.3759398908544, -14298.768555971214, 0.124, 0.966, 0.28400000000000003, 192.0, 1.5, 112.0, 15.0, 24.0, 4.0, 112.0, 0.0, 0.0, 0.0, 1.695327647903089E9, 0.0, 2023-09-21 15:20:47.903
44.0, 40611.823274114526, 36358.129842058406, 23556.32466749247, -1355.610949469918, -9180.822572806188, -3381.6624738767714, -187500.02235174447, -15032.933954350228, 25929.23056235678, 4665.814896323072, -9282.165382166551, 25190.326594153237, -6501.474261459621, -17021.79217598345, -1288.1086812148908, -14299.014425160221, 0.124, 0.966, 0.28400000000000003, 192.0, 0.0, 0.0, 0.0, 0.0, 0.0, 0.0, 0.0, 0.0, 0.0, 1.695327647963219E9, 0.0, 2023-09-21 15:20:47.963
46.0, 40596.020590784625, 36341.94717907276, 23547.003990054607, -1374.386414812376, -9202.68257888348, -3390.9831513146346, -187500.02235174447, -15046.590870212422, 25928.492954789755, 4668.742974846718, -9284.199390911985, 25161.64930601708, -6505.609334183852, -17019.89227770475, -1290.1203382158683, -14300.601399016548, 0.124, 0.966, 0.28400000000000003, 192.0, 0.0, 0.0, 0.0, 0.0, 0.0, 0.0, 0.0, 0.0, 0.0, 1.695327647963232E9, 0.0, 2023-09-21 15:20:47.963
48.0, 40601.00502979816, 36345.9257895858, 23534.844641070922, -1373.0006066561468, -9195.284151468773, -3391.5642966704727, -187500.02235174447, -15041.204099798691, 25914.74663194974, 4653.007346750182, -9300.113832964164, 25212.119544997164, -6520.629706457818, -17037.214879657615, -1314.5060914166083, -14329.211631919341, 0.124, 0.966, 0.28400000000000003, 192.0, 0.0, 0.0, 0.0, 0.0, 0.0, 0.0, 0.0, 0.0, 0.0, 1.695327647963236E9, 0.0, 2023-09-21 15:20:47.963
50.0, 40601.183843753795, 36345.2775889966, 23552.05548430151, -1368.2843885760772, -9190.836154322167, -3381.997750043601, -187500.02235174447, -15034.722093906654, 25930.079928646082, 4667.692442857318, -9283.97587346743, 25167.773683997835, -6502.122462048825, -17023.93794345116, -1302.3467424329212, -14314.88416372349, 0.124, 0.966, 0.28400000000000003, 192.0, 0.0, 0.0, 0.0, 0.0, 0.0, 0.0, 0.0, 0.0, 0.0, 1.695327647963239E9, 0.0, 2023-09-21 15:20:47.963
52.0, 40609.230471757706, 36352.20662977775, 23551.407283712302, -1361.7800309395827, -9177.58156986017, -3387.0492442905006, -187500.02235174447, -15031.950477594195, 25930.1693356239, 4667.223056223757, -9280.26548388785, 25208.811486817776, -6496.623932912819, -17023.08857716186, -1298.1222627308682, -14312.626637533504, 0.124, 0.97, 0.28800000000000003, 192.0, 1.5, 112.0, 15.0, 40.0, 4.5, 0.0, 0.0, 0.0, 0.0, 1.695327647963252E9, 0.0, 2023-09-21 15:20:47.963
54.0, 40594.52302390612, 36336.73922261468, 23546.311085976493, -1367.9267606647923, -9193.831288079178, -3399.1862415297323, -187500.02235174447, -15031.011704327073, 25934.773794981695, 4668.184181235335, -9277.270350130839, 25161.40343682807, -6495.551049178965, -17025.99430394105, -1297.87639354186, -14310.235000876786, 0.124, 0.97, 0.28800000000000003, 192.0, 0.0, 0.0, 0.0, 0.0, 0.0, 0.0, 0.0, 0.0, 0.0, 1.695327647963255E9, 0.0, 2023-09-21 15:20:47.963
56.0, 40587.50457614715, 36331.7771353456, 23533.28001895905, -1375.5040020351414, -9196.312331713716, -3403.7236456541596, -187500.02235174447, -15037.02432358555, 25918.680538973873, 4655.220169451257, -9291.240190415405, 25214.198257231506, -6510.236145286101, -17041.104083192837, -1309.4098936807984, -14312.40312008895, 0.124, 0.97, 0.28800000000000003, 192.0, 0.0, 0.0, 0.0, 0.0, 0.0, 0.0, 0.0, 0.0, 0.0, 1.695327647963258E9, 0.0, 2023-09-21 15:20:47.963
58.0, 40598.523986163615, 36341.14251627237, 23547.115748776883, -1364.8645716744152, -9185.091755997153, -3397.085177550933, -187500.02235174447, -15039.371256753357, 25922.100355875536, 4657.388288663422, -9282.74652752239, 25165.046771174286, -6511.756063909062, -17035.80671975693, -1309.3428384474323, -14314.638294534481, 0.124, 0.97, 0.28800000000000003, 192.0, 0.0, 0.0, 0.0, 0.0, 0.0, 0.0, 0.0, 0.0, 0.0, 1.695327647963261E9, 0.0, 2023-09-21 15:20:47.963
60.0, 40599.64157338638, 36342.08128953949, 23544.724112120166, -1361.5341617505744, -9185.53879088626, -3389.060901291478, -187500.02235174447, -15026.474300202644, 25928.470603045298, 4664.451439911299, -9275.795134996788, 25202.038908247818, -6497.942685835682, -17025.524917307488, -1300.1115679873906, -14306.614018275026, 0.124, 0.97, 0.28800000000000003, 192.0, 0.0, 0.0, 0.0, 0.0, 0.0, 0.0, 0.0, 0.0, 0.0, 1.695327648022586E9, 0.0, 2023-09-21 15:20:48.022
62.0, 40601.250898987164, 36340.89664708336, 23549.395626711324, -1356.6838332037728, -9183.86241005211, -3374.8004883289923, -187500.02235174447, -15014.940800063707, 25931.532792035676, 4665.546675389609, -9270.74364074989, 25155.07789314722, -6495.081662545403, -17019.37818758228, -1300.6033063654074, -14292.107736123531, 0.126, 0.964, 0.28800000000000003, 192.0, 1.5, 120.0, 15.0, 16.0, 4.5, 0.0, 0.0, 0.0, 0.0, 1.695327648022596E9, 0.0, 2023-09-21 15:20:48.022
64.0, 40618.14881779538, 36356.76638564663, 23558.492786704635, -1341.8869783743596, -9168.640872078047, -3370.3077876934753, -187500.02235174447, -15015.812518097464, 25934.66203625942, 4667.4465736683105, -9268.106134904163, 25195.51219886687, -6492.377101466311, -17023.580315539875, -1300.7374168321392, -14289.961968655822, 0.126, 0.964, 0.28800000000000003, 192.0, 0.0, 0.0, 0.0, 0.0, 0.0, 0.0, 0.0, 0.0, 0.0, 1.695327648022599E9, 0.0, 2023-09-21 15:20:48.022
66.0, 40616.51714045014, 36357.906324613854, 23563.432522229257, -1340.970556851692, -9168.260892422306, -3377.8179738304584, -187500.02235174447, -15025.557878679978, 25942.418091585412, 4679.5388674186315, -9255.030364397808, 25155.50257629187, -6487.146793263769, -17010.102213633327, -1286.2087829361897, -14278.942558639355, 0.126, 0.964, 0.28800000000000003, 192.0, 0.0, 0.0, 0.0, 0.0, 0.0, 0.0, 0.0, 0.0, 0.0, 1.695327648022602E9, 0.0, 2023-09-21 15:20:48.022
68.0, 40603.66488738834, 36347.51276344213, 23549.7085511337, -1352.906388390826, -9178.7662123163, -3386.7586716125816, -187500.02235174447, -15023.456814701178, 25929.38702456797, 4671.738108603729, -9266.653271514568, 25196.56273085627, -6496.042787556981, -17020.004036427028, -1291.774367305561, -14284.821067431101, 0.126, 0.964, 0.28800000000000003, 192.0, 0.0, 0.0, 0.0, 0.0, 0.0, 0.0, 0.0, 0.0, 0.0, 1.695327648022605E9, 0.0, 2023-09-21 15:20:48.022
70.0, 40617.59002418399, 36359.98503684819, 23570.115693821397, -1337.1037050609239, -9159.141380684541, -3375.1804679847323, -187500.02235174447, -15012.97384655164, 25936.628989771485, 4679.181239507347, -9260.864169700644, 25161.135215894607, -6486.677406630208, -17005.60951299781, -1290.4332626382427, -14277.802619672135, 0.126, 0.964, 0.28800000000000003, 192.0, 0.0, 0.0, 0.0, 0.0, 0.0, 0.0, 0.0, 0.0, 0.0, 1.695327648022608E9, 0.0, 2023-09-21 15:20:48.022
72.0, 40599.149835008364, 36339.35437671594, 23551.8096151125, -1356.3262052924879, -9178.34152917165, -3392.6371804043274, -187500.02235174447, -15036.68904741872, 25922.882666931473, 4663.982053277738, -9272.084745417207, 25191.108905209174, -6502.323627748922, -17035.60555405683, -1286.8793352698488, -14285.312805809119, 0.124, 0.97, 0.292, 192.0, 1.5, 112.0, 15.0, 40.0, 4.5, 16.0, 0.0, 0.0, 0.0, 1.695327648022612E9, 0.0, 2023-09-21 15:20:48.022
74.0, 40612.65028865937, 36350.5302489436, 23561.04088557254, -1347.4078592548203, -9170.63017733457, -3394.224154260654, -187500.02235174447, -15038.231317786136, 25934.617332770507, 4665.25610271169, -9263.479323801914, 25168.578346798226, -6499.350845736367, -17024.206164384625, -1292.0872917279353, -14282.898817407944, 0.124, 0.97, 0.292, 192.0, 0.0, 0.0, 0.0, 0.0, 0.0, 0.0, 0.0, 0.0, 0.0, 1.695327648082463E9, 0.0, 2023-09-21 15:20:48.082
76.0, 40608.246995001675, 36344.6293884074, 23558.60454542691, -1356.8402954149599, -9180.174372216985, -3406.249392777609, -187500.02235174447, -15046.926146379252, 25923.061480887114, 4658.505875886188, -9270.810695983255, 25193.791114543812, -6500.535488192498, -17035.78436801247, -1299.1057394869017, -14301.182544372386, 0.124, 0.97, 0.292, 192.0, 0.0, 0.0, 0.0, 0.0, 0.0, 0.0, 0.0, 0.0, 0.0, 1.695327648082475E9, 0.0, 2023-09-21 15:20:48.082
78.0, 40614.41607647134, 36353.14540304487, 23562.449045473226, -1348.033708099569, -9171.032508734765, -3389.3067704804866, -187500.02235174447, -15031.190518282714, 25937.79128048316, 4672.743937104218, -9253.823370197222, 25179.12837018113, -6491.0359967989925, -17022.954466695126, -1286.097024213913, -14284.552846497638, 0.124, 0.97, 0.292, 192.0, 0.0, 0.0, 0.0, 0.0, 0.0, 0.0, 0.0, 0.0, 0.0, 1.695327648082478E9, 0.0, 2023-09-21 15:20:48.082
80.0, 40608.112884534945, 36347.982150075695, 23559.096283804927, -1355.4097837698203, -9170.026680234276, -3395.6323141613384, -187500.02235174447, -15047.999030113106, 25926.41424255541, 4662.529189888142, -9263.725192990923, 25181.520006837847, -6494.47816544511, -17031.64929528824, -1288.2874951705332, -14291.995977401255, 0.124, 0.97, 0.292, 192.0, 0.0, 0.0, 0.0, 0.0, 0.0, 0.0, 0.0, 0.0, 0.0, 1.695327648082481E9, 0.0, 2023-09-21 15:20:48.082
82.0, 40620.56280619655, 36358.55452520306, 23557.688123904245, -1347.9890046106584, -9166.025717976776, -3385.685787878727, -187500.02235174447, -15033.537451450522, 25941.546373551653, 4670.687576614329, -9254.69508823098, 25175.373277112638, -6486.766813608028, -17026.575449296888, -1287.326370158955, -14283.815238930612, 0.122, 0.964, 0.29, 192.0, 1.5, 104.0, 15.0, 16.0, 4.5, 8.0, 0.0, 0.0, 0.0, 1.695327648082485E9, 0.0, 2023-09-21 15:20:48.082
84.0, 40613.61141367095, 36351.111394299434, 23550.468510445182, -1357.1085163484236, -9172.127744213074, -3393.866526349369, -187500.02235174447, -15047.775512668553, 25933.857373459028, 4663.646777110908, -9262.607605768157, 25169.27125087634, -6501.273095759523, -17032.677475533186, -1297.6305243528516, -14295.035814647177, 0.122, 0.964, 0.29, 192.0, 0.0, 0.0, 0.0, 0.0, 0.0, 0.0, 0.0, 0.0, 0.0, 1.695327648082488E9, 0.0, 2023-09-21 15:20:48.082
86.0, 40610.66098340285, 36348.92092334282, 23548.032170299553, -1361.2659408171107, -9173.938235513955, -3400.281477008042, -187500.02235174447, -15043.238108544125, 25932.89624844745, 4667.044242268114, -9263.12169589063, 25180.894157993098, -6497.719168391129, -17025.94960045214, -1301.385617421343, -14295.549904769648, 0.122, 0.964, 0.29, 192.0, 0.0, 0.0, 0.0, 0.0, 0.0, 0.0, 0.0, 0.0, 0.0, 1.695327648082491E9, 0.0, 2023-09-21 15:20:48.082
88.0, 40596.46762567373, 36335.04049003607, 23538.46562367268, -1368.9549409097363, -9189.763270588312, -3411.099721324411, -187500.02235174447, -15053.810483671485, 25924.380233809978, 4659.221131708758, -9272.420021584037, 25162.49867230638, -6504.603505683363, -17040.053551203437, -1303.2184604666784, -14296.466326292317, 0.122, 0.964, 0.29, 192.0, 0.0, 0.0, 0.0, 0.0, 0.0, 0.0, 0.0, 0.0, 0.0, 1.695327648082494E9, 0.0, 2023-09-21 15:20:48.082
90.0, 40610.281003747106, 36347.557466931044, 23546.42284469877, -1351.230007556678, -9170.652529079023, -3393.486546693629, -187500.02235174447, -15030.475262460144, 25916.244198828244, 4653.812009550573, -9281.7406990219, 25189.924262753044, -6512.538374964997, -17030.956391210126, -1312.807358838005, -14300.444936805361, 0.122, 0.964, 0.29, 192.0, 0.0, 0.0, 0.0, 0.0, 0.0, 0.0, 0.0, 0.0, 0.0, 1.695327648142721E9, 0.0, 2023-09-21 15:20:48.142
92.0, 40617.679431161814, 36355.313522257034, 23564.57246119648, -1339.5847486954628, -9160.996575474332, -3375.560447640473, -187500.02235174447, -15016.01368379756, 25934.550277537142, 4670.888742314428, -9261.06533540074, 25146.40541629856, -6489.784299109495, -17023.64737077324, -1283.0795387124467, -14265.732677666269, 0.12, 0.964, 0.294, 192.0, 1.5, 96.0, 15.0, 16.0, 4.5, 24.0, 0.0, 0.0, 0.0, 1.695327648142731E9, 0.0, 2023-09-21 15:20:48.142
94.0, 40613.54435843758, 36350.82082162152, 23555.85528085891, -1348.480742988675, -9161.264796407795, -3389.7314536251374, -187500.02235174447, -15032.285753761025, 25929.94581817935, 4664.719660844763, -9267.145009892585, 25176.289698635304, -6493.226467755612, -17025.27904811848, -1287.1699079477678, -14274.49456149275, 0.12, 0.964, 0.294, 192.0, 0.0, 0.0, 0.0, 0.0, 0.0, 0.0, 0.0, 0.0, 0.0, 1.695327648142734E9, 0.0, 2023-09-21 15:20:48.142
96.0, 40605.810654856046, 36343.42239420681, 23558.38102798236, -1356.3262052924879, -9176.173409959485, -3403.276610765053, -187500.02235174447, -15041.919355621261, 25933.678559503387, 4666.440745167822, -9263.792248224288, 25141.420977285026, -6496.266305001534, -17030.66581853221, -1284.4429951242203, -14281.356547040528, 0.12, 0.964, 0.294, 192.0, 0.0, 0.0, 0.0, 0.0, 0.0, 0.0, 0.0, 0.0, 0.0, 1.695327648142737E9, 0.0, 2023-09-21 15:20:48.142
98.0, 40619.80284688507, 36354.128879800905, 23564.23718502965, -1347.2961005325437, -9161.778886530266, -3394.537078683028, -187500.02235174447, -15038.901870119797, 25930.102280390536, 4666.708966101285, -9266.362698836649, 25183.866940005653, -6500.826060870417, -17023.08857716186, -1284.711216057684, -14283.122334852498, 0.12, 0.964, 0.294, 192.0, 0.0, 0.0, 0.0, 0.0, 0.0, 0.0, 0.0, 0.0, 0.0, 1.69532764814274E9, 0.0, 2023-09-21 15:20:48.142
100.0, 40607.79996011257, 36337.499181926156, 23562.04671407303, -1359.4107460273203, -9180.174372216985, -3409.870375379369, -187500.02235174447, -15048.557823724488, 25931.778661224685, 4667.78184983514, -9263.814599968744, 25142.851488930166, -6500.3343224924, -17034.063283689415, -1283.7947945350165, -14284.977529642289, 0.12, 0.964, 0.294, 192.0, 0.0, 0.0, 0.0, 0.0, 0.0, 0.0, 0.0, 0.0, 0.0, 1.695327648142743E9, 0.0, 2023-09-21 15:20:48.142
102.0, 40615.84658811648, 36343.86942909592, 23559.498615205124, -1352.3252430349878, -9163.05293596422, -3403.902459609802, -187500.02235174447, -15045.965021367672, 25925.60957975502, 4648.246425181202, -9270.49777156088, 25188.829027274733, -6505.788148139495, -17044.792121027964, -1283.8171462794717, -14286.340986054061, 0.122, 0.96, 0.294, 192.0, 1.5, 104.0, 15.0, 0.0, 4.5, 24.0, 0.0, 0.0, 0.0, 1.695327648142747E9, 0.0, 2023-09-21 15:20:48.142
104.0, 40605.1848060113, 36333.83349583548, 23559.945650094232, -1362.7188042067057, -9167.746802299835, -3408.3728085008634, -187500.02235174447, -15051.910585392785, 25926.257780344222, 4653.633195594931, -9267.949672692976, 25141.398625540573, -6503.1282905493135, -17037.3713418688, -1279.7938322775165, -14283.189390085863, 0.122, 0.96, 0.294, 192.0, 0.0, 0.0, 0.0, 0.0, 0.0, 0.0, 0.0, 0.0, 0.0, 1.69532764820342E9, 0.0, 2023-09-21 15:20:48.203
106.0, 40617.61237592845, 36349.077385554, 23562.51610070659, -1348.2125220552114, -9151.00534570281, -3383.092985521911, -187500.02235174447, -15036.107902062882, 25926.32483557759, 4649.4310676373325, -9274.342271607193, 25180.648288804092, -6500.826060870417, -17039.606516314332, -1279.100928199402, -14280.574235984594, 0.122, 0.96, 0.294, 192.0, 0.0, 0.0, 0.0, 0.0, 0.0, 0.0, 0.0, 0.0, 0.0, 1.695327648203434E9, 0.0, 2023-09-21 15:20:48.203
108.0, 40601.832044343006, 36336.98509180368, 23556.592888425934, -1363.478763518186, -9166.651566821523, -3391.9442763262127, -187500.02235174447, -15055.643326716821, 25933.41033856992, 4657.5894543635195, -9266.183884881006, 25131.563857980236, -6500.557839936953, -17021.79217598345, -1272.5742188184522, -14270.717116679803, 0.122, 0.96, 0.294, 192.0, 0.0, 0.0, 0.0, 0.0, 0.0, 0.0, 0.0, 0.0, 0.0, 1.695327648203438E9, 0.0, 2023-09-21 15:20:48.203
110.0, 40593.04780877207, 36323.439934663766, 23540.052597529007, -1374.095842134457, -9176.821610548688, -3404.3047910099976, -187500.02235174447, -15051.68706794823, 25913.539637749152, 4642.367916389456, -9283.841763000699, 25179.642460303603, -6515.019418599537, -17046.602612328843, -1285.1135474578796, -14286.095116865054, 0.122, 0.96, 0.294, 192.0, 0.0, 0.0, 0.0, 0.0, 0.0, 0.0, 0.0, 0.0, 0.0, 1.695327648203441E9, 0.0, 2023-09-21 15:20:48.203
112.0, 40605.49773043367, 36334.74991735815, 23548.389798210836, -1368.060871131524, -9169.132610456063, -3404.3718462433635, -187500.02235174447, -15054.12340809386, 25911.595035981543, 4639.082209954526, -9286.725138035434, 25134.044901614776, -6509.207965041157, -17055.163330455223, -1292.5790301059521, -14285.513971509215, 0.124, 0.962, 0.296, 192.0, 1.5, 112.0, 15.0, 8.0, 4.5, 32.0, 0.0, 0.0, 0.0, 1.695327648203444E9, 0.0, 2023-09-21 15:20:48.203
114.0, 40601.27325073162, 36331.44185917877, 23541.348998707414, -1375.03461540158, -9178.542694871747, -3415.2347940486425, -187500.02235174447, -15066.998012900116, 25916.17714359488, 4641.25032916669, -9278.633806542612, 25171.484073577416, -6516.606392455864, -17050.357705397335, -1282.3195794009662, -14291.817163445612, 0.124, 0.962, 0.296, 192.0, 0.0, 0.0, 0.0, 0.0, 0.0, 0.0, 0.0, 0.0, 0.0, 1.695327648203447E9, 0.0, 2023-09-21 15:20:48.203
116.0, 40609.76691362464, 36338.79558310456, 23542.958324308198, -1375.1240223794011, -9180.48729663936, -3409.378637001352, -187500.02235174447, -15064.36050705439, 25923.530867520676, 4635.416523863855, -9279.594931554191, 25136.72711094941, -6515.377046510822, -17055.364496155322, -1295.1718324627677, -14295.996939658755, 0.124, 0.962, 0.296, 192.0, 0.0, 0.0, 0.0, 0.0, 0.0, 0.0, 0.0, 0.0, 0.0, 1.695327648203451E9, 0.0, 2023-09-21 15:20:48.203
118.0, 40612.96321308175, 36344.02589130711, 23544.94762956472, -1371.1454118663564, -9176.8663140376, -3406.092930566422, -187500.02235174447, -15057.677335462253, 25929.1188036345, 4646.30182341359, -9272.59883553968, 25160.39760832758, -6506.458700473154, -17040.835862259373, -1283.9512567462036, -14298.030948404188, 0.124, 0.962, 0.296, 192.0, 0.0, 0.0, 0.0, 0.0, 0.0, 0.0, 0.0, 0.0, 0.0, 1.695327648203454E9, 0.0, 2023-09-21 15:20:48.203
120.0, 40618.260576517656, 36347.7809843756, 23555.363542480893, -1360.483629761175, -9166.405697632516, -3394.7605961275813, -187500.02235174447, -15040.466492231668, 25922.234466342266, 4641.809122778073, -9275.683376274512, 25133.173183581017, -6515.555860466464, -17052.749342054052, -1287.2146114366785, -14292.755936712736, 0.124, 0.962, 0.296, 192.0, 0.0, 0.0, 0.0, 0.0, 0.0, 0.0, 0.0, 0.0, 0.0, 1.695327648263133E9, 0.0, 2023-09-21 15:20:48.263
122.0, 40615.35484973846, 36347.28924599758, 23558.17986228226, -1358.091993104457, -9154.581624815659, -3392.81599435997, -187500.02235174447, -15046.590870212422, 25944.697969519853, 4658.260006697179, -9261.042983656285, 25138.895230161575, -6487.213848497135, -17032.56571681091, -1266.427489093243, -14275.835666160068, 0.122, 0.968, 0.29, 192.0, 1.5, 104.0, 15.0, 32.0, 4.5, 8.0, 0.0, 0.0, 0.0, 1.695327648263144E9, 0.0, 2023-09-21 15:20:48.263
124.0, 40588.91273604784, 36319.036641006074, 23540.90196381831, -1376.4427753022642, -9168.260892422306, -3402.896631109313, -187500.02235174447, -15057.140893595326, 25925.766041966206, 4642.30086115609, -9283.104155433673, 25123.226657298408, -6496.936857335193, -17047.876661762795, -1277.5586578319858, -14291.30307332314, 0.122, 0.968, 0.29, 192.0, 0.0, 0.0, 0.0, 0.0, 0.0, 0.0, 0.0, 0.0, 0.0, 1.695327648263147E9, 0.0, 2023-09-21 15:20:48.263
126.0, 40587.99631452517, 36316.39913516035, 23542.04190278553, -1379.0132259146246, -9175.636968092558, -3408.3728085008634, -187500.02235174447, -15063.019402387072, 25906.61059696801, 4626.967564459749, -9301.767862053855, 25141.01864588483, -6514.594735454886, -17054.492778121567, -1291.550849861008, -14301.987207172777, 0.122, 0.968, 0.29, 192.0, 0.0, 0.0, 0.0, 0.0, 0.0, 0.0, 0.0, 0.0, 0.0, 1.695327648263151E9, 0.0, 2023-09-21 15:20:48.263
128.0, 40594.74654135067, 36324.75868758663, 23546.601658654414, -1371.771260711105, -9162.29297665274, -3398.29217175152, -187500.02235174447, -15061.499483764112, 25912.824381926584, 4631.907299984372, -9295.107042206173, 25130.20040156846, -6513.901831376771, -17047.362571640322, -1300.648009854318, -14305.049396163155, 0.122, 0.968, 0.29, 192.0, 0.0, 0.0, 0.0, 0.0, 0.0, 0.0, 0.0, 0.0, 0.0, 1.695327648263154E9, 0.0, 2023-09-21 15:20:48.263
130.0, 40589.76210233714, 36320.645966606855, 23534.397606181814, -1379.6390747593732, -9170.496066867838, -3396.794604873014, -187500.02235174447, -15056.895024406318, 25913.830210427073, 4637.316422142556, -9294.525896850337, 25127.384081767093, -6508.358598751855, -17047.586089084874, -1288.2874951705332, -14296.265160592218, 0.122, 0.968, 0.29, 192.0, 0.0, 0.0, 0.0, 0.0, 0.0, 0.0, 0.0, 0.0, 0.0, 1.695327648263173E9, 0.0, 2023-09-21 15:20:48.263
132.0, 40603.9331083218, 36337.54388541506, 23547.31691447698, -1363.903446662837, -9155.09571493813, -3392.614828659872, -187500.02235174447, -15043.081646332937, 25913.718451704797, 4641.3844396334225, -9294.414138128059, 25128.904000390055, -6510.14673830828, -17042.333429137878, -1293.2719341840666, -14293.270026835207, 0.122, 0.964, 0.294, 192.0, 1.5, 104.0, 15.0, 16.0, 4.5, 24.0, 0.0, 0.0, 0.0, 1.695327648263176E9, 0.0, 2023-09-21 15:20:48.263
134.0, 40596.73584660719, 36329.43020217779, 23542.913620819287, -1378.7003014922502, -9174.318215169695, -3417.000581860612, -187500.02235174447, -15069.970794912673, 25913.673748215886, 4645.2065879352795, -9292.760109038367, 25121.751442164357, -6512.046636586981, -17047.653144318243, -1288.868640526371, -14294.342910569063, 0.122, 0.964, 0.294, 192.0, 0.0, 0.0, 0.0, 0.0, 0.0, 0.0, 0.0, 0.0, 0.0, 1.695327648322528E9, 0.0, 2023-09-21 15:20:48.322
136.0, 40606.52591067862, 36336.04631853656, 23538.867955072878, -1372.12888862239, -9174.675843080979, -3407.5681457004725, -187500.02235174447, -15061.991222142127, 25916.84769592854, 4642.859654767472, -9293.11773694965, 25139.901058662064, -6512.091340075892, -17052.749342054052, -1298.1893179642343, -14306.21168687483, 0.122, 0.964, 0.294, 192.0, 0.0, 0.0, 0.0, 0.0, 0.0, 0.0, 0.0, 0.0, 0.0, 1.695327648322555E9, 0.0, 2023-09-21 15:20:48.322
138.0, 40603.24020424369, 36332.80531559054, 23542.84656558592, -1374.4311183012867, -9184.957645530421, -3403.678942165249, -187500.02235174447, -15064.338155309935, 25922.79325995365, 4650.146323459902, -9286.591027568702, 25118.421032240516, -6505.922258606227, -17035.42674010119, -1294.3224661734662, -14294.342910569063, 0.122, 0.964, 0.294, 192.0, 0.0, 0.0, 0.0, 0.0, 0.0, 0.0, 0.0, 0.0, 0.0, 1.695327648322558E9, 0.0, 2023-09-21 15:20:48.322
140.0, 40614.8854631049, 36343.19887676226, 23543.204193497204, -1362.9870251401694, -9169.892569767544, -3383.71883436666, -187500.02235174447, -15049.384838269334, 25915.79716393914, 4642.3232129005455, -9296.358739895672, 25142.203288340963, -6512.605430198363, -17050.268298419513, -1302.2796871995554, -14301.45076530585, 0.122, 0.964, 0.294, 192.0, 0.0, 0.0, 0.0, 0.0, 0.0, 0.0, 0.0, 0.0, 0.0, 1.695327648322562E9, 0.0, 2023-09-21 15:20:48.322
142.0, 40619.020535829135, 36347.31159774204, 23557.017571570585, -1358.3155105490102, -9167.590340088647, -3389.0832530359335, -187500.02235174447, -15052.581137726444, 25939.400606083946, 4662.775059077151, -9274.163457651552, 25091.464828427415, -6491.103052032358, -17022.28391436147, -1284.3088846574885, -14280.909512151422, 0.126, 0.96, 0.292, 192.0, 1.5, 120.0, 15.0, 0.0, 4.5, 16.0, 0.0, 0.0, 0.0, 1.695327648322565E9, 0.0, 2023-09-21 15:20:48.322
144.0, 40601.45206468726, 36331.24069347867, 23532.94474279222, -1378.0073974141358, -9186.186991475462, -3407.188166044732, -187500.02235174447, -15063.824065187464, 25920.51338201921, 4650.749820560196, -9289.966140981453, 25137.799994683268, -6511.711360420151, -17043.42866461619, -1299.0610359979912, -14295.438146047372, 0.126, 0.96, 0.292, 192.0, 0.0, 0.0, 0.0, 0.0, 0.0, 0.0, 0.0, 0.0, 0.0, 1.695327648322569E9, 0.0, 2023-09-21 15:20:48.322
146.0, 40594.36656169493, 36323.439934663766, 23536.40926318279, -1387.4398335742753, -9198.189878247962, -3419.7274946841594, -187500.02235174447, -15082.733640996652, 25911.75149819273, 4641.25032916669, -9298.303341663282, 25111.648453670558, -6518.282773290011, -17046.736722795573, -1307.778216335561, -14309.273875865207, 0.126, 0.96, 0.292, 192.0, 0.0, 0.0, 0.0, 0.0, 0.0, 0.0, 0.0, 0.0, 0.0, 1.695327648322573E9, 0.0, 2023-09-21 15:20:48.322
148.0, 40597.339343707485, 36324.199893975245, 23527.915600289776, -1383.707092250239, -9187.77396533179, -3419.0792940949555, -187500.02235174447, -15079.716155495187, 25911.997367381737, 4636.4447041088, -9300.180888197528, 25154.7873204693, -6516.449930244677, -17058.717257823617, -1310.4827774146531, -14310.346759599062, 0.126, 0.96, 0.292, 192.0, 0.0, 0.0, 0.0, 0.0, 0.0, 0.0, 0.0, 0.0, 0.0, 1.695327648322576E9, 0.0, 2023-09-21 15:20:48.322
150.0, 40598.27811697461, 36323.41758291931, 23535.38108293785, -1381.091938148968, -9185.136459486062, -3408.6633811787824, -187500.02235174447, -15067.914434422784, 25906.94587313484, 4630.856767994973, -9305.299437677793, 25103.06538379972, -6524.787130926506, -17060.840673546874, -1312.159158248801, -14311.486698566283, 0.126, 0.96, 0.292, 192.0, 0.0, 0.0, 0.0, 0.0, 0.0, 0.0, 0.0, 0.0, 0.0, 1.695327648382416E9, 0.0, 2023-09-21 15:20:48.382
152.0, 40604.268384488634, 36329.60901613343, 23532.542411392023, -1376.6662927468174, -9174.318215169695, -3403.343665998419, -187500.02235174447, -15071.803637958008, 25918.03233838467, 4637.830512265028, -9297.65514107408, 25138.15762259455, -6511.286677275501, -17051.341182153366, -1299.1504429758124, -14302.613056017526, 0.126, 0.964, 0.29, 192.0, 1.5, 120.0, 15.0, 16.0, 4.5, 8.0, 0.0, 0.0, 0.0, 1.695327648382426E9, 0.0, 2023-09-21 15:20:48.382
154.0, 40603.75429436616, 36333.38646094638, 23540.790205096033, -1371.4359845442755, -9167.031546477265, -3400.0132560745787, -187500.02235174447, -15062.929995409251, 25921.452155286333, 4645.653622824386, -9289.921437492543, 25087.01683128081, -6505.229354528112, -17043.60747857183, -1295.708274329695, -14302.657759506435, 0.126, 0.964, 0.29, 192.0, 0.0, 0.0, 0.0, 0.0, 0.0, 0.0, 0.0, 0.0, 0.0, 1.69532764838243E9, 0.0, 2023-09-21 15:20:48.382
156.0, 40588.75627383665, 36317.8743502944, 23523.84758279891, -1386.0093219291357, -9175.368747159095, -3415.055980093, -187500.02235174447, -15068.160303611792, 25904.71069868931, 4629.716829027752, -9306.08174873373, 25135.274247559817, -6518.998029112581, -17050.80474028644, -1297.16113771929, -14303.59653277356, 0.126, 0.964, 0.29, 192.0, 0.0, 0.0, 0.0, 0.0, 0.0, 0.0, 0.0, 0.0, 0.0, 1.695327648382433E9, 0.0, 2023-09-21 15:20:48.382
158.0, 40584.21886971222, 36311.59351010245, 23526.57449562246, -1395.0170749446245, -9176.620444848591, -3419.9733638731677, -187500.02235174447, -15081.146667140327, 25904.68834694485, 4626.229956892724, -9312.787272070322, 25087.799142336746, -6521.635534958307, -17056.347972911357, -1302.7937773220274, -14309.966779943321, 0.126, 0.964, 0.29, 192.0, 0.0, 0.0, 0.0, 0.0, 0.0, 0.0, 0.0, 0.0, 0.0, 1.695327648382436E9, 0.0, 2023-09-21 15:20:48.382
160.0, 40589.27036395912, 36317.2708531941, 23526.03805375553, -1392.290162121077, -9172.105392468618, -3413.9160411257794, -187500.02235174447, -15070.79780945752, 25904.2636638002, 4621.022000434637, -9312.675513348046, 25119.203343296453, -6517.81338665645, -17069.691964351176, -1295.3282946739548, -14312.02314043321, 0.126, 0.964, 0.29, 192.0, 0.0, 0.0, 0.0, 0.0, 0.0, 0.0, 0.0, 0.0, 0.0, 1.695327648382443E9, 0.0, 2023-09-21 15:20:48.382
162.0, 40589.13625349239, 36317.11439098292, 23531.737748591633, -1390.0102841866355, -9174.832305292166, -3411.2114800466875, -187500.02235174447, -15068.74144896763, 25906.49883824573, 4624.15124465838, -9307.109928978674, 25077.29382244275, -6512.448967987177, -17060.572452613407, -1295.6412190963292, -14304.490602551772, 0.126, 0.9560000000000001, 0.292, 192.0, 1.5, 120.0, 14.5, 112.0, 4.5, 16.0, 0.0, 0.0, 0.0, 1.695327648382447E9, 0.0, 2023-09-21 15:20:48.382
164.0, 40590.96909653772, 36319.81895206201, 23529.055539256995, -1389.6079527864401, -9179.704985583423, -3415.927698126757, -187500.02235174447, -15077.88331244985, 25904.017794611194, 4624.330058614023, -9306.46172838947, 25119.8291921412, -6525.167110582246, -17060.751266569052, -1297.5858208639409, -14306.21168687483, 0.126, 0.9560000000000001, 0.292, 192.0, 0.0, 0.0, 0.0, 0.0, 0.0, 0.0, 0.0, 0.0, 0.0, 1.695327648442645E9, 0.0, 2023-09-21 15:20:48.442
166.0, 40585.85054705746, 36314.365126414916, 23526.216867711173, -1393.251287132655, -9192.91486655651, -3430.054000622511, -187500.02235174447, -15092.031966690061, 25894.428896239868, 4621.223166134735, -9314.351894182193, 25091.35306970514, -6531.447950774187, -17071.927138796706, -1314.5284431610637, -14316.828765491102, 0.126, 0.9560000000000001, 0.292, 192.0, 0.0, 0.0, 0.0, 0.0, 0.0, 0.0, 0.0, 0.0, 0.0, 1.695327648442663E9, 0.0, 2023-09-21 15:20:48.442
168.0, 40583.66007610084, 36314.7227543262, 23524.4510798992, -1391.41844408732, -9198.301636970238, -3425.9412796427346, -187500.02235174447, -15089.327405610968, 25891.36670724949, 4622.877195224428, -9312.094367992207, 25128.836945156687, -6537.9970118995925, -17067.210920716636, -1307.711161102195, -14312.492527066772, 0.126, 0.9560000000000001, 0.292, 192.0, 0.0, 0.0, 0.0, 0.0, 0.0, 0.0, 0.0, 0.0, 0.0, 1.695327648442667E9, 0.0, 2023-09-21 15:20:48.442
170.0, 40594.210099483746, 36323.97637653069, 23528.630856112344, -1375.9063334353368, -9188.28805545426, -3412.9102126252906, -187500.02235174447, -15083.717117752687, 25892.707811916807, 4621.044352179093, -9310.641504602612, 25111.335529248183, -6537.192349099201, -17068.641432361776, -1309.901632058815, -14310.950256699356, 0.126, 0.9560000000000001, 0.292, 192.0, 0.0, 0.0, 0.0, 0.0, 0.0, 0.0, 0.0, 0.0, 0.0, 1.69532764844267E9, 0.0, 2023-09-21 15:20:48.442
172.0, 40605.810654856046, 36334.01230979113, 23539.180879495252, -1367.4797257756861, -9184.57766587468, -3408.7304364121483, -187500.02235174447, -15073.323556580968, 25907.437611512854, 4632.823721507039, -9295.59878058419, 25121.483221230894, -6519.646229701785, -17059.812493301928, -1295.6188673518739, -14292.174791356898, 0.124, 0.9560000000000001, 0.296, 192.0, 1.5, 112.0, 14.5, 112.0, 4.5, 32.0, 0.0, 0.0, 0.0, 1.695327648442678E9, 0.0, 2023-09-21 15:20:48.442
174.0, 40610.057486302554, 36337.40977494833, 23542.71245511919, -1362.4952867621525, -9178.274473938283, -3398.068654306967, -187500.02235174447, -15069.657870490299, 25905.3141957896, 4635.349468630489, -9295.822298028743, 25105.144096034062, -6523.937764637204, -17061.935909025182, -1299.776291820561, -14291.884218678979, 0.124, 0.9560000000000001, 0.296, 192.0, 0.0, 0.0, 0.0, 0.0, 0.0, 0.0, 0.0, 0.0, 0.0, 1.695327648442682E9, 0.0, 2023-09-21 15:20:48.442
176.0, 40597.80873034105, 36324.11048699743, 23537.728016105655, -1375.0793188904904, -9190.120898499597, -3413.066674836478, -187500.02235174447, -15081.638405518343, 25907.54937023513, 4638.389305876411, -9293.050681716286, 25111.469639714916, -6518.998029112581, -17051.698810064652, -1289.583896348941, -14289.581989000082, 0.124, 0.9560000000000001, 0.296, 192.0, 0.0, 0.0, 0.0, 0.0, 0.0, 0.0, 0.0, 0.0, 0.0, 1.695327648442685E9, 0.0, 2023-09-21 15:20:48.442
178.0, 40609.856320602456, 36336.4262981923, 23542.645399885823, -1366.6303594863844, -9174.072345980687, -3400.5944014304164, -187500.02235174447, -15067.26623383358, 25897.781657908163, 4632.153169173381, -9302.17019345405, 25116.521133961814, -6526.53056699402, -17054.26926067701, -1292.7354923171392, -14293.895875679957, 0.124, 0.9560000000000001, 0.296, 192.0, 0.0, 0.0, 0.0, 0.0, 0.0, 0.0, 0.0, 0.0, 0.0, 1.695327648442689E9, 0.0, 2023-09-21 15:20:48.442
180.0, 40599.70862861975, 36324.89279805336, 23537.99623703912, -1380.3319788374877, -9178.00625300482, -3419.8169016619804, -187500.02235174447, -15088.187466643747, 25905.045974856137, 4640.132741943925, -9294.816469528256, 25112.520171704313, -6522.373142525333, -17048.860138518827, -1276.1728496757567, -14287.838552932568, 0.124, 0.9560000000000001, 0.296, 192.0, 0.0, 0.0, 0.0, 0.0, 0.0, 0.0, 0.0, 0.0, 0.0, 1.695327648502991E9, 0.0, 2023-09-21 15:20:48.502
182.0, 40608.381105468405, 36331.553617901045, 23535.98458003814, -1372.3300543224877, -9175.793430303745, -3416.285326038042, -187500.02235174447, -15090.55675155601, 25896.03822184065, 4624.799445247584, -9305.053568488785, 25120.008006096843, -6534.91247116476, -17067.03210676099, -1292.5566783614968, -14306.189335130375, 0.12, 0.962, 0.3, 192.0, 1.5, 96.0, 15.0, 8.0, 4.5, 48.0, 0.0, 0.0, 0.0, 1.695327648502999E9, 0.0, 2023-09-21 15:20:48.502
184.0, 40599.61922164193, 36321.204760218236, 23538.823251583966, -1374.9452084237587, -9189.785622332767, -3416.2406225491313, -187500.02235174447, -15076.475152549167, 25896.529960218664, 4621.379628345922, -9304.427719644036, 25107.513380946326, -6527.67050596124, -17067.94852828366, -1288.354550403899, -14299.662625749424, 0.12, 0.962, 0.3, 192.0, 0.0, 0.0, 0.0, 0.0, 0.0, 0.0, 0.0, 0.0, 0.0, 1.695327648503003E9, 0.0, 2023-09-21 15:20:48.503
186.0, 40627.693012677795, 36354.01712107863, 23553.351885479915, -1348.4360394997645, -9165.176351687474, -3383.6070756443833, -187500.02235174447, -15047.954326624194, 25913.964320893803, 4644.446628623799, -9289.943789236999, 25120.387985752583, -6521.277907047022, -17044.143920438757, -1280.3526258888992, -14278.987262128267, 0.12, 0.962, 0.3, 192.0, 0.0, 0.0, 0.0, 0.0, 0.0, 0.0, 0.0, 0.0, 0.0, 1.695327648503007E9, 0.0, 2023-09-21 15:20:48.503
188.0, 40606.011820556145, 36337.208609248235, 23550.870841845375, -1359.4554495162308, -9176.665148337503, -3399.76738688557, -187500.02235174447, -15065.992184399627, 25915.84186742805, 4657.455343896788, -9280.779574010323, 25090.68251737148, -6509.43148248571, -17024.586144040364, -1264.482887325631, -14264.279814276673, 0.12, 0.962, 0.3, 192.0, 0.0, 0.0, 0.0, 0.0, 0.0, 0.0, 0.0, 0.0, 0.0, 1.69532764850301E9, 0.0, 2023-09-21 15:20:48.503
190.0, 40597.98754429669, 36327.75382134364, 23537.750367850113, -1367.390318797865, -9176.933369270966, -3404.550660199006, -187500.02235174447, -15075.98341417115, 25894.3618410065, 4634.790675019107, -9302.46076613197, 25121.39381425307, -6525.010648371059, -17055.655068833243, -1281.1349369448349, -14285.312805809119, 0.12, 0.962, 0.3, 192.0, 0.0, 0.0, 0.0, 0.0, 0.0, 0.0, 0.0, 0.0, 0.0, 1.695327648503013E9, 0.0, 2023-09-21 15:20:48.503
192.0, 40589.96326803724, 36317.24850144965, 23543.6065248974, -1375.0122636571245, -9181.359014673117, -3405.936468355235, -187500.02235174447, -15077.033946160549, 25889.623271181976, 4630.454436594777, -9305.947638266998, 25085.54161614676, -6536.164168854257, -17050.827092030893, -1285.0241404800583, -14290.900741922946, 0.116, 0.964, 0.302, 192.0, 1.5, 80.0, 15.0, 16.0, 4.5, 56.0, 0.0, 0.0, 0.0, 1.695327648503017E9, 0.0, 2023-09-21 15:20:48.503
194.0, 40581.24608769966, 36312.24171069166, 23523.66876884327, -1386.031673673591, -9192.423128178492, -3417.5593754719944, -187500.02235174447, -15095.630597547364, 25888.550387448122, 4629.359201116467, -9307.042873745308, 25118.957474107443, -6529.570404239942, -17055.409199644233, -1293.0931202284241, -14295.058166391633, 0.116, 0.964, 0.302, 192.0, 0.0, 0.0, 0.0, 0.0, 0.0, 0.0, 0.0, 0.0, 0.0, 1.695327648563282E9, 0.0, 2023-09-21 15:20:48.563
196.0, 40562.31416014602, 36296.55078608403, 23514.482201872135, -1403.4436826042752, -9210.215116764917, -3439.2629193380976, -187500.02235174447, -15108.058167464516, 25866.51156741519, 4614.897622453884, -9328.008810044386, 25086.7709620918, -6555.9007592082935, -17077.984461544092, -1318.3952949518318, -14320.941486470878, 0.116, 0.964, 0.302, 192.0, 0.0, 0.0, 0.0, 0.0, 0.0, 0.0, 0.0, 0.0, 0.0, 1.695327648563293E9, 0.0, 2023-09-21 15:20:48.563
198.0, 40588.01866626962, 36321.204760218236, 23527.200344467205, -1376.6886444912725, -9180.286130939261, -3405.645895677316, -187500.02235174447, -15080.967853184684, 25874.155864018903, 4618.4962533111875, -9324.387827442626, 25117.81753514022, -6543.003802657581, -17066.04863000496, -1314.774312350072, -14314.638294534481, 0.116, 0.964, 0.302, 192.0, 0.0, 0.0, 0.0, 0.0, 0.0, 0.0, 0.0, 0.0, 0.0, 1.695327648563297E9, 0.0, 2023-09-21 15:20:48.563
200.0, 40576.79809055306, 36307.99487924515, 23526.261571200084, -1387.5962957854624, -9190.634988622069, -3422.096779596422, -187500.02235174447, -15098.55867607101, 25891.769038649683, 4624.4194655918445, -9311.960257525476, 25063.972182747388, -6539.919261922749, -17068.440266661677, -1292.3108091724885, -14298.388576315472, 0.116, 0.964, 0.302, 192.0, 0.0, 0.0, 0.0, 0.0, 0.0, 0.0, 0.0, 0.0, 0.0, 1.6953276485633E9, 0.0, 2023-09-21 15:20:48.563
202.0, 40569.824346283, 36300.998783230636, 23506.435573868224, -1395.9781999562026, -9200.000369548843, -3437.4300762927624, -187500.02235174447, -15104.4148331183, 25874.915823330382, 4608.929706684316, -9329.864004834177, 25114.889456616576, -6545.775418970039, -17073.648223119762, -1306.325352945966, -14316.381730601996, 0.122, 0.962, 0.3, 192.0, 1.5, 104.0, 15.0, 8.0, 4.5, 48.0, 0.0, 0.0, 0.0, 1.695327648563304E9, 0.0, 2023-09-21 15:20:48.563
204.0, 40572.99829399565, 36307.81606528951, 23525.7027775887, -1388.065682419024, -9194.099509012642, -3424.48841625314, -187500.02235174447, -15090.646158533831, 25877.441570453833, 4612.081302652515, -9324.879565820644, 25060.798235034734, -6545.127218380835, -17072.687098108185, -1309.8122250809938, -14314.21361138983, 0.122, 0.962, 0.3, 192.0, 0.0, 0.0, 0.0, 0.0, 0.0, 0.0, 0.0, 0.0, 0.0, 1.695327648563307E9, 0.0, 2023-09-21 15:20:48.563
206.0, 40575.00995099663, 36311.3699926579, 23518.661978085278, -1388.870345219415, -9183.258912951816, -3417.7158376831817, -187500.02235174447, -15094.22243764668, 25868.009134293694, 4611.231936363213, -9331.383923457137, 25108.54156119127, -6552.704459751184, -17075.61517663183, -1304.3360476894436, -14315.30884686814, 0.122, 0.962, 0.3, 192.0, 0.0, 0.0, 0.0, 0.0, 0.0, 0.0, 0.0, 0.0, 0.0, 1.695327648563311E9, 0.0, 2023-09-21 15:20:48.563
208.0, 40583.23539295619, 36320.98124277368, 23532.542411392023, -1376.4651270467195, -9185.359976930617, -3405.0423985770226, -187500.02235174447, -15087.807486988007, 25880.548462933122, 4621.893718468395, -9317.41408317257, 25063.01105773581, -6541.975622412637, -17059.208996201636, -1297.384655163843, -14304.870582207512, 0.122, 0.962, 0.3, 192.0, 0.0, 0.0, 0.0, 0.0, 0.0, 0.0, 0.0, 0.0, 0.0, 1.695327648563314E9, 0.0, 2023-09-21 15:20:48.563
210.0, 40580.329666177, 36314.09690548145, 23517.65614958479, -1382.8130224720267, -9187.304578698227, -3412.2620120360866, -187500.02235174447, -15089.79679224453, 25885.73406764675, 4627.638116793409, -9314.41894941556, 25100.91961633201, -6541.9309189237265, -17055.69977232215, -1297.004675508103, -14296.8239542036, 0.122, 0.962, 0.3, 192.0, 0.0, 0.0, 0.0, 0.0, 0.0, 0.0, 0.0, 0.0, 0.0, 1.695327648622844E9, 0.0, 2023-09-21 15:20:48.622
212.0, 40589.60564012595, 36322.90349279684, 23529.256704957093, -1375.347539823954, -9178.743860571845, -3413.7819306590477, -187500.02235174447, -15093.238960890647, 25891.187893293845, 4623.681858024819, -9316.02827501634, 25054.606801820613, -6540.276889834034, -17056.258565933535, -1305.006600023103, -14306.97164618631, 0.124, 0.964, 0.294, 192.0, 1.5, 112.0, 15.0, 16.0, 4.5, 24.0, 0.0, 0.0, 0.0, 1.695327648622852E9, 0.0, 2023-09-21 15:20:48.622
214.0, 40588.01866626962, 36324.08813525297, 23523.08762348743, -1376.286313091077, -9194.144212501551, -3403.2095555316873, -187500.02235174447, -15085.214684631192, 25881.5095879447, 4625.179424903325, -9320.588030885225, 25093.543540661758, -6541.595642756897, -17054.828054288395, -1304.872489556371, -14306.569314786115, 0.124, 0.964, 0.294, 192.0, 0.0, 0.0, 0.0, 0.0, 0.0, 0.0, 0.0, 0.0, 0.0, 1.695327648622856E9, 0.0, 2023-09-21 15:20:48.622
216.0, 40601.87674783191, 36336.89568482586, 23535.291675960027, -1369.1784583542894, -9185.985825775364, -3397.6663229067713, -187500.02235174447, -15091.137896911849, 25896.2617392852, 4645.765381546662, -9304.897106277598, 25070.878871784076, -6537.840549688405, -17043.942754738662, -1300.5362511320413, -14298.053300148644, 0.124, 0.964, 0.294, 192.0, 0.0, 0.0, 0.0, 0.0, 0.0, 0.0, 0.0, 0.0, 0.0, 1.695327648622859E9, 0.0, 2023-09-21 15:20:48.622
218.0, 40595.6853146178, 36330.7266033562, 23525.94864677771, -1376.3980718133537, -9184.264741452305, -3408.0151805895784, -187500.02235174447, -15086.712251509698, 25890.94202410484, 4640.669183810853, -9312.899030792598, 25098.751497119847, -6539.069895633447, -17045.08269370588, -1304.9171930452817, -14304.982340929788, 0.124, 0.964, 0.294, 192.0, 0.0, 0.0, 0.0, 0.0, 0.0, 0.0, 0.0, 0.0, 0.0, 1.695327648622863E9, 0.0, 2023-09-21 15:20:48.622
220.0, 40581.670770844314, 36315.750934571144, 23521.388890908827, -1393.5195080661188, -9186.298750197739, -3423.39318077483, -187500.02235174447, -15104.906571496318, 25885.73406764675, 4625.179424903325, -9325.03602803183, 25062.899299013534, -6541.9309189237265, -17065.04280150447, -1312.7626553490943, -14313.54305905617, 0.124, 0.964, 0.294, 192.0, 0.0, 0.0, 0.0, 0.0, 0.0, 0.0, 0.0, 0.0, 0.0, 1.695327648622866E9, 0.0, 2023-09-21 15:20:48.622
222.0, 40568.79616603806, 36305.066800721506, 23509.87774251434, -1402.840185503982, -9196.669959625002, -3437.2959658260306, -187500.02235174447, -15109.242809920646, 25880.682573399852, 4613.243593364191, -9331.6521443906, 25074.991592763854, -6549.195235871701, -17074.363478942334, -1314.8190158389828, -14328.652838307959, 0.122, 0.964, 0.292, 192.0, 1.5, 104.0, 15.0, 16.0, 4.5, 16.0, 0.0, 0.0, 0.0, 1.695327648622869E9, 0.0, 2023-09-21 15:20:48.622
224.0, 40576.17224170831, 36312.35346941394, 23514.83982978342, -1392.1113481654345, -9189.383290932572, -3422.7896836745363, -187500.02235174447, -15095.027100447072, 25877.12864603146, 4612.774206730629, -9337.061266548786, 25068.688400827457, -6543.540244524508, -17072.128304496804, -1317.7917978515386, -14322.371998116017, 0.122, 0.964, 0.292, 192.0, 0.0, 0.0, 0.0, 0.0, 0.0, 0.0, 0.0, 0.0, 0.0, 1.695327648684605E9, 0.0, 2023-09-21 15:20:48.684
226.0, 40582.944820278266, 36319.05899275053, 23525.300446188503, -1386.612819029429, -9182.364843173606, -3421.0462476070225, -187500.02235174447, -15093.775402757574, 25878.492102443233, 4618.4962533111875, -9334.446112447515, 25071.303554928727, -6543.9872794136145, -17059.767789813017, -1306.1241872458681, -14316.761710257735, 0.122, 0.964, 0.292, 192.0, 0.0, 0.0, 0.0, 0.0, 0.0, 0.0, 0.0, 0.0, 0.0, 1.695327648684617E9, 0.0, 2023-09-21 15:20:48.684
228.0, 40590.99144828218, 36330.68189986729, 23528.921428790265, -1375.6604642463285, -9181.873104795588, -3409.3115817679864, -187500.02235174447, -15083.448896819222, 25888.17040779238, 4629.336849372012, -9323.8513855757, 25070.320078172696, -6537.214700843657, -17072.910615552737, -1301.5420796325302, -14307.575143286604, 0.122, 0.964, 0.292, 192.0, 0.0, 0.0, 0.0, 0.0, 0.0, 0.0, 0.0, 0.0, 0.0, 1.69532764868462E9, 0.0, 2023-09-21 15:20:48.684
230.0, 40576.46281438623, 36315.3709549154, 23515.309216416983, -1389.6079527864401, -9197.787546847767, -3424.778988931059, -187500.02235174447, -15104.258370907113, 25884.12474204597, 4628.643945293898, -9327.740589110923, 25061.20056643493, -6541.059200889969, -17065.3780776713, -1305.5877453789408, -14308.223343875808, 0.122, 0.964, 0.292, 192.0, 0.0, 0.0, 0.0, 0.0, 0.0, 0.0, 0.0, 0.0, 0.0, 1.695327648684626E9, 0.0, 2023-09-21 15:20:48.684
232.0, 40599.06042803054, 36340.00257730515, 23534.107033503897, -1365.6915862192616, -9163.321156897684, -3401.4884712086287, -187500.02235174447, -15077.548036283022, 25883.141265289934, 4626.1852534038135, -9330.601612401202, 25076.15388347553, -6540.455703789677, -17063.075847992404, -1307.711161102195, -14310.816146232624, 0.126, 0.96, 0.296, 192.0, 1.5, 120.0, 15.0, 0.0, 4.5, 32.0, 0.0, 0.0, 0.0, 1.695327648684631E9, 0.0, 2023-09-21 15:20:48.684
234.0, 40589.78445408159, 36328.06674576602, 23532.60946662539, -1380.6896067487726, -9183.325968185183, -3416.3747330158635, -187500.02235174447, -15100.4138708608, 25891.88079737196, 4639.864521010461, -9317.816414572766, 25052.371627375083, -6537.572328754942, -17048.61426932982, -1285.6946928137174, -14297.606265259537, 0.126, 0.96, 0.296, 192.0, 0.0, 0.0, 0.0, 0.0, 0.0, 0.0, 0.0, 0.0, 0.0, 1.695327648684634E9, 0.0, 2023-09-21 15:20:48.684
236.0, 40609.31987873553, 36349.14444078737, 23537.750367850113, -1364.775164696594, -9170.160790701007, -3399.2980002520085, -187500.02235174447, -15083.180675885758, 25895.546483462633, 4638.836340765517, -9320.722141351956, 25080.311307944216, -6537.393514799299, -17051.09531296436, -1293.0260649950583, -14306.077576408099, 0.126, 0.96, 0.296, 192.0, 0.0, 0.0, 0.0, 0.0, 0.0, 0.0, 0.0, 0.0, 0.0, 1.695327648684637E9, 0.0, 2023-09-21 15:20:48.684
238.0, 40600.44623618678, 36340.494315683165, 23538.376216694858, -1366.3621385529207, -9179.280302438772, -3407.121110811366, -187500.02235174447, -15076.631614760354, 25900.329756776067, 4644.759553046173, -9312.072016247752, 25049.220031406883, -6532.230261830123, -17053.621060087808, -1282.5430968455194, -14289.760802955725, 0.126, 0.96, 0.296, 192.0, 0.0, 0.0, 0.0, 0.0, 0.0, 0.0, 0.0, 0.0, 0.0, 1.69532764868464E9, 0.0, 2023-09-21 15:20:48.684
240.0, 40595.50650066215, 36336.13572551438, 23529.480222401646, -1372.352406066943, -9184.734128085867, -3409.713913168182, -187500.02235174447, -15089.237998633147, 25898.78748640865, 4641.63030882243, -9312.608458114679, 25089.319060959704, -6527.894023405794, -17056.99617350056, -1284.4653468686756, -14287.413869787917, 0.126, 0.96, 0.296, 192.0, 0.0, 0.0, 0.0, 0.0, 0.0, 0.0, 0.0, 0.0, 0.0, 1.695327648743523E9, 0.0, 2023-09-21 15:20:48.743
242.0, 40584.66590460133, 36325.29512945356, 23527.222696211662, -1381.4272143157978, -9192.668997367502, -3424.9130993977906, -187500.02235174447, -15110.315693654502, 25886.3599164915, 4626.095846425992, -9327.964106555475, 25055.56792683219, -6542.1097328793685, -17064.23813870408, -1299.0833877424466, -14306.524611297204, 0.124, 0.9560000000000001, 0.294, 192.0, 1.5, 112.0, 14.5, 112.0, 4.5, 24.0, 0.0, 0.0, 0.0, 1.695327648743533E9, 0.0, 2023-09-21 15:20:48.743
244.0, 40602.92727982131, 36343.66826339582, 23539.672617873268, -1361.6906239617615, -9177.112183226607, -3404.640067176827, -187500.02235174447, -15076.02811766006, 25896.284091029658, 4633.181349418324, -9316.56471688327, 25090.034316782276, -6537.43821828821, -17059.812493301928, -1292.5119748725863, -14299.126183882498, 0.124, 0.9560000000000001, 0.294, 192.0, 0.0, 0.0, 0.0, 0.0, 0.0, 0.0, 0.0, 0.0, 0.0, 1.695327648743536E9, 0.0, 2023-09-21 15:20:48.743
246.0, 40588.80097732556, 36328.20085623275, 23531.13425149134, -1378.901467192348, -9199.128651515086, -3427.036515121045, -187500.02235174447, -15110.47215586569, 25903.302538788623, 4639.797465777096, -9311.110891236174, 25041.19575514743, -6536.074761876436, -17060.3265834244, -1290.2544486826002, -14292.443012290361, 0.124, 0.9560000000000001, 0.294, 192.0, 0.0, 0.0, 0.0, 0.0, 0.0, 0.0, 0.0, 0.0, 0.0, 1.69532764874354E9, 0.0, 2023-09-21 15:20:48.743
