%OpenBCI Raw EXG Data
%Number of channels = 16
%Sample Rate = 125 Hz
%Board = OpenBCI_GUI$BoardCytonSerialDaisy
Sample Index, EXG Channel 0, EXG Channel 1, EXG Channel 2, EXG Channel 3, EXG Channel 4, EXG Channel 5, EXG Channel 6, EXG Channel 7, EXG Channel 8, EXG Channel 9, EXG Channel 10, EXG Channel 11, EXG Channel 12, EXG Channel 13, EXG Channel 14, EXG Channel 15, Accel Channel 0, Accel Channel 1, Accel Channel 2, Other, Other, Other, Other, Other, Other, Other, Analog Channel 0, Analog Channel 1, Analog Channel 2, Timestamp, Other, Timestamp (Formatted)
224.0, 73984.52001625538, 68867.46810286857, -19371.45225661424, -14358.98415553381, 34109.901977765796, 31153.034407262137, -187500.02235174447, 26715.900208461313, 45457.54736155836, 34731.034604434324, 4320.52514797749, -32.94647132712261, 49031.01015460613, 35920.9297205126, 20342.479090986144, -6505.452871972665, 0.0, 0.0, 0.0, 192.0, 0.0, 0.0, 0.0, 0.0, 0.0, 0.0, 0.0, 0.0, 0.0, 1.69575453594037E9, 0.0, 2023-09-26 13:55:35.940
226.0, 73991.53846401435, 68872.72076281557, -19353.235584883165, -14346.467178638839, 34122.86598954988, 31175.45320695081, -187500.02235174447, 26723.34333936493, 45456.51918131342, 34732.91215096857, 4317.820586898397, -35.51692193948292, 49029.244366794155, 35922.13671471318, 20344.378989264846, -6505.117595805836, 0.148, 1.014, 0.06, 192.0, 2.0, 80.0, 15.5, 88.0, 0.5, 112.0, 0.0, 0.0, 0.0, 1.695754535940455E9, 0.0, 2023-09-26 13:55:35.940
228.0, 73990.48793202495, 68870.17266394767, -19352.520329060597, -14350.043457751688, 34122.620120360865, 31170.73698887074, -187500.02235174447, 26729.177144667763, 45460.788364504384, 34745.652645308095, 4327.364781780813, -28.297308480418742, 49027.567985960006, 35966.25905826796, 20350.79393992352, -6491.661845643741, 0.148, 1.014, 0.06, 192.0, 0.0, 0.0, 0.0, 0.0, 0.0, 0.0, 0.0, 0.0, 0.0, 1.695754535940467E9, 0.0, 2023-09-26 13:55:35.940
230.0, 73977.83684466325, 68857.09689344131, -19367.093666445457, -14365.17558874793, 34105.006945730085, 31158.46588116478, -187500.02235174447, 26728.461888845195, 45452.74173650047, 34746.569066830765, 4319.340505521358, -40.814285375390696, 49024.349334758444, 35956.424290707626, 20337.49465197261, -6508.202136540668, 0.148, 1.014, 0.06, 192.0, 0.0, 0.0, 0.0, 0.0, 0.0, 0.0, 0.0, 0.0, 0.0, 1.695754535940477E9, 0.0, 2023-09-26 13:55:35.940
232.0, 73975.959298129, 68854.23587015104, -19368.993564724155, -14363.968594547343, 34103.263509662575, 31163.673837622864, -187500.02235174447, 26723.05276668701, 45441.56586427282, 34709.71104022396, 4308.835185627364, -44.79289588843535, 49014.64867766484, 35926.87528453771, 20325.31295124447, -6515.667619188741, 0.148, 1.014, 0.06, 192.0, 0.0, 0.0, 0.0, 0.0, 0.0, 0.0, 0.0, 0.0, 0.0, 1.695754535940486E9, 0.0, 2023-09-26 13:55:35.940
234.0, 73991.65022273663, 68873.59248084933, -19352.49797731614, -14346.9365652724, 34123.06715524998, 31176.391980217933, -187500.02235174447, 26732.9098859918, 45455.3792423462, 34756.33677915773, 4318.267621787503, -33.25939574949691, 49029.0208493496, 35956.87132559673, 20336.913506616773, -6503.329456249411, 0.148, 1.014, 0.06, 192.0, 0.0, 0.0, 0.0, 0.0, 0.0, 0.0, 0.0, 0.0, 0.0, 1.695754535940495E9, 0.0, 2023-09-26 13:55:35.940
236.0, 73976.33927778475, 68855.77814051845, -19369.84293101346, -14369.310661472162, 34106.951547497694, 31152.87794505095, -187500.02235174447, 26721.018757941576, 45446.729117241994, 34733.38153760213, 4318.647601443244, -36.925081840167266, 49024.349334758444, 35947.461241181045, 20342.143814819316, -6508.269191774034, 0.14200000000000002, 1.016, 0.06, 192.0, 2.0, 56.0, 15.5, 96.0, 0.5, 112.0, 0.0, 0.0, 0.0, 1.695754535940504E9, 0.0, 2023-09-26 13:55:35.940
238.0, 73985.83876917826, 68851.57601256085, -19365.55139607804, -14366.248472481784, 34111.48895162212, 31153.16851772887, -187500.02235174447, 26729.37831036786, 45445.36566083022, 34743.61863656266, 4303.604877424822, -45.39639298872864, 49024.88577662537, 35941.20275273356, 20330.45385246919, -6522.328439036422, 0.14200000000000002, 1.016, 0.06, 192.0, 0.0, 0.0, 0.0, 0.0, 0.0, 0.0, 0.0, 0.0, 0.0, 1.695754535940514E9, 0.0, 2023-09-26 13:55:35.940
240.0, 73986.55402500082, 68862.99775397751, -19360.58930880896, -14360.906405556967, 34116.42868714675, 31166.154881257404, -187500.02235174447, 26725.131478921354, 45459.693129026076, 34726.05016542079, 4318.647601443244, -28.83375034734611, 49022.538843457565, 35948.06473828134, 20340.825061896452, -6505.944610350682, 0.14200000000000002, 1.016, 0.06, 192.0, 0.0, 0.0, 0.0, 0.0, 0.0, 0.0, 0.0, 0.0, 0.0, 1.695754535940523E9, 0.0, 2023-09-26 13:55:35.940
0.0, 36987.24204149748, 34498.91173826596, -9708.591962884899, -7164.695222937492, 16858.110351337236, 15547.247594266844, -93750.01117587223, 13407.872725471583, 22728.304294145622, 17379.53184599064, 2157.725650993067, -14.752151340502662, 24515.79564998098, 17970.333155433316, 10171.362480087577, -3254.8610275818146, 0.14300000000000002, 1.017, 0.066, 192.0, 2.0, 64.0, 15.5, 104.0, 1.0, 32.0, 0.0, 0.0, 0.0, 1.695754536023911E9, 0.0, 2023-09-26 13:55:36.023
2.0, 73983.55889124381, 69003.99255800158, -19423.554172939563, -14326.663533051436, 33711.45978110549, 31096.082162390016, -187500.02235174447, 26796.187674544773, 45392.012046815405, 34937.63177843473, 4318.379380509779, 131.24944344156307, 48410.99511516036, 35926.09297348178, 20178.41728668419, -6470.785316322484, 0.14300000000000002, 1.017, 0.066, 192.0, 0.0, 0.0, 0.0, 0.0, 0.0, 0.0, 0.0, 0.0, 0.0, 1.695754536083013E9, 0.0, 2023-09-26 13:55:36.083
4.0, 73994.84652219374, 69016.97892153013, -19404.73400410819, -14321.902611482456, 33725.34021441224, 31102.49711304869, -187500.02235174447, 26803.854322892945, 45402.09268356475, 34938.97288310205, 4328.392962025758, 138.75962957854625, 48436.09612418367, 35939.861648066246, 20187.24622574404, -6465.733822075585, 0.14300000000000002, 1.017, 0.066, 192.0, 0.0, 0.0, 0.0, 0.0, 0.0, 0.0, 0.0, 0.0, 0.0, 1.695754536083038E9, 0.0, 2023-09-26 13:55:36.083
6.0, 73979.58028073076, 68999.45515387716, -19420.290818249086, -14323.914268483433, 33721.58512134375, 31101.44658105929, -187500.02235174447, 26810.023404362608, 45396.88472710666, 34940.80572614738, 4324.168482323705, 128.85780678484522, 48421.76865598782, 35917.688717566576, 20186.530969921467, -6462.604577851842, 0.14300000000000002, 1.017, 0.066, 192.0, 0.0, 0.0, 0.0, 0.0, 0.0, 0.0, 0.0, 0.0, 0.0, 1.695754536083096E9, 0.0, 2023-09-26 13:55:36.083
8.0, 73983.06715286578, 69002.51734286753, -19417.340387980985, -14323.534288827694, 33740.427641919574, 31108.152104395882, -187500.02235174447, 26818.36060504444, 45395.23069801697, 34958.038921122425, 4321.530976477978, 137.0608969999429, 48429.18943514698, 35922.80726704685, 20188.162647266705, -6457.888359771772, 0.14, 1.016, 0.07, 192.0, 2.0, 48.0, 15.5, 96.0, 1.0, 24.0, 0.0, 0.0, 0.0, 1.695754536083106E9, 0.0, 2023-09-26 13:55:36.083
10.0, 73956.80385313081, 68988.0334124605, -19433.187774799797, -14345.818978049634, 33724.87082777868, 31082.358191294457, -187500.02235174447, 26810.15751482934, 45374.77885184036, 34933.72022315505, 4303.6942844026435, 126.2873561724849, 48417.611231519135, 35911.51963609691, 20179.691336118143, -6470.651205855752, 0.14, 1.016, 0.07, 192.0, 0.0, 0.0, 0.0, 0.0, 0.0, 0.0, 0.0, 0.0, 0.0, 1.695754536083116E9, 0.0, 2023-09-26 13:55:36.083
12.0, 73968.69498118103, 69007.72529932563, -19422.146013038877, -14338.26408842374, 33738.684205852056, 31096.283328090114, -187500.02235174447, 26816.08072711, 45383.205459500015, 34927.46173470756, 4306.242383270548, 127.82962653990108, 48414.34787682866, 35906.06581044982, 20178.886673317753, -6474.830982068895, 0.14, 1.016, 0.07, 192.0, 0.0, 0.0, 0.0, 0.0, 0.0, 0.0, 0.0, 0.0, 0.0, 1.695754536083125E9, 0.0, 2023-09-26 13:55:36.083
14.0, 73967.42093174708, 69004.28313067951, -19418.12269903692, -14346.377771661017, 33742.30518845382, 31095.411610056355, -187500.02235174447, 26809.084631095488, 45390.93916308155, 34942.1468308147, 4312.702037418132, 133.64108009828092, 48428.027144435306, 35918.13575245569, 20186.59802515483, -6473.266359957023, 0.14, 1.016, 0.07, 192.0, 0.0, 0.0, 0.0, 0.0, 0.0, 0.0, 0.0, 0.0, 0.0, 1.695754536083135E9, 0.0, 2023-09-26 13:55:36.083
16.0, 73964.3587427567, 68996.05768871996, -19428.56096369755, -14349.976402518321, 33734.39267091664, 31090.80715069856, -187500.02235174447, 26802.73673567018, 45379.629180387165, 34942.929141870634, 4304.9906855810505, 123.80631253794581, 48422.90859495504, 35906.289327894374, 20173.432847670658, -6481.1788774942015, 0.14, 1.016, 0.07, 192.0, 0.0, 0.0, 0.0, 0.0, 0.0, 0.0, 0.0, 0.0, 0.0, 1.695754536143352E9, 0.0, 2023-09-26 13:55:36.143
18.0, 73963.08469332274, 68994.91774975274, -19426.92928635231, -14353.50797814226, 33734.571484872286, 31083.967516895238, -187500.02235174447, 26804.25665429314, 45381.61848564369, 34928.19934227459, 4303.023732068984, 119.60418458034809, 48422.573318788214, 35905.104685438244, 20166.928490034163, -6488.644360142274, 0.13, 1.016, 0.07200000000000001, 192.0, 2.0, 8.0, 15.5, 96.0, 1.0, 32.0, 0.0, 0.0, 0.0, 1.69575453614339E9, 0.0, 2023-09-26 13:55:36.143
20.0, 73973.25473704991, 69008.90994178176, -19422.525992694616, -14335.179547688907, 33747.20022048953, 31099.770200225143, -187500.02235174447, 26814.6278637204, 45395.498918950434, 34934.994272589, 4318.401732254235, 127.33788816188434, 48429.77058050282, 35915.43119137659, 20170.974155780576, -6476.149734991758, 0.13, 1.016, 0.07200000000000001, 192.0, 0.0, 0.0, 0.0, 0.0, 0.0, 0.0, 0.0, 0.0, 0.0, 1.6957545361434E9, 0.0, 2023-09-26 13:55:36.143
22.0, 73964.6046119457, 68992.25789216255, -19433.724216666727, -14347.495358883782, 33735.84553430624, 31088.72843846422, -187500.02235174447, 26822.048642879563, 45382.3113897218, 34942.459755237076, 4307.1588047932155, 121.28056541449612, 48424.607327533646, 35911.474932608005, 20161.049981242417, -6485.403357196255, 0.13, 1.016, 0.07200000000000001, 192.0, 0.0, 0.0, 0.0, 0.0, 0.0, 0.0, 0.0, 0.0, 0.0, 1.695754536143409E9, 0.0, 2023-09-26 13:55:36.143
24.0, 73973.83588240575, 69005.71364232464, -19421.967199083236, -14327.73641678529, 33752.63169439217, 31108.35327009598, -187500.02235174447, 26818.78528818909, 45393.666075905094, 34939.97871160254, 4314.020790340995, 126.33205966139552, 48425.83667347869, 35916.97346174401, 20164.782722566455, -6474.115726246325, 0.13, 1.016, 0.07200000000000001, 192.0, 0.0, 0.0, 0.0, 0.0, 0.0, 0.0, 0.0, 0.0, 0.0, 1.695754536143418E9, 0.0, 2023-09-26 13:55:36.143
26.0, 73972.71829518299, 69001.17623820022, -19432.919553866333, -14338.55466110166, 33740.00295877492, 31093.891691433397, -187500.02235174447, 26820.506372512147, 45390.13450028116, 34939.97871160254, 4317.507662476023, 133.864597542834, 48431.60342354816, 35934.8325055638, 20166.90613828971, -6472.28288320099, 0.13, 1.016, 0.07200000000000001, 192.0, 0.0, 0.0, 0.0, 0.0, 0.0, 0.0, 0.0, 0.0, 0.0, 1.695754536143426E9, 0.0, 2023-09-26 13:55:36.143
28.0, 73963.88935612314, 69000.19276144418, -19429.432681731305, -14331.290344153686, 33742.39459543164, 31102.09478164849, -187500.02235174447, 26815.052546865052, 45387.049959546326, 34936.96122610107, 4318.558194465422, 130.35537366335078, 48418.84057746417, 35913.68775530908, 20160.781760308953, -6466.650243598252, 0.136, 1.016, 0.07, 192.0, 2.0, 32.0, 15.5, 96.0, 1.0, 24.0, 0.0, 0.0, 0.0, 1.695754536143466E9, 0.0, 2023-09-26 13:55:36.143
30.0, 73958.41317873159, 68994.87304626382, -19436.965219612746, -14337.995867490277, 33738.97477852998, 31094.450485044777, -187500.02235174447, 26823.16623010233, 45385.39593045663, 34954.06031060938, 4315.250136286037, 129.1483794627642, 48432.855121237655, 35940.42044167763, 20157.585460851846, -6474.741575091073, 0.136, 1.016, 0.07, 192.0, 0.0, 0.0, 0.0, 0.0, 0.0, 0.0, 0.0, 0.0, 0.0, 1.695754536143476E9, 0.0, 2023-09-26 13:55:36.143
32.0, 73960.40248398812, 68989.4862758501, -19427.912763108347, -14331.491509853782, 33739.75708958591, 31100.01606941415, -187500.02235174447, 26812.057413108043, 45375.427052429564, 34944.20319130459, 4307.874060615785, 119.98416423608832, 48410.481025037894, 35891.6712870206, 20154.903251517208, -6477.356729192345, 0.136, 1.016, 0.07, 192.0, 0.0, 0.0, 0.0, 0.0, 0.0, 0.0, 0.0, 0.0, 0.0, 1.695754536204137E9, 0.0, 2023-09-26 13:55:36.204
34.0, 73979.87085340868, 69000.84096203338, -19416.356911224953, -14317.678131780403, 33765.61805792071, 31108.53208405162, -187500.02235174447, 26835.0350064081, 45393.97900032747, 34941.900961625695, 4317.641772942755, 134.55750162094853, 48430.66465028103, 35913.75481054244, 20164.447446399623, -6468.550141876954, 0.136, 1.016, 0.07, 192.0, 0.0, 0.0, 0.0, 0.0, 0.0, 0.0, 0.0, 0.0, 0.0, 1.695754536204177E9, 0.0, 2023-09-26 13:55:36.204
36.0, 73964.98459160145, 68991.76615378454, -19428.60566718646, -14332.609097076547, 33751.201182747034, 31095.858644945463, -187500.02235174447, 26818.181791088795, 45389.88863109215, 34941.744499414504, 4318.379380509779, 141.28537670199594, 48422.841539721674, 35925.55653161485, 20172.695240103632, -6463.208074952135, 0.136, 1.016, 0.07, 192.0, 0.0, 0.0, 0.0, 0.0, 0.0, 0.0, 0.0, 0.0, 0.0, 1.695754536204187E9, 0.0, 2023-09-26 13:55:36.204
38.0, 73955.59685893022, 68990.40269737276, -19432.89720212188, -14346.400123405472, 33754.17396475959, 31086.62737448542, -187500.02235174447, 26830.810526706045, 45380.63500888765, 34941.185705803124, 4304.23072626957, 129.57306260741504, 48425.18847288948, 35920.34857515676, 20161.69818183162, -6474.316891946422, 0.14, 1.018, 0.076, 192.0, 2.0, 48.0, 15.5, 104.0, 1.0, 48.0, 0.0, 0.0, 0.0, 1.695754536204196E9, 0.0, 2023-09-26 13:55:36.204
40.0, 73951.35002748371, 68987.89930199376, -19430.70673116526, -14334.240774421785, 33756.5656014163, 31094.606947255965, -187500.02235174447, 26822.428622535306, 45375.24823847393, 34934.3460719998, 4304.588354180855, 115.93849848967774, 48416.73951348538, 35911.474932608005, 20159.552414363912, -6470.248874455557, 0.14, 1.018, 0.076, 192.0, 0.0, 0.0, 0.0, 0.0, 0.0, 0.0, 0.0, 0.0, 0.0, 1.695754536204205E9, 0.0, 2023-09-26 13:55:36.204
42.0, 73949.27131524937, 68986.44643860418, -19432.31605676604, -14345.193129204885, 33747.356682700716, 31087.856720430464, -187500.02235174447, 26830.363491816937, 45379.53977340934, 34939.799897646895, 4314.289011274459, 130.48948413008264, 48432.721010770925, 35913.24072041997, 20160.111207975293, -6461.6881563291745, 0.14, 1.018, 0.076, 192.0, 0.0, 0.0, 0.0, 0.0, 0.0, 0.0, 0.0, 0.0, 0.0, 1.695754536204215E9, 0.0, 2023-09-26 13:55:36.204
44.0, 73944.86802159167, 68984.77005777003, -19441.726141181727, -14342.041533236687, 33741.43347042006, 31091.991793154695, -187500.02235174447, 26816.9300933993, 45373.03541577285, 34914.564778156855, 4308.298743760436, 122.55461484844862, 48409.58695525968, 35899.2708801354, 20146.901327002208, -6467.656072098741, 0.14, 1.018, 0.076, 192.0, 0.0, 0.0, 0.0, 0.0, 0.0, 0.0, 0.0, 0.0, 0.0, 1.695754536204224E9, 0.0, 2023-09-26 13:55:36.204
46.0, 73938.453070933, 68976.32109836592, -19462.647373991895, -14350.825768807623, 33734.25856044991, 31074.24450805718, -187500.02235174447, 26825.91549467033, 45377.88574431965, 34926.96999632955, 4310.75743565052, 126.73439106159104, 48419.01939141982, 35899.58380455778, 20146.342533390827, -6466.940816276171, 0.14, 1.018, 0.076, 192.0, 0.0, 0.0, 0.0, 0.0, 0.0, 0.0, 0.0, 0.0, 0.0, 1.695754536263806E9, 0.0, 2023-09-26 13:55:36.263
48.0, 73954.21105077399, 68997.80112478747, -19436.495832979184, -14323.087253938587, 33751.53645891386, 31101.625395014933, -187500.02235174447, 26814.896084653865, 45368.2074389705, 34914.00598454547, 4303.9848570805625, 116.96667873462187, 48415.71133324043, 35910.44675236306, 20137.759463519986, -6473.75809833504, 0.14200000000000002, 1.012, 0.08, 192.0, 2.0, 56.0, 15.5, 80.0, 1.0, 64.0, 0.0, 0.0, 0.0, 1.695754536263835E9, 0.0, 2023-09-26 13:55:36.263
50.0, 73953.09346355122, 69002.83026728992, -19442.12847258192, -14323.601344061059, 33762.377054974684, 31104.464066560755, -187500.02235174447, 26826.004901648153, 45394.18016602757, 34953.05448210889, 4334.606746984333, 147.476809916116, 48438.42070560702, 35932.17264797362, 20173.634013370756, -6437.280051383978, 0.14200000000000002, 1.012, 0.08, 192.0, 0.0, 0.0, 0.0, 0.0, 0.0, 0.0, 0.0, 0.0, 0.0, 1.695754536263882E9, 0.0, 2023-09-26 13:55:36.263
52.0, 73955.88743160813, 69007.54648536998, -19440.966181870244, -14322.9307917274, 33767.22738352149, 31099.770200225143, -187500.02235174447, 26813.510276497636, 45382.490203677444, 34941.051595336394, 4317.865290387308, 129.64011784078096, 48430.79876074776, 35915.96763324352, 20155.819673039874, -6457.6424905827635, 0.14200000000000002, 1.012, 0.08, 192.0, 0.0, 0.0, 0.0, 0.0, 0.0, 0.0, 0.0, 0.0, 0.0, 1.695754536263892E9, 0.0, 2023-09-26 13:55:36.263
54.0, 73957.11677755318, 69007.36767141434, -19437.8369376465, -14319.64508529247, 33758.35374097273, 31105.671060761342, -187500.02235174447, 26829.335311571995, 45382.02081704388, 34957.34601704431, 4324.928441635185, 142.53707439149315, 48425.523749056316, 35914.58182508729, 20161.027629497963, -6449.573510834398, 0.14200000000000002, 1.012, 0.08, 192.0, 0.0, 0.0, 0.0, 0.0, 0.0, 0.0, 0.0, 0.0, 0.0, 1.6957545362639E9, 0.0, 2023-09-26 13:55:36.263
56.0, 73951.17121352807, 69002.11501146735, -19442.50845223766, -14323.601344061059, 33753.65987463712, 31095.992755412193, -187500.02235174447, 26822.585084746494, 45374.22005822898, 34955.42376702115, 4318.1335113207715, 135.4739231436161, 48426.417818834525, 35928.68577583859, 20159.574766108366, -6453.932101003183, 0.14200000000000002, 1.012, 0.08, 192.0, 0.0, 0.0, 0.0, 0.0, 0.0, 0.0, 0.0, 0.0, 0.0, 1.695754536263909E9, 0.0, 2023-09-26 13:55:36.263
58.0, 73962.39178924463, 69011.50274413858, -19428.1362805529, -14308.312750853629, 33771.049531823344, 31115.282310877123, -187500.02235174447, 26826.78721270409, 45385.0606542898, 34970.01945615047, 4327.610650969822, 147.43210642720538, 48424.808493233744, 35932.06088925134, 20163.396914410223, -6445.237272410068, 0.14, 1.012, 0.078, 192.0, 2.0, 48.0, 15.5, 80.0, 1.0, 56.0, 0.0, 0.0, 0.0, 1.695754536263918E9, 0.0, 2023-09-26 13:55:36.263
60.0, 73967.37622825816, 69012.77679357253, -19425.565829940537, -14310.704387510346, 33773.50822371343, 31112.6448050314, -187500.02235174447, 26830.676416239312, 45378.42218618658, 34977.9543254321, 4325.889566646763, 147.54386514948192, 48427.82597873521, 35926.09297348178, 20170.70593484711, -6442.51035958652, 0.14, 1.012, 0.078, 192.0, 0.0, 0.0, 0.0, 0.0, 0.0, 0.0, 0.0, 0.0, 0.0, 1.695754536263927E9, 0.0, 2023-09-26 13:55:36.263
62.0, 73981.50253075392, 69026.29959896799, -19416.64748390287, -14306.725776997302, 33773.06118882432, 31123.641863303408, -187500.02235174447, 26835.280875597105, 45400.57276494179, 34975.56268877538, 4342.0275261434945, 164.77706012452367, 48452.61406333614, 35946.902447569664, 20173.924586048674, -6431.4015425922325, 0.14, 1.012, 0.078, 192.0, 0.0, 0.0, 0.0, 0.0, 0.0, 0.0, 0.0, 0.0, 0.0, 1.695754536324705E9, 0.0, 2023-09-26 13:55:36.324
64.0, 73986.59872848973, 69031.52990717052, -19414.725233879715, -14303.194201373364, 33766.95916258802, 31116.019918444148, -187500.02235174447, 26828.910628427344, 45402.36090449821, 34972.098168384815, 4347.928386679696, 161.17842926721923, 48445.52856034381, 35926.562360115335, 20168.69427784613, -6436.006001950026, 0.14, 1.012, 0.078, 192.0, 0.0, 0.0, 0.0, 0.0, 0.0, 0.0, 0.0, 0.0, 0.0, 1.695754536324728E9, 0.0, 2023-09-26 13:55:36.324
66.0, 73987.29163256784, 69032.22281124865, -19409.494925677172, -14307.172811886408, 33777.1739098041, 31114.745869010196, -187500.02235174447, 26827.12248887092, 45413.29090753686, 34969.438310794634, 4353.426915815701, 164.77706012452367, 48442.980461475905, 35937.402956176156, 20171.912929047696, -6436.050705438937, 0.14, 1.012, 0.078, 192.0, 0.0, 0.0, 0.0, 0.0, 0.0, 0.0, 0.0, 0.0, 0.0, 1.695754536324738E9, 0.0, 2023-09-26 13:55:36.324
68.0, 73968.33735326974, 69011.01100576055, -19432.628981188416, -14314.414777089927, 33762.13118578568, 31105.335784594514, -187500.02235174447, 26830.162326116842, 45396.43769221756, 34971.69583698462, 4340.015869142517, 148.77321109452382, 48442.421667864524, 35932.75379332945, 20161.876995787265, -6444.99140322106, 0.134, 1.01, 0.076, 192.0, 2.0, 24.0, 15.5, 72.0, 1.0, 48.0, 0.0, 0.0, 0.0, 1.695754536324748E9, 0.0, 2023-09-26 13:55:36.324
70.0, 73965.99042010194, 69006.00421500257, -19431.980780599213, -14325.210669661841, 33765.036912564865, 31103.480589804723, -187500.02235174447, 26820.729889956703, 45392.280267748865, 34955.312008298875, 4332.684496961177, 147.94619654967744, 48437.169007917524, 35924.55070311436, 20154.94795500612, -6445.0808101988805, 0.134, 1.01, 0.076, 192.0, 0.0, 0.0, 0.0, 0.0, 0.0, 0.0, 0.0, 0.0, 0.0, 1.695754536324758E9, 0.0, 2023-09-26 13:55:36.324
72.0, 73945.73973962542, 68999.09752596587, -19443.0895975935, -14348.12120772853, 33757.88435433917, 31079.430112770813, -187500.02235174447, 26814.113773597932, 45382.624314144174, 34942.236237792524, 4320.771017166498, 127.11437071733127, 48432.8327694932, 35901.81897900331, 20147.773045035967, -6462.09048772937, 0.134, 1.01, 0.076, 192.0, 0.0, 0.0, 0.0, 0.0, 0.0, 0.0, 0.0, 0.0, 0.0, 1.695754536324797E9, 0.0, 2023-09-26 13:55:36.324
74.0, 73951.43943446153, 69000.036299233, -19431.869021876933, -14327.423492362917, 33761.259467751916, 31088.59432799749, -187500.02235174447, 26808.481133995192, 45381.64083738814, 34941.16335405867, 4324.995496868551, 126.91320501723351, 48417.36536233013, 35882.90940319412, 20149.36001889229, -6464.638586597274, 0.134, 1.01, 0.076, 192.0, 0.0, 0.0, 0.0, 0.0, 0.0, 0.0, 0.0, 0.0, 0.0, 1.695754536324807E9, 0.0, 2023-09-26 13:55:36.324
76.0, 73954.88160310764, 69006.38419465831, -19434.79710040058, -14328.742245285779, 33768.43437772207, 31081.262955816146, -187500.02235174447, 26816.192485832275, 45376.4105291856, 34952.2498193085, 4325.688400946665, 135.1162952323312, 48435.24675789437, 35897.39333360116, 20145.001428723506, -6460.369403406311, 0.134, 1.01, 0.076, 192.0, 0.0, 0.0, 0.0, 0.0, 0.0, 0.0, 0.0, 0.0, 0.0, 1.695754536383126E9, 0.0, 2023-09-26 13:55:36.383
78.0, 73946.52205068136, 68991.11795319534, -19442.17317607083, -14336.990038989788, 33758.13022352818, 31080.324182549022, -187500.02235174447, 26812.01270961913, 45379.40566294261, 34943.95732211558, 4329.979935882084, 142.98410928059928, 48422.75213274385, 35912.63722331968, 20151.774007293465, -6450.780505034984, 0.132, 1.012, 0.076, 192.0, 2.0, 16.0, 15.5, 80.0, 1.0, 48.0, 0.0, 0.0, 0.0, 1.695754536383178E9, 0.0, 2023-09-26 13:55:36.383
80.0, 73946.67851289255, 68986.62525255981, -19446.621173217438, -14342.734437314803, 33755.24684849344, 31079.34070579299, -187500.02235174447, 26819.053509122554, 45361.21134295599, 34938.950531357594, 4308.2093367826155, 127.62846083980332, 48412.93971692798, 35897.482740578984, 20127.857640726288, -6469.332452932889, 0.132, 1.012, 0.076, 192.0, 0.0, 0.0, 0.0, 0.0, 0.0, 0.0, 0.0, 0.0, 0.0, 1.695754536383189E9, 0.0, 2023-09-26 13:55:36.383
82.0, 73947.99726581541, 69004.75251731307, -19435.355894011962, -14325.300076639662, 33773.53057545788, 31091.45535128777, -187500.02235174447, 26825.334349314493, 45374.57768614026, 34942.77267965945, 4322.782674167475, 141.53124589100432, 48429.63647003609, 35897.46038883452, 20147.303658402405, -6453.865045769817, 0.132, 1.012, 0.076, 192.0, 0.0, 0.0, 0.0, 0.0, 0.0, 0.0, 0.0, 0.0, 0.0, 1.695754536383199E9, 0.0, 2023-09-26 13:55:36.383
84.0, 73943.7504343689, 69004.50664812406, -19443.89426039389, -14330.64214356448, 33763.89697359764, 31091.991793154695, -187500.02235174447, 26829.558829016547, 45378.80216584232, 34959.53648800093, 4328.661182959221, 145.66631861523612, 48433.21274914894, 35912.43605761958, 20146.52134734647, -6454.08856321437, 0.132, 1.012, 0.076, 192.0, 0.0, 0.0, 0.0, 0.0, 0.0, 0.0, 0.0, 0.0, 0.0, 1.695754536383208E9, 0.0, 2023-09-26 13:55:36.383
86.0, 73956.55798394179, 69020.77871808753, -19432.830146888515, -14316.493489324272, 33771.340104501265, 31104.15114213838, -187500.02235174447, 26821.869828923922, 45380.50089842092, 34944.94079887161, 4332.036296371973, 144.74989709256855, 48426.909557212544, 35915.40883963214, 20145.113187445782, -6449.349993389845, 0.132, 1.012, 0.076, 192.0, 0.0, 0.0, 0.0, 0.0, 0.0, 0.0, 0.0, 0.0, 0.0, 1.695754536383216E9, 0.0, 2023-09-26 13:55:36.383
88.0, 73944.7562628694, 68999.00811898806, -19455.04778087709, -14340.298097169174, 33759.650142151135, 31076.85966215845, -187500.02235174447, 26825.021424892122, 45377.63987513064, 34965.794976448415, 4332.505683005534, 144.21345522564116, 48423.02035367732, 35907.78689477288, 20135.054902440894, -6454.669708570208, 0.132, 1.018, 0.07200000000000001, 192.0, 2.0, 16.0, 15.5, 104.0, 1.0, 32.0, 0.0, 0.0, 0.0, 1.695754536383225E9, 0.0, 2023-09-26 13:55:36.383
90.0, 73944.44333844702, 68994.11308695235, -19451.42679827533, -14334.173719188419, 33765.528650942884, 31087.633202985908, -187500.02235174447, 26815.0301951206, 45370.28615120485, 34939.1964005466, 4329.1082178483275, 133.1940452091748, 48421.14280714307, 35899.89672898015, 20129.668132027167, -6462.693984829662, 0.132, 1.018, 0.07200000000000001, 192.0, 0.0, 0.0, 0.0, 0.0, 0.0, 0.0, 0.0, 0.0, 0.0, 1.695754536383234E9, 0.0, 2023-09-26 13:55:36.383
92.0, 73948.80192861581, 69003.50081962357, -19445.816510417048, -14323.131957427498, 33777.97857260449, 31092.68469723281, -187500.02235174447, 26835.012654663642, 45382.3113897218, 34956.228429821545, 4337.937156908173, 143.18527498069705, 48430.41878109203, 35908.83742676228, 20135.345475118815, -6447.271281155501, 0.132, 1.018, 0.07200000000000001, 192.0, 0.0, 0.0, 0.0, 0.0, 0.0, 0.0, 0.0, 0.0, 0.0, 1.695754536443369E9, 0.0, 2023-09-26 13:55:36.443
94.0, 73957.72027465347, 69014.72139534014, -19445.972972628235, -14320.606210304048, 33778.69382842706, 31097.311508335057, -187500.02235174447, 26819.992282389678, 45383.13840426665, 34951.78043267494, 4339.792351697964, 148.1250105053199, 48431.26814738133, 35910.49145585197, 20136.88774548623, -6446.041935210459, 0.132, 1.018, 0.07200000000000001, 192.0, 0.0, 0.0, 0.0, 0.0, 0.0, 0.0, 0.0, 0.0, 0.0, 1.695754536443397E9, 0.0, 2023-09-26 13:55:36.443
96.0, 73952.73583563993, 69008.95464527067, -19449.884527907914, -14328.384617374495, 33777.30802027083, 31095.880996689917, -187500.02235174447, 26831.391672061884, 45378.55629665331, 34961.43638627963, 4343.279223832992, 149.48846691709363, 48431.446961336966, 35924.617758347726, 20128.84111748232, -6450.735801546073, 0.132, 1.018, 0.07200000000000001, 192.0, 0.0, 0.0, 0.0, 0.0, 0.0, 0.0, 0.0, 0.0, 0.0, 1.695754536443447E9, 0.0, 2023-09-26 13:55:36.443
98.0, 73968.06913233628, 69024.39970068929, -19441.56967897054, -14313.006617189243, 33786.49458724196, 31105.24637761669, -187500.02235174447, 26827.904799926855, 45386.66997989058, 34951.91454314167, 4345.894377934263, 146.94036804918863, 48429.74822875836, 35906.646955805656, 20134.78668150743, -6438.598804306842, 0.128, 1.014, 0.078, 192.0, 2.0, 0.0, 15.5, 88.0, 1.0, 56.0, 0.0, 0.0, 0.0, 1.695754536443456E9, 0.0, 2023-09-26 13:55:36.443
100.0, 73963.82230088978, 69007.39002315879, -19442.217879559743, -14324.02602720571, 33776.92804061509, 31097.177397868327, -187500.02235174447, 26830.6317127504, 45388.88280259166, 34978.244898110024, 4343.502741277545, 161.46900194513822, 48426.64133627908, 35914.760639042936, 20139.99463796552, -6435.827187994384, 0.128, 1.014, 0.078, 192.0, 0.0, 0.0, 0.0, 0.0, 0.0, 0.0, 0.0, 0.0, 0.0, 1.695754536443466E9, 0.0, 2023-09-26 13:55:36.443
102.0, 73959.12843455415, 69002.539694612, -19442.039065604098, -14328.429320863406, 33770.17781378959, 31103.10061014898, -187500.02235174447, 26818.450012022262, 45377.14813675263, 34949.34409252931, 4329.242328315059, 143.60995812534787, 48416.136016385084, 35901.50605458094, 20132.059768683885, -6457.396621393755, 0.128, 1.014, 0.078, 192.0, 0.0, 0.0, 0.0, 0.0, 0.0, 0.0, 0.0, 0.0, 0.0, 1.695754536443475E9, 0.0, 2023-09-26 13:55:36.443
104.0, 73962.16827180008, 69007.77000281453, -19438.8874696359, -14334.173719188419, 33769.59666843375, 31106.87805496193, -187500.02235174447, 26823.21093359124, 45380.389139698644, 34963.917429914174, 4327.498892247545, 145.08517325939815, 48421.67924901, 35934.34076718578, 20135.166661163174, -6462.537522618476, 0.128, 1.014, 0.078, 192.0, 0.0, 0.0, 0.0, 0.0, 0.0, 0.0, 0.0, 0.0, 0.0, 1.695754536443484E9, 0.0, 2023-09-26 13:55:36.443
106.0, 73957.47440546447, 69001.86914227833, -19450.219804074743, -14345.081370482609, 33757.705540383526, 31102.608871770964, -187500.02235174447, 26812.54915148606, 45384.390101956145, 34958.24008682252, 4330.76224693802, 147.25329247156293, 48432.229272392906, 35922.31552866883, 20145.247297912516, -6462.068135984914, 0.128, 1.014, 0.078, 192.0, 0.0, 0.0, 0.0, 0.0, 0.0, 0.0, 0.0, 0.0, 0.0, 1.695754536503426E9, 0.0, 2023-09-26 13:55:36.503
108.0, 73978.4179900191, 69021.42691867673, -19434.394769000384, -14328.742245285779, 33765.37218873169, 31135.532991353633, -187500.02235174447, 26819.20997133374, 45384.725378122974, 34960.78818569043, 4323.319116034403, 142.1794464802082, 48416.80656871874, 35907.16104592813, 20151.148158448716, -6456.27903417099, 0.138, 1.018, 0.08, 192.0, 2.0, 40.0, 15.5, 104.0, 1.0, 64.0, 0.0, 0.0, 0.0, 1.69575453650346E9, 0.0, 2023-09-26 13:55:36.503
110.0, 73974.39467601714, 69012.93325578372, -19438.105158579965, -14338.956992501855, 33758.71136888401, 31133.387223885922, -187500.02235174447, 26818.98645388919, 45403.7690643989, 34978.177842876656, 4328.907052148229, 156.5963216538813, 48425.05436242275, 35916.10174371025, 20168.98485052405, -6437.280051383978, 0.138, 1.018, 0.08, 192.0, 0.0, 0.0, 0.0, 0.0, 0.0, 0.0, 0.0, 0.0, 0.0, 1.695754536503471E9, 0.0, 2023-09-26 13:55:36.503
112.0, 73970.95250737101, 69001.31034866696, -19435.244135289686, -14340.07457972462, 33762.42175846359, 31138.30460766609, -187500.02235174447, 26822.093346368474, 45390.58153517026, 34960.207040334586, 4316.18890955316, 138.46905690062727, 48430.128208414106, 35927.34467117127, 20172.829350570366, -6443.762057276018, 0.138, 1.018, 0.08, 192.0, 0.0, 0.0, 0.0, 0.0, 0.0, 0.0, 0.0, 0.0, 0.0, 1.695754536503484E9, 0.0, 2023-09-26 13:55:36.503
114.0, 73968.8067399033, 68993.06255496295, -19437.814585902048, -14338.55466110166, 33758.890182839656, 31138.12579371045, -187500.02235174447, 26825.647273736868, 45396.59415442874, 34954.39558677621, 4322.089770089361, 138.24553945607417, 48438.085429440194, 35906.40108661665, 20189.056717044918, -6433.569661804398, 0.138, 1.018, 0.08, 192.0, 0.0, 0.0, 0.0, 0.0, 0.0, 0.0, 0.0, 0.0, 0.0, 1.695754536503492E9, 0.0, 2023-09-26 13:55:36.503
116.0, 73970.93015562656, 68987.40756361575, -19439.379208013917, -14357.821864822134, 33741.52287739788, 31114.43294458782, -187500.02235174447, 26810.87277065191, 45388.50282293592, 34920.6891561376, 4307.807005382419, 123.00164973755477, 48421.4780833099, 35911.050249463355, 20180.563054151902, -6446.913653244216, 0.138, 1.018, 0.08, 192.0, 0.0, 0.0, 0.0, 0.0, 0.0, 0.0, 0.0, 0.0, 0.0, 1.695754536503501E9, 0.0, 2023-09-26 13:55:36.503
118.0, 73972.78535041635, 68988.59220607189, -19434.640638189394, -14362.672193368935, 33750.88825832466, 31114.321185865545, -187500.02235174447, 26807.475305494703, 45386.26764849039, 34922.52199918294, 4302.666104157699, 111.69166704316939, 48419.24290886437, 35881.43418806007, 20185.79336235444, -6460.548217361953, 0.14, 1.014, 0.08, 192.0, 2.0, 48.0, 15.5, 88.0, 1.0, 64.0, 0.0, 0.0, 0.0, 1.695754536503541E9, 0.0, 2023-09-26 13:55:36.503
120.0, 73980.54140574235, 68991.52028459554, -19428.9856468422, -14355.497283398783, 33755.00097930443, 31119.842066746005, -187500.02235174447, 26806.245959549662, 45401.35507599772, 34936.33537725632, 4319.876947388286, 128.65664108474746, 48419.19820537546, 35903.92004298211, 20207.362795753812, -6443.091504942358, 0.14, 1.014, 0.08, 192.0, 0.0, 0.0, 0.0, 0.0, 0.0, 0.0, 0.0, 0.0, 0.0, 1.69575453650355E9, 0.0, 2023-09-26 13:55:36.503
122.0, 73971.0642660933, 68979.04801118947, -19435.020617845134, -14366.69550737089, 33748.407214690116, 31115.662290532866, -187500.02235174447, 26805.709517682735, 45385.03830254535, 34926.5453131849, 4303.023732068984, 113.94919323315541, 48426.86485372363, 35876.785025213365, 20195.09168804785, -6458.000118494048, 0.14, 1.014, 0.08, 192.0, 0.0, 0.0, 0.0, 0.0, 0.0, 0.0, 0.0, 0.0, 0.0, 1.695754536563959E9, 0.0, 2023-09-26 13:55:36.563
124.0, 73988.85625467972, 69003.99255800158, -19410.50075417766, -14338.711123312847, 33770.915421356614, 31129.2968546506, -187500.02235174447, 26805.128372326897, 45402.763235898405, 34935.57541794484, 4317.28414503147, 134.62455685431445, 48425.791969989776, 35911.63139481919, 20207.519257965, -6442.353897375334, 0.14, 1.014, 0.08, 192.0, 0.0, 0.0, 0.0, 0.0, 0.0, 0.0, 0.0, 0.0, 0.0, 1.695754536563981E9, 0.0, 2023-09-26 13:55:36.563
126.0, 73981.92721389857, 68992.79433402949, -19426.258734018655, -14349.21644320684, 33757.99611306145, 31112.689508520307, -187500.02235174447, 26809.196389817764, 45407.5688609563, 34955.736691443526, 4317.597069453844, 137.93261503369988, 48439.694755040975, 35907.51867383941, 20202.84774337384, -6443.404429364733, 0.14, 1.014, 0.08, 192.0, 0.0, 0.0, 0.0, 0.0, 0.0, 0.0, 0.0, 0.0, 0.0, 1.695754536563991E9, 0.0, 2023-09-26 13:55:36.563
128.0, 73991.40435354762, 69003.07613647892, -19419.84378335998, -14344.343762915583, 33773.64233418016, 31125.675872048843, -187500.02235174447, 26806.380070016396, 45399.1646050411, 34929.182819030626, 4313.931383363174, 129.21543469613013, 48430.30702236975, 35889.90549920863, 20199.204409027625, -6443.471484598099, 0.138, 1.012, 0.084, 192.0, 2.0, 40.0, 15.5, 80.0, 1.0, 80.0, 0.0, 0.0, 0.0, 1.695754536564E9, 0.0, 2023-09-26 13:55:36.564
130.0, 73971.82422540477, 68990.76032528405, -19434.864155633946, -14358.917100300445, 33759.4713281955, 31110.20846488577, -187500.02235174447, 26817.846514921966, 45406.898308622636, 34947.35478727279, 4316.747703164542, 131.47296088611614, 48440.34295563018, 35905.104685438244, 20195.80694387042, -6443.13620843127, 0.138, 1.012, 0.084, 192.0, 0.0, 0.0, 0.0, 0.0, 0.0, 0.0, 0.0, 0.0, 0.0, 1.695754536564009E9, 0.0, 2023-09-26 13:55:36.564
132.0, 73965.63279219065, 68984.6806507922, -19433.791271900092, -14355.921966543434, 33754.59864790424, 31110.946072452793, -187500.02235174447, 26804.34606127096, 45388.54752642483, 34919.37040321474, 4299.13452853376, 118.88892875777826, 48415.219594862414, 35885.85983346222, 20180.205426240616, -6460.905845273238, 0.138, 1.012, 0.084, 192.0, 0.0, 0.0, 0.0, 0.0, 0.0, 0.0, 0.0, 0.0, 0.0, 1.695754536564018E9, 0.0, 2023-09-26 13:55:36.564
134.0, 73970.37136201518, 68987.09463919338, -19432.22664978822, -14350.781065318712, 33765.88627885417, 31110.52138930814, -187500.02235174447, 26818.807639933544, 45392.25791600441, 34926.32179574035, 4306.5106042040115, 126.35441140585083, 48419.60053677566, 35897.14746441215, 20182.03826928595, -6452.456885869132, 0.138, 1.012, 0.084, 192.0, 0.0, 0.0, 0.0, 0.0, 0.0, 0.0, 0.0, 0.0, 0.0, 1.695754536564027E9, 0.0, 2023-09-26 13:55:36.564
136.0, 73971.01956260439, 68991.67674680671, -19444.721274938736, -14345.483701882804, 33764.18754627556, 31118.456258589777, -187500.02235174447, 26806.603587460948, 45397.28705850686, 34913.53659791191, 4305.325961747881, 130.04244924097648, 48429.10002816916, 35884.38461832817, 20179.780743095966, -6448.3218131449, 0.138, 1.012, 0.084, 192.0, 0.0, 0.0, 0.0, 0.0, 0.0, 0.0, 0.0, 0.0, 0.0, 1.695754536624537E9, 0.0, 2023-09-26 13:55:36.624
138.0, 73982.0613243653, 69000.12570621082, -19426.348140996473, -14349.819940307134, 33781.756017417436, 31117.74100276721, -187500.02235174447, 26817.73475619969, 45400.28219226387, 34933.921388855146, 4304.789519880953, 132.3223271754178, 48439.694755040975, 35902.98126971498, 20177.031478527962, -6446.578377077387, 0.138, 1.014, 0.082, 192.0, 2.0, 40.0, 15.5, 88.0, 1.0, 72.0, 0.0, 0.0, 0.0, 1.695754536624578E9, 0.0, 2023-09-26 13:55:36.624
140.0, 73980.7649231869, 68992.99549972957, -19435.42294924533, -14354.849082809578, 33778.38090400468, 31116.176380655335, -187500.02235174447, 26810.626901462903, 45409.58051795728, 34915.63766189071, 4313.372589751791, 131.80823705294574, 48438.26424339584, 35902.69069703707, 20191.157781023718, -6443.046801453448, 0.138, 1.014, 0.082, 192.0, 0.0, 0.0, 0.0, 0.0, 0.0, 0.0, 0.0, 0.0, 0.0, 1.695754536624648E9, 0.0, 2023-09-26 13:55:36.624
142.0, 73971.39954226011, 68973.86240647583, -19455.71833321075, -14373.98217606332, 33758.040816550354, 31098.45144730228, -187500.02235174447, 26806.849456649958, 45375.67292161858, 34920.01860380395, 4285.812888838397, 112.026943209999, 48416.87362395211, 35875.77919671288, 20160.424132397668, -6468.728955832596, 0.138, 1.014, 0.082, 192.0, 0.0, 0.0, 0.0, 0.0, 0.0, 0.0, 0.0, 0.0, 0.0, 1.695754536624662E9, 0.0, 2023-09-26 13:55:36.624
144.0, 73993.93010067107, 68998.11404920985, -19422.99537932818, -14334.821919777623, 33784.54998547435, 31118.568017312053, -187500.02235174447, 26811.610378218935, 45396.14711953964, 34927.52878994093, 4309.125758305283, 138.29024294498478, 48434.77737126081, 35890.06196141982, 20186.978004810575, -6440.431647352177, 0.138, 1.014, 0.082, 192.0, 0.0, 0.0, 0.0, 0.0, 0.0, 0.0, 0.0, 0.0, 0.0, 1.695754536624678E9, 0.0, 2023-09-26 13:55:36.624
146.0, 73988.38686804616, 68985.57472057041, -19428.51626020864, -14336.118320956031, 33779.20791854953, 31113.20359864278, -187500.02235174447, 26818.874695166913, 45393.15198578263, 34920.55504567087, 4304.297781502936, 135.04923999896528, 48421.947469943465, 35885.457502062025, 20185.905121076717, -6444.298499142945, 0.138, 1.014, 0.082, 192.0, 0.0, 0.0, 0.0, 0.0, 0.0, 0.0, 0.0, 0.0, 0.0, 1.695754536624688E9, 0.0, 2023-09-26 13:55:36.624
148.0, 73992.54429251484, 68986.89347349328, -19429.03035033111, -14346.042495494188, 33785.35464827474, 31121.361985368967, -187500.02235174447, 26812.079764852497, 45395.90125035063, 34905.98170828602, 4301.436758212657, 127.76257130653516, 48443.15927543155, 35897.706258023536, 20189.749621123032, -6439.001135707037, 0.14, 1.012, 0.082, 192.0, 2.0, 48.0, 15.5, 80.0, 1.0, 72.0, 0.0, 0.0, 0.0, 1.695754536624698E9, 0.0, 2023-09-26 13:55:36.624
150.0, 74000.92619668558, 68994.91774975274, -19423.397710728375, -14350.289326940696, 33788.84152040977, 31124.334767381522, -187500.02235174447, 26827.83774469349, 45406.63008768918, 34924.75717362847, 4308.701075160632, 135.20570221015242, 48444.522731843324, 35919.8791885232, 20198.310339249416, -6437.74943801754, 0.14, 1.012, 0.082, 192.0, 0.0, 0.0, 0.0, 0.0, 0.0, 0.0, 0.0, 0.0, 0.0, 1.695754536624709E9, 0.0, 2023-09-26 13:55:36.624
152.0, 74014.94074045906, 68993.17431368522, -19420.447280460274, -14346.668344338936, 33789.4226657656, 31130.101517450992, -187500.02235174447, 26829.558829016547, 45402.02562833138, 34918.69985088109, 4308.812833882908, 129.03662074048768, 48455.7880110488, 35910.066772707316, 20197.23745551556, -6437.101237428336, 0.14, 1.012, 0.082, 192.0, 0.0, 0.0, 0.0, 0.0, 0.0, 0.0, 0.0, 0.0, 0.0, 1.695754536684078E9, 0.0, 2023-09-26 13:55:36.684
154.0, 74016.48301082647, 68987.45226710466, -19420.76020488265, -14340.633373336002, 33790.6743634551, 31124.424174359345, -187500.02235174447, 26835.21382036374, 45406.60773594472, 34939.35286275779, 4315.630115941777, 142.98410928059928, 48439.15831317405, 35902.06484819232, 20197.125696793282, -6434.396676349244, 0.14, 1.012, 0.082, 192.0, 0.0, 0.0, 0.0, 0.0, 0.0, 0.0, 0.0, 0.0, 0.0, 1.695754536684106E9, 0.0, 2023-09-26 13:55:36.684
156.0, 74003.7648682314, 68981.03731644599, -19421.296646749575, -14345.349591416072, 33786.38282851969, 31118.92564522334, -187500.02235174447, 26830.721119728223, 45391.07327354828, 34925.62889166223, 4300.766205878997, 126.44381838367205, 48430.128208414106, 35868.738397209454, 20184.966347809597, -6445.773714276996, 0.14, 1.012, 0.082, 192.0, 0.0, 0.0, 0.0, 0.0, 0.0, 0.0, 0.0, 0.0, 0.0, 1.695754536684116E9, 0.0, 2023-09-26 13:55:36.684
158.0, 74010.11276365671, 68989.01688921654, -19424.04591131758, -14340.342800658083, 33798.78804669238, 31128.536895339123, -187500.02235174447, 26838.790099476588, 45401.735055653466, 34924.93598758412, 4309.304572260925, 137.75380107805742, 48437.77250501782, 35923.94720601406, 20191.94009207965, -6434.642545538252, 0.14, 1.014, 0.08, 192.0, 2.0, 48.0, 15.5, 88.0, 1.0, 64.0, 0.0, 0.0, 0.0, 1.695754536684126E9, 0.0, 2023-09-26 13:55:36.684
160.0, 74021.84742949574, 68999.65631957726, -19418.614437414937, -14340.476911124815, 33804.30892757284, 31111.236645130713, -187500.02235174447, 26830.8328784505, 45396.08006430627, 34906.160522241655, 4296.4746709435785, 125.39328639427262, 48444.92506324352, 35901.55075806985, 20172.80699882591, -6445.79606602145, 0.14, 1.014, 0.08, 192.0, 0.0, 0.0, 0.0, 0.0, 0.0, 0.0, 0.0, 0.0, 0.0, 1.695754536684136E9, 0.0, 2023-09-26 13:55:36.684
162.0, 74000.83678970776, 68986.3346798819, -19433.791271900092, -14352.300983941674, 33790.74141868847, 31105.983985183717, -187500.02235174447, 26828.240076093683, 45399.23166027447, 34923.17019977215, 4305.482423959068, 132.18821670868596, 48442.220502164426, 35904.36707787122, 20176.13740874975, -6447.964185233615, 0.14, 1.014, 0.08, 192.0, 0.0, 0.0, 0.0, 0.0, 0.0, 0.0, 0.0, 0.0, 0.0, 1.695754536684187E9, 0.0, 2023-09-26 13:55:36.684
164.0, 73997.30521408383, 68981.14907516827, -19434.305362022562, -14358.872396811534, 33788.238023309474, 31097.132694379416, -187500.02235174447, 26818.271198066617, 45380.79147109884, 34917.0905252803, 4289.2550574845145, 115.2008909226526, 48432.94452821548, 35869.319542565296, 20155.059713728395, -6465.577359864397, 0.14, 1.014, 0.08, 192.0, 0.0, 0.0, 0.0, 0.0, 0.0, 0.0, 0.0, 0.0, 0.0, 1.695754536684196E9, 0.0, 2023-09-26 13:55:36.684
166.0, 74001.79791471934, 68978.15394141125, -19428.18098404181, -14350.915175785445, 33781.57720346179, 31084.906290162362, -187500.02235174447, 26807.8776368949, 45381.68554087705, 34922.030260804924, 4293.770109864487, 121.68289681469165, 48416.02425766281, 35888.2738218634, 20156.512577117992, -6470.003005266548, 0.14, 1.014, 0.08, 192.0, 0.0, 0.0, 0.0, 0.0, 0.0, 0.0, 0.0, 0.0, 0.0, 1.695754536684206E9, 0.0, 2023-09-26 13:55:36.684
168.0, 74010.24687412345, 68992.12378169582, -19426.392844485385, -14351.630431608015, 33800.35266880425, 31109.001470685183, -187500.02235174447, 26817.712404455237, 45386.35705546821, 34918.275167736436, 4294.395958709235, 129.1260277183089, 48435.62673755011, 35911.72080179701, 20160.84881554232, -6465.286787186478, 0.13, 1.014, 0.076, 192.0, 2.0, 8.0, 15.5, 88.0, 1.0, 48.0, 0.0, 0.0, 0.0, 1.695754536744286E9, 0.0, 2023-09-26 13:55:36.744
170.0, 73996.52290302789, 68986.02175545953, -19422.0342543166, -14358.537120644703, 33788.50624424294, 31108.10740090697, -187500.02235174447, 26820.685186467792, 45386.960552568504, 34918.63279564772, 4296.228801754571, 125.75091430555753, 48440.00767946335, 35915.72176405451, 20165.09564698883, -6461.151714462247, 0.13, 1.014, 0.076, 192.0, 0.0, 0.0, 0.0, 0.0, 0.0, 0.0, 0.0, 0.0, 0.0, 1.695754536744308E9, 0.0, 2023-09-26 13:55:36.744
172.0, 74007.74347874445, 68991.8332090179, -19426.839879374493, -14352.345687430585, 33789.55677623234, 31102.363002581955, -187500.02235174447, 26829.134145871896, 45385.21711650099, 34918.29751948089, 4295.13356627626, 127.82962653990108, 48438.666574796036, 35888.09500790775, 20164.51450163299, -6463.051612740947, 0.13, 1.014, 0.076, 192.0, 0.0, 0.0, 0.0, 0.0, 0.0, 0.0, 0.0, 0.0, 0.0, 1.695754536744318E9, 0.0, 2023-09-26 13:55:36.744
174.0, 73998.22163560649, 68978.55627281145, -19434.93121086731, -14379.190132521408, 33777.01744759291, 31084.794531440086, -187500.02235174447, 26818.561770744538, 45387.251125246425, 34888.79321679988, 4291.378473207769, 116.25142291205204, 48433.279804382306, 35870.347722810235, 20156.266707928982, -6467.94664477666, 0.13, 1.014, 0.076, 192.0, 0.0, 0.0, 0.0, 0.0, 0.0, 0.0, 0.0, 0.0, 0.0, 1.695754536744327E9, 0.0, 2023-09-26 13:55:36.744
176.0, 74017.15356316013, 68991.47558110661, -19429.65619917586, -14356.12313224353, 33787.969802376014, 31101.044249659095, -187500.02235174447, 26828.731814471703, 45383.831308344765, 34906.92048155314, 4284.8517638268195, 111.95988797663308, 48420.31579259822, 35847.95127486602, 20148.957687492097, -6482.430575183699, 0.13, 1.014, 0.076, 192.0, 0.0, 0.0, 0.0, 0.0, 0.0, 0.0, 0.0, 0.0, 0.0, 1.695754536744336E9, 0.0, 2023-09-26 13:55:36.744
178.0, 74045.54027861837, 69011.72626158313, -19408.39969019886, -14329.815129019635, 33808.28753808588, 31119.529142323634, -187500.02235174447, 26816.08072711, 45408.08295107877, 34929.22752251953, 4309.729255405576, 153.5117809190489, 48442.37696437562, 35911.22906341899, 20176.830312827864, -6455.988461493071, 0.13, 1.018, 0.068, 192.0, 2.0, 8.0, 15.5, 104.0, 1.0, 16.0, 0.0, 0.0, 0.0, 1.695754536744345E9, 0.0, 2023-09-26 13:55:36.744
180.0, 74026.56364757582, 68998.00229048757, -19427.666893919337, -14357.106608999564, 33796.083485613286, 31101.826560715028, -187500.02235174447, 26818.941750400278, 45404.305506265824, 34942.28094128143, 4308.052874571428, 149.57787389491486, 48452.144676702585, 35913.710107053535, 20173.90223430422, -6460.2799964284895, 0.13, 1.018, 0.068, 192.0, 0.0, 0.0, 0.0, 0.0, 0.0, 0.0, 0.0, 0.0, 0.0, 1.695754536744355E9, 0.0, 2023-09-26 13:55:36.744
182.0, 74018.40526084963, 68982.51253158004, -19445.682399950314, -14363.812132336156, 33785.28759304137, 31095.903348434374, -187500.02235174447, 26801.082706580488, 45388.011084557904, 34910.63087113272, 4294.284199986959, 125.05801022744302, 48435.850254994664, 35870.95121991053, 20152.489263116036, -6475.300368702456, 0.13, 1.018, 0.068, 192.0, 0.0, 0.0, 0.0, 0.0, 0.0, 0.0, 0.0, 0.0, 0.0, 1.695754536804488E9, 0.0, 2023-09-26 13:55:36.804
184.0, 74029.60348482174, 69000.08100272191, -19424.984684584702, -14353.083294997608, 33794.63062222369, 31101.06660140355, -187500.02235174447, 26817.377128288404, 45401.19861378654, 34923.12549628323, 4299.156880278216, 135.60803361034795, 48453.03874648079, 35876.87443219119, 20151.03639972644, -6472.573455878909, 0.13, 1.018, 0.068, 192.0, 0.0, 0.0, 0.0, 0.0, 0.0, 0.0, 0.0, 0.0, 0.0, 1.695754536804588E9, 0.0, 2023-09-26 13:55:36.804
186.0, 74009.55397004532, 68978.779790256, -19431.153766054365, -14354.111475242553, 33791.948412889054, 31098.987889169206, -187500.02235174447, 26817.10890735494, 45396.616506173195, 34917.068173535845, 4300.497984945534, 139.63134761230322, 48428.787103746785, 35882.52942353838, 20161.407609153703, -6466.024394753504, 0.13, 1.018, 0.068, 192.0, 0.0, 0.0, 0.0, 0.0, 0.0, 0.0, 0.0, 0.0, 0.0, 1.695754536804619E9, 0.0, 2023-09-26 13:55:36.804
188.0, 74001.73085948598, 68969.48146456259, -19446.956449384266, -14376.060888297665, 33791.881357655686, 31082.805226183562, -187500.02235174447, 26822.78625044659, 45380.00916004291, 34910.3402984548, 4284.918819060185, 129.61776609632565, 48429.74822875836, 35871.17473735508, 20149.874109014763, -6477.110860003336, 0.136, 1.014, 0.07, 192.0, 2.0, 32.0, 15.5, 88.0, 1.0, 24.0, 0.0, 0.0, 0.0, 1.695754536804635E9, 0.0, 2023-09-26 13:55:36.804
190.0, 74016.55006605983, 68977.25987163304, -19432.114891065943, -14367.03078353772, 33798.184549592086, 31083.274612817124, -187500.02235174447, 26803.72021242621, 45380.50089842092, 34886.3345249098, 4279.308531201903, 114.28446939998501, 48425.300231611756, 35847.079556832265, 20145.51551884598, -6490.544258420976, 0.136, 1.014, 0.07, 192.0, 0.0, 0.0, 0.0, 0.0, 0.0, 0.0, 0.0, 0.0, 0.0, 1.69575453680465E9, 0.0, 2023-09-26 13:55:36.804
192.0, 74012.88437996917, 68968.09565640637, -19425.87875436291, -14355.474931654328, 33808.35459331925, 31099.569034525044, -187500.02235174447, 26820.104041111954, 45404.75254115493, 34902.42778091762, 4305.460072214612, 132.3223271754178, 48449.484819112404, 35885.99394392895, 20160.737056820042, -6467.879589543294, 0.136, 1.014, 0.07, 192.0, 0.0, 0.0, 0.0, 0.0, 0.0, 0.0, 0.0, 0.0, 0.0, 1.695754536804668E9, 0.0, 2023-09-26 13:55:36.804
194.0, 74013.39847009165, 68960.31724933592, -19430.058530576054, -14379.592463921603, 33798.63158448119, 31088.214348341746, -187500.02235174447, 26808.12350608391, 45400.684523664066, 34887.854443532764, 4294.4183104536905, 116.1173124453202, 48449.17189469003, 35856.511992992404, 20149.02474272546, -6475.1886099801795, 0.136, 1.014, 0.07, 192.0, 0.0, 0.0, 0.0, 0.0, 0.0, 0.0, 0.0, 0.0, 0.0, 1.695754536804683E9, 0.0, 2023-09-26 13:55:36.804
196.0, 73990.73380121397, 68938.94898163664, -19452.18675758681, -14395.573961207148, 33779.90082262764, 31066.600211453464, -187500.02235174447, 26808.54818922856, 45391.654418904116, 34881.66301031864, 4285.164688249193, 105.14260591776443, 48432.89982472656, 35853.583914468756, 20141.93923973313, -6492.8017846109615, 0.136, 1.014, 0.07, 192.0, 0.0, 0.0, 0.0, 0.0, 0.0, 0.0, 0.0, 0.0, 0.0, 1.695754536804701E9, 0.0, 2023-09-26 13:55:36.804
198.0, 74007.9222927001, 68949.85663293084, -19439.2898010361, -14384.040461068209, 33789.8249971658, 31077.284345303102, -187500.02235174447, 26801.64150019187, 45387.809918857805, 34851.018768670416, 4279.956731791107, 96.5371843024712, 48436.81138000624, 35861.02704537237, 20131.009236694485, -6502.278924260012, 0.132, 1.016, 0.07200000000000001, 192.0, 2.0, 16.0, 15.5, 96.0, 1.0, 32.0, 0.0, 0.0, 0.0, 1.69575453686381E9, 0.0, 2023-09-26 13:55:36.863
200.0, 74013.28671136936, 68952.40473179874, -19438.731007424714, -14386.432097724928, 33800.196206593064, 31072.031685356105, -187500.02235174447, 26817.891218410878, 45403.88082312117, 34877.147957938665, 4294.597124409333, 112.13870193227554, 48448.926025501016, 35845.42552774257, 20142.520385088967, -6491.639493899285, 0.132, 1.016, 0.07200000000000001, 192.0, 0.0, 0.0, 0.0, 0.0, 0.0, 0.0, 0.0, 0.0, 0.0, 1.695754536863852E9, 0.0, 2023-09-26 13:55:36.863
202.0, 74015.99127244846, 68956.4280458007, -19440.586202214505, -14374.31745223015, 33794.898843157156, 31083.878109917416, -187500.02235174447, 26811.20804681874, 45394.76131138341, 34863.111062420736, 4288.472746428579, 106.12608267379794, 48442.287557397794, 35840.73166140696, 20132.707969273088, -6502.413034726744, 0.132, 1.016, 0.07200000000000001, 192.0, 0.0, 0.0, 0.0, 0.0, 0.0, 0.0, 0.0, 0.0, 0.0, 1.695754536863862E9, 0.0, 2023-09-26 13:55:36.863
204.0, 74016.52771431538, 68953.18704285468, -19446.487062750704, -14382.453487211882, 33793.848311167756, 31080.95003139377, -187500.02235174447, 26806.313014783027, 45404.238451032455, 34892.8388825463, 4297.704016888621, 117.34665839036208, 48444.90271149906, 35869.163080354105, 20138.474719342557, -6492.354749721855, 0.132, 1.016, 0.07200000000000001, 192.0, 0.0, 0.0, 0.0, 0.0, 0.0, 0.0, 0.0, 0.0, 0.0, 1.695754536863871E9, 0.0, 2023-09-26 13:55:36.863
206.0, 74023.27794114088, 68963.53590053748, -19436.965219612746, -14376.418516208949, 33796.150540846655, 31069.14831032137, -187500.02235174447, 26803.183770559284, 45403.45613997652, 34868.58723981229, 4297.704016888621, 117.12314094580901, 48457.0844122272, 35851.92988537907, 20130.673960527656, -6496.065139301436, 0.132, 1.016, 0.07200000000000001, 192.0, 0.0, 0.0, 0.0, 0.0, 0.0, 0.0, 0.0, 0.0, 0.0, 1.695754536863881E9, 0.0, 2023-09-26 13:55:36.863
208.0, 74022.69679578506, 68968.16271163973, -19428.337446252997, -14363.40980093596, 33799.704468215044, 31081.128845349416, -187500.02235174447, 26809.084631095488, 45409.91579412411, 34878.220841672526, 4304.342484991847, 129.90833877424464, 48447.473162111426, 35860.58001048327, 20136.016027452475, -6498.054444557959, 0.13, 1.008, 0.07, 192.0, 2.0, 8.0, 15.5, 64.0, 1.0, 24.0, 0.0, 0.0, 0.0, 1.695754536863935E9, 0.0, 2023-09-26 13:55:36.863
210.0, 74016.84063873776, 68953.14233936576, -19449.303382552076, -14384.308682001672, 33784.125302329696, 31063.068635829528, -187500.02235174447, 26807.430602005792, 45393.666075905094, 34887.34035341029, 4292.697226130632, 123.06870497092069, 48439.560644574245, 35850.655835945116, 20135.636047796732, -6491.304217732456, 0.13, 1.008, 0.07, 192.0, 0.0, 0.0, 0.0, 0.0, 0.0, 0.0, 0.0, 0.0, 0.0, 1.695754536863947E9, 0.0, 2023-09-26 13:55:36.863
212.0, 74032.08452845628, 68965.94988893866, -19435.244135289686, -14372.775181862735, 33806.78997120738, 31081.39706628288, -187500.02235174447, 26809.44225900677, 45401.48918646445, 34895.76696106994, 4291.42317669668, 119.35831539133972, 48445.79678127728, 35860.17767908307, 20123.74491974651, -6501.965999837637, 0.13, 1.008, 0.07, 192.0, 0.0, 0.0, 0.0, 0.0, 0.0, 0.0, 0.0, 0.0, 0.0, 1.695754536925106E9, 0.0, 2023-09-26 13:55:36.925
214.0, 74024.14965917464, 68971.35901109684, -19442.70961793776, -14375.055059797176, 33799.54800600386, 31087.700258219276, -187500.02235174447, 26809.06227935103, 45397.75644514042, 34896.21399595904, 4287.399862694724, 117.83839676837883, 48451.42942088001, 35865.40798728562, 20116.07827139834, -6506.972790595626, 0.13, 1.008, 0.07, 192.0, 0.0, 0.0, 0.0, 0.0, 0.0, 0.0, 0.0, 0.0, 0.0, 1.695754536925132E9, 0.0, 2023-09-26 13:55:36.925
216.0, 74028.44119411007, 68978.82449374492, -19436.249963790175, -14369.80239985018, 33813.85312245526, 31083.25226107267, -187500.02235174447, 26804.703689182246, 45411.21219530251, 34881.68536206309, 4295.692359887643, 121.50408285904919, 48455.11745871514, 35843.14564980813, 20116.748823732, -6509.43148248571, 0.13, 1.008, 0.07, 192.0, 0.0, 0.0, 0.0, 0.0, 0.0, 0.0, 0.0, 0.0, 0.0, 1.695754536925142E9, 0.0, 2023-09-26 13:55:36.925
218.0, 74014.69487127005, 68965.4805023051, -19436.272315534632, -14386.208580280374, 33803.9289479171, 31055.692560159274, -187500.02235174447, 26805.933035127287, 45407.79237840085, 34899.34324018279, 4289.880906329263, 119.67123981371401, 48461.97944426292, 35864.5139175074, 20116.88293419873, -6514.9300116217155, 0.136, 1.014, 0.074, 192.0, 2.0, 32.0, 15.5, 88.0, 1.0, 40.0, 0.0, 0.0, 0.0, 1.695754536925151E9, 0.0, 2023-09-26 13:55:36.925
220.0, 74018.71818527201, 68977.55044431097, -19430.527917209616, -14373.80336210768, 33808.108724130245, 31076.658496458353, -187500.02235174447, 26793.617223932415, 45407.948840612036, 34886.3345249098, 4297.815775610898, 122.55461484844862, 48445.34974638817, 35846.029024842865, 20116.100623142796, -6515.689970933196, 0.136, 1.014, 0.074, 192.0, 0.0, 0.0, 0.0, 0.0, 0.0, 0.0, 0.0, 0.0, 0.0, 1.695754536925161E9, 0.0, 2023-09-26 13:55:36.925
222.0, 74018.60642654973, 68978.42216234472, -19448.23049881822, -14368.863626583056, 33804.17481710611, 31068.947144621274, -187500.02235174447, 26792.231415776187, 45416.37544827169, 34904.0371065184, 4293.9489238201295, 123.62749858230336, 48460.92891227352, 35859.440071516045, 20109.618617250755, -6516.248764544579, 0.136, 1.014, 0.074, 192.0, 0.0, 0.0, 0.0, 0.0, 0.0, 0.0, 0.0, 0.0, 0.0, 1.69575453692517E9, 0.0, 2023-09-26 13:55:36.925
224.0, 74011.78914449086, 68966.68749650568, -19452.007943631168, -14374.026879552232, 33805.53827351788, 31067.29311553158, -187500.02235174447, 26791.136180297875, 45416.66602094961, 34906.316984452846, 4292.719577875087, 127.74021956207986, 48457.196170949486, 35866.01148438591, 20107.539905016412, -6505.564630694942, 0.136, 1.014, 0.074, 192.0, 0.0, 0.0, 0.0, 0.0, 0.0, 0.0, 0.0, 0.0, 0.0, 1.695754536925179E9, 0.0, 2023-09-26 13:55:36.925
226.0, 74003.78721997586, 68959.93726968017, -19450.219804074743, -14376.239702253308, 33803.75013396146, 31065.795548653074, -187500.02235174447, 26810.269273551618, 45393.196689271535, 34878.01967597243, 4273.251208454515, 107.75776001903535, 48440.52176958582, 35828.14762927862, 20094.464134510057, -6515.779377911017, 0.136, 1.014, 0.074, 192.0, 0.0, 0.0, 0.0, 0.0, 0.0, 0.0, 0.0, 0.0, 0.0, 1.695754536925188E9, 0.0, 2023-09-26 13:55:36.925
228.0, 74009.75513574542, 68963.75941798203, -19399.727213350205, -14359.006507278265, 33807.125247374206, 31072.590478967486, -187500.02235174447, 26804.39076475987, 45395.633029417164, 34892.0342197459, 4285.119984760283, 125.50504511654916, 48446.10970569965, 35838.272969516875, 20105.88587592672, -6494.634627656296, 0.14400000000000002, 1.014, 0.074, 192.0, 2.0, 64.0, 15.5, 88.0, 1.0, 40.0, 0.0, 0.0, 0.0, 1.695754536984041E9, 0.0, 2023-09-26 13:55:36.984
230.0, 74009.57632178979, 68969.34735409587, -19384.997413754158, -14369.355364961073, 33803.19134035007, 31063.269801529623, -187500.02235174447, 26810.49279099617, 45404.08198882127, 34897.73391458201, 4289.478574929068, 124.0521817269542, 48450.803572035264, 35847.12426032117, 20115.564181275866, -6496.758043379551, 0.14400000000000002, 1.014, 0.074, 192.0, 0.0, 0.0, 0.0, 0.0, 0.0, 0.0, 0.0, 0.0, 0.0, 1.695754536984095E9, 0.0, 2023-09-26 13:55:36.984
232.0, 74011.23035087947, 68969.25794711804, -19387.65727134434, -14367.433114937916, 33809.226311353006, 31072.34460977848, -187500.02235174447, 26802.133238569884, 45392.637895660155, 34906.71931585304, 4291.669045885688, 113.54686183295988, 48422.46156006594, 35831.99212932493, 20110.69150098461, -6495.215773012134, 0.14400000000000002, 1.014, 0.074, 192.0, 0.0, 0.0, 0.0, 0.0, 0.0, 0.0, 0.0, 0.0, 0.0, 1.69575453698411E9, 0.0, 2023-09-26 13:55:36.984
234.0, 74011.29740611285, 68961.99363017007, -19391.300605690554, -14358.358306689062, 33816.96001493454, 31079.34070579299, -187500.02235174447, 26815.92426489881, 45399.18695678556, 34890.9836877565, 4300.587391923355, 129.30484167395136, 48447.316699900235, 35842.51980096338, 20115.45242255359, -6488.845525842372, 0.14400000000000002, 1.014, 0.074, 192.0, 0.0, 0.0, 0.0, 0.0, 0.0, 0.0, 0.0, 0.0, 0.0, 1.695754536984129E9, 0.0, 2023-09-26 13:55:36.984
236.0, 74013.3761183472, 68962.75358948155, -19391.390012668373, -14356.41370492145, 33807.66168924113, 31083.609888983952, -187500.02235174447, 26804.904854882345, 45387.78756711335, 34879.539594595386, 4289.27740922897, 124.61097533833687, 48444.813304521245, 35827.96881532297, 20108.70219572809, -6480.933008305194, 0.14400000000000002, 1.014, 0.074, 192.0, 0.0, 0.0, 0.0, 0.0, 0.0, 0.0, 0.0, 0.0, 0.0, 1.695754536984138E9, 0.0, 2023-09-26 13:55:36.984
238.0, 74016.12538291518, 68966.08399940538, -19387.143181221865, -14372.976347562832, 33808.667517741625, 31067.784853909598, -187500.02235174447, 26809.50931424014, 45399.99161958595, 34889.9331557671, 4289.702092373621, 125.12506546080894, 48463.63347335261, 35834.02613807037, 20099.82855317933, -6490.588961909886, 0.148, 1.014, 0.068, 192.0, 2.0, 80.0, 15.5, 88.0, 1.0, 16.0, 0.0, 0.0, 0.0, 1.695754536984147E9, 0.0, 2023-09-26 13:55:36.984
240.0, 74018.04763293835, 68963.60295577085, -19388.88661728938, -14365.644975381492, 33808.30988983034, 31067.918964376327, -187500.02235174447, 26789.884482608377, 45391.855584604215, 34874.644562559675, 4288.696263873132, 116.60905082333694, 48440.745287030375, 35828.974643823465, 20099.470925268048, -6501.518964948531, 0.148, 1.014, 0.068, 192.0, 0.0, 0.0, 0.0, 0.0, 0.0, 0.0, 0.0, 0.0, 0.0, 1.695754536984157E9, 0.0, 2023-09-26 13:55:36.984
242.0, 74032.46450811203, 68977.84101698888, -19373.665079315317, -14367.164894004452, 33817.474105057016, 31061.034627084093, -187500.02235174447, 26795.8747501224, 45402.80793938732, 34883.98759174199, 4301.70497914612, 132.3446789198731, 48450.55770284626, 35833.936731092545, 20103.31542531436, -6495.059310800947, 0.148, 1.014, 0.068, 192.0, 0.0, 0.0, 0.0, 0.0, 0.0, 0.0, 0.0, 0.0, 0.0, 1.695754537044387E9, 0.0, 2023-09-26 13:55:37.044
244.0, 74020.23810389497, 68966.26281336103, -19389.51246613413, -14367.433114937916, 33809.6286427532, 31057.70421716025, -187500.02235174447, 26778.753313869634, 45389.95568632551, 34882.51237660794, 4296.765243621498, 126.82379803941227, 48440.65588005255, 35819.0057657964, 20103.248370080993, -6502.882421360305, 0.148, 1.014, 0.068, 192.0, 0.0, 0.0, 0.0, 0.0, 0.0, 0.0, 0.0, 0.0, 0.0, 1.695754537044428E9, 0.0, 2023-09-26 13:55:37.044
246.0, 74012.75026950245, 68961.25602260305, -19387.165532966323, -14378.564283676658, 33812.62377651021, 31070.377656266413, -187500.02235174447, 26790.890311108866, 45387.92167758008, 34887.8320917883, 4293.501888931023, 114.97737347809954, 48443.22633066492, 35822.02325129786, 20090.351413530283, -6503.105938804858, 0.148, 1.014, 0.068, 192.0, 0.0, 0.0, 0.0, 0.0, 0.0, 0.0, 0.0, 0.0, 0.0, 1.695754537044438E9, 0.0, 2023-09-26 13:55:37.044
248.0, 74012.59380729125, 68974.10827566484, -19387.143181221865, -14367.299004471184, 33817.541160290384, 31068.20953705425, -187500.02235174447, 26794.77951464409, 45392.52613693788, 34883.652315575164, 4292.630170897266, 113.6139170663258, 48449.77539179032, 35807.449913913006, 20090.97726237503, -6498.389720724788, 0.14, 1.016, 0.07, 192.0, 2.0, 48.0, 15.5, 96.0, 1.0, 24.0, 0.0, 0.0, 0.0, 1.695754537044448E9, 0.0, 2023-09-26 13:55:37.044
250.0, 73993.48306578197, 68958.0820748904, -19392.41819291332, -14380.08420229962, 33804.9794799065, 31063.04628408507, -187500.02235174447, 26793.796037888056, 45384.92654382307, 34883.40644638616, 4293.725406375576, 125.9520800056553, 48439.73945852989, 35818.37991695165, 20082.59535820429, -6499.373197480822, 0.14, 1.016, 0.07, 192.0, 0.0, 0.0, 0.0, 0.0, 0.0, 0.0, 0.0, 0.0, 0.0, 1.695754537044458E9, 0.0, 2023-09-26 13:55:37.044
252.0, 74017.53354281587, 68975.58349079889, -19375.9226055053, -14359.386486934005, 33827.24181738398, 31078.71485694824, -187500.02235174447, 26803.094363581466, 45374.376520440164, 34874.71161779304, 4284.628246382266, 115.42440836720567, 48436.409048606045, 35812.45670467099, 20084.159980316163, -6503.262401016045, 0.14, 1.016, 0.07, 192.0, 0.0, 0.0, 0.0, 0.0, 0.0, 0.0, 0.0, 0.0, 0.0, 1.695754537044515E9, 0.0, 2023-09-26 13:55:37.044
254.0, 74023.16618241862, 68981.61846180183, -19369.887634502367, -14351.205748463362, 33831.30983487485, 31076.569089480534, -187500.02235174447, 26797.618186189913, 45401.77975914237, 34918.23046424752, 4310.600973439333, 137.3514696778619, 48449.08248771221, 35838.76470789489, 20109.998596906495, -6480.843601327372, 0.14, 1.016, 0.07, 192.0, 0.0, 0.0, 0.0, 0.0, 0.0, 0.0, 0.0, 0.0, 0.0, 1.695754537044527E9, 0.0, 2023-09-26 13:55:37.044
0.0, 74024.93197023058, 68984.83711300339, -19370.245262413653, -14362.962766046854, 33818.32347134632, 31071.33878127799, -187500.02235174447, 26800.903892624843, 45394.13546253866, 34900.57258612783, 4302.37553147978, 135.60803361034795, 48454.15633370356, 35827.8570566007, 20100.141477601705, -6481.670615872218, 0.14, 1.016, 0.07, 192.0, 0.0, 0.0, 0.0, 0.0, 0.0, 0.0, 0.0, 0.0, 0.0, 1.695754537044536E9, 0.0, 2023-09-26 13:55:37.044
2.0, 74006.84940896624, 68968.49798780656, -19380.46000962973, -14378.631338910025, 33825.721898761025, 31064.186223052293, -187500.02235174447, 26798.936939112777, 45396.39298872864, 34890.00021100047, 4307.963467593607, 128.07549572890946, 48456.79383954929, 35825.264254243884, 20103.069556125352, -6486.297426974467, 0.134, 1.012, 0.078, 192.0, 2.0, 24.0, 15.5, 80.0, 1.0, 56.0, 0.0, 0.0, 0.0, 1.695754537105955E9, 0.0, 2023-09-26 13:55:37.105
4.0, 73999.92036818509, 68963.26767960402, -19389.93714927878, -14375.300928986184, 33807.46052354104, 31067.71779867623, -187500.02235174447, 26793.550168699046, 45376.70110186352, 34897.26452794844, 4288.696263873132, 123.47103637111621, 48450.55770284626, 35803.04662025531, 20085.523436727934, -6496.0874910458915, 0.134, 1.012, 0.078, 192.0, 0.0, 0.0, 0.0, 0.0, 0.0, 0.0, 0.0, 0.0, 0.0, 1.695754537105994E9, 0.0, 2023-09-26 13:55:37.105
6.0, 73979.55792898631, 68952.29297307646, -19400.17424823931, -14399.127888575542, 33801.91729091612, 31048.09296704447, -187500.02235174447, 26790.666793664313, 45370.7108343495, 34881.23832717399, 4285.187039993649, 118.7101148021358, 48429.211786891436, 35807.06993425726, 20081.813047148353, -6504.447043472176, 0.134, 1.012, 0.078, 192.0, 0.0, 0.0, 0.0, 0.0, 0.0, 0.0, 0.0, 0.0, 0.0, 1.695754537106026E9, 0.0, 2023-09-26 13:55:37.106
8.0, 74007.58701653326, 68965.74872323856, -19383.186922453275, -14365.55556840367, 33812.04263115438, 31075.5856127245, -187500.02235174447, 26805.106020582443, 45377.63987513064, 34879.02550447291, 4281.27548471397, 112.47397809910514, 48412.090350638675, 35782.32655314524, 20075.554558700867, -6501.474261459621, 0.134, 1.012, 0.078, 192.0, 0.0, 0.0, 0.0, 0.0, 0.0, 0.0, 0.0, 0.0, 0.0, 1.695754537106042E9, 0.0, 2023-09-26 13:55:37.106
10.0, 74017.55589456033, 68975.40467684325, -19370.513483347117, -14361.398143934983, 33811.036802653885, 31078.11135984795, -187500.02235174447, 26796.16532280032, 45399.61163993021, 34901.64546986169, 4311.360932750814, 143.3640889363395, 48452.79287729179, 35826.35948972219, 20095.11233509926, -6480.374214693811, 0.134, 1.012, 0.078, 192.0, 0.0, 0.0, 0.0, 0.0, 0.0, 0.0, 0.0, 0.0, 0.0, 1.695754537106055E9, 0.0, 2023-09-26 13:55:37.106
12.0, 73994.9135774271, 68969.45911281813, -19389.400707411853, -14370.160027761463, 33803.39250605017, 31058.084196815995, -187500.02235174447, 26803.139067070373, 45385.10535777872, 34891.140149967694, 4299.581563422867, 128.07549572890946, 48449.37306039013, 35807.584024379736, 20086.797486161886, -6488.018511297526, 0.136, 1.01, 0.076, 192.0, 2.0, 32.0, 15.5, 72.0, 1.0, 48.0, 0.0, 0.0, 0.0, 1.695754537106068E9, 0.0, 2023-09-26 13:55:37.106
14.0, 74006.84940896624, 68979.20447340065, -19381.152913707843, -14358.89474855599, 33803.727782217, 31072.031685356105, -187500.02235174447, 26796.813523389523, 45390.44742470353, 34891.698943579075, 4305.951810592629, 141.19596972417472, 48437.50428408436, 35807.06993425726, 20083.042393093398, -6488.398490953266, 0.136, 1.01, 0.076, 192.0, 0.0, 0.0, 0.0, 0.0, 0.0, 0.0, 0.0, 0.0, 0.0, 1.695754537106081E9, 0.0, 2023-09-26 13:55:37.106
16.0, 73992.65605123712, 68962.86534820382, -19395.815658070525, -14377.893731343, 33791.2778605554, 31057.123071804413, -187500.02235174447, 26797.68524142328, 45385.6641513901, 34902.316022195344, 4303.2248977690815, 136.56915862192616, 48428.25066187986, 35810.91443430357, 20081.611881448258, -6492.511211933042, 0.136, 1.01, 0.076, 192.0, 0.0, 0.0, 0.0, 0.0, 0.0, 0.0, 0.0, 0.0, 0.0, 1.695754537163866E9, 0.0, 2023-09-26 13:55:37.163
18.0, 73987.3139843123, 68963.64765925976, -19398.07318426051, -14361.822827079633, 33778.26914528241, 31071.182319066804, -187500.02235174447, 26793.661927421326, 45378.69040712004, 34859.35596935225, 4298.396920966736, 123.91807126022236, 48417.879452452595, 35791.490768371914, 20079.376707002724, -6483.7046246176515, 0.136, 1.01, 0.076, 192.0, 0.0, 0.0, 0.0, 0.0, 0.0, 0.0, 0.0, 0.0, 0.0, 1.695754537163924E9, 0.0, 2023-09-26 13:55:37.163
20.0, 73977.83684466325, 68953.09763587685, -19409.494925677172, -14370.405896950471, 33778.42560749359, 31066.935487620296, -187500.02235174447, 26802.669680436815, 45365.9052092916, 34890.5366528674, 4285.298798715925, 122.35344914835086, 48418.41589431952, 35785.925184002546, 20064.06576205084, -6490.454851443154, 0.136, 1.01, 0.076, 192.0, 0.0, 0.0, 0.0, 0.0, 0.0, 0.0, 0.0, 0.0, 0.0, 1.695754537163934E9, 0.0, 2023-09-26 13:55:37.163
22.0, 73968.7620364144, 68938.68076070318, -19421.050777560566, -14392.757641405778, 33759.13605202866, 31039.44284194027, -187500.02235174447, 26776.20521500173, 45363.468869145974, 34859.71359726353, 4278.772089334976, 99.95700120413318, 48410.99511516036, 35780.06902695525, 20057.136721269693, -6500.803709125961, 0.14, 1.014, 0.076, 192.0, 2.0, 48.0, 15.5, 88.0, 1.0, 48.0, 0.0, 0.0, 0.0, 1.695754537163943E9, 0.0, 2023-09-26 13:55:37.163
24.0, 73962.54825145582, 68940.46890025961, -19400.531876150595, -14372.395202206995, 33764.70163639804, 31064.52149921912, -187500.02235174447, 26799.294567024062, 45371.47079366098, 34878.3326003948, 4287.80219409492, 103.1756524056974, 48422.10393215465, 35776.13511993112, 20058.58958465929, -6500.155508536757, 0.14, 1.014, 0.076, 192.0, 0.0, 0.0, 0.0, 0.0, 0.0, 0.0, 0.0, 0.0, 0.0, 1.695754537163953E9, 0.0, 2023-09-26 13:55:37.163
26.0, 73938.2519052329, 68919.771184894, -19420.60374267146, -14388.689623914914, 33754.889220582154, 31044.986074565182, -187500.02235174447, 26769.902023065333, 45352.427107385054, 34864.027483943406, 4281.186077736149, 107.84716699685657, 48410.79394946027, 35807.651079613104, 20057.29318348088, -6498.724996891618, 0.14, 1.014, 0.076, 192.0, 0.0, 0.0, 0.0, 0.0, 0.0, 0.0, 0.0, 0.0, 0.0, 1.695754537163962E9, 0.0, 2023-09-26 13:55:37.163
28.0, 73923.07507074774, 68909.82465861138, -19416.491021691683, -14368.41659169395, 33769.30609575583, 31055.91607760383, -187500.02235174447, 26790.175055286298, 45336.11033393268, 34868.05079794536, 4271.574827620367, 100.13581515977565, 48410.838652949176, 35761.04769242379, 20052.19698574507, -6494.098185789369, 0.14, 1.014, 0.076, 192.0, 0.0, 0.0, 0.0, 0.0, 0.0, 0.0, 0.0, 0.0, 0.0, 1.695754537163971E9, 0.0, 2023-09-26 13:55:37.163
30.0, 73927.27719870534, 68923.43687098466, -19415.999283313668, -14353.93266128691, 33781.398389506154, 31079.988906382194, -187500.02235174447, 26788.476322707695, 45325.4485518275, 34869.95069622406, 4265.651615339711, 104.80732975093481, 48406.3236005692, 35799.045657997805, 20060.713000382544, -6485.269246729523, 0.14, 1.014, 0.076, 192.0, 0.0, 0.0, 0.0, 0.0, 0.0, 0.0, 0.0, 0.0, 0.0, 1.695754537163979E9, 0.0, 2023-09-26 13:55:37.163
32.0, 73906.2442071729, 68904.23672249756, -19435.020617845134, -14376.977309820333, 33763.31582824181, 31069.975324866216, -187500.02235174447, 26802.200293803253, 45319.659450013576, 34892.07892323481, 4272.088917742839, 115.08913220037607, 48411.08452213818, 35808.969832535964, 20063.73048588401, -6474.920389046716, 0.138, 1.018, 0.074, 192.0, 2.0, 40.0, 15.5, 104.0, 1.0, 40.0, 0.0, 0.0, 0.0, 1.695754537223735E9, 0.0, 2023-09-26 13:55:37.223
34.0, 73891.2908901323, 68891.33976594685, -19439.781539414114, -14376.329109231128, 33741.58993263125, 31065.19205155278, -187500.02235174447, 26797.551130956548, 45306.15899636257, 34866.64263804467, 4253.98400473404, 92.80444297843492, 48415.376057073605, 35792.02721023884, 20033.801500058355, -6496.825098612917, 0.138, 1.018, 0.074, 192.0, 0.0, 0.0, 0.0, 0.0, 0.0, 0.0, 0.0, 0.0, 0.0, 1.695754537223757E9, 0.0, 2023-09-26 13:55:37.223
36.0, 73889.94978546498, 68898.78289685046, -19426.482251463207, -14371.299966728684, 33750.17300250209, 31083.989868639695, -187500.02235174447, 26814.180828831297, 45291.540955488796, 34886.35687665425, 4256.219179179571, 101.65573378273652, 48388.35279802714, 35792.049561983295, 20054.00747704595, -6481.469450172121, 0.138, 1.018, 0.074, 192.0, 0.0, 0.0, 0.0, 0.0, 0.0, 0.0, 0.0, 0.0, 0.0, 1.695754537223767E9, 0.0, 2023-09-26 13:55:37.223
38.0, 73878.4386370705, 68894.7148793596, -19418.41327171484, -14370.741173117302, 33732.42571740457, 31079.318354048533, -187500.02235174447, 26808.324671784005, 45291.78682467781, 34865.63680954419, 4255.347461145814, 94.68198951268072, 48390.275048050295, 35795.51408237387, 20046.519642653424, -6483.592865895375, 0.138, 1.018, 0.074, 192.0, 0.0, 0.0, 0.0, 0.0, 0.0, 0.0, 0.0, 0.0, 0.0, 1.695754537223776E9, 0.0, 2023-09-26 13:55:37.223
40.0, 73893.70487853348, 68902.94032131914, -19426.594010185483, -14369.601234150081, 33724.71436556749, 31095.456313545266, -187500.02235174447, 26810.179866573795, 45283.31551352925, 34882.93705975259, 4258.409650136191, 109.00945770853255, 48392.26435330682, 35802.197253966006, 20061.763532371944, -6479.658958871241, 0.138, 1.018, 0.074, 192.0, 0.0, 0.0, 0.0, 0.0, 0.0, 0.0, 0.0, 0.0, 0.0, 1.69575453722382E9, 0.0, 2023-09-26 13:55:37.223
42.0, 73908.68054731852, 68921.60402793933, -19405.471611675217, -14349.238794951296, 33725.69784232353, 31102.363002581955, -187500.02235174447, 26815.20900907624, 45294.24551656789, 34888.61440284424, 4257.426173380158, 115.02207696701015, 48403.03789413427, 35773.050579196286, 20065.675087651623, -6488.018511297526, 0.134, 1.016, 0.078, 192.0, 2.0, 24.0, 15.5, 96.0, 1.0, 56.0, 0.0, 0.0, 0.0, 1.69575453722383E9, 0.0, 2023-09-26 13:55:37.223
44.0, 73928.05950976128, 68936.020903113, -19413.54059142358, -14360.79464683469, 33712.08562995024, 31105.559302039066, -187500.02235174447, 26819.657006222846, 45304.37085680615, 34917.44815319159, 4269.630225852755, 137.7090975891468, 48404.78133020179, 35817.932882062545, 20082.193026804092, -6474.942740791171, 0.134, 1.016, 0.078, 192.0, 0.0, 0.0, 0.0, 0.0, 0.0, 0.0, 0.0, 0.0, 0.0, 1.69575453722384E9, 0.0, 2023-09-26 13:55:37.223
46.0, 73949.18190827155, 68950.84010968688, -19407.84089658748, -14375.904426086478, 33694.494807063915, 31105.82752297253, -187500.02235174447, 26813.309110797538, 45313.06568539926, 34913.76011535646, 4265.3610426617915, 127.13672246178658, 48397.09233010916, 35823.83374259874, 20073.140570299696, -6491.281865988, 0.134, 1.016, 0.078, 192.0, 0.0, 0.0, 0.0, 0.0, 0.0, 0.0, 0.0, 0.0, 0.0, 1.695754537283888E9, 0.0, 2023-09-26 13:55:37.283
48.0, 73987.60455699022, 68954.30463007744, -19403.9293413078, -14381.402955222484, 33684.25770810339, 31110.3425753525, -187500.02235174447, 26821.713366712735, 45323.32513610424, 34924.86893235075, 4281.454298669612, 140.2571964570518, 48404.133129612586, 35807.27109995736, 20089.278529796426, -6481.312987960933, 0.134, 1.016, 0.078, 192.0, 0.0, 0.0, 0.0, 0.0, 0.0, 0.0, 0.0, 0.0, 0.0, 1.695754537283915E9, 0.0, 2023-09-26 13:55:37.283
50.0, 74175.18039645915, 68966.37457208331, -19403.88463781889, -14369.847103339089, 33692.28198436284, 31116.511656822167, -187500.02235174447, 26819.612302733934, 45335.70800253248, 34940.716319169565, 4278.839144568342, 135.98801326608816, 48399.34985629915, 35792.65305908359, 20086.68572743961, -6486.90092407476, 0.134, 1.016, 0.078, 192.0, 0.0, 0.0, 0.0, 0.0, 0.0, 0.0, 0.0, 0.0, 0.0, 1.695754537283925E9, 0.0, 2023-09-26 13:55:37.283
52.0, 74326.97109305515, 68979.2268251451, -19400.688338361782, -14371.769353362246, 33684.97296392595, 31113.44946783179, -187500.02235174447, 26806.6259392054, 45347.17444743806, 34945.20901980508, 4288.428042939669, 150.9413303066886, 48421.34397284317, 35801.25848069888, 20100.92378865764, -6480.687139116185, 0.134, 1.016, 0.076, 192.0, 2.0, 24.0, 15.5, 96.0, 1.0, 48.0, 0.0, 0.0, 0.0, 1.695754537283934E9, 0.0, 2023-09-26 13:55:37.283
54.0, 74420.49079185615, 68980.00913620104, -19402.722347107214, -14375.502094686282, 33671.09253061921, 31106.743944495196, -187500.02235174447, 26807.69882293926, 45336.73618277743, 34949.25468555149, 4269.697281086121, 132.27762368650718, 48376.349911254634, 35788.920317759555, 20087.915073384655, -6490.968941565627, 0.134, 1.016, 0.076, 192.0, 0.0, 0.0, 0.0, 0.0, 0.0, 0.0, 0.0, 0.0, 0.0, 1.695754537283943E9, 0.0, 2023-09-26 13:55:37.283
56.0, 74487.97070836672, 68988.32398513841, -19416.42396645832, -14367.813094593657, 33672.5006905199, 31125.877037748938, -187500.02235174447, 26807.475305494703, 45342.52528459136, 34960.94464790161, 4275.396975922225, 146.42627792671658, 48411.82212970521, 35797.77160856385, 20107.02581489394, -6471.746441334062, 0.134, 1.016, 0.076, 192.0, 0.0, 0.0, 0.0, 0.0, 0.0, 0.0, 0.0, 0.0, 0.0, 1.695754537283952E9, 0.0, 2023-09-26 13:55:37.283
58.0, 74521.81124947206, 68984.65829904775, -19407.527972165106, -14361.644013123992, 33671.09253061921, 31130.950883740294, -187500.02235174447, 26816.237189321186, 45342.68174680254, 34956.31783679937, 4269.496115386023, 152.05891752945394, 48418.48294955289, 35818.17875125155, 20105.08121312633, -6466.270263942512, 0.134, 1.016, 0.076, 192.0, 0.0, 0.0, 0.0, 0.0, 0.0, 0.0, 0.0, 0.0, 0.0, 1.695754537283961E9, 0.0, 2023-09-26 13:55:37.283
60.0, 74571.00743901818, 69000.25981667756, -19387.70197483325, -14347.763579817247, 33656.36273102316, 31137.097613465503, -187500.02235174447, 26811.20804681874, 45352.427107385054, 34949.14292682921, 4278.637978868243, 154.65171988626957, 48412.380923316596, 35817.32938496225, 20106.4446695381, -6458.245987683057, 0.134, 1.016, 0.076, 192.0, 0.0, 0.0, 0.0, 0.0, 0.0, 0.0, 0.0, 0.0, 0.0, 1.695754537283969E9, 0.0, 2023-09-26 13:55:37.283
62.0, 74595.3037852411, 69006.07127023593, -19383.74571606466, -14334.888975010988, 33648.96430360845, 31136.58352334303, -187500.02235174447, 26818.226494577706, 45360.58549411124, 34979.02720916596, 4284.762356848998, 161.33489147840638, 48400.91447841102, 35813.171960493564, 20117.50878304348, -6447.852426511339, 0.138, 1.016, 0.076, 192.0, 2.0, 40.0, 15.5, 96.0, 1.0, 48.0, 0.0, 0.0, 0.0, 1.695754537344292E9, 0.0, 2023-09-26 13:55:37.344
64.0, 74590.0064218052, 69043.28692475402, -19362.958593721225, -14306.21168687483, 33662.57651598174, 31168.412407447388, -187500.02235174447, 26825.580218503503, 45368.6097703707, 34988.43729358164, 4293.635999397755, 174.120089306842, 48398.43343477648, 35829.600492668214, 20109.037471894917, -6433.346144359844, 0.138, 1.016, 0.076, 192.0, 0.0, 0.0, 0.0, 0.0, 0.0, 0.0, 0.0, 0.0, 0.0, 1.695754537344315E9, 0.0, 2023-09-26 13:55:37.344
66.0, 74488.55185372256, 69030.05469203647, -19391.904102790846, -14313.766576500724, 33637.83313486971, 31161.416311432877, -187500.02235174447, 26843.752186745667, 45373.72831985096, 35001.06602919889, 4303.001380324528, 194.41547327226084, 48415.35370532915, 35835.389594482134, 20124.907210458186, -6417.923440685683, 0.138, 1.016, 0.076, 192.0, 0.0, 0.0, 0.0, 0.0, 0.0, 0.0, 0.0, 0.0, 0.0, 1.695754537344325E9, 0.0, 2023-09-26 13:55:37.344
68.0, 74421.9213035013, 69027.77481410204, -19410.0313675441, -14324.942448728378, 33610.966338034435, 31154.48727065173, -187500.02235174447, 26831.101099383963, 45369.0568052598, 34984.21281387959, 4286.774013849976, 183.66428418925813, 48424.00383043335, 35821.978547808954, 20084.91993962764, -6430.708638514118, 0.138, 1.016, 0.076, 192.0, 0.0, 0.0, 0.0, 0.0, 0.0, 0.0, 0.0, 0.0, 0.0, 1.695754537344334E9, 0.0, 2023-09-26 13:55:37.344
70.0, 74364.27615455106, 69017.51536339705, -19435.065321334045, -14343.561451859649, 33582.154939431544, 31135.06360472007, -187500.02235174447, 26826.228419092706, 45364.385290668644, 34981.48590105604, 4289.389167951246, 178.7692521535459, 48400.64625747756, 35804.65594585609, 20071.620651676734, -6443.829112509384, 0.138, 1.016, 0.076, 192.0, 0.0, 0.0, 0.0, 0.0, 0.0, 0.0, 0.0, 0.0, 0.0, 1.695754537344343E9, 0.0, 2023-09-26 13:55:37.344
72.0, 74356.0060091026, 69031.93223857072, -19393.736945836183, -14324.07073069462, 33592.54850060326, 31137.83522103253, -187500.02235174447, 26815.25371256515, 45367.29101744783, 34974.57921201935, 4295.3570837208135, 172.30959800596216, 48367.275103005784, 35796.65402134109, 20067.060895807852, -6457.888359771772, 0.14400000000000002, 1.018, 0.076, 192.0, 2.0, 64.0, 15.5, 104.0, 1.0, 48.0, 0.0, 0.0, 0.0, 1.695754537344353E9, 0.0, 2023-09-26 13:55:37.344
74.0, 74340.18097402823, 69028.51242166906, -19408.354986709954, -14328.205803418852, 33597.44353263897, 31138.63988383292, -187500.02235174447, 26834.96795117473, 45381.81965134379, 35000.08255244286, 4303.85074661383, 186.45825224617153, 48338.754277080814, 35797.235166696926, 20097.3922130337, -6440.006964207526, 0.14400000000000002, 1.018, 0.076, 192.0, 0.0, 0.0, 0.0, 0.0, 0.0, 0.0, 0.0, 0.0, 0.0, 1.695754537344362E9, 0.0, 2023-09-26 13:55:37.344
76.0, 74305.04403174449, 69011.03335750502, -19436.80875740156, -14353.575033375626, 33557.88094495308, 31124.35711912598, -187500.02235174447, 26817.153610843852, 45367.24631395892, 34963.47039502506, 4285.745833605031, 174.45536547367163, 48336.89908229102, 35800.36441092067, 20076.24746277898, -6455.072039970403, 0.14400000000000002, 1.018, 0.076, 192.0, 0.0, 0.0, 0.0, 0.0, 0.0, 0.0, 0.0, 0.0, 0.0, 1.695754537404613E9, 0.0, 2023-09-26 13:55:37.404
78.0, 74300.46192413114, 69023.75150010009, -19413.78646061259, -14320.583858559592, 33553.3211890842, 31142.26086643468, -187500.02235174447, 26842.098157655975, 45360.339624922235, 34980.68123825565, 4284.315321959892, 178.52338296453752, 48301.628029540545, 35781.588945578216, 20074.39226798919, -6452.456885869132, 0.14400000000000002, 1.018, 0.076, 192.0, 0.0, 0.0, 0.0, 0.0, 0.0, 0.0, 0.0, 0.0, 0.0, 1.695754537404637E9, 0.0, 2023-09-26 13:55:37.404
80.0, 74296.99740374058, 69031.55225891498, -19429.03035033111, -14313.185431144886, 33531.93056964047, 31153.280276451147, -187500.02235174447, 26835.303227341563, 45355.73516556444, 34976.434406809145, 4282.773051592476, 183.79839465598997, 48297.20238413839, 35773.050579196286, 20063.73048588401, -6441.057496196926, 0.14400000000000002, 1.018, 0.076, 192.0, 0.0, 0.0, 0.0, 0.0, 0.0, 0.0, 0.0, 0.0, 0.0, 1.695754537404647E9, 0.0, 2023-09-26 13:55:37.404
82.0, 74289.06253445895, 69034.83796534991, -19427.689245663794, -14330.485681353293, 33519.74886891233, 31144.183116457836, -187500.02235174447, 26843.618076278937, 45374.60003788472, 34987.29735461442, 4293.747758120031, 199.77989194153452, 48297.06827367166, 35804.14185573362, 20067.239709763493, -6430.418065836199, 0.14400000000000002, 1.018, 0.074, 192.0, 2.0, 64.0, 15.5, 104.0, 1.0, 40.0, 0.0, 0.0, 0.0, 1.695754537404674E9, 0.0, 2023-09-26 13:55:37.404
84.0, 74281.59705181087, 69027.5960001464, -19411.484230933696, -14309.251524120751, 33490.512787164786, 31145.367758913966, -187500.02235174447, 26834.856192452455, 45358.21620919898, 34961.63755197973, 4278.727385846065, 174.3436067513951, 48259.78556392021, 35771.48595708441, 20048.799520587865, -6454.46854287011, 0.14400000000000002, 1.018, 0.074, 192.0, 0.0, 0.0, 0.0, 0.0, 0.0, 0.0, 0.0, 0.0, 0.0, 1.695754537404684E9, 0.0, 2023-09-26 13:55:37.404
86.0, 74276.94788896416, 69040.11297704137, -19402.923512807312, -14302.16602112842, 33462.416644384466, 31143.06552923507, -187500.02235174447, 26844.69096001279, 45373.50480240641, 35009.47028511408, 4287.891601072741, 211.49220603611542, 48238.439647965395, 35789.07677997074, 20066.8373783633, -6434.0390484379595, 0.14400000000000002, 1.018, 0.074, 192.0, 0.0, 0.0, 0.0, 0.0, 0.0, 0.0, 0.0, 0.0, 0.0, 1.695754537404723E9, 0.0, 2023-09-26 13:55:37.404
88.0, 74271.76228425054, 69047.51140445608, -19395.972120281713, -14295.102869880542, 33476.20767071339, 31163.629134133953, -187500.02235174447, 26848.31194261455, 45367.38042442565, 35005.3128606454, 4282.773051592476, 197.76823494055688, 48253.79529640619, 35805.1029807452, 20056.220299747027, -6438.531749073476, 0.14400000000000002, 1.018, 0.074, 192.0, 0.0, 0.0, 0.0, 0.0, 0.0, 0.0, 0.0, 0.0, 0.0, 1.695754537404732E9, 0.0, 2023-09-26 13:55:37.404
90.0, 74257.41246431023, 69039.30831424097, -19399.347233694465, -14307.195163630864, 33459.68973156092, 31152.006227017195, -187500.02235174447, 26848.870736225934, 45385.150061267625, 35021.517875375495, 4299.84978435633, 215.1802438712411, 48237.098543298074, 35808.92512904706, 20078.393230246693, -6422.259679110012, 0.14400000000000002, 1.018, 0.074, 192.0, 0.0, 0.0, 0.0, 0.0, 0.0, 0.0, 0.0, 0.0, 0.0, 1.695754537404741E9, 0.0, 2023-09-26 13:55:37.404
92.0, 74231.26092329752, 69020.93518029871, -19417.809774614547, -14329.971591230822, 33435.683958015914, 31124.82650575954, -187500.02235174447, 26837.963084931744, 45365.27936044685, 34972.58990676283, 4272.960635776596, 185.07244408994248, 48236.83032236461, 35800.81144580978, 20053.538090412392, -6448.567682333909, 0.138, 1.02, 0.07200000000000001, 192.0, 2.0, 40.0, 15.5, 112.0, 1.0, 32.0, 0.0, 0.0, 0.0, 1.695754537463986E9, 0.0, 2023-09-26 13:55:37.463
94.0, 74239.64282746825, 69033.7427298716, -19407.103289020455, -14305.004692674243, 33440.020196440244, 31138.68458732183, -187500.02235174447, 26840.868811710934, 45360.29492143332, 34979.0048574215, 4274.592313121833, 181.11618532135313, 48189.086996208076, 35802.44312315501, 20056.86850033623, -6454.80381903694, 0.138, 1.02, 0.07200000000000001, 192.0, 0.0, 0.0, 0.0, 0.0, 0.0, 0.0, 0.0, 0.0, 0.0, 1.695754537464008E9, 0.0, 2023-09-26 13:55:37.464
96.0, 74230.52331573049, 69021.87395356584, -19426.12462355192, -14330.105701697554, 33406.336117546096, 31112.82361898704, -187500.02235174447, 26836.46551805324, 45360.69725283352, 35003.92705248917, 4268.155010718705, 184.98303711212125, 48151.75958296771, 35802.063143499276, 20053.11340726774, -6452.680403313685, 0.138, 1.02, 0.07200000000000001, 192.0, 0.0, 0.0, 0.0, 0.0, 0.0, 0.0, 0.0, 0.0, 0.0, 1.695754537464018E9, 0.0, 2023-09-26 13:55:37.464
98.0, 74227.75169941803, 69028.82534609144, -19422.123661294423, -14325.277724895208, 33394.95907961835, 31123.664215047866, -187500.02235174447, 26829.46942203873, 45349.16375269458, 34992.2594418835, 4258.610815836289, 179.4621562316604, 48136.00160312672, 35797.928070775044, 20042.09399725127, -6472.506400645542, 0.138, 1.02, 0.07200000000000001, 192.0, 0.0, 0.0, 0.0, 0.0, 0.0, 0.0, 0.0, 0.0, 0.0, 1.695754537464027E9, 0.0, 2023-09-26 13:55:37.464
100.0, 74209.84795210934, 69014.96726452914, -19437.814585902048, -14346.154254216464, 33387.82887313711, 31108.576787540533, -187500.02235174447, 26829.536477272093, 45358.46207838799, 34992.32649711687, 4265.98689150654, 186.3688452683503, 48134.839312415046, 35814.04367852732, 20038.6294768607, -6464.66093834173, 0.138, 1.02, 0.07200000000000001, 192.0, 0.0, 0.0, 0.0, 0.0, 0.0, 0.0, 0.0, 0.0, 0.0, 1.695754537464036E9, 0.0, 2023-09-26 13:55:37.464
102.0, 74208.4174404642, 69023.57268614444, -19430.84084163199, -14330.619791820025, 33381.9280126009, 31126.3464243825, -187500.02235174447, 26838.052491909566, 45348.381441638645, 34958.19538333361, 4257.0908972133275, 165.46996420263818, 48081.217477466766, 35783.533547345825, 20041.49050015098, -6474.093374501869, 0.136, 1.02, 0.068, 192.0, 2.0, 32.0, 15.5, 112.0, 1.0, 16.0, 0.0, 0.0, 0.0, 1.695754537464045E9, 0.0, 2023-09-26 13:55:37.464
104.0, 74198.09093452584, 69017.06832850794, -19412.55711466755, -14324.718931283824, 33373.814329363624, 31121.473744091243, -187500.02235174447, 26846.07676816902, 45356.24925568691, 34996.416866352185, 4268.155010718705, 180.75855741006822, 48045.9911282052, 35805.818236567764, 20053.515738667935, -6451.406353879733, 0.136, 1.02, 0.068, 192.0, 0.0, 0.0, 0.0, 0.0, 0.0, 0.0, 0.0, 0.0, 0.0, 1.695754537464055E9, 0.0, 2023-09-26 13:55:37.464
106.0, 74196.39220194724, 69016.4871831521, -19420.469632204728, -14322.617867305025, 33366.125329271, 31123.641863303408, -187500.02235174447, 26839.818279721534, 45352.33770040723, 34980.748293489014, 4265.137525217238, 174.58947594040347, 48023.37116281643, 35804.23126271144, 20060.02009630443, -6460.883493528783, 0.136, 1.02, 0.068, 192.0, 0.0, 0.0, 0.0, 0.0, 0.0, 0.0, 0.0, 0.0, 0.0, 1.695754537525636E9, 0.0, 2023-09-26 13:55:37.525
108.0, 74189.37375418827, 69014.11789823984, -19422.59304792798, -14328.049341207665, 33350.680273852384, 31126.234665660224, -187500.02235174447, 26846.36734084694, 45351.041299228826, 34994.047581439925, 4259.817810036875, 179.4174527427498, 47996.79493865907, 35799.93972777602, 20053.560442156846, -6458.402449894244, 0.136, 1.02, 0.068, 192.0, 0.0, 0.0, 0.0, 0.0, 0.0, 0.0, 0.0, 0.0, 0.0, 1.695754537525709E9, 0.0, 2023-09-26 13:55:37.525
110.0, 74195.65459438022, 69017.42595641923, -19412.35594896745, -14325.367131873028, 33349.853259307536, 31130.906180251382, -187500.02235174447, 26835.370282574928, 45361.814840056286, 34982.49172955653, 4266.121001973272, 179.30569402047325, 47967.84942958945, 35828.66171940109, 20053.44868343457, -6457.195455693657, 0.136, 1.02, 0.068, 192.0, 0.0, 0.0, 0.0, 0.0, 0.0, 0.0, 0.0, 0.0, 0.0, 1.695754537525721E9, 0.0, 2023-09-26 13:55:37.525
112.0, 74188.25616696551, 69021.87395356584, -19427.778652641613, -14330.463329608838, 33342.119555726, 31119.57384581254, -187500.02235174447, 26834.49856454117, 45346.079211959746, 34993.80171225092, 4259.013147236485, 176.1988015411856, 47925.00113546862, 35823.83374259874, 20057.248479991973, -6464.70564183064, 0.134, 1.014, 0.068, 192.0, 2.0, 24.0, 15.5, 88.0, 1.0, 16.0, 0.0, 0.0, 0.0, 1.695754537525738E9, 0.0, 2023-09-26 13:55:37.525
114.0, 74184.6575361082, 69029.294732725, -19409.673739632814, -14308.804489231647, 33341.13607896997, 31130.034462217627, -187500.02235174447, 26829.558829016547, 45362.48539238994, 35004.01645946699, 4271.708938087098, 177.2046300416744, 47922.74360927864, 35823.721983876465, 20057.986087558995, -6461.643452840263, 0.134, 1.014, 0.068, 192.0, 0.0, 0.0, 0.0, 0.0, 0.0, 0.0, 0.0, 0.0, 0.0, 1.695754537525748E9, 0.0, 2023-09-26 13:55:37.525
116.0, 74168.251355678, 69023.95266580019, -19429.253867775664, -14317.16404165793, 33327.903846252426, 31129.00628197268, -187500.02235174447, 26848.401349592372, 45351.06365097328, 35013.94063400515, 4269.764336319487, 192.89555464929995, 47904.415178825286, 35847.72775742147, 20063.082285294808, -6438.218824651101, 0.134, 1.014, 0.068, 192.0, 0.0, 0.0, 0.0, 0.0, 0.0, 0.0, 0.0, 0.0, 0.0, 1.695754537525757E9, 0.0, 2023-09-26 13:55:37.525
118.0, 74151.39814035871, 69018.47648840863, -19414.635826901893, -14324.674227794914, 33316.25858739121, 31134.437755875322, -187500.02235174447, 26837.158422131353, 45345.00632822589, 34985.44215982463, 4254.74396404552, 175.50589746307105, 47890.914725174276, 35837.71417590549, 20046.519642653424, -6454.200321936646, 0.134, 1.014, 0.068, 192.0, 0.0, 0.0, 0.0, 0.0, 0.0, 0.0, 0.0, 0.0, 0.0, 1.695754537525769E9, 0.0, 2023-09-26 13:55:37.525
120.0, 74174.04045749194, 69044.58332593243, -19394.541608636573, -14296.421622803406, 33338.655035335425, 31137.25407567669, -187500.02235174447, 26859.64427705339, 45343.26289215838, 34999.34494487583, 4266.635092095744, 190.63802845931394, 47852.8944078558, 35841.51397246289, 20068.312593497347, -6436.9224234726935, 0.134, 1.014, 0.068, 192.0, 0.0, 0.0, 0.0, 0.0, 0.0, 0.0, 0.0, 0.0, 0.0, 1.695754537525778E9, 0.0, 2023-09-26 13:55:37.525
122.0, 74182.57882387386, 69055.28981152651, -19386.69614633276, -14303.037739162177, 33345.651131349936, 31134.460107619776, -187500.02235174447, 26852.558774061057, 45369.637950615645, 35005.715192045594, 4285.365853949292, 197.58942098491443, 47871.24519005361, 35853.449804002026, 20088.272701295937, -6435.827187994384, 0.134, 1.016, 0.07200000000000001, 192.0, 2.0, 24.0, 15.5, 96.0, 1.0, 32.0, 0.0, 0.0, 0.0, 1.695754537585354E9, 0.0, 2023-09-26 13:55:37.585
124.0, 74155.73437878303, 69033.31804672696, -19422.280123505607, -14319.779195759202, 33315.92331122438, 31120.19969465729, -187500.02235174447, 26851.59764904948, 45356.31631092028, 35022.009613753515, 4277.520391645478, 199.66813321925798, 47856.71655615766, 35851.14757432313, 20074.436971478102, -6446.645432310753, 0.134, 1.016, 0.07200000000000001, 192.0, 0.0, 0.0, 0.0, 0.0, 0.0, 0.0, 0.0, 0.0, 0.0, 1.695754537585377E9, 0.0, 2023-09-26 13:55:37.585
126.0, 74153.0521694484, 69042.14698578679, -19404.17521049681, -14321.969666715822, 33322.60648281652, 31133.92366575285, -187500.02235174447, 26855.956239218267, 45350.68367131754, 34979.63070626625, 4268.333824674347, 187.3299702799285, 47865.746660917604, 35866.235001830464, 20053.515738667935, -6460.1011824728475, 0.134, 1.016, 0.07200000000000001, 192.0, 0.0, 0.0, 0.0, 0.0, 0.0, 0.0, 0.0, 0.0, 0.0, 1.69575453758539E9, 0.0, 2023-09-26 13:55:37.585
128.0, 74155.64497180522, 69044.76213988807, -19400.04013777258, -14311.464346821827, 33332.97769224378, 31120.40086035739, -187500.02235174447, 26867.109759701463, 45357.88093303215, 35012.59952933783, 4278.5709236348775, 195.86833666185578, 47884.63388498234, 35836.99892008292, 20071.48654121, -6451.294595157457, 0.134, 1.016, 0.07200000000000001, 192.0, 0.0, 0.0, 0.0, 0.0, 0.0, 0.0, 0.0, 0.0, 0.0, 1.6957545375854E9, 0.0, 2023-09-26 13:55:37.585
130.0, 74141.96570419856, 69045.32093349945, -19404.242265730176, -14314.906515467945, 33323.50055259473, 31110.186113141313, -187500.02235174447, 26852.26820138314, 45368.47565990397, 34996.6627355412, 4282.0354440254505, 192.87320290484465, 47874.95557963319, 35853.449804002026, 20073.453494722067, -6451.808685279928, 0.134, 1.016, 0.07200000000000001, 192.0, 0.0, 0.0, 0.0, 0.0, 0.0, 0.0, 0.0, 0.0, 0.0, 1.695754537585439E9, 0.0, 2023-09-26 13:55:37.585
132.0, 74153.0074659595, 69053.76989290355, -19393.04404175807, -14310.145593898964, 33324.52873283967, 31122.568979569554, -187500.02235174447, 26869.009657980165, 45357.27743593186, 35003.85999725581, 4280.426118424669, 198.23762157411835, 47886.354969305394, 35875.44392054605, 20078.68380292461, -6455.072039970403, 0.136, 1.014, 0.068, 192.0, 2.0, 32.0, 15.5, 88.0, 1.0, 16.0, 0.0, 0.0, 0.0, 1.695754537585449E9, 0.0, 2023-09-26 13:55:37.585
134.0, 74135.3942913287, 69032.2451629931, -19415.79811761357, -14313.878335223, 33308.30136636512, 31117.182209155824, -187500.02235174447, 26856.470329340736, 45357.746822565416, 34993.9581744621, 4282.169554492182, 196.29301980650663, 47879.24711456861, 35843.54798120832, 20073.095866810785, -6441.392772363755, 0.136, 1.014, 0.068, 192.0, 0.0, 0.0, 0.0, 0.0, 0.0, 0.0, 0.0, 0.0, 0.0, 1.695754537585458E9, 0.0, 2023-09-26 13:55:37.585
136.0, 74136.62363727375, 69036.76021537307, -19401.425945928808, -14314.951218956856, 33318.20318915882, 31129.989758728716, -187500.02235174447, 26872.18360569282, 45356.24925568691, 34991.678296527665, 4274.614664866289, 185.31831327895085, 47880.58821923593, 35880.7189322375, 20067.910262097153, -6439.157597918224, 0.136, 1.014, 0.068, 192.0, 0.0, 0.0, 0.0, 0.0, 0.0, 0.0, 0.0, 0.0, 0.0, 1.695754537644229E9, 0.0, 2023-09-26 13:55:37.644
138.0, 74143.01623618796, 69050.08185506843, -19388.104306233443, -14285.893951164957, 33322.00298571622, 31151.156860727893, -187500.02235174447, 26879.716143574256, 45353.07530797426, 34996.32745937436, 4279.867324813285, 192.47087150464912, 47856.67185266875, 35859.015388371394, 20086.842189650797, -6421.633830265264, 0.136, 1.014, 0.068, 192.0, 0.0, 0.0, 0.0, 0.0, 0.0, 0.0, 0.0, 0.0, 0.0, 1.695754537644254E9, 0.0, 2023-09-26 13:55:37.644
140.0, 74126.31948307986, 69045.0974160549, -19391.635881857383, -14312.894858466967, 33306.49087506424, 31143.579619357544, -187500.02235174447, 26889.305041945583, 45370.24144771593, 35017.82983754037, 4292.876040086275, 206.75363621159033, 47855.107230556874, 35879.57899327028, 20097.571026989346, -6409.653295237219, 0.136, 1.014, 0.068, 192.0, 0.0, 0.0, 0.0, 0.0, 0.0, 0.0, 0.0, 0.0, 0.0, 1.695754537644266E9, 0.0, 2023-09-26 13:55:37.644
142.0, 74103.27483454644, 69021.3375116989, -19415.932228080303, -14319.086291681087, 33297.974860426766, 31119.909121979374, -187500.02235174447, 26881.07959998603, 45342.234711913436, 35002.51889258849, 4272.133621231749, 180.55739170997046, 47835.21417799166, 35851.16992606758, 20072.022983076928, -6443.985574720571, 0.132, 1.014, 0.07, 192.0, 2.0, 16.0, 15.5, 88.0, 1.0, 24.0, 0.0, 0.0, 0.0, 1.695754537644276E9, 0.0, 2023-09-26 13:55:37.644
144.0, 74118.51872426496, 69037.0954915399, -19413.920571079325, -14330.038646464187, 33290.978764412255, 31111.460162575266, -187500.02235174447, 26866.863890512454, 45348.56025559429, 34990.11367441579, 4269.585522363845, 183.84309814490058, 47860.4492974817, 35871.420606544096, 20066.055067307363, -6443.851464253839, 0.132, 1.014, 0.07, 192.0, 0.0, 0.0, 0.0, 0.0, 0.0, 0.0, 0.0, 0.0, 0.0, 1.695754537644286E9, 0.0, 2023-09-26 13:55:37.644
146.0, 74114.9424451521, 69036.20142176168, -19413.026501301112, -14317.231096891297, 33284.94379340932, 31094.15991236686, -187500.02235174447, 26851.329428116016, 45347.50972360489, 34998.04854369743, 4274.122926488272, 179.1492318092861, 47833.96248030216, 35850.633484200654, 20050.29708746637, -6467.0302232539925, 0.132, 1.014, 0.07, 192.0, 0.0, 0.0, 0.0, 0.0, 0.0, 0.0, 0.0, 0.0, 0.0, 1.695754537644295E9, 0.0, 2023-09-26 13:55:37.644
148.0, 74117.71406146456, 69034.92737232773, -19424.51529795114, -14329.882184253, 33284.22853758676, 31082.291136061092, -187500.02235174447, 26834.78913721909, 45358.26091268789, 35005.35756413431, 4282.437775425646, 185.36301676786147, 47826.1393697428, 35877.03089440238, 20056.823796847322, -6469.8465430553615, 0.132, 1.014, 0.07, 192.0, 0.0, 0.0, 0.0, 0.0, 0.0, 0.0, 0.0, 0.0, 0.0, 1.695754537644304E9, 0.0, 2023-09-26 13:55:37.644
150.0, 74120.93271266612, 69040.87293635284, -19419.687321148795, -14317.096986424565, 33286.53076726565, 31094.405781555866, -187500.02235174447, 26835.906724441855, 45350.348395150715, 35017.248692184534, 4278.146240490227, 186.19003131270784, 47830.07327676693, 35850.74524292293, 20049.604183388255, -6469.310101188434, 0.132, 1.014, 0.07, 192.0, 0.0, 0.0, 0.0, 0.0, 0.0, 0.0, 0.0, 0.0, 0.0, 1.695754537644313E9, 0.0, 2023-09-26 13:55:37.644
152.0, 74135.30488435089, 69042.83988986492, -19428.248039275175, -14319.30980912564, 33279.57937474005, 31091.477703032222, -187500.02235174447, 26838.67834075431, 45368.76623258188, 35018.03100324047, 4293.837165097852, 198.4164355297608, 47826.787570332, 35872.64995248913, 20063.90929983965, -6463.94568251916, 0.134, 1.014, 0.07, 192.0, 2.0, 24.0, 15.5, 88.0, 1.0, 24.0, 0.0, 0.0, 0.0, 1.695754537704683E9, 0.0, 2023-09-26 13:55:37.704
154.0, 74122.16205861117, 69029.38413970282, -19450.37626628593, -14325.925925484411, 33277.63477297244, 31085.889766918393, -187500.02235174447, 26846.724968758223, 45357.52330512086, 35004.70936354511, 4281.454298669612, 189.2522203030849, 47835.392991947294, 35855.819088914286, 20059.506006181957, -6470.6735576002075, 0.134, 1.014, 0.07, 192.0, 0.0, 0.0, 0.0, 0.0, 0.0, 0.0, 0.0, 0.0, 0.0, 1.69575453770472E9, 0.0, 2023-09-26 13:55:37.704
156.0, 74123.3467010673, 69030.16645075876, -19447.783463929114, -14320.874431237511, 33262.65910418738, 31094.7410577227, -187500.02235174447, 26847.37316934743, 45350.72837480645, 34991.07479942737, 4284.8517638268195, 194.2590110610737, 47821.26668945154, 35848.64417894414, 20053.895718323674, -6469.287749443978, 0.134, 1.014, 0.07, 192.0, 0.0, 0.0, 0.0, 0.0, 0.0, 0.0, 0.0, 0.0, 0.0, 1.695754537704729E9, 0.0, 2023-09-26 13:55:37.704
158.0, 74115.90357016367, 69036.98373281762, -19455.22659483273, -14317.588724802581, 33263.016732098666, 31095.813941456552, -187500.02235174447, 26857.40910260786, 45356.47277313146, 35002.1612646772, 4287.288103972448, 189.81101391446757, 47838.209311748666, 35851.59460921223, 20048.754817098954, -6457.173103949202, 0.134, 1.014, 0.07, 192.0, 0.0, 0.0, 0.0, 0.0, 0.0, 0.0, 0.0, 0.0, 0.0, 1.695754537704738E9, 0.0, 2023-09-26 13:55:37.704
160.0, 74114.98714864101, 69033.80978510497, -19443.38017027142, -14308.379806086996, 33276.226613071754, 31096.663307745854, -187500.02235174447, 26846.412044335848, 45357.07627023176, 35003.971755978084, 4286.0811097718615, 192.62733371583627, 47833.60485239087, 35857.51782149289, 20055.370933457725, -6457.396621393755, 0.134, 1.014, 0.07, 192.0, 0.0, 0.0, 0.0, 0.0, 0.0, 0.0, 0.0, 0.0, 0.0, 1.695754537704747E9, 0.0, 2023-09-26 13:55:37.704
162.0, 74125.91715167966, 69049.00897133458, -19443.313115038054, -14301.54017228367, 33281.479273018755, 31117.53983706711, -187500.02235174447, 26861.45476835427, 45368.27449420387, 35012.286604915455, 4303.403711724724, 201.16570009776356, 47835.77297160304, 35849.49354523344, 20064.266927750938, -6447.8971300002495, 0.138, 1.018, 0.07200000000000001, 192.0, 2.0, 40.0, 15.5, 104.0, 1.0, 32.0, 0.0, 0.0, 0.0, 1.695754537704756E9, 0.0, 2023-09-26 13:55:37.704
164.0, 74125.22424760154, 69048.56193644548, -19440.049760347578, -14307.508088053239, 33271.71156069179, 31117.852761489485, -187500.02235174447, 26855.620963051435, 45386.80409035732, 35032.134953991765, 4310.109235061316, 205.03255188853169, 47835.92943381422, 35892.453598076536, 20071.866520865744, -6443.0244497089925, 0.138, 1.018, 0.07200000000000001, 192.0, 0.0, 0.0, 0.0, 0.0, 0.0, 0.0, 0.0, 0.0, 0.0, 1.695754537704765E9, 0.0, 2023-09-26 13:55:37.704
166.0, 74090.84726462928, 69020.30933145396, -19467.676516494335, -14337.481777367804, 33254.567772694565, 31084.213386084248, -187500.02235174447, 26859.0407799531, 45366.21813371398, 35026.8152388114, 4297.905182588718, 193.7225691941463, 47820.08204699541, 35831.09805954672, 20052.934593312097, -6453.976804492093, 0.138, 1.018, 0.07200000000000001, 192.0, 0.0, 0.0, 0.0, 0.0, 0.0, 0.0, 0.0, 0.0, 0.0, 1.69575453776532E9, 0.0, 2023-09-26 13:55:37.765
168.0, 74097.75395366598, 69028.71358736916, -19465.37428681544, -14316.560544557637, 33252.69022616032, 31089.421342542333, -187500.02235174447, 26840.98057043321, 45348.82847652775, 34983.2069853791, 4278.906199801708, 159.65851064425834, 47807.028628233515, 35822.51498967588, 20029.44290988957, -6478.787240837484, 0.138, 1.018, 0.07200000000000001, 192.0, 0.0, 0.0, 0.0, 0.0, 0.0, 0.0, 0.0, 0.0, 0.0, 1.695754537765347E9, 0.0, 2023-09-26 13:55:37.765
170.0, 74100.70438393408, 69033.58626766042, -19466.335411827018, -14319.26510563673, 33257.47349947375, 31094.11520887795, -187500.02235174447, 26851.865869982943, 45372.856601817206, 35014.07474447188, 4298.911011089207, 201.45627277568255, 47825.51352089805, 35852.93571387955, 20056.644982891678, -6450.758153290529, 0.138, 1.018, 0.07200000000000001, 192.0, 0.0, 0.0, 0.0, 0.0, 0.0, 0.0, 0.0, 0.0, 0.0, 1.695754537765357E9, 0.0, 2023-09-26 13:55:37.765
172.0, 74104.48182874701, 69040.31414274147, -19450.398618030384, -14314.817108490124, 33262.14501406491, 31095.612775756454, -187500.02235174447, 26849.943619959788, 45367.58159012575, 35005.06699145639, 4300.050950056428, 194.43782501671615, 47827.145198243285, 35863.776309940375, 20047.547822898367, -6462.358708662833, 0.14, 1.018, 0.068, 192.0, 2.0, 48.0, 15.5, 104.0, 1.0, 16.0, 0.0, 0.0, 0.0, 1.695754537765367E9, 0.0, 2023-09-26 13:55:37.765
174.0, 74079.24670925697, 69014.7884505735, -19479.724106755748, -14341.50509136976, 33235.881714329924, 31086.47091227423, -187500.02235174447, 26853.765768261645, 45360.85371504471, 35025.47413414409, 4292.116080774794, 181.63027544382518, 47810.26963117953, 35854.835612158255, 20044.5303373969, -6469.198342466158, 0.14, 1.018, 0.068, 192.0, 0.0, 0.0, 0.0, 0.0, 0.0, 0.0, 0.0, 0.0, 0.0, 1.695754537765409E9, 0.0, 2023-09-26 13:55:37.765
176.0, 74090.78020939592, 69022.25393322158, -19463.206167603275, -14325.031855706198, 33250.43269997033, 31083.699295961775, -187500.02235174447, 26850.97180020473, 45348.44849687201, 34996.72979077456, 4281.744871347531, 171.43787997220517, 47805.10637821035, 35824.481943187944, 20034.472052392015, -6473.601636123853, 0.14, 1.018, 0.068, 192.0, 0.0, 0.0, 0.0, 0.0, 0.0, 0.0, 0.0, 0.0, 0.0, 1.69575453776542E9, 0.0, 2023-09-26 13:55:37.765
178.0, 74078.62086041222, 69006.20538070267, -19475.119647397954, -14323.914268483433, 33236.44050794131, 31076.524385991623, -187500.02235174447, 26867.154463190374, 45354.192895197026, 34997.892081486236, 4287.46691792809, 179.73037716512408, 47807.49801486707, 35839.27879801736, 20050.92293631112, -6456.748420804552, 0.14, 1.018, 0.068, 192.0, 0.0, 0.0, 0.0, 0.0, 0.0, 0.0, 0.0, 0.0, 0.0, 1.695754537765429E9, 0.0, 2023-09-26 13:55:37.765
180.0, 74085.79577038238, 69018.94587504219, -19475.544330542605, -14315.040625934676, 33242.85545859998, 31097.11034263496, -187500.02235174447, 26864.673419555835, 45350.3036916618, 34980.345962088824, 4286.885772572252, 178.8363073869118, 47814.11413122584, 35826.381841466646, 20050.36414269974, -6455.7649440485175, 0.14, 1.018, 0.068, 192.0, 0.0, 0.0, 0.0, 0.0, 0.0, 0.0, 0.0, 0.0, 0.0, 1.695754537765438E9, 0.0, 2023-09-26 13:55:37.765
182.0, 74081.05720055786, 69016.53188664102, -19470.157560128875, -14322.081425438098, 33241.08967078801, 31084.19103433979, -187500.02235174447, 26873.100027215485, 45356.293959175826, 35015.63936658375, 4292.60781915281, 183.32900802242852, 47804.12290145432, 35837.781231138855, 20047.592526387278, -6447.405391622233, 0.14200000000000002, 1.016, 0.074, 192.0, 2.0, 56.0, 15.5, 96.0, 1.0, 40.0, 0.0, 0.0, 0.0, 1.695754537825147E9, 0.0, 2023-09-26 13:55:37.825
184.0, 74078.12912203421, 69028.6465321358, -19472.638603763415, -14327.378788874006, 33231.277254972134, 31083.67694421732, -187500.02235174447, 26861.901803243378, 45345.31925264827, 34991.27596512747, 4285.678778371665, 172.35430149487277, 47795.58453507239, 35829.08640254574, 20042.853956562754, -6460.056478983936, 0.14200000000000002, 1.016, 0.074, 192.0, 0.0, 0.0, 0.0, 0.0, 0.0, 0.0, 0.0, 0.0, 0.0, 1.695754537825172E9, 0.0, 2023-09-26 13:55:37.825
186.0, 74072.25061324246, 69027.03720653501, -19476.10312415399, -14316.471137579816, 33236.41815619685, 31087.007354141162, -187500.02235174447, 26867.154463190374, 45362.75361332341, 35002.18361642166, 4297.346388977336, 182.41258649976095, 47819.43384640621, 35826.00186181091, 20048.151319998662, -6460.414106895221, 0.14200000000000002, 1.016, 0.074, 192.0, 0.0, 0.0, 0.0, 0.0, 0.0, 0.0, 0.0, 0.0, 0.0, 1.695754537825182E9, 0.0, 2023-09-26 13:55:37.825
188.0, 74061.96881079303, 69004.97603475762, -19479.14296139991, -14330.64214356448, 33211.786533807106, 31059.090025316484, -187500.02235174447, 26858.03495145261, 45340.67008980156, 34984.34692434632, 4280.89550505823, 164.48648744660468, 47804.011142732044, 35808.85807381369, 20033.510927380434, -6467.99134826557, 0.14200000000000002, 1.016, 0.074, 192.0, 0.0, 0.0, 0.0, 0.0, 0.0, 0.0, 0.0, 0.0, 0.0, 1.695754537825191E9, 0.0, 2023-09-26 13:55:37.825
190.0, 74076.67625864461, 69016.80010757448, -19459.406371045872, -14309.430338076394, 33224.28115895762, 31080.011258126648, -187500.02235174447, 26860.247774153686, 45367.51453489239, 34979.74246498853, 4301.973200079585, 177.69636841969114, 47864.271445783554, 35824.88427458814, 20048.598354887767, -6458.558912105431, 0.14200000000000002, 1.016, 0.074, 192.0, 0.0, 0.0, 0.0, 0.0, 0.0, 0.0, 0.0, 0.0, 0.0, 1.695754537825201E9, 0.0, 2023-09-26 13:55:37.825
192.0, 74072.4294271981, 69013.290883695, -19465.173121115342, -14326.372960373517, 33200.40949587935, 31067.15900506485, -187500.02235174447, 26857.006771207663, 45367.24631395892, 34995.50044482952, 4302.889621602252, 186.7041214351799, 47930.119684948884, 35833.78026888135, 20048.508947909948, -6455.899054515249, 0.138, 1.014, 0.078, 192.0, 2.0, 40.0, 15.5, 88.0, 1.0, 56.0, 0.0, 0.0, 0.0, 1.69575453782521E9, 0.0, 2023-09-26 13:55:37.825
194.0, 74080.25253775746, 69026.00902629006, -19457.417065789352, -14315.510012568238, 33203.583443592004, 31076.926717391816, -187500.02235174447, 26856.090349684997, 45382.847831588726, 34985.3080493579, 4311.137415306261, 187.91111563576646, 47936.355821651916, 35823.23024549845, 20047.458415920548, -6456.0555167264365, 0.138, 1.014, 0.078, 192.0, 0.0, 0.0, 0.0, 0.0, 0.0, 0.0, 0.0, 0.0, 0.0, 1.69575453782522E9, 0.0, 2023-09-26 13:55:37.825
196.0, 74064.80748233885, 69011.74861332758, -19472.437438063316, -14315.152384656953, 33197.168492933335, 31064.499147474668, -187500.02235174447, 26862.862928254955, 45376.835212330254, 35000.484883843055, 4309.081054816372, 191.66620870425805, 47942.68136533277, 35813.306070960294, 20054.096884023773, -6451.6522230687415, 0.138, 1.014, 0.078, 192.0, 0.0, 0.0, 0.0, 0.0, 0.0, 0.0, 0.0, 0.0, 0.0, 1.695754537884108E9, 0.0, 2023-09-26 13:55:37.884
198.0, 74062.23703172649, 69011.61450286084, -19469.88933919541, -14329.725722041812, 33193.79337952058, 31067.76250216514, -187500.02235174447, 26855.37509386243, 45369.772061082374, 34975.49563354202, 4298.195755266637, 182.07731033293132, 47950.70564159223, 35792.38483815013, 20045.089131008284, -6458.536560360976, 0.138, 1.014, 0.078, 192.0, 0.0, 0.0, 0.0, 0.0, 0.0, 0.0, 0.0, 0.0, 0.0, 1.695754537884176E9, 0.0, 2023-09-26 13:55:37.884
200.0, 74071.96004056455, 69013.62615986183, -19459.160501856866, -14318.393387602973, 33207.69616457178, 31067.42722599831, -187500.02235174447, 26866.349800389984, 45374.62238962918, 34976.63557250924, 4303.962505336107, 178.63514168681405, 47959.4675254187, 35802.10784698818, 20059.461302693046, -6456.167275448714, 0.138, 1.014, 0.078, 192.0, 0.0, 0.0, 0.0, 0.0, 0.0, 0.0, 0.0, 0.0, 0.0, 1.695754537884187E9, 0.0, 2023-09-26 13:55:37.884
202.0, 74066.70738061755, 69012.77679357253, -19453.505510509673, -14322.953143471856, 33202.756429047164, 31063.560374207544, -187500.02235174447, 26865.299268400584, 45378.243372230936, 34994.673430284674, 4314.356066507825, 186.346493523895, 47969.05642379003, 35816.591777395224, 20064.222224262026, -6452.635699824775, 0.136, 1.012, 0.07200000000000001, 192.0, 2.0, 32.0, 15.5, 80.0, 1.0, 32.0, 0.0, 0.0, 0.0, 1.695754537884196E9, 0.0, 2023-09-26 13:55:37.884
204.0, 74056.04559851237, 69009.11110748186, -19463.13911236991, -14330.262163908741, 33194.32982138751, 31052.160984535338, -187500.02235174447, 26865.433378867314, 45374.711796607, 34991.6112412943, 4304.655409414221, 183.08313883342015, 47977.41597621632, 35813.64134712712, 20060.26596549344, -6461.3752319068, 0.136, 1.012, 0.07200000000000001, 192.0, 0.0, 0.0, 0.0, 0.0, 0.0, 0.0, 0.0, 0.0, 0.0, 1.695754537884206E9, 0.0, 2023-09-26 13:55:37.884
206.0, 74064.29339221638, 69021.27045646554, -19441.614382459447, -14300.668454249913, 33211.697126829284, 31071.651705700366, -187500.02235174447, 26858.549041575083, 45378.53394490886, 34993.24291863953, 4314.3784182522795, 190.88389764832232, 47973.34795872545, 35812.74727734891, 20068.15613128616, -6451.071077712903, 0.136, 1.012, 0.07200000000000001, 192.0, 0.0, 0.0, 0.0, 0.0, 0.0, 0.0, 0.0, 0.0, 0.0, 1.695754537884215E9, 0.0, 2023-09-26 13:55:37.884
208.0, 74059.24189796948, 69008.97699701512, -19459.18285360132, -14311.844326477567, 33199.58248133451, 31075.563260980045, -187500.02235174447, 26874.821111538546, 45384.79243335634, 34980.30125859991, 4313.4396449851565, 196.4941855066044, 47977.08070004949, 35803.717172588964, 20075.21928253404, -6445.550196832442, 0.136, 1.012, 0.07200000000000001, 192.0, 0.0, 0.0, 0.0, 0.0, 0.0, 0.0, 0.0, 0.0, 0.0, 1.695754537884224E9, 0.0, 2023-09-26 13:55:37.884
210.0, 74047.90956353063, 69000.93036901121, -19477.66774626586, -14333.570222088127, 33187.95957421775, 31066.086121330995, -187500.02235174447, 26863.689942799803, 45371.31433144979, 34971.71818872907, 4301.772034379486, 180.53503996551515, 47980.79108962907, 35814.04367852732, 20056.041485791386, -6450.266414912512, 0.136, 1.012, 0.07200000000000001, 192.0, 0.0, 0.0, 0.0, 0.0, 0.0, 0.0, 0.0, 0.0, 0.0, 1.695754537884233E9, 0.0, 2023-09-26 13:55:37.884
212.0, 74039.30414191535, 68993.97897648561, -19478.0477259216, -14335.157195944454, 33186.05967593905, 31054.105586302947, -187500.02235174447, 26871.35659114797, 45353.209418440994, 34983.49755805702, 4290.551458662922, 167.90630434826664, 47958.43934517376, 35812.70257386, 20046.743160097976, -6467.745479076562, 0.132, 1.012, 0.07200000000000001, 192.0, 2.0, 16.0, 15.5, 80.0, 1.0, 32.0, 0.0, 0.0, 0.0, 1.69575453794422E9, 0.0, 2023-09-26 13:55:37.944
214.0, 74044.10976697324, 69002.85261903437, -19480.886397467424, -14327.55760282965, 33183.35511485996, 31063.582725951997, -187500.02235174447, 26858.817262508546, 45353.36588065218, 34968.16426136068, 4291.959618563606, 162.87716184582257, 47975.51607793762, 35779.063198454765, 20041.646962362167, -6458.894188272261, 0.132, 1.012, 0.07200000000000001, 192.0, 0.0, 0.0, 0.0, 0.0, 0.0, 0.0, 0.0, 0.0, 0.0, 1.695754537944249E9, 0.0, 2023-09-26 13:55:37.944
216.0, 74056.76085433493, 69011.90507553877, -19445.45888250576, -14304.602361274048, 33201.795304035586, 31069.930621377305, -187500.02235174447, 26877.190396450806, 45377.34930245272, 34968.67835148315, 4306.801176881931, 176.9364091082107, 47995.11855782492, 35810.98148953694, 20052.286392722894, -6450.288766656968, 0.132, 1.012, 0.07200000000000001, 192.0, 0.0, 0.0, 0.0, 0.0, 0.0, 0.0, 0.0, 0.0, 0.0, 1.695754537944259E9, 0.0, 2023-09-26 13:55:37.944
218.0, 74065.09805501677, 69025.85256407889, -19455.584222744015, -14308.893896209467, 33201.080048213014, 31055.200821781258, -187500.02235174447, 26847.999018192175, 45380.344436209736, 34969.17008986117, 4318.245270043048, 189.16281332526367, 47980.65697916233, 35771.642419295604, 20062.702305639068, -6448.724144545096, 0.132, 1.012, 0.07200000000000001, 192.0, 0.0, 0.0, 0.0, 0.0, 0.0, 0.0, 0.0, 0.0, 0.0, 1.695754537944268E9, 0.0, 2023-09-26 13:55:37.944
220.0, 74060.02420902542, 69025.40552918977, -19462.915594925358, -14312.581934044592, 33196.45323711076, 31049.031740311595, -187500.02235174447, 26845.428567579816, 45382.66901763309, 34989.085494170846, 4320.882775888775, 189.02870285853183, 47999.09716833796, 35828.01351881189, 20056.35441021376, -6458.178932449691, 0.132, 1.012, 0.07200000000000001, 192.0, 0.0, 0.0, 0.0, 0.0, 0.0, 0.0, 0.0, 0.0, 0.0, 1.695754537944348E9, 0.0, 2023-09-26 13:55:37.944
222.0, 74070.41777019713, 69032.75925311557, -19456.344182055498, -14303.30596009564, 33203.09170521399, 31052.071577557515, -187500.02235174447, 26841.919343700334, 45387.094663035234, 34974.57921201935, 4332.371572538802, 191.8450226599005, 47993.66569443532, 35801.61610861017, 20065.473921951525, -6446.556025332931, 0.138, 1.01, 0.07200000000000001, 192.0, 2.0, 40.0, 15.5, 72.0, 1.0, 32.0, 0.0, 0.0, 0.0, 1.695754537944363E9, 0.0, 2023-09-26 13:55:37.944
224.0, 74057.94549679107, 69028.31125596896, -19481.109914911976, -14313.341893356073, 33193.458103353754, 31065.996714353172, -187500.02235174447, 26854.50337582867, 45396.37063698419, 34989.17490114867, 4330.404619026735, 185.5194789790486, 47991.13994731187, 35794.84353004021, 20052.331096211805, -6445.349031132345, 0.138, 1.01, 0.07200000000000001, 192.0, 0.0, 0.0, 0.0, 0.0, 0.0, 0.0, 0.0, 0.0, 0.0, 1.695754537944376E9, 0.0, 2023-09-26 13:55:37.944
226.0, 74043.79684255086, 69017.78358433051, -19477.801856732593, -14317.231096891297, 33179.980001447206, 31057.14542354887, -187500.02235174447, 26845.674436768822, 45379.338607709244, 34964.275057825456, 4312.746740907042, 169.89560960478897, 47983.36154024143, 35781.588945578216, 20036.97544777101, -6452.613348080319, 0.138, 1.01, 0.07200000000000001, 192.0, 0.0, 0.0, 0.0, 0.0, 0.0, 0.0, 0.0, 0.0, 0.0, 1.695754538005911E9, 0.0, 2023-09-26 13:55:38.005
228.0, 74071.08832253079, 69046.1479480443, -19465.79896996009, -14298.50033503775, 33205.52804535962, 31075.876185402416, -187500.02235174447, 26861.87945149892, 45387.47464269098, 34997.3109361304, 4322.894432889751, 192.62733371583627, 47988.21186878823, 35808.81337032478, 20047.972506043017, -6442.040972952959, 0.138, 1.01, 0.07200000000000001, 192.0, 0.0, 0.0, 0.0, 0.0, 0.0, 0.0, 0.0, 0.0, 0.0, 1.695754538005935E9, 0.0, 2023-09-26 13:55:38.005
230.0, 74061.76764509293, 69030.81465134796, -19474.270281108653, -14318.147518413964, 33191.155873674856, 31072.881051645407, -187500.02235174447, 26860.247774153686, 45398.583459685266, 34988.9066802152, 4325.151959079738, 186.07827259043128, 47997.15256657035, 35824.83957109923, 20050.453549677557, -6445.237272410068, 0.138, 1.01, 0.07200000000000001, 192.0, 0.0, 0.0, 0.0, 0.0, 0.0, 0.0, 0.0, 0.0, 0.0, 1.695754538005945E9, 0.0, 2023-09-26 13:55:38.005
232.0, 74053.13987173318, 69022.63391287731, -19481.735763756726, -14324.227192905808, 33176.47077756772, 31065.437920741788, -187500.02235174447, 26855.777425262622, 45393.80018637183, 34991.76770350548, 4319.5416712214555, 182.97138011114362, 48015.905680168355, 35777.05154145379, 20043.59156412978, -6450.221711423602, 0.14200000000000002, 1.016, 0.074, 192.0, 2.0, 56.0, 15.5, 96.0, 1.0, 40.0, 0.0, 0.0, 0.0, 1.695754538005954E9, 0.0, 2023-09-26 13:55:38.005
234.0, 74069.54605216338, 69039.80005261899, -19450.97976338622, -14303.574181029104, 33210.020745995134, 31105.58165378352, -187500.02235174447, 26853.27402988363, 45386.133538023656, 34988.951383704116, 4321.150996822238, 170.34264449389514, 47965.994234799655, 35805.1029807452, 20064.378686473214, -6451.048725968448, 0.14200000000000002, 1.016, 0.074, 192.0, 0.0, 0.0, 0.0, 0.0, 0.0, 0.0, 0.0, 0.0, 0.0, 1.695754538005963E9, 0.0, 2023-09-26 13:55:38.005
236.0, 74066.0815317728, 69039.88945959682, -19453.930193654323, -14307.575143286604, 33200.70006855727, 31094.472836789235, -187500.02235174447, 26850.16713740434, 45407.948840612036, 34996.12629367427, 4336.126665607294, 197.03062737353176, 48013.961078400745, 35812.23318722644, 20088.250349551483, -6432.027391436982, 0.14200000000000002, 1.016, 0.074, 192.0, 0.0, 0.0, 0.0, 0.0, 0.0, 0.0, 0.0, 0.0, 0.0, 1.695754538005972E9, 0.0, 2023-09-26 13:55:38.005
238.0, 74059.57717413631, 69020.21992447614, -19468.458827550272, -14343.919079770933, 33180.06940842503, 31076.233813313702, -187500.02235174447, 26838.03014016511, 45388.994561313935, 34999.34494487583, 4309.461034472112, 173.89657186228894, 48011.18946208829, 35830.025175812865, 20074.124047055728, -6462.559874362931, 0.14200000000000002, 1.016, 0.074, 192.0, 0.0, 0.0, 0.0, 0.0, 0.0, 0.0, 0.0, 0.0, 0.0, 1.695754538005981E9, 0.0, 2023-09-26 13:55:38.005
240.0, 74075.42456095511, 69030.72524437014, -19446.308248795063, -14326.149442928963, 33190.731190530205, 31092.081200132514, -187500.02235174447, 26841.56171578905, 45385.12770952317, 34973.03694165194, 4297.27933374397, 167.95100783717726, 47982.75804314113, 35783.399436879095, 20079.197893047083, -6465.398545908755, 0.14200000000000002, 1.016, 0.074, 192.0, 0.0, 0.0, 0.0, 0.0, 0.0, 0.0, 0.0, 0.0, 0.0, 1.69575453800599E9, 0.0, 2023-09-26 13:55:38.005
242.0, 74065.20981373904, 69022.3880436883, -19459.763998957158, -14330.440977864382, 33182.99748694867, 31105.738115994707, -187500.02235174447, 26847.75314900317, 45396.772968384386, 34984.99512493552, 4309.192813538649, 168.26393225955158, 48008.842528920475, 35787.1992334365, 20097.101640355784, -6451.853388768839, 0.136, 1.014, 0.07, 192.0, 2.0, 32.0, 15.5, 88.0, 1.0, 24.0, 0.0, 0.0, 0.0, 1.69575453806484E9, 0.0, 2023-09-26 13:55:38.064
244.0, 74071.22243299753, 69021.29280821, -19447.537594740104, -14331.826786020612, 33176.403722334355, 31104.35230783848, -187500.02235174447, 26849.36247460395, 45388.27930549137, 34976.21088936459, 4300.140357034249, 170.40969972726106, 47991.586982200984, 35800.6996870875, 20100.02971887943, -6444.209092165124, 0.136, 1.014, 0.07, 192.0, 0.0, 0.0, 0.0, 0.0, 0.0, 0.0, 0.0, 0.0, 0.0, 1.695754538064862E9, 0.0, 2023-09-26 13:55:38.064
246.0, 74070.30601147485, 69017.82828781943, -19450.17510058583, -14343.963783259844, 33170.65932400934, 31095.121037378438, -187500.02235174447, 26847.909611214356, 45384.36775021169, 34974.959191675094, 4289.32211271788, 156.9315978207109, 48009.133101598396, 35791.021381738356, 20102.667224725155, -6450.311118401422, 0.136, 1.014, 0.07, 192.0, 0.0, 0.0, 0.0, 0.0, 0.0, 0.0, 0.0, 0.0, 0.0, 1.695754538064872E9, 0.0, 2023-09-26 13:55:38.064
248.0, 74078.71026739005, 69017.87299130834, -19448.610478473962, -14341.370980903028, 33179.75648400265, 31097.713839735254, -187500.02235174447, 26842.835765223, 45392.03439855986, 34970.08651138384, 4299.1121767893055, 164.75470838006837, 47986.37902574289, 35782.10303570068, 20118.916942944164, -6448.031240466981, 0.136, 1.014, 0.07, 192.0, 0.0, 0.0, 0.0, 0.0, 0.0, 0.0, 0.0, 0.0, 0.0, 1.695754538064881E9, 0.0, 2023-09-26 13:55:38.064
250.0, 74091.33900300729, 69027.8418693354, -19438.46278649125, -14335.336009900095, 33180.20351889176, 31099.233758358212, -187500.02235174447, 26844.713311757245, 45386.02177930138, 34998.71909603108, 4286.863420827797, 160.91020833375555, 48018.25261333616, 35785.38874213561, 20109.775079461942, -6455.206150437135, 0.136, 1.014, 0.07, 192.0, 0.0, 0.0, 0.0, 0.0, 0.0, 0.0, 0.0, 0.0, 0.0, 1.69575453806489E9, 0.0, 2023-09-26 13:55:38.064
252.0, 74082.44300871408, 69031.37344495935, -19429.16446079784, -14320.047416692665, 33182.57280380402, 31115.01408994366, -187500.02235174447, 26840.10885239945, 45397.376465484675, 34966.37612180426, 4307.114101304305, 177.45049923068277, 47984.9261623533, 35774.21286990796, 20128.550544804402, -6440.945737474649, 0.134, 1.016, 0.074, 192.0, 2.0, 24.0, 15.5, 96.0, 1.0, 40.0, 0.0, 0.0, 0.0, 1.6957545380649E9, 0.0, 2023-09-26 13:55:38.064
254.0, 74076.09511328879, 69025.65139837879, -19438.686303935803, -14336.475948867315, 33181.27640262561, 31094.24931934468, -187500.02235174447, 26844.176869890318, 45397.35411374022, 34997.13212217476, 4304.431891969668, 183.8654498893559, 48002.58404047299, 35804.20891096698, 20128.483489571034, -6441.303365385934, 0.134, 1.016, 0.074, 192.0, 0.0, 0.0, 0.0, 0.0, 0.0, 0.0, 0.0, 0.0, 0.0, 1.695754538064909E9, 0.0, 2023-09-26 13:55:38.064
0.0, 74070.14954926366, 69008.75347957057, -19450.890356408403, -14346.400123405472, 33180.82936773651, 31094.91987167834, -187500.02235174447, 26839.035968665597, 45389.55335492532, 34979.07191265487, 4286.349330705325, 164.8888188468002, 48004.19336607378, 35792.18367245003, 20114.804221964387, -6448.768848034007, 0.134, 1.016, 0.074, 192.0, 0.0, 0.0, 0.0, 0.0, 0.0, 0.0, 0.0, 0.0, 0.0, 1.695754538123781E9, 0.0, 2023-09-26 13:55:38.123
