%OpenBCI Raw EXG Data
%Number of channels = 16
%Sample Rate = 125 Hz
%Board = OpenBCI_GUI$BoardCytonSerialDaisy
Sample Index, EXG Channel 0, EXG Channel 1, EXG Channel 2, EXG Channel 3, EXG Channel 4, EXG Channel 5, EXG Channel 6, EXG Channel 7, EXG Channel 8, EXG Channel 9, EXG Channel 10, EXG Channel 11, EXG Channel 12, EXG Channel 13, EXG Channel 14, EXG Channel 15, Accel Channel 0, Accel Channel 1, Accel Channel 2, Other, Other, Other, Other, Other, Other, Other, Analog Channel 0, Analog Channel 1, Analog Channel 2, Timestamp, Other, Timestamp (Formatted)
0.0, 73905.37248913915, 68887.22704496706, -19286.225055006154, -14361.107571257064, 33163.79733846156, 31684.46948343152, -187500.02235174447, 26449.713283743058, 0.0, 0.0, 0.0, 0.0, 0.0, 0.0, 0.0, 0.0, 0.0, 0.0, 0.0, 192.0, 0.0, 0.0, 0.0, 0.0, 0.0, 0.0, 0.0, 0.0, 0.0, 1.695754504733023E9, 0.0, 2023-09-26 13:55:04.733
194.0, 73900.7456780369, 68884.18720772114, -19303.122973814367, -14372.819885351646, 33155.10250986845, 31676.98164903899, -187500.02235174447, 26447.589868019804, 45614.27779367898, 34380.53689963066, 4586.667369206831, -713.2665173133037, 50221.12878812895, 35982.39701776469, 21545.382922337405, -7052.534169260761, 0.0, 0.0, 0.0, 192.0, 0.0, 0.0, 0.0, 0.0, 0.0, 0.0, 0.0, 0.0, 0.0, 1.69575450473304E9, 0.0, 2023-09-26 13:55:04.733
196.0, 73905.30543390577, 68886.1094577443, -19294.91988359927, -14363.901539313978, 33170.99460017617, 31693.41018121364, -187500.02235174447, 26453.244859366998, 45598.13983418224, 34367.12585295747, 4576.005587101649, -723.0565813847281, 50202.465081508766, 35975.579735705825, 21536.26341059964, -7057.496256529839, 0.126, 1.014, 0.07, 192.0, 1.5, 120.0, 15.5, 88.0, 1.0, 24.0, 0.0, 0.0, 0.0, 1.695754504733052E9, 0.0, 2023-09-26 13:55:04.733
198.0, 73892.9896227109, 68873.74894306052, -19295.925712099757, -14370.919987072944, 33166.613658262926, 31690.526806178907, -187500.02235174447, 26457.268173368953, 45604.666543563195, 34385.05195201063, 4580.565342970532, -715.0993603586388, 50205.08023561004, 35985.772131177444, 21548.020428183132, -7046.186273835454, 0.126, 1.014, 0.07, 192.0, 0.0, 0.0, 0.0, 0.0, 0.0, 0.0, 0.0, 0.0, 0.0, 1.695754504733064E9, 0.0, 2023-09-26 13:55:04.733
200.0, 73876.15875913606, 68863.60125107781, -19305.402851748808, -14383.101687801087, 33160.601039004454, 31674.344143193262, -187500.02235174447, 26453.982466934023, 45596.53050858146, 34364.13071920046, 4572.80928764454, -727.3034128312365, 50197.36888377296, 35975.73619791701, 21536.665741999834, -7050.902491915524, 0.126, 1.014, 0.07, 192.0, 0.0, 0.0, 0.0, 0.0, 0.0, 0.0, 0.0, 0.0, 0.0, 1.695754504733074E9, 0.0, 2023-09-26 13:55:04.733
202.0, 73875.57761378022, 68865.85877726779, -19308.53209597255, -14381.380603478028, 33163.819690206015, 31678.948602551056, -187500.02235174447, 26457.0446559244, 45582.06892991888, 34371.931478015365, 4556.403107214344, -738.9039682035409, 50196.720683183754, 35972.67400892663, 21526.093366872476, -7063.531227532772, 0.126, 1.014, 0.07, 192.0, 0.0, 0.0, 0.0, 0.0, 0.0, 0.0, 0.0, 0.0, 0.0, 1.695754504733083E9, 0.0, 2023-09-26 13:55:04.733
204.0, 73878.55039579277, 68861.14255918772, -19306.274569782563, -14380.285367999717, 33164.80316696205, 31679.55209965135, -187500.02235174447, 26454.541260545408, 45584.59467704233, 34340.37081484447, 4561.4769532057, -737.5628635362225, 50208.27653506715, 35973.92570661613, 21534.139994876386, -7050.366050048596, 0.126, 1.014, 0.07, 192.0, 0.0, 0.0, 0.0, 0.0, 0.0, 0.0, 0.0, 0.0, 0.0, 1.695754504733093E9, 0.0, 2023-09-26 13:55:04.733
206.0, 73885.05475342927, 68867.98219299104, -19303.167677303278, -14380.508885444271, 33173.6321060219, 31674.32179144881, -187500.02235174447, 26464.57719380584, 45581.44308107413, 34368.3104954136, 4560.4264212163, -734.1877501234711, 50210.444654279316, 35975.73619791701, 21535.726968732713, -7053.3164803166965, 0.126, 1.016, 0.074, 192.0, 1.5, 120.0, 15.5, 96.0, 1.0, 40.0, 0.0, 0.0, 0.0, 1.695754504733103E9, 0.0, 2023-09-26 13:55:04.733
208.0, 73877.76808473685, 68864.38356213373, -19312.041319852033, -14380.754754633279, 33163.953800672745, 31667.9738960235, -187500.02235174447, 26444.70649298507, 45586.24870613202, 34346.09286142503, 4565.008528829638, -728.7339244763762, 50208.92473565635, 35968.382473991216, 21530.161384363342, -7060.8266664536795, 0.126, 1.016, 0.074, 192.0, 0.0, 0.0, 0.0, 0.0, 0.0, 0.0, 0.0, 0.0, 0.0, 1.695754504733113E9, 0.0, 2023-09-26 13:55:04.733
0.0, 37001.10012305977, 34452.28599933219, -9640.240328340571, -7115.499033391361, 16585.24025502685, 15802.884495602191, -93750.01117587223, 13225.974229094296, 22798.04173684618, 17179.416677882276, 2287.0975479003846, -362.9476264652761, 25103.378308222094, 17988.236902742017, 10761.873216852335, -3531.597975682971, 0.122, 1.014, 0.078, 192.0, 1.5, 88.0, 15.5, 80.0, 1.0, 72.0, 0.0, 0.0, 0.0, 1.695754504902003E9, 0.0, 2023-09-26 13:55:04.902
2.0, 74002.40141181964, 68910.27169350049, -19286.605034661894, -14234.999029040222, 33166.345437329466, 31593.654345709605, -187500.02235174447, 26462.364371104763, 45588.19330789964, 34450.05082488666, 4534.9677842817055, -555.6420154144782, 49218.74245628625, 36010.04612565591, 21347.279411230018, -6695.219182398222, 0.122, 1.014, 0.078, 192.0, 0.0, 0.0, 0.0, 0.0, 0.0, 0.0, 0.0, 0.0, 0.0, 1.695754504902062E9, 0.0, 2023-09-26 13:55:04.902
4.0, 74012.21382763551, 68924.04036808496, -19288.19200851822, -14234.194366239832, 33171.866318209926, 31595.934223644046, -187500.02235174447, 26441.0408068944, 45595.792901014436, 34462.56780178163, 4546.970671054205, -543.39325945297, 49231.99704074825, 36017.62336702626, 21346.005361796066, -6698.236667899689, 0.122, 1.014, 0.078, 192.0, 0.0, 0.0, 0.0, 0.0, 0.0, 0.0, 0.0, 0.0, 0.0, 1.695754504902072E9, 0.0, 2023-09-26 13:55:04.902
6.0, 74000.99325191895, 68906.24837949853, -19309.023834350566, -14259.138913051953, 33169.206460619745, 31578.321049013266, -187500.02235174447, 26456.15058614619, 45586.87455497677, 34459.99735116927, 4540.890996562362, -548.6012159110566, 49217.98249697477, 35995.53984350441, 21333.55544013446, -6711.625362828418, 0.122, 1.014, 0.078, 192.0, 0.0, 0.0, 0.0, 0.0, 0.0, 0.0, 0.0, 0.0, 0.0, 1.695754504902081E9, 0.0, 2023-09-26 13:55:04.902
8.0, 73995.53942627185, 68905.60017890933, -19314.276494297566, -14282.250616818741, 33169.698198997765, 31572.040208821323, -187500.02235174447, 26442.448966795084, 45580.10197640681, 34441.87008641602, 4524.082484731971, -568.5166202207351, 49220.32943014258, 35980.944154375095, 21319.496192872073, -6733.798293328082, 0.124, 1.014, 0.094, 192.0, 1.5, 112.0, 15.5, 88.0, 1.0, 120.0, 0.0, 0.0, 0.0, 1.69575450490209E9, 0.0, 2023-09-26 13:55:04.902
10.0, 73982.88833891015, 68889.77514383497, -19327.106395614912, -14299.550867027148, 33164.51259428413, 31566.541679685317, -187500.02235174447, 26448.685103498115, 45576.72686299406, 34439.612560226036, 4516.70640906172, -580.2065825708607, 49209.42177884839, 35981.27943054193, 21317.484535871095, -6740.347354453487, 0.124, 1.014, 0.094, 192.0, 0.0, 0.0, 0.0, 0.0, 0.0, 0.0, 0.0, 0.0, 0.0, 1.695754504902099E9, 0.0, 2023-09-26 13:55:04.902
12.0, 73975.55696672881, 68878.97925126305, -19345.233660368165, -14311.68786426638, 33158.20940234773, 31558.830327848238, -187500.02235174447, 26430.84841142278, 45566.914447178184, 34445.08873761758, 4497.193336152236, -596.9256874234304, 49202.06805492259, 35962.68277915511, 21283.666346510214, -6761.693270408306, 0.124, 1.014, 0.094, 192.0, 0.0, 0.0, 0.0, 0.0, 0.0, 0.0, 0.0, 0.0, 0.0, 1.695754504902109E9, 0.0, 2023-09-26 13:55:04.902
14.0, 73971.15367307111, 68874.91123377219, -19341.992657422146, -14300.31082633863, 33155.214268590724, 31574.63301117814, -187500.02235174447, 26451.590830277306, 45563.137002365234, 34425.1733333079, 4497.349798363423, -595.3387135671036, 49190.22163036128, 35984.3416195323, 21294.26107338203, -6750.629156902928, 0.124, 1.014, 0.094, 192.0, 0.0, 0.0, 0.0, 0.0, 0.0, 0.0, 0.0, 0.0, 0.0, 1.695754504902117E9, 0.0, 2023-09-26 13:55:04.902
16.0, 73971.77952191586, 68882.84610305383, -19335.533003274562, -14289.649044233447, 33163.30560008354, 31585.250089794412, -187500.02235174447, 26455.547089045896, 45557.43730752913, 34431.29771128866, 4491.963027949694, -597.842108946098, 49188.94758092733, 35978.32900027383, 21289.298986112954, -6741.308479465066, 0.124, 1.014, 0.094, 192.0, 0.0, 0.0, 0.0, 0.0, 0.0, 0.0, 0.0, 0.0, 0.0, 1.695754504962163E9, 0.0, 2023-09-26 13:55:04.962
18.0, 73971.82422540477, 68889.97630953506, -19326.033511881054, -14279.769573184201, 33171.441635065275, 31587.44056075103, -187500.02235174447, 26465.18069090613, 45561.08064187535, 34428.14611532046, 4501.015484454094, -595.2269548448271, 49194.55786878561, 35980.13949157471, 21308.655596811248, -6727.0704182470345, 0.12, 1.016, 0.088, 192.0, 1.5, 96.0, 15.5, 96.0, 1.0, 96.0, 0.0, 0.0, 0.0, 1.695754504962192E9, 0.0, 2023-09-26 13:55:04.962
20.0, 73962.36943750018, 68877.57109136238, -19340.718607988194, -14289.179657599887, 33160.48928028218, 31575.52708095635, -187500.02235174447, 26459.548051303394, 45564.07577563236, 34454.2306010998, 4499.406158853311, -588.7225972083327, 49216.462578351806, 35987.06853235585, 21318.959751005146, -6716.252173930666, 0.12, 1.016, 0.088, 192.0, 0.0, 0.0, 0.0, 0.0, 0.0, 0.0, 0.0, 0.0, 0.0, 1.695754504962203E9, 0.0, 2023-09-26 13:55:04.962
22.0, 73978.0156586189, 68883.00256526501, -19320.736148445147, -14267.342003267051, 33183.35511485996, 31588.91577588508, -187500.02235174447, 26452.887231455712, 45561.57238025336, 34431.565932222125, 4498.266219886091, -597.3950740569919, 49205.97961020227, 35979.558346218866, 21319.451489383162, -6718.2638309316435, 0.12, 1.016, 0.088, 192.0, 0.0, 0.0, 0.0, 0.0, 0.0, 0.0, 0.0, 0.0, 0.0, 1.695754504962212E9, 0.0, 2023-09-26 13:55:04.962
24.0, 73972.53948122734, 68877.3028704289, -19327.285209570553, -14270.82887540208, 33156.1753936023, 31575.191804789523, -187500.02235174447, 26450.964981432557, 45569.1049181348, 34450.02847314221, 4504.994094967138, -588.1861553414053, 49219.65887780892, 35981.435892753114, 21316.992797493076, -6711.178327939311, 0.12, 1.016, 0.088, 192.0, 0.0, 0.0, 0.0, 0.0, 0.0, 0.0, 0.0, 0.0, 0.0, 1.695754504962254E9, 0.0, 2023-09-26 13:55:04.962
26.0, 73987.55985350131, 68903.72263237508, -19317.83042166596, -14256.568462439593, 33167.530079785596, 31587.21704330648, -187500.02235174447, 26442.56072551736, 45576.4586420606, 34439.34433929257, 4517.265202673102, -580.7430244377881, 49202.85036597853, 36007.6991924881, 21324.12300397432, -6712.117101206434, 0.12, 1.016, 0.088, 192.0, 0.0, 0.0, 0.0, 0.0, 0.0, 0.0, 0.0, 0.0, 0.0, 1.695754504962269E9, 0.0, 2023-09-26 13:55:04.962
28.0, 73981.88251040966, 68908.99764406653, -19330.012122394102, -14255.741447894747, 33163.59617276146, 31574.610659433685, -187500.02235174447, 26447.880440697725, 45577.66563626118, 34465.741749494286, 4519.142749207348, -567.1755155534167, 49216.12730218498, 35991.78475043592, 21306.26396015453, -6726.645735102384, 0.124, 1.016, 0.092, 192.0, 1.5, 112.0, 15.5, 96.0, 1.0, 112.0, 0.0, 0.0, 0.0, 1.695754504962278E9, 0.0, 2023-09-26 13:55:04.962
30.0, 73987.04576337883, 68910.20463826713, -19325.362959547398, -14261.374087497485, 33170.0781786535, 31577.516386212876, -187500.02235174447, 26429.820231177837, 45579.81140372889, 34458.902115690966, 4520.5285573635765, -563.0404428291849, 49210.74053177125, 35990.242480068504, 21307.31449214393, -6733.865348561448, 0.124, 1.016, 0.092, 192.0, 0.0, 0.0, 0.0, 0.0, 0.0, 0.0, 0.0, 0.0, 0.0, 1.695754505023891E9, 0.0, 2023-09-26 13:55:05.023
32.0, 73975.46755975099, 68895.1619142487, -19338.058750398013, -14281.289491807163, 33171.19576587627, 31567.68161865254, -187500.02235174447, 26436.90573417017, 45580.52665955146, 34463.19365062638, 4512.973667737683, -567.488439975791, 49218.206014419324, 35995.36102954877, 21305.302835142953, -6732.412485171853, 0.124, 1.016, 0.092, 192.0, 0.0, 0.0, 0.0, 0.0, 0.0, 0.0, 0.0, 0.0, 0.0, 1.695754505023922E9, 0.0, 2023-09-26 13:55:05.023
34.0, 73965.74455091293, 68885.64007111074, -19343.043189411546, -14288.06207037712, 33171.016951920625, 31564.306505239787, -187500.02235174447, 26433.95530390207, 45568.16614486768, 34438.405566025445, 4506.022275212083, -583.4699372613355, 49212.618078305495, 35971.8916978707, 21298.127925172797, -6740.90614806487, 0.124, 1.016, 0.092, 192.0, 0.0, 0.0, 0.0, 0.0, 0.0, 0.0, 0.0, 0.0, 0.0, 1.695754505023933E9, 0.0, 2023-09-26 13:55:05.023
36.0, 73957.49675720892, 68878.97925126305, -19348.675829014282, -14295.639311747469, 33157.49414652516, 31556.43869119152, -187500.02235174447, 26446.2934668414, 45559.11368836328, 34437.556199736144, 4500.188469909247, -592.9694286548411, 49206.78427300266, 35962.95100008858, 21293.0764309259, -6740.794389342594, 0.124, 1.016, 0.092, 192.0, 0.0, 0.0, 0.0, 0.0, 0.0, 0.0, 0.0, 0.0, 0.0, 1.695754505023942E9, 0.0, 2023-09-26 13:55:05.023
38.0, 73968.4044085031, 68891.33976594685, -19325.117090358388, -14274.427506259384, 33170.01112342014, 31574.00716233339, -187500.02235174447, 26439.52088827144, 45564.746327966015, 34423.04991758465, 4504.591763566943, -588.2755623192265, 49202.38097934496, 35971.82464263733, 21297.233855394585, -6735.161749739856, 0.12, 1.012, 0.08600000000000001, 192.0, 1.5, 96.0, 15.5, 80.0, 1.0, 88.0, 0.0, 0.0, 0.0, 1.695754505023951E9, 0.0, 2023-09-26 13:55:05.023
40.0, 73970.77369341537, 68888.27757695646, -19319.551505989017, -14273.265215547708, 33173.877975210904, 31573.850700122202, -187500.02235174447, 26464.353676361286, 45574.98342692655, 34443.94879865036, 4515.32060090549, -579.6254372150228, 49221.89405225445, 35982.26290729796, 21313.774146291515, -6717.593278597985, 0.12, 1.012, 0.08600000000000001, 192.0, 0.0, 0.0, 0.0, 0.0, 0.0, 0.0, 0.0, 0.0, 0.0, 1.69575450502396E9, 0.0, 2023-09-26 13:55:05.023
42.0, 73971.53365272685, 68884.14250423224, -19318.81389842199, -14262.20110204233, 33174.6826380113, 31577.78460714634, -187500.02235174447, 26452.507251799972, 45573.128232136754, 34450.6319702425, 4511.185528181259, -577.4796697473133, 49222.72106679929, 35995.495140015504, 21316.434003881695, -6715.492214619186, 0.12, 1.012, 0.08600000000000001, 192.0, 0.0, 0.0, 0.0, 0.0, 0.0, 0.0, 0.0, 0.0, 0.0, 1.695754505023969E9, 0.0, 2023-09-26 13:55:05.023
44.0, 73950.79123387233, 68880.38741116374, -19343.467872556197, -14282.764706941212, 33154.96839940172, 31554.0470545348, -187500.02235174447, 26452.261382610963, 45556.0514993729, 34449.82730744211, 4494.645237284331, -586.3756640405255, 49211.701656782825, 35986.37562827774, 21293.814038492925, -6729.484406648208, 0.12, 1.012, 0.08600000000000001, 192.0, 0.0, 0.0, 0.0, 0.0, 0.0, 0.0, 0.0, 0.0, 0.0, 1.695754505023978E9, 0.0, 2023-09-26 13:55:05.023
46.0, 73958.4578822205, 68891.98796653605, -19340.852718454924, -14279.523703995194, 33159.25993433713, 31559.63499064863, -187500.02235174447, 26430.602542233773, 45555.023319127955, 34423.295786773655, 4486.218629624681, -596.0539693896734, 49208.30419162562, 35975.0432938389, 21270.903500426233, -6746.538787667607, 0.12, 1.012, 0.08600000000000001, 192.0, 0.0, 0.0, 0.0, 0.0, 0.0, 0.0, 0.0, 0.0, 0.0, 1.695754505082725E9, 0.0, 2023-09-26 13:55:05.082
48.0, 73971.01956260439, 68888.6128531233, -19340.02570391008, -14285.715137209314, 33161.60686750494, 31549.666112621562, -187500.02235174447, 26439.27501908243, 45574.02230191497, 34455.325836578115, 4512.213708426203, -578.1278703365172, 49212.79689226114, 35981.25707879747, 21292.0258989365, -6733.418313672342, 0.122, 1.01, 0.096, 192.0, 1.5, 104.0, 15.5, 72.0, 1.5, 0.0, 0.0, 0.0, 0.0, 1.695754505082761E9, 0.0, 2023-09-26 13:55:05.082
50.0, 73973.6123649612, 68891.49622815802, -19346.753578991127, -14286.229227331785, 33156.488318024676, 31542.848830562692, -187500.02235174447, 26419.739594428494, 45554.66569121667, 34442.00419688275, 4504.703522289219, -581.3465215380814, 49198.9611624433, 35974.55155546088, 21264.712067212113, -6758.094639551001, 0.122, 1.01, 0.096, 192.0, 0.0, 0.0, 0.0, 0.0, 0.0, 0.0, 0.0, 0.0, 0.0, 1.695754505082772E9, 0.0, 2023-09-26 13:55:05.082
52.0, 73966.41510324659, 68884.43307691015, -19358.532948319073, -14295.59460825856, 33149.51457375462, 31543.47467940744, -187500.02235174447, 26436.1904783476, 45564.27694133246, 34453.18006911041, 4513.755978793619, -568.2931027761821, 49197.21772637579, 35973.344561260295, 21268.891843425256, -6757.915825595359, 0.122, 1.01, 0.096, 192.0, 0.0, 0.0, 0.0, 0.0, 0.0, 0.0, 0.0, 0.0, 0.0, 1.695754505082781E9, 0.0, 2023-09-26 13:55:05.082
54.0, 73965.72219916848, 68879.1580652187, -19364.299698388542, -14297.405099559439, 33149.626332476895, 31545.307522452775, -187500.02235174447, 26429.507306755462, 45555.96209239508, 34434.67282470141, 4505.686999045253, -578.3960912699808, 49190.42279606138, 35968.3377705023, 21260.59934623234, -6762.073250064046, 0.122, 1.01, 0.096, 192.0, 0.0, 0.0, 0.0, 0.0, 0.0, 0.0, 0.0, 0.0, 0.0, 1.69575450508279E9, 0.0, 2023-09-26 13:55:05.082
56.0, 73972.04774284932, 68877.4593326401, -19353.30264011653, -14288.754974455236, 33157.60590524744, 31555.231696990933, -187500.02235174447, 26450.272077354442, 45550.910598148184, 34431.6776909444, 4500.2778768870685, -582.5311639942126, 49191.96506642879, 35962.88394485521, 21263.795645689446, -6752.57375867054, 0.122, 1.01, 0.096, 192.0, 0.0, 0.0, 0.0, 0.0, 0.0, 0.0, 0.0, 0.0, 0.0, 1.695754505082799E9, 0.0, 2023-09-26 13:55:05.082
58.0, 73974.4617312505, 68871.06673372588, -19349.59225053695, -14294.767593713714, 33157.04711163606, 31552.951819056492, -187500.02235174447, 26445.28763834091, 45558.24197032952, 34428.123763576004, 4504.681170544764, -588.0073413857629, 49191.96506642879, 35966.773148390435, 21274.16685511671, -6738.71567710825, 0.12, 1.014, 0.092, 192.0, 1.5, 96.0, 15.5, 88.0, 1.0, 112.0, 0.0, 0.0, 0.0, 1.695754505082808E9, 0.0, 2023-09-26 13:55:05.082
60.0, 73968.58322245875, 68865.14352144522, -19351.849776726936, -14296.689843736869, 33160.08694888198, 31546.268647464356, -187500.02235174447, 26450.115615143255, 45552.83284817134, 34422.0217373397, 4502.98243796616, -598.9596961688634, 49202.55979330061, 35955.77609011842, 21271.88697718227, -6740.995555042691, 0.12, 1.014, 0.092, 192.0, 0.0, 0.0, 0.0, 0.0, 0.0, 0.0, 0.0, 0.0, 0.0, 1.69575450514297E9, 0.0, 2023-09-26 13:55:05.142
62.0, 73962.34708575573, 68868.65274532471, -19358.465893085708, -14297.606265259537, 33148.41933827631, 31536.38917641511, -187500.02235174447, 26428.523829999427, 45544.11566783377, 34425.01687109672, 4488.900838959317, -608.1909666289051, 49203.47621482328, 35946.29895046937, 21255.21257581861, -6755.546540683096, 0.12, 1.014, 0.092, 192.0, 0.0, 0.0, 0.0, 0.0, 0.0, 0.0, 0.0, 0.0, 0.0, 1.695754505142994E9, 0.0, 2023-09-26 13:55:05.142
64.0, 73968.06913233628, 68876.96759426208, -19340.58449752146, -14277.981433627778, 33166.211326862736, 31562.048979049803, -187500.02235174447, 26436.99514114799, 45538.460676486575, 34415.38326923648, 4495.382844851357, -598.132681624017, 49193.75320598522, 35971.0423315814, 21262.20867183312, -6748.1928167573, 0.12, 1.014, 0.092, 192.0, 0.0, 0.0, 0.0, 0.0, 0.0, 0.0, 0.0, 0.0, 0.0, 1.695754505143004E9, 0.0, 2023-09-26 13:55:05.143
66.0, 73960.06720782128, 68870.57499534787, -19346.440654568753, -14281.200084829341, 33163.976152417206, 31560.774929615847, -187500.02235174447, 26442.337208072808, 45557.59376974032, 34442.20536258285, 4505.105853689415, -586.8450506740869, 49209.064150937105, 35989.16959633465, 21278.07841039639, -6734.37943868392, 0.12, 1.014, 0.092, 192.0, 0.0, 0.0, 0.0, 0.0, 0.0, 0.0, 0.0, 0.0, 0.0, 1.695754505143013E9, 0.0, 2023-09-26 13:55:05.143
68.0, 73967.46563523599, 68870.39618139222, -19341.478567299673, -14279.858980162024, 33166.79247221857, 31565.49114769592, -187500.02235174447, 26437.442176037097, 45549.32362429186, 34413.1257430465, 4496.008693696105, -598.713826979855, 49195.65310426392, 35985.25804105497, 21268.64597423625, -6737.553386396574, 0.124, 1.014, 0.094, 192.0, 1.5, 112.0, 15.5, 88.0, 1.0, 120.0, 0.0, 0.0, 0.0, 1.695754505143054E9, 0.0, 2023-09-26 13:55:05.143
70.0, 73974.14880682812, 68875.26886168348, -19348.25114586963, -14279.88133190648, 33170.256992609146, 31565.289981995822, -187500.02235174447, 26451.769644232947, 45557.906694162695, 34437.62325496951, 4506.402254867823, -590.8683646760422, 49204.2138223903, 35990.06366611286, 21268.310698069417, -6737.575738141029, 0.124, 1.014, 0.094, 192.0, 0.0, 0.0, 0.0, 0.0, 0.0, 0.0, 0.0, 0.0, 0.0, 1.695754505143064E9, 0.0, 2023-09-26 13:55:05.143
72.0, 73972.31596378279, 68875.4029721502, -19362.511558832117, -14281.557712740627, 33150.9227336553, 31551.72247311145, -187500.02235174447, 26441.487841783506, 45555.76092669498, 34429.800144410154, 4507.944525235239, -593.5729257551344, 49186.198316359325, 35977.680799684626, 21251.569241472393, -6748.3716307129425, 0.124, 1.014, 0.094, 192.0, 0.0, 0.0, 0.0, 0.0, 0.0, 0.0, 0.0, 0.0, 0.0, 1.695754505143073E9, 0.0, 2023-09-26 13:55:05.143
74.0, 73982.21778657648, 68887.22704496706, -19354.889613972857, -14271.767648669202, 33159.483451781685, 31551.096624266702, -187500.02235174447, 26437.46452778155, 45559.91835116367, 34447.30156031866, 4515.454711372222, -571.198829555372, 49193.35087458502, 35981.07826484183, 21245.802491402923, -6751.031488303124, 0.124, 1.014, 0.094, 192.0, 0.0, 0.0, 0.0, 0.0, 0.0, 0.0, 0.0, 0.0, 0.0, 1.695754505143082E9, 0.0, 2023-09-26 13:55:05.143
76.0, 73979.37911503066, 68884.43307691015, -19353.280288372076, -14287.63738723247, 33161.875088438406, 31550.00138878839, -187500.02235174447, 26439.587943504805, 45562.89113317623, 34430.60480721054, 4519.65683932982, -570.8859051329977, 49192.72502574027, 35974.663314183155, 21255.190224074155, -6752.439648203808, 0.124, 1.014, 0.094, 192.0, 0.0, 0.0, 0.0, 0.0, 0.0, 0.0, 0.0, 0.0, 0.0, 1.695754505202966E9, 0.0, 2023-09-26 13:55:05.202
78.0, 73970.52782422636, 68868.78685579143, -19361.751599520638, -14294.097041380053, 33158.20940234773, 31536.746804326394, -187500.02235174447, 26447.94749593109, 45558.532543007444, 34429.50957173223, 4505.061150200504, -590.4213297869361, 49199.87758396597, 35957.1395465302, 21248.417645504196, -6759.949834340791, 0.126, 1.016, 0.08600000000000001, 192.0, 1.5, 120.0, 15.5, 96.0, 1.0, 88.0, 0.0, 0.0, 0.0, 1.695754505202988E9, 0.0, 2023-09-26 13:55:05.202
80.0, 73971.46659749349, 68872.72076281557, -19346.083026657467, -14282.563541241116, 33168.87118445292, 31549.733167854927, -187500.02235174447, 26435.81049869186, 45561.393566297724, 34424.79335365217, 4512.839557270951, -590.0189983867406, 49197.083615909054, 35965.18617453411, 21254.653782207228, -6751.545578425596, 0.126, 1.016, 0.08600000000000001, 192.0, 0.0, 0.0, 0.0, 0.0, 0.0, 0.0, 0.0, 0.0, 0.0, 1.695754505202998E9, 0.0, 2023-09-26 13:55:05.202
82.0, 73967.86796663619, 68864.89765225622, -19358.778817508082, -14296.645140247958, 33170.18993737578, 31544.86048756367, -187500.02235174447, 26452.775472733436, 45561.43826978663, 34433.778754923194, 4512.325467148479, -588.4990797637796, 49215.59086031805, 35971.35525600377, 21266.611965490814, -6742.7389911102055, 0.126, 1.016, 0.08600000000000001, 192.0, 0.0, 0.0, 0.0, 0.0, 0.0, 0.0, 0.0, 0.0, 0.0, 1.695754505203007E9, 0.0, 2023-09-26 13:55:05.203
84.0, 73957.63086767565, 68856.24752715201, -19362.332744876476, -14292.912398923923, 33164.26672509512, 31543.18410672952, -187500.02235174447, 26439.878516182725, 45542.81926665536, 34397.7700946057, 4496.142804162837, -609.5097195517683, 49194.42375831887, 35950.56813366034, 21252.59742171734, -6754.540712182607, 0.126, 1.016, 0.08600000000000001, 192.0, 0.0, 0.0, 0.0, 0.0, 0.0, 0.0, 0.0, 0.0, 0.0, 1.695754505203016E9, 0.0, 2023-09-26 13:55:05.203
86.0, 73959.12843455415, 68860.47200685406, -19355.984849451168, -14285.424564531395, 33165.94310592927, 31548.660284121073, -187500.02235174447, 26447.835737208814, 45559.47131627456, 34409.728277889284, 4505.977571723172, -595.8304519451203, 49195.8095664751, 35970.28237226992, 21259.660572965215, -6744.661241133362, 0.126, 1.016, 0.08600000000000001, 192.0, 0.0, 0.0, 0.0, 0.0, 0.0, 0.0, 0.0, 0.0, 0.0, 1.695754505203025E9, 0.0, 2023-09-26 13:55:05.203
88.0, 73969.74551317043, 68865.36703888977, -19357.527119818584, -14278.003785372233, 33164.28907683958, 31553.53296441233, -187500.02235174447, 26428.702643955072, 45553.995138883016, 34400.83228359607, 4502.4459960992335, -599.7643589692544, 49191.92036293988, 35963.956828589064, 21252.262145550507, -6751.322060981043, 0.128, 1.018, 0.088, 192.0, 2.0, 0.0, 15.5, 104.0, 1.0, 96.0, 0.0, 0.0, 0.0, 1.695754505203033E9, 0.0, 2023-09-26 13:55:05.203
90.0, 73956.89326010863, 68866.52932960146, -19367.093666445457, -14282.228265074285, 33158.589382003476, 31546.0451300198, -187500.02235174447, 26443.253629595474, 45564.20988609909, 34424.23456004078, 4514.404179382823, -581.167707582439, 49212.17104341639, 35986.330924788825, 21252.329200783875, -6740.727334109228, 0.128, 1.018, 0.088, 192.0, 0.0, 0.0, 0.0, 0.0, 0.0, 0.0, 0.0, 0.0, 0.0, 1.695754505262143E9, 0.0, 2023-09-26 13:55:05.262
92.0, 73947.34906522621, 68860.49435859852, -19383.99158525367, -14300.221419360807, 33144.82070741901, 31527.537885610807, -187500.02235174447, 26426.37806253172, 45546.59671146831, 34413.25985351323, 4503.0941966884375, -602.5136235372572, 49193.97672342977, 35967.73427340201, 21230.62565691777, -6758.921654095848, 0.128, 1.018, 0.088, 192.0, 0.0, 0.0, 0.0, 0.0, 0.0, 0.0, 0.0, 0.0, 0.0, 1.695754505262167E9, 0.0, 2023-09-26 13:55:05.262
94.0, 73947.68434139303, 68850.81605324936, -19333.63310499586, -14298.276817593196, 33144.46307950772, 31524.453344875976, -187500.02235174447, 26439.722053971538, 45544.98738586753, 34412.0752110571, 4491.851269227418, -607.5651177841565, 49185.75128147021, 35956.73721513, 21215.649988132714, -6764.464886720763, 0.128, 1.018, 0.088, 192.0, 0.0, 0.0, 0.0, 0.0, 0.0, 0.0, 0.0, 0.0, 0.0, 1.695754505262176E9, 0.0, 2023-09-26 13:55:05.262
96.0, 73951.05945480579, 68860.96374523207, -19308.554447717008, -14290.051375633642, 33148.03935862057, 31526.599112343683, -187500.02235174447, 26424.299350297377, 45532.11278106127, 34410.309423245126, 4484.452841812711, -598.0879781351064, 49171.937903396836, 35951.50690692746, 21228.077558049867, -6766.141267554912, 0.128, 1.018, 0.088, 192.0, 0.0, 0.0, 0.0, 0.0, 0.0, 0.0, 0.0, 0.0, 0.0, 1.695754505262185E9, 0.0, 2023-09-26 13:55:05.262
98.0, 73949.65129490511, 68863.98123073355, -19296.61861617787, -14296.354567570039, 33149.24635282116, 31522.441687874998, -187500.02235174447, 26437.263362081452, 45540.6511474432, 34421.19472279486, 4496.589839051943, -576.3620825245479, 49181.102118623516, 35963.6886076556, 21235.47598546457, -6761.737973897216, 0.126, 1.016, 0.09, 192.0, 1.5, 120.0, 15.5, 96.0, 1.0, 104.0, 0.0, 0.0, 0.0, 1.695754505262194E9, 0.0, 2023-09-26 13:55:05.262
100.0, 73943.99630355791, 68866.95401274611, -19296.1045260554, -14297.159230370431, 33143.77017542961, 31531.248275190388, -187500.02235174447, 26424.813440419846, 45538.90771137568, 34417.372574493005, 4495.449900084723, -589.1249286085283, 49180.56567675659, 35945.56134290234, 21232.525555196473, -6766.409488488375, 0.126, 1.016, 0.09, 192.0, 0.0, 0.0, 0.0, 0.0, 0.0, 0.0, 0.0, 0.0, 0.0, 1.695754505262204E9, 0.0, 2023-09-26 13:55:05.262
102.0, 73950.59006817223, 68861.03080046545, -19285.77802011705, -14291.750108212247, 33157.2259255917, 31538.46788864945, -187500.02235174447, 26445.801728463382, 45539.444153242606, 34431.52122873321, 4492.141841905337, -598.5573647686679, 49181.48209827925, 35958.25713375296, 21236.10183430932, -6756.798238372593, 0.126, 1.016, 0.09, 192.0, 0.0, 0.0, 0.0, 0.0, 0.0, 0.0, 0.0, 0.0, 0.0, 1.695754505262212E9, 0.0, 2023-09-26 13:55:05.262
104.0, 73948.57841117126, 68869.23389068054, -19291.790639375526, -14288.039718632666, 33155.303675568546, 31536.165658970556, -187500.02235174447, 26435.586981247307, 45541.43345849913, 34420.39005999447, 4494.220554139681, -592.678855976922, 49199.13997639895, 35972.9422298601, 21245.44486349164, -6746.76230511216, 0.126, 1.016, 0.09, 192.0, 0.0, 0.0, 0.0, 0.0, 0.0, 0.0, 0.0, 0.0, 0.0, 1.695754505262221E9, 0.0, 2023-09-26 13:55:05.262
106.0, 73976.8086644183, 68890.28923395745, -19259.134740726324, -14263.408096242918, 33160.869259937914, 31552.795356845305, -187500.02235174447, 26446.204059863576, 45549.25656905849, 34422.2229030398, 4507.184565923759, -572.5622859671457, 49181.59385700153, 35983.38049452072, 21250.518709482993, -6735.854653817971, 0.126, 1.016, 0.09, 192.0, 0.0, 0.0, 0.0, 0.0, 0.0, 0.0, 0.0, 0.0, 0.0, 1.695754505322504E9, 0.0, 2023-09-26 13:55:05.322
108.0, 73960.71540841048, 68873.41366689368, -19280.503008425596, -14291.236018089774, 33141.825573662, 31528.23078968892, -187500.02235174447, 26424.433460764107, 45560.566551752876, 34443.90409516145, 4512.973667737683, -567.6449021869781, 49201.75513050022, 35983.26873579845, 21245.936601869656, -6737.419275929842, 0.122, 1.014, 0.092, 192.0, 1.5, 104.0, 15.5, 88.0, 1.0, 112.0, 0.0, 0.0, 0.0, 1.69575450532252E9, 0.0, 2023-09-26 13:55:05.322
110.0, 73950.0536263053, 68865.88112901225, -19281.598243903907, -14294.20880010233, 33139.74686142765, 31526.062670476756, -187500.02235174447, 26435.18464984711, 45539.69002243162, 34427.45321124235, 4503.585935066454, -583.939323894897, 49174.75422319821, 35969.03067458042, 21241.510956467504, -6756.57472092804, 0.122, 1.014, 0.092, 192.0, 0.0, 0.0, 0.0, 0.0, 0.0, 0.0, 0.0, 0.0, 0.0, 1.695754505322529E9, 0.0, 2023-09-26 13:55:05.322
112.0, 73954.23340251844, 68872.96663200458, -19281.933520070736, -14284.06110811962, 33144.32896904099, 31533.90813278057, -187500.02235174447, 26432.27892306792, 45536.18079855214, 34430.4259932549, 4502.758920521608, -588.6555419749668, 49185.93009542586, 35956.02195930743, 21234.358398241806, -6755.591244172007, 0.122, 1.014, 0.092, 192.0, 0.0, 0.0, 0.0, 0.0, 0.0, 0.0, 0.0, 0.0, 0.0, 1.695754505322538E9, 0.0, 2023-09-26 13:55:05.322
114.0, 73956.40152173062, 68876.63231809525, -19284.928653827745, -14276.729735938281, 33158.2764575811, 31541.32891193973, -187500.02235174447, 26437.173955103633, 45553.749269694, 34433.10820258954, 4515.231193927669, -578.0831668476065, 49201.62102003348, 35980.474767741536, 21239.566354699895, -6742.962508554758, 0.122, 1.014, 0.092, 192.0, 0.0, 0.0, 0.0, 0.0, 0.0, 0.0, 0.0, 0.0, 0.0, 1.695754505322585E9, 0.0, 2023-09-26 13:55:05.322
116.0, 73959.35195199872, 68878.5545681184, -19282.358203215386, -14283.994052886255, 33149.51457375462, 31526.37559489913, -187500.02235174447, 26425.819268920335, 45546.39554576821, 34443.83703992808, 4509.285629902557, -579.6254372150228, 49192.09917689552, 35992.477654514034, 21231.363264484797, -6747.678726634828, 0.122, 1.014, 0.092, 192.0, 0.0, 0.0, 0.0, 0.0, 0.0, 0.0, 0.0, 0.0, 0.0, 1.695754505322593E9, 0.0, 2023-09-26 13:55:05.322
118.0, 73962.79412064483, 68879.96272801909, -19286.023889306056, -14288.285587821674, 33139.7245096832, 31518.217208172944, -187500.02235174447, 26421.125402584723, 45546.48495274603, 34426.98382460878, 4508.860946757906, -573.7916319121877, 49195.65310426392, 35974.50685197197, 21224.791851614937, -6757.111162794968, 0.12, 1.014, 0.08600000000000001, 192.0, 1.5, 96.0, 15.5, 88.0, 1.0, 88.0, 0.0, 0.0, 0.0, 1.695754505322602E9, 0.0, 2023-09-26 13:55:05.322
120.0, 73967.28682128034, 68881.77321931998, -19283.699307882704, -14290.073727378098, 33144.12780334089, 31516.47377210543, -187500.02235174447, 26428.03209162141, 45545.14384807871, 34435.43278401289, 4510.112644447404, -564.3815474965033, 49187.33825532654, 35969.701226914076, 21222.176697513663, -6764.263721020666, 0.12, 1.014, 0.08600000000000001, 192.0, 0.0, 0.0, 0.0, 0.0, 0.0, 0.0, 0.0, 0.0, 0.0, 1.695754505382772E9, 0.0, 2023-09-26 13:55:05.382
122.0, 73964.85048113471, 68884.72364958806, -19269.1483222423, -14275.455686504327, 33162.23271634969, 31530.197743200988, -187500.02235174447, 26429.8872864112, 45555.26918831697, 34436.88564740249, 4526.027086499583, -553.2280270133051, 49194.80373797462, 35972.3387327598, 21233.173755785676, -6754.764229627161, 0.12, 1.014, 0.08600000000000001, 192.0, 0.0, 0.0, 0.0, 0.0, 0.0, 0.0, 0.0, 0.0, 0.0, 1.695754505382793E9, 0.0, 2023-09-26 13:55:05.382
124.0, 73963.5093764674, 68887.42821066716, -19268.43306641973, -14278.674337705892, 33157.20357384725, 31534.444574647496, -187500.02235174447, 26431.94364690109, 45551.51409524847, 34462.09841514807, 4522.987249253661, -560.0453090721737, 49198.02238917618, 35985.012171865965, 21236.54886919843, -6747.701078379283, 0.12, 1.014, 0.08600000000000001, 192.0, 0.0, 0.0, 0.0, 0.0, 0.0, 0.0, 0.0, 0.0, 0.0, 1.695754505382803E9, 0.0, 2023-09-26 13:55:05.382
126.0, 73952.95935308449, 68868.98802149153, -19276.971432801656, -14280.931863895878, 33149.559277243534, 31527.515533866354, -187500.02235174447, 26425.08166135331, 45562.19822909811, 34446.25102832926, 4520.327391663479, -567.5778469536123, 49196.99420893124, 35985.88388989972, 21226.378825471264, -6750.919729580847, 0.12, 1.014, 0.08600000000000001, 192.0, 0.0, 0.0, 0.0, 0.0, 0.0, 0.0, 0.0, 0.0, 0.0, 1.695754505382814E9, 0.0, 2023-09-26 13:55:05.382
128.0, 73947.52787918186, 68860.06967545387, -19276.278528723542, -14282.071802863098, 33146.65355046434, 31528.923693767036, -187500.02235174447, 26445.824080207836, 45550.910598148184, 34442.27241781622, 4513.890089260351, -577.4126145139473, 49203.364456101, 35977.70315142908, 21222.40021495822, -6744.638889388906, 0.124, 1.018, 0.08600000000000001, 192.0, 1.5, 112.0, 15.5, 104.0, 1.0, 88.0, 0.0, 0.0, 0.0, 1.695754505382825E9, 0.0, 2023-09-26 13:55:05.382
130.0, 73940.42002444506, 68855.57697481835, -19273.931595555736, -14281.647119718447, 33151.88385866688, 31530.46596413445, -187500.02235174447, 26434.536449257906, 45549.43538301413, 34418.46780997131, 4507.430435112767, -588.1638035969501, 49193.48498505175, 35971.22114553704, 21219.33802596784, -6749.1986452577885, 0.124, 1.018, 0.08600000000000001, 192.0, 0.0, 0.0, 0.0, 0.0, 0.0, 0.0, 0.0, 0.0, 0.0, 1.695754505382834E9, 0.0, 2023-09-26 13:55:05.382
132.0, 73934.31799820876, 68851.82188174986, -19281.62059564836, -14284.754012197734, 33150.60980923293, 31530.354205412175, -187500.02235174447, 26446.069949396846, 45555.6044644838, 34429.934254876884, 4510.202051425225, -592.5670972546455, 49207.365418358495, 35972.22697403753, 21220.075633534867, -6749.533921424619, 0.124, 1.018, 0.08600000000000001, 192.0, 0.0, 0.0, 0.0, 0.0, 0.0, 0.0, 0.0, 0.0, 0.0, 1.695754505382843E9, 0.0, 2023-09-26 13:55:05.382
134.0, 73934.22859123095, 68854.25822189549, -19285.91213058378, -14280.373070284495, 33165.160794873336, 31539.47371714994, -187500.02235174447, 26436.99514114799, 45561.14769710871, 34408.63304241098, 4516.147615450337, -590.6671989759444, 49212.95335447232, 35977.47963398453, 21222.82489810287, -6738.849787574982, 0.124, 1.018, 0.08600000000000001, 192.0, 0.0, 0.0, 0.0, 0.0, 0.0, 0.0, 0.0, 0.0, 0.0, 1.695754505382852E9, 0.0, 2023-09-26 13:55:05.382
136.0, 73930.13822199563, 68844.8928409687, -19297.24446502262, -14288.844381433057, 33155.03545463508, 31529.258969933868, -187500.02235174447, 26455.860013468267, 45546.10497309029, 34417.61844368201, 4499.763786764596, -602.9159549374527, 49213.534499828165, 35963.50979369996, 21213.39246194273, -6743.610709143962, 0.124, 1.018, 0.08600000000000001, 192.0, 0.0, 0.0, 0.0, 0.0, 0.0, 0.0, 0.0, 0.0, 0.0, 1.695754505443126E9, 0.0, 2023-09-26 13:55:05.443
138.0, 73928.32773069474, 68841.62948627824, -19299.881970868348, -14289.537285511171, 33150.22982957719, 31524.565103598252, -187500.02235174447, 26441.934876672614, 45544.07096434486, 34413.25985351323, 4500.344932120434, -603.3182863376483, 49200.235211877254, 35974.1939275496, 21215.113546265788, -6740.056781775568, 0.12, 1.012, 0.084, 192.0, 1.5, 96.0, 15.5, 80.0, 1.0, 80.0, 0.0, 0.0, 0.0, 1.695754505443143E9, 0.0, 2023-09-26 13:55:05.443
140.0, 73935.36853019816, 68850.36901836026, -19295.545732444018, -14287.9726633993, 33154.76723370162, 31516.876103505627, -187500.02235174447, 26454.47420531204, 45540.53938872092, 34416.54555994816, 4492.74533900563, -605.0393706607068, 49202.91742121189, 35958.301837241874, 21198.260330946487, -6755.993575572202, 0.12, 1.012, 0.084, 192.0, 0.0, 0.0, 0.0, 0.0, 0.0, 0.0, 0.0, 0.0, 0.0, 1.695754505443152E9, 0.0, 2023-09-26 13:55:05.443
142.0, 73955.68626590804, 68874.28538492744, -19276.636156634828, -14277.422640016395, 33156.08598662448, 31527.24731293289, -187500.02235174447, 26437.79980394838, 45558.37608079625, 34418.04312682666, 4505.932868234261, -587.6273617300227, 49221.581127832076, 35965.16382278965, 21211.760784597493, -6751.724392381238, 0.12, 1.012, 0.084, 192.0, 0.0, 0.0, 0.0, 0.0, 0.0, 0.0, 0.0, 0.0, 0.0, 1.695754505443161E9, 0.0, 2023-09-26 13:55:05.443
144.0, 73953.29462925132, 68874.28538492744, -19275.00447928959, -14278.272006305697, 33164.110262883936, 31537.774984571337, -187500.02235174447, 26455.860013468267, 45570.133098379745, 34438.696138703366, 4522.204938197725, -564.7391754077883, 49223.61513657751, 35978.73133167402, 21225.372996970775, -6744.013040544158, 0.12, 1.012, 0.084, 192.0, 0.0, 0.0, 0.0, 0.0, 0.0, 0.0, 0.0, 0.0, 0.0, 1.695754505443169E9, 0.0, 2023-09-26 13:55:05.443
146.0, 73939.19067850002, 68859.98026847605, -19281.978223559647, -14294.477021035795, 33151.03449237758, 31532.455269390975, -187500.02235174447, 26439.856164438268, 45554.3527667943, 34414.75742039173, 4507.922173490783, -585.1463180954836, 49217.78133127467, 35961.095805298784, 21217.14755501122, -6759.3463372404985, 0.12, 1.012, 0.084, 192.0, 0.0, 0.0, 0.0, 0.0, 0.0, 0.0, 0.0, 0.0, 0.0, 1.695754505443178E9, 0.0, 2023-09-26 13:55:05.443
148.0, 73926.62899811614, 68840.69071301112, -19288.907264340793, -14308.916247953923, 33134.02481484709, 31536.05390024828, -187500.02235174447, 26456.82113847985, 45543.04278409991, 34404.25210049774, 4497.416853596789, -596.5680595121455, 49196.36836008649, 35963.24157276649, 21211.20199098611, -6766.81181988857, 0.122, 1.014, 0.08, 192.0, 1.5, 104.0, 15.5, 88.0, 1.0, 64.0, 0.0, 0.0, 0.0, 1.695754505443187E9, 0.0, 2023-09-26 13:55:05.443
150.0, 73933.55803889729, 68846.32335261385, -19286.046241050513, -14307.664550264426, 33131.1190880679, 31542.111222995667, -187500.02235174447, 26439.722053971538, 45539.53356022043, 34399.669992884395, 4484.586952279443, -614.2259376318381, 49197.55300254262, 35955.999607562975, 21210.352624696807, -6774.00908160318, 0.122, 1.014, 0.08, 192.0, 0.0, 0.0, 0.0, 0.0, 0.0, 0.0, 0.0, 0.0, 0.0, 1.695754505501905E9, 0.0, 2023-09-26 13:55:05.501
152.0, 73938.31896046626, 68849.38554160424, -19272.18815948822, -14287.391518043461, 33134.7177189252, 31555.745787113407, -187500.02235174447, 26453.46837681155, 45558.08550811833, 34407.42604821039, 4499.115586175392, -603.7653212267544, 49211.32167712709, 35981.525299730936, 21239.611058188806, -6750.092715036001, 0.122, 1.014, 0.08, 192.0, 0.0, 0.0, 0.0, 0.0, 0.0, 0.0, 0.0, 0.0, 0.0, 1.695754505501933E9, 0.0, 2023-09-26 13:55:05.501
154.0, 73946.87967859265, 68852.13480617224, -19259.38060991533, -14294.16409661342, 33139.36688177191, 31555.499917924397, -187500.02235174447, 26440.66082723866, 45565.84156344433, 34417.931368104386, 4504.3235426334795, -594.1093676220618, 49218.04955220813, 36000.814855195866, 21251.77040717249, -6741.017906787147, 0.122, 1.014, 0.08, 192.0, 0.0, 0.0, 0.0, 0.0, 0.0, 0.0, 0.0, 0.0, 0.0, 1.695754505501941E9, 0.0, 2023-09-26 13:55:05.501
156.0, 73950.4559577055, 68859.89086149822, -19262.263984950067, -14302.769518228713, 33128.28041652208, 31547.2968277093, -187500.02235174447, 26436.05636788087, 45554.77744993895, 34401.078152785085, 4492.4100628388005, -610.3590858410699, 49208.59476430354, 35979.51364272996, 21253.312677539907, -6751.880854592426, 0.122, 1.014, 0.08, 192.0, 0.0, 0.0, 0.0, 0.0, 0.0, 0.0, 0.0, 0.0, 0.0, 1.69575450550195E9, 0.0, 2023-09-26 13:55:05.501
158.0, 73956.62503917517, 68865.76937028997, -19247.981220243124, -14300.981378672288, 33135.18710555877, 31555.34345571321, -187500.02235174447, 26431.451908523075, 45568.97080766807, 34419.56304544962, 4499.920248975784, -602.4465683038912, 49205.33140961306, 35990.68951495761, 21264.35443930083, -6750.629156902928, 0.126, 1.018, 0.084, 192.0, 1.5, 120.0, 15.5, 104.0, 1.0, 80.0, 0.0, 0.0, 0.0, 1.695754505501984E9, 0.0, 2023-09-26 13:55:05.501
160.0, 73951.61824841717, 68864.6070795783, -19253.837377290416, -14301.204896116842, 33129.30859676702, 31556.77396735835, -187500.02235174447, 26438.917391171148, 45569.015511156984, 34412.3210802461, 4501.730740276664, -597.4174258014472, 49221.89405225445, 35995.22691908204, 21281.855855209335, -6742.984860299213, 0.126, 1.018, 0.084, 192.0, 0.0, 0.0, 0.0, 0.0, 0.0, 0.0, 0.0, 0.0, 0.0, 1.695754505501993E9, 0.0, 2023-09-26 13:55:05.501
162.0, 73955.95448684151, 68860.96374523207, -19250.104635966378, -14298.54503852666, 33122.156038541325, 31552.124804511644, -187500.02235174447, 26437.08454812581, 45553.436345271635, 34409.460056955824, 4484.899876701817, -608.4144840734582, 49214.80854926212, 35970.885869370206, 21267.796607946948, -6755.032450560624, 0.126, 1.018, 0.084, 192.0, 0.0, 0.0, 0.0, 0.0, 0.0, 0.0, 0.0, 0.0, 0.0, 1.695754505502002E9, 0.0, 2023-09-26 13:55:05.502
164.0, 73960.96127759949, 68871.02203023697, -19232.75968226906, -14287.34681455455, 33135.34356776995, 31575.549432700805, -187500.02235174447, 26443.119519128744, 45573.37410132577, 34415.405620980935, 4504.636467055853, -587.4485477743802, 49222.542252843654, 36009.353221577796, 21296.719765272115, -6729.797331070582, 0.126, 1.018, 0.084, 192.0, 0.0, 0.0, 0.0, 0.0, 0.0, 0.0, 0.0, 0.0, 0.0, 1.69575450550201E9, 0.0, 2023-09-26 13:55:05.502
166.0, 73938.453070933, 68857.47687309705, -19250.57402259994, -14299.21559086032, 33120.479657707176, 31557.511574925375, -187500.02235174447, 26442.158394117167, 45556.76675519547, 34422.0217373397, 4488.856135470407, -587.940286152397, 49214.80854926212, 36003.47471278605, 21292.182361147687, -6735.385267184409, 0.126, 1.018, 0.084, 192.0, 0.0, 0.0, 0.0, 0.0, 0.0, 0.0, 0.0, 0.0, 0.0, 1.695754505562165E9, 0.0, 2023-09-26 13:55:05.562
168.0, 73932.17223074105, 68861.16491093217, -19254.28441217952, -14302.9259804399, 33122.6701286638, 31562.09368253871, -187500.02235174447, 26443.030112150922, 45543.1992463111, 34402.84394059705, 4475.847420197418, -601.843071203598, 49203.90089796793, 35998.222052839046, 21287.644957023258, -6742.291956221099, 0.122, 1.01, 0.084, 192.0, 1.5, 104.0, 15.5, 72.0, 1.0, 80.0, 0.0, 0.0, 0.0, 1.69575450556218E9, 0.0, 2023-09-26 13:55:05.562
170.0, 73943.54926866881, 68859.3544196313, -19241.655676562274, -14301.696634494858, 33137.46698349321, 31567.92748784155, -187500.02235174447, 26445.555859274373, 45558.1525633517, 34422.4240687399, 4479.244885354625, -598.937344424408, 49218.67540105288, 35988.65550621218, 21291.802381491947, -6733.239499716699, 0.122, 1.01, 0.084, 192.0, 0.0, 0.0, 0.0, 0.0, 0.0, 0.0, 0.0, 0.0, 0.0, 1.69575450556219E9, 0.0, 2023-09-26 13:55:05.562
172.0, 73946.52205068136, 68863.28832665543, -19243.644981818794, -14300.936675183377, 33138.18223931578, 31576.73407515694, -187500.02235174447, 26443.074815639833, 45562.28763607593, 34383.82260606559, 4481.927094689261, -606.7828067282209, 49208.32654337008, 35982.32996253132, 21293.344651859363, -6737.039296274102, 0.122, 1.01, 0.084, 192.0, 0.0, 0.0, 0.0, 0.0, 0.0, 0.0, 0.0, 0.0, 0.0, 1.695754505562199E9, 0.0, 2023-09-26 13:55:05.562
174.0, 73950.4559577055, 68860.11437894277, -19241.3427521399, -14298.410928059928, 33135.5223817256, 31562.943048828012, -187500.02235174447, 26449.17684187613, 45557.72788020705, 34421.93233036189, 4486.196277880225, -600.1219868805393, 49230.61123259202, 36000.16665460666, 21284.962747688623, -6732.926575294326, 0.122, 1.01, 0.084, 192.0, 0.0, 0.0, 0.0, 0.0, 0.0, 0.0, 0.0, 0.0, 0.0, 1.695754505562209E9, 0.0, 2023-09-26 13:55:05.562
176.0, 73936.30730346529, 68853.81118700639, -19249.27762142153, -14305.250561863251, 33132.03550959057, 31560.73022612694, -187500.02235174447, 26440.75023421648, 45556.252665073, 34390.4163706799, 4484.654007512809, -602.6030305150784, 49207.94656371434, 35998.17734935014, 21282.772276732, -6737.66514511885, 0.122, 1.01, 0.084, 192.0, 0.0, 0.0, 0.0, 0.0, 0.0, 0.0, 0.0, 0.0, 0.0, 1.695754505562218E9, 0.0, 2023-09-26 13:55:05.562
178.0, 73938.4977744219, 68862.57307083286, -19245.030789975022, -14299.081480393586, 33141.579704472984, 31568.016894819368, -187500.02235174447, 26453.826004722836, 45563.96401691008, 34424.61453969652, 4489.347873848424, -597.8868124350087, 49217.22253766329, 35997.88677667222, 21280.06771565291, -6730.601993870973, 0.128, 1.008, 0.088, 192.0, 2.0, 0.0, 15.5, 64.0, 1.0, 96.0, 0.0, 0.0, 0.0, 1.695754505562226E9, 0.0, 2023-09-26 13:55:05.562
180.0, 73929.26650396187, 68850.01139044898, -19257.19013895871, -14297.762727470725, 33126.492276965655, 31556.3492842137, -187500.02235174447, 26433.172992846132, 45556.0514993729, 34392.56213814761, 4485.391615079834, -594.8022717001762, 49201.285743866654, 35995.07045687085, 21279.48657029707, -6733.954755539269, 0.128, 1.008, 0.088, 192.0, 0.0, 0.0, 0.0, 0.0, 0.0, 0.0, 0.0, 0.0, 0.0, 1.695754505622477E9, 0.0, 2023-09-26 13:55:05.622
182.0, 73947.01378905938, 68871.60317559281, -19251.0434092335, -14293.44884079085, 33141.49029749516, 31569.380351231142, -187500.02235174447, 26458.274001869442, 45553.48104876054, 34413.52807444669, 4482.1953156227255, -588.2085070858607, 49217.93779348586, 35998.423218539145, 21280.224177864096, -6734.312383450554, 0.128, 1.008, 0.088, 192.0, 0.0, 0.0, 0.0, 0.0, 0.0, 0.0, 0.0, 0.0, 0.0, 1.695754505622503E9, 0.0, 2023-09-26 13:55:05.622
184.0, 73944.5550971693, 68873.99481224953, -19250.90929876677, -14299.908494938434, 33131.05203283454, 31556.662208636073, -187500.02235174447, 26438.783280704414, 45571.02716815796, 34411.58347267908, 4495.762824507096, -582.6429227164892, 49210.807587004616, 36001.440704040615, 21285.70035525565, -6729.015020014646, 0.128, 1.008, 0.088, 192.0, 0.0, 0.0, 0.0, 0.0, 0.0, 0.0, 0.0, 0.0, 0.0, 1.695754505622513E9, 0.0, 2023-09-26 13:55:05.622
186.0, 73940.77765235635, 68868.54098660243, -19257.19013895871, -14315.398253845962, 33129.59916944494, 31550.984865544426, -187500.02235174447, 26452.015513421957, 45566.31095007789, 34428.79431590966, 4486.822126724974, -591.2706960762378, 49212.752188772225, 35986.77795967793, 21277.564320273916, -6743.029563788124, 0.128, 1.008, 0.088, 192.0, 0.0, 0.0, 0.0, 0.0, 0.0, 0.0, 0.0, 0.0, 0.0, 1.695754505622522E9, 0.0, 2023-09-26 13:55:05.622
188.0, 73937.53664941034, 68856.8510242523, -19262.263984950067, -14316.180564901897, 33116.85867510542, 31544.413452674566, -187500.02235174447, 26421.393623518186, 45563.76285120998, 34410.35412673403, 4483.067033656483, -595.2046031003717, 49211.634601549464, 35985.570965477345, 21275.21738710611, -6752.685517392817, 0.128, 1.012, 0.084, 192.0, 2.0, 0.0, 15.5, 80.0, 1.0, 80.0, 0.0, 0.0, 0.0, 1.695754505622532E9, 0.0, 2023-09-26 13:55:05.622
190.0, 73933.33452145274, 68850.1007974268, -19256.407827902774, -14320.427396348405, 33125.37468974289, 31538.691406094007, -187500.02235174447, 26430.46843176704, 45547.87076090226, 34409.28124300018, 4468.985434649639, -603.810024715665, 49201.82218573358, 35969.768282147445, 21258.028895619977, -6767.951758855791, 0.128, 1.012, 0.084, 192.0, 0.0, 0.0, 0.0, 0.0, 0.0, 0.0, 0.0, 0.0, 0.0, 1.695754505622541E9, 0.0, 2023-09-26 13:55:05.622
192.0, 73936.21789648746, 68854.99582946251, -19261.705191338682, -14323.713102783335, 33123.65360541983, 31535.271589192344, -187500.02235174447, 26409.614254190237, 45556.856162173295, 34400.76522836271, 4478.283760343046, -597.3056670791707, 49209.198261403835, 35970.617648436746, 21270.63527949277, -6766.543598955107, 0.128, 1.012, 0.084, 192.0, 0.0, 0.0, 0.0, 0.0, 0.0, 0.0, 0.0, 0.0, 0.0, 1.695754505622551E9, 0.0, 2023-09-26 13:55:05.622
194.0, 73937.8495738327, 68863.53419584443, -19260.47584539364, -14317.432262591394, 33117.59628267244, 31542.468850906953, -187500.02235174447, 26430.401376533675, 45549.59184522532, 34417.23846402627, 4472.919341673773, -603.161824126461, 49201.30809561111, 35968.3377705023, 21260.39818053224, -6767.638834433417, 0.128, 1.012, 0.084, 192.0, 0.0, 0.0, 0.0, 0.0, 0.0, 0.0, 0.0, 0.0, 0.0, 1.69575450562256E9, 0.0, 2023-09-26 13:55:05.622
196.0, 73928.3500824392, 68845.98807644703, -19275.80914208998, -14319.935657970389, 33110.10844827991, 31538.08790899371, -187500.02235174447, 26415.89509438218, 45545.166199823165, 34411.11408604552, 4464.202161336203, -609.5097195517683, 49203.96795320129, 35967.197831535086, 21251.502186239028, -6770.589264701518, 0.128, 1.012, 0.084, 192.0, 0.0, 0.0, 0.0, 0.0, 0.0, 0.0, 0.0, 0.0, 0.0, 1.69575450568383E9, 0.0, 2023-09-26 13:55:05.683
198.0, 73931.61343712968, 68847.10566366979, -19253.323287167943, -14308.715082253824, 33129.55446595603, 31550.269609721854, -187500.02235174447, 26440.75023421648, 45551.312929548374, 34398.75357136173, 4469.74539396112, -597.8644606905533, 49217.42370336338, 35972.18227054862, 21270.344706814853, -6753.825456360038, 0.124, 1.012, 0.09, 192.0, 1.5, 112.0, 15.5, 80.0, 1.0, 104.0, 0.0, 0.0, 0.0, 1.695754505683846E9, 0.0, 2023-09-26 13:55:05.683
200.0, 73937.82722208825, 68847.66445728118, -19262.95688902818, -14304.937637440878, 33131.99080610166, 31551.454252177988, -187500.02235174447, 26432.882420168215, 45545.36736552326, 34400.83228359607, 4466.951425904206, -599.7196554803438, 49224.93388950037, 35989.281355056926, 21266.29904106844, -6753.356069726476, 0.124, 1.012, 0.09, 192.0, 0.0, 0.0, 0.0, 0.0, 0.0, 0.0, 0.0, 0.0, 0.0, 1.695754505683856E9, 0.0, 2023-09-26 13:55:05.683
202.0, 73932.03812027433, 68850.9501637161, -19258.553595370486, -14307.284570608685, 33138.83043990498, 31554.225868490445, -187500.02235174447, 26451.546126788395, 45548.85423765829, 34406.91195808792, 4469.11954511637, -598.4679577908466, 49210.98640096026, 35987.537918989416, 21270.523520770494, -6748.282223735121, 0.124, 1.012, 0.09, 192.0, 0.0, 0.0, 0.0, 0.0, 0.0, 0.0, 0.0, 0.0, 0.0, 1.695754505683896E9, 0.0, 2023-09-26 13:55:05.683
204.0, 73925.22083821545, 68848.42441659265, -19268.366011186365, -14305.652893263448, 33135.298864281045, 31552.169508000556, -187500.02235174447, 26431.56366724535, 45542.90867363318, 34416.50085645924, 4461.341138045924, -604.4358735604136, 49215.18852891785, 35980.07243634134, 21264.600308489837, -6749.645680146895, 0.124, 1.012, 0.09, 192.0, 0.0, 0.0, 0.0, 0.0, 0.0, 0.0, 0.0, 0.0, 0.0, 1.695754505683905E9, 0.0, 2023-09-26 13:55:05.683
206.0, 73929.51237315088, 68867.60221333531, -19253.725618568136, -14301.227247861296, 33142.96551262921, 31555.455214435486, -187500.02235174447, 26448.550993031382, 45542.88632188873, 34400.98874580726, 4468.583103249443, -594.2658298332489, 49219.97180223129, 35994.01992488145, 21264.510901512018, -6746.538787667607, 0.124, 1.012, 0.09, 192.0, 0.0, 0.0, 0.0, 0.0, 0.0, 0.0, 0.0, 0.0, 0.0, 1.695754505683914E9, 0.0, 2023-09-26 13:55:05.683
208.0, 73908.0994019627, 68851.88893698323, -19268.00838327508, -14305.988169430277, 33128.570989199994, 31544.748728841394, -187500.02235174447, 26443.834774951312, 45542.305176532886, 34405.3696877205, 4462.659890968787, -598.6020682575785, 49220.12826444248, 35978.91014562966, 21259.325296798386, -6751.165598769856, 0.13, 1.008, 0.092, 192.0, 2.0, 8.0, 15.5, 64.0, 1.0, 112.0, 0.0, 0.0, 0.0, 1.695754505683923E9, 0.0, 2023-09-26 13:55:05.683
210.0, 73905.17132343905, 68845.6975037691, -19269.52830189804, -14318.50514632525, 33129.487410722664, 31537.372653171144, -187500.02235174447, 26446.315818585852, 45532.09042931681, 34389.410542179416, 4455.484980998634, -603.161824126461, 49209.57824105957, 35985.95094513309, 21250.92104088319, -6759.279282007133, 0.13, 1.008, 0.092, 192.0, 0.0, 0.0, 0.0, 0.0, 0.0, 0.0, 0.0, 0.0, 0.0, 1.695754505683933E9, 0.0, 2023-09-26 13:55:05.683
212.0, 73930.33938769573, 68865.00941097848, -19263.627441361838, -14305.07174790761, 33140.193896316756, 31545.53103989733, -187500.02235174447, 26441.71135922806, 45534.23619678452, 34403.04510629715, 4453.942710631217, -606.4475305613912, 49224.084523211066, 35967.08607281281, 21244.59549720234, -6766.945930355303, 0.13, 1.008, 0.092, 192.0, 0.0, 0.0, 0.0, 0.0, 0.0, 0.0, 0.0, 0.0, 0.0, 1.695754505743127E9, 0.0, 2023-09-26 13:55:05.743
214.0, 73918.40355615658, 68856.06871319636, -19266.890796052314, -14314.951218956856, 33131.94610261275, 31533.75167056938, -187500.02235174447, 26443.387740062208, 45549.72595569205, 34414.73506864728, 4460.089440356426, -596.0092659007628, 49219.21184291981, 35987.91789864515, 21246.92007862569, -6766.677709421839, 0.13, 1.008, 0.092, 192.0, 0.0, 0.0, 0.0, 0.0, 0.0, 0.0, 0.0, 0.0, 0.0, 1.695754505743148E9, 0.0, 2023-09-26 13:55:05.743
216.0, 73927.07603300524, 68864.69648655612, -19272.679897866237, -14318.907477725445, 33119.25031176213, 31535.405699659077, -187500.02235174447, 26442.247801094985, 45544.272130044956, 34420.7253361613, 4455.97671937665, -597.8644606905533, 49212.2157469053, 35977.88196538472, 21235.900668609225, -6774.366709514465, 0.13, 1.008, 0.092, 192.0, 0.0, 0.0, 0.0, 0.0, 0.0, 0.0, 0.0, 0.0, 0.0, 1.695754505743159E9, 0.0, 2023-09-26 13:55:05.743
218.0, 73924.41617541507, 68857.4545213526, -19261.03463900502, -14303.171849628909, 33130.2697217786, 31538.2443712049, -187500.02235174447, 26447.455757553074, 45543.713336433575, 34389.43289392387, 4463.688071213731, -591.5612687541567, 49225.80560753413, 35977.90431712918, 21240.706293667114, -6765.470715221252, 0.132, 1.012, 0.08600000000000001, 192.0, 2.0, 16.0, 15.5, 80.0, 1.0, 88.0, 0.0, 0.0, 0.0, 1.695754505743172E9, 0.0, 2023-09-26 13:55:05.743
220.0, 73927.7465853389, 68861.12020744327, -19262.442798905708, -14305.205858374342, 33134.29303578055, 31543.80995557427, -187500.02235174447, 26455.032998923423, 45543.1992463111, 34402.37455396349, 4458.457763011189, -596.098672878584, 49231.84057853706, 35972.04816008188, 21232.63731391875, -6762.319119253054, 0.132, 1.012, 0.08600000000000001, 192.0, 0.0, 0.0, 0.0, 0.0, 0.0, 0.0, 0.0, 0.0, 0.0, 1.695754505743182E9, 0.0, 2023-09-26 13:55:05.743
222.0, 73920.19169571302, 68853.63237305074, -19267.404886174787, -14304.445899062861, 33128.77215490009, 31542.558257884775, -187500.02235174447, 26441.912524928157, 45548.83188591384, 34395.04318178215, 4461.229379323648, -593.5058705217684, 49220.32943014258, 35976.07147408384, 21244.30492452442, -6760.106296551979, 0.132, 1.012, 0.08600000000000001, 192.0, 0.0, 0.0, 0.0, 0.0, 0.0, 0.0, 0.0, 0.0, 0.0, 1.69575450574319E9, 0.0, 2023-09-26 13:55:05.743
224.0, 73917.73300382293, 68841.27185836695, -19278.044316535514, -14313.386596844985, 33127.118125810404, 31541.37361542864, -187500.02235174447, 26452.8425279668, 45544.58505446733, 34407.56015867712, 4454.792076920518, -603.7876729712096, 49222.13992144346, 35978.26194504046, 21232.61496217429, -6764.3978314873975, 0.132, 1.012, 0.08600000000000001, 192.0, 0.0, 0.0, 0.0, 0.0, 0.0, 0.0, 0.0, 0.0, 0.0, 1.695754505743231E9, 0.0, 2023-09-26 13:55:05.743
226.0, 73931.16640224057, 68853.61002130629, -19266.890796052314, -14310.056186921143, 33136.95289337074, 31542.15592648458, -187500.02235174447, 26442.873649939735, 45544.07096434486, 34386.527167144675, 4453.652137953298, -610.6273067745336, 49219.23419466427, 35970.77411064793, 21232.078520307365, -6771.393927501908, 0.132, 1.012, 0.08600000000000001, 192.0, 0.0, 0.0, 0.0, 0.0, 0.0, 0.0, 0.0, 0.0, 0.0, 1.695754505802893E9, 0.0, 2023-09-26 13:55:05.802
228.0, 73936.17319299855, 68865.27763191196, -19261.414618660765, -14300.199067616353, 33148.68755920977, 31545.687502108518, -187500.02235174447, 26461.582060048826, 45552.519923748965, 34418.33369950458, 4462.346966546413, -593.9976088997852, 49228.487816868765, 35985.88388989972, 21245.735436169558, -6761.089773308012, 0.13, 1.01, 0.084, 192.0, 2.0, 8.0, 15.5, 72.0, 1.0, 80.0, 0.0, 0.0, 0.0, 1.695754505802949E9, 0.0, 2023-09-26 13:55:05.802
230.0, 73930.83112607374, 68865.18822493413, -19264.923842540247, -14302.9259804399, 33133.823649146994, 31540.636007861616, -187500.02235174447, 26437.08454812581, 45554.57628423885, 34397.54657716114, 4465.856190425896, -593.1258908660283, 49226.096180212044, 35987.98495387852, 21243.410854746206, -6762.632043675429, 0.13, 1.01, 0.084, 192.0, 0.0, 0.0, 0.0, 0.0, 0.0, 0.0, 0.0, 0.0, 0.0, 1.695754505802959E9, 0.0, 2023-09-26 13:55:05.802
232.0, 73928.70771035049, 68854.63820155122, -19264.58856637342, -14303.730643240291, 33132.8178206465, 31534.355167669677, -187500.02235174447, 26454.27303961194, 45558.107859862794, 34407.515455188215, 4467.353757304401, -587.5826582411121, 49232.98051750428, 35982.79934916489, 21237.130014554266, -6767.057689077579, 0.13, 1.01, 0.084, 192.0, 0.0, 0.0, 0.0, 0.0, 0.0, 0.0, 0.0, 0.0, 0.0, 1.695754505802968E9, 0.0, 2023-09-26 13:55:05.802
234.0, 73934.07212901975, 68862.81894002187, -19265.236766962622, -14299.953198427344, 33148.12876559839, 31544.368749185654, -187500.02235174447, 26428.814402677348, 45554.53158074994, 34385.85661481102, 4468.270178827069, -589.6390187310003, 49235.84154079456, 35980.69828518609, 21242.1144535678, -6764.129610553934, 0.13, 1.01, 0.084, 192.0, 0.0, 0.0, 0.0, 0.0, 0.0, 0.0, 0.0, 0.0, 0.0, 1.695754505802977E9, 0.0, 2023-09-26 13:55:05.802
236.0, 73933.53568715283, 68864.04828596691, -19263.269813450555, -14295.013462902722, 33141.40089051735, 31539.741938083404, -187500.02235174447, 26446.740501730503, 45556.40912728419, 34408.968318577805, 4471.958216662195, -587.940286152397, 49239.50722688523, 35983.671067198644, 21241.28743902295, -6756.328851739032, 0.13, 1.01, 0.084, 192.0, 0.0, 0.0, 0.0, 0.0, 0.0, 0.0, 0.0, 0.0, 0.0, 1.695754505802985E9, 0.0, 2023-09-26 13:55:05.802
238.0, 73937.91662906607, 68869.97149824757, -19259.648830848793, -14291.012500645222, 33153.58259124548, 31545.888667808613, -187500.02235174447, 26434.827021935824, 45554.889208661225, 34398.820626595094, 4467.577274748955, -592.1424141099947, 49237.11559022851, 35977.390227006705, 21234.67132266418, -6762.497933208697, 0.132, 1.016, 0.078, 192.0, 2.0, 16.0, 15.5, 96.0, 1.0, 56.0, 0.0, 0.0, 0.0, 1.695754505802994E9, 0.0, 2023-09-26 13:55:05.802
240.0, 73929.11004175068, 68860.62846906525, -19269.43889492022, -14297.516858281715, 33148.91107665432, 31536.18801071501, -187500.02235174447, 26450.540298287906, 45558.44313602962, 34410.91292034542, 4472.271141084569, -577.4349662584027, 49233.60636634903, 35989.7954451794, 21237.39823548773, -6759.659261662872, 0.132, 1.016, 0.078, 192.0, 0.0, 0.0, 0.0, 0.0, 0.0, 0.0, 0.0, 0.0, 0.0, 1.695754505803003E9, 0.0, 2023-09-26 13:55:05.803
242.0, 73934.4521086755, 68852.8500619948, -19270.400019931796, -14303.082442651088, 33151.9732656447, 31532.075289735236, -187500.02235174447, 26433.865896924246, 45556.00679588399, 34389.1646729904, 4463.598664235909, -593.908201921964, 49237.96495651781, 35976.40675025067, 21232.43614821865, -6768.465848978263, 0.132, 1.016, 0.078, 192.0, 0.0, 0.0, 0.0, 0.0, 0.0, 0.0, 0.0, 0.0, 0.0, 1.69575450586316E9, 0.0, 2023-09-26 13:55:05.863
244.0, 73917.06245148927, 68851.37484686075, -19276.457342679187, -14300.266122849718, 33144.93246614128, 31530.66712983455, -187500.02235174447, 26447.1428331307, 45560.03010988595, 34387.60005087854, 4462.972815391161, -595.5622310116566, 49250.996023535256, 35975.53503221691, 21228.815165616892, -6765.604825687984, 0.132, 1.016, 0.078, 192.0, 0.0, 0.0, 0.0, 0.0, 0.0, 0.0, 0.0, 0.0, 0.0, 1.695754505863172E9, 0.0, 2023-09-26 13:55:05.863
246.0, 73920.77284106884, 68857.11924518576, -19269.371839686853, -14296.578085014593, 33146.698253953255, 31528.85663853367, -187500.02235174447, 26423.47233575253, 45548.69777544711, 34395.91489981591, 4458.457763011189, -597.5068327792684, 49246.30215719964, 35982.95581137607, 21217.63929338924, -6775.506648481685, 0.132, 1.016, 0.078, 192.0, 0.0, 0.0, 0.0, 0.0, 0.0, 0.0, 0.0, 0.0, 0.0, 1.695754505863206E9, 0.0, 2023-09-26 13:55:05.863
248.0, 73921.01871025786, 68855.9569544741, -19273.462208922174, -14296.39927105895, 33152.66616972282, 31530.0412809898, -187500.02235174447, 26442.62778075073, 45556.364423795276, 34403.22392025279, 4469.655986983298, -583.2911233056931, 49243.70935484283, 35985.68272419962, 21234.15723254171, -6763.950796598291, 0.13, 1.016, 0.078, 192.0, 2.0, 8.0, 15.5, 96.0, 1.0, 56.0, 0.0, 0.0, 0.0, 1.695754505863217E9, 0.0, 2023-09-26 13:55:05.863
250.0, 73935.79321334281, 68861.16491093217, -19261.81695006096, -14285.469268020304, 33154.00727439013, 31541.32891193973, -187500.02235174447, 26438.448004537586, 45552.0505371154, 34404.83324585357, 4462.525780502055, -589.6390187310003, 49262.86479984102, 35993.1482068477, 21223.294284736432, -6768.532904211629, 0.13, 1.016, 0.078, 192.0, 0.0, 0.0, 0.0, 0.0, 0.0, 0.0, 0.0, 0.0, 0.0, 1.695754505863228E9, 0.0, 2023-09-26 13:55:05.863
252.0, 73920.90695153558, 68845.78691074693, -19271.830531576936, -14299.64027400497, 33151.48152726669, 31528.499010622385, -187500.02235174447, 26446.89696394169, 45552.810496426886, 34408.968318577805, 4470.460649783689, -581.7712046827322, 49245.09516299906, 35988.990782379005, 21240.48277622256, -6756.820590117049, 0.13, 1.016, 0.078, 192.0, 0.0, 0.0, 0.0, 0.0, 0.0, 0.0, 0.0, 0.0, 0.0, 1.695754505863236E9, 0.0, 2023-09-26 13:55:05.863
254.0, 73926.29372194932, 68851.01721894946, -19266.399057674298, -14291.772459956701, 33150.22982957719, 31532.3435106687, -187500.02235174447, 26440.37025456074, 45538.170103808654, 34410.86821685651, 4455.105001342893, -592.9247251659305, 49240.80362806364, 35972.003456592975, 21224.747148126025, -6771.595093202007, 0.13, 1.016, 0.078, 192.0, 0.0, 0.0, 0.0, 0.0, 0.0, 0.0, 0.0, 0.0, 0.0, 1.695754505863245E9, 0.0, 2023-09-26 13:55:05.863
0.0, 73918.64942534559, 68844.93754445763, -19275.0491827785, -14303.194201373364, 33133.622483446896, 31519.535961095808, -187500.02235174447, 26450.316780843354, 45542.796914910905, 34406.040240054164, 4462.928111902251, -587.5826582411121, 49235.86389253901, 35981.61470670876, 21223.24958124752, -6768.689366422816, 0.13, 1.016, 0.078, 192.0, 0.0, 0.0, 0.0, 0.0, 0.0, 0.0, 0.0, 0.0, 0.0, 1.695754505923321E9, 0.0, 2023-09-26 13:55:05.923
2.0, 73922.80684981428, 68842.76942524545, -19272.210511232675, -14299.953198427344, 33140.12684108339, 31519.357147140166, -187500.02235174447, 26441.62195225024, 45540.71820267656, 34398.083019028076, 4456.535512988033, -591.874193176531, 49238.79197106266, 35982.66523869816, 21212.744261353524, -6775.5513519705955, 0.124, 1.014, 0.08, 192.0, 1.5, 112.0, 15.5, 88.0, 1.0, 64.0, 0.0, 0.0, 0.0, 1.695754505923347E9, 0.0, 2023-09-26 13:55:05.923
4.0, 73924.30441669279, 68847.26212588098, -19278.804275846993, -14305.228210118798, 33137.15405907083, 31511.846961003183, -187500.02235174447, 26433.79884169088, 45541.99225211051, 34388.04708576764, 4456.960196132683, -591.6506757319779, 49238.344936173555, 35964.76149138946, 21215.560581154896, -6780.334625284032, 0.124, 1.014, 0.08, 192.0, 0.0, 0.0, 0.0, 0.0, 0.0, 0.0, 0.0, 0.0, 0.0, 1.695754505923357E9, 0.0, 2023-09-26 13:55:05.923
6.0, 73918.26944568986, 68857.40981786369, -19276.591453145917, -14293.962930913322, 33144.41837601881, 31521.14528669659, -187500.02235174447, 26437.442176037097, 45531.21871128306, 34407.58251042158, 4456.513161243577, -582.7323296943105, 49238.635508851476, 35978.03842759591, 21214.510049165496, -6774.05378509209, 0.124, 1.014, 0.08, 192.0, 0.0, 0.0, 0.0, 0.0, 0.0, 0.0, 0.0, 0.0, 0.0, 1.695754505923366E9, 0.0, 2023-09-26 13:55:05.923
8.0, 73922.98566376993, 68861.0531522099, -19274.222168233653, -14293.49354427976, 33134.15892531382, 31523.67103382004, -187500.02235174447, 26428.926161399624, 45534.43736248462, 34397.54657716114, 4465.990300892628, -580.228934315316, 49236.13211347248, 35984.45337825458, 21213.615979387283, -6770.611616445973, 0.124, 1.014, 0.08, 192.0, 0.0, 0.0, 0.0, 0.0, 0.0, 0.0, 0.0, 0.0, 0.0, 1.695754505923374E9, 0.0, 2023-09-26 13:55:05.923
10.0, 73937.1566697546, 68870.44088488113, -19265.43793266272, -14283.569369741605, 33154.521364512606, 31527.090850721703, -187500.02235174447, 26444.818251707347, 45534.482065973534, 34426.35797576403, 4465.275045070058, -577.3232075361261, 49238.054363495634, 35983.671067198644, 21207.58100838435, -6773.0256048471465, 0.124, 1.014, 0.08, 192.0, 0.0, 0.0, 0.0, 0.0, 0.0, 0.0, 0.0, 0.0, 0.0, 1.695754505923383E9, 0.0, 2023-09-26 13:55:05.923
12.0, 73918.78353581233, 68853.02887595045, -19279.13955201382, -14286.586855243071, 33143.121974840404, 31524.81097278726, -187500.02235174447, 26434.402338791173, 45538.259510786476, 34416.41144948143, 4469.723042216664, -572.6293412005116, 49249.16318048992, 35997.50679701648, 21212.610150886794, -6768.1976280448, 0.122, 1.014, 0.074, 192.0, 1.5, 104.0, 15.5, 88.0, 1.0, 40.0, 0.0, 0.0, 0.0, 1.695754505923392E9, 0.0, 2023-09-26 13:55:05.923
14.0, 73921.66691084707, 68853.58766956184, -19275.451514178698, -14287.927959910388, 33142.31731204001, 31515.780868027316, -187500.02235174447, 26430.66959746714, 45531.330470005334, 34427.52026647571, 4461.4752485126555, -580.1842308264054, 49244.26814845421, 35981.77116891994, 21208.609188629292, -6776.668939193361, 0.122, 1.014, 0.074, 192.0, 0.0, 0.0, 0.0, 0.0, 0.0, 0.0, 0.0, 0.0, 0.0, 1.695754505923432E9, 0.0, 2023-09-26 13:55:05.923
16.0, 73928.193620228, 68859.46617835357, -19266.510816396574, -14276.014480115711, 33149.067538865515, 31527.62729258863, -187500.02235174447, 26435.586981247307, 45533.789161895416, 34422.31231001762, 4467.085536370938, -580.7877279266987, 49235.14863671645, 35986.755607933475, 21209.23503747404, -6773.964378114269, 0.122, 1.014, 0.074, 192.0, 0.0, 0.0, 0.0, 0.0, 0.0, 0.0, 0.0, 0.0, 0.0, 1.69575450598375E9, 0.0, 2023-09-26 13:55:05.983
18.0, 73932.30634120779, 68859.5555853314, -19267.114313496866, -14273.756953925724, 33156.01893139111, 31532.030586246325, -187500.02235174447, 26452.61901052225, 45546.73082193504, 34434.11403109003, 4470.17007710577, -570.3718150105257, 49256.4274974379, 35999.71961971756, 21213.705386365105, -6759.972186085247, 0.122, 1.014, 0.074, 192.0, 0.0, 0.0, 0.0, 0.0, 0.0, 0.0, 0.0, 0.0, 0.0, 1.695754505983771E9, 0.0, 2023-09-26 13:55:05.983
20.0, 73934.80973658679, 68864.51767260047, -19260.0958657379, -14270.359488768518, 33162.67975123879, 31529.258969933868, -187500.02235174447, 26443.968885418046, 45540.271167787454, 34417.84196112656, 4468.203123593703, -577.0102831137518, 49251.30894795763, 36000.30076507339, 21221.863773091292, -6759.726316896238, 0.122, 1.014, 0.074, 192.0, 0.0, 0.0, 0.0, 0.0, 0.0, 0.0, 0.0, 0.0, 0.0, 1.695754505983785E9, 0.0, 2023-09-26 13:55:05.983
22.0, 73941.78348085684, 68870.84321628133, -19257.48071163663, -14265.017421843699, 33161.092777382466, 31526.219132687944, -187500.02235174447, 26456.463510568563, 45549.100106847305, 34439.56785673712, 4479.64721675482, -563.3533672515592, 49252.046555524656, 36013.242425113014, 21227.988151072044, -6753.534883682119, 0.126, 1.016, 0.074, 192.0, 1.5, 120.0, 15.5, 96.0, 1.0, 40.0, 0.0, 0.0, 0.0, 1.695754505983795E9, 0.0, 2023-09-26 13:55:05.983
24.0, 73928.86417256168, 68859.68969579812, -19270.265909465066, -14284.441087775362, 33149.358111543435, 31509.880007491116, -187500.02235174447, 26438.0903766263, 45546.66376670168, 34432.92938863389, 4479.758975477097, -564.5380097076904, 49251.30894795763, 36001.016020895964, 21222.713139380594, -6760.218055274255, 0.126, 1.016, 0.074, 192.0, 0.0, 0.0, 0.0, 0.0, 0.0, 0.0, 0.0, 0.0, 0.0, 1.695754505983804E9, 0.0, 2023-09-26 13:55:05.983
26.0, 73900.67862280353, 68835.28159085293, -19292.550598687005, -14294.499372780248, 33130.76146015662, 31495.217263128434, -187500.02235174447, 26440.14673711619, 45520.780446622426, 34423.2734350292, 4456.356699032391, -584.7663384397433, 49243.97757577629, 35965.700264656574, 21190.414868642674, -6787.308369554087, 0.126, 1.016, 0.074, 192.0, 0.0, 0.0, 0.0, 0.0, 0.0, 0.0, 0.0, 0.0, 0.0, 1.695754505983813E9, 0.0, 2023-09-26 13:55:05.983
28.0, 73920.63873060212, 68852.93946897262, -19269.930633298234, -14275.746259182246, 33156.24244883567, 31525.213304187455, -187500.02235174447, 26432.301274812377, 45531.464580472064, 34407.31428948812, 4464.1798095917475, -575.8703441465311, 49239.48487514078, 35986.39798002219, 21200.003767014, -6778.0770990940455, 0.126, 1.016, 0.074, 192.0, 0.0, 0.0, 0.0, 0.0, 0.0, 0.0, 0.0, 0.0, 0.0, 1.695754505983822E9, 0.0, 2023-09-26 13:55:05.983
30.0, 73923.11977423666, 68855.8004922629, -19275.183293245234, -14276.34975628254, 33162.500937283156, 31529.99657750089, -187500.02235174447, 26450.98733317701, 45545.74734517901, 34423.653414684944, 4475.333330074946, -564.0909748185843, 49251.979500291294, 35988.990782379005, 21215.82880208836, -6761.201532030289, 0.126, 1.016, 0.074, 192.0, 0.0, 0.0, 0.0, 0.0, 0.0, 0.0, 0.0, 0.0, 0.0, 1.695754506043105E9, 0.0, 2023-09-26 13:55:06.043
32.0, 73926.8972190496, 68858.0580184529, -19275.183293245234, -14270.49359923525, 33160.62339074891, 31522.19581868599, -187500.02235174447, 26423.27117005243, 45531.57633919434, 34424.94981586335, 4467.800792193508, -571.8470301445759, 49254.08056427009, 35987.180291078126, 21210.352624696807, -6763.503761709186, 0.126, 1.016, 0.078, 192.0, 1.5, 120.0, 15.5, 96.0, 1.0, 56.0, 0.0, 0.0, 0.0, 1.695754506043143E9, 0.0, 2023-09-26 13:55:06.043
34.0, 73916.52600962234, 68855.9569544741, -19275.406810689787, -14277.892026649955, 33152.219134833715, 31507.153094667567, -187500.02235174447, 26430.356673044764, 45533.31977526186, 34435.56689447962, 4472.762879462585, -565.230913785805, 49251.08543051308, 35998.89260517271, 21209.078575262854, -6766.588302444017, 0.126, 1.016, 0.078, 192.0, 0.0, 0.0, 0.0, 0.0, 0.0, 0.0, 0.0, 0.0, 0.0, 1.695754506043153E9, 0.0, 2023-09-26 13:55:06.043
36.0, 73909.64167233011, 68846.7480357585, -19288.460229451684, -14286.340986054061, 33138.2716462936, 31491.819797971228, -187500.02235174447, 26413.771678658926, 45528.55885369288, 34410.68940290087, 4469.83480093894, -574.7527569237658, 49250.303119457145, 35972.22697403753, 21190.86190353178, -6784.335587541532, 0.126, 1.016, 0.078, 192.0, 0.0, 0.0, 0.0, 0.0, 0.0, 0.0, 0.0, 0.0, 0.0, 1.695754506043189E9, 0.0, 2023-09-26 13:55:06.043
38.0, 73918.80588755678, 68857.83450100834, -19274.42333393375, -14266.269119533197, 33152.71087321173, 31524.52040010934, -187500.02235174447, 26443.499498784484, 45533.833865384324, 34416.299690759144, 4475.869771941873, -563.7333469072994, 49240.84833155255, 35979.78186366342, 21198.260330946487, -6771.192761801811, 0.126, 1.016, 0.078, 192.0, 0.0, 0.0, 0.0, 0.0, 0.0, 0.0, 0.0, 0.0, 0.0, 1.695754506043198E9, 0.0, 2023-09-26 13:55:06.043
40.0, 73929.6017801287, 68875.20180645012, -19260.05116224899, -14250.689953647847, 33169.25116410865, 31545.15106024159, -187500.02235174447, 26441.309027827865, 45539.73472592053, 34424.05574608514, 4482.351777833913, -559.1065358050508, 49245.810418821624, 35996.12098886025, 21208.34096769583, -6753.780752871126, 0.126, 1.016, 0.078, 192.0, 0.0, 0.0, 0.0, 0.0, 0.0, 0.0, 0.0, 0.0, 0.0, 1.695754506043207E9, 0.0, 2023-09-26 13:55:06.043
42.0, 73932.82043133026, 68882.1531989757, -19254.10559822388, -14244.945555322833, 33171.84396646547, 31554.695255124007, -187500.02235174447, 26467.169996162655, 45558.28667381843, 34440.28311255969, 4504.681170544764, -543.9967565532633, 49274.08537555759, 36021.53492230594, 21227.33995048284, -6732.792464827593, 0.128, 1.014, 0.08, 192.0, 2.0, 0.0, 15.5, 88.0, 1.0, 64.0, 0.0, 0.0, 0.0, 1.695754506043216E9, 0.0, 2023-09-26 13:55:06.043
44.0, 73919.16351546807, 68866.66344006818, -19272.00934553258, -14256.881386861967, 33151.50387901114, 31535.42805140353, -187500.02235174447, 26445.66761799665, 45553.90573190519, 34444.5299440062, 4495.762824507096, -548.0647740441292, 49266.41872720942, 36011.007250667484, 21221.170869013175, -6737.709848607761, 0.128, 1.014, 0.08, 192.0, 0.0, 0.0, 0.0, 0.0, 0.0, 0.0, 0.0, 0.0, 0.0, 1.695754506043225E9, 0.0, 2023-09-26 13:55:06.043
46.0, 73920.10228873519, 68862.37190513276, -19278.62546189135, -14265.598567199537, 33153.58259124548, 31524.90037976508, -187500.02235174447, 26449.713283743058, 45528.536501948416, 34412.43283896838, 4480.273065599569, -561.006434083752, 49250.727802601796, 35991.74004694701, 21205.614054872283, -6754.1830842713225, 0.128, 1.014, 0.08, 192.0, 0.0, 0.0, 0.0, 0.0, 0.0, 0.0, 0.0, 0.0, 0.0, 1.695754506102841E9, 0.0, 2023-09-26 13:55:06.102
48.0, 73928.64065511712, 68877.74990531802, -19262.263984950067, -14249.594718169537, 33174.74969324466, 31533.304635680277, -187500.02235174447, 26443.253629595474, 45536.27020552995, 34428.21317055383, 4487.738548247641, -551.1269630345063, 49251.331299702084, 35986.822663166844, 21221.014406801987, -6748.103409779479, 0.128, 1.014, 0.08, 192.0, 0.0, 0.0, 0.0, 0.0, 0.0, 0.0, 0.0, 0.0, 0.0, 1.695754506102863E9, 0.0, 2023-09-26 13:55:06.102
50.0, 73919.31997767926, 68875.38062040575, -19271.562310643472, -14259.183616540864, 33162.635047749885, 31527.895513522093, -187500.02235174447, 26450.652057010182, 45548.49660974701, 34426.939121119874, 4500.434339098256, -538.1182477615175, 49257.768602105214, 36001.93244241863, 21226.468232449082, -6741.487293420708, 0.128, 1.014, 0.08, 192.0, 0.0, 0.0, 0.0, 0.0, 0.0, 0.0, 0.0, 0.0, 0.0, 1.695754506102873E9, 0.0, 2023-09-26 13:55:06.102
52.0, 73906.80300078429, 68868.33982090233, -19287.14147652882, -14276.439163260362, 33155.39308254637, 31515.646757560586, -187500.02235174447, 26445.175879618633, 45532.85038862829, 34448.21798184133, 4487.2468098696245, -552.9374543353861, 49260.31670097312, 35992.38824753621, 21204.47411590506, -6761.223883774744, 0.128, 1.014, 0.08600000000000001, 192.0, 2.0, 0.0, 15.5, 88.0, 1.0, 88.0, 0.0, 0.0, 0.0, 1.695754506102882E9, 0.0, 2023-09-26 13:55:06.102
54.0, 73898.15287568008, 68849.51965207096, -19280.14538051431, -14273.48873299226, 33147.525268498095, 31514.953853482468, -187500.02235174447, 26442.672484239636, 45531.598690938794, 34422.58053095109, 4483.469365056678, -565.4544312303581, 49256.315738715624, 35973.5904304493, 21198.416793157674, -6764.755459398682, 0.128, 1.014, 0.08600000000000001, 192.0, 0.0, 0.0, 0.0, 0.0, 0.0, 0.0, 0.0, 0.0, 0.0, 1.695754506102891E9, 0.0, 2023-09-26 13:55:06.102
56.0, 73904.03138447182, 68847.57505030335, -19272.746953099606, -14266.626747444481, 33154.85664067944, 31520.22886517392, -187500.02235174447, 26446.069949396846, 45525.96605133606, 34410.309423245126, 4484.654007512809, -566.9519981088637, 49250.66074736843, 35974.797424649885, 21201.501333892505, -6759.771020385149, 0.128, 1.014, 0.08600000000000001, 192.0, 0.0, 0.0, 0.0, 0.0, 0.0, 0.0, 0.0, 0.0, 0.0, 1.6957545061029E9, 0.0, 2023-09-26 13:55:06.102
58.0, 73908.3005676628, 68846.05513168039, -19261.772246572047, -14258.334250251562, 33180.15881540284, 31531.494144379398, -187500.02235174447, 26456.687028013115, 45541.58992071032, 34400.80993185162, 4499.69673153123, -556.5360851926905, 49262.41776495192, 35985.12393058824, 21223.33898822534, -6741.62140388744, 0.128, 1.014, 0.08600000000000001, 192.0, 0.0, 0.0, 0.0, 0.0, 0.0, 0.0, 0.0, 0.0, 0.0, 1.69575450610294E9, 0.0, 2023-09-26 13:55:06.102
60.0, 73909.3958031411, 68855.5546230739, -19266.309650696476, -14261.217625286297, 33185.16560616084, 31530.71183332346, -187500.02235174447, 26456.1952896351, 45550.88824640372, 34427.207342053334, 4501.663685043298, -558.5253904492129, 49282.26611402823, 35993.997573137, 21225.23888650404, -6736.972241040736, 0.128, 1.014, 0.08600000000000001, 192.0, 0.0, 0.0, 0.0, 0.0, 0.0, 0.0, 0.0, 0.0, 0.0, 1.695754506163301E9, 0.0, 2023-09-26 13:55:06.163
62.0, 73896.25297740138, 68835.81803271986, -19273.596319388907, -14260.01063108571, 33176.403722334355, 31521.882894263614, -187500.02235174447, 26447.254591852976, 45551.4023365262, 34405.07911504259, 4504.636467055853, -559.7994398831654, 49283.11548031753, 35978.239593296006, 21218.62277014527, -6744.013040544158, 0.128, 1.014, 0.09, 192.0, 2.0, 0.0, 15.5, 88.0, 1.0, 104.0, 0.0, 0.0, 0.0, 1.695754506163329E9, 0.0, 2023-09-26 13:55:06.163
64.0, 73904.63488157211, 68845.40693109119, -19266.86844430786, -14260.457665974816, 33179.60002179146, 31519.17833318452, -187500.02235174447, 26455.10005415679, 45556.0514993729, 34399.29001322866, 4503.809452511007, -563.6439399294782, 49282.35552100605, 35976.11617757275, 21216.231133488553, -6746.9634708122585, 0.128, 1.014, 0.09, 192.0, 0.0, 0.0, 0.0, 0.0, 0.0, 0.0, 0.0, 0.0, 0.0, 1.69575450616334E9, 0.0, 2023-09-26 13:55:06.163
66.0, 73885.79236099629, 68828.50901228297, -19282.782886360037, -14271.052392846632, 33167.55243153005, 31511.779905769818, -187500.02235174447, 26446.069949396846, 45552.095240604314, 34397.88185332798, 4499.562621064499, -562.8839806179977, 49279.40509073795, 35985.570965477345, 21214.308883465397, -6749.556273169073, 0.128, 1.014, 0.09, 192.0, 0.0, 0.0, 0.0, 0.0, 0.0, 0.0, 0.0, 0.0, 0.0, 1.695754506163349E9, 0.0, 2023-09-26 13:55:06.163
68.0, 73885.79236099629, 68824.01631164746, -19298.25029352311, -14285.759840698223, 33150.85567842194, 31494.70317300596, -187500.02235174447, 26450.763815732458, 45534.280900273436, 34397.47952192778, 4479.133126632349, -585.5933529845897, 49269.16799177742, 35958.77122387543, 21192.270063432465, -6765.493066965708, 0.128, 1.014, 0.09, 192.0, 0.0, 0.0, 0.0, 0.0, 0.0, 0.0, 0.0, 0.0, 0.0, 1.695754506163358E9, 0.0, 2023-09-26 13:55:06.163
70.0, 73895.89534949009, 68841.27185836695, -19291.81299111998, -14273.622843458992, 33164.71375998423, 31502.95096670997, -187500.02235174447, 26437.956266159566, 45537.96893810856, 34383.21910896529, 4486.933885447251, -581.033597115707, 49272.00666332325, 35952.44568019458, 21182.368240638763, -6769.941064112314, 0.128, 1.014, 0.09, 192.0, 0.0, 0.0, 0.0, 0.0, 0.0, 0.0, 0.0, 0.0, 0.0, 1.695754506163366E9, 0.0, 2023-09-26 13:55:06.163
72.0, 73910.17811419703, 68848.17854740364, -19283.609900904885, -14265.598567199537, 33173.18507113279, 31507.62248130113, -187500.02235174447, 26448.99802792049, 45552.60933072679, 34416.79142913716, 4501.976609465672, -561.6099311840453, 49282.19905879487, 35978.06077934036, 21196.42748790115, -6757.893473850903, 0.13, 1.014, 0.09, 192.0, 2.0, 8.0, 15.5, 88.0, 1.0, 104.0, 0.0, 0.0, 0.0, 1.695754506163375E9, 0.0, 2023-09-26 13:55:06.163
74.0, 73899.56103558076, 68842.16592814517, -19297.512685956084, -14278.070840605598, 33163.37265531691, 31500.80519924226, -187500.02235174447, 26422.89119039669, 45555.6044644838, 34392.249213725234, 4507.60924906841, -561.9899108397855, 49288.01051235325, 35968.717750158045, 21189.632557586738, -6760.642738418906, 0.13, 1.014, 0.09, 192.0, 0.0, 0.0, 0.0, 0.0, 0.0, 0.0, 0.0, 0.0, 0.0, 1.695754506163385E9, 0.0, 2023-09-26 13:55:06.163
76.0, 73903.58434958271, 68842.3447421008, -19297.177409789256, -14273.600491714536, 33174.928507200304, 31508.114219679144, -187500.02235174447, 26438.76092895996, 45555.4032987837, 34410.48823720077, 4508.011580468605, -557.6983759043666, 49274.82298312461, 35971.668180426146, 21191.845380287814, -6761.536808197118, 0.13, 1.014, 0.09, 192.0, 0.0, 0.0, 0.0, 0.0, 0.0, 0.0, 0.0, 0.0, 0.0, 1.695754506223434E9, 0.0, 2023-09-26 13:55:06.223
78.0, 73889.1898261535, 68841.09304441132, -19304.15115405931, -14272.281738791675, 33171.82161472102, 31514.05978370426, -187500.02235174447, 26429.641417222192, 45546.90963589068, 34389.99168753525, 4494.891106473339, -577.8149459141429, 49272.85602961255, 35962.45926171056, 21179.9989557265, -6765.314253010065, 0.13, 1.014, 0.09, 192.0, 0.0, 0.0, 0.0, 0.0, 0.0, 0.0, 0.0, 0.0, 0.0, 1.695754506223458E9, 0.0, 2023-09-26 13:55:06.223
80.0, 73894.97892796743, 68838.70140775459, -19295.43397372174, -14275.478038248782, 33181.58932704799, 31511.310519136256, -187500.02235174447, 26439.163260360154, 45548.049574857905, 34389.119969501495, 4497.506260574611, -573.9257423789195, 49282.08730007259, 35977.814910151355, 21187.7997145414, -6761.805029130582, 0.13, 1.014, 0.09, 192.0, 0.0, 0.0, 0.0, 0.0, 0.0, 0.0, 0.0, 0.0, 0.0, 1.695754506223507E9, 0.0, 2023-09-26 13:55:06.223
82.0, 73896.43179135703, 68833.58285827433, -19295.791601633027, -14283.412907530417, 33179.957649702745, 31509.56708306874, -187500.02235174447, 26425.260475308954, 45550.21769407007, 34385.72250434429, 4499.473214086677, -582.4417570163914, 49284.94832336287, 35976.898488628685, 21186.48096161854, -6770.81278214607, 0.13, 1.014, 0.08, 192.0, 2.0, 8.0, 15.5, 88.0, 1.0, 64.0, 0.0, 0.0, 0.0, 1.695754506223516E9, 0.0, 2023-09-26 13:55:06.223
84.0, 73887.44639008598, 68821.0435296349, -19305.358148259897, -14294.029986146688, 33163.529117528095, 31505.700231277973, -187500.02235174447, 26435.18464984711, 45542.39458351071, 34381.31921068659, 4491.605400038409, -587.4261960299249, 49278.30985525964, 35962.10163379928, 21179.060182459376, -6776.914808382369, 0.13, 1.014, 0.08, 192.0, 0.0, 0.0, 0.0, 0.0, 0.0, 0.0, 0.0, 0.0, 0.0, 1.695754506223525E9, 0.0, 2023-09-26 13:55:06.223
86.0, 73865.00523865286, 68812.95219814208, -19309.515572728586, -14313.364245100529, 33153.202611589746, 31493.764399738837, -187500.02235174447, 26419.60548396176, 45538.08069683084, 34375.977143761775, 4477.769670220575, -601.5077950367684, 49279.22627678231, 35954.032654050905, 21177.853188258792, -6787.889514909925, 0.13, 1.014, 0.08, 192.0, 0.0, 0.0, 0.0, 0.0, 0.0, 0.0, 0.0, 0.0, 0.0, 1.695754506223534E9, 0.0, 2023-09-26 13:55:06.223
88.0, 73881.76904699433, 68829.09015763881, -19294.495200454618, -14304.803526974145, 33157.60590524744, 31504.359126610652, -187500.02235174447, 26423.673501452628, 45524.80376062438, 34362.409634877404, 4459.374184533856, -621.8255307466425, 49256.29338697116, 35950.09874702677, 21170.745333522, -6803.91571568438, 0.13, 1.014, 0.08, 192.0, 0.0, 0.0, 0.0, 0.0, 0.0, 0.0, 0.0, 0.0, 0.0, 1.695754506223543E9, 0.0, 2023-09-26 13:55:06.223
90.0, 73898.30933789126, 68834.54398328591, -19283.364031715875, -14296.131050125487, 33159.192879103764, 31527.269664677344, -187500.02235174447, 26426.84744916528, 45553.503400505, 34380.89452754194, 4483.670530756775, -595.1598996114611, 49286.445890241375, 35975.155052561175, 21200.607264114293, -6783.1509450854, 0.13, 1.014, 0.08, 192.0, 0.0, 0.0, 0.0, 0.0, 0.0, 0.0, 0.0, 0.0, 0.0, 1.695754506283687E9, 0.0, 2023-09-26 13:55:06.283
92.0, 73894.84481750069, 68824.26218083646, -19287.09677303991, -14299.64027400497, 33165.56312627353, 31528.789583300306, -187500.02235174447, 26446.226411608033, 45556.9008656622, 34379.24049845225, 4481.390652822334, -588.4096727859584, 49282.243762283775, 35978.30664852937, 21217.0581480334, -6773.919674625358, 0.124, 1.016, 0.074, 192.0, 1.5, 112.0, 15.5, 96.0, 1.0, 40.0, 0.0, 0.0, 0.0, 1.695754506283712E9, 0.0, 2023-09-26 13:55:06.283
94.0, 73891.87203548814, 68822.11641336876, -19289.689575396726, -14308.715082253824, 33150.676864466295, 31530.220094945445, -187500.02235174447, 26436.70456847007, 45548.54131323592, 34385.23076596627, 4468.896027671817, -598.0879781351064, 49278.51102095974, 35971.869346126245, 21218.779232356457, -6777.607712460484, 0.124, 1.016, 0.074, 192.0, 0.0, 0.0, 0.0, 0.0, 0.0, 0.0, 0.0, 0.0, 0.0, 1.695754506283725E9, 0.0, 2023-09-26 13:55:06.283
96.0, 73908.81465778526, 68847.32918111434, -19268.00838327508, -14289.716099466814, 33169.273515853114, 31546.872144564648, -187500.02235174447, 26449.400359320683, 45554.598635983304, 34378.54759437413, 4471.310016072991, -590.2648675757489, 49286.22237279682, 35971.578773448324, 21226.132956282254, -6772.600921702496, 0.124, 1.016, 0.074, 192.0, 0.0, 0.0, 0.0, 0.0, 0.0, 0.0, 0.0, 0.0, 0.0, 1.695754506283734E9, 0.0, 2023-09-26 13:55:06.283
98.0, 73915.18490495502, 68856.67221029666, -19261.03463900502, -14291.817163445612, 33166.077216396, 31550.716644610962, -187500.02235174447, 26446.584039519315, 45561.41591804218, 34401.59224290756, 4480.138955132837, -583.4028820279697, 49286.69175943038, 35984.520433487945, 21249.199956560133, -6762.095601808501, 0.124, 1.016, 0.074, 192.0, 0.0, 0.0, 0.0, 0.0, 0.0, 0.0, 0.0, 0.0, 0.0, 1.695754506283748E9, 0.0, 2023-09-26 13:55:06.283
100.0, 73913.21795144296, 68849.0502654374, -19262.15222622779, -14291.236018089774, 33158.32116107001, 31546.805089331283, -187500.02235174447, 26452.261382610963, 45563.4052232987, 34398.88768182846, 4487.917362203284, -567.3543295090592, 49296.012436868245, 36000.30076507339, 21254.944354885145, -6759.458095962775, 0.124, 1.016, 0.074, 192.0, 0.0, 0.0, 0.0, 0.0, 0.0, 0.0, 0.0, 0.0, 0.0, 1.695754506283757E9, 0.0, 2023-09-26 13:55:06.283
102.0, 73912.21212294247, 68844.95989620208, -19268.298955953, -14296.935712925877, 33152.643817978365, 31545.91101955307, -187500.02235174447, 26442.359559817265, 45554.7998016834, 34410.644699411954, 4475.847420197418, -578.2172773143384, 49290.983294365804, 35985.436855010616, 21241.10862506731, -6770.879837379437, 0.122, 1.014, 0.076, 192.0, 1.5, 104.0, 15.5, 88.0, 1.0, 48.0, 0.0, 0.0, 0.0, 1.695754506283798E9, 0.0, 2023-09-26 13:55:06.283
104.0, 73914.69316657701, 68840.22132637755, -19261.727543083136, -14289.269064577707, 33159.25993433713, 31547.2968277093, -187500.02235174447, 26442.42661505063, 45551.312929548374, 34392.49508291425, 4471.846457939918, -587.3144373076484, 49285.23889604079, 35978.507814229466, 21236.59357268734, -6772.131535068934, 0.122, 1.014, 0.076, 192.0, 0.0, 0.0, 0.0, 0.0, 0.0, 0.0, 0.0, 0.0, 0.0, 1.695754506283808E9, 0.0, 2023-09-26 13:55:06.283
106.0, 73917.80005905629, 68845.60809679129, -19262.28633669452, -14286.340986054061, 33155.303675568546, 31538.981978771924, -187500.02235174447, 26444.974713918535, 45561.17004885317, 34402.48631268577, 4480.228362110658, -576.7197104358328, 49297.88998340249, 35992.83528242532, 21248.50705248202, -6758.228750017733, 0.122, 1.014, 0.076, 192.0, 0.0, 0.0, 0.0, 0.0, 0.0, 0.0, 0.0, 0.0, 0.0, 1.695754506343128E9, 0.0, 2023-09-26 13:55:06.343
108.0, 73895.51536983435, 68824.66451223666, -19275.138589756323, -14293.806468702134, 33148.017006876114, 31535.942141526004, -187500.02235174447, 26444.013588906957, 45559.001929641, 34387.19771947834, 4475.802716708507, -580.1395273374948, 49289.37396876502, 35987.739084689514, 21241.68977042315, -6761.559159941574, 0.122, 1.014, 0.076, 192.0, 0.0, 0.0, 0.0, 0.0, 0.0, 0.0, 0.0, 0.0, 0.0, 1.69575450634316E9, 0.0, 2023-09-26 13:55:06.343
110.0, 73902.10913444866, 68833.31463734087, -19297.758555145094, -14297.002768159244, 33164.311428584035, 31538.691406094007, -187500.02235174447, 26452.61901052225, 45550.30710104789, 34389.1646729904, 4459.97768163415, -588.0073413857629, 49298.31466654714, 35987.314401544856, 21230.089215050844, -6769.225808289744, 0.122, 1.014, 0.076, 192.0, 0.0, 0.0, 0.0, 0.0, 0.0, 0.0, 0.0, 0.0, 0.0, 1.695754506343169E9, 0.0, 2023-09-26 13:55:06.343
112.0, 73890.48622733192, 68821.08823312381, -19315.0588053535, -14302.344835084063, 33149.2240010767, 31539.51842063885, -187500.02235174447, 26442.516022028452, 45556.722051706565, 34368.489309369244, 4465.185638092236, -589.7954809421875, 49286.870573386026, 35981.435892753114, 21232.19027902964, -6764.710755909772, 0.13, 1.008, 0.076, 192.0, 2.0, 8.0, 15.5, 64.0, 1.0, 48.0, 0.0, 0.0, 0.0, 1.695754506343178E9, 0.0, 2023-09-26 13:55:06.343
114.0, 73897.57173032424, 68823.97160815855, -19319.68561645575, -14298.813259460123, 33159.30463782605, 31535.80803105927, -187500.02235174447, 26454.742426245502, 45550.06123185888, 34380.04516125264, 4462.525780502055, -585.6157047290451, 49282.109651817045, 35975.847956639285, 21233.151404041222, -6768.756421656182, 0.13, 1.008, 0.076, 192.0, 0.0, 0.0, 0.0, 0.0, 0.0, 0.0, 0.0, 0.0, 0.0, 1.695754506343187E9, 0.0, 2023-09-26 13:55:06.343
116.0, 73888.76514300884, 68816.237904577, -19330.615619494394, -14306.837535719578, 33152.44265227827, 31529.99657750089, -187500.02235174447, 26437.531583014916, 45551.894074904216, 34376.20066120633, 4462.2352078241365, -593.908201921964, 49277.12521280351, 35984.229860810025, 21226.378825471264, -6772.891494380414, 0.13, 1.008, 0.076, 192.0, 0.0, 0.0, 0.0, 0.0, 0.0, 0.0, 0.0, 0.0, 0.0, 1.695754506343196E9, 0.0, 2023-09-26 13:55:06.343
118.0, 73883.4901313174, 68814.51682025395, -19338.416378309295, -14316.180564901897, 33148.508745254134, 31529.504839122874, -187500.02235174447, 26450.652057010182, 45550.21769407007, 34395.71373411581, 4458.010728122083, -592.5223937657349, 49289.21750655383, 35990.1977765796, 21219.762709112492, -6774.701985681294, 0.13, 1.008, 0.076, 192.0, 0.0, 0.0, 0.0, 0.0, 0.0, 0.0, 0.0, 0.0, 0.0, 1.695754506343205E9, 0.0, 2023-09-26 13:55:06.343
120.0, 73900.90214024809, 68832.66643675166, -19327.039340381543, -14293.962930913322, 33161.49510878266, 31540.121917739147, -187500.02235174447, 26441.71135922806, 45549.05540335839, 34379.44166415235, 4463.173981091259, -588.6555419749668, 49295.252477556765, 35989.3931137792, 21223.182526014152, -6772.846790891504, 0.13, 1.008, 0.076, 192.0, 0.0, 0.0, 0.0, 0.0, 0.0, 0.0, 0.0, 0.0, 0.0, 1.695754506402817E9, 0.0, 2023-09-26 13:55:06.402
122.0, 73899.98571872541, 68835.01336991947, -19328.089872370943, -14297.44980304835, 33153.4261290343, 31538.11026073817, -187500.02235174447, 26450.339132587807, 45552.27405455996, 34394.32792595958, 4464.9397689032285, -572.0481958446736, 49289.50807923175, 35994.15403534818, 21223.897781836724, -6767.504723966686, 0.132, 1.014, 0.07200000000000001, 192.0, 2.0, 16.0, 15.5, 88.0, 1.0, 32.0, 0.0, 0.0, 0.0, 1.695754506402834E9, 0.0, 2023-09-26 13:55:06.402
124.0, 73908.3452711517, 68831.90647744018, -19321.07142461198, -14295.929884425388, 33157.404739547346, 31541.75359508438, -187500.02235174447, 26440.057330138367, 45557.63847322923, 34389.45524566832, 4467.957254404695, -576.9208761359306, 49295.23012581231, 35995.24927082649, 21225.082424292854, -6769.29286352311, 0.132, 1.014, 0.07200000000000001, 192.0, 0.0, 0.0, 0.0, 0.0, 0.0, 0.0, 0.0, 0.0, 0.0, 1.695754506402873E9, 0.0, 2023-09-26 13:55:06.402
126.0, 73895.47066634544, 68821.35645405727, -19332.515517773096, -14305.027044418699, 33144.01604461861, 31532.209400201966, -187500.02235174447, 26450.339132587807, 45551.71526094857, 34411.069382556605, 4461.4528967682, -575.490364490791, 49295.29718104567, 35986.30857304437, 21221.10381377981, -6770.030471090135, 0.132, 1.014, 0.07200000000000001, 192.0, 0.0, 0.0, 0.0, 0.0, 0.0, 0.0, 0.0, 0.0, 0.0, 1.695754506402882E9, 0.0, 2023-09-26 13:55:06.402
128.0, 73902.2432449154, 68813.71215745356, -19331.53204101706, -14307.955122942343, 33146.13946034187, 31527.67199607754, -187500.02235174447, 26431.809536434357, 45540.070002087356, 34377.452358895825, 4454.9038356427955, -589.326094308626, 49296.794747924185, 35983.045218353895, 21214.867677076778, -6777.942988627314, 0.132, 1.014, 0.07200000000000001, 192.0, 0.0, 0.0, 0.0, 0.0, 0.0, 0.0, 0.0, 0.0, 0.0, 1.695754506402891E9, 0.0, 2023-09-26 13:55:06.402
130.0, 73912.45799213147, 68825.80445120388, -19313.024796608068, -14299.796736216156, 33171.37457983191, 31538.579647371727, -187500.02235174447, 26454.96594369006, 45554.03984237192, 34384.24728921024, 4463.419850280267, -582.7099779498551, 49304.95313465037, 35982.08409334232, 21235.006598831013, -6770.499857723697, 0.132, 1.014, 0.07200000000000001, 192.0, 0.0, 0.0, 0.0, 0.0, 0.0, 0.0, 0.0, 0.0, 0.0, 1.6957545064029E9, 0.0, 2023-09-26 13:55:06.402
132.0, 73913.88850377662, 68833.51580304097, -19312.734223930147, -14296.600436759049, 33162.478585538694, 31547.67680736504, -187500.02235174447, 26437.732748715014, 45550.44121151462, 34383.37557117648, 4463.2410363246245, -586.2862570627043, 49309.06585563014, 35998.55732900588, 21239.611058188806, -6768.689366422816, 0.134, 1.014, 0.07, 192.0, 2.0, 24.0, 15.5, 88.0, 1.0, 24.0, 0.0, 0.0, 0.0, 1.695754506402909E9, 0.0, 2023-09-26 13:55:06.402
134.0, 73905.23837867241, 68828.44195704961, -19318.456270510706, -14297.136878625975, 33156.89064942487, 31540.680711350527, -187500.02235174447, 26448.12630988673, 45557.52671450695, 34397.52422541669, 4464.69389971422, -577.099690091573, 49309.021152141235, 35993.84111092581, 21243.500261724028, -6763.861389620471, 0.134, 1.014, 0.07, 192.0, 0.0, 0.0, 0.0, 0.0, 0.0, 0.0, 0.0, 0.0, 0.0, 1.695754506402918E9, 0.0, 2023-09-26 13:55:06.402
136.0, 73906.28891066181, 68832.64408500721, -19323.574819990972, -14295.348739069552, 33159.14817561486, 31532.432917646518, -187500.02235174447, 26435.22935333602, 45556.47618251755, 34382.816777565095, 4463.97864389165, -568.8071928986541, 49314.1397016215, 35993.617593481256, 21237.15236629872, -6770.790430401616, 0.134, 1.014, 0.07, 192.0, 0.0, 0.0, 0.0, 0.0, 0.0, 0.0, 0.0, 0.0, 0.0, 1.69575450646324E9, 0.0, 2023-09-26 13:55:06.463
138.0, 73918.67177709006, 68840.17662288864, -19314.656473953306, -14297.338044326074, 33169.80995772004, 31530.95770251247, -187500.02235174447, 26451.076740154833, 45559.53837150793, 34392.98682129226, 4474.0369288965385, -564.9850445967966, 49307.09890211808, 35992.343544047304, 21233.10670055231, -6772.712680424772, 0.134, 1.014, 0.07, 192.0, 0.0, 0.0, 0.0, 0.0, 0.0, 0.0, 0.0, 0.0, 0.0, 1.695754506463262E9, 0.0, 2023-09-26 13:55:06.463
140.0, 73906.42302112855, 68827.25731459347, -19314.92469488677, -14291.884218678979, 33166.43484430729, 31529.326025167233, -187500.02235174447, 26450.450891310084, 45562.1535256092, 34395.266699226704, 4473.299321329513, -565.6108934415453, 49318.252422601276, 35996.14334060471, 21241.66741867869, -6767.750593155693, 0.134, 1.014, 0.07, 192.0, 0.0, 0.0, 0.0, 0.0, 0.0, 0.0, 0.0, 0.0, 0.0, 1.695754506463273E9, 0.0, 2023-09-26 13:55:06.463
142.0, 73883.37837259512, 68800.30111078038, -19332.58257300646, -14308.983303187288, 33159.349341314955, 31520.00534772937, -187500.02235174447, 26451.769644232947, 45547.28961554642, 34378.637001351955, 4461.207027579192, -576.7644139247434, 49303.70143696087, 35991.0471428689, 21234.87248836428, -6773.562046714073, 0.128, 1.016, 0.076, 192.0, 2.0, 0.0, 15.5, 96.0, 1.0, 48.0, 0.0, 0.0, 0.0, 1.695754506463283E9, 0.0, 2023-09-26 13:55:06.463
144.0, 73890.441523843, 68812.61692197525, -19327.575782248474, -14307.105756653042, 33164.64670475086, 31518.306615150766, -187500.02235174447, 26439.990274905, 45541.92519687715, 34377.54176587365, 4455.26146355408, -582.9111436499529, 49312.12804462052, 35968.40482573567, 21223.473098692073, -6780.96047412878, 0.128, 1.016, 0.076, 192.0, 0.0, 0.0, 0.0, 0.0, 0.0, 0.0, 0.0, 0.0, 0.0, 1.695754506463292E9, 0.0, 2023-09-26 13:55:06.463
146.0, 73904.38901238311, 68818.13780285571, -19309.29205528403, -14293.225323346296, 33173.07331241051, 31521.927597752525, -187500.02235174447, 26445.600562763284, 45562.91348492068, 34376.5135856287, 4472.718175973675, -563.9121608629418, 49321.76164648076, 35979.58069796332, 21236.54886919843, -6772.779735658138, 0.128, 1.016, 0.076, 192.0, 0.0, 0.0, 0.0, 0.0, 0.0, 0.0, 0.0, 0.0, 0.0, 1.695754506463332E9, 0.0, 2023-09-26 13:55:06.463
148.0, 73899.20340766948, 68804.34677652679, -19320.423224022776, -14306.614018275026, 33158.2764575811, 31512.964548225948, -187500.02235174447, 26430.64724572268, 45552.60933072679, 34369.78571054765, 4460.5364752455325, -576.5855999691009, 49320.86757670255, 35975.0432938389, 21223.406043458708, -6785.252009064199, 0.128, 1.016, 0.076, 192.0, 0.0, 0.0, 0.0, 0.0, 0.0, 0.0, 0.0, 0.0, 0.0, 1.695754506463341E9, 0.0, 2023-09-26 13:55:06.463
150.0, 73904.52312284985, 68812.54986674189, -19320.24441006713, -14299.550867027148, 33169.273515853114, 31522.06170821926, -187500.02235174447, 26429.820231177837, 45553.92808364965, 34364.75656804521, 4463.486905513633, -577.6137802140452, 49329.85297797358, 35974.77507290543, 21222.82489810287, -6781.608674717984, 0.128, 1.016, 0.076, 192.0, 0.0, 0.0, 0.0, 0.0, 0.0, 0.0, 0.0, 0.0, 0.0, 1.695754506524048E9, 0.0, 2023-09-26 13:55:06.524
152.0, 73913.15089620958, 68823.01048314697, -19319.663264711293, -14299.126183882498, 33170.2793443536, 31522.19581868599, -187500.02235174447, 26433.240048079497, 45559.62777848575, 34388.5164724012, 4465.096231114416, -573.7916319121877, 49342.12408567954, 35984.3416195323, 21221.841421346835, -6777.719471182761, 0.124, 1.018, 0.07200000000000001, 192.0, 1.5, 112.0, 15.5, 104.0, 1.0, 32.0, 0.0, 0.0, 0.0, 1.695754506524112E9, 0.0, 2023-09-26 13:55:06.524
154.0, 73900.3433466367, 68808.95123588458, -19327.754596204115, -14298.947369926855, 33161.80803320504, 31514.149190682077, -187500.02235174447, 26434.737614958005, 45557.88434241824, 34376.960620517806, 4463.799829936008, -578.6419604589893, 49324.57796628213, 35990.42129402415, 21221.081462035356, -6776.892456637915, 0.124, 1.018, 0.07200000000000001, 192.0, 0.0, 0.0, 0.0, 0.0, 0.0, 0.0, 0.0, 0.0, 0.0, 1.695754506524122E9, 0.0, 2023-09-26 13:55:06.524
156.0, 73889.01101219787, 68796.45661073407, -19339.332799831966, -14307.753957242247, 33159.86343143743, 31505.90139697807, -187500.02235174447, 26442.404263306173, 45559.91835116367, 34381.40861766441, 4456.714326943676, -577.9267046364195, 49327.79661748369, 35981.19002356411, 21213.504220665007, -6782.592151474018, 0.124, 1.018, 0.07200000000000001, 192.0, 0.0, 0.0, 0.0, 0.0, 0.0, 0.0, 0.0, 0.0, 0.0, 1.695754506524131E9, 0.0, 2023-09-26 13:55:06.524
158.0, 73894.08485818922, 68810.42645101863, -19339.265744598597, -14298.209762359831, 33163.37265531691, 31515.758516282862, -187500.02235174447, 26441.733710972516, 45538.21480729757, 34361.09088195454, 4449.3829547623345, -587.940286152397, 49312.08334113161, 35981.391189264206, 21208.475078162563, -6788.425956776853, 0.124, 1.018, 0.07200000000000001, 192.0, 0.0, 0.0, 0.0, 0.0, 0.0, 0.0, 0.0, 0.0, 0.0, 1.69575450652414E9, 0.0, 2023-09-26 13:55:06.524
160.0, 73893.05667794427, 68813.55569524238, -19339.086930642956, -14310.97260844381, 33166.52425128511, 31507.108391178655, -187500.02235174447, 26443.767719717947, 45547.2002085686, 34383.107350243015, 4456.110829843382, -580.3630447820478, 49332.91516696396, 35967.57781119082, 21220.857944590804, -6780.759308428683, 0.124, 1.018, 0.07200000000000001, 192.0, 0.0, 0.0, 0.0, 0.0, 0.0, 0.0, 0.0, 0.0, 0.0, 1.695754506524149E9, 0.0, 2023-09-26 13:55:06.524
162.0, 73894.10720993367, 68815.65675922116, -19342.998485922635, -14309.139765398475, 33161.98684716068, 31510.215283657944, -187500.02235174447, 26441.13021387222, 45546.17202832366, 34361.80613777711, 4457.161361832781, -580.6536174599669, 49311.189271353396, 35968.82950888032, 21223.115470780787, -6784.424994519352, 0.12, 1.016, 0.076, 192.0, 1.5, 96.0, 15.5, 96.0, 1.0, 48.0, 0.0, 0.0, 0.0, 1.695754506524158E9, 0.0, 2023-09-26 13:55:06.524
164.0, 73897.75054427989, 68811.43227951913, -19333.38723580685, -14303.797698473658, 33162.94797217226, 31512.47280984793, -187500.02235174447, 26451.590830277306, 45551.64820571521, 34389.58935613505, 4460.73764094563, -567.9801783538078, 49324.08622790411, 35987.090884100304, 21220.589723657336, -6779.90994213938, 0.12, 1.016, 0.076, 192.0, 0.0, 0.0, 0.0, 0.0, 0.0, 0.0, 0.0, 0.0, 0.0, 1.695754506524168E9, 0.0, 2023-09-26 13:55:06.524
166.0, 73895.67183204554, 68809.53238124042, -19340.383331821362, -14302.613056017526, 33159.86343143743, 31504.20266439947, -187500.02235174447, 26427.9873881325, 45544.07096434486, 34368.7128268138, 4459.620053722865, -578.1278703365172, 49308.64117248549, 35975.06564558335, 21217.68399687815, -6787.86716316547, 0.12, 1.016, 0.076, 192.0, 0.0, 0.0, 0.0, 0.0, 0.0, 0.0, 0.0, 0.0, 0.0, 1.695754506583664E9, 0.0, 2023-09-26 13:55:06.583
168.0, 73914.60375959918, 68826.8996866822, -19330.526212516572, -14301.718986239313, 33175.88963221188, 31506.259024889354, -187500.02235174447, 26440.772585960938, 45562.68996747613, 34402.93334757487, 4469.097193371916, -564.068623074129, 49316.017248155746, 35988.990782379005, 21227.027026060467, -6781.34045378452, 0.12, 1.016, 0.076, 192.0, 0.0, 0.0, 0.0, 0.0, 0.0, 0.0, 0.0, 0.0, 0.0, 1.695754506583685E9, 0.0, 2023-09-26 13:55:06.583
170.0, 73906.28891066181, 68821.51291626846, -19334.795395707537, -14301.920151939412, 33173.743864744174, 31504.694402777484, -187500.02235174447, 26420.521905484427, 45560.63360698624, 34392.5174346587, 4474.88629518584, -568.5613237096458, 49338.10077167759, 35972.78576764891, 21230.133918539756, -6780.379328772942, 0.12, 1.016, 0.076, 192.0, 0.0, 0.0, 0.0, 0.0, 0.0, 0.0, 0.0, 0.0, 0.0, 1.695754506583724E9, 0.0, 2023-09-26 13:55:06.583
172.0, 73908.00999498487, 68825.13389887022, -19333.230773595664, -14299.662625749424, 33177.76717874613, 31502.168655654034, -187500.02235174447, 26430.736652700503, 45561.818249442375, 34398.79827485064, 4473.545190518522, -564.582713196601, 49332.28931811921, 35987.739084689514, 21224.43422370365, -6780.312273539576, 0.124, 1.012, 0.07200000000000001, 192.0, 1.5, 112.0, 15.5, 80.0, 1.0, 32.0, 0.0, 0.0, 0.0, 1.695754506583733E9, 0.0, 2023-09-26 13:55:06.583
174.0, 73906.46772461745, 68820.8423639348, -19335.01891315209, -14298.25446584874, 33181.67873402581, 31505.253196388865, -187500.02235174447, 26415.22454204852, 45560.58890349733, 34378.45818739631, 4470.818277694974, -570.9976638552743, 49333.205739641875, 35984.095750343295, 21220.433261446153, -6784.2014770748, 0.124, 1.012, 0.07200000000000001, 192.0, 0.0, 0.0, 0.0, 0.0, 0.0, 0.0, 0.0, 0.0, 0.0, 1.695754506583742E9, 0.0, 2023-09-26 13:55:06.583
176.0, 73894.33072737823, 68812.75103244199, -19341.187994621756, -14314.437128834383, 33169.049998408555, 31491.775094482316, -187500.02235174447, 26437.017492892446, 45564.65692098819, 34393.07622827008, 4472.718175973675, -569.3436347655816, 49345.298033392195, 35977.61374445126, 21217.61694164478, -6780.066404350568, 0.124, 1.012, 0.07200000000000001, 192.0, 0.0, 0.0, 0.0, 0.0, 0.0, 0.0, 0.0, 0.0, 0.0, 1.695754506583751E9, 0.0, 2023-09-26 13:55:06.583
178.0, 73903.02555597134, 68819.41185228966, -19336.807052708515, -14298.008596659733, 33178.348324101964, 31507.980109212414, -187500.02235174447, 26429.48495501101, 45556.20796158409, 34381.47567289778, 4467.152591604304, -580.1395273374948, 49344.29220489171, 35971.2882007704, 21208.944464796125, -6786.190782331322, 0.124, 1.012, 0.07200000000000001, 192.0, 0.0, 0.0, 0.0, 0.0, 0.0, 0.0, 0.0, 0.0, 0.0, 1.695754506583759E9, 0.0, 2023-09-26 13:55:06.583
180.0, 73897.21410241295, 68814.56152374286, -19346.2171371242, -14302.434242061883, 33173.810919977535, 31506.0355074448, -187500.02235174447, 26446.76285347496, 45565.14865936621, 34396.54074866066, 4470.5724085059655, -568.8965998764753, 49326.142588394, 35984.14045383221, 21216.097023021823, -6777.540657227119, 0.124, 1.012, 0.07200000000000001, 192.0, 0.0, 0.0, 0.0, 0.0, 0.0, 0.0, 0.0, 0.0, 0.0, 1.695754506643194E9, 0.0, 2023-09-26 13:55:06.643
182.0, 73890.19565465399, 68810.98524463, -19352.699143016238, -14306.859887464034, 33176.42607407881, 31500.782847497805, -187500.02235174447, 26421.192457818088, 45551.64820571521, 34375.23953619475, 4466.213818337181, -576.4961929912797, 49318.811216212656, 35971.01997983694, 21201.926017037156, -6785.542581742118, 0.124, 1.016, 0.076, 192.0, 1.5, 112.0, 15.5, 96.0, 1.0, 48.0, 0.0, 0.0, 0.0, 1.695754506643211E9, 0.0, 2023-09-26 13:55:06.643
184.0, 73909.93224500802, 68822.2505238355, -19345.524233046082, -14300.467288549817, 33195.78268477711, 31506.90722547856, -187500.02235174447, 26444.05829239587, 45557.07967961785, 34379.195794963336, 4475.735661475142, -570.2377045437938, 49321.15814938047, 35979.67010494114, 21211.96195029759, -6777.875933393948, 0.124, 1.016, 0.076, 192.0, 0.0, 0.0, 0.0, 0.0, 0.0, 0.0, 0.0, 0.0, 0.0, 1.695754506643222E9, 0.0, 2023-09-26 13:55:06.643
186.0, 73908.03234672932, 68820.61884649025, -19353.012067438613, -14304.334140340585, 33188.76423701814, 31497.877120718615, -187500.02235174447, 26427.696815454583, 45561.90765642019, 34387.13066424497, 4472.3381963179345, -573.2551900452603, 49342.32525137964, 35976.965543862054, 21208.408022929198, -6777.071270593557, 0.124, 1.016, 0.076, 192.0, 0.0, 0.0, 0.0, 0.0, 0.0, 0.0, 0.0, 0.0, 0.0, 1.695754506643233E9, 0.0, 2023-09-26 13:55:06.643
188.0, 73911.27334967535, 68825.37976805923, -19349.346381347943, -14297.516858281715, 33193.726324287214, 31505.163789411046, -187500.02235174447, 26441.80076620588, 45555.47035401707, 34385.342524688545, 4468.516048016078, -569.8800766325089, 49324.51091104876, 35972.428139737625, 21207.424546173163, -6778.278264794143, 0.124, 1.016, 0.076, 192.0, 0.0, 0.0, 0.0, 0.0, 0.0, 0.0, 0.0, 0.0, 0.0, 1.695754506643243E9, 0.0, 2023-09-26 13:55:06.643
190.0, 73902.35500363768, 68813.37688128673, -19350.374561592886, -14299.483811793783, 33196.49794059968, 31495.75370499536, -187500.02235174447, 26429.104975355265, 45558.107859862794, 34403.156865019424, 4471.064146883982, -565.9238178639196, 49325.2932221047, 35980.385360763714, 21212.0066537865, -6774.6125787034725, 0.124, 1.016, 0.076, 192.0, 0.0, 0.0, 0.0, 0.0, 0.0, 0.0, 0.0, 0.0, 0.0, 1.695754506643254E9, 0.0, 2023-09-26 13:55:06.643
192.0, 73919.94582652401, 68832.37586407374, -19332.426110795273, -14279.9707388843, 33225.130525246925, 31522.821667530738, -187500.02235174447, 26453.46837681155, 45561.25945583099, 34376.64769609543, 4473.321673073969, -566.7061289198552, 49341.40882985698, 35989.84014866831, 21215.38176719925, -6771.393927501908, 0.126, 1.014, 0.08, 192.0, 1.5, 120.0, 15.5, 88.0, 1.0, 64.0, 0.0, 0.0, 0.0, 1.695754506643298E9, 0.0, 2023-09-26 13:55:06.643
194.0, 73905.43954437251, 68814.1368405982, -19346.261840613108, -14294.58877975807, 33208.344365160985, 31505.454362088964, -187500.02235174447, 26444.102995884776, 45571.22833385805, 34406.48727494327, 4482.776460978564, -564.4038992409586, 49353.344661396106, 35997.08211387183, 21225.641217904238, -6758.564026184563, 0.126, 1.014, 0.08, 192.0, 0.0, 0.0, 0.0, 0.0, 0.0, 0.0, 0.0, 0.0, 0.0, 1.695754506643307E9, 0.0, 2023-09-26 13:55:06.643
196.0, 73891.38029711012, 68801.39634625868, -19356.051904684533, -14296.153401869942, 33202.59996683597, 31496.75953349585, -187500.02235174447, 26442.516022028452, 45555.76092669498, 34383.48732989876, 4465.342100303424, -575.3562540240591, 49330.836454729615, 35962.772186132934, 21209.793831085426, -6774.254950792188, 0.126, 1.014, 0.08, 192.0, 0.0, 0.0, 0.0, 0.0, 0.0, 0.0, 0.0, 0.0, 0.0, 1.695754506702997E9, 0.0, 2023-09-26 13:55:06.702
198.0, 73889.99448895389, 68807.63248296172, -19360.946936720247, -14299.282646093685, 33210.601891350976, 31490.769265981828, -187500.02235174447, 26434.961132402557, 45552.27405455996, 34387.95767878982, 4465.07387936996, -577.0773383471177, 49345.18627466992, 35985.74977943299, 21205.14466823872, -6777.205381060288, 0.126, 1.014, 0.08, 192.0, 0.0, 0.0, 0.0, 0.0, 0.0, 0.0, 0.0, 0.0, 0.0, 1.695754506703033E9, 0.0, 2023-09-26 13:55:06.703
200.0, 73887.51344531935, 68796.50131422297, -19367.473646101196, -14302.233076361785, 33195.24624291018, 31480.219242598923, -187500.02235174447, 26429.306141055364, 45556.498534262006, 34389.92463230189, 4471.131202117348, -585.1910215843942, 49329.98708844031, 35972.36108450426, 21194.43818264463, -6786.146078842411, 0.126, 1.014, 0.08, 192.0, 0.0, 0.0, 0.0, 0.0, 0.0, 0.0, 0.0, 0.0, 0.0, 1.695754506703043E9, 0.0, 2023-09-26 13:55:06.703
202.0, 73901.86326525966, 68804.65970094917, -19366.55722457853, -14292.912398923923, 33204.70103081477, 31493.42912357201, -187500.02235174447, 26430.021396877935, 45559.94070290813, 34391.71277185831, 4472.382899806846, -570.2600562882491, 49328.78009423973, 35978.82073865184, 21188.22439768605, -6787.665997465372, 0.132, 1.01, 0.078, 192.0, 2.0, 16.0, 15.5, 72.0, 1.0, 56.0, 0.0, 0.0, 0.0, 1.695754506703054E9, 0.0, 2023-09-26 13:55:06.703
204.0, 73909.01582348536, 68815.12031735425, -19352.185052893765, -14282.429430774384, 33222.02363276764, 31510.863484247147, -187500.02235174447, 26438.358597559763, 45566.556819266894, 34378.03350425166, 4479.8483824549185, -560.134716049995, 49334.546844309196, 35983.760474176466, 21200.38374666974, -6772.019776346658, 0.132, 1.01, 0.078, 192.0, 0.0, 0.0, 0.0, 0.0, 0.0, 0.0, 0.0, 0.0, 0.0, 1.695754506703063E9, 0.0, 2023-09-26 13:55:06.703
206.0, 73912.12271596465, 68820.3953290457, -19351.581555793473, -14284.329329053084, 33219.90021704438, 31509.008289457357, -187500.02235174447, 26452.41784482215, 45568.90375243471, 34405.95083307634, 4484.050510412516, -557.4301549709029, 49349.03077471624, 35998.31145981687, 21204.0047292715, -6766.118915810456, 0.132, 1.01, 0.078, 192.0, 0.0, 0.0, 0.0, 0.0, 0.0, 0.0, 0.0, 0.0, 0.0, 1.695754506703073E9, 0.0, 2023-09-26 13:55:06.703
208.0, 73905.03721297231, 68820.30592206787, -19354.420227339295, -14282.742355196759, 33223.56590313505, 31506.460190589452, -187500.02235174447, 26445.019417407446, 45565.84156344433, 34402.64277489696, 4480.764803977586, -561.5205242062241, 49341.90056823499, 35978.507814229466, 21197.34390942382, -6769.426973989842, 0.132, 1.01, 0.078, 192.0, 0.0, 0.0, 0.0, 0.0, 0.0, 0.0, 0.0, 0.0, 0.0, 1.695754506703082E9, 0.0, 2023-09-26 13:55:06.703
210.0, 73893.45900934447, 68802.04454684789, -19365.529044333583, -14300.221419360807, 33222.269501956645, 31500.380516097608, -187500.02235174447, 26451.255554110478, 45559.001929641, 34405.14617027595, 4474.282798085546, -568.360158009548, 49338.68191703343, 35969.83533738081, 21193.0523744884, -6774.970206614757, 0.132, 1.01, 0.078, 192.0, 0.0, 0.0, 0.0, 0.0, 0.0, 0.0, 0.0, 0.0, 0.0, 1.695754506763365E9, 0.0, 2023-09-26 13:55:06.763
212.0, 73901.34917513719, 68811.56638998585, -19360.656364042326, -14288.263236077219, 33231.05373752758, 31506.326080122722, -187500.02235174447, 26435.296408569386, 45562.84642968731, 34375.686571083854, 4479.043719654527, -564.4038992409586, 49342.83934150211, 35972.629305437724, 21199.78024956945, -6771.818610646559, 0.13, 1.018, 0.078, 192.0, 2.0, 8.0, 15.5, 104.0, 1.0, 56.0, 0.0, 0.0, 0.0, 1.69575450676339E9, 0.0, 2023-09-26 13:55:06.763
214.0, 73896.81177101276, 68811.40992777466, -19358.331782618974, -14289.783154700179, 33237.513391675166, 31500.46992307543, -187500.02235174447, 26448.171013375642, 45557.9513976516, 34403.38038246398, 4477.546152776022, -568.0919370760843, 49336.55850131017, 35976.80908165086, 21201.166057725677, -6768.219979789255, 0.13, 1.018, 0.078, 192.0, 0.0, 0.0, 0.0, 0.0, 0.0, 0.0, 0.0, 0.0, 0.0, 1.695754506763449E9, 0.0, 2023-09-26 13:55:06.763
216.0, 73892.7884570108, 68811.5887417303, -19364.45616059973, -14292.443012290361, 33232.64071138391, 31498.592376541186, -187500.02235174447, 26428.99321663299, 45554.620987727765, 34381.81094906461, 4471.779402706552, -577.5914284695898, 49334.5915477981, 35968.62834318022, 21193.655871588693, -6775.1490205704, 0.13, 1.018, 0.078, 192.0, 0.0, 0.0, 0.0, 0.0, 0.0, 0.0, 0.0, 0.0, 0.0, 1.695754506763458E9, 0.0, 2023-09-26 13:55:06.763
218.0, 73899.8963117476, 68819.36714880075, -19341.523270788584, -14282.697651707847, 33243.70482488928, 31506.504894078364, -187500.02235174447, 26450.495594798995, 45563.04759538741, 34410.75645813423, 4477.344987075923, -564.2474370297715, 49348.807257271685, 35984.47572999904, 21197.030985001446, -6769.069346078557, 0.13, 1.018, 0.078, 192.0, 0.0, 0.0, 0.0, 0.0, 0.0, 0.0, 0.0, 0.0, 0.0, 1.695754506763467E9, 0.0, 2023-09-26 13:55:06.763
220.0, 73883.66894527304, 68816.08144236583, -19356.811863996016, -14290.364300056017, 33240.217952754254, 31503.62151904363, -187500.02235174447, 26427.339187543297, 45556.9008656622, 34400.944042318355, 4474.662777741287, -568.6954341763776, 49350.9977282283, 35991.47182601355, 21200.093173991823, -6761.134476796923, 0.13, 1.018, 0.078, 192.0, 0.0, 0.0, 0.0, 0.0, 0.0, 0.0, 0.0, 0.0, 0.0, 1.695754506763477E9, 0.0, 2023-09-26 13:55:06.763
222.0, 73881.16554989405, 68812.08048010833, -19358.979983208177, -14298.008596659733, 33237.53574341962, 31490.36693458163, -187500.02235174447, 26440.61612374975, 45543.713336433575, 34398.01596379471, 4460.5364752455325, -578.1949255698831, 49343.50989383578, 35975.75854966146, 21182.345888894306, -6776.400718259897, 0.13, 1.016, 0.078, 192.0, 2.0, 8.0, 15.5, 96.0, 1.0, 56.0, 0.0, 0.0, 0.0, 1.695754506763485E9, 0.0, 2023-09-26 13:55:06.763
224.0, 73879.73503824891, 68799.09411657978, -19360.857529742425, -14299.997901916255, 33235.23351374072, 31490.277527603812, -187500.02235174447, 26428.099146854776, 45549.72595569205, 34386.258946211216, 4470.058318383493, -567.2202190423274, 49351.62357707305, 35970.528241458924, 21189.52079886446, -6778.971168872258, 0.13, 1.016, 0.078, 192.0, 0.0, 0.0, 0.0, 0.0, 0.0, 0.0, 0.0, 0.0, 0.0, 1.695754506763495E9, 0.0, 2023-09-26 13:55:06.763
226.0, 73877.83513997021, 68802.24571254799, -19366.51252108962, -14301.83074496159, 33233.043042784106, 31490.79161772628, -187500.02235174447, 26446.964019175055, 45548.049574857905, 34390.12579800198, 4464.224513080659, -571.7576231667547, 49344.09103919161, 35973.65748568267, 21179.01547897047, -6784.626160219451, 0.13, 1.016, 0.078, 192.0, 0.0, 0.0, 0.0, 0.0, 0.0, 0.0, 0.0, 0.0, 0.0, 1.695754506823479E9, 0.0, 2023-09-26 13:55:06.823
228.0, 73880.42794232702, 68803.67622419313, -19371.854588014437, -14302.769518228713, 33238.4968684312, 31493.71969624993, -187500.02235174447, 26430.781356189415, 45548.27309230246, 34388.3153067011, 4465.990300892628, -578.1055185920619, 49348.33787063812, 35972.27167752644, 21182.9493859946, -6778.322968283054, 0.13, 1.016, 0.078, 192.0, 0.0, 0.0, 0.0, 0.0, 0.0, 0.0, 0.0, 0.0, 0.0, 1.695754506823503E9, 0.0, 2023-09-26 13:55:06.823
230.0, 73866.30163983126, 68795.71900316703, -19373.910948504323, -14309.564448543126, 33233.735946862216, 31488.489388047386, -187500.02235174447, 26445.46645229655, 45541.612272454775, 34397.90420507243, 4454.188579820226, -584.6098762285562, 49346.773248526246, 35958.6371134087, 21172.86874924526, -6790.102337611001, 0.13, 1.016, 0.078, 192.0, 0.0, 0.0, 0.0, 0.0, 0.0, 0.0, 0.0, 0.0, 0.0, 1.695754506823514E9, 0.0, 2023-09-26 13:55:06.823
232.0, 73881.70199176097, 68809.46532600705, -19366.06548620051, -14297.785079215178, 33245.35885397898, 31497.76536199634, -187500.02235174447, 26433.642379479694, 45543.087487588826, 34381.85565255352, 4458.301300800002, -574.4398325013915, 49344.895701992005, 35969.276543769425, 21174.411019612675, -6785.140250341922, 0.126, 1.018, 0.078, 192.0, 1.5, 120.0, 15.5, 104.0, 1.0, 56.0, 0.0, 0.0, 0.0, 1.695754506823527E9, 0.0, 2023-09-26 13:55:06.823
234.0, 73882.12667490562, 68820.08240462332, -19362.60096580994, -14292.867695435012, 33258.68049367434, 31498.346507352177, -187500.02235174447, 26447.90279244218, 45554.06219411638, 34387.55534738962, 4469.968911405672, -560.6711579169223, 49356.853885275596, 35991.851805669285, 21186.749182552005, -6774.187895558822, 0.126, 1.018, 0.078, 192.0, 0.0, 0.0, 0.0, 0.0, 0.0, 0.0, 0.0, 0.0, 0.0, 1.695754506823536E9, 0.0, 2023-09-26 13:55:06.823
236.0, 73884.98769819591, 68821.93759941311, -19354.487282572663, -14294.231151846785, 33263.39671175441, 31498.078286418713, -187500.02235174447, 26432.815364934846, 45552.27405455996, 34391.53395790267, 4471.891161428829, -564.5603614521458, 49362.06184173368, 35976.45145373958, 21189.386688397728, -6775.2607792926765, 0.126, 1.018, 0.078, 192.0, 0.0, 0.0, 0.0, 0.0, 0.0, 0.0, 0.0, 0.0, 0.0, 1.695754506823583E9, 0.0, 2023-09-26 13:55:06.823
238.0, 73881.43377082751, 68821.95995115757, -19354.73315176167, -14289.11260236652, 33264.067264088066, 31496.066629417735, -187500.02235174447, 26429.574361988827, 45567.98733091204, 34403.35803071952, 4486.5092023026, -553.4738962023135, 49371.06959474917, 35994.444608026104, 21200.696671092115, -6765.67188092135, 0.126, 1.018, 0.078, 192.0, 0.0, 0.0, 0.0, 0.0, 0.0, 0.0, 0.0, 0.0, 0.0, 1.695754506823592E9, 0.0, 2023-09-26 13:55:06.823
240.0, 73864.40174155256, 68805.21849456054, -19367.205425167733, -14302.88127695099, 33244.688301645314, 31482.923803678015, -187500.02235174447, 26419.650187450672, 45550.01652836997, 34387.84592006754, 4468.158420104793, -569.4330417434028, 49365.05697549069, 35975.0432938389, 21179.887197004224, -6783.083889852034, 0.126, 1.018, 0.078, 192.0, 0.0, 0.0, 0.0, 0.0, 0.0, 0.0, 0.0, 0.0, 0.0, 1.695754506883857E9, 0.0, 2023-09-26 13:55:06.883
242.0, 73861.71953221793, 68798.04358459038, -19367.87597750139, -14300.959026927832, 33255.37243549495, 31495.194911383976, -187500.02235174447, 26431.76483294545, 45549.32362429186, 34371.931478015365, 4467.756088704597, -568.9189516209307, 49354.68576606343, 35983.760474176466, 21184.29049066192, -6777.317139782565, 0.124, 1.018, 0.076, 192.0, 1.5, 112.0, 15.5, 104.0, 1.0, 48.0, 0.0, 0.0, 0.0, 1.695754506883882E9, 0.0, 2023-09-26 13:55:06.883
244.0, 73881.72434350543, 68809.42062251814, -19365.97607922269, -14298.388576315472, 33265.38601701093, 31498.525321307818, -187500.02235174447, 26424.27699855292, 45550.77648768145, 34386.97420203379, 4468.985434649639, -574.4174807569362, 49366.33102492464, 35982.30761078687, 21187.263272674474, -6772.243293791211, 0.124, 1.018, 0.076, 192.0, 0.0, 0.0, 0.0, 0.0, 0.0, 0.0, 0.0, 0.0, 0.0, 1.695754506883893E9, 0.0, 2023-09-26 13:55:06.883
246.0, 73878.61745102615, 68796.32250026733, -19375.386163638374, -14304.35649208504, 33258.76990065216, 31484.46607404543, -187500.02235174447, 26419.203152561564, 45551.49174350402, 34386.102484000025, 4474.863943441384, -575.2668470462379, 49366.33102492464, 35965.856726867765, 21183.95521449509, -6769.29286352311, 0.124, 1.018, 0.076, 192.0, 0.0, 0.0, 0.0, 0.0, 0.0, 0.0, 0.0, 0.0, 0.0, 1.695754506883902E9, 0.0, 2023-09-26 13:55:06.883
248.0, 73888.67573603103, 68809.57708472933, -19373.93330024878, -14297.270989092707, 33270.213993813275, 31482.879100189104, -187500.02235174447, 26422.488858996494, 45548.78718242493, 34395.959603304815, 4475.512144030588, -573.7692801677323, 49368.320330181166, 35968.427177480124, 21177.80848476988, -6777.630064204939, 0.124, 1.018, 0.076, 192.0, 0.0, 0.0, 0.0, 0.0, 0.0, 0.0, 0.0, 0.0, 0.0, 1.695754506883912E9, 0.0, 2023-09-26 13:55:06.883
250.0, 73885.68060227402, 68807.85600040627, -19375.587329338472, -14295.25933209173, 33270.66102870239, 31485.583661268196, -187500.02235174447, 26421.08069909581, 45554.17395283865, 34369.78571054765, 4487.515030803088, -558.5700939381235, 49373.34947268361, 35989.21429982356, 21186.99505174101, -6767.705889666783, 0.124, 1.018, 0.076, 192.0, 0.0, 0.0, 0.0, 0.0, 0.0, 0.0, 0.0, 0.0, 0.0, 1.69575450688392E9, 0.0, 2023-09-26 13:55:06.883
252.0, 73868.60386951016, 68792.05331707637, -19390.56299812353, -14303.194201373364, 33259.954543108295, 31488.1317601361, -187500.02235174447, 26424.478164253018, 45542.43928699962, 34377.83233855156, 4463.889236913828, -570.8635533885424, 49367.605074358595, 35986.688552700114, 21167.347868364795, -6776.825401404549, 0.122, 1.01, 0.076, 192.0, 1.5, 104.0, 15.5, 72.0, 1.0, 48.0, 0.0, 0.0, 0.0, 1.695754506883929E9, 0.0, 2023-09-26 13:55:06.883
254.0, 73860.64664848408, 68786.0406978179, -19395.547437137062, -14312.201954388853, 33250.499755203695, 31476.397094297066, -187500.02235174447, 26409.390736745685, 45532.06807757236, 34362.00730347721, 4454.277986798047, -580.2736378042266, 49346.9967659708, 35973.29985777138, 21161.849339228793, -6780.938122384325, 0.122, 1.01, 0.076, 192.0, 0.0, 0.0, 0.0, 0.0, 0.0, 0.0, 0.0, 0.0, 0.0, 1.695754506883939E9, 0.0, 2023-09-26 13:55:06.883
0.0, 73861.25014558437, 68792.05331707637, -19399.347233694465, -14312.045492177665, 33261.407406497885, 31476.62061174162, -187500.02235174447, 26420.03016710641, 45525.65312691368, 34389.63405962397, 4459.865922911874, -587.6273617300227, 49360.31840566616, 35963.17451753313, 21160.619993283748, -6781.8321921625375, 0.122, 1.01, 0.076, 192.0, 0.0, 0.0, 0.0, 0.0, 0.0, 0.0, 0.0, 0.0, 0.0, 1.695754506943228E9, 0.0, 2023-09-26 13:55:06.943
2.0, 73843.0781773422, 68779.15636052565, -19400.59893138396, -14320.494451581772, 33259.44045298582, 31474.206623340444, -187500.02235174447, 26422.935893885602, 45524.17791177963, 34347.76924225918, 4461.40819327929, -590.6895507203998, 49353.61288232957, 35954.61379940675, 21157.580156037828, -6784.849677664003, 0.122, 1.01, 0.076, 192.0, 0.0, 0.0, 0.0, 0.0, 0.0, 0.0, 0.0, 0.0, 0.0, 1.695754506943301E9, 0.0, 2023-09-26 13:55:06.943
4.0, 73863.82059619673, 68794.24378803298, -19388.70780333374, -14303.730643240291, 33272.09154034752, 31480.3310013212, -187500.02235174447, 26436.637513236707, 45526.83776936981, 34366.544707601635, 4462.2352078241365, -578.261980803249, 49364.63229234604, 35970.394130992194, 21164.308031118875, -6774.791392659115, 0.122, 1.01, 0.076, 192.0, 0.0, 0.0, 0.0, 0.0, 0.0, 0.0, 0.0, 0.0, 0.0, 1.695754506943311E9, 0.0, 2023-09-26 13:55:06.943
