%OpenBCI Raw EXG Data
%Number of channels = 16
%Sample Rate = 125 Hz
%Board = OpenBCI_GUI$BoardCytonSerialDaisy
Sample Index, EXG Channel 0, EXG Channel 1, EXG Channel 2, EXG Channel 3, EXG Channel 4, EXG Channel 5, EXG Channel 6, EXG Channel 7, EXG Channel 8, EXG Channel 9, EXG Channel 10, EXG Channel 11, EXG Channel 12, EXG Channel 13, EXG Channel 14, EXG Channel 15, Accel Channel 0, Accel Channel 1, Accel Channel 2, Other, Other, Other, Other, Other, Other, Other, Analog Channel 0, Analog Channel 1, Analog Channel 2, Timestamp, Other, Timestamp (Formatted)
238.0, -159578.73726829735, 31299.326574722123, -49365.213437701874, -39601.479721245734, 2594.679903349865, -13620.415463497098, -187500.02235174447, -467.64319749393434, 5583.063433535509, -33854.376835152725, -605.9781439278298, -20760.993154167314, -23877.3851248485, -21156.440217070605, -26732.507554591604, -41052.19734337299, 0.0, 0.0, 0.0, 192.0, 0.0, 0.0, 0.0, 0.0, 0.0, 0.0, 0.0, 0.0, 0.0, 1.695756157363437E9, 0.0, 2023-09-26 14:22:37.363
240.0, -159615.8635158376, 31279.72409483482, -49354.886931763525, -39600.02685785614, 2603.0618075206053, -13615.83335588376, -187500.02235174447, -453.5615984870909, 5581.990549801654, -33885.53516692342, -609.3309055961258, -20784.797762012215, -23870.411380578447, -21165.157397408177, -26722.426917842262, -41045.84944794768, 0.0, 0.0, 0.0, 192.0, 0.0, 0.0, 0.0, 0.0, 0.0, 0.0, 0.0, 0.0, 0.0, 1.695756157363455E9, 0.0, 2023-09-26 14:22:37.363
242.0, -159585.44279163395, 31267.587097595588, -49372.47775464985, -39620.07637263255, 2586.454461390312, -13635.771111937895, -187500.02235174447, -466.5032585267137, 5570.747622340635, -33876.90739356368, -611.2978591081928, -20770.604404283098, -23880.44731383888, -21187.7997145414, -26731.501726091115, -41062.859125478164, 0.0, 0.0, 0.0, 192.0, 0.0, 0.0, 0.0, 0.0, 0.0, 0.0, 0.0, 0.0, 0.0, 1.695756157363465E9, 0.0, 2023-09-26 14:22:37.363
244.0, -159604.95586454344, 31255.070120700613, -49370.1531732265, -39619.741096465725, 2583.4146241443905, -13630.898431646638, -187500.02235174447, -475.1086801420069, 5563.036270503553, -33894.40880947218, -625.3794581150363, -20787.614081813586, -23884.15770341846, -21197.34390942382, -26741.91763900729, -41069.47524183694, 0.0, 0.0, 0.0, 192.0, 0.0, 0.0, 0.0, 0.0, 0.0, 0.0, 0.0, 0.0, 0.0, 1.695756157363474E9, 0.0, 2023-09-26 14:22:37.363
246.0, -159586.24745443434, 31261.44036787038, -49357.77030679826, -39606.799436426096, 2595.261048705703, -13622.293010031344, -187500.02235174447, -469.18546786135056, 5564.399726915327, -33889.15614952519, -614.2706411207487, -20774.717125262872, -23882.52602607322, -21184.424601128652, -26741.694121562734, -41065.47427957944, 0.012, 1.012, 0.044, 192.0, 0.0, 48.0, 15.5, 80.0, 0.5, 48.0, 0.0, 0.0, 0.0, 1.695756157363503E9, 0.0, 2023-09-26 14:22:37.363
248.0, -159607.3251494557, 31251.4267863544, -49359.714908565875, -39605.950070136794, 2596.13276673946, -13627.344504278244, -187500.02235174447, -469.85602019500976, 5574.614474131403, -33899.192082785616, -611.5660800416565, -20792.196189426923, -23872.154816645958, -21176.66854580266, -26728.52894407856, -41053.04670966229, 0.012, 1.012, 0.044, 192.0, 0.0, 0.0, 0.0, 0.0, 0.0, 0.0, 0.0, 0.0, 0.0, 1.695756157363513E9, 0.0, 2023-09-26 14:22:37.363
250.0, -159567.7625617698, 31244.251876384245, -49373.03654826123, -39618.77997145414, 2584.7333770672535, -13641.090827118258, -187500.02235174447, -471.7782702181662, 5553.67088957678, -33879.99193429851, -616.2822981217263, -20769.218596126866, -23887.73398253131, -21192.80650529939, -26741.04592097353, -41069.05055869229, 0.012, 1.012, 0.044, 192.0, 0.0, 0.0, 0.0, 0.0, 0.0, 0.0, 0.0, 0.0, 0.0, 1.695756157363522E9, 0.0, 2023-09-26 14:22:37.363
252.0, -159600.08318425217, 31234.595922779554, -49360.00548124379, -39603.82665441354, 2601.296019708636, -13626.472786244487, -187500.02235174447, -465.76565095968857, 5550.988680242143, -33898.67799266315, -634.4766181083463, -20786.362384124088, -23886.4375813529, -21190.191351198122, -26736.888496504846, -41064.200230145485, 0.012, 1.012, 0.044, 192.0, 0.0, 0.0, 0.0, 0.0, 0.0, 0.0, 0.0, 0.0, 0.0, 1.695756157363532E9, 0.0, 2023-09-26 14:22:37.363
254.0, -159596.59631211715, 31235.646454768954, -49369.39321391502, -39614.86841617447, 2597.9209062958844, -13632.306591547322, -187500.02235174447, -457.71902295577803, 5552.307433165006, -33907.52928346745, -629.0004407167961, -20785.40125911251, -23879.91087197195, -21180.66950806016, -26723.94683646522, -41052.28675035081, 0.012, 1.012, 0.044, 192.0, 0.0, 0.0, 0.0, 0.0, 0.0, 0.0, 0.0, 0.0, 0.0, 1.69575615736354E9, 0.0, 2023-09-26 14:22:37.363
0.0, -79823.77914473762, 15557.84232113866, -24679.388067649375, -19822.35399751115, 1280.9561229891924, -6845.5793673490725, -93750.01117587223, -242.3823168733498, 2771.0798705911484, -16949.841910581818, -322.06628585651947, -10393.449412995507, -11949.242585807157, -10607.936752788633, -13371.327623287158, -20536.06754971356, 0.008, 1.01, 0.038, 192.0, 0.0, 32.0, 15.5, 72.0, 0.5, 24.0, 0.0, 0.0, 0.0, 1.695756157510352E9, 0.0, 2023-09-26 14:22:37.510
2.0, -159621.29498974027, 31117.74100276721, -49364.63229234604, -39651.30175963661, 2555.36318485298, -13704.2345052045, -187500.02235174447, -488.9220582153867, 5599.514317454615, -33897.2027775291, -716.0828371146723, -20838.46430044941, -23895.959424490862, -21286.1250384003, -26739.593057583937, -41102.22054746396, 0.008, 1.01, 0.038, 192.0, 0.0, 0.0, 0.0, 0.0, 0.0, 0.0, 0.0, 0.0, 0.0, 1.695756157510375E9, 0.0, 2023-09-26 14:22:37.510
4.0, -159644.09376908466, 31114.611758543466, -49358.507914365284, -39641.73521300974, 2563.163943667882, -13701.842868547783, -187500.02235174447, -499.6285438094788, 5597.949695342743, -33903.41656248767, -722.6318982400774, -20851.964754100412, -23896.451162868878, -21289.567207046417, -26743.370502396883, -41107.696724855516, 0.008, 1.01, 0.038, 192.0, 0.0, 0.0, 0.0, 0.0, 0.0, 0.0, 0.0, 0.0, 0.0, 1.695756157510385E9, 0.0, 2023-09-26 14:22:37.510
6.0, -159633.6331526796, 31121.719613280253, -49361.36893765556, -39643.769221755174, 2562.940426223329, -13706.201458716567, -187500.02235174447, -506.1105497015178, 5601.660084922324, -33895.16876878366, -713.7582556913204, -20844.767492385807, -23891.176151177428, -21282.749924987547, -26740.44242387324, -41106.08739925473, 0.008, 1.01, 0.038, 192.0, 0.0, 0.0, 0.0, 0.0, 0.0, 0.0, 0.0, 0.0, 0.0, 1.695756157510394E9, 0.0, 2023-09-26 14:22:37.510
8.0, -159652.6321354666, 31107.615662528955, -49363.984091756836, -39646.026747945165, 2563.722737279265, -13699.920618524626, -187500.02235174447, -506.24466016824965, 5595.312189497017, -33901.60607118679, -718.4297702824796, -20857.08330358068, -23894.081877956614, -21283.867512210312, -26742.92346750778, -41111.02713477935, 0.006, 1.016, 0.034, 192.0, 0.0, 24.0, 15.5, 96.0, 0.5, 8.0, 0.0, 0.0, 0.0, 1.695756157510403E9, 0.0, 2023-09-26 14:22:37.510
10.0, -159624.75951013083, 31100.977194425726, -49376.4563651629, -39655.48153584976, 2552.2562923736923, -13699.339473168788, -187500.02235174447, -505.61881132350106, 5575.419136931794, -33892.08422804883, -723.1459883625494, -20842.532317940273, -23909.750450819785, -21285.610948277827, -26749.53958386655, -41117.08445752674, 0.006, 1.016, 0.034, 192.0, 0.0, 0.0, 0.0, 0.0, 0.0, 0.0, 0.0, 0.0, 0.0, 1.695756157510412E9, 0.0, 2023-09-26 14:22:37.510
12.0, -159647.55828947524, 31088.884900675406, -49376.09873725161, -39651.59233231453, 2555.4078883418906, -13687.515400351931, -187500.02235174447, -509.8879945144647, 5568.378337428372, -33909.22801604605, -734.3442123346582, -20864.302917039742, -23909.281064186223, -21278.950128430144, -26746.298580920527, -41109.082533011744, 0.006, 1.016, 0.034, 192.0, 0.0, 0.0, 0.0, 0.0, 0.0, 0.0, 0.0, 0.0, 0.0, 1.695756157510448E9, 0.0, 2023-09-26 14:22:37.510
14.0, -159615.05885303722, 31088.05788613056, -49393.24252524883, -39664.22106793178, 2544.3884783254243, -13694.37738589971, -187500.02235174447, -498.7344740312665, 5553.067392476487, -33903.528321209946, -737.4064013250353, -20851.473015722397, -23928.525916162245, -21289.902483213245, -26760.58134562747, -41120.43721919504, 0.006, 1.016, 0.034, 192.0, 0.0, 0.0, 0.0, 0.0, 0.0, 0.0, 0.0, 0.0, 0.0, 1.695756157510457E9, 0.0, 2023-09-26 14:22:37.510
16.0, -159636.1812515475, 31082.738170950197, -49381.68667336544, -39652.01701545918, 2558.5371325656333, -13687.046013718369, -187500.02235174447, -505.86468051250944, 5545.512502850593, -33904.84707413281, -749.0740119307056, -20865.88989089607, -23930.336407463124, -21286.326204100395, -26762.593002628448, -41119.16316976109, 0.006, 1.016, 0.034, 192.0, 0.0, 0.0, 0.0, 0.0, 0.0, 0.0, 0.0, 0.0, 0.0, 1.695756157570689E9, 0.0, 2023-09-26 14:22:37.570
18.0, -159630.79448113378, 31096.998583912682, -49376.94810354091, -39645.9596927118, 2561.0181762001725, -13684.09558345027, -187500.02235174447, -485.52459305818, 5564.57854087097, -33908.04337358992, -736.0429449132615, -20866.158111829533, -23916.053642756182, -21273.228081849586, -26747.349112909927, -41103.51694864237, 0.008, 1.016, 0.034, 192.0, 0.0, 32.0, 15.5, 96.0, 0.5, 8.0, 0.0, 0.0, 0.0, 1.695756157570719E9, 0.0, 2023-09-26 14:22:37.570
20.0, -159624.6253996641, 31092.10355187697, -49382.44663267692, -39651.6593875479, 2549.618786527966, -13700.591170858284, -187500.02235174447, -501.48373859926926, 5549.245244174629, -33894.47586470555, -744.6260147840995, -20860.972507115905, -23925.97781729434, -21282.727573243094, -26754.456967646714, -41109.12723650065, 0.008, 1.016, 0.034, 192.0, 0.0, 0.0, 0.0, 0.0, 0.0, 0.0, 0.0, 0.0, 0.0, 1.695756157570729E9, 0.0, 2023-09-26 14:22:37.570
22.0, -159634.70603641344, 31107.3921450844, -49367.69448133642, -39642.33871011004, 2559.9229407218627, -13696.14317371168, -187500.02235174447, -504.8365002675653, 5566.612549616403, -33904.19887354361, -739.865093215119, -20859.69845768195, -23920.92632304744, -21278.838369707868, -26749.33841816645, -41109.86484406768, 0.008, 1.016, 0.034, 192.0, 0.0, 0.0, 0.0, 0.0, 0.0, 0.0, 0.0, 0.0, 0.0, 1.695756157570738E9, 0.0, 2023-09-26 14:22:37.570
24.0, -159655.15788259005, 31105.648709016885, -49358.44085913192, -39639.20946588629, 2567.1202024364716, -13692.164563198634, -187500.02235174447, -503.3165816446044, 5577.296683466039, -33896.84514961781, -728.6668692430103, -20859.519643726308, -23912.991453765804, -21277.966651674113, -26743.28109541906, -41104.03103876484, 0.008, 1.016, 0.034, 192.0, 0.0, 0.0, 0.0, 0.0, 0.0, 0.0, 0.0, 0.0, 0.0, 1.695756157570747E9, 0.0, 2023-09-26 14:22:37.570
26.0, -159661.41637103754, 31113.53887480961, -49357.05505097569, -39641.37758509846, 2569.8024117711084, -13690.935217253593, -187500.02235174447, -489.0114651932079, 5583.309302724517, -33899.46030371908, -722.3636773066137, -20860.905451882536, -23909.30341593068, -21277.609023762827, -26737.58140058296, -41104.9027567986, 0.008, 1.016, 0.034, 192.0, 0.0, 0.0, 0.0, 0.0, 0.0, 0.0, 0.0, 0.0, 0.0, 1.695756157570756E9, 0.0, 2023-09-26 14:22:37.570
28.0, -159676.36968807815, 31103.94997643828, -49351.891798006516, -39637.93541645234, 2573.512801350689, -13681.838057260282, -187500.02235174447, -493.7947385066436, 5585.276256236584, -33884.35052446729, -719.9049854165298, -20855.295164024254, -23906.285930429214, -21273.49630278305, -26736.687330804747, -41101.259422452385, 0.006, 1.01, 0.038, 192.0, 0.0, 24.0, 15.5, 72.0, 0.5, 24.0, 0.0, 0.0, 0.0, 1.695756157570765E9, 0.0, 2023-09-26 14:22:37.570
30.0, -159672.72635373194, 31105.06756366105, -49364.028795245744, -39651.50292533671, 2564.5944553130216, -13695.785545800394, -187500.02235174447, -490.75490126072185, 5580.381224200872, -33895.280527505936, -719.1673778495048, -20860.190196059968, -23910.644520597998, -21273.943337672157, -26740.375368639874, -41106.199157977004, 0.006, 1.01, 0.038, 192.0, 0.0, 0.0, 0.0, 0.0, 0.0, 0.0, 0.0, 0.0, 0.0, 1.69575615762999E9, 0.0, 2023-09-26 14:22:37.629
32.0, -159662.84688268267, 31107.25803461767, -49363.984091756836, -39647.971349712774, 2567.723699536765, -13688.744746296972, -187500.02235174447, -505.86468051250944, 5576.894352065844, -33886.16101576817, -721.5590145062226, -20850.958925599924, -23917.595913123598, -21285.298023855452, -26753.875822290876, -41114.245785980915, 0.006, 1.01, 0.038, 192.0, 0.0, 0.0, 0.0, 0.0, 0.0, 0.0, 0.0, 0.0, 0.0, 1.695756157630016E9, 0.0, 2023-09-26 14:22:37.630
34.0, -159641.00922834984, 31100.999546170184, -49384.61475188909, -39662.47763186427, 2549.082344661039, -13705.262685449445, -187500.02235174447, -503.65185781143407, 5559.661157090803, -33889.826701858845, -730.1644361215158, -20848.36612324311, -23928.145936506506, -21285.409782577728, -26762.48124390617, -41120.23605349494, 0.006, 1.01, 0.038, 192.0, 0.0, 0.0, 0.0, 0.0, 0.0, 0.0, 0.0, 0.0, 0.0, 1.695756157630057E9, 0.0, 2023-09-26 14:22:37.630
36.0, -159621.60791416263, 31093.06467688855, -49381.57491464316, -39661.65061731942, 2547.6518330158992, -13704.010987759948, -187500.02235174447, -519.0522097411406, 5548.686450563247, -33880.1483965097, -741.1391426490716, -20842.957001084924, -23936.751358121797, -21293.188189648175, -26776.071104534996, -41128.41679196558, 0.006, 1.01, 0.038, 192.0, 0.0, 0.0, 0.0, 0.0, 0.0, 0.0, 0.0, 0.0, 0.0, 1.695756157630066E9, 0.0, 2023-09-26 14:22:37.630
38.0, -159645.97131561892, 31093.176435610825, -49369.81789705967, -39654.341596882536, 2558.134801165438, -13699.585342357797, -187500.02235174447, -516.6382213399675, 5565.1820379712635, -33905.02588808845, -740.7815147377867, -20862.98416411688, -23923.78734633772, -21293.434058837185, -26764.090569506952, -41117.330326715746, 0.012, 1.008, 0.042, 192.0, 0.0, 48.0, 15.5, 64.0, 0.5, 40.0, 0.0, 0.0, 0.0, 1.695756157630076E9, 0.0, 2023-09-26 14:22:37.630
40.0, -159646.66421969704, 31098.58555776901, -49356.94329225341, -39645.06562293359, 2566.6284640584545, -13693.32685391031, -187500.02235174447, -524.7519045772439, 5572.021671774587, -33888.95498382509, -732.4443140559572, -20856.859786136127, -23915.517200889255, -21282.59346277636, -26757.563860126003, -41112.59175689123, 0.012, 1.008, 0.042, 192.0, 0.0, 0.0, 0.0, 0.0, 0.0, 0.0, 0.0, 0.0, 0.0, 1.695756157630085E9, 0.0, 2023-09-26 14:22:37.630
42.0, -159650.4863679989, 31101.24541535919, -49359.781963799236, -39648.19486715733, 2555.02790868615, -13698.177182457111, -187500.02235174447, -506.8258055240876, 5577.788421844056, -33898.141550796216, -724.4200377965019, -20865.867539151615, -23912.946750276897, -21272.93750917167, -26749.450176888728, -41104.679239354045, 0.012, 1.008, 0.042, 192.0, 0.0, 0.0, 0.0, 0.0, 0.0, 0.0, 0.0, 0.0, 0.0, 1.695756157630094E9, 0.0, 2023-09-26 14:22:37.630
44.0, -159619.75271937286, 31098.317336835546, -49364.43112664594, -39650.072413691574, 2551.69749876231, -13707.006121516959, -187500.02235174447, -514.6042125945345, 5562.119848980886, -33884.149358767194, -723.5036162738343, -20844.499271452343, -23926.581314394632, -21284.292195354963, -26760.804863072022, -41113.061143524785, 0.012, 1.008, 0.042, 192.0, 0.0, 0.0, 0.0, 0.0, 0.0, 0.0, 0.0, 0.0, 0.0, 1.695756157630103E9, 0.0, 2023-09-26 14:22:37.630
46.0, -159633.90137361304, 31097.982060668717, -49364.43112664594, -39643.54570431062, 2555.7655162531755, -13700.434708647099, -187500.02235174447, -516.9287940178864, 5566.567846127492, -33898.27566126295, -730.9914506663622, -20860.257251293333, -23927.676549872944, -21284.247491866052, -26763.844700317946, -41114.55871040329, 0.012, 1.008, 0.042, 192.0, 0.0, 0.0, 0.0, 0.0, 0.0, 0.0, 0.0, 0.0, 0.0, 1.695756157689815E9, 0.0, 2023-09-26 14:22:37.689
48.0, -159610.45439367945, 31098.093819390993, -49364.65464409049, -39646.160858411895, 2562.448687845312, -13697.484278378997, -187500.02235174447, -508.41277938041446, 5566.456087405216, -33883.50115817799, -725.8952529305521, -20845.013361574813, -23927.11775626156, -21288.628433779293, -26761.34130493895, -41109.082533011744, 0.014, 1.012, 0.038, 192.0, 0.0, 56.0, 15.5, 80.0, 0.5, 24.0, 0.0, 0.0, 0.0, 1.695756157689858E9, 0.0, 2023-09-26 14:22:37.689
50.0, -159644.3396382737, 31100.843083958996, -49358.19498994291, -39639.76825949768, 2568.662472803888, -13688.767098041428, -187500.02235174447, -503.361285133515, 5568.020709517087, -33899.16973104116, -722.2966220732477, -20862.47007399441, -23919.562866635664, -21288.874302968303, -26753.048807746032, -41098.71132358448, 0.014, 1.012, 0.038, 192.0, 0.0, 0.0, 0.0, 0.0, 0.0, 0.0, 0.0, 0.0, 0.0, 1.695756157689872E9, 0.0, 2023-09-26 14:22:37.689
52.0, -159629.65454216654, 31107.772124740142, -49362.26300743378, -39648.73130902425, 2565.399118113413, -13694.623255088718, -187500.02235174447, -487.9162297148979, 5578.995416044643, -33887.12214077975, -716.2169475814042, -20851.830643633682, -23913.21497121036, -21286.661480267227, -26745.58332509796, -41090.195308947004, 0.014, 1.012, 0.038, 192.0, 0.0, 0.0, 0.0, 0.0, 0.0, 0.0, 0.0, 0.0, 0.0, 1.695756157689883E9, 0.0, 2023-09-26 14:22:37.689
54.0, -159651.44749301046, 31098.83142695802, -49363.31353942318, -39653.291064893136, 2556.5031238202005, -13706.313217438845, -187500.02235174447, -506.490529357258, 5566.0090525161095, -33904.82472238836, -734.7465437348537, -20863.632364706085, -23924.97198879385, -21305.16872467622, -26763.777645084578, -41109.12723650065, 0.014, 1.012, 0.038, 192.0, 0.0, 0.0, 0.0, 0.0, 0.0, 0.0, 0.0, 0.0, 0.0, 1.695756157689892E9, 0.0, 2023-09-26 14:22:37.689
56.0, -159633.32022825722, 31108.219159629247, -49361.27953067774, -39651.30175963661, 2557.0619174315834, -13705.75442382746, -187500.02235174447, -508.1445584469508, 5571.686395607758, -33896.17459728415, -725.8281976971863, -20856.41275124702, -23923.02738702624, -21299.334919373385, -26766.035171274565, -41111.675335368556, 0.014, 1.012, 0.038, 192.0, 0.0, 0.0, 0.0, 0.0, 0.0, 0.0, 0.0, 0.0, 0.0, 1.695756157689992E9, 0.0, 2023-09-26 14:22:37.689
58.0, -159662.95864140496, 31099.524331036133, -49353.43406837393, -39644.28331187765, 2568.260141403692, -13707.251990705967, -187500.02235174447, -514.0230672386965, 5578.458974177715, -33901.44960897561, -728.28688958727, -20872.46130376593, -23917.171229978947, -21283.733401743582, -26758.10030199293, -41106.66854461057, 0.012, 1.012, 0.038, 192.0, 0.0, 48.0, 15.5, 80.0, 0.5, 24.0, 0.0, 0.0, 0.0, 1.695756157690006E9, 0.0, 2023-09-26 14:22:37.690
60.0, -159633.05200732374, 31097.78089496862, -49367.403908658496, -39658.99075972924, 2561.9569494672955, -13716.684426866106, -187500.02235174447, -510.04445672565186, 5572.625168874881, -33897.38159148474, -724.9117761745186, -20862.51477748332, -23921.21689572536, -21299.804306006947, -26761.25189796113, -41114.961041803486, 0.012, 1.012, 0.038, 192.0, 0.0, 0.0, 0.0, 0.0, 0.0, 0.0, 0.0, 0.0, 0.0, 1.695756157751482E9, 0.0, 2023-09-26 14:22:37.751
62.0, -159652.87800465562, 31080.95003139377, -49359.290225421224, -39647.56901831258, 2570.8529437605075, -13700.680577836107, -187500.02235174447, -506.7140468018111, 5565.852590304922, -33905.6517369332, -735.4617995574235, -20874.450609022453, -23927.184811494924, -21300.899541485258, -26762.704761350724, -41114.111675514185, 0.012, 1.012, 0.038, 192.0, 0.0, 0.0, 0.0, 0.0, 0.0, 0.0, 0.0, 0.0, 0.0, 1.695756157751508E9, 0.0, 2023-09-26 14:22:37.751
64.0, -159645.8819086411, 31093.556415266565, -49354.28343466323, -39643.83627698854, 2574.3398158955356, -13695.00323474446, -187500.02235174447, -500.52261358769107, 5570.8817328073665, -33904.17652179915, -725.1576453635271, -20864.41467576202, -23922.178020736937, -21285.275672110998, -26753.562897868505, -41105.439198665525, 0.012, 1.012, 0.038, 192.0, 0.0, 0.0, 0.0, 0.0, 0.0, 0.0, 0.0, 0.0, 0.0, 1.695756157751517E9, 0.0, 2023-09-26 14:22:37.751
66.0, -159668.8818536856, 31092.72940072172, -49345.00746071428, -39635.07439316206, 2574.4068711289015, -13682.955644483049, -187500.02235174447, -501.84136651055417, 5577.430793932771, -33910.21149280208, -724.7776657077868, -20877.199873590456, -23917.372395679045, -21283.97927093259, -26749.53958386655, -41095.82794854975, 0.012, 1.012, 0.038, 192.0, 0.0, 0.0, 0.0, 0.0, 0.0, 0.0, 0.0, 0.0, 0.0, 1.695756157751526E9, 0.0, 2023-09-26 14:22:37.751
68.0, -159667.00430715136, 31098.898482191384, -49344.13574268052, -39639.32122460857, 2570.6964815493207, -13688.320063152321, -187500.02235174447, -490.46432858280286, 5584.605703902925, -33900.48848396403, -713.6241452245886, -20867.342754285666, -23914.19844796639, -21282.504055798538, -26744.599848341924, -41088.742445557415, 0.008, 1.008, 0.04, 192.0, 0.0, 32.0, 15.5, 64.0, 0.5, 32.0, 0.0, 0.0, 0.0, 1.695756157751534E9, 0.0, 2023-09-26 14:22:37.751
70.0, -159684.4386678265, 31090.471874531733, -49344.91805373646, -39643.81392524409, 2568.662472803888, -13691.002272486958, -187500.02235174447, -491.783081505666, 5592.5405731845585, -33895.57110018386, -716.5298720037786, -20871.50017875435, -23905.816543795652, -21285.521541300004, -26744.28692391955, -41086.37316064515, 0.008, 1.008, 0.04, 192.0, 0.0, 0.0, 0.0, 0.0, 0.0, 0.0, 0.0, 0.0, 0.0, 1.695756157751544E9, 0.0, 2023-09-26 14:22:37.751
72.0, -159658.06360936924, 31092.505883277165, -49357.546789353706, -39655.6603498054, 2555.4078883418906, -13711.409415174654, -187500.02235174447, -487.60330529252354, 5574.368604942394, -33896.42046647316, -723.6824302294767, -20859.251422792844, -23919.942846291407, -21308.78970727798, -26760.9166217943, -41102.935803286535, 0.008, 1.008, 0.04, 192.0, 0.0, 0.0, 0.0, 0.0, 0.0, 0.0, 0.0, 0.0, 0.0, 1.695756157751552E9, 0.0, 2023-09-26 14:22:37.751
74.0, -159664.85853968366, 31091.701220476774, -49348.024946215744, -39644.976215955765, 2564.12506867946, -13706.112051738746, -187500.02235174447, -504.63533456746757, 5581.699977123735, -33898.32036475186, -723.3695058071024, -20860.324306526698, -23923.40736668198, -21313.41651838023, -26765.16345324081, -41105.573309132255, 0.008, 1.008, 0.04, 192.0, 0.0, 0.0, 0.0, 0.0, 0.0, 0.0, 0.0, 0.0, 0.0, 1.695756157751561E9, 0.0, 2023-09-26 14:22:37.751
76.0, -159681.22001662495, 31099.85960720296, -49344.29220489171, -39641.28817812064, 2578.2513711752144, -13707.676673850618, -187500.02235174447, -501.72960778827763, 5583.801041102533, -33905.78584739994, -713.3112208022143, -20868.03565836378, -23916.29951194519, -21298.17262866171, -26754.456967646714, -41102.019381763865, 0.008, 1.008, 0.04, 192.0, 0.0, 0.0, 0.0, 0.0, 0.0, 0.0, 0.0, 0.0, 0.0, 1.695756157810404E9, 0.0, 2023-09-26 14:22:37.810
78.0, -159677.8896067011, 31091.656516987863, -49353.45642011838, -39650.94413172533, 2576.3514728965133, -13718.629028633719, -187500.02235174447, -507.8539857690318, 5588.472555693693, -33891.503082692994, -708.7514649333317, -20864.235861806377, -23908.00701475227, -21303.917026986725, -26749.986618755654, -41100.94649803001, 0.016, 1.01, 0.036000000000000004, 192.0, 0.0, 64.0, 15.5, 72.0, 0.5, 16.0, 0.0, 0.0, 0.0, 1.695756157810452E9, 0.0, 2023-09-26 14:22:37.810
80.0, -159691.7476882634, 31098.87613044693, -49342.32525137964, -39637.93541645234, 2583.526382866667, -13707.922543039625, -187500.02235174447, -507.3175439021044, 5573.921570053288, -33900.04144907492, -713.065351613206, -20866.448684507453, -23913.751413077287, -21300.005471707045, -26756.178051969775, -41108.74725684491, 0.016, 1.01, 0.036000000000000004, 192.0, 0.0, 0.0, 0.0, 0.0, 0.0, 0.0, 0.0, 0.0, 0.0, 1.695756157810461E9, 0.0, 2023-09-26 14:22:37.810
82.0, -159682.27054861435, 31101.44658105929, -49346.57208282615, -39643.009262443695, 2570.919998993874, -13710.917676796636, -187500.02235174447, -508.97157299179713, 5587.779651615579, -33881.80242559939, -701.2189270518932, -20861.061914093723, -23909.30341593068, -21286.616776778315, -26748.556107110515, -41096.18557646103, 0.016, 1.01, 0.036000000000000004, 192.0, 0.0, 0.0, 0.0, 0.0, 0.0, 0.0, 0.0, 0.0, 0.0, 1.69575615781047E9, 0.0, 2023-09-26 14:22:37.810
84.0, -159675.3415078332, 31101.044249659095, -49348.76255378277, -39645.13267816695, 2562.783964012142, -13711.834098319305, -187500.02235174447, -507.25048866873846, 5567.350157183428, -33894.63232691673, -713.3559242911249, -20859.139664070568, -23929.97877955184, -21309.147335189264, -26763.82234857349, -41111.78709409083, 0.016, 1.01, 0.036000000000000004, 192.0, 0.0, 0.0, 0.0, 0.0, 0.0, 0.0, 0.0, 0.0, 0.0, 1.695756157810479E9, 0.0, 2023-09-26 14:22:37.810
86.0, -159664.79148445028, 31106.25220611718, -49343.62165255805, -39636.77312574066, 2565.5332285801446, -13698.333644668299, -187500.02235174447, -498.93563973136423, 5573.474535164182, -33888.217376258064, -710.226680067382, -20847.628515676086, -23924.01086378227, -21295.803343749445, -26753.138214723855, -41094.48684388243, 0.016, 1.01, 0.036000000000000004, 192.0, 0.0, 0.0, 0.0, 0.0, 0.0, 0.0, 0.0, 0.0, 0.0, 1.695756157810487E9, 0.0, 2023-09-26 14:22:37.810
88.0, -159673.37455432114, 31105.53695029461, -49344.538074080716, -39633.39801232791, 2566.2261326582593, -13693.818592288328, -187500.02235174447, -484.4964128132359, 5575.307378209517, -33883.41175120017, -715.4122847810131, -20856.166882058013, -23924.904933560483, -21286.348555844852, -26753.20526995722, -41089.32359091325, 0.016, 1.016, 0.034, 192.0, 0.0, 64.0, 15.5, 96.0, 0.5, 8.0, 0.0, 0.0, 0.0, 1.695756157810496E9, 0.0, 2023-09-26 14:22:37.810
90.0, -159677.19670262298, 31107.30273810658, -49337.251405388284, -39624.79259071262, 2577.781984541653, -13684.833191017295, -187500.02235174447, -493.9735524622861, 5580.604741645425, -33869.352503937786, -713.4676830134015, -20844.946306341448, -23924.033215526728, -21279.173645874696, -26755.10516823592, -41088.65303857959, 0.016, 1.016, 0.034, 192.0, 0.0, 0.0, 0.0, 0.0, 0.0, 0.0, 0.0, 0.0, 0.0, 1.695756157870656E9, 0.0, 2023-09-26 14:22:37.870
92.0, -159701.91773199054, 31095.433961800813, -49357.43503063143, -39650.497096836225, 2564.2144756572816, -13711.409415174654, -187500.02235174447, -498.4886048422581, 5585.365663214406, -33892.24069026002, -717.803921437731, -20862.69359143896, -23919.562866635664, -21281.252358109043, -26751.506537378616, -41088.13894845712, 0.016, 1.016, 0.034, 192.0, 0.0, 0.0, 0.0, 0.0, 0.0, 0.0, 0.0, 0.0, 0.0, 1.695756157870681E9, 0.0, 2023-09-26 14:22:37.870
94.0, -159679.6330427686, 31087.588499497, -49363.24648418981, -39661.09182370804, 2562.3816326119463, -13719.031360033914, -187500.02235174447, -513.1066457160289, 5556.688375078246, -33886.60805065728, -732.4443140559572, -20855.116350068613, -23940.394692468013, -21309.415556122727, -26777.81454060251, -41116.972698804464, 0.016, 1.016, 0.034, 192.0, 0.0, 0.0, 0.0, 0.0, 0.0, 0.0, 0.0, 0.0, 0.0, 1.695756157870691E9, 0.0, 2023-09-26 14:22:37.870
96.0, -159704.8011070253, 31076.993772625185, -49358.61967308756, -39655.63799806094, 2567.1872576698374, -13715.231563476511, -187500.02235174447, -505.395293878948, 5565.67377634928, -33913.944234126124, -737.1828838804822, -20881.111428870136, -23928.92824756244, -21317.439832382184, -26769.991430043156, -41107.02617252185, 0.016, 1.016, 0.034, 192.0, 0.0, 0.0, 0.0, 0.0, 0.0, 0.0, 0.0, 0.0, 0.0, 1.6957561578707E9, 0.0, 2023-09-26 14:22:37.870
98.0, -159687.61261553917, 31081.19590058278, -49353.121143951554, -39650.072413691574, 2570.584722827044, -13707.386101172699, -187500.02235174447, -499.02504670918546, 5561.002261758121, -33908.71392592358, -727.4598750424236, -20872.014268876825, -23928.3471022066, -21307.090974699375, -26769.946726554244, -41105.05921900979, 0.016, 1.014, 0.032, 192.0, 0.0, 64.0, 15.5, 88.0, 0.5, 0.0, 0.0, 0.0, 0.0, 1.695756157870709E9, 0.0, 2023-09-26 14:22:37.870
100.0, -159707.7515372934, 31077.172586580826, -49347.84613226011, -39646.31732062308, 2571.3670338829797, -13712.795223330882, -187500.02235174447, -501.77431127718825, 5564.086802492953, -33919.37570802876, -729.7844564657756, -20883.480713782395, -23923.988512037817, -21308.186210177686, -26766.325743952482, -41101.03590500783, 0.016, 1.014, 0.032, 192.0, 0.0, 0.0, 0.0, 0.0, 0.0, 0.0, 0.0, 0.0, 0.0, 1.695756157870747E9, 0.0, 2023-09-26 14:22:37.870
102.0, -159690.31717661826, 31091.276537332124, -49344.38161186953, -39640.774087998165, 2569.2436181597254, -13715.700950110073, -187500.02235174447, -510.8938230149535, 5572.871038063889, -33897.26983276246, -720.1955580944489, -20861.50894898283, -23926.134279505528, -21307.247436910562, -26767.39862768634, -41105.573309132255, 0.016, 1.014, 0.032, 192.0, 0.0, 0.0, 0.0, 0.0, 0.0, 0.0, 0.0, 0.0, 0.0, 1.695756157870756E9, 0.0, 2023-09-26 14:22:37.870
104.0, -159726.01291251337, 31095.657479245365, -49331.86463497456, -39629.41940181487, 2579.1901444423374, -13708.056653506357, -187500.02235174447, -509.5080148587245, 5584.069262035998, -33897.11337055128, -711.7018952014322, -20869.980260131393, -23916.5453811342, -21288.851951223845, -26757.273287448086, -41095.157396216084, 0.016, 1.014, 0.032, 192.0, 0.0, 0.0, 0.0, 0.0, 0.0, 0.0, 0.0, 0.0, 0.0, 1.695756157870765E9, 0.0, 2023-09-26 14:22:37.870
106.0, -159675.00623166637, 31102.273595604136, -49345.90153049249, -39645.669120033876, 2563.5662750680776, -13723.389950202698, -187500.02235174447, -495.4040641074257, 5576.5143724101035, -33875.99097204101, -700.1683950624937, -20840.69947489494, -23929.285875473724, -21289.611910535325, -26763.352961939927, -41104.52277714286, 0.016, 1.014, 0.032, 192.0, 0.0, 0.0, 0.0, 0.0, 0.0, 0.0, 0.0, 0.0, 0.0, 1.695756157930928E9, 0.0, 2023-09-26 14:22:37.930
108.0, -159692.6864615305, 31096.01510715665, -49340.00066995629, -39640.25999787569, 2566.2708361471696, -13716.125633254724, -187500.02235174447, -499.1144536870067, 5572.021671774587, -33886.58569891282, -709.2655550558037, -20851.40596048903, -23933.242134242315, -21301.83831475238, -26766.97394454169, -41104.254556209395, 0.014, 1.016, 0.03, 192.0, 0.0, 56.0, 15.5, 96.0, 0.0, 120.0, 0.0, 0.0, 0.0, 1.695756157930958E9, 0.0, 2023-09-26 14:22:37.930
110.0, -159670.42412405304, 31105.82752297253, -49341.00649845678, -39639.79061124213, 2569.3106733930917, -13707.654322106162, -187500.02235174447, -498.28743914216034, 5576.022634032087, -33885.89279483471, -712.0595231127171, -20848.27671626529, -23932.92920981994, -21297.323262372407, -26764.87288056289, -41100.343000929715, 0.014, 1.016, 0.03, 192.0, 0.0, 0.0, 0.0, 0.0, 0.0, 0.0, 0.0, 0.0, 0.0, 1.695756157930989E9, 0.0, 2023-09-26 14:22:37.930
112.0, -159703.12472619113, 31098.339688580003, -49332.84811173059, -39629.68762274833, 2576.776156041164, -13694.556199855353, -187500.02235174447, -500.81318626561006, 5580.180058500774, -33897.716867651565, -715.546395247745, -20867.901547897047, -23924.033215526728, -21294.395183848763, -26758.122653737388, -41087.6472100791, 0.014, 1.016, 0.03, 192.0, 0.0, 0.0, 0.0, 0.0, 0.0, 0.0, 0.0, 0.0, 0.0, 1.695756157931005E9, 0.0, 2023-09-26 14:22:37.931
114.0, -159672.10050488717, 31101.781857226117, -49344.58277756963, -39636.79547748512, 2565.5555803245998, -13705.106223238257, -187500.02235174447, -486.8656977254984, 5583.063433535509, -33886.965678568566, -709.1314445890719, -20858.022076847803, -23929.26352372927, -21295.378660604794, -26759.642572360346, -41089.636515335624, 0.014, 1.016, 0.03, 192.0, 0.0, 0.0, 0.0, 0.0, 0.0, 0.0, 0.0, 0.0, 0.0, 1.695756157931015E9, 0.0, 2023-09-26 14:22:37.931
116.0, -159703.23648491342, 31102.184188626314, -49328.71303900636, -39620.434000543835, 2576.84321127453, -13692.097507965269, -187500.02235174447, -490.9560669608196, 5580.20241024523, -33888.06091404687, -718.9215086604963, -20865.50991124033, -23921.999206781293, -21280.53710228647, -26754.904002535823, -41081.187555931516, 0.014, 1.016, 0.03, 192.0, 0.0, 0.0, 0.0, 0.0, 0.0, 0.0, 0.0, 0.0, 0.0, 1.695756157931024E9, 0.0, 2023-09-26 14:22:37.931
118.0, -159683.41048758157, 31101.71480199275, -49341.85586474608, -39631.632224515946, 2567.5672373255775, -13707.207287217056, -187500.02235174447, -484.8763924689761, 5575.262674720607, -33885.08813203432, -713.1994620799378, -20859.676105937495, -23926.134279505528, -21284.40395407724, -26755.731017080667, -41084.31680015526, 0.018000000000000002, 1.012, 0.034, 192.0, 0.0, 72.0, 15.5, 80.0, 0.5, 8.0, 0.0, 0.0, 0.0, 1.695756157931033E9, 0.0, 2023-09-26 14:22:37.931
120.0, -159690.5853975517, 31089.53310126461, -49342.05703044618, -39628.92766343685, 2561.778135511653, -13702.938104026092, -187500.02235174447, -501.9084217439201, 5550.407534886305, -33883.97054481156, -726.2975843307477, -20861.21837630491, -23936.59489591061, -21287.91317795672, -26772.517177166603, -41096.52085262786, 0.018000000000000002, 1.012, 0.034, 192.0, 0.0, 0.0, 0.0, 0.0, 0.0, 0.0, 0.0, 0.0, 0.0, 1.69575615798985E9, 0.0, 2023-09-26 14:22:37.989
122.0, -159700.91190349008, 31094.182264111314, -49339.12895192253, -39626.446619802315, 2571.0541094606056, -13702.938104026092, -187500.02235174447, -492.3418751170487, 5560.57757861347, -33893.98412632753, -716.7980929372422, -20869.399114775555, -23927.11775626156, -21276.133808628776, -26763.598831128937, -41085.99318098941, 0.018000000000000002, 1.012, 0.034, 192.0, 0.0, 0.0, 0.0, 0.0, 0.0, 0.0, 0.0, 0.0, 0.0, 1.695756157989913E9, 0.0, 2023-09-26 14:22:37.989
124.0, -159699.7943162673, 31089.86837743144, -49341.587643812614, -39632.14631463842, 2568.640121059432, -13707.60961861725, -187500.02235174447, -501.19316592135027, 5558.208293701207, -33877.108559263776, -724.5317965187785, -20862.112446083123, -23939.67943664544, -21290.662442524725, -26771.801921344035, -41097.83960555072, 0.018000000000000002, 1.012, 0.034, 192.0, 0.0, 0.0, 0.0, 0.0, 0.0, 0.0, 0.0, 0.0, 0.0, 1.695756157989922E9, 0.0, 2023-09-26 14:22:37.989
126.0, -159719.28503743233, 31104.35230783848, -49330.76939949625, -39621.99862265571, 2585.22511544527, -13696.657263834151, -187500.02235174447, -489.39144484894814, 5561.404593158316, -33887.859748346775, -718.7426947048539, -20874.271795066812, -23918.579389879633, -21277.430209807186, -26754.25580194662, -41080.785224531326, 0.018000000000000002, 1.012, 0.034, 192.0, 0.0, 0.0, 0.0, 0.0, 0.0, 0.0, 0.0, 0.0, 0.0, 1.69575615798993E9, 0.0, 2023-09-26 14:22:37.989
128.0, -159682.91874920356, 31097.512674035155, -49350.7965625282, -39637.39897458541, 2559.6994232773095, -13708.458984906554, -187500.02235174447, -496.9016309859313, 5543.165569682786, -33860.523564877934, -724.6659069855103, -20854.311687268222, -23919.36170093557, -21275.64207025076, -26761.028380516575, -41095.67148633856, 0.014, 1.012, 0.036000000000000004, 192.0, 0.0, 56.0, 15.5, 80.0, 0.5, 16.0, 0.0, 0.0, 0.0, 1.695756157989941E9, 0.0, 2023-09-26 14:22:37.989
130.0, -159694.83222899822, 31097.557377524066, -49346.66148980397, -39634.336785595035, 2564.6615105463875, -13698.199534201567, -187500.02235174447, -495.0687879405961, 5538.874034747367, -33878.6955331201, -734.2995088457476, -20862.44772224995, -23909.68339558642, -21273.451599294138, -26765.141101496352, -41094.30802992678, 0.014, 1.012, 0.036000000000000004, 192.0, 0.0, 0.0, 0.0, 0.0, 0.0, 0.0, 0.0, 0.0, 0.0, 1.69575615798995E9, 0.0, 2023-09-26 14:22:37.989
132.0, -159694.27343538683, 31105.693412505796, -49350.058954961176, -39637.57778854106, 2556.9948621982176, -13694.869124277726, -187500.02235174447, -502.6460293109452, 5569.495924651137, -33866.17855622513, -732.5560727782337, -20859.11731232611, -23900.362718148557, -21267.30486956893, -26765.47637766318, -41095.33621017173, 0.014, 1.012, 0.036000000000000004, 192.0, 0.0, 0.0, 0.0, 0.0, 0.0, 0.0, 0.0, 0.0, 0.0, 1.695756157989959E9, 0.0, 2023-09-26 14:22:37.989
134.0, -159696.5980168102, 31092.39412455489, -49360.85484753309, -39650.69826253632, 2548.5682545385666, -13698.020720245924, -187500.02235174447, -488.3409128595487, 5542.2938516490285, -33878.67318137565, -734.9924129238622, -20869.197949075457, -23900.02744198173, -21273.630413249783, -26773.232432989174, -41100.208890462985, 0.014, 1.012, 0.036000000000000004, 192.0, 0.0, 0.0, 0.0, 0.0, 0.0, 0.0, 0.0, 0.0, 0.0, 1.695756157989968E9, 0.0, 2023-09-26 14:22:37.989
136.0, -159663.18215884952, 31086.29209831859, -49369.504972637296, -39661.49415510824, 2544.0532021585946, -13703.027511003913, -187500.02235174447, -493.750035017733, 5511.336685578428, -33867.385550425715, -736.0652966577169, -20858.335001270178, -23907.62703509653, -21282.16877963171, -26779.78149411458, -41108.94842254501, 0.014, 1.012, 0.036000000000000004, 192.0, 0.0, 0.0, 0.0, 0.0, 0.0, 0.0, 0.0, 0.0, 0.0, 1.69575615805018E9, 0.0, 2023-09-26 14:22:38.050
138.0, -159678.91778694605, 31087.54379600809, -49367.470963891865, -39654.29689339363, 2553.1280104074494, -13691.628121331707, -187500.02235174447, -488.9667617042973, 5533.0178777000765, -33879.63430638723, -745.38597409558, -20873.645946222063, -23891.466723855345, -21267.416628291205, -26766.750427097137, -41097.43727415053, 0.008, 1.008, 0.038, 192.0, 0.0, 32.0, 15.5, 64.0, 0.5, 24.0, 0.0, 0.0, 0.0, 1.695756158050204E9, 0.0, 2023-09-26 14:22:38.050
140.0, -159661.684591971, 31089.75661870916, -49368.29797843671, -39647.72548052377, 2556.8383999870302, -13685.101411950758, -187500.02235174447, -491.3136948721045, 5543.612604571892, -33860.32239917784, -736.7358489913761, -20862.380667016587, -23886.996374964285, -21261.985154388567, -26757.697970592737, -41093.838643293224, 0.008, 1.008, 0.038, 192.0, 0.0, 0.0, 0.0, 0.0, 0.0, 0.0, 0.0, 0.0, 0.0, 1.695756158050214E9, 0.0, 2023-09-26 14:22:38.050
142.0, -159684.32690910422, 31086.58267099651, -49378.95976054189, -39652.12877418146, 2552.6362720294323, -13691.426955631609, -187500.02235174447, -486.7092355143113, 5561.248130947129, -33873.21935572855, -732.4890175448678, -20877.66926022402, -23873.04888642417, -21252.865642650802, -26745.9633047537, -41085.27792516684, 0.008, 1.008, 0.038, 192.0, 0.0, 0.0, 0.0, 0.0, 0.0, 0.0, 0.0, 0.0, 0.0, 1.695756158050223E9, 0.0, 2023-09-26 14:22:38.050
144.0, -159666.26669958435, 31087.499092519178, -49378.445670419416, -39646.87611423447, 2560.2135133997817, -13684.855542761748, -187500.02235174447, -498.8238810090877, 5544.3502121389165, -33858.13192822122, -733.6960117454544, -20852.903527367536, -23891.556130833167, -21272.602233004836, -26759.977848527178, -41110.84832082371, 0.008, 1.008, 0.038, 192.0, 0.0, 0.0, 0.0, 0.0, 0.0, 0.0, 0.0, 0.0, 0.0, 1.695756158050262E9, 0.0, 2023-09-26 14:22:38.050
146.0, -159715.12761296364, 31088.72843846422, -49379.09387100862, -39641.77991649866, 2565.354414624502, -13680.586359570785, -187500.02235174447, -491.60426755002356, 5563.997395515132, -33882.964716311064, -722.1625116065159, -20880.977318403402, -23860.934240929397, -21249.334067026863, -26724.95266496571, -41086.84254727871, 0.008, 1.008, 0.038, 192.0, 0.0, 0.0, 0.0, 0.0, 0.0, 0.0, 0.0, 0.0, 0.0, 1.695756158050271E9, 0.0, 2023-09-26 14:22:38.050
148.0, -159682.4940660589, 31089.644859986885, -49394.13659502704, -39653.13460268195, 2551.4739813177566, -13689.795278286372, -187500.02235174447, -493.7053315288224, 5549.401706385816, -33851.381701395716, -724.934127918974, -20855.786902402273, -23878.234491137802, -21261.15813984372, -26733.468679603182, -41105.170977732065, 0.014, 1.008, 0.036000000000000004, 192.0, 0.0, 56.0, 15.5, 64.0, 0.5, 16.0, 0.0, 0.0, 0.0, 1.69575615805028E9, 0.0, 2023-09-26 14:22:38.050
150.0, -159690.8983219741, 31088.48256927521, -49395.432996205454, -39650.139468924935, 2541.996841668706, -13687.984786985493, -187500.02235174447, -490.71019777181124, 5548.999374985621, -33861.3952829117, -735.3276890906917, -20863.788826917273, -23878.368601604536, -21262.07456136639, -26729.33360687895, -41102.8016928198, 0.014, 1.008, 0.036000000000000004, 192.0, 0.0, 0.0, 0.0, 0.0, 0.0, 0.0, 0.0, 0.0, 0.0, 1.695756158110485E9, 0.0, 2023-09-26 14:22:38.110
152.0, -159660.61170823715, 31096.618604256942, -49386.53700191224, -39638.31539610808, 2542.622690513455, -13677.501818835954, -187500.02235174447, -488.3185611150934, 5542.159741182297, -33850.75585255097, -731.2820233442811, -20839.112501038613, -23888.270424398237, -21265.516730012507, -26735.27917090406, -41108.97077428947, 0.014, 1.008, 0.036000000000000004, 192.0, 0.0, 0.0, 0.0, 0.0, 0.0, 0.0, 0.0, 0.0, 0.0, 1.695756158110516E9, 0.0, 2023-09-26 14:22:38.110
154.0, -159683.5445980483, 31101.11130489246, -49380.36792044257, -39629.68762274833, 2543.7626294806755, -13678.485295591987, -187500.02235174447, -490.5760873050794, 5571.462878163205, -33864.591582368805, -721.1790348504824, -20853.46232097892, -23870.858415467552, -21243.142633812742, -26715.72139450567, -41087.17782344554, 0.014, 1.008, 0.036000000000000004, 192.0, 0.0, 0.0, 0.0, 0.0, 0.0, 0.0, 0.0, 0.0, 0.0, 1.695756158110525E9, 0.0, 2023-09-26 14:22:38.110
156.0, -159650.41931276553, 31103.63705201591, -49383.43010943295, -39635.2085036288, 2542.8909114469184, -13684.94494973957, -187500.02235174447, -487.9162297148979, 5562.164552469797, -33851.31464616235, -715.6581539700215, -20830.708245123416, -23879.4861888273, -21251.859814150313, -26727.947798722722, -41099.53833812933, 0.014, 1.008, 0.036000000000000004, 192.0, 0.0, 0.0, 0.0, 0.0, 0.0, 0.0, 0.0, 0.0, 0.0, 1.695756158110534E9, 0.0, 2023-09-26 14:22:38.110
158.0, -159673.41925781005, 31095.076333889527, -49382.357225699096, -39633.643881516924, 2550.065821417072, -13676.048955446358, -187500.02235174447, -483.2447151237387, 5568.981834528665, -33854.0415589859, -722.676601728988, -20844.096940052146, -23874.881729469507, -21252.39625601724, -26722.404566097804, -41094.822120049255, 0.014, 1.01, 0.038, 192.0, 0.0, 56.0, 15.5, 72.0, 0.5, 24.0, 0.0, 0.0, 0.0, 1.695756158110543E9, 0.0, 2023-09-26 14:22:38.110
160.0, -159665.37262980614, 31100.06077290306, -49383.67597862196, -39635.29791060661, 2562.2475221452146, -13676.630100802196, -187500.02235174447, -483.3564738460152, 5559.236473946152, -33854.57800085282, -719.7932266942533, -20842.912297596016, -23878.927395215916, -21261.49341601055, -26720.459964330195, -41096.0514659943, 0.014, 1.01, 0.038, 192.0, 0.0, 0.0, 0.0, 0.0, 0.0, 0.0, 0.0, 0.0, 0.0, 1.695756158110552E9, 0.0, 2023-09-26 14:22:38.110
162.0, -159679.7895049798, 31096.372735067933, -49393.398987460016, -39645.02091944467, 2557.1289726649493, -13684.766135783928, -187500.02235174447, -485.1222616579845, 5555.749601811123, -33866.35737018077, -725.9623081639181, -20860.816044904717, -23875.239357380793, -21252.44095950615, -26720.370557352373, -41095.76089331638, 0.014, 1.01, 0.038, 192.0, 0.0, 0.0, 0.0, 0.0, 0.0, 0.0, 0.0, 0.0, 0.0, 1.695756158110561E9, 0.0, 2023-09-26 14:22:38.110
164.0, -159653.48150175592, 31103.01120317116, -49406.8100341332, -39657.58259982856, 2543.270891102659, -13698.445403390575, -187500.02235174447, -481.52363080068005, 5542.1150376933865, -33866.11150099176, -728.1080756316276, -20849.059027321226, -23894.752430290275, -21262.722761955592, -26732.798127269525, -41108.00964927788, 0.014, 1.01, 0.038, 192.0, 0.0, 0.0, 0.0, 0.0, 0.0, 0.0, 0.0, 0.0, 0.0, 1.695756158110595E9, 0.0, 2023-09-26 14:22:38.110
166.0, -159663.67389722753, 31096.81976995704, -49393.42133920448, -39645.80323050061, 2545.9307486928406, -13692.142211454178, -187500.02235174447, -490.15140416042857, 5542.495017349126, -33871.162995238665, -736.1100001466275, -20853.46232097892, -23905.950654262382, -21268.333049813875, -26739.39189188384, -41112.56940514677, 0.014, 1.01, 0.038, 192.0, 0.0, 0.0, 0.0, 0.0, 0.0, 0.0, 0.0, 0.0, 0.0, 1.69575615817076E9, 0.0, 2023-09-26 14:22:38.170
168.0, -159642.35033301715, 31099.971365925237, -49392.281400237254, -39647.23374214575, 2540.633385256933, -13694.556199855353, -187500.02235174447, -480.54015404464656, 5556.777782056068, -33867.56436438136, -728.4210000540019, -20841.50413769533, -23905.660081584465, -21266.522558512996, -26735.569743581982, -41109.37310568966, 0.012, 1.016, 0.032, 192.0, 0.0, 48.0, 15.5, 96.0, 0.5, 0.0, 0.0, 0.0, 0.0, 1.69575615817078E9, 0.0, 2023-09-26 14:22:38.170
170.0, -159662.37749604913, 31102.944147937793, -49371.58368487164, -39626.312509335585, 2553.664452274377, -13672.450324589054, -187500.02235174447, -494.0182559511967, 5555.48138087766, -33864.90450679118, -725.9846599083734, -20849.573117443695, -23896.92054950244, -21257.805378175424, -26735.14506043733, -41098.82308230676, 0.012, 1.016, 0.032, 192.0, 0.0, 0.0, 0.0, 0.0, 0.0, 0.0, 0.0, 0.0, 0.0, 1.695756158170789E9, 0.0, 2023-09-26 14:22:38.170
172.0, -159655.29199305677, 31102.631223515422, -49386.44759493442, -39644.059794433095, 2544.6343475144326, -13684.073231705814, -187500.02235174447, -494.21942165129445, 5552.150970953819, -33869.10663474877, -718.2956598157477, -20852.568251200708, -23893.165456433948, -21243.567316957393, -26735.90501974881, -41096.58790786123, 0.012, 1.016, 0.032, 192.0, 0.0, 0.0, 0.0, 0.0, 0.0, 0.0, 0.0, 0.0, 0.0, 1.695756158170798E9, 0.0, 2023-09-26 14:22:38.170
174.0, -159651.38043777712, 31088.57197625303, -49390.113281025086, -39652.48640209275, 2545.327251592547, -13686.241350917979, -187500.02235174447, -516.0347242396741, 5544.19374992773, -33860.7917858114, -733.2936803452588, -20848.611992432117, -23909.72809907533, -21266.656668979726, -26758.68144734877, -41120.616033150676, 0.012, 1.016, 0.032, 192.0, 0.0, 0.0, 0.0, 0.0, 0.0, 0.0, 0.0, 0.0, 0.0, 1.695756158170807E9, 0.0, 2023-09-26 14:22:38.170
176.0, -159653.10152210016, 31084.213386084248, -49384.27947572225, -39651.14529742543, 2552.2786441181474, -13686.397813129166, -187500.02235174447, -492.4312820948699, 5559.437639646249, -33869.8442423158, -728.1751308649934, -20866.60514671864, -23897.412287880456, -21263.236852078066, -26746.790319298547, -41110.22247197896, 0.012, 1.016, 0.032, 192.0, 0.0, 0.0, 0.0, 0.0, 0.0, 0.0, 0.0, 0.0, 0.0, 1.695756158170816E9, 0.0, 2023-09-26 14:22:38.170
178.0, -159659.58352799222, 31085.06275237355, -49368.34268192562, -39636.46020131829, 2565.644987302421, -13677.457115347042, -187500.02235174447, -494.80056700713243, 5574.659177620313, -33865.23978295801, -724.5094447743231, -20860.190196059968, -23890.438543610402, -21265.807302690424, -26738.58722908345, -41100.901794541096, 0.01, 1.016, 0.032, 192.0, 0.0, 40.0, 15.5, 96.0, 0.5, 0.0, 0.0, 0.0, 0.0, 1.695756158170824E9, 0.0, 2023-09-26 14:22:38.170
180.0, -159671.85463569817, 31084.48160701771, -49368.230923203344, -39634.11326815048, 2565.130897179949, -13687.80597302985, -187500.02235174447, -500.52261358769107, 5578.593084644447, -33880.886004076725, -719.7485232053427, -20862.64888795005, -23891.690241299897, -21272.088142882367, -26734.452156359217, -41097.32551542825, 0.01, 1.016, 0.032, 192.0, 0.0, 0.0, 0.0, 0.0, 0.0, 0.0, 0.0, 0.0, 0.0, 1.695756158231082E9, 0.0, 2023-09-26 14:22:38.231
182.0, -159672.34637407618, 31085.956822151762, -49363.71587082337, -39625.08316339054, 2565.0191384576724, -13685.66020556214, -187500.02235174447, -504.23300316727205, 5575.2850264650615, -33867.98904752601, -716.9098516595187, -20853.529376212286, -23887.286947642202, -21262.096913110843, -26725.80203125501, -41091.670524081055, 0.01, 1.016, 0.032, 192.0, 0.0, 0.0, 0.0, 0.0, 0.0, 0.0, 0.0, 0.0, 0.0, 1.695756158231103E9, 0.0, 2023-09-26 14:22:38.231
184.0, -159671.1393798756, 31077.6866767033, -49380.94906579841, -39642.29400662112, 2549.9540626947955, -13700.635874347196, -187500.02235174447, -501.2825728991715, 5569.384165928861, -33875.05219877389, -725.3588110636248, -20852.054161078235, -23901.43560188241, -21274.92681442819, -26729.892400490335, -41096.02911424984, 0.01, 1.016, 0.032, 192.0, 0.0, 0.0, 0.0, 0.0, 0.0, 0.0, 0.0, 0.0, 0.0, 1.695756158231112E9, 0.0, 2023-09-26 14:22:38.231
186.0, -159645.81485340773, 31069.99767661067, -49393.130766526556, -39655.34742538303, 2543.4273533138457, -13705.32974068281, -187500.02235174447, -510.5361951036686, 5555.235511688651, -33868.36902718175, -729.7844564657756, -20842.912297596016, -23913.818468310652, -21280.49239879756, -26747.662037332302, -41110.982431290446, 0.01, 1.016, 0.032, 192.0, 0.0, 0.0, 0.0, 0.0, 0.0, 0.0, 0.0, 0.0, 0.0, 1.695756158231147E9, 0.0, 2023-09-26 14:22:38.231
188.0, -159671.1393798756, 31059.492356716677, -49396.03649330574, -39662.54468709764, 2546.511894048678, -13705.352092427265, -187500.02235174447, -516.9511457623418, 5554.475552377171, -33899.48265546354, -737.5628635362225, -20864.481730995387, -23918.601741624087, -21287.60025353435, -26758.077950248477, -41118.26909998287, 0.01, 1.014, 0.032, 192.0, 0.0, 40.0, 15.5, 88.0, 0.5, 0.0, 0.0, 0.0, 0.0, 1.695756158231156E9, 0.0, 2023-09-26 14:22:38.231
190.0, -159663.11510361615, 31061.459310228744, -49393.01900780428, -39663.10348070902, 2551.518684806667, -13700.993502258481, -187500.02235174447, -520.7062388308333, 5559.504694879615, -33888.95498382509, -735.2159303684152, -20864.392324017565, -23913.68435784392, -21289.723669257604, -26761.698932850235, -41118.20204474951, 0.01, 1.014, 0.032, 192.0, 0.0, 0.0, 0.0, 0.0, 0.0, 0.0, 0.0, 0.0, 0.0, 1.69575615823117E9, 0.0, 2023-09-26 14:22:38.231
192.0, -159683.92457770402, 31060.162909050337, -49387.34166471263, -39659.169573684885, 2553.329176107547, -13696.14317371168, -187500.02235174447, -521.2426806977606, 5550.519293608581, -33899.192082785616, -745.318918862214, -20878.65273698005, -23922.513296903766, -21289.433096579683, -26768.44915967574, -41125.89104484213, 0.01, 1.014, 0.032, 192.0, 0.0, 0.0, 0.0, 0.0, 0.0, 0.0, 0.0, 0.0, 0.0, 1.695756158231181E9, 0.0, 2023-09-26 14:22:38.231
194.0, -159656.96837389094, 31067.82955739851, -49391.27557173676, -39664.556344098615, 2544.3884783254243, -13702.04403424788, -187500.02235174447, -518.2698986852049, 5554.05086923252, -33886.49629193501, -734.6347850125773, -20865.88989089607, -23916.59008462311, -21281.766448231512, -26760.000200271632, -41118.04558253832, 0.01, 1.014, 0.032, 192.0, 0.0, 0.0, 0.0, 0.0, 0.0, 0.0, 0.0, 0.0, 0.0, 1.695756158231189E9, 0.0, 2023-09-26 14:22:38.231
196.0, -159660.07526637023, 31061.01227533964, -49397.89168809554, -39670.01016974571, 2536.677126488343, -13710.71651109654, -187500.02235174447, -516.6829248288781, 5545.870130761878, -33898.47682696305, -747.2188171409151, -20874.271795066812, -23931.40929119698, -21296.473896083106, -26768.672677120292, -41129.17675127706, 0.01, 1.014, 0.032, 192.0, 0.0, 0.0, 0.0, 0.0, 0.0, 0.0, 0.0, 0.0, 0.0, 1.695756158290368E9, 0.0, 2023-09-26 14:22:38.290
198.0, -159651.15692033255, 31071.62935395591, -49383.38540594404, -39656.777937028164, 2550.0211179281614, -13700.010025502448, -187500.02235174447, -521.4438463978585, 5557.67185183428, -33889.93846058112, -739.7086310039319, -20861.03956234927, -23930.470517929854, -21285.610948277827, -26767.465682919705, -41127.03098380935, 0.008, 1.014, 0.03, 192.0, 0.0, 32.0, 15.5, 88.0, 0.0, 120.0, 0.0, 0.0, 0.0, 1.695756158290387E9, 0.0, 2023-09-26 14:22:38.290
200.0, -159691.9935574524, 31075.518557491134, -49374.95879828439, -39647.74783226822, 2557.3971935984127, -13693.103336465758, -187500.02235174447, -520.0133347527188, 5564.779706571067, -33901.628422931244, -732.1313896335828, -20883.2795480823, -23912.20914270987, -21271.819921948903, -26751.439482145248, -41109.39545743412, 0.008, 1.014, 0.03, 192.0, 0.0, 0.0, 0.0, 0.0, 0.0, 0.0, 0.0, 0.0, 0.0, 1.695756158290397E9, 0.0, 2023-09-26 14:22:38.290
202.0, -159667.76426646285, 31082.782874439108, -49380.904362309506, -39652.732271281755, 2550.4681528172678, -13701.261723191945, -187500.02235174447, -524.5507388771462, 5553.29090992104, -33884.52933842294, -730.4103053105242, -20862.47007399441, -23922.110965503573, -21281.252358109043, -26760.693104349746, -41120.124294772664, 0.008, 1.014, 0.03, 192.0, 0.0, 0.0, 0.0, 0.0, 0.0, 0.0, 0.0, 0.0, 0.0, 1.695756158290406E9, 0.0, 2023-09-26 14:22:38.290
204.0, -159685.39979283808, 31083.654592472863, -49379.496202408816, -39647.74783226822, 2539.2028736117927, -13698.735976068494, -187500.02235174447, -511.85494802653176, 5560.041136746542, -33896.28635600643, -730.834988455175, -20875.903472412047, -23913.21497121036, -21273.809227205424, -26755.44044440275, -41106.13210274364, 0.008, 1.014, 0.03, 192.0, 0.0, 0.0, 0.0, 0.0, 0.0, 0.0, 0.0, 0.0, 0.0, 1.695756158290415E9, 0.0, 2023-09-26 14:22:38.290
206.0, -159649.12291158712, 31085.53213900711, -49383.45246117741, -39650.47474509177, 2534.5984142539996, -13701.842868547783, -187500.02235174447, -514.3359916610708, 5556.487209378149, -33880.595431398804, -720.2849650722701, -20851.920050611505, -23931.40929119698, -21280.06771565291, -26768.62797363138, -41115.922166815064, 0.008, 1.014, 0.03, 192.0, 0.0, 0.0, 0.0, 0.0, 0.0, 0.0, 0.0, 0.0, 0.0, 1.695756158290424E9, 0.0, 2023-09-26 14:22:38.290
208.0, -159679.16365613506, 31078.603098225965, -49368.588551114626, -39638.87418971946, 2548.9705859387623, -13689.437650375086, -187500.02235174447, -518.7392853187663, 5572.066375263497, -33883.85878608928, -718.2956598157477, -20867.521568241307, -23916.29951194519, -21269.852968436833, -26756.848604303435, -41101.61705036367, 0.01, 1.022, 0.03, 192.0, 0.0, 40.0, 15.5, 120.0, 0.0, 120.0, 0.0, 0.0, 0.0, 1.69575615829046E9, 0.0, 2023-09-26 14:22:38.290
210.0, -159638.6399434376, 31078.692505203788, -49387.945161812924, -39662.432928375354, 2535.5818910100334, -13712.124670997224, -187500.02235174447, -520.9297562753864, 5562.097497236431, -33876.683876119125, -719.18972959396, -20852.41178898952, -23916.657139856477, -21291.22123613611, -26763.576479384483, -41117.97852730496, 0.01, 1.022, 0.03, 192.0, 0.0, 0.0, 0.0, 0.0, 0.0, 0.0, 0.0, 0.0, 0.0, 1.695756158350221E9, 0.0, 2023-09-26 14:22:38.350
212.0, -159665.59614725068, 31077.418455769835, -49374.936446539934, -39653.93926548234, 2549.037641172128, -13706.38027267221, -187500.02235174447, -522.3379161760707, 5558.387107656849, -33897.38159148474, -724.2635755853147, -20865.196986817955, -23913.326729932636, -21285.052154666442, -26753.898174035334, -41114.245785980915, 0.01, 1.022, 0.03, 192.0, 0.0, 0.0, 0.0, 0.0, 0.0, 0.0, 0.0, 0.0, 0.0, 1.69575615835027E9, 0.0, 2023-09-26 14:22:38.350
214.0, -159648.69822844246, 31074.870356901927, -49382.558391399194, -39663.57286734258, 2554.580873797044, -13715.544487898886, -187500.02235174447, -515.7217998172998, 5547.881787762855, -33904.19887354361, -727.8175029537085, -20859.631402448584, -23914.556075877677, -21292.428230336696, -26753.451139146226, -41123.275890740864, 0.01, 1.022, 0.03, 192.0, 0.0, 0.0, 0.0, 0.0, 0.0, 0.0, 0.0, 0.0, 0.0, 1.695756158350286E9, 0.0, 2023-09-26 14:22:38.350
216.0, -159671.20643510896, 31067.15900506485, -49372.18718197193, -39648.77601251317, 2557.0842691760386, -13698.937141768592, -187500.02235174447, -523.0308202541853, 5553.626186087869, -33893.22416701605, -728.219834353904, -20869.756742686837, -23905.369508906548, -21290.707146013636, -26747.416168143296, -41115.38572494814, 0.01, 1.022, 0.03, 192.0, 0.0, 0.0, 0.0, 0.0, 0.0, 0.0, 0.0, 0.0, 0.0, 1.695756158350299E9, 0.0, 2023-09-26 14:22:38.350
218.0, -159659.53882450328, 31078.06665635904, -49374.62352211756, -39641.265826376184, 2551.094001662016, -13692.231618432, -187500.02235174447, -504.3447618895486, 5565.584369371459, -33889.24555650301, -719.2344330828706, -20865.532262984787, -23912.075032243138, -21275.530311528484, -26743.81753728599, -41105.573309132255, 0.016, 1.024, 0.032, 192.0, 0.0, 64.0, 16.0, 0.0, 0.5, 0.0, 0.0, 0.0, 0.0, 1.695756158350308E9, 0.0, 2023-09-26 14:22:38.350
220.0, -159660.81287393725, 31081.374714538422, -49373.66239710598, -39636.102573407006, 2547.36126033798, -13680.98869097098, -187500.02235174447, -498.8685844979983, 5567.19369497224, -33879.679009876134, -717.5133487598121, -20858.536166970276, -23916.701843345385, -21274.21155860562, -26745.091586719944, -41100.87944279664, 0.016, 1.024, 0.032, 192.0, 0.0, 0.0, 0.0, 0.0, 0.0, 0.0, 0.0, 0.0, 0.0, 1.695756158350318E9, 0.0, 2023-09-26 14:22:38.350
222.0, -159654.15205408956, 31077.418455769835, -49382.983074543845, -39645.602064800514, 2540.946309679307, -13687.627159074207, -187500.02235174447, -493.54886931763525, 5570.792325829545, -33895.79461762841, -715.8146161812086, -20858.13383557008, -23917.037119512217, -21273.563358016418, -26743.72813030817, -41096.67731483905, 0.016, 1.024, 0.032, 192.0, 0.0, 0.0, 0.0, 0.0, 0.0, 0.0, 0.0, 0.0, 0.0, 1.695756158350327E9, 0.0, 2023-09-26 14:22:38.350
224.0, -159648.02767610882, 31063.359208507445, -49380.63614137604, -39644.41742234438, 2544.209664369782, -13676.965376969025, -187500.02235174447, -494.3758838624816, 5545.780723784056, -33886.116312279264, -728.9797936653846, -20855.161053557524, -23930.35875920758, -21287.756715745534, -26756.602735114426, -41108.81431207828, 0.016, 1.024, 0.032, 192.0, 0.0, 0.0, 0.0, 0.0, 0.0, 0.0, 0.0, 0.0, 0.0, 1.695756158350336E9, 0.0, 2023-09-26 14:22:38.350
226.0, -159653.34739128916, 31066.443749242277, -49376.99280702983, -39644.104497922, 2555.1396674084267, -13681.927464238104, -187500.02235174447, -474.5275347861689, 5549.826389530467, -33903.61772818777, -730.9243954329962, -20867.2756990523, -23919.629921869033, -21272.55752951593, -26746.812671043, -41095.13504447163, 0.016, 1.024, 0.032, 192.0, 0.0, 0.0, 0.0, 0.0, 0.0, 0.0, 0.0, 0.0, 0.0, 1.695756158410563E9, 0.0, 2023-09-26 14:22:38.410
228.0, -159638.3270190152, 31057.90538286035, -49379.76442334228, -39651.50292533671, 2555.921978464363, -13692.544542854375, -187500.02235174447, -490.6431425384453, 5550.698107564224, -33892.75478038249, -728.4433517984572, -20858.37970475909, -23923.362663193067, -21279.64303250826, -26745.29275242004, -41101.259422452385, 0.01, 1.02, 0.034, 192.0, 0.0, 40.0, 15.5, 112.0, 0.5, 8.0, 0.0, 0.0, 0.0, 1.695756158410583E9, 0.0, 2023-09-26 14:22:38.410
230.0, -159656.61074597965, 31059.827632883505, -49376.702234351906, -39648.84306774653, 2559.453554088301, -13695.740842311483, -187500.02235174447, -499.5838403205682, 5552.441543631738, -33911.26202479148, -731.0585058997281, -20871.299013054253, -23926.424852183445, -21284.20278837714, -26745.20334544222, -41104.43337016504, 0.01, 1.02, 0.034, 192.0, 0.0, 0.0, 0.0, 0.0, 0.0, 0.0, 0.0, 0.0, 0.0, 1.695756158410621E9, 0.0, 2023-09-26 14:22:38.410
232.0, -159636.7847486478, 31062.353380006956, -49371.53898138273, -39646.69730027882, 2554.1561906523934, -13698.75832781295, -187500.02235174447, -510.40208463693676, 5556.129581466864, -33891.27956524844, -726.4987500308455, -20858.714980925917, -23929.44233768491, -21294.439887337674, -26753.182918212762, -41112.41294293558, 0.01, 1.02, 0.034, 192.0, 0.0, 0.0, 0.0, 0.0, 0.0, 0.0, 0.0, 0.0, 0.0, 1.69575615841063E9, 0.0, 2023-09-26 14:22:38.410
234.0, -159669.19477810798, 31078.781912181606, -49360.72073706636, -39639.99177694223, 2561.398155855913, -13696.321987667321, -187500.02235174447, -503.45069211133625, 5571.284064207562, -33901.56136769788, -719.0556191272282, -20870.89668165406, -23911.382128165023, -21273.250433594043, -26742.96817099669, -41096.85612879469, 0.01, 1.02, 0.034, 192.0, 0.0, 0.0, 0.0, 0.0, 0.0, 0.0, 0.0, 0.0, 0.0, 1.69575615841064E9, 0.0, 2023-09-26 14:22:38.410
236.0, -159628.76047238833, 31068.835385898998, -49376.36695818508, -39660.57773358557, 2544.902568447896, -13717.265572221944, -187500.02235174447, -528.3952389234589, 5554.654366332814, -33879.32138196485, -719.5697092497003, -20848.36612324311, -23925.240209727315, -21289.634262279782, -26757.988543270654, -41116.19038774853, 0.01, 1.02, 0.034, 192.0, 0.0, 0.0, 0.0, 0.0, 0.0, 0.0, 0.0, 0.0, 0.0, 1.695756158410653E9, 0.0, 2023-09-26 14:22:38.410
238.0, -159655.31434480124, 31065.549679464064, -49364.14055396802, -39649.446564846825, 2553.776210996653, -13705.463851149541, -187500.02235174447, -521.91323303142, 5549.960499997199, -33903.68478342114, -727.8398546981639, -20863.721771683904, -23922.625055626042, -21299.200808906655, -26754.904002535823, -41109.59662313421, 0.006, 1.014, 0.042, 192.0, 0.0, 24.0, 15.5, 88.0, 0.5, 40.0, 0.0, 0.0, 0.0, 1.695756158410661E9, 0.0, 2023-09-26 14:22:38.410
240.0, -159623.9771990749, 31071.53994697809, -49371.2037052159, -39655.12390793847, 2547.36126033798, -13710.828269818816, -187500.02235174447, -514.8053782946323, 5557.738907067645, -33893.69355364962, -719.3908952940578, -20851.338905255667, -23927.654198128486, -21288.40491633474, -26758.413226415305, -41110.04365802332, 0.006, 1.014, 0.042, 192.0, 0.0, 0.0, 0.0, 0.0, 0.0, 0.0, 0.0, 0.0, 0.0, 1.695756158470842E9, 0.0, 2023-09-26 14:22:38.470
242.0, -159649.72640868742, 31078.11135984795, -49364.65464409049, -39645.57971305605, 2551.004594684195, -13704.52507788242, -187500.02235174447, -510.35738114802615, 5559.974081513176, -33899.1026758078, -725.1129418746165, -20868.907376397536, -23924.860230071572, -21287.533198300982, -26757.653267103826, -41104.99216377642, 0.006, 1.014, 0.042, 192.0, 0.0, 0.0, 0.0, 0.0, 0.0, 0.0, 0.0, 0.0, 0.0, 1.695756158470865E9, 0.0, 2023-09-26 14:22:38.470
244.0, -159623.6195711636, 31085.44273202929, -49373.39417617252, -39647.30079737912, 2547.6518330158992, -13710.515345396441, -187500.02235174447, -512.4360933823697, 5567.059584505509, -33874.80632958488, -715.5687469922003, -20851.383608744574, -23926.469555672356, -21281.40882032023, -26760.179014227273, -41107.0038207774, 0.006, 1.014, 0.042, 192.0, 0.0, 0.0, 0.0, 0.0, 0.0, 0.0, 0.0, 0.0, 0.0, 1.695756158470875E9, 0.0, 2023-09-26 14:22:38.470
246.0, -159634.929553858, 31080.52534824912, -49374.5564668842, -39645.5573613116, 2550.2446353727146, -13712.728168097517, -187500.02235174447, -520.3709626640037, 5562.700994336724, -33888.932632080636, -729.2033111099377, -20860.480768737885, -23939.053587800692, -21284.78393373298, -26772.472473677695, -41118.06793428277, 0.006, 1.014, 0.042, 192.0, 0.0, 0.0, 0.0, 0.0, 0.0, 0.0, 0.0, 0.0, 0.0, 1.695756158470885E9, 0.0, 2023-09-26 14:22:38.470
248.0, -159624.06660605271, 31086.5379675076, -49375.53994364023, -39646.07145143407, 2556.972510453762, -13704.435670904599, -187500.02235174447, -522.7625993207216, 5557.873017534378, -33891.771303626454, -719.1226743605941, -20851.40596048903, -23926.02252078325, -21284.247491866052, -26765.54343289655, -41113.32936445825, 0.004, 1.014, 0.038, 192.0, 0.0, 16.0, 15.5, 88.0, 0.5, 24.0, 0.0, 0.0, 0.0, 1.695756158470904E9, 0.0, 2023-09-26 14:22:38.470
250.0, -159646.06072259674, 31072.76929292313, -49376.09873725161, -39647.18903865684, 2555.385536597435, -13700.501763880464, -187500.02235174447, -524.2154627103165, 5554.989642499643, -33898.58858568533, -730.1644361215158, -20868.16976883051, -23936.952523821896, -21285.946224444655, -26767.555089897527, -41109.88719581213, 0.004, 1.014, 0.038, 192.0, 0.0, 0.0, 0.0, 0.0, 0.0, 0.0, 0.0, 0.0, 0.0, 1.695756158470913E9, 0.0, 2023-09-26 14:22:38.470
252.0, -159643.80319640675, 31079.385409281902, -49366.8004115582, -39639.81296298659, 2561.9345977228404, -13688.90120850816, -187500.02235174447, -509.5974218365457, 5559.236473946152, -33890.56430942587, -725.7611424638203, -20862.17950131649, -23931.319884219156, -21275.8208842064, -26760.938973538756, -41100.968849774465, 0.004, 1.014, 0.038, 192.0, 0.0, 0.0, 0.0, 0.0, 0.0, 0.0, 0.0, 0.0, 0.0, 1.695756158470953E9, 0.0, 2023-09-26 14:22:38.470
254.0, -159670.3794205641, 31075.160929579848, -49368.320330181166, -39643.83627698854, 2560.0794029330496, -13694.332682410799, -187500.02235174447, -510.2232706812943, 5565.472610649182, -33900.06380081938, -723.5036162738343, -20876.618728234618, -23927.564791150668, -21277.0725818959, -26757.519156637092, -41099.11365498468, 0.004, 1.014, 0.038, 192.0, 0.0, 0.0, 0.0, 0.0, 0.0, 0.0, 0.0, 0.0, 0.0, 1.695756158470963E9, 0.0, 2023-09-26 14:22:38.470
0.0, -159638.5281847153, 31074.020990612626, -49374.91409479548, -39658.45431786231, 2551.1834086398376, -13713.532830897908, -187500.02235174447, -517.4205323959031, 5563.460953648205, -33897.91803335166, -723.0565813847281, -20861.55365247174, -23935.566715665667, -21287.041459922966, -26765.655191618825, -41114.46930342547, 0.004, 1.014, 0.038, 192.0, 0.0, 0.0, 0.0, 0.0, 0.0, 0.0, 0.0, 0.0, 0.0, 1.695756158531178E9, 0.0, 2023-09-26 14:22:38.531
2.0, -159677.30846134527, 31073.417493512334, -49355.803353286195, -39642.07048917657, 2569.5118390931893, -13700.255894691456, -187500.02235174447, -518.2028434518389, 5562.43277340326, -33903.17069329866, -725.8952529305521, -20880.37382130311, -23920.144011991502, -21288.874302968303, -26757.92148803729, -41108.166111489074, 0.016, 1.018, 0.044, 192.0, 0.0, 64.0, 15.5, 104.0, 0.5, 48.0, 0.0, 0.0, 0.0, 1.695756158531201E9, 0.0, 2023-09-26 14:22:38.531
4.0, -159674.91682468855, 31077.06082785855, -49365.43695514643, -39649.155992168904, 2565.063841946583, -13709.509516895952, -187500.02235174447, -512.8607765270206, 5573.206314230718, -33898.2533095185, -717.3121830597142, -20880.016193391824, -23913.97493052184, -21283.01814592101, -26756.736845581156, -41108.166111489074, 0.016, 1.018, 0.044, 192.0, 0.0, 0.0, 0.0, 0.0, 0.0, 0.0, 0.0, 0.0, 0.0, 1.695756158531211E9, 0.0, 2023-09-26 14:22:38.531
6.0, -159671.36289732016, 31062.19691779577, -49382.17841174346, -39663.774033042675, 2551.7645539956757, -13717.422034433132, -187500.02235174447, -516.7723318066993, 5557.448334389727, -33894.9005478502, -728.1974826094488, -20882.98897540438, -23927.944770806407, -21298.552608317448, -26771.466645177206, -41121.666565140076, 0.016, 1.018, 0.044, 192.0, 0.0, 0.0, 0.0, 0.0, 0.0, 0.0, 0.0, 0.0, 0.0, 1.69575615853122E9, 0.0, 2023-09-26 14:22:38.531
8.0, -159655.9848971349, 31064.812071897042, -49382.781908843746, -39663.0587772201, 2551.5410365511225, -13722.04884553538, -187500.02235174447, -521.8238260535987, 5547.188883684741, -33904.8023706439, -735.8641309576191, -20873.08715261068, -23941.467576201867, -21294.775163504502, -26784.296546494552, -41131.25546351141, 0.016, 1.018, 0.044, 192.0, 0.0, 0.0, 0.0, 0.0, 0.0, 0.0, 0.0, 0.0, 0.0, 1.695756158531229E9, 0.0, 2023-09-26 14:22:38.531
10.0, -159658.84592042517, 31053.77031013612, -49380.21145823139, -39661.49415510824, 2548.747068494209, -13717.802014088871, -187500.02235174447, -516.9064422734311, 5550.675755819769, -33906.00936484449, -738.7251542478984, -20878.09394336867, -23941.221707012857, -21299.513733329026, -26783.40247671634, -41127.90270184311, 0.016, 1.018, 0.044, 192.0, 0.0, 0.0, 0.0, 0.0, 0.0, 0.0, 0.0, 0.0, 0.0, 1.695756158531238E9, 0.0, 2023-09-26 14:22:38.531
12.0, -159671.6311182536, 31063.42626374081, -49365.81693480217, -39647.59137005703, 2560.817010500075, -13701.909923781148, -187500.02235174447, -509.8432910255541, 5553.805000043511, -33915.46415274908, -737.965194936418, -20879.189178846977, -23942.652218657997, -21301.21246590763, -26777.546319669047, -41121.13012327315, 0.012, 1.016, 0.044, 192.0, 0.0, 48.0, 15.5, 96.0, 0.5, 48.0, 0.0, 0.0, 0.0, 1.695756158531247E9, 0.0, 2023-09-26 14:22:38.531
14.0, -159691.2335981409, 31069.57299346602, -49357.65854807598, -39638.27069261917, 2565.3767663689573, -13698.825383046316, -187500.02235174447, -500.0532269541296, 5567.528971139071, -33909.116257323774, -725.4035145525354, -20887.436972550986, -23922.60270388159, -21280.73826798657, -26752.355903667918, -41094.62095434916, 0.012, 1.016, 0.044, 192.0, 0.0, 0.0, 0.0, 0.0, 0.0, 0.0, 0.0, 0.0, 0.0, 1.69575615859063E9, 0.0, 2023-09-26 14:22:38.590
16.0, -159693.35701386418, 31075.697371446775, -49359.44668763241, -39637.71189900779, 2560.1241064219603, -13698.333644668299, -187500.02235174447, -499.29326764264914, 5561.941035025244, -33910.591472457825, -726.4540465419349, -20878.339812557675, -23935.030273798737, -21278.748962730046, -26762.19067122825, -41101.97467827496, 0.012, 1.016, 0.044, 192.0, 0.0, 0.0, 0.0, 0.0, 0.0, 0.0, 0.0, 0.0, 0.0, 1.695756158590654E9, 0.0, 2023-09-26 14:22:38.590
18.0, -159703.97409248044, 31075.272688302124, -49357.05505097569, -39636.77312574066, 2562.135763422938, -13697.372519656721, -187500.02235174447, -510.29032591466023, 5564.556189126514, -33896.46516996207, -723.481264529379, -20873.1765595885, -23925.97781729434, -21275.329145828386, -26756.982714770165, -41094.7997683048, 0.012, 1.016, 0.044, 192.0, 0.0, 0.0, 0.0, 0.0, 0.0, 0.0, 0.0, 0.0, 0.0, 1.695756158590684E9, 0.0, 2023-09-26 14:22:38.590
20.0, -159709.8526012722, 31070.802339411064, -49363.22413244536, -39645.7585270117, 2554.8490947305077, -13706.693197094584, -187500.02235174447, -509.2174421808055, 5560.152895468819, -33894.31940249436, -730.1197326326052, -20874.584719489183, -23938.159518022483, -21285.946224444655, -26767.39862768634, -41106.46737891047, 0.012, 1.016, 0.044, 192.0, 0.0, 0.0, 0.0, 0.0, 0.0, 0.0, 0.0, 0.0, 0.0, 1.695756158590693E9, 0.0, 2023-09-26 14:22:38.590
22.0, -159697.4026796106, 31071.67405744482, -49361.324234166656, -39646.74200376773, 2553.418583085368, -13702.938104026092, -187500.02235174447, -509.30684915862673, 5556.934244267255, -33887.90445183569, -727.9739651648957, -20869.46617000892, -23935.253791243293, -21286.840294222868, -26763.755293340124, -41104.83570156524, 0.01, 1.01, 0.042, 192.0, 0.0, 40.0, 15.5, 72.0, 0.5, 40.0, 0.0, 0.0, 0.0, 1.695756158590718E9, 0.0, 2023-09-26 14:22:38.590
24.0, -159703.92938899153, 31062.129862562404, -49364.96756851287, -39650.85472474751, 2548.2106266272817, -13705.463851149541, -187500.02235174447, -508.5468898471463, 5553.67088957678, -33907.015193344974, -732.1313896335828, -20880.597338747662, -23938.181869766937, -21284.26984361051, -26763.040037517552, -41100.410056163084, 0.01, 1.01, 0.042, 192.0, 0.0, 0.0, 0.0, 0.0, 0.0, 0.0, 0.0, 0.0, 0.0, 1.695756158590728E9, 0.0, 2023-09-26 14:22:38.590
26.0, -159680.19183638, 31055.647856670366, -49367.739184825325, -39655.34742538303, 2548.680013260843, -13704.055691248857, -187500.02235174447, -515.1406544614618, 5548.686450563247, -33899.21443453008, -732.9137006895186, -20869.309707797733, -23947.16727103797, -21297.323262372407, -26773.031267289076, -41106.89206205512, 0.01, 1.01, 0.042, 192.0, 0.0, 0.0, 0.0, 0.0, 0.0, 0.0, 0.0, 0.0, 0.0, 1.695756158590738E9, 0.0, 2023-09-26 14:22:38.590
28.0, -159715.28407517483, 31048.540001933576, -49360.38546089953, -39651.2123526588, 2561.8898942339297, -13698.892438279681, -187500.02235174447, -505.8199770235988, 5552.9779854986655, -33927.087059865844, -737.5405117917671, -20889.113353385135, -23934.270314487258, -21287.77906748999, -26762.68240960627, -41097.213756705976, 0.01, 1.01, 0.042, 192.0, 0.0, 0.0, 0.0, 0.0, 0.0, 0.0, 0.0, 0.0, 0.0, 1.695756158590747E9, 0.0, 2023-09-26 14:22:38.590
30.0, -159709.47262161644, 31044.94137107627, -49359.58079809914, -39648.9101229799, 2558.201856398804, -13701.798165058872, -187500.02235174447, -512.458445126825, 5566.098459493931, -33910.725582924555, -731.6620030000214, -20882.296071326266, -23934.40442495399, -21295.69158502717, -26766.258688719117, -41103.338134686725, 0.01, 1.01, 0.042, 192.0, 0.0, 0.0, 0.0, 0.0, 0.0, 0.0, 0.0, 0.0, 0.0, 1.69575615865044E9, 0.0, 2023-09-26 14:22:38.650
32.0, -159720.22381069945, 31043.801432109052, -49369.92965578195, -39656.53206783916, 2547.4059638268905, -13719.567801900841, -187500.02235174447, -513.6654393274116, 5559.638805346347, -33917.07347834986, -725.4258662969908, -20890.119181885624, -23933.711520875877, -21297.256207139042, -26769.29852596504, -41106.020344021366, 0.014, 1.012, 0.038, 192.0, 0.0, 56.0, 15.5, 80.0, 0.5, 24.0, 0.0, 0.0, 0.0, 1.695756158650461E9, 0.0, 2023-09-26 14:22:38.650
34.0, -159698.699080789, 31047.400062966357, -49363.60411210109, -39650.47474509177, 2553.351527852002, -13719.880726323216, -187500.02235174447, -529.490474401769, 5550.072258719476, -33897.33688799583, -720.5978894946444, -20867.476864752396, -23944.21684076987, -21299.916064729223, -26782.284889493574, -41122.58298666275, 0.014, 1.012, 0.038, 192.0, 0.0, 0.0, 0.0, 0.0, 0.0, 0.0, 0.0, 0.0, 0.0, 1.695756158650471E9, 0.0, 2023-09-26 14:22:38.650
36.0, -159718.03333974283, 31045.589571665478, -49365.504010379795, -39651.77114627018, 2549.3729173389574, -13722.42882519112, -187500.02235174447, -521.91323303142, 5563.639767603847, -33919.21924581757, -719.18972959396, -20889.918016185526, -23932.12454701955, -21293.657576281737, -26772.092494021952, -41113.910509814086, 0.014, 1.012, 0.038, 192.0, 0.0, 0.0, 0.0, 0.0, 0.0, 0.0, 0.0, 0.0, 0.0, 1.69575615865048E9, 0.0, 2023-09-26 14:22:38.650
38.0, -159698.43085985552, 31049.009388567138, -49363.80527780119, -39652.866381748485, 2549.2388068722257, -13721.71356936855, -187500.02235174447, -531.1668552359171, 5570.367642684894, -33915.218283560076, -712.2383370683596, -20877.333984057186, -23931.543401663712, -21296.809172249934, -26776.272270235095, -41119.341983716724, 0.014, 1.012, 0.038, 192.0, 0.0, 0.0, 0.0, 0.0, 0.0, 0.0, 0.0, 0.0, 0.0, 1.695756158650489E9, 0.0, 2023-09-26 14:22:38.650
40.0, -159737.81463358577, 31035.486583171678, -49356.87623702005, -39647.32314912357, 2557.196027898315, -13710.403586674165, -187500.02235174447, -531.9044628029421, 5567.774840328078, -33930.10454536731, -720.3743720500913, -20895.32713834371, -23928.883544073527, -21299.156105417744, -26773.187729500263, -41113.93286155854, 0.014, 1.012, 0.038, 192.0, 0.0, 0.0, 0.0, 0.0, 0.0, 0.0, 0.0, 0.0, 0.0, 1.695756158650524E9, 0.0, 2023-09-26 14:22:38.650
42.0, -159711.3501681507, 31037.207667494735, -49366.95687376939, -39658.05198646212, 2548.747068494209, -13722.741749613495, -187500.02235174447, -532.7314773477885, 5562.522180381082, -33914.65948994869, -715.9487266479405, -20886.967585917424, -23929.73291036283, -21297.323262372407, -26769.05265677603, -41113.66464062508, 0.014, 1.012, 0.038, 192.0, 0.0, 56.0, 15.5, 80.0, 0.5, 24.0, 0.0, 0.0, 0.0, 1.695756158650533E9, 0.0, 2023-09-26 14:22:38.650
44.0, -159715.66405483056, 31027.46230691222, -49370.600208115604, -39658.83429751806, 2545.1484376369044, -13721.244182734988, -187500.02235174447, -525.5789191220903, 5554.475552377171, -33919.24159756203, -731.7737617222979, -20892.89079819808, -23941.26641050177, -21314.958788747645, -26771.600755643936, -41117.24091973793, 0.014, 1.012, 0.038, 192.0, 0.0, 0.0, 0.0, 0.0, 0.0, 0.0, 0.0, 0.0, 0.0, 1.695756158710428E9, 0.0, 2023-09-26 14:22:38.710
46.0, -159695.3016156318, 31034.48075467119, -49363.64881559001, -39649.98300671375, 2553.2174173852704, -13708.123708739724, -187500.02235174447, -516.5264626176909, 5539.991621970132, -33922.01321387449, -737.898139703052, -20883.61482424913, -23952.285820518235, -21305.50400084305, -26777.166340013307, -41116.23509123744, 0.014, 1.012, 0.038, 192.0, 0.0, 0.0, 0.0, 0.0, 0.0, 0.0, 0.0, 0.0, 0.0, 1.695756158710469E9, 0.0, 2023-09-26 14:22:38.710
48.0, -159726.19172646903, 31037.632350639386, -49352.294129406706, -39641.73521300974, 2560.481734333245, -13703.362787170743, -187500.02235174447, -520.7062388308333, 5563.528008881571, -33934.82076344738, -736.6240902690996, -20903.396118092074, -23932.571581908654, -21296.473896083106, -26762.928278795276, -41097.28081193934, 0.014, 1.012, 0.038, 192.0, 0.0, 0.0, 0.0, 0.0, 0.0, 0.0, 0.0, 0.0, 0.0, 1.695756158710479E9, 0.0, 2023-09-26 14:22:38.710
50.0, -159723.39775841212, 31052.965647335728, -49344.15809442498, -39632.459239060794, 2563.3204058790693, -13697.03724348989, -187500.02235174447, -511.05028522614066, 5570.859381062911, -33915.93353938264, -725.2023488524377, -20892.51081854234, -23930.001131296296, -21295.333957115887, -26762.548299139537, -41097.616088106166, 0.014, 1.012, 0.038, 192.0, 0.0, 0.0, 0.0, 0.0, 0.0, 0.0, 0.0, 0.0, 0.0, 1.695756158710488E9, 0.0, 2023-09-26 14:22:38.710
52.0, -159720.78260431084, 31038.99580705116, -49358.463210876376, -39648.396032857425, 2550.6693185173654, -13716.282095465911, -187500.02235174447, -516.5488143621462, 5572.826334574978, -33902.52249270946, -719.4579505274237, -20892.577873775706, -23928.503564417788, -21285.968576189112, -26765.275211963086, -41097.30316368379, 0.008, 1.012, 0.038, 192.0, 0.0, 32.0, 15.5, 80.0, 0.5, 24.0, 0.0, 0.0, 0.0, 1.695756158710497E9, 0.0, 2023-09-26 14:22:38.710
54.0, -159716.46871763095, 31039.576952407, -49352.07061196215, -39643.09866942152, 2555.1396674084267, -13706.268513949934, -187500.02235174447, -513.9783637497859, 5559.214122201696, -33906.814027644876, -722.2295668398818, -20879.837379436183, -23934.96321856537, -21292.919968714712, -26775.40055220134, -41110.37893419015, 0.008, 1.012, 0.038, 192.0, 0.0, 0.0, 0.0, 0.0, 0.0, 0.0, 0.0, 0.0, 0.0, 1.695756158710507E9, 0.0, 2023-09-26 14:22:38.710
56.0, -159737.7028748635, 31041.990940808173, -49346.16975142596, -39636.7060705073, 2555.8325714865414, -13702.75929007045, -187500.02235174447, -513.1737009493949, 5571.932264796766, -33913.4077922592, -720.8214069391975, -20892.980205175903, -23924.50260216029, -21292.584692547884, -26768.113883508908, -41102.04173350832, 0.008, 1.012, 0.038, 192.0, 0.0, 0.0, 0.0, 0.0, 0.0, 0.0, 0.0, 0.0, 0.0, 1.695756158710516E9, 0.0, 2023-09-26 14:22:38.710
58.0, -159724.94002877953, 31047.511821688633, -49360.58662659963, -39649.26775089118, 2549.8870074614297, -13715.700950110073, -187500.02235174447, -502.08723569956254, 5575.419136931794, -33912.51372248098, -714.7193807028987, -20889.42627780751, -23931.051663285692, -21286.92970120069, -26764.403493929327, -41098.26428869537, 0.008, 1.012, 0.038, 192.0, 0.0, 0.0, 0.0, 0.0, 0.0, 0.0, 0.0, 0.0, 0.0, 1.695756158710525E9, 0.0, 2023-09-26 14:22:38.710
60.0, -159733.32193295026, 31034.927789560294, -49357.52443760925, -39645.08797467804, 2552.8374377295304, -13710.448290163076, -187500.02235174447, -514.4701021278026, 5551.659232575802, -33902.410733987184, -738.7251542478984, -20888.152228373558, -23946.429663470946, -21313.327111402406, -26779.580328414482, -41114.42459993656, 0.008, 1.012, 0.038, 192.0, 0.0, 0.0, 0.0, 0.0, 0.0, 0.0, 0.0, 0.0, 0.0, 1.69575615877065E9, 0.0, 2023-09-26 14:22:38.770
62.0, -159732.71843584997, 31039.86752508492, -49361.97243475586, -39646.74200376773, 2549.842303972519, -13714.248086720478, -187500.02235174447, -500.9472967323419, 5558.834142545956, -33913.83247540385, -738.9263199479961, -20896.355318588652, -23940.50645119029, -21297.323262372407, -26772.695991122248, -41104.85805330969, 0.008, 1.01, 0.038, 192.0, 0.0, 32.0, 15.5, 72.0, 0.5, 24.0, 0.0, 0.0, 0.0, 1.695756158770701E9, 0.0, 2023-09-26 14:22:38.770
64.0, -159717.80982229827, 31039.308731473535, -49361.927731266944, -39648.328977624056, 2546.8918737044187, -13715.030397776414, -187500.02235174447, -502.73543628876644, 5548.038249974043, -33906.76932415597, -743.3072618612364, -20887.884007440094, -23949.245983272314, -21299.40197460675, -26777.188691757765, -41104.7015910985, 0.008, 1.01, 0.038, 192.0, 0.0, 0.0, 0.0, 0.0, 0.0, 0.0, 0.0, 0.0, 0.0, 1.695756158770711E9, 0.0, 2023-09-26 14:22:38.770
66.0, -159726.77287182485, 31043.354397219944, -49356.138629453024, -39646.607893301, 2550.6022632839995, -13706.693197094584, -187500.02235174447, -494.93467747386427, 5566.031404260565, -33917.18523707214, -739.3062996037364, -20892.600225520164, -23941.825204113153, -21294.08225942639, -26769.544395154047, -41097.79490206181, 0.008, 1.01, 0.038, 192.0, 0.0, 0.0, 0.0, 0.0, 0.0, 0.0, 0.0, 0.0, 0.0, 1.69575615877072E9, 0.0, 2023-09-26 14:22:38.770
68.0, -159714.9040955191, 31046.081310043493, -49354.9986904858, -39647.54666656812, 2549.2611586166813, -13709.509516895952, -187500.02235174447, -499.36032287601506, 5562.097497236431, -33897.78392288493, -732.6678315005103, -20885.335908572186, -23941.847555857606, -21299.200808906655, -26773.321839966997, -41097.817253806264, 0.008, 1.01, 0.038, 192.0, 0.0, 0.0, 0.0, 0.0, 0.0, 0.0, 0.0, 0.0, 0.0, 1.695756158770729E9, 0.0, 2023-09-26 14:22:38.770
70.0, -159719.32974092124, 31043.66732164232, -49345.18627466992, -39639.83531473104, 2552.658623773888, -13708.503688395464, -187500.02235174447, -499.0697501980961, 5550.027555230565, -33908.915091623676, -732.8466454561527, -20887.95106267346, -23940.953486079394, -21300.83248625189, -26775.0205725456, -41101.66175385258, 0.008, 1.01, 0.038, 192.0, 0.0, 0.0, 0.0, 0.0, 0.0, 0.0, 0.0, 0.0, 0.0, 1.695756158770738E9, 0.0, 2023-09-26 14:22:38.770
72.0, -159708.08681346022, 31048.562353678033, -49342.235844401825, -39635.119096650975, 2546.8918737044187, -13707.319045939334, -187500.02235174447, -507.76457879121057, 5560.041136746542, -33897.69451590711, -725.3811628080801, -20877.825722435206, -23927.430680683934, -21291.31064311393, -26765.632839874368, -41096.45379739449, 0.01, 1.018, 0.042, 192.0, 0.0, 40.0, 15.5, 104.0, 0.5, 40.0, 0.0, 0.0, 0.0, 1.695756158770747E9, 0.0, 2023-09-26 14:22:38.770
74.0, -159730.952648038, 31054.373807236414, -49339.62069030055, -39629.46410530378, 2549.708193505787, -13699.942970269081, -187500.02235174447, -499.02504670918546, 5565.919645538288, -33910.63617594673, -725.7164389749097, -20888.263987095834, -23915.539552633712, -21278.816017963414, -26763.352961939927, -41090.53058511383, 0.01, 1.018, 0.042, 192.0, 0.0, 0.0, 0.0, 0.0, 0.0, 0.0, 0.0, 0.0, 0.0, 1.695756158830594E9, 0.0, 2023-09-26 14:22:38.830
76.0, -159718.59213335422, 31056.653685170855, -49352.517646851265, -39638.203637385806, 2543.270891102659, -13705.776775571916, -187500.02235174447, -518.5157678742132, 5570.300587451528, -33888.97733556954, -715.7475609478428, -20872.55071074375, -23906.084764729116, -21283.174608132198, -26768.560918398016, -41095.67148633856, 0.01, 1.018, 0.042, 192.0, 0.0, 0.0, 0.0, 0.0, 0.0, 0.0, 0.0, 0.0, 0.0, 1.695756158830634E9, 0.0, 2023-09-26 14:22:38.830
78.0, -159763.07210482028, 31056.09489155947, -49350.885969506024, -39635.16380013988, 2558.26891163217, -13694.75736555545, -187500.02235174447, -515.3418201615597, 5564.176209470775, -33904.84707413281, -725.3811628080801, -20891.86261795314, -23888.20336916487, -21270.948203915144, -26770.63963063236, -41095.582079360734, 0.01, 1.018, 0.042, 192.0, 0.0, 0.0, 0.0, 0.0, 0.0, 0.0, 0.0, 0.0, 0.0, 1.695756158830643E9, 0.0, 2023-09-26 14:22:38.830
80.0, -159763.74265715393, 31059.514708461134, -49350.5953968281, -39636.28138736265, 2563.074536690061, -13691.069327720325, -187500.02235174447, -507.51870960220214, 5563.080973992464, -33890.810178614876, -719.1003226161388, -20880.75380095885, -23870.72430500082, -21265.58378524587, -26766.54926139704, -41092.31872467026, 0.01, 1.018, 0.042, 192.0, 0.0, 0.0, 0.0, 0.0, 0.0, 0.0, 0.0, 0.0, 0.0, 1.695756158830653E9, 0.0, 2023-09-26 14:22:38.830
82.0, -159766.82719788878, 31052.160984535338, -49368.40973715899, -39657.18026842836, 2544.8355132145302, -13712.14702274168, -187500.02235174447, -505.97643923478597, 5572.2898927080505, -33896.04048681742, -721.3802005505802, -20888.062821395735, -23875.865206225542, -21270.45646553713, -26765.141101496352, -41096.67731483905, 0.01, 1.02, 0.038, 192.0, 0.0, 40.0, 15.5, 112.0, 0.5, 24.0, 0.0, 0.0, 0.0, 1.695756158830662E9, 0.0, 2023-09-26 14:22:38.830
84.0, -159729.47743290395, 31039.711062873732, -49373.77415582826, -39661.78472778615, 2539.784018967631, -13710.492993651986, -187500.02235174447, -509.5303666031798, 5551.368659897883, -33878.40496044218, -727.9069099315298, -20865.822835662704, -23898.865151270053, -21294.015204193023, -26779.69208713676, -41113.552881902804, 0.01, 1.02, 0.038, 192.0, 0.0, 0.0, 0.0, 0.0, 0.0, 0.0, 0.0, 0.0, 0.0, 1.695756158830699E9, 0.0, 2023-09-26 14:22:38.830
86.0, -159738.90986906408, 31028.423431923802, -49375.18231572895, -39662.455280119815, 2536.520664277156, -13711.342359941287, -187500.02235174447, -502.5789740775793, 5552.530950609559, -33898.74504789651, -734.2995088457476, -20885.827646950205, -23889.25390115427, -21293.791686748467, -26765.1187497519, -41102.48876839742, 0.01, 1.02, 0.038, 192.0, 0.0, 0.0, 0.0, 0.0, 0.0, 0.0, 0.0, 0.0, 0.0, 1.695756158830708E9, 0.0, 2023-09-26 14:22:38.830
88.0, -159724.62710435715, 31044.896667587363, -49362.978263256344, -39645.19973340032, 2548.7023650052984, -13693.013929487935, -187500.02235174447, -497.03574145266316, 5560.175247213274, -33892.73242863803, -724.4200377965019, -20873.645946222063, -23879.083857427104, -21278.145465629754, -26750.232487944664, -41092.20696594798, 0.01, 1.02, 0.038, 192.0, 0.0, 0.0, 0.0, 0.0, 0.0, 0.0, 0.0, 0.0, 0.0, 1.695756158830717E9, 0.0, 2023-09-26 14:22:38.830
90.0, -159735.91473530707, 31037.56529540602, -49375.025853517756, -39649.714785780285, 2544.0532021585946, -13696.813726045339, -187500.02235174447, -503.04836071114073, 5555.8613605334, -33896.28635600643, -728.935090176474, -20881.692574225974, -23871.551319545666, -21269.763561459014, -26736.77673778257, -41088.317762412764, 0.01, 1.02, 0.038, 192.0, 0.0, 0.0, 0.0, 0.0, 0.0, 0.0, 0.0, 0.0, 0.0, 1.695756158890903E9, 0.0, 2023-09-26 14:22:38.890
92.0, -159718.18980195402, 31038.95110356225, -49379.60796113109, -39645.26678863368, 2546.534245793134, -13691.784583542894, -187500.02235174447, -504.85885201202063, 5558.118886723386, -33895.72756239505, -738.1663606365157, -20871.835454921184, -23871.6854300124, -21269.093009125354, -26729.08773768994, -41094.956230515985, 0.016, 1.012, 0.038, 192.0, 0.0, 64.0, 15.5, 80.0, 0.5, 24.0, 0.0, 0.0, 0.0, 1.695756158890924E9, 0.0, 2023-09-26 14:22:38.890
94.0, -159748.96815406898, 31036.268894227615, -49381.038472776236, -39640.438811831336, 2553.5973970410105, -13680.429897359598, -187500.02235174447, -503.0036572222301, 5558.588273356948, -33896.48752170653, -744.9165874620185, -20885.71588822793, -23866.879804954508, -21272.06579113791, -26721.62225504187, -41093.503367126395, 0.016, 1.012, 0.038, 192.0, 0.0, 0.0, 0.0, 0.0, 0.0, 0.0, 0.0, 0.0, 0.0, 1.695756158890933E9, 0.0, 2023-09-26 14:22:38.890
96.0, -159732.29375270533, 31041.789775108075, -49394.650685149514, -39651.23470440325, 2545.9531004372957, -13685.2802259064, -187500.02235174447, -488.49737507073587, 5561.024613502576, -33889.62553615875, -737.3169943472141, -20878.116295113123, -23865.404589820457, -21264.220328834097, -26719.744708507624, -41094.688009582525, 0.016, 1.012, 0.038, 192.0, 0.0, 0.0, 0.0, 0.0, 0.0, 0.0, 0.0, 0.0, 0.0, 1.695756158890942E9, 0.0, 2023-09-26 14:22:38.890
98.0, -159733.79131958383, 31035.352472704944, -49399.07633055167, -39654.36394862699, 2540.007536412184, -13693.975054499515, -187500.02235174447, -487.8715262259873, 5537.778799269056, -33889.42437045865, -745.8106572402307, -20883.637175993583, -23879.217967893837, -21282.191131376163, -26732.775775525068, -41112.68116386905, 0.016, 1.012, 0.038, 192.0, 0.0, 0.0, 0.0, 0.0, 0.0, 0.0, 0.0, 0.0, 0.0, 1.69575615889095E9, 0.0, 2023-09-26 14:22:38.890
100.0, -159748.02938080186, 31051.5798391795, -49373.84121106163, -39628.100648892, 2559.7664785106754, -13676.697156035561, -187500.02235174447, -476.02510166467454, 5567.506619394615, -33903.103638065295, -733.673660000999, -20883.905396927046, -23861.224813607314, -21276.8714161958, -26713.28505436004, -41097.57138461726, 0.016, 1.012, 0.038, 192.0, 0.0, 0.0, 0.0, 0.0, 0.0, 0.0, 0.0, 0.0, 0.0, 1.695756158890959E9, 0.0, 2023-09-26 14:22:38.890
102.0, -159766.73779091093, 31057.838327626985, -49369.05793774819, -39620.61281449948, 2552.166885395871, -13680.429897359598, -187500.02235174447, -478.75201448822196, 5585.946808570244, -33883.85878608928, -714.7864359362645, -20881.714925970427, -23848.663133223432, -21251.77040717249, -26702.84678969941, -41085.14381470011, 0.014, 1.012, 0.038, 192.0, 0.0, 56.0, 15.5, 80.0, 0.5, 24.0, 0.0, 0.0, 0.0, 1.695756158890968E9, 0.0, 2023-09-26 14:22:38.890
104.0, -159747.31412497928, 31056.541926448575, -49378.11039425259, -39631.69927974931, 2538.8005422115975, -13690.197609686567, -187500.02235174447, -480.6742645113784, 5580.537686412059, -33868.03375101492, -713.2441655688484, -20863.431199005987, -23865.762217731743, -21261.64987822174, -26720.66113003029, -41100.700628841, 0.014, 1.012, 0.038, 192.0, 0.0, 0.0, 0.0, 0.0, 0.0, 0.0, 0.0, 0.0, 0.0, 1.695756158951199E9, 0.0, 2023-09-26 14:22:38.951
106.0, -159752.1644535261, 31047.333007732992, -49375.919923295965, -39631.676928004854, 2543.874388202952, -13681.65924330464, -187500.02235174447, -476.76270923169966, 5580.314168967506, -33872.07941676133, -718.385066793569, -20865.018172862314, -23868.869110211028, -21256.330163041373, -26715.94491195022, -41095.716189827464, 0.014, 1.012, 0.038, 192.0, 0.0, 0.0, 0.0, 0.0, 0.0, 0.0, 0.0, 0.0, 0.0, 1.695756158951293E9, 0.0, 2023-09-26 14:22:38.951
108.0, -159749.5940029137, 31046.66245539933, -49381.26199022079, -39639.81296298659, 2549.9317109503404, -13682.709775294039, -187500.02235174447, -476.11450864249576, 5558.074183234476, -33881.310687221376, -721.9613459064182, -20860.480768737885, -23876.91573821494, -21265.11439861231, -26716.704871261703, -41094.1515677156, 0.014, 1.012, 0.038, 192.0, 0.0, 0.0, 0.0, 0.0, 0.0, 0.0, 0.0, 0.0, 0.0, 1.695756158951303E9, 0.0, 2023-09-26 14:22:38.951
110.0, -159742.91083132158, 31034.19018199327, -49393.77896711576, -39650.65355904741, 2548.0318126716393, -13688.163600941134, -187500.02235174447, -490.44197683834756, 5547.233587173651, -33882.47297793305, -737.4958083028565, -20867.208643818933, -23889.29860464318, -21277.02787840699, -26723.320987620475, -41103.069913753265, 0.014, 1.012, 0.038, 192.0, 0.0, 0.0, 0.0, 0.0, 0.0, 0.0, 0.0, 0.0, 0.0, 1.695756158951314E9, 0.0, 2023-09-26 14:22:38.951
112.0, -159732.6513806166, 31032.75967034813, -49397.15408052851, -39654.65452130491, 2543.941443436318, -13687.425993374109, -187500.02235174447, -471.8676771959874, 5545.356040639405, -33901.31549850887, -741.966157193918, -20875.635251478583, -23892.338441889104, -21273.384544060773, -26725.176182410265, -41099.583041618236, 0.012, 1.01, 0.044, 192.0, 0.0, 48.0, 15.5, 72.0, 0.5, 48.0, 0.0, 0.0, 0.0, 1.695756158951324E9, 0.0, 2023-09-26 14:22:38.951
114.0, -159736.451177174, 31024.6236353664, -49379.63031287555, -39641.48934382074, 2556.4137168423795, -13680.675766548607, -187500.02235174447, -475.33219758655997, 5541.891520248833, -33894.67703040565, -742.5920060386666, -20875.85876892314, -23891.980813977818, -21279.464218552617, -26728.23837140064, -41099.04659975131, 0.012, 1.01, 0.044, 192.0, 0.0, 0.0, 0.0, 0.0, 0.0, 0.0, 0.0, 0.0, 0.0, 1.695756158951334E9, 0.0, 2023-09-26 14:22:38.951
116.0, -159741.3015057208, 31028.602245879443, -49379.38444368654, -39643.6574630329, 2551.004594684195, -13691.918694009626, -187500.02235174447, -474.7957557196326, 5559.683508835257, -33910.658527691194, -731.3267268331917, -20887.235806850887, -23889.410363365456, -21278.413686563217, -26722.873952731366, -41095.09034098272, 0.012, 1.01, 0.044, 192.0, 0.0, 0.0, 0.0, 0.0, 0.0, 0.0, 0.0, 0.0, 0.0, 1.695756158951343E9, 0.0, 2023-09-26 14:22:38.951
118.0, -159722.14606072262, 31030.457440669234, -49380.85965882059, -39644.104497922, 2547.0036324266953, -13694.511496366442, -187500.02235174447, -481.9930174342415, 5562.700994336724, -33888.575004169346, -723.3248023181918, -20874.070629366714, -23892.807828522662, -21270.67998298168, -26728.059557444998, -41101.19236721902, 0.012, 1.01, 0.044, 192.0, 0.0, 0.0, 0.0, 0.0, 0.0, 0.0, 0.0, 0.0, 0.0, 1.695756158951353E9, 0.0, 2023-09-26 14:22:38.951
120.0, -159732.31610444977, 31031.530324403087, -49377.953932041404, -39639.99177694223, 2549.037641172128, -13688.56593234133, -187500.02235174447, -479.266104610694, 5557.560093112003, -33900.91316710868, -730.7902849662644, -20880.686745725485, -23900.58623559311, -21277.02787840699, -26732.216981913687, -41102.8016928198, 0.012, 1.01, 0.044, 192.0, 0.0, 0.0, 0.0, 0.0, 0.0, 0.0, 0.0, 0.0, 0.0, 1.695756159011476E9, 0.0, 2023-09-26 14:22:39.011
122.0, -159732.91960155006, 31035.15130700485, -49367.180391213944, -39631.811038471584, 2559.1182779214714, -13677.412411858131, -187500.02235174447, -483.6023430350236, 5554.497904121627, -33888.284431491425, -724.2412238408594, -20871.924861899002, -23898.842799525595, -21272.825750449392, -26725.91378997729, -41092.74340781491, 0.008, 1.012, 0.038, 192.0, 0.0, 32.0, 15.5, 80.0, 0.5, 24.0, 0.0, 0.0, 0.0, 1.695756159011498E9, 0.0, 2023-09-26 14:22:39.011
124.0, -159754.53373843836, 31036.96179830573, -49378.24450471932, -39643.501000821714, 2551.786905740131, -13683.961472983538, -187500.02235174447, -477.5003167987248, 5561.739869325146, -33899.23678627453, -723.771837207298, -20886.297033583767, -23885.610566808056, -21261.538119499462, -26715.14024914983, -41079.8464512642, 0.008, 1.012, 0.038, 192.0, 0.0, 0.0, 0.0, 0.0, 0.0, 0.0, 0.0, 0.0, 0.0, 1.695756159011509E9, 0.0, 2023-09-26 14:22:39.011
126.0, -159723.01777875636, 31038.057033784036, -49381.06082452069, -39646.38437585645, 2544.142609136416, -13681.793353771372, -187500.02235174447, -471.0630143955963, 5539.119903936375, -33877.533242408426, -730.5891192661667, -20855.69749542445, -23913.617302610553, -21285.812113977925, -26741.00121748462, -41102.39936141961, 0.008, 1.012, 0.038, 192.0, 0.0, 0.0, 0.0, 0.0, 0.0, 0.0, 0.0, 0.0, 0.0, 1.695756159011518E9, 0.0, 2023-09-26 14:22:39.011
128.0, -159753.17028202658, 31038.99580705116, -49376.568123885176, -39640.08118392005, 2549.4399725723238, -13675.84778974626, -187500.02235174447, -459.93184565685345, 5573.586293886458, -33908.73627766803, -729.0021454098398, -20880.664393981027, -23897.792267536195, -21276.379677817786, -26722.471621331173, -41080.09232045321, 0.008, 1.012, 0.038, 192.0, 0.0, 0.0, 0.0, 0.0, 0.0, 0.0, 0.0, 0.0, 0.0, 1.69575615901156E9, 0.0, 2023-09-26 14:22:39.011
130.0, -159726.95168578048, 31040.649836140852, -49381.306693709696, -39643.925683966365, 2545.617824270466, -13685.257874161945, -187500.02235174447, -471.3759388179706, 5553.223854687674, -33890.385495470226, -721.514311017312, -20862.291260038764, -23911.2927211872, -21279.55362553044, -26728.9089237343, -41091.80463454779, 0.008, 1.012, 0.038, 192.0, 0.0, 0.0, 0.0, 0.0, 0.0, 0.0, 0.0, 0.0, 0.0, 1.69575615901157E9, 0.0, 2023-09-26 14:22:39.011
132.0, -159752.36561922618, 31035.95596980524, -49377.55160064121, -39641.10936416499, 2553.910321463385, -13685.526095095409, -187500.02235174447, -479.44491856633647, 5559.214122201696, -33906.56815845587, -728.1304273760828, -20880.79850444776, -23909.705747330874, -21272.78104696048, -26729.937103979246, -41094.822120049255, 0.008, 1.006, 0.032, 192.0, 0.0, 32.0, 15.5, 56.0, 0.5, 0.0, 0.0, 0.0, 0.0, 1.69575615901158E9, 0.0, 2023-09-26 14:22:39.011
134.0, -159744.6095639002, 31041.90153383035, -49367.35920516959, -39633.10743965, 2564.8850279909407, -13678.574702569807, -187500.02235174447, -471.10771788450694, 5558.1412384678415, -33888.46324544707, -724.7329622188762, -20867.007478118834, -23906.35298566258, -21264.667363723205, -26727.612522555894, -41092.81046304828, 0.008, 1.006, 0.032, 192.0, 0.0, 0.0, 0.0, 0.0, 0.0, 0.0, 0.0, 0.0, 0.0, 1.695756159070899E9, 0.0, 2023-09-26 14:22:39.070
136.0, -159768.59298570073, 31039.84517334046, -49365.57106561316, -39636.9072362074, 2560.5711413110666, -13689.66116781964, -187500.02235174447, -473.1640783743952, 5565.71847983819, -33892.195986771105, -729.6950494879544, -20879.90443466955, -23899.11102045906, -21264.801474189935, -26725.153830665808, -41090.30706766928, 0.008, 1.006, 0.032, 192.0, 0.0, 0.0, 0.0, 0.0, 0.0, 0.0, 0.0, 0.0, 0.0, 1.695756159070922E9, 0.0, 2023-09-26 14:22:39.070
138.0, -159756.56774718378, 31050.57401067901, -49354.752821296795, -39629.08412564804, 2569.7353565377425, -13682.396850871666, -187500.02235174447, -473.365244074493, 5575.642654376346, -33884.32817272284, -722.8554156846304, -20866.336925785177, -23897.367584391544, -21277.02787840699, -26724.103298676408, -41090.217660691465, 0.008, 1.006, 0.032, 192.0, 0.0, 0.0, 0.0, 0.0, 0.0, 0.0, 0.0, 0.0, 0.0, 1.695756159070932E9, 0.0, 2023-09-26 14:22:39.070
140.0, -159766.3578112552, 31044.33787397598, -49363.02296674526, -39636.929587951854, 2557.0172139426727, -13696.61256034524, -187500.02235174447, -480.45074706682533, 5582.571695157492, -33892.75478038249, -724.8447209411528, -20872.595414232663, -23904.7436600618, -21275.1726836172, -26725.958493466198, -41092.855166537185, 0.008, 1.006, 0.032, 192.0, 0.0, 0.0, 0.0, 0.0, 0.0, 0.0, 0.0, 0.0, 0.0, 1.695756159070941E9, 0.0, 2023-09-26 14:22:39.070
142.0, -159725.56587762426, 31039.107565773436, -49375.13761224003, -39650.787669514146, 2545.528417292645, -13712.549354141875, -187500.02235174447, -492.23011639477215, 5554.363793654895, -33880.01428604296, -721.6260697395885, -20851.249498277844, -23919.562866635664, -21289.298986112954, -26736.441461615737, -41107.49555915542, 0.006, 1.014, 0.034, 192.0, 0.0, 24.0, 15.5, 88.0, 0.5, 8.0, 0.0, 0.0, 0.0, 1.69575615907095E9, 0.0, 2023-09-26 14:22:39.070
144.0, -159749.57165116927, 31029.56337089102, -49367.24744644731, -39642.673986276866, 2552.166885395871, -13697.931313268104, -187500.02235174447, -496.1863751633615, 5556.2636919335955, -33892.26304200447, -729.2256628543929, -20864.146454828555, -23916.970064278852, -21292.964672203623, -26738.810746528, -41106.86971031067, 0.006, 1.014, 0.034, 192.0, 0.0, 0.0, 0.0, 0.0, 0.0, 0.0, 0.0, 0.0, 0.0, 1.69575615907096E9, 0.0, 2023-09-26 14:22:39.070
146.0, -159740.67565687606, 31033.877257570897, -49368.499144136804, -39641.08701242054, 2559.6994232773095, -13687.425993374109, -187500.02235174447, -477.1426888874399, 5566.523142638582, -33889.93846058112, -719.5473575052449, -20860.346658271155, -23919.853439313585, -21290.55068380245, -26733.155755180807, -41098.241936950915, 0.006, 1.014, 0.034, 192.0, 0.0, 0.0, 0.0, 0.0, 0.0, 0.0, 0.0, 0.0, 0.0, 1.695756159070968E9, 0.0, 2023-09-26 14:22:39.070
148.0, -159779.1653608281, 31026.7246993452, -49362.28535917823, -39633.21919837227, 2569.7353565377425, -13675.288996134877, -187500.02235174447, -471.7559184737109, 5570.747622340635, -33899.192082785616, -728.9797936653846, -20879.926786414002, -23910.845686298097, -21274.1221516278, -26722.873952731366, -41084.94264900001, 0.006, 1.014, 0.034, 192.0, 0.0, 0.0, 0.0, 0.0, 0.0, 0.0, 0.0, 0.0, 0.0, 1.695756159070977E9, 0.0, 2023-09-26 14:22:39.070
150.0, -159771.7222299245, 31026.210609222726, -49374.668225606474, -39646.74200376773, 2564.013309957184, -13679.267606647922, -187500.02235174447, -465.2739125816718, 5570.278235707073, -33897.35923974028, -726.9904884088622, -20875.83641717868, -23911.87386654304, -21266.455503279627, -26721.734013764148, -41080.919334998056, 0.006, 1.014, 0.034, 192.0, 0.0, 0.0, 0.0, 0.0, 0.0, 0.0, 0.0, 0.0, 0.0, 1.695756159130647E9, 0.0, 2023-09-26 14:22:39.130
152.0, -159769.77762815688, 31016.71111782922, -49382.67015012147, -39657.89552425093, 2552.680975518343, -13688.655339319152, -187500.02235174447, -480.9871889337527, 5553.29090992104, -33887.77034136896, -743.9107589615296, -20878.406867791044, -23922.78151783723, -21284.82863722189, -26737.357883138407, -41098.64426835111, 0.01, 1.014, 0.034, 192.0, 0.0, 40.0, 15.5, 88.0, 0.5, 8.0, 0.0, 0.0, 0.0, 1.695756159130682E9, 0.0, 2023-09-26 14:22:39.130
154.0, -159761.77570364188, 31026.344719689456, -49382.8042605882, -39655.36977712748, 2553.8432662300193, -13689.839981775283, -187500.02235174447, -473.1640783743952, 5566.701956594224, -33897.49335020701, -743.5084275613341, -20881.469056781418, -23916.43362241192, -21283.867512210312, -26736.128537193363, -41098.33134392874, 0.01, 1.014, 0.034, 192.0, 0.0, 0.0, 0.0, 0.0, 0.0, 0.0, 0.0, 0.0, 0.0, 1.695756159130698E9, 0.0, 2023-09-26 14:22:39.130
156.0, -159765.53079671037, 31024.80244932204, -49374.24354246182, -39643.67981477735, 2556.614882542477, -13685.302577650855, -187500.02235174447, -479.1766976328728, 5555.0343459885535, -33883.389399455715, -745.9447677069626, -20876.261100323332, -23920.389881180512, -21278.167817374208, -26742.588191340947, -41102.84639630871, 0.01, 1.014, 0.034, 192.0, 0.0, 0.0, 0.0, 0.0, 0.0, 0.0, 0.0, 0.0, 0.0, 1.695756159130714E9, 0.0, 2023-09-26 14:22:39.130
158.0, -159763.67560192058, 31027.059975512027, -49375.718757595874, -39646.585541556546, 2556.7936964981195, -13695.047938233369, -187500.02235174447, -484.33995060204876, 5563.505657137115, -33893.47003620506, -738.1440088920605, -20874.60707123364, -23913.01380551026, -21273.451599294138, -26734.161583681296, -41098.01841950636, 0.01, 1.014, 0.034, 192.0, 0.0, 0.0, 0.0, 0.0, 0.0, 0.0, 0.0, 0.0, 0.0, 1.695756159130723E9, 0.0, 2023-09-26 14:22:39.130
160.0, -159759.69699140752, 31023.103716743437, -49377.90922855249, -39645.49030607824, 2544.9249201923517, -13692.790412043383, -187500.02235174447, -495.8510989965319, 5557.3812791563605, -33890.43019895914, -739.865093215119, -20876.21639683442, -23915.271331700245, -21280.11241914182, -26739.928333750766, -41104.2992596983, 0.01, 1.014, 0.034, 192.0, 0.0, 0.0, 0.0, 0.0, 0.0, 0.0, 0.0, 0.0, 0.0, 1.695756159130733E9, 0.0, 2023-09-26 14:22:39.130
162.0, -159768.7717996564, 31032.267931970113, -49369.12499298155, -39636.728422251756, 2560.3699756109686, -13687.336586396288, -187500.02235174447, -479.02023542168564, 5566.836067060955, -33900.37672524175, -740.1556658930381, -20883.100734126656, -23910.577465364633, -21275.507959784027, -26732.44049935824, -41094.93387877153, 0.01, 1.016, 0.038, 192.0, 0.0, 40.0, 15.5, 96.0, 0.5, 24.0, 0.0, 0.0, 0.0, 1.695756159130748E9, 0.0, 2023-09-26 14:22:39.130
164.0, -159758.78056988487, 31031.23975172517, -49368.789716814725, -39635.99081468473, 2561.040527944628, -13682.03922296038, -187500.02235174447, -476.9638749317974, 5563.215084459196, -33883.29999247789, -736.221758868904, -20875.03175437829, -23913.751413077287, -21274.83740745037, -26731.926409235766, -41095.939707272024, 0.01, 1.016, 0.038, 192.0, 0.0, 0.0, 0.0, 0.0, 0.0, 0.0, 0.0, 0.0, 0.0, 1.695756159191086E9, 0.0, 2023-09-26 14:22:39.191
166.0, -159776.72902068245, 31033.609036637434, -49373.99767327281, -39643.34453861052, 2560.45938258879, -13681.748650282461, -187500.02235174447, -467.9114184273981, 5574.614474131403, -33897.001611829, -731.5055407888342, -20885.380612061097, -23908.38699440801, -21267.438980035662, -26726.182010910754, -41089.949439758, 0.01, 1.016, 0.038, 192.0, 0.0, 0.0, 0.0, 0.0, 0.0, 0.0, 0.0, 0.0, 0.0, 1.695756159191114E9, 0.0, 2023-09-26 14:22:39.191
168.0, -159756.34422973922, 31019.885065541872, -49384.57004840017, -39654.25218990471, 2552.8597894739855, -13689.795278286372, -187500.02235174447, -479.06493891059625, 5562.790401314545, -33884.28346923393, -732.4666658004124, -20875.501141011853, -23922.78151783723, -21284.113381399322, -26741.582362840458, -41108.255518466896, 0.01, 1.016, 0.038, 192.0, 0.0, 0.0, 0.0, 0.0, 0.0, 0.0, 0.0, 0.0, 0.0, 1.695756159191123E9, 0.0, 2023-09-26 14:22:39.191
170.0, -159772.23632004694, 31017.202856207237, -49385.48646992284, -39654.475707349266, 2555.4078883418906, -13690.935217253593, -187500.02235174447, -483.0659011680962, 5564.399726915327, -33902.075457820356, -734.2101018679264, -20891.974376675415, -23916.83595381212, -21278.905424941233, -26739.168374439287, -41105.68506785454, 0.01, 1.016, 0.038, 192.0, 0.0, 0.0, 0.0, 0.0, 0.0, 0.0, 0.0, 0.0, 0.0, 1.695756159191133E9, 0.0, 2023-09-26 14:22:39.191
172.0, -159776.6172619602, 31026.367071433913, -49371.0025395158, -39639.47768681976, 2567.0531472031057, -13669.879873976693, -187500.02235174447, -477.99205517674153, 5573.5192386530925, -33891.05604780389, -731.3490785776471, -20884.88887368308, -23915.360738678068, -21273.98804116107, -26736.642627315836, -41097.50432938389, 0.01, 1.01, 0.036000000000000004, 192.0, 0.0, 40.0, 15.5, 72.0, 0.5, 16.0, 0.0, 0.0, 0.0, 1.695756159191174E9, 0.0, 2023-09-26 14:22:39.191
174.0, -159770.0234973459, 31017.85105679644, -49380.81495533168, -39653.89456199343, 2555.0949639195164, -13684.386156128188, -187500.02235174447, -468.42550854987013, 5562.410421658805, -33890.34079198132, -732.8913489450633, -20888.17458011801, -23923.83204982663, -21276.44673305115, -26739.973037239677, -41097.45962589498, 0.01, 1.01, 0.036000000000000004, 192.0, 0.0, 0.0, 0.0, 0.0, 0.0, 0.0, 0.0, 0.0, 0.0, 1.695756159191185E9, 0.0, 2023-09-26 14:22:39.191
176.0, -159737.23348822995, 31015.347661417447, -49383.541868155226, -39662.4105766309, 2556.525475564656, -13695.740842311483, -187500.02235174447, -475.64512200893427, 5559.951729768722, -33882.42827444414, -739.1945408814598, -20874.36120204463, -23930.515221418766, -21283.8228087214, -26742.744653552134, -41101.08060849674, 0.01, 1.01, 0.036000000000000004, 192.0, 0.0, 0.0, 0.0, 0.0, 0.0, 0.0, 0.0, 0.0, 0.0, 1.695756159191204E9, 0.0, 2023-09-26 14:22:39.191
178.0, -159765.15081705461, 31015.481771884177, -49370.01906275977, -39649.89359973593, 2562.0016529562063, -13691.89634226517, -187500.02235174447, -485.36813084699287, 5563.639767603847, -33906.99284160052, -742.3237851052029, -20891.750859230862, -23922.379186437036, -21282.459352309626, -26739.43659537275, -41099.04659975131, 0.01, 1.01, 0.036000000000000004, 192.0, 0.0, 0.0, 0.0, 0.0, 0.0, 0.0, 0.0, 0.0, 0.0, 1.695756159191213E9, 0.0, 2023-09-26 14:22:39.191
180.0, -159748.8116918578, 31020.488562642167, -49371.807202316195, -39650.67591079187, 2557.643062787421, -13700.725281325018, -187500.02235174447, -492.0513024391297, 5562.3657181698945, -33893.58179492733, -734.3665640791136, -20879.45739978044, -23926.93894230592, -21285.789762233468, -26737.9613802387, -41098.8007305623, 0.01, 1.01, 0.036000000000000004, 192.0, 0.0, 0.0, 0.0, 0.0, 0.0, 0.0, 0.0, 0.0, 0.0, 1.695756159251405E9, 0.0, 2023-09-26 14:22:39.251
182.0, -159782.58517772975, 31028.51283890162, -49370.399042415505, -39649.69243403583, 2561.0181762001725, -13705.799127316372, -187500.02235174447, -497.95216297533074, 5560.778744313568, -33911.1055625803, -741.8543984716414, -20901.675033769017, -23921.328654447636, -21284.962747688623, -26735.52504009307, -41099.94066952952, 0.006, 1.01, 0.036000000000000004, 192.0, 0.0, 24.0, 15.5, 72.0, 0.5, 16.0, 0.0, 0.0, 0.0, 1.695756159251427E9, 0.0, 2023-09-26 14:22:39.251
184.0, -159755.09253204972, 31027.439955167767, -49384.324179211166, -39665.89744876593, 2555.519647064167, -13717.086758266301, -187500.02235174447, -509.8879945144647, 5557.046002989531, -33897.04631531791, -740.580349037689, -20885.246501594367, -23929.509392918277, -21291.534160558484, -26744.599848341924, -41115.25161448141, 0.006, 1.01, 0.036000000000000004, 192.0, 0.0, 0.0, 0.0, 0.0, 0.0, 0.0, 0.0, 0.0, 0.0, 1.695756159251437E9, 0.0, 2023-09-26 14:22:39.251
186.0, -159776.1702270711, 31021.293225442558, -49379.563257642185, -39662.298817908624, 2559.207684899293, -13711.52117389693, -187500.02235174447, -512.9948869937524, 5549.647575574824, -33913.027812603454, -753.7231747774094, -20897.025870922313, -23935.4996604323, -21302.30770138594, -26753.741711824146, -41128.34973673221, 0.006, 1.01, 0.036000000000000004, 192.0, 0.0, 0.0, 0.0, 0.0, 0.0, 0.0, 0.0, 0.0, 0.0, 1.695756159251446E9, 0.0, 2023-09-26 14:22:39.251
188.0, -159764.79318914333, 31030.3233302025, -49373.3047691947, -39657.53789633964, 2562.9851297122395, -13707.341397683787, -187500.02235174447, -506.95991599081947, 5563.706822837213, -33912.73723992553, -738.0769536586945, -20886.252330094856, -23925.374320194045, -21292.69645127016, -26744.041054730544, -41115.83275983724, 0.006, 1.01, 0.036000000000000004, 192.0, 0.0, 0.0, 0.0, 0.0, 0.0, 0.0, 0.0, 0.0, 0.0, 1.695756159251455E9, 0.0, 2023-09-26 14:22:39.251
190.0, -159779.94767188403, 31022.723737087697, -49370.17552497095, -39655.258018405206, 2558.201856398804, -13699.630045846707, -187500.02235174447, -517.3087736736267, 5559.817619301989, -33915.687670193634, -742.6367095275772, -20893.583702276195, -23932.012788297274, -21300.11723042932, -26755.82042405849, -41119.52079767237, 0.006, 1.01, 0.036000000000000004, 192.0, 0.0, 0.0, 0.0, 0.0, 0.0, 0.0, 0.0, 0.0, 0.0, 1.695756159251464E9, 0.0, 2023-09-26 14:22:39.251
192.0, -159765.64255543263, 31035.95596980524, -49369.68378659294, -39654.051024204615, 2559.4088505993905, -13693.885647521693, -187500.02235174447, -505.3505903900374, 5573.027500275076, -33912.536074225434, -727.3034128312365, -20885.71588822793, -23923.07209051515, -21296.07156468291, -26743.70577856371, -41101.102960241195, 0.006, 1.01, 0.036000000000000004, 192.0, 0.0, 24.0, 15.5, 72.0, 0.5, 16.0, 0.0, 0.0, 0.0, 1.695756159251473E9, 0.0, 2023-09-26 14:22:39.251
194.0, -159779.38887827264, 31035.553638405043, -49363.62646384555, -39646.69730027882, 2562.3369291230356, -13682.955644483049, -187500.02235174447, -491.6936745278448, 5574.39095668685, -33912.24550154752, -727.1693023645047, -20892.868446453627, -23927.11775626156, -21286.460314567128, -26743.996351241633, -41094.24097469342, 0.006, 1.01, 0.036000000000000004, 192.0, 0.0, 0.0, 0.0, 0.0, 0.0, 0.0, 0.0, 0.0, 0.0, 1.695756159311782E9, 0.0, 2023-09-26 14:22:39.311
196.0, -159754.28786924933, 31034.368995948913, -49367.29214993622, -39648.12781192396, 2559.3417953660246, -13691.717528309528, -187500.02235174447, -489.03381693766323, 5562.030442003065, -33911.23967304703, -722.7213052178986, -20877.445742779462, -23933.68916913142, -21295.244550138064, -26746.05271173152, -41095.76089331638, 0.006, 1.01, 0.036000000000000004, 192.0, 0.0, 0.0, 0.0, 0.0, 0.0, 0.0, 0.0, 0.0, 0.0, 1.695756159311806E9, 0.0, 2023-09-26 14:22:39.311
198.0, -159778.33834628324, 31032.156173247837, -49358.731431809836, -39638.76243099719, 2567.4331268588458, -13686.710737551539, -187500.02235174447, -492.1183576724956, 5566.366680427394, -33914.771248670964, -725.1352936190717, -20887.615786506627, -23929.15176500699, -21297.658538539235, -26740.28596166205, -41088.78714904632, 0.006, 1.01, 0.036000000000000004, 192.0, 0.0, 0.0, 0.0, 0.0, 0.0, 0.0, 0.0, 0.0, 0.0, 1.695756159311816E9, 0.0, 2023-09-26 14:22:39.311
200.0, -159754.17611052707, 31034.70427211574, -49375.33877794013, -39657.04615796163, 2550.8928359619185, -13711.878801808216, -187500.02235174447, -496.4992995857358, 5568.981834528665, -33908.44570499012, -727.5492820202448, -20881.22318759241, -23934.180907509435, -21299.69254728467, -26738.20724942771, -41093.99510550441, 0.006, 1.01, 0.036000000000000004, 192.0, 0.0, 0.0, 0.0, 0.0, 0.0, 0.0, 0.0, 0.0, 0.0, 1.695756159311825E9, 0.0, 2023-09-26 14:22:39.311
202.0, -159779.59004397274, 31031.507972658634, -49355.62453933055, -39641.86932347647, 2570.584722827044, -13700.18883945809, -187500.02235174447, -511.6984858153446, 5563.10332573692, -33913.09486783682, -736.2664623578146, -20889.627443507605, -23925.173154493947, -21298.060869939432, -26739.10131920592, -41098.89013754012, 0.01, 1.012, 0.032, 192.0, 0.0, 40.0, 15.5, 80.0, 0.5, 0.0, 0.0, 0.0, 0.0, 1.695756159311834E9, 0.0, 2023-09-26 14:22:39.311
204.0, -159768.1683025561, 31032.960836048227, -49362.59828360061, -39649.78184101365, 2570.1600396823933, -13708.213115717544, -187500.02235174447, -502.75778803322174, 5580.582389900969, -33913.96658587058, -729.158607621027, -20886.051164394758, -23920.389881180512, -21293.814038492925, -26734.183935425754, -41098.55486137329, 0.01, 1.012, 0.032, 192.0, 0.0, 0.0, 0.0, 0.0, 0.0, 0.0, 0.0, 0.0, 0.0, 1.695756159311843E9, 0.0, 2023-09-26 14:22:39.311
206.0, -159753.9078895936, 31018.722774830196, -49376.36695818508, -39664.3104749096, 2556.324309864558, -13716.706778610562, -187500.02235174447, -518.3146021741155, 5561.382241413861, -33907.19400730062, -736.4452763134572, -20881.692574225974, -23934.940866820918, -21307.40389912175, -26750.590115855946, -41114.55871040329, 0.01, 1.012, 0.032, 192.0, 0.0, 0.0, 0.0, 0.0, 0.0, 0.0, 0.0, 0.0, 0.0, 1.695756159311852E9, 0.0, 2023-09-26 14:22:39.311
208.0, -159761.6192414307, 31030.122164502405, -49367.895647036516, -39657.761413784196, 2559.587664555033, -13707.85548780626, -187500.02235174447, -514.6712678279005, 5556.308395422506, -33923.48842900854, -741.9885089383732, -20889.962719674437, -23937.399558711, -21306.286311898984, -26759.217889215695, -41120.258405239394, 0.01, 1.012, 0.032, 192.0, 0.0, 0.0, 0.0, 0.0, 0.0, 0.0, 0.0, 0.0, 0.0, 1.695756159311861E9, 0.0, 2023-09-26 14:22:39.311
210.0, -159761.5074827084, 31033.162001748326, -49368.029757503245, -39658.94605624033, 2555.02790868615, -13705.083871493802, -187500.02235174447, -515.297116672649, 5570.904084551822, -33909.02685034595, -728.5327587762785, -20888.93453942949, -23931.655160385988, -21305.88398049879, -26758.234412459664, -41118.872597083166, 0.01, 1.012, 0.032, 192.0, 0.0, 0.0, 0.0, 0.0, 0.0, 0.0, 0.0, 0.0, 0.0, 1.695756159371159E9, 0.0, 2023-09-26 14:22:39.371
212.0, -159770.5152357239, 31036.425356438802, -49363.93938826792, -39654.542762582634, 2554.8714464749632, -13701.708758081051, -187500.02235174447, -500.589668821057, 5579.911837567311, -33913.60895795929, -722.0731046286946, -20889.247463851865, -23927.005997539283, -21300.385451362785, -26753.495842635137, -41108.65784986709, 0.014, 1.012, 0.034, 192.0, 0.0, 56.0, 15.5, 80.0, 0.5, 8.0, 0.0, 0.0, 0.0, 1.695756159371181E9, 0.0, 2023-09-26 14:22:39.371
214.0, -159756.88067160617, 31042.14740301936, -49359.02200448776, -39646.94316946783, 2553.2174173852704, -13697.014891745435, -187500.02235174447, -514.0454189831519, 5575.821468331989, -33892.26304200447, -716.1498923480383, -20874.070629366714, -23932.05749178618, -21309.348500889362, -26757.92148803729, -41115.028097036855, 0.014, 1.012, 0.034, 192.0, 0.0, 0.0, 0.0, 0.0, 0.0, 0.0, 0.0, 0.0, 0.0, 1.695756159371191E9, 0.0, 2023-09-26 14:22:39.371
216.0, -159765.463741477, 31056.09489155947, -49355.87040851956, -39637.26486411868, 2555.1396674084267, -13688.118897452225, -187500.02235174447, -499.2038606648279, 5585.857401592422, -33902.88012062074, -714.8758429140858, -20883.972452160415, -23926.089576016617, -21299.60314030685, -26747.99731349913, -41096.61025960568, 0.014, 1.012, 0.034, 192.0, 0.0, 0.0, 0.0, 0.0, 0.0, 0.0, 0.0, 0.0, 0.0, 1.695756159371252E9, 0.0, 2023-09-26 14:22:39.371
218.0, -159748.27524999087, 31064.54385096358, -49355.62453933055, -39629.26293960368, 2558.134801165438, -13673.590263556274, -187500.02235174447, -491.11252917200676, 5585.499773681137, -33878.27084997545, -708.3491335331361, -20866.895719396558, -23929.01765454026, -21290.46127682463, -26741.515307607093, -41081.50048035389, 0.014, 1.012, 0.034, 192.0, 0.0, 0.0, 0.0, 0.0, 0.0, 0.0, 0.0, 0.0, 0.0, 1.695756159371261E9, 0.0, 2023-09-26 14:22:39.371
220.0, -159769.6211659457, 31064.119167818924, -49347.84613226011, -39624.30085233461, 2571.9258274943627, -13670.572778054808, -187500.02235174447, -493.92884897337547, 5582.683453879768, -33891.21251001507, -712.6630202130104, -20871.231957820888, -23934.4491284429, -21291.243587880563, -26739.324836650474, -41074.66084655057, 0.014, 1.012, 0.034, 192.0, 0.0, 0.0, 0.0, 0.0, 0.0, 0.0, 0.0, 0.0, 0.0, 1.695756159371271E9, 0.0, 2023-09-26 14:22:39.371
222.0, -159769.24118628993, 31064.499147474668, -49343.50989383578, -39622.959747667286, 2573.17752518386, -13674.506685078943, -187500.02235174447, -494.040607695652, 5599.246096521151, -33886.42923670164, -695.1839560489602, -20867.968603130415, -23916.63478811202, -21279.50892204153, -26721.91282771979, -41061.406262088574, 0.014, 1.01, 0.038, 192.0, 0.0, 56.0, 15.5, 72.0, 0.5, 24.0, 0.0, 0.0, 0.0, 1.695756159371283E9, 0.0, 2023-09-26 14:22:39.371
224.0, -159776.28198579335, 31053.94912409176, -49345.43214385893, -39628.77120122567, 2576.6643973188875, -13678.440592103076, -187500.02235174447, -489.8384797380543, 5584.315131225006, -33894.11823679427, -705.1528340760273, -20866.426332762996, -23927.2965702172, -21290.237759380074, -26731.8593540024, -41072.515079082856, 0.014, 1.01, 0.038, 192.0, 0.0, 0.0, 0.0, 0.0, 0.0, 0.0, 0.0, 0.0, 0.0, 1.695756159430739E9, 0.0, 2023-09-26 14:22:39.430
226.0, -159751.963287826, 31063.068635829528, -49338.5478065667, -39623.11620987847, 2579.9501037538175, -13679.111144436734, -187500.02235174447, -478.5508487881242, 5587.623189404391, -33882.67414363314, -702.157700319016, -20849.528413954784, -23923.049738770693, -21297.63618679478, -26735.52504009307, -41081.83575652072, 0.014, 1.01, 0.038, 192.0, 0.0, 0.0, 0.0, 0.0, 0.0, 0.0, 0.0, 0.0, 0.0, 1.695756159430761E9, 0.0, 2023-09-26 14:22:39.430
228.0, -159783.25573006342, 31071.986981867194, -49331.66346927446, -39616.12011386396, 2580.1736211983707, -13672.785600755884, -187500.02235174447, -465.13980211494, 5606.957448358232, -33898.29801300741, -695.8321566381642, -20865.353449029142, -23906.263578684757, -21281.20765462013, -26723.030414942554, -41061.674483022034, 0.014, 1.01, 0.038, 192.0, 0.0, 0.0, 0.0, 0.0, 0.0, 0.0, 0.0, 0.0, 0.0, 1.69575615943077E9, 0.0, 2023-09-26 14:22:39.430
230.0, -159752.38797097065, 31076.68084820281, -49341.0959054346, -39628.01124191419, 2568.4389553593346, -13694.399737644166, -187500.02235174447, -491.11252917200676, 5596.273314508595, -33878.11438776426, -688.1878600344492, -20846.2203557754, -23921.105137003084, -21297.03268969449, -26740.308313406505, -41086.5966780897, 0.014, 1.01, 0.038, 192.0, 0.0, 0.0, 0.0, 0.0, 0.0, 0.0, 0.0, 0.0, 0.0, 1.695756159430779E9, 0.0, 2023-09-26 14:22:39.430
232.0, -159746.82238660127, 31068.00837135415, -49354.126972452046, -39640.215294386784, 2553.105658662994, -13708.056653506357, -187500.02235174447, -501.10375894352904, 5585.052738792031, -33893.17946352714, -695.5192322157899, -20858.625573948095, -23927.028349283737, -21290.617739035813, -26749.33841816645, -41095.62678284965, 0.01, 1.012, 0.04, 192.0, 0.0, 40.0, 15.5, 80.0, 0.5, 32.0, 0.0, 0.0, 0.0, 1.695756159430788E9, 0.0, 2023-09-26 14:22:39.430
234.0, -159730.952648038, 31074.736246435197, -49337.43021934393, -39629.1511808814, 2568.4613071037897, -13691.248141675967, -187500.02235174447, -506.28936365716027, 5584.136317269364, -33887.32330647985, -698.3132002727033, -20843.56049818522, -23928.39180569551, -21301.011300207534, -26750.97009551169, -41098.06312299528, 0.01, 1.012, 0.04, 192.0, 0.0, 0.0, 0.0, 0.0, 0.0, 0.0, 0.0, 0.0, 0.0, 1.695756159430798E9, 0.0, 2023-09-26 14:22:39.430
236.0, -159759.02643907387, 31061.504013717655, -49331.01526868526, -39625.820770957565, 2574.0939467065273, -13686.308406151344, -187500.02235174447, -496.72281703028887, 5597.569715687003, -33895.43698971713, -694.8263281376753, -20864.772303673304, -23918.288817201712, -21294.529294315493, -26731.881705746855, -41078.9970849749, 0.01, 1.012, 0.04, 192.0, 0.0, 0.0, 0.0, 0.0, 0.0, 0.0, 0.0, 0.0, 0.0, 1.695756159430806E9, 0.0, 2023-09-26 14:22:39.430
238.0, -159741.79324409884, 31060.654647428353, -49335.664431531965, -39633.777991983654, 2572.46226936129, -13689.974092242015, -187500.02235174447, -492.0513024391297, 5601.213050033218, -33889.71494313657, -693.2393542813486, -20859.340829770666, -23913.527895632735, -21293.523465815004, -26724.43857484324, -41073.90088723909, 0.01, 1.012, 0.04, 192.0, 0.0, 0.0, 0.0, 0.0, 0.0, 0.0, 0.0, 0.0, 0.0, 1.695756159430844E9, 0.0, 2023-09-26 14:22:39.430
240.0, -159749.7504651249, 31046.14836527686, -49348.85196076059, -39644.88680897794, 2562.739260523231, -13704.659188349151, -187500.02235174447, -510.04445672565186, 5587.53378242657, -33902.56719619837, -713.4676830134015, -20872.1260275991, -23925.217857982858, -21314.22118118062, -26740.844755273432, -41088.96596300197, 0.01, 1.012, 0.04, 192.0, 0.0, 0.0, 0.0, 0.0, 0.0, 0.0, 0.0, 0.0, 0.0, 1.695756159492144E9, 0.0, 2023-09-26 14:22:39.492
242.0, -159722.61544735616, 31051.5798391795, -49357.14445795351, -39648.28427413515, 2559.4759058327563, -13715.76800534344, -187500.02235174447, -515.4088753949255, 5593.591105173959, -33907.68574567864, -711.5007295013344, -20872.1260275991, -23924.390843438014, -21318.7809370495, -26748.354941410416, -41095.62678284965, 0.01, 1.012, 0.044, 192.0, 0.0, 40.0, 15.5, 80.0, 0.5, 48.0, 0.0, 0.0, 0.0, 1.69575615949218E9, 0.0, 2023-09-26 14:22:39.492
244.0, -159731.24322071593, 31045.00842630964, -49351.176542183945, -39643.34453861052, 2553.1727138963597, -13716.885592566205, -187500.02235174447, -533.5137884037243, 5578.637788133358, -33919.331004539854, -724.1518168630382, -20879.546806758262, -23938.427738955947, -21325.59821910837, -26768.225642231184, -41113.15055050261, 0.01, 1.012, 0.044, 192.0, 0.0, 0.0, 0.0, 0.0, 0.0, 0.0, 0.0, 0.0, 0.0, 1.695756159492191E9, 0.0, 2023-09-26 14:22:39.492
246.0, -159725.40941541307, 31053.546792691566, -49334.680954775926, -39630.26876810417, 2565.332062880047, -13707.028473261415, -187500.02235174447, -521.8238260535987, 5599.53666919907, -33921.342661540824, -707.8573951551193, -20876.194045089967, -23919.562866635664, -21309.616721822826, -26752.981752512667, -41100.74533232991, 0.01, 1.012, 0.044, 192.0, 0.0, 0.0, 0.0, 0.0, 0.0, 0.0, 0.0, 0.0, 0.0, 1.695756159492201E9, 0.0, 2023-09-26 14:22:39.492
248.0, -159723.1518892231, 31048.24942925566, -49335.50796932077, -39627.18422736934, 2561.0628796890833, -13708.391929673187, -187500.02235174447, -523.3437446765596, 5595.781576130578, -33902.14251305372, -704.8175579091976, -20870.293184553764, -23918.244113712804, -21305.54870433196, -26752.177089712273, -41100.32064918526, 0.01, 1.012, 0.044, 192.0, 0.0, 0.0, 0.0, 0.0, 0.0, 0.0, 0.0, 0.0, 0.0, 1.69575615949221E9, 0.0, 2023-09-26 14:22:39.492
