%OpenBCI Raw EXG Data
%Number of channels = 16
%Sample Rate = 125 Hz
%Board = OpenBCI_GUI$BoardCytonSerialDaisy
Sample Index, EXG Channel 0, EXG Channel 1, EXG Channel 2, EXG Channel 3, EXG Channel 4, EXG Channel 5, EXG Channel 6, EXG Channel 7, EXG Channel 8, EXG Channel 9, EXG Channel 10, EXG Channel 11, EXG Channel 12, EXG Channel 13, EXG Channel 14, EXG Channel 15, Accel Channel 0, Accel Channel 1, Accel Channel 2, Other, Other, Other, Other, Other, Other, Other, Analog Channel 0, Analog Channel 1, Analog Channel 2, Timestamp, Other, Timestamp (Formatted)
194.0, 73586.07781959508, 69077.46274202618, -19000.502705633964, -14398.144411819509, 33149.983960388185, 32053.608543110913, -187500.02235174447, 26455.658847768173, 45799.439644746744, 33823.59848303777, 4744.917719950405, -1534.6931260458382, 52437.05838168364, 35649.73600503636, 23100.930225960044, -7856.124085917961, 0.0, 0.0, 0.0, 192.0, 0.0, 0.0, 0.0, 0.0, 0.0, 0.0, 0.0, 0.0, 0.0, 1.695754457275577E9, 0.0, 2023-09-26 13:54:17.275
196.0, 73576.17599680138, 69063.35879127489, -19003.94487428008, -14400.51369673177, 33148.732262698686, 32058.54827863554, -187500.02235174447, 26461.023266437445, 45787.03442657404, 33792.28368905588, 4734.457103545321, -1546.6960128183382, 52433.392695592964, 35635.810868240704, 23111.81552550978, -7847.719830002765, 0.108, 1.016, 0.054, 192.0, 1.5, 48.0, 15.5, 96.0, 0.5, 88.0, 0.0, 0.0, 0.0, 1.695754457275598E9, 0.0, 2023-09-26 13:54:17.275
198.0, 73586.614261462, 69066.86801515437, -18966.438647084076, -14397.250342041296, 33158.34351281446, 32066.170223494795, -187500.02235174447, 26481.318650402864, 45780.284199748545, 33800.419724037616, 4729.718533720796, -1544.4384866283522, 52421.65802975393, 35650.89829574803, 23117.649330812616, -7843.852978211997, 0.108, 1.016, 0.054, 192.0, 0.0, 0.0, 0.0, 0.0, 0.0, 0.0, 0.0, 0.0, 0.0, 1.695754457275625E9, 0.0, 2023-09-26 13:54:17.275
200.0, 73599.10888661252, 69090.6055677659, -18936.04027462486, -14371.70229812888, 33155.348379057454, 32084.722171392703, -187500.02235174447, 26471.416827609162, 45793.53878421054, 33784.7735029189, 4735.909966934916, -1535.7436580352376, 52423.02148616571, 35640.61649329859, 23114.207162166498, -7832.028905395139, 0.108, 1.016, 0.054, 192.0, 0.0, 0.0, 0.0, 0.0, 0.0, 0.0, 0.0, 0.0, 0.0, 1.695754457275635E9, 0.0, 2023-09-26 13:54:17.275
202.0, 73587.48597949576, 69084.1012101294, -18951.08299864328, -14383.191094778907, 33133.13074506888, 32069.500633418636, -187500.02235174447, 26471.305068886886, 45803.03827560405, 33804.86772118422, 4749.142199652458, -1520.3209543610758, 52425.1225501445, 35669.025560501286, 23112.508429587895, -7824.0269808801395, 0.108, 1.016, 0.054, 192.0, 0.0, 0.0, 0.0, 0.0, 0.0, 0.0, 0.0, 0.0, 0.0, 1.695754457275644E9, 0.0, 2023-09-26 13:54:17.275
204.0, 73592.38101153148, 69088.4598002982, -18958.436722569077, -14382.386431978517, 33125.95583509873, 32057.743615835145, -187500.02235174447, 26452.46254831106, 45792.60001094342, 33803.12428511671, 4734.725324478784, -1529.865149243492, 52411.867965682504, 35664.37639765458, 23088.167379876064, -7848.904472458897, 0.108, 1.016, 0.054, 192.0, 0.0, 0.0, 0.0, 0.0, 0.0, 0.0, 0.0, 0.0, 0.0, 1.69575445727567E9, 0.0, 2023-09-26 13:54:17.275
206.0, 73598.55009300115, 69092.43841081124, -18957.60970802423, -14390.388356493517, 33123.25127401963, 32050.747519820634, -187500.02235174447, 26447.545164530893, 45788.531993452554, 33826.07952667231, 4732.736019222262, -1520.2315473832546, 52410.39275054845, 35663.169403454, 23083.38410656263, -7851.407867837891, 0.112, 1.012, 0.054, 192.0, 1.5, 64.0, 15.5, 80.0, 0.5, 88.0, 0.0, 0.0, 0.0, 1.695754457275679E9, 0.0, 2023-09-26 13:54:17.275
208.0, 73599.75708720172, 69103.23430338316, -18950.613612009718, -14387.616740181058, 33123.56419844201, 32043.90788601731, -187500.02235174447, 26432.010702134456, 45792.15297605431, 33812.288500343384, 4727.751580208728, -1521.9973351952237, 52410.39275054845, 35656.508583606315, 23082.355926317683, -7871.32327214757, 0.112, 1.012, 0.054, 192.0, 0.0, 0.0, 0.0, 0.0, 0.0, 0.0, 0.0, 0.0, 0.0, 1.695754457275696E9, 0.0, 2023-09-26 13:54:17.275
210.0, 73576.33245901257, 69071.02543962306, -18966.639812784175, -14414.729406205346, 33119.429125717776, 32029.37925212136, -187500.02235174447, 26429.149678844176, 45789.515470208586, 33812.31085208784, 4726.276365074678, -1527.898195731425, 52410.973895904295, 35658.40848188502, 23079.070219882753, -7880.1969146963265, 0.112, 1.012, 0.054, 192.0, 0.0, 0.0, 0.0, 0.0, 0.0, 0.0, 0.0, 0.0, 0.0, 1.695754457275705E9, 0.0, 2023-09-26 13:54:17.275
0.0, 36849.89057181961, 34537.31203524018, -9519.451501304091, -7216.908897985089, 16517.26860013826, 15984.134791390275, -93750.01117587223, 13193.5641996341, 22884.297118699207, 16902.76913675894, 2355.270368489071, -775.5608291102444, 26202.011251689346, 17823.213973428486, 11538.19400527406, -3947.675698718512, 0.11, 1.0150000000000001, 0.056999999999999995, 192.0, 1.5, 48.0, 15.5, 104.0, 0.5, 112.0, 0.0, 0.0, 0.0, 1.695754457433523E9, 0.0, 2023-09-26 13:54:17.433
2.0, 73690.50516969028, 69064.9010616423, -19050.034171346924, -14442.222051885374, 33020.76852569205, 31957.65250416428, -187500.02235174447, 26381.249890476454, 45760.43585067223, 33835.22139015453, 4706.986809609748, -1486.0780818555454, 52254.24346378368, 35637.084917674656, 22836.106757653568, -7861.980242965251, 0.11, 1.0150000000000001, 0.056999999999999995, 192.0, 0.0, 0.0, 0.0, 0.0, 0.0, 0.0, 0.0, 0.0, 0.0, 1.695754457433552E9, 0.0, 2023-09-26 13:54:17.433
4.0, 73678.16700675094, 69060.96715461816, -19052.29169753691, -14434.42129307047, 33024.836543182915, 31969.543632214503, -187500.02235174447, 26391.1293615257, 45750.55637962298, 33836.18251516611, 4711.45715850081, -1475.997445106202, 52243.80519912305, 35614.04026914123, 22842.27583912323, -7852.07842017155, 0.11, 1.0150000000000001, 0.056999999999999995, 192.0, 0.0, 0.0, 0.0, 0.0, 0.0, 0.0, 0.0, 0.0, 0.0, 1.695754457433562E9, 0.0, 2023-09-26 13:54:17.433
6.0, 73667.79579732369, 69055.2004045487, -19066.328593054845, -14442.378514096561, 33013.794781421995, 31974.058684594478, -187500.02235174447, 26392.8280941043, 45740.27457717354, 33823.64318652668, 4696.816765882583, -1488.96145689028, 52242.084114799996, 35610.7545627063, 22827.367225571543, -7861.60026330951, 0.11, 1.0150000000000001, 0.056999999999999995, 192.0, 0.0, 0.0, 0.0, 0.0, 0.0, 0.0, 0.0, 0.0, 0.0, 1.695754457433571E9, 0.0, 2023-09-26 13:54:17.433
8.0, 73669.9862682803, 69060.02838135105, -19063.758142442482, -14437.215261127385, 33005.01054585106, 31974.03633285002, -187500.02235174447, 26389.877663836203, 45735.91598700476, 33834.30496863186, 4691.094719302025, -1486.927448144847, 52231.28822222808, 35610.3075278172, 22819.119431867533, -7864.79656276662, 0.114, 1.018, 0.062, 192.0, 1.5, 72.0, 15.5, 104.0, 0.5, 120.0, 0.0, 0.0, 0.0, 1.69575445743358E9, 0.0, 2023-09-26 13:54:17.433
10.0, 73695.51196044826, 69080.14495136082, -19039.05946481937, -14416.115214361575, 33035.6994909882, 31980.13835908632, -187500.02235174447, 26391.866969092724, 45752.27746394604, 33837.88124774471, 4704.326952019567, -1482.7476719317046, 52253.461152727745, 35639.38714735355, 22827.434280804908, -7853.3748213499575, 0.114, 1.018, 0.062, 192.0, 0.0, 0.0, 0.0, 0.0, 0.0, 0.0, 0.0, 0.0, 0.0, 1.695754457433589E9, 0.0, 2023-09-26 13:54:17.433
12.0, 73685.00664055427, 69066.46568375417, -19046.614354445264, -14424.273601087762, 33023.83071468243, 31984.27343181055, -187500.02235174447, 26390.279995236397, 45759.83235357194, 33854.62270434174, 4716.508652747709, -1472.2423520377104, 52261.083097587005, 35635.02855718476, 22839.392464088498, -7840.544920032611, 0.114, 1.018, 0.062, 192.0, 0.0, 0.0, 0.0, 0.0, 0.0, 0.0, 0.0, 0.0, 0.0, 1.695754457433599E9, 0.0, 2023-09-26 13:54:17.433
14.0, 73695.86958835955, 69077.97683214866, -19034.656171161674, -14407.040406112721, 33031.11738337486, 31981.725332942646, -187500.02235174447, 26395.17502727211, 45763.58744664043, 33851.64992232918, 4718.229737070767, -1465.961511845769, 52265.73226043371, 35657.559115595715, 22836.553792542672, -7840.83549271053, 0.114, 1.018, 0.062, 192.0, 0.0, 0.0, 0.0, 0.0, 0.0, 0.0, 0.0, 0.0, 0.0, 1.695754457433651E9, 0.0, 2023-09-26 13:54:17.433
16.0, 73692.78504762471, 69071.74069544562, -19040.400569486686, -14421.412577797482, 33030.93856941922, 31975.66801019526, -187500.02235174447, 26387.30721322384, 45776.931438080246, 33844.117384447745, 4732.803074455628, -1458.1384012864116, 52267.229827312214, 35645.44447010094, 22843.66164727946, -7841.260175855181, 0.114, 1.018, 0.062, 192.0, 0.0, 0.0, 0.0, 0.0, 0.0, 0.0, 0.0, 0.0, 0.0, 1.695754457492883E9, 0.0, 2023-09-26 13:54:17.492
18.0, 73683.0396870422, 69063.11292208587, -19048.15662481268, -14427.156976122496, 33019.025089624534, 31967.263754280062, -187500.02235174447, 26394.54917842736, 45759.43002217174, 33837.680082044615, 4720.375504538477, -1470.1412880589114, 52265.19581856678, 35607.26769057127, 22832.84340296309, -7845.015268923673, 0.11, 1.014, 0.06, 192.0, 1.5, 56.0, 15.5, 88.0, 0.5, 112.0, 0.0, 0.0, 0.0, 1.695754457492906E9, 0.0, 2023-09-26 13:54:17.492
20.0, 73675.57420439413, 69054.61925919286, -19060.651249963197, -14433.57192678117, 33015.56056923397, 31966.86142287987, -187500.02235174447, 26383.17214049961, 45750.24345520061, 33831.19807615258, 4710.965420122793, -1487.352131289498, 52247.42618172481, 35624.56794077968, 22826.875487193523, -7858.023984196661, 0.11, 1.014, 0.06, 192.0, 0.0, 0.0, 0.0, 0.0, 0.0, 0.0, 0.0, 0.0, 0.0, 1.695754457492917E9, 0.0, 2023-09-26 13:54:17.492
22.0, 73674.74718984928, 69051.57942194694, -19089.21677937708, -14426.195851110919, 33035.319511332455, 31972.248193293595, -187500.02235174447, 26390.905844081146, 45750.288158689524, 33838.864724500745, 4714.184071324357, -1481.987712620224, 52259.607882452954, 35627.54072279224, 22837.13493789851, -7847.786885236131, 0.11, 1.014, 0.06, 192.0, 0.0, 0.0, 0.0, 0.0, 0.0, 0.0, 0.0, 0.0, 0.0, 1.695754457492926E9, 0.0, 2023-09-26 13:54:17.492
24.0, 73656.95520126286, 69049.41130273478, -19096.59285504733, -14430.576793024158, 33026.26705482806, 31971.957620615678, -187500.02235174447, 26390.883492336692, 45745.30371967599, 33819.82103822482, 4714.2958300466335, -1479.707834685783, 52263.22886505471, 35625.08203090215, 22835.547964042184, -7842.064838655572, 0.11, 1.014, 0.06, 192.0, 0.0, 0.0, 0.0, 0.0, 0.0, 0.0, 0.0, 0.0, 0.0, 1.695754457492935E9, 0.0, 2023-09-26 13:54:17.492
26.0, 73646.49458485778, 69050.3500760019, -19114.764823289494, -14429.28039184575, 33016.72285994564, 31960.558230943472, -187500.02235174447, 26395.73382088349, 45743.4485248862, 33822.97263419302, 4703.365827007989, -1482.9488376318025, 52252.567082949536, 35615.113152875085, 22829.0883098946, -7848.07745791405, 0.11, 1.014, 0.06, 192.0, 0.0, 0.0, 0.0, 0.0, 0.0, 0.0, 0.0, 0.0, 0.0, 1.695754457492944E9, 0.0, 2023-09-26 13:54:17.492
28.0, 73674.63543112701, 69078.75914320459, -19101.39848010522, -14405.65459795649, 33033.53137177603, 31977.52320498505, -187500.02235174447, 26386.9272335681, 45751.62926335684, 33824.26903537143, 4710.607792211508, -1472.8234973935482, 52249.99663233717, 35626.9595774364, 22822.829821447114, -7847.406905580391, 0.112, 1.016, 0.066, 192.0, 1.5, 64.0, 15.5, 96.0, 1.0, 8.0, 0.0, 0.0, 0.0, 1.695754457492953E9, 0.0, 2023-09-26 13:54:17.492
30.0, 73670.81328282515, 69075.96517514768, -19110.987378476548, -14415.42231028346, 33034.82777295444, 31975.377437517338, -187500.02235174447, 26399.17598952961, 45766.783746097535, 33861.48468988951, 4727.975097653281, -1456.0373373076127, 52272.57189423703, 35647.50083059083, 22836.106757653568, -7825.546899503101, 0.112, 1.016, 0.066, 192.0, 0.0, 0.0, 0.0, 0.0, 0.0, 0.0, 0.0, 0.0, 0.0, 1.695754457553205E9, 0.0, 2023-09-26 13:54:17.553
32.0, 73663.92894553291, 69071.65128846781, -19112.01555872149, -14416.897525417511, 33024.68008097173, 31974.66218169477, -187500.02235174447, 26383.46271317753, 45750.6010831119, 33836.80836401086, 4714.318181791089, -1471.9517793597913, 52258.40088825237, 35632.748679250326, 22814.358510298553, -7848.658603269888, 0.112, 1.016, 0.066, 192.0, 0.0, 0.0, 0.0, 0.0, 0.0, 0.0, 0.0, 0.0, 0.0, 1.695754457553223E9, 0.0, 2023-09-26 13:54:17.553
34.0, 73652.90953551645, 69058.01672435006, -19117.692901813138, -14426.866403444577, 33020.1426768473, 31969.409521747773, -187500.02235174447, 26396.247911005965, 45753.46210640218, 33836.7860122664, 4716.419245769888, -1471.8176688930594, 52256.255120784655, 35611.71568771788, 22818.024196389222, -7845.17173113486, 0.112, 1.016, 0.066, 192.0, 0.0, 0.0, 0.0, 0.0, 0.0, 0.0, 0.0, 0.0, 0.0, 1.695754457553234E9, 0.0, 2023-09-26 13:54:17.553
36.0, 73648.9309250034, 69059.04490459501, -19129.606381607817, -14425.346484821617, 33013.61596746635, 31979.646620708303, -187500.02235174447, 26387.55308241285, 45749.90817903378, 33818.50228530196, 4712.127710834469, -1479.9537038747912, 52257.506818474154, 35617.66125174299, 22816.839553933092, -7845.909338701885, 0.112, 1.016, 0.066, 192.0, 0.0, 0.0, 0.0, 0.0, 0.0, 0.0, 0.0, 0.0, 0.0, 1.695754457553282E9, 0.0, 2023-09-26 13:54:17.553
38.0, 73638.76088127623, 69060.54247147351, -19119.235172180553, -14420.697321974912, 33040.88509570183, 31978.28316429653, -187500.02235174447, 26410.396565246174, 45746.26484468757, 33827.26416912844, 4704.8410421420385, -1488.089738856523, 52256.14336206238, 35615.94016741993, 22816.61603648854, -7848.569196292066, 0.114, 1.018, 0.062, 192.0, 1.5, 72.0, 15.5, 104.0, 0.5, 120.0, 0.0, 0.0, 0.0, 1.695754457553292E9, 0.0, 2023-09-26 13:54:17.553
40.0, 73623.49463981326, 69058.37435226135, -19135.50724214402, -14422.016074897776, 33023.00370013758, 31967.28610602452, -187500.02235174447, 26399.51126569644, 45742.040364985514, 33828.247645884476, 4702.672922929874, -1492.8730121699587, 52253.66231842784, 35617.39303080953, 22822.069862135635, -7836.543957775111, 0.114, 1.018, 0.062, 192.0, 0.0, 0.0, 0.0, 0.0, 0.0, 0.0, 0.0, 0.0, 0.0, 1.695754457553301E9, 0.0, 2023-09-26 13:54:17.553
42.0, 73633.26235214024, 69068.74556168861, -19133.78615782096, -14415.08703411663, 33029.3962990518, 31976.964411373665, -187500.02235174447, 26406.03797507739, 45733.18907418121, 33822.480895815, 4698.716664161285, -1486.5251167446515, 52249.840170125986, 35632.323996105675, 22810.759879441248, -7842.2213008667595, 0.114, 1.018, 0.062, 192.0, 0.0, 0.0, 0.0, 0.0, 0.0, 0.0, 0.0, 0.0, 0.0, 1.69575445755331E9, 0.0, 2023-09-26 13:54:17.553
44.0, 73638.1350324315, 69066.1080558429, -19132.333294431366, -14412.561286993181, 33018.60040647988, 31968.71661766966, -187500.02235174447, 26382.59099514377, 45752.07629824595, 33823.88905571569, 4714.206423068813, -1479.1490410744002, 52266.20164706727, 35633.62039728408, 22812.07863236411, -7834.040562396117, 0.114, 1.018, 0.062, 192.0, 0.0, 0.0, 0.0, 0.0, 0.0, 0.0, 0.0, 0.0, 0.0, 1.695754457553319E9, 0.0, 2023-09-26 13:54:17.553
46.0, 73644.75114879027, 69075.13816060283, -19127.50531762902, -14405.878115401045, 33035.297159588, 31974.41631250576, -187500.02235174447, 26384.915576567124, 45752.2998156905, 33832.49447733098, 4719.302620804622, -1470.096584570001, 52257.05978358505, 35644.52804857827, 22816.213705088343, -7837.9968211647065, 0.114, 1.018, 0.062, 192.0, 0.0, 0.0, 0.0, 0.0, 0.0, 0.0, 0.0, 0.0, 0.0, 1.695754457613492E9, 0.0, 2023-09-26 13:54:17.613
48.0, 73641.86777375553, 69069.37141053336, -19132.60151536483, -14404.559362478181, 33028.85985718487, 31979.33369628593, -187500.02235174447, 26389.16240801363, 45745.10255397589, 33822.07856441481, 4715.413417269399, -1473.8516776384924, 52255.09283007298, 35620.81284771119, 22818.09125162259, -7832.095960628505, 0.11800000000000001, 1.022, 0.062, 192.0, 1.5, 88.0, 15.5, 120.0, 0.5, 120.0, 0.0, 0.0, 0.0, 1.695754457613514E9, 0.0, 2023-09-26 13:54:17.613
50.0, 73642.35951213354, 69071.51717800107, -19133.696750843137, -14408.493269502314, 33038.180534622734, 31986.083923111433, -187500.02235174447, 26402.171123286622, 45750.86930404536, 33854.06391073035, 4725.739923207751, -1465.2909595121098, 52267.3862895234, 35647.903161991024, 22819.566466756638, -7828.631440237933, 0.11800000000000001, 1.022, 0.062, 192.0, 0.0, 0.0, 0.0, 0.0, 0.0, 0.0, 0.0, 0.0, 0.0, 1.695754457613525E9, 0.0, 2023-09-26 13:54:17.613
52.0, 73628.45672708235, 69057.3014685275, -19146.660762627216, -14421.837260942133, 33009.48089474212, 31980.674800953246, -187500.02235174447, 26395.08562029429, 45745.86251328737, 33826.39245109468, 4716.329838792067, -1475.7739276616487, 52272.4377837703, 35627.071336158675, 22808.055318362156, -7831.201890850293, 0.11800000000000001, 1.022, 0.062, 192.0, 0.0, 0.0, 0.0, 0.0, 0.0, 0.0, 0.0, 0.0, 0.0, 1.695754457613534E9, 0.0, 2023-09-26 13:54:17.613
54.0, 73638.80558476516, 69066.19746282071, -19137.384788678264, -14422.776034209257, 33013.72772618863, 31991.738914458623, -187500.02235174447, 26403.825152376314, 45745.30371967599, 33826.012471438946, 4707.992638110237, -1479.7525381746934, 52235.065667041024, 35625.61847276908, 22798.22055080182, -7850.580853293044, 0.11800000000000001, 1.022, 0.062, 192.0, 0.0, 0.0, 0.0, 0.0, 0.0, 0.0, 0.0, 0.0, 0.0, 1.695754457613542E9, 0.0, 2023-09-26 13:54:17.613
56.0, 73651.47902387132, 69066.19746282071, -19136.848346811337, -14431.33675233564, 33021.43907802571, 31994.532882515537, -187500.02235174447, 26395.3314894833, 45750.37756566734, 33824.06786967133, 4706.137443320446, -1482.3229887870539, 52261.53013247611, 35636.05673742971, 22815.923132410426, -7845.50700730169, 0.11800000000000001, 1.022, 0.062, 192.0, 0.0, 0.0, 0.0, 0.0, 0.0, 0.0, 0.0, 0.0, 0.0, 1.695754457613551E9, 0.0, 2023-09-26 13:54:17.613
58.0, 73677.02706778373, 69081.93309091724, -19117.871715768782, -14421.345522564117, 33037.33116833343, 32014.113010658388, -187500.02235174447, 26392.626928404206, 45760.59231288342, 33822.83852372629, 4715.860452158506, -1477.8302881515372, 52274.650606471376, 35638.56013280871, 22838.90072571048, -7832.095960628505, 0.11800000000000001, 1.024, 0.058, 192.0, 1.5, 88.0, 16.0, 0.0, 0.5, 104.0, 0.0, 0.0, 0.0, 1.695754457613587E9, 0.0, 2023-09-26 13:54:17.613
60.0, 73671.70735260336, 69061.548299974, -19122.990265249045, -14428.922763934466, 33010.62083370934, 31997.9526994172, -187500.02235174447, 26385.51907366742, 45768.750699609605, 33848.49832636098, 4711.390103267444, -1479.2607997966768, 52277.243408828195, 35641.62232179908, 22851.57416481664, -7833.50412052919, 0.11800000000000001, 1.024, 0.058, 192.0, 0.0, 0.0, 0.0, 0.0, 0.0, 0.0, 0.0, 0.0, 0.0, 1.695754457673766E9, 0.0, 2023-09-26 13:54:17.673
62.0, 73668.86868105755, 69056.63091619384, -19122.07384372638, -14434.890679704033, 32999.042630081494, 31979.020771863554, -187500.02235174447, 26380.31111720933, 45752.322167434955, 33829.20877089605, 4702.114129318492, -1483.0829480985342, 52259.965510364236, 35637.219028141386, 22843.393426345996, -7851.296109115614, 0.11800000000000001, 1.024, 0.058, 192.0, 0.0, 0.0, 0.0, 0.0, 0.0, 0.0, 0.0, 0.0, 0.0, 1.695754457673784E9, 0.0, 2023-09-26 13:54:17.673
64.0, 73685.09604753209, 69060.74363717361, -19118.229343680065, -14433.52722329226, 32993.67821141222, 31998.556196517493, -187500.02235174447, 26384.312079466832, 45756.07726050344, 33823.553779548856, 4708.529079977165, -1472.8458491380036, 52267.83332441251, 35632.525161805774, 22854.658705551472, -7843.227129367248, 0.11800000000000001, 1.024, 0.058, 192.0, 0.0, 0.0, 0.0, 0.0, 0.0, 0.0, 0.0, 0.0, 0.0, 1.695754457673795E9, 0.0, 2023-09-26 13:54:17.673
66.0, 73696.16016103746, 69068.76791343307, -19116.262390167998, -14435.248307615318, 32996.96391784715, 32007.251025110607, -187500.02235174447, 26384.714410867025, 45777.28906599153, 33828.06883192883, 4703.7234549192735, -1469.1801630473333, 52265.687556944795, 35642.941074721944, 22865.074618467646, -7840.142588632416, 0.11800000000000001, 1.024, 0.058, 192.0, 0.0, 0.0, 0.0, 0.0, 0.0, 0.0, 0.0, 0.0, 0.0, 1.695754457673806E9, 0.0, 2023-09-26 13:54:17.673
68.0, 73698.70825990537, 69074.95934664719, -19108.461631353097, -14431.582621524647, 32997.03097308052, 32010.447324567718, -187500.02235174447, 26393.766867371425, 45763.40863268478, 33850.040596728395, 4702.270591529678, -1472.1082415709784, 52266.603978467465, 35644.17042066699, 22881.547854131208, -7835.649887996899, 0.114, 1.018, 0.056, 192.0, 1.5, 72.0, 15.5, 104.0, 0.5, 96.0, 0.0, 0.0, 0.0, 1.695754457673815E9, 0.0, 2023-09-26 13:54:17.673
70.0, 73674.41191368246, 69046.43852072222, -19121.135070459255, -14452.280336890262, 32993.54410094549, 31995.315193571474, -187500.02235174447, 26377.338335196775, 45743.31441441947, 33838.440041356094, 4692.2793617581565, -1483.9099626433806, 52261.708946431754, 35649.55719108071, 22880.162045974976, -7843.31653634507, 0.114, 1.018, 0.056, 192.0, 0.0, 0.0, 0.0, 0.0, 0.0, 0.0, 0.0, 0.0, 0.0, 1.695754457673826E9, 0.0, 2023-09-26 13:54:17.673
72.0, 73688.58291966713, 69057.25676503859, -19102.717233028085, -14438.176386138963, 33004.20588305067, 32004.412353564785, -187500.02235174447, 26388.536559168882, 45736.027745727035, 33806.78997120738, 4679.225942996257, -1488.5814772345398, 52249.281376514606, 35633.03925192824, 22878.306851185185, -7847.7421817472205, 0.114, 1.018, 0.056, 192.0, 0.0, 0.0, 0.0, 0.0, 0.0, 0.0, 0.0, 0.0, 0.0, 1.695754457673835E9, 0.0, 2023-09-26 13:54:17.673
74.0, 73700.38464073952, 69064.2528610531, -19099.185657404145, -14424.497118532316, 32999.44496148169, 32013.867141469378, -187500.02235174447, 26382.97097479951, 45761.08405126144, 33814.814247466835, 4692.346416991522, -1477.1373840734225, 52255.76338240664, 35643.94690322243, 22892.142581003023, -7833.191196106815, 0.114, 1.018, 0.056, 192.0, 0.0, 0.0, 0.0, 0.0, 0.0, 0.0, 0.0, 0.0, 0.0, 1.695754457673844E9, 0.0, 2023-09-26 13:54:17.673
76.0, 73691.13101853503, 69064.2528610531, -19109.847439509325, -14433.795444225723, 32998.01444983655, 32000.18787386273, -187500.02235174447, 26397.141980784178, 45757.23955121512, 33830.058137185355, 4695.07332981507, -1473.4716979827522, 52264.97230112223, 35630.33469084915, 22882.91131054298, -7826.351562303492, 0.114, 1.018, 0.056, 192.0, 0.0, 0.0, 0.0, 0.0, 0.0, 0.0, 0.0, 0.0, 0.0, 1.695754457732698E9, 0.0, 2023-09-26 13:54:17.732
78.0, 73704.58676869712, 69071.31601230097, -19106.02529120747, -14427.089920889131, 33002.82007489444, 32019.05274618301, -187500.02235174447, 26391.55404467035, 45758.82652507145, 33814.90365444466, 4698.895478116927, -1476.1986108062997, 52260.21137955325, 35642.65050204402, 22872.51774937126, -7827.491501270712, 0.116, 1.018, 0.056, 192.0, 1.5, 80.0, 15.5, 104.0, 0.5, 96.0, 0.0, 0.0, 0.0, 1.695754457732718E9, 0.0, 2023-09-26 13:54:17.732
80.0, 73696.85306511559, 69070.04196286702, -19118.251695424522, -14441.171519895974, 33004.5411592175, 31998.10916162839, -187500.02235174447, 26408.362556500742, 45766.224952486155, 33833.88028548721, 4700.370693250978, -1479.1713928188556, 52264.72643193322, 35640.281217131764, 22872.964784260366, -7824.362257046969, 0.116, 1.018, 0.056, 192.0, 0.0, 0.0, 0.0, 0.0, 0.0, 0.0, 0.0, 0.0, 0.0, 1.695754457732762E9, 0.0, 2023-09-26 13:54:17.732
82.0, 73695.75782963727, 69070.10901810038, -19117.089404712846, -14440.635078029047, 33008.698583686186, 31986.866234167366, -187500.02235174447, 26381.227538731997, 45763.74390885162, 33813.40608756615, 4692.525230947164, -1485.541639988618, 52260.47960048671, 35636.235551385354, 22868.829711536135, -7839.270870598659, 0.116, 1.018, 0.056, 192.0, 0.0, 0.0, 0.0, 0.0, 0.0, 0.0, 0.0, 0.0, 0.0, 1.695754457732771E9, 0.0, 2023-09-26 13:54:17.732
84.0, 73697.16598953796, 69061.19067206272, -19118.698730313627, -14444.613688542091, 33004.89878712878, 31977.858481151878, -187500.02235174447, 26396.583187172793, 45755.09378374741, 33815.574206778314, 4685.685597143841, -1489.6767127128498, 52264.41350751084, 35625.7078797469, 22867.242737679808, -7840.544920032611, 0.116, 1.018, 0.056, 192.0, 0.0, 0.0, 0.0, 0.0, 0.0, 0.0, 0.0, 0.0, 0.0, 1.695754457732782E9, 0.0, 2023-09-26 13:54:17.732
86.0, 73708.45362048788, 69073.97586989116, -19108.573390075373, -14424.184194109941, 33024.545970504994, 31991.627155736347, -187500.02235174447, 26372.778579327893, 45763.565094895974, 33815.06011665584, 4700.6165624399855, -1471.0130060926683, 52274.96353089375, 35657.827336529175, 22871.28840342622, -7836.78982696412, 0.116, 1.018, 0.056, 192.0, 0.0, 0.0, 0.0, 0.0, 0.0, 0.0, 0.0, 0.0, 0.0, 1.695754457732791E9, 0.0, 2023-09-26 13:54:17.732
88.0, 73703.78210589672, 69059.51429122857, -19121.3138844149, -14442.110293163098, 33008.18449356371, 31968.627210691837, -187500.02235174447, 26380.244061975965, 45762.33574895093, 33833.99204420949, 4696.3920827379325, -1477.450308495797, 52258.713812674745, 35617.773010465266, 22869.500263869795, -7842.958908433785, 0.112, 1.02, 0.058, 192.0, 1.5, 64.0, 15.5, 112.0, 0.5, 104.0, 0.0, 0.0, 0.0, 1.695754457732806E9, 0.0, 2023-09-26 13:54:17.732
90.0, 73715.62853045804, 69074.04292512452, -19104.706538284605, -14427.268734844773, 33019.4944762581, 31994.354068559896, -187500.02235174447, 26375.55019564035, 45764.16859199627, 33817.42940156811, 4694.827460626061, -1483.5970382210062, 52264.81583891104, 35622.51158028979, 22861.63244982153, -7854.224187639259, 0.112, 1.02, 0.058, 192.0, 0.0, 0.0, 0.0, 0.0, 0.0, 0.0, 0.0, 0.0, 0.0, 1.695754457792908E9, 0.0, 2023-09-26 13:54:17.792
92.0, 73703.2456640298, 69073.35002104641, -19106.49467784103, -14435.561232037691, 33019.4944762581, 31994.17525460425, -187500.02235174447, 26395.845579605768, 45773.75749036759, 33841.27871290192, 4699.677789172863, -1470.7894886481154, 52276.86342917245, 35648.2160864134, 22880.251452952798, -7830.911318172374, 0.112, 1.02, 0.058, 192.0, 0.0, 0.0, 0.0, 0.0, 0.0, 0.0, 0.0, 0.0, 0.0, 1.695754457792934E9, 0.0, 2023-09-26 13:54:17.792
94.0, 73703.67034717445, 69070.06431461147, -19113.513125599995, -14435.47182505987, 33014.912368644764, 31993.124722614855, -187500.02235174447, 26388.13422776869, 45759.47472566065, 33818.27876785741, 4691.050015813114, -1488.536773745629, 52270.806106425065, 35646.942036979446, 22874.931737772436, -7836.208681608282, 0.112, 1.02, 0.058, 192.0, 0.0, 0.0, 0.0, 0.0, 0.0, 0.0, 0.0, 0.0, 0.0, 1.695754457792943E9, 0.0, 2023-09-26 13:54:17.792
96.0, 73710.62173970006, 69069.52787274455, -19117.894067513236, -14439.897470462021, 33016.83461866792, 31974.349257272395, -187500.02235174447, 26384.42383818911, 45751.20458021219, 33824.045517926876, 4681.394062208422, -1490.6825412133387, 52260.70311793126, 35632.8604379726, 22869.679077825436, -7841.684858999832, 0.112, 1.02, 0.058, 192.0, 0.0, 0.0, 0.0, 0.0, 0.0, 0.0, 0.0, 0.0, 0.0, 1.695754457792952E9, 0.0, 2023-09-26 13:54:17.792
98.0, 73709.3476902661, 69070.89132915632, -19108.573390075373, -14428.229859856352, 33017.86279891286, 31994.42112379326, -187500.02235174447, 26376.488968907473, 45775.56798166847, 33812.31085208784, 4687.563143678087, -1484.3346457880314, 52273.13068784842, 35633.10630716161, 22873.009487749277, -7840.254347354692, 0.112, 1.02, 0.06, 192.0, 1.5, 64.0, 15.5, 112.0, 0.5, 112.0, 0.0, 0.0, 0.0, 1.695754457792962E9, 0.0, 2023-09-26 13:54:17.792
100.0, 73708.43126874343, 69076.03223038104, -19105.555904573906, -14412.874211415556, 33029.91038917427, 32005.798161721013, -187500.02235174447, 26393.610405160238, 45773.69043513423, 33859.22716369953, 4699.409568239399, -1470.7447851592046, 52287.502859533175, 35639.54360956474, 22872.29423192671, -7825.636306480922, 0.112, 1.02, 0.06, 192.0, 0.0, 0.0, 0.0, 0.0, 0.0, 0.0, 0.0, 0.0, 0.0, 1.695754457792972E9, 0.0, 2023-09-26 13:54:17.792
102.0, 73689.5887481676, 69057.05559933849, -19133.60734386532, -14453.889662491043, 33000.920176615735, 31973.835167149922, -187500.02235174447, 26375.729009595994, 45752.38922266832, 33813.29432884388, 4683.495126187221, -1484.602866721495, 52265.44168775579, 35641.465859587894, 22860.62662132104, -7839.606146765488, 0.112, 1.02, 0.06, 192.0, 0.0, 0.0, 0.0, 0.0, 0.0, 0.0, 0.0, 0.0, 0.0, 1.695754457792981E9, 0.0, 2023-09-26 13:54:17.792
104.0, 73704.43030648593, 69060.83304415144, -19124.823108294382, -14439.092807661631, 33027.40699379528, 31991.33658305843, -187500.02235174447, 26384.69205912257, 45746.24249294311, 33801.961994405036, 4670.464059169777, -1500.3161430735759, 52264.68172844431, 35628.278330359266, 22849.338990371107, -7856.928748718352, 0.112, 1.02, 0.06, 192.0, 0.0, 0.0, 0.0, 0.0, 0.0, 0.0, 0.0, 0.0, 0.0, 1.69575445779302E9, 0.0, 2023-09-26 13:54:17.793
106.0, 73697.65772791597, 69065.66102095378, -19117.424680879674, -14432.789615725234, 33017.840447168404, 31992.923556914757, -187500.02235174447, 26389.60944290274, 45761.799307084, 33814.0319364109, 4678.108355773492, -1491.0625208690788, 52275.23175182722, 35647.210257912906, 22869.366153403065, -7840.209643865782, 0.112, 1.02, 0.06, 192.0, 0.0, 0.0, 0.0, 0.0, 0.0, 0.0, 0.0, 0.0, 0.0, 1.695754457853135E9, 0.0, 2023-09-26 13:54:17.853
108.0, 73707.96188210987, 69076.09928561441, -19110.20506742061, -14421.099653375108, 33041.28742710203, 31992.431818536737, -187500.02235174447, 26392.8280941043, 45771.34350196642, 33845.68200655961, 4694.514536203687, -1477.4056050068862, 52273.82359192653, 35647.836106757655, 22866.639240579516, -7834.286431585126, 0.116, 1.014, 0.062, 192.0, 1.5, 80.0, 15.5, 88.0, 0.5, 120.0, 0.0, 0.0, 0.0, 1.695754457853156E9, 0.0, 2023-09-26 13:54:17.853
110.0, 73698.68590816091, 69067.62797446585, -19120.241000681042, -14436.008266926798, 33024.411860038264, 31969.722446170148, -187500.02235174447, 26388.022469046413, 45760.5476093945, 33833.29914013137, 4684.277437243157, -1487.9109249008804, 52276.68461521681, 35646.7632230238, 22854.18931891791, -7853.307766116592, 0.116, 1.014, 0.062, 192.0, 0.0, 0.0, 0.0, 0.0, 0.0, 0.0, 0.0, 0.0, 0.0, 1.695754457853166E9, 0.0, 2023-09-26 13:54:17.853
112.0, 73705.61494894206, 69071.91950940127, -19120.73273905906, -14424.363008065584, 33028.72574671814, 31979.914841641767, -187500.02235174447, 26380.422875931607, 45766.44846993071, 33815.52950328941, 4688.837193112039, -1475.930389872836, 52285.267685087645, 35649.84776375863, 22857.27385965274, -7850.111466659483, 0.116, 1.014, 0.062, 192.0, 0.0, 0.0, 0.0, 0.0, 0.0, 0.0, 0.0, 0.0, 0.0, 1.695754457853175E9, 0.0, 2023-09-26 13:54:17.853
114.0, 73690.41576271245, 69060.14014007332, -19134.724931088083, -14443.451397830415, 33015.71703144515, 31973.81281540547, -187500.02235174447, 26377.293631707864, 45746.98010051013, 33823.17379989312, 4670.240541725224, -1486.05573011109, 52274.02475762663, 35634.067432173186, 22844.801586246682, -7859.163923163882, 0.116, 1.014, 0.062, 192.0, 0.0, 0.0, 0.0, 0.0, 0.0, 0.0, 0.0, 0.0, 0.0, 1.695754457853184E9, 0.0, 2023-09-26 13:54:17.853
116.0, 73703.26801577426, 69071.69599195672, -19114.87658201177, -14422.820737698166, 33040.080432901435, 31993.348240059408, -187500.02235174447, 26384.93792831158, 45757.17249598176, 33818.234064368495, 4683.249256998212, -1484.6922736993163, 52282.18314435281, 35637.46489733039, 22858.458502108875, -7845.395248579413, 0.116, 1.014, 0.062, 192.0, 0.0, 0.0, 0.0, 0.0, 0.0, 0.0, 0.0, 0.0, 0.0, 1.695754457853194E9, 0.0, 2023-09-26 13:54:17.853
118.0, 73687.95707082238, 69061.19067206272, -19124.845460038836, -14433.393112825528, 33030.60329325239, 31982.977030632144, -187500.02235174447, 26395.37619297221, 45749.327033677946, 33846.486669360005, 4676.230809239246, -1494.862317426481, 52272.32602504802, 35629.21710362638, 22852.267068894755, -7845.261138112681, 0.114, 1.014, 0.06, 192.0, 1.5, 72.0, 15.5, 88.0, 0.5, 112.0, 0.0, 0.0, 0.0, 1.695754457853203E9, 0.0, 2023-09-26 13:54:17.853
120.0, 73690.95220457939, 69058.03907609452, -19131.30511418642, -14429.168633123474, 33032.10086013089, 31995.292841827017, -187500.02235174447, 26383.55212015535, 45757.552475637494, 33844.385605381205, 4675.3143877165785, -1487.2850760561319, 52280.529115263125, 35651.546496337236, 22843.415778090453, -7843.450646811802, 0.114, 1.014, 0.06, 192.0, 0.0, 0.0, 0.0, 0.0, 0.0, 0.0, 0.0, 0.0, 0.0, 1.695754457913469E9, 0.0, 2023-09-26 13:54:17.913
122.0, 73689.70050688989, 69058.9554976172, -19129.561678118906, -14436.701171004912, 33028.83750544042, 31972.158786315777, -187500.02235174447, 26379.193529986565, 45735.49130386011, 33804.93477641759, 4665.054937011592, -1494.1023581150007, 52275.9917111387, 35638.046042686234, 22839.392464088498, -7852.726620760754, 0.114, 1.014, 0.06, 192.0, 0.0, 0.0, 0.0, 0.0, 0.0, 0.0, 0.0, 0.0, 0.0, 1.695754457913493E9, 0.0, 2023-09-26 13:54:17.913
124.0, 73709.57120771066, 69079.98848914963, -19108.081651697357, -14416.785766695235, 33039.25341835659, 31988.408504534782, -187500.02235174447, 26365.894242035658, 45750.511676134076, 33809.136904375184, 4673.2580272266905, -1492.4036255363972, 52278.36099605096, 35642.67285378848, 22844.645124035495, -7849.4409143258235, 0.114, 1.014, 0.06, 192.0, 0.0, 0.0, 0.0, 0.0, 0.0, 0.0, 0.0, 0.0, 0.0, 1.695754457913502E9, 0.0, 2023-09-26 13:54:17.913
126.0, 73709.01241409927, 69078.08859087093, -19108.483983097554, -14421.61374349758, 33046.987121938124, 32001.79719946351, -187500.02235174447, 26387.530730668394, 45763.76626059607, 33845.74906179298, 4687.741957633729, -1476.5562387175846, 52292.57670552453, 35637.688414774944, 22861.230118421332, -7830.285469327626, 0.114, 1.014, 0.06, 192.0, 0.0, 0.0, 0.0, 0.0, 0.0, 0.0, 0.0, 0.0, 0.0, 1.695754457913538E9, 0.0, 2023-09-26 13:54:17.913
128.0, 73710.64409144451, 69071.04779136751, -19106.293512140932, -14420.56321150818, 33035.900656688296, 31997.684478483738, -187500.02235174447, 26383.08273352179, 45757.79834482651, 33840.988140224, 4688.121937289469, -1482.5241544871515, 52292.08496714652, 35634.31330136219, 22858.972592231345, -7836.320440330558, 0.108, 1.018, 0.058, 192.0, 1.5, 48.0, 15.5, 104.0, 0.5, 104.0, 0.0, 0.0, 0.0, 1.695754457913547E9, 0.0, 2023-09-26 13:54:17.913
130.0, 73711.40405075598, 69075.38402979184, -19107.098174941322, -14419.624438241059, 33042.27090385806, 32006.692231499226, -187500.02235174447, 26398.147809284666, 45760.12292624985, 33843.960922236554, 4684.970341321271, -1478.120860829456, 52291.5932287685, 35652.06058645971, 22859.75490328728, -7834.107617629483, 0.108, 1.018, 0.058, 192.0, 0.0, 0.0, 0.0, 0.0, 0.0, 0.0, 0.0, 0.0, 0.0, 1.695754457913556E9, 0.0, 2023-09-26 13:54:17.913
132.0, 73698.641204672, 69067.71738144367, -19117.044701223935, -14420.272638830262, 33037.95701717818, 31994.689344726725, -187500.02235174447, 26375.59489912926, 45767.16372575328, 33853.393358396694, 4687.674902400363, -1477.3385497735203, 52284.30656007607, 35656.41917662849, 22864.09114171161, -7833.593527507011, 0.108, 1.018, 0.058, 192.0, 0.0, 0.0, 0.0, 0.0, 0.0, 0.0, 0.0, 0.0, 0.0, 1.695754457913565E9, 0.0, 2023-09-26 13:54:17.913
134.0, 73701.36811749556, 69074.48996001363, -19122.766747804493, -14426.66523774448, 33046.47303181565, 31991.984783647633, -187500.02235174447, 26389.341221969276, 45751.94218777921, 33842.75392803597, 4680.790565108128, -1482.121823086956, 52286.474679288236, 35658.69905456294, 22852.892917739504, -7837.594489764511, 0.108, 1.018, 0.058, 192.0, 0.0, 0.0, 0.0, 0.0, 0.0, 0.0, 0.0, 0.0, 0.0, 1.695754457913574E9, 0.0, 2023-09-26 13:54:17.913
136.0, 73692.47212320234, 69061.45889299619, -19135.395483421744, -14446.468883331881, 33029.798630451995, 31981.211242820176, -187500.02235174447, 26367.101236236245, 45737.72647830564, 33825.94541620558, 4668.653567868897, -1490.5931342355175, 52284.82065019854, 35635.56499905169, 22843.214612390355, -7850.133818403938, 0.108, 1.018, 0.058, 192.0, 0.0, 0.0, 0.0, 0.0, 0.0, 0.0, 0.0, 0.0, 0.0, 1.695754457973866E9, 0.0, 2023-09-26 13:54:17.973
138.0, 73707.09016407611, 69072.83593092393, -19116.999997735023, -14435.650639015514, 33050.20577313969, 31992.409466792284, -187500.02235174447, 26383.50741666644, 45750.06464124497, 33851.69462581809, 4675.135573760936, -1482.5465062316068, 52279.43387978481, 35645.7126910344, 22847.37203685904, -7852.950138205307, 0.10400000000000001, 1.02, 0.056, 192.0, 1.5, 32.0, 15.5, 112.0, 0.5, 96.0, 0.0, 0.0, 0.0, 1.695754457973909E9, 0.0, 2023-09-26 13:54:17.973
140.0, 73717.19315256992, 69073.08180011294, -19114.965988989592, -14428.542784278725, 33053.53618306353, 31997.438609294728, -187500.02235174447, 26382.278070721397, 45752.41157441278, 33836.11545993274, 4681.170544763869, -1485.407529521886, 52284.30656007607, 35630.9605396939, 22853.04937995069, -7841.975431677751, 0.10400000000000001, 1.02, 0.056, 192.0, 0.0, 0.0, 0.0, 0.0, 0.0, 0.0, 0.0, 0.0, 0.0, 1.695754457973922E9, 0.0, 2023-09-26 13:54:17.973
142.0, 73701.68104191792, 69058.08377958344, -19122.900858271227, -14443.071418174675, 33047.36710159387, 31992.610632492382, -187500.02235174447, 26389.877663836203, 45756.97133028166, 33845.61495132625, 4686.154983777402, -1478.545543974107, 52283.457193786766, 35643.499868333325, 22857.85500500858, -7837.035696153128, 0.10400000000000001, 1.02, 0.056, 192.0, 0.0, 0.0, 0.0, 0.0, 0.0, 0.0, 0.0, 0.0, 0.0, 1.695754457973931E9, 0.0, 2023-09-26 13:54:17.973
144.0, 73678.14465500649, 69044.22569802114, -19128.22057345159, -14449.016982199786, 33042.27090385806, 31974.013981105567, -187500.02235174447, 26376.46661716302, 45742.08506847442, 33820.40218358066, 4671.581646392542, -1497.924506416858, 52281.46788853024, 35645.01978695629, 22846.679132780926, -7856.168789406871, 0.10400000000000001, 1.02, 0.056, 192.0, 0.0, 0.0, 0.0, 0.0, 0.0, 0.0, 0.0, 0.0, 0.0, 1.695754457973939E9, 0.0, 2023-09-26 13:54:17.973
146.0, 73677.27293697273, 69039.88945959682, -19080.790171717428, -14447.944098465932, 33039.07460440095, 31970.772978159548, -187500.02235174447, 26375.147864240156, 45733.725516048136, 33824.51490456044, 4665.412564922877, -1502.998352408213, 52269.84498141349, 35619.33763257714, 22836.486737309308, -7859.521551075167, 0.10400000000000001, 1.02, 0.056, 192.0, 0.0, 0.0, 0.0, 0.0, 0.0, 0.0, 0.0, 0.0, 0.0, 1.695754457973948E9, 0.0, 2023-09-26 13:54:17.973
148.0, 73650.5849540931, 69015.77192732954, -19070.888348923727, -14446.938269965443, 33033.17374386475, 31977.634963707325, -187500.02235174447, 26368.509396136928, 45718.43692284071, 33807.86285494123, 4657.008309007681, -1512.2296228682546, 52269.30853954656, 35621.79632446722, 22828.66362674995, -7854.425353339358, 0.10400000000000001, 1.018, 0.056, 192.0, 1.5, 32.0, 15.5, 104.0, 0.5, 96.0, 0.0, 0.0, 0.0, 1.695754457973984E9, 0.0, 2023-09-26 13:54:17.973
150.0, 73637.24096265328, 69004.99838650208, -19061.67943020814, -14447.251194387818, 33051.9492092072, 31983.401713776795, -187500.02235174447, 26381.65222187665, 45705.45055931217, 33791.54608148886, 4646.234768180224, -1522.2655561286874, 52261.44072549829, 35625.126734391066, 22833.558658785663, -7854.470056828268, 0.10400000000000001, 1.018, 0.056, 192.0, 0.0, 0.0, 0.0, 0.0, 0.0, 0.0, 0.0, 0.0, 0.0, 1.695754458032708E9, 0.0, 2023-09-26 13:54:18.032
152.0, 73599.95825290182, 68977.46103733314, -19081.080744395345, -14458.494121848837, 33037.04059565551, 31970.1471293148, -187500.02235174447, 26385.921405067613, 45677.9802653766, 33765.88627885417, 4628.666297038352, -1546.628957584972, 52258.80321965256, 35604.54077774772, 22825.04264414819, -7860.594434809022, 0.10400000000000001, 1.018, 0.056, 192.0, 0.0, 0.0, 0.0, 0.0, 0.0, 0.0, 0.0, 0.0, 0.0, 1.695754458032742E9, 0.0, 2023-09-26 13:54:18.032
154.0, 73589.58704347456, 68966.62044127232, -19068.653174478197, -14455.968374725388, 33047.009473682585, 31969.789501403513, -187500.02235174447, 26384.98263180049, 45677.51087874304, 33780.52667147239, 4628.845110993995, -1545.01963198419, 52260.4348969978, 35618.80119071021, 22825.556734270664, -7861.689670287332, 0.10400000000000001, 1.018, 0.056, 192.0, 0.0, 0.0, 0.0, 0.0, 0.0, 0.0, 0.0, 0.0, 0.0, 1.695754458032754E9, 0.0, 2023-09-26 13:54:18.032
156.0, 73582.8144649046, 68967.11217965033, -19065.501578509997, -14443.965487952888, 33050.60810453989, 31980.697152697703, -187500.02235174447, 26376.46661716302, 45680.438957266684, 33772.01065683492, 4637.696401798296, -1532.055620200112, 52264.45821099976, 35604.8537021701, 22839.37011234404, -7846.8034084800975, 0.10400000000000001, 1.018, 0.056, 192.0, 0.0, 0.0, 0.0, 0.0, 0.0, 0.0, 0.0, 0.0, 0.0, 1.695754458032765E9, 0.0, 2023-09-26 13:54:18.032
158.0, 73575.46074097882, 68968.98972618458, -19061.05358136339, -14441.663258273991, 33057.64890404331, 31974.66218169477, -187500.02235174447, 26373.18091072809, 45662.624616935806, 33757.95140957253, 4627.638116793409, -1534.737829534749, 52252.18710329379, 35621.550455278215, 22832.217554118342, -7855.967623706773, 0.10400000000000001, 1.02, 0.058, 192.0, 1.5, 32.0, 15.5, 112.0, 0.5, 104.0, 0.0, 0.0, 0.0, 1.695754458032777E9, 0.0, 2023-09-26 13:54:18.032
160.0, 73569.85045312053, 68954.90812717774, -19079.15849437219, -14459.43289511596, 33041.17566837974, 31952.064568050453, -187500.02235174447, 26375.572547384807, 45661.75289890205, 33760.141880529154, 4626.67699178183, -1532.0109167112014, 52247.582643936, 35600.89744340151, 22825.892010437492, -7862.65079529891, 0.10400000000000001, 1.02, 0.058, 192.0, 0.0, 0.0, 0.0, 0.0, 0.0, 0.0, 0.0, 0.0, 0.0, 1.695754458032788E9, 0.0, 2023-09-26 13:54:18.032
162.0, 73588.42475276289, 68989.97801422811, -19060.561842985375, -14443.8090257417, 33042.82969746944, 31978.37257127435, -187500.02235174447, 26373.158558983632, 45662.28934076898, 33757.05733979432, 4628.5321865716205, -1532.279137644665, 52244.96748983473, 35598.79637942271, 22818.89591442298, -7866.160019178394, 0.10400000000000001, 1.02, 0.058, 192.0, 0.0, 0.0, 0.0, 0.0, 0.0, 0.0, 0.0, 0.0, 0.0, 1.695754458032805E9, 0.0, 2023-09-26 13:54:18.032
164.0, 73578.14295031344, 68971.40371458576, -19056.76204642797, -14442.33381060765, 33052.30683711849, 31968.09076882491, -187500.02235174447, 26378.50062590845, 45671.81118390694, 33786.40518026414, 4630.432084850322, -1527.7417335202376, 52260.032565597605, 35609.94989990591, 22821.33225456861, -7861.264987142681, 0.10400000000000001, 1.02, 0.058, 192.0, 0.0, 0.0, 0.0, 0.0, 0.0, 0.0, 0.0, 0.0, 0.0, 1.695754458032814E9, 0.0, 2023-09-26 13:54:18.032
166.0, 73576.17599680138, 68971.09079016338, -19067.312069810876, -14451.207453156407, 33050.54104930652, 31965.252097279084, -187500.02235174447, 26362.20620420053, 45680.05897761095, 33779.81141564983, 4637.741105287208, -1515.2024048808105, 52261.77600166512, 35630.088821660145, 22816.057242877156, -7865.847094756019, 0.10400000000000001, 1.02, 0.058, 192.0, 0.0, 0.0, 0.0, 0.0, 0.0, 0.0, 0.0, 0.0, 0.0, 1.69575445809401E9, 0.0, 2023-09-26 13:54:18.094
168.0, 73575.52779621218, 68974.35414485385, -19066.127427354746, -14448.569947310682, 33039.27577010105, 31958.121890797844, -187500.02235174447, 26374.566718884318, 45650.80054411895, 33781.42074125061, 4632.376686617933, -1528.7252102762714, 52243.69344040078, 35611.76039120679, 22805.931902638902, -7874.340757649035, 0.1, 1.024, 0.06, 192.0, 1.5, 16.0, 16.0, 0.0, 0.5, 112.0, 0.0, 0.0, 0.0, 1.695754458094032E9, 0.0, 2023-09-26 13:54:18.094
170.0, 73601.34406105806, 68994.00132823006, -19065.702744210095, -14436.790577982734, 33050.071662672955, 31987.60384173439, -187500.02235174447, 26378.232404974988, 45666.75968966004, 33778.29149702686, 4637.875215753939, -1524.5454340631288, 52247.56029219154, 35615.49313253083, 22804.36728052703, -7865.422411611368, 0.1, 1.024, 0.06, 192.0, 0.0, 0.0, 0.0, 0.0, 0.0, 0.0, 0.0, 0.0, 0.0, 1.695754458094072E9, 0.0, 2023-09-26 13:54:18.094
172.0, 73593.47624700979, 68999.16458119925, -19068.742581456016, -14451.118046178586, 33057.894773232314, 31977.90318464079, -187500.02235174447, 26403.869855865225, 45677.600285720866, 33791.63548846668, 4638.925747743338, -1520.2315473832546, 52245.548635190564, 35623.092725645634, 22823.858001692057, -7847.161036391382, 0.1, 1.024, 0.06, 192.0, 0.0, 0.0, 0.0, 0.0, 0.0, 0.0, 0.0, 0.0, 0.0, 1.695754458094081E9, 0.0, 2023-09-26 13:54:18.094
174.0, 73609.21187510632, 69000.99742424458, -19072.184750102133, -14444.90426122001, 33047.47886031614, 31963.463957722663, -187500.02235174447, 26380.087599764778, 45661.81995413542, 33774.4246452361, 4628.5321865716205, -1527.3170503755869, 52230.81883559452, 35594.99658286531, 22816.146649854978, -7856.615824295977, 0.1, 1.024, 0.06, 192.0, 0.0, 0.0, 0.0, 0.0, 0.0, 0.0, 0.0, 0.0, 0.0, 1.69575445809409E9, 0.0, 2023-09-26 13:54:18.094
176.0, 73624.29930261365, 69024.4891076671, -19060.137159840724, -14433.795444225723, 33056.62072379836, 31980.205414319687, -187500.02235174447, 26385.340259711775, 45685.28928581349, 33807.88520668569, 4641.742067544707, -1510.1285588894557, 52244.498103201164, 35617.03540289824, 22818.337120811597, -7853.620690538966, 0.1, 1.024, 0.06, 192.0, 0.0, 0.0, 0.0, 0.0, 0.0, 0.0, 0.0, 0.0, 0.0, 1.695754458094099E9, 0.0, 2023-09-26 13:54:18.094
178.0, 73653.04364598318, 69054.23927953713, -19043.14983405469, -14426.844051700122, 33062.72275003466, 31978.774902674548, -187500.02235174447, 26362.541480367363, 45702.16485287724, 33808.958090419546, 4662.618596865964, -1499.6679424843721, 52254.15405680586, 35624.74675473532, 22824.528554025717, -7851.765495749176, 0.10400000000000001, 1.022, 0.06, 192.0, 1.5, 32.0, 15.5, 120.0, 0.5, 112.0, 0.0, 0.0, 0.0, 1.695754458094108E9, 0.0, 2023-09-26 13:54:18.094
180.0, 73661.51495713175, 69056.13917781581, -19049.363619013264, -14427.246383100319, 33057.93947672123, 31979.534861986027, -187500.02235174447, 26373.896166550658, 45710.457350070166, 33824.69371851608, 4670.642873125419, -1491.0625208690788, 52264.39115576639, 35639.8118304982, 22815.587856243594, -7852.45839982729, 0.10400000000000001, 1.022, 0.06, 192.0, 0.0, 0.0, 0.0, 0.0, 0.0, 0.0, 0.0, 0.0, 0.0, 1.695754458153153E9, 0.0, 2023-09-26 13:54:18.153
182.0, 73655.882317529, 69051.37825624684, -19050.838834147315, -14422.485461531338, 33054.832584241936, 31982.46294050967, -187500.02235174447, 26369.626983359693, 45714.45831232766, 33803.23604383899, 4664.049108511103, -1487.7097592007829, 52255.31634751754, 35629.12769664857, 22815.498449265775, -7853.330117861047, 0.10400000000000001, 1.022, 0.06, 192.0, 0.0, 0.0, 0.0, 0.0, 0.0, 0.0, 0.0, 0.0, 0.0, 1.695754458153189E9, 0.0, 2023-09-26 13:54:18.153
184.0, 73683.6431841425, 69064.4540267532, -19041.138177053712, -14418.752720207302, 33065.29320064702, 31995.0022691491, -187500.02235174447, 26392.04578304837, 45740.296928918, 33824.112573160244, 4681.081137786047, -1477.450308495797, 52260.14432431988, 35636.48142057436, 22826.42845230442, -7841.1037136439945, 0.10400000000000001, 1.022, 0.06, 192.0, 0.0, 0.0, 0.0, 0.0, 0.0, 0.0, 0.0, 0.0, 0.0, 1.695754458153205E9, 0.0, 2023-09-26 13:54:18.153
186.0, 73690.7957423682, 69062.82234940796, -19044.714456166563, -14421.412577797482, 33072.557517595, 31994.778751704547, -187500.02235174447, 26392.291652237374, 45738.30762366148, 33829.767564507434, 4679.583570907542, -1480.95953237528, 52269.24148431319, 35635.72146126288, 22830.9882081733, -7841.863672955475, 0.10400000000000001, 1.022, 0.06, 192.0, 0.0, 0.0, 0.0, 0.0, 0.0, 0.0, 0.0, 0.0, 0.0, 1.695754458153227E9, 0.0, 2023-09-26 13:54:18.153
188.0, 73664.75596007776, 69069.77374193356, -19046.01085734497, -14417.858650429089, 33079.33009616496, 31984.27343181055, -187500.02235174447, 26400.964129086035, 45730.3951061243, 33847.64896007168, 4685.730300632751, -1474.4551747387857, 52253.79642889457, 35648.596066069134, 22841.0911966671, -7832.028905395139, 0.10400000000000001, 1.024, 0.054, 192.0, 1.5, 32.0, 16.0, 0.0, 0.5, 88.0, 0.0, 0.0, 0.0, 1.695754458153241E9, 0.0, 2023-09-26 13:54:18.153
190.0, 73687.37592546653, 69077.14981760381, -19048.626011446242, -14422.977199909354, 33076.290258919034, 31986.776827189547, -187500.02235174447, 26396.51613193943, 45717.85577748487, 33821.69858475907, 4683.115146531481, -1491.1072243579895, 52256.85861788495, 35635.38618509605, 22829.89297269499, -7839.807312465587, 0.10400000000000001, 1.024, 0.054, 192.0, 0.0, 0.0, 0.0, 0.0, 0.0, 0.0, 0.0, 0.0, 0.0, 1.695754458153257E9, 0.0, 2023-09-26 13:54:18.153
192.0, 73680.67040212994, 69074.62407048036, -19050.81648240286, -14417.299856817706, 33068.51185184858, 31982.731161443135, -187500.02235174447, 26406.775582644415, 45734.977213737635, 33841.90456174667, 4687.853716356006, -1484.4240527658526, 52257.84209464098, 35638.7612985088, 22831.211725617854, -7834.688762985321, 0.10400000000000001, 1.024, 0.054, 192.0, 0.0, 0.0, 0.0, 0.0, 0.0, 0.0, 0.0, 0.0, 0.0, 1.695754458153309E9, 0.0, 2023-09-26 13:54:18.153
194.0, 73690.90750109048, 69087.52102703108, -19046.81552014536, -14411.644865470513, 33067.43896811473, 31982.32883004294, -187500.02235174447, 26391.17406501461, 45742.01801324106, 33830.058137185355, 4689.083062301047, -1475.9080381283807, 52261.86540864294, 35630.04411817123, 22828.574219772127, -7834.509949029679, 0.10400000000000001, 1.024, 0.054, 192.0, 0.0, 0.0, 0.0, 0.0, 0.0, 0.0, 0.0, 0.0, 0.0, 1.695754458153318E9, 0.0, 2023-09-26 13:54:18.153
196.0, 73702.66451867396, 69082.58129150645, -19036.041979317903, -14410.951961392399, 33061.26988664507, 31981.05478060899, -187500.02235174447, 26385.8767015787, 45745.23666444262, 33863.85397480178, 4710.853661400516, -1466.9449886018026, 52266.80514416756, 35647.92551373548, 22828.95419942787, -7838.712076987276, 0.10400000000000001, 1.024, 0.054, 192.0, 0.0, 0.0, 0.0, 0.0, 0.0, 0.0, 0.0, 0.0, 0.0, 1.695754458213503E9, 0.0, 2023-09-26 13:54:18.213
198.0, 73702.73157390732, 69088.72802123165, -19049.788302157915, -14414.684702716435, 33050.47399407315, 31969.27541128104, -187500.02235174447, 26375.013753773423, 45726.81882701145, 33849.81707928384, 4712.954725379315, -1470.5212677146517, 52248.72258290322, 35632.2122373834, 22822.874524936025, -7834.26407984067, 0.10200000000000001, 1.016, 0.058, 192.0, 1.5, 24.0, 15.5, 96.0, 0.5, 104.0, 0.0, 0.0, 0.0, 1.695754458213537E9, 0.0, 2023-09-26 13:54:18.213
200.0, 73711.47110598936, 69084.88352118534, -19054.504520237984, -14414.461185271883, 33054.69847377521, 31979.646620708303, -187500.02235174447, 26377.427742174597, 45734.86545501536, 33851.33699790681, 4718.654420215419, -1469.0013490916908, 52254.087001572494, 35638.046042686234, 22816.79485044418, -7830.240765838715, 0.10200000000000001, 1.016, 0.058, 192.0, 0.0, 0.0, 0.0, 0.0, 0.0, 0.0, 0.0, 0.0, 0.0, 1.695754458213549E9, 0.0, 2023-09-26 13:54:18.213
202.0, 73717.41667001447, 69091.16436137729, -19045.76498815596, -14410.817850925667, 33073.58569783994, 31975.131568328332, -187500.02235174447, 26384.870873078213, 45747.360080165876, 33846.82194552683, 4721.850719672528, -1466.3861949904199, 52261.93246387631, 35639.90123747602, 22820.214667345845, -7826.418617536858, 0.10200000000000001, 1.016, 0.058, 192.0, 0.0, 0.0, 0.0, 0.0, 0.0, 0.0, 0.0, 0.0, 0.0, 1.69575445821356E9, 0.0, 2023-09-26 13:54:18.213
204.0, 73708.34186176561, 69090.04677415453, -19049.564784713362, -14421.23376384184, 33081.16293921029, 31959.932382098723, -187500.02235174447, 26386.83782659028, 45751.67396684575, 33860.36710266675, 4723.325934806578, -1466.3414915015092, 52273.35420529297, 35657.80498478472, 22824.550905770175, -7833.615879251466, 0.10200000000000001, 1.016, 0.058, 192.0, 0.0, 0.0, 0.0, 0.0, 0.0, 0.0, 0.0, 0.0, 0.0, 1.695754458213569E9, 0.0, 2023-09-26 13:54:18.213
206.0, 73720.63532121603, 69111.37033836488, -19046.30143002289, -14408.269752057762, 33075.99968624111, 31972.739931671615, -187500.02235174447, 26389.207111502543, 45743.71674581966, 33853.259247929964, 4712.105359090014, -1471.124764814945, 52257.86444638544, 35639.63301654256, 22815.654911476962, -7837.706248486787, 0.10200000000000001, 1.016, 0.058, 192.0, 0.0, 0.0, 0.0, 0.0, 0.0, 0.0, 0.0, 0.0, 0.0, 1.695754458213578E9, 0.0, 2023-09-26 13:54:18.213
208.0, 73724.41276602898, 69102.31788186048, -19038.47831946353, -14403.128850833042, 33083.912203778294, 31975.735065428624, -187500.02235174447, 26386.50255042345, 45756.63605411483, 33854.26507643045, 4729.584423254064, -1454.2939012400986, 52266.22399881172, 35654.20635392742, 22837.58197278762, -7819.444873266802, 0.108, 1.016, 0.058, 192.0, 1.5, 48.0, 15.5, 96.0, 0.5, 104.0, 0.0, 0.0, 0.0, 1.695754458213587E9, 0.0, 2023-09-26 13:54:18.213
210.0, 73726.89380966351, 69119.93105649127, -19034.58911592831, -14399.440812997917, 33082.392285155336, 31985.167501588763, -187500.02235174447, 26393.006908059946, 45749.7517168226, 33860.21064045556, 4724.868205173994, -1459.5018576981852, 52273.62242622643, 35652.52997309327, 22833.2904378522, -7823.1999663352935, 0.108, 1.016, 0.058, 192.0, 0.0, 0.0, 0.0, 0.0, 0.0, 0.0, 0.0, 0.0, 0.0, 1.695754458273776E9, 0.0, 2023-09-26 13:54:18.273
212.0, 73734.42634754496, 69104.19542839473, -19023.636761145208, -14393.383490250528, 33087.622593357875, 31984.6981149552, -187500.02235174447, 26380.914614309626, 45768.124850764856, 33857.863707287754, 4743.107228649525, -1443.2074359902665, 52273.309501804055, 35662.521202864795, 22840.264182122253, -7817.142643587905, 0.108, 1.016, 0.058, 192.0, 0.0, 0.0, 0.0, 0.0, 0.0, 0.0, 0.0, 0.0, 0.0, 1.695754458273804E9, 0.0, 2023-09-26 13:54:18.273
214.0, 73732.43704228844, 69094.09243990094, -19030.834022859817, -14396.691548429913, 33081.051180488015, 31975.355085772884, -187500.02235174447, 26386.390791701175, 45758.37949018234, 33875.633344129725, 4743.9342431943705, -1434.1996829747777, 52281.557295508064, 35648.73017653587, 22840.80062398918, -7813.566364475056, 0.108, 1.016, 0.058, 192.0, 0.0, 0.0, 0.0, 0.0, 0.0, 0.0, 0.0, 0.0, 0.0, 1.695754458273871E9, 0.0, 2023-09-26 13:54:18.273
216.0, 73729.86659167607, 69087.63278575335, -19035.505537450976, -14403.128850833042, 33080.67120083227, 31966.302629268484, -187500.02235174447, 26374.96905028451, 45750.42226915625, 33852.499288618485, 4733.048943644637, -1453.9362733288137, 52258.46794348573, 35658.20731618492, 22827.635446505006, -7826.686838470321, 0.108, 1.016, 0.058, 192.0, 0.0, 0.0, 0.0, 0.0, 0.0, 0.0, 0.0, 0.0, 0.0, 1.69575445827388E9, 0.0, 2023-09-26 13:54:18.273
218.0, 73706.93370186492, 69069.9525558892, -19056.67263945015, -14424.8547464436, 33061.761625023086, 31960.044140821, -187500.02235174447, 26377.69596310806, 45749.41644065576, 33852.94632350759, 4715.83810041405, -1459.9712443317467, 52264.70408018876, 35637.37549035257, 22813.33033005361, -7832.520643773156, 0.10400000000000001, 1.02, 0.062, 192.0, 1.5, 32.0, 15.5, 112.0, 0.5, 120.0, 0.0, 0.0, 0.0, 1.695754458273907E9, 0.0, 2023-09-26 13:54:18.273
220.0, 73729.62072248706, 69103.25665512761, -19031.772796126937, -14397.22799029684, 33085.90150903482, 31992.074190625455, -187500.02235174447, 26380.802855587346, 45751.137524978825, 33844.02797746992, 4729.964402909804, -1458.0042908196797, 52253.170580049824, 35661.180098197474, 22830.295304095187, -7822.283544812625, 0.10400000000000001, 1.02, 0.062, 192.0, 0.0, 0.0, 0.0, 0.0, 0.0, 0.0, 0.0, 0.0, 0.0, 1.695754458273916E9, 0.0, 2023-09-26 13:54:18.273
222.0, 73713.95214962389, 69086.11286713039, -19050.414151002664, -14411.846031170611, 33066.433139614244, 31979.04312360801, -187500.02235174447, 26395.487951694486, 45743.80615279748, 33868.81606207086, 4719.12380684898, -1461.8711426104478, 52260.01021385315, 35635.185019395954, 22818.493583022784, -7820.495405256201, 0.10400000000000001, 1.02, 0.062, 192.0, 0.0, 0.0, 0.0, 0.0, 0.0, 0.0, 0.0, 0.0, 0.0, 1.69575445827393E9, 0.0, 2023-09-26 13:54:18.273
224.0, 73704.92204486395, 69080.14495136082, -19066.39564828821, -14422.060778386687, 33056.553668565, 31967.6437339358, -187500.02235174447, 26371.83980606077, 45737.72647830564, 33857.12609972073, 4714.496995746732, -1468.1072793134786, 52246.889739857885, 35643.58927531115, 22806.647158461474, -7826.463321025768, 0.10400000000000001, 1.02, 0.062, 192.0, 0.0, 0.0, 0.0, 0.0, 0.0, 0.0, 0.0, 0.0, 0.0, 1.695754458273939E9, 0.0, 2023-09-26 13:54:18.273
226.0, 73705.72670766435, 69077.9544804042, -19063.48992150902, -14424.228897598852, 33066.38843612533, 31969.677742681237, -187500.02235174447, 26375.706657851537, 45736.76535329406, 33854.95798050857, 4711.077178845069, -1471.2588752816769, 52259.85375164196, 35642.24817064383, 22800.433373502896, -7835.806350208087, 0.10400000000000001, 1.02, 0.062, 192.0, 0.0, 0.0, 0.0, 0.0, 0.0, 0.0, 0.0, 0.0, 0.0, 1.695754458332645E9, 0.0, 2023-09-26 13:54:18.332
228.0, 73708.81124839917, 69087.36456481989, -19061.5006162525, -14424.675932487957, 33066.34373263642, 31958.300704753485, -187500.02235174447, 26355.098349463744, 45747.80711505498, 33826.99594819498, 4710.160757322402, -1477.8302881515372, 52251.47184747122, 35642.3599293661, 22804.769611927226, -7847.384553835936, 0.10200000000000001, 1.016, 0.06, 192.0, 1.5, 24.0, 15.5, 96.0, 0.5, 112.0, 0.0, 0.0, 0.0, 1.695754458332673E9, 0.0, 2023-09-26 13:54:18.332
230.0, 73719.38362352653, 69092.88544570035, -19044.96032535557, -14408.04623461321, 33077.45254963071, 31971.912917126767, -187500.02235174447, 26377.964184041524, 45755.09378374741, 33850.197058939586, 4724.242356329245, -1466.6320641794282, 52273.57772273752, 35644.08101368917, 22810.022271874222, -7834.107617629483, 0.10200000000000001, 1.016, 0.06, 192.0, 0.0, 0.0, 0.0, 0.0, 0.0, 0.0, 0.0, 0.0, 0.0, 1.695754458332685E9, 0.0, 2023-09-26 13:54:18.332
232.0, 73723.20577182839, 69087.29750958653, -19054.68333419363, -14418.640961485025, 33068.958886737695, 31950.85757384987, -187500.02235174447, 26363.88258503468, 45760.88288556134, 33847.51484960495, 4727.3268970640775, -1466.4085467348752, 52262.066574343036, 35659.48136561887, 22807.56357998414, -7841.036658410628, 0.10200000000000001, 1.016, 0.06, 192.0, 0.0, 0.0, 0.0, 0.0, 0.0, 0.0, 0.0, 0.0, 0.0, 1.695754458332695E9, 0.0, 2023-09-26 13:54:18.332
234.0, 73714.17566706844, 69075.58519549193, -19054.973906871546, -14415.556420750192, 33064.22031691317, 31973.455187494183, -187500.02235174447, 26377.89712880816, 45748.410612155276, 33850.97936999552, 4714.631106213464, -1483.2394103097213, 52253.34939400547, 35615.76135346429, 22790.442143731376, -7842.489521800223, 0.10200000000000001, 1.016, 0.06, 192.0, 0.0, 0.0, 0.0, 0.0, 0.0, 0.0, 0.0, 0.0, 0.0, 1.695754458332704E9, 0.0, 2023-09-26 13:54:18.332
236.0, 73730.2018678429, 69092.43841081124, -19039.171223541645, -14396.669196685458, 33071.059950716495, 31979.244289308106, -187500.02235174447, 26370.543404882363, 45758.737118093624, 33840.87638150172, 4726.298716819134, -1464.866276367459, 52261.53013247611, 35636.70493801891, 22797.21472230133, -7826.016286136662, 0.10200000000000001, 1.016, 0.06, 192.0, 0.0, 0.0, 0.0, 0.0, 0.0, 0.0, 0.0, 0.0, 0.0, 1.695754458332742E9, 0.0, 2023-09-26 13:54:18.332
238.0, 73742.38356857105, 69104.35189060592, -19038.031284574423, -14391.617702438558, 33081.52056712157, 31983.982859132633, -187500.02235174447, 26388.044820790867, 45766.2026007417, 33861.88702128971, 4736.155836123924, -1454.092735540001, 52263.11710633244, 35657.64852257354, 22797.684108934893, -7821.814158179064, 0.108, 1.02, 0.054, 192.0, 1.5, 48.0, 15.5, 112.0, 0.5, 88.0, 0.0, 0.0, 0.0, 1.695754458332751E9, 0.0, 2023-09-26 13:54:18.332
240.0, 73752.62066753158, 69106.11767841788, -19035.86316536226, -14391.125964060542, 33080.291221176536, 31989.61549873537, -187500.02235174447, 26380.1770067426, 45771.879943833344, 33854.08626247481, 4735.7758564681835, -1455.612654162962, 52250.89070211539, 35660.39778714154, 22798.309957779642, -7823.490539013213, 0.108, 1.02, 0.054, 192.0, 0.0, 0.0, 0.0, 0.0, 0.0, 0.0, 0.0, 0.0, 0.0, 1.695754458392952E9, 0.0, 2023-09-26 13:54:18.392
242.0, 73745.93749593943, 69104.95538770621, -19038.075988063334, -14389.740155904312, 33083.7557415671, 31996.85746393889, -187500.02235174447, 26385.116742267222, 45786.922667851766, 33875.745102852, 4747.711688007318, -1444.3250232130317, 52267.11806858994, 35687.68926712147, 22805.641329960985, -7816.181518576327, 0.108, 1.02, 0.054, 192.0, 0.0, 0.0, 0.0, 0.0, 0.0, 0.0, 0.0, 0.0, 0.0, 1.695754458392975E9, 0.0, 2023-09-26 13:54:18.392
244.0, 73721.93172239444, 69087.07399214196, -19065.501578509997, -14412.360121293083, 33074.81504378498, 31981.077132353443, -187500.02235174447, 26372.51035839443, 45760.79347858352, 33858.0425212434, 4724.3317633070665, -1470.3424537590092, 52253.05882132755, 35642.27052238829, 22788.2293210303, -7832.945326917807, 0.108, 1.02, 0.054, 192.0, 0.0, 0.0, 0.0, 0.0, 0.0, 0.0, 0.0, 0.0, 0.0, 1.695754458392985E9, 0.0, 2023-09-26 13:54:18.392
246.0, 73709.07946933263, 69072.29948905701, -19068.340250055822, -14422.418406297971, 33068.37774138185, 31975.958582873176, -187500.02235174447, 26390.145884769667, 45753.55151337999, 33843.737404792, 4710.831309656061, -1474.4328229943303, 52252.075344571516, 35650.697130047934, 22788.810466386138, -7837.192158364315, 0.108, 1.02, 0.054, 192.0, 0.0, 0.0, 0.0, 0.0, 0.0, 0.0, 0.0, 0.0, 0.0, 1.695754458392995E9, 0.0, 2023-09-26 13:54:18.392
248.0, 73718.69071944842, 69080.27906182755, -19063.1993488311, -14419.579734752147, 33071.39522688332, 31964.246268778596, -187500.02235174447, 26390.324698725308, 45743.80615279748, 33826.30304411686, 4701.130652562458, -1483.127651587445, 52237.85963509794, 35649.311321891706, 22785.94944309586, -7846.8034084800975, 0.108, 1.02, 0.056, 192.0, 1.5, 48.0, 15.5, 112.0, 0.5, 96.0, 0.0, 0.0, 0.0, 1.695754458393004E9, 0.0, 2023-09-26 13:54:18.393
250.0, 73716.47789674734, 69068.14206458832, -19058.974869129048, -14419.8032521967, 33064.04150295752, 31959.194774531697, -187500.02235174447, 26368.88937579267, 45757.64188261532, 33836.45073609957, 4710.3619230224995, -1481.1159945864672, 52243.7828473786, 35625.64082451354, 22786.99997508526, -7846.065800913072, 0.108, 1.02, 0.056, 192.0, 0.0, 0.0, 0.0, 0.0, 0.0, 0.0, 0.0, 0.0, 0.0, 1.695754458393014E9, 0.0, 2023-09-26 13:54:18.393
252.0, 73727.78787944173, 69076.18869259223, -19052.157587070178, -14407.219220068362, 33074.27860191806, 31965.274449023542, -187500.02235174447, 26382.54629165486, 45758.535952393526, 33838.90942798965, 4719.235565571256, -1478.702006185294, 52247.13560904689, 35632.54751355023, 22781.009707571237, -7846.825760224553, 0.108, 1.02, 0.056, 192.0, 0.0, 0.0, 0.0, 0.0, 0.0, 0.0, 0.0, 0.0, 0.0, 1.695754458393023E9, 0.0, 2023-09-26 13:54:18.393
254.0, 73720.14358283802, 69079.49675077162, -19055.085665593822, -14414.215316082875, 33070.702322805206, 31965.073283323443, -187500.02235174447, 26380.489931164975, 45767.54370540902, 33847.00075948248, 4733.674792489385, -1464.061613567068, 52262.78183016561, 35659.10138596313, 22791.447972231865, -7828.743198960209, 0.108, 1.02, 0.056, 192.0, 0.0, 0.0, 0.0, 0.0, 0.0, 0.0, 0.0, 0.0, 0.0, 1.695754458393032E9, 0.0, 2023-09-26 13:54:18.393
0.0, 73714.35448102409, 69077.03805888153, -19071.15656985719, -14412.896563160011, 33068.7577210376, 31965.00622809008, -187500.02235174447, 26376.243099718464, 45752.746850579606, 33853.326303163325, 4716.486301003254, -1480.4230905083527, 52243.96166133424, 35652.731138793366, 22780.629727915493, -7842.64598401141, 0.108, 1.02, 0.056, 192.0, 0.0, 0.0, 0.0, 0.0, 0.0, 0.0, 0.0, 0.0, 0.0, 1.695754458453348E9, 0.0, 2023-09-26 13:54:18.453
2.0, 73719.22716131534, 69088.6609659983, -19065.859206421283, -14408.783842180233, 33086.75087532412, 31976.427969506738, -187500.02235174447, 26383.328602710797, 45763.9003710628, 33849.92883800612, 4723.258879573212, -1476.6232939509505, 52246.688574157786, 35652.48526960436, 22786.84351287407, -7834.599356007499, 0.112, 1.014, 0.058, 192.0, 1.5, 64.0, 15.5, 88.0, 0.5, 104.0, 0.0, 0.0, 0.0, 1.695754458453411E9, 0.0, 2023-09-26 13:54:18.453
4.0, 73718.80247817069, 69087.78924796454, -19067.110904110777, -14406.168688078964, 33084.24747994512, 31981.03242886453, -187500.02235174447, 26401.634681419695, 45756.54664713701, 33846.46431761555, 4727.215138341801, -1467.3249682575427, 52256.6351004404, 35655.21218242791, 22799.382841513496, -7815.980352876229, 0.112, 1.014, 0.058, 192.0, 0.0, 0.0, 0.0, 0.0, 0.0, 0.0, 0.0, 0.0, 0.0, 1.695754458453421E9, 0.0, 2023-09-26 13:54:18.453
6.0, 73718.02016711477, 69082.53658801754, -19074.39757280321, -14404.022920611254, 33077.38549439734, 31978.61844046336, -187500.02235174447, 26389.31887022482, 45748.76824006656, 33835.33314887681, 4727.393952297443, -1471.5494479595957, 52234.12689377391, 35651.83706901516, 22793.012594343734, -7814.371027275447, 0.112, 1.014, 0.058, 192.0, 0.0, 0.0, 0.0, 0.0, 0.0, 0.0, 0.0, 0.0, 0.0, 1.695754458453431E9, 0.0, 2023-09-26 13:54:18.453
8.0, 73730.89477192101, 69083.47536128465, -19072.497674524508, -14404.022920611254, 33081.945250266224, 31969.18600430322, -187500.02235174447, 26391.688155137083, 45763.229818729145, 33854.55564910837, 4736.312298335111, -1464.9780350897356, 52254.84696088397, 35661.403615642026, 22795.203065300353, -7808.2913527836035, 0.112, 1.014, 0.058, 192.0, 0.0, 0.0, 0.0, 0.0, 0.0, 0.0, 0.0, 0.0, 0.0, 1.69575445845344E9, 0.0, 2023-09-26 13:54:18.453
10.0, 73719.67419620445, 69080.03319263854, -19085.72990724205, -14405.319321789662, 33070.434101871746, 31954.389149473805, -187500.02235174447, 26379.26058521993, 45766.716690864174, 33851.873439773735, 4740.425019314887, -1468.6884246693164, 52251.069516071024, 35663.34821740964, 22792.14087630998, -7815.130986586927, 0.112, 1.014, 0.058, 192.0, 0.0, 0.0, 0.0, 0.0, 0.0, 0.0, 0.0, 0.0, 0.0, 1.69575445845345E9, 0.0, 2023-09-26 13:54:18.453
12.0, 73713.79568741271, 69077.17216934827, -19084.67937525265, -14398.189115308418, 33069.24945941561, 31962.681646666726, -187500.02235174447, 26388.156579513143, 45740.855722529384, 33841.8375065133, 4717.335667292556, -1481.6971399423053, 52230.57296640551, 35644.19277241144, 22762.92714630689, -7818.237879066215, 0.116, 1.01, 0.056, 192.0, 1.5, 80.0, 15.5, 72.0, 0.5, 96.0, 0.0, 0.0, 0.0, 1.695754458453459E9, 0.0, 2023-09-26 13:54:18.453
14.0, 73723.11636485058, 69075.78636119203, -19072.050639635403, -14386.208580280374, 33086.03561950155, 31977.27733579604, -187500.02235174447, 26383.41800968862, 45753.10447849089, 33845.145564692684, 4739.441542558854, -1461.5358664436183, 52237.99374556467, 35658.38613014056, 22790.84447513157, -7798.769509645643, 0.116, 1.01, 0.056, 192.0, 0.0, 0.0, 0.0, 0.0, 0.0, 0.0, 0.0, 0.0, 0.0, 1.695754458513529E9, 0.0, 2023-09-26 13:54:18.513
16.0, 73713.92979787943, 69067.09153259892, -19077.392706560222, -14392.981158850333, 33072.669276317276, 31970.772978159548, -187500.02235174447, 26400.382983730196, 45751.36104242338, 33864.301009690884, 4724.175301095879, -1474.9469131168025, 52245.52628344611, 35656.374473139585, 22781.099114549055, -7807.866669638953, 0.116, 1.01, 0.056, 192.0, 0.0, 0.0, 0.0, 0.0, 0.0, 0.0, 0.0, 0.0, 0.0, 1.695754458513558E9, 0.0, 2023-09-26 13:54:18.513
18.0, 73723.31753055067, 69081.57546300597, -19067.02149713296, -14386.342690747106, 33080.96177351019, 31975.578603217436, -187500.02235174447, 26388.424800446606, 45764.257998974084, 33837.88124774471, 4737.720458235795, -1467.2132095352663, 52255.91984461783, 35668.39971165654, 22788.36343149703, -7802.323437014036, 0.116, 1.01, 0.056, 192.0, 0.0, 0.0, 0.0, 0.0, 0.0, 0.0, 0.0, 0.0, 0.0, 1.695754458513568E9, 0.0, 2023-09-26 13:54:18.513
20.0, 73721.73055669434, 69080.7037449722, -19065.993316888012, -14387.683795414425, 33080.492386876635, 31990.308402813484, -187500.02235174447, 26402.260530264444, 45760.5476093945, 33855.11444271975, 4733.2501093447345, -1465.9838635902242, 52240.2289200102, 35664.398749399035, 22781.970832582814, -7808.425463250335, 0.116, 1.01, 0.056, 192.0, 0.0, 0.0, 0.0, 0.0, 0.0, 0.0, 0.0, 0.0, 0.0, 1.695754458513577E9, 0.0, 2023-09-26 13:54:18.513
22.0, 73728.14550735301, 69090.91849218828, -19066.730924455038, -14392.288254772218, 33078.525433364564, 31965.967353101656, -187500.02235174447, 26376.22074797401, 45759.38531868283, 33838.19417216709, 4731.573728510586, -1472.57762820454, 52240.877120599405, 35657.31324640671, 22772.918376078414, -7818.819024422053, 0.112, 1.018, 0.06, 192.0, 1.5, 64.0, 15.5, 104.0, 0.5, 112.0, 0.0, 0.0, 0.0, 1.695754458513592E9, 0.0, 2023-09-26 13:54:18.513
24.0, 73734.3592923116, 69085.53172177455, -19058.684296451127, -14389.762507648767, 33075.88792751884, 31964.402730989783, -187500.02235174447, 26387.70954462404, 45765.50969666358, 33868.10080624829, 4737.429885557876, -1467.7496514021936, 52248.16378929184, 35653.58050508267, 22771.80078885565, -7829.614916993966, 0.112, 1.018, 0.06, 192.0, 0.0, 0.0, 0.0, 0.0, 0.0, 0.0, 0.0, 0.0, 0.0, 1.695754458513637E9, 0.0, 2023-09-26 13:54:18.513
26.0, 73734.04636788921, 69083.76593396258, -19049.564784713362, -14382.207618022874, 33075.82087228547, 31990.71073421368, -187500.02235174447, 26381.18283524309, 45770.60589439939, 33840.45169835707, 4740.626185014986, -1456.8420001080037, 52245.66039391284, 35681.117854251606, 22785.860036118036, -7825.88217566993, 0.112, 1.018, 0.06, 192.0, 0.0, 0.0, 0.0, 0.0, 0.0, 0.0, 0.0, 0.0, 0.0, 1.695754458513646E9, 0.0, 2023-09-26 13:54:18.513
28.0, 73740.43896680343, 69090.4044020658, -19046.05556083388, -14380.307719744173, 33080.626497343364, 32009.597958278417, -187500.02235174447, 26397.499608695463, 45775.612685157386, 33852.52164036294, 4743.531911794175, -1453.2657209951547, 52257.52917021861, 35666.58922035566, 22800.99216711428, -7812.672294696844, 0.112, 1.018, 0.06, 192.0, 0.0, 0.0, 0.0, 0.0, 0.0, 0.0, 0.0, 0.0, 0.0, 1.695754458513655E9, 0.0, 2023-09-26 13:54:18.513
30.0, 73721.61879797207, 69080.52493101657, -19060.606546474286, -14399.552571720193, 33053.13385166333, 32000.031411651544, -187500.02235174447, 26390.83878884778, 45775.657388646294, 33850.666445573144, 4738.346307080545, -1457.7137181417606, 52243.268757256126, 35659.68253131897, 22805.46251600534, -7814.505137742179, 0.112, 1.018, 0.06, 192.0, 0.0, 0.0, 0.0, 0.0, 0.0, 0.0, 0.0, 0.0, 0.0, 1.69575445857376E9, 0.0, 2023-09-26 13:54:18.573
32.0, 73722.17759158344, 69082.93891941773, -19070.396610545708, -14417.99276089582, 33047.23299112714, 31996.164559860776, -187500.02235174447, 26392.02343130391, 45766.13554550833, 33853.86274503026, 4722.431865028366, -1472.9799596047355, 52232.33875421748, 35665.918668022, 22798.913454879937, -7825.323382058547, 0.112, 1.018, 0.054, 192.0, 1.5, 64.0, 15.5, 104.0, 0.5, 88.0, 0.0, 0.0, 0.0, 1.695754458573783E9, 0.0, 2023-09-26 13:54:18.573
34.0, 73737.64499874652, 69086.13521887484, -19055.197424316102, -14404.358196778083, 33053.849107485905, 32003.786504720036, -187500.02235174447, 26377.69596310806, 45764.973254796656, 33845.77141353743, 4710.69719918933, -1485.4298812663415, 52239.066629298526, 35680.51435715132, 22799.22637930231, -7831.02307689465, 0.112, 1.018, 0.054, 192.0, 0.0, 0.0, 0.0, 0.0, 0.0, 0.0, 0.0, 0.0, 0.0, 1.6957544585738E9, 0.0, 2023-09-26 13:54:18.573
36.0, 73733.71109172239, 69078.96030890469, -19052.80578765938, -14411.242534070318, 33040.706281746185, 32004.23353960914, -187500.02235174447, 26388.022469046413, 45772.505792678094, 33857.21550669855, 4722.253051072723, -1465.961511845769, 52228.89658557136, 35668.667932590004, 22825.24380984829, -7814.9298208868295, 0.112, 1.018, 0.054, 192.0, 0.0, 0.0, 0.0, 0.0, 0.0, 0.0, 0.0, 0.0, 0.0, 1.695754458573809E9, 0.0, 2023-09-26 13:54:18.573
38.0, 73747.94915294042, 69086.09051538593, -19037.472490963042, -14409.543801491714, 33037.353520077886, 32002.780676219547, -187500.02235174447, 26381.40635268764, 45767.700167620205, 33836.56249482185, 4710.317219533589, -1477.3385497735203, 52235.5797571635, 35660.10721446362, 22819.745280712283, -7823.959925646774, 0.112, 1.018, 0.054, 192.0, 0.0, 0.0, 0.0, 0.0, 0.0, 0.0, 0.0, 0.0, 0.0, 1.695754458573818E9, 0.0, 2023-09-26 13:54:18.573
40.0, 73753.20181288742, 69094.58417827895, -19036.645476418194, -14409.633208469537, 33032.83846769792, 32007.653356510804, -187500.02235174447, 26378.32181195281, 45779.41248171479, 33855.38266365322, 4719.101455104525, -1469.381328747431, 52236.607937408444, 35676.423987915994, 22831.65876050696, -7828.162053604371, 0.112, 1.018, 0.054, 192.0, 0.0, 0.0, 0.0, 0.0, 0.0, 0.0, 0.0, 0.0, 0.0, 1.695754458573827E9, 0.0, 2023-09-26 13:54:18.573
42.0, 73747.30095235122, 69099.18863763675, -19032.10807229377, -14406.056929356686, 33050.51869756207, 32008.301557100007, -187500.02235174447, 26387.17310275711, 45778.473708447666, 33857.93076252112, 4713.625277712975, -1468.5990176914952, 52236.94321357527, 35660.80011854173, 22832.306961096165, -7828.922012915852, 0.12, 1.02, 0.05, 192.0, 1.5, 96.0, 15.5, 112.0, 0.5, 72.0, 0.0, 0.0, 0.0, 1.695754458573835E9, 0.0, 2023-09-26 13:54:18.573
44.0, 73746.33982733963, 69102.65315802731, -19027.369502469242, -14402.793574666211, 33053.73734876363, 32010.961414690188, -187500.02235174447, 26398.550140684863, 45784.15105153931, 33850.24176242849, 4713.804091668617, -1468.151982802389, 52243.604033422955, 35684.29180196426, 22840.130071655523, -7822.238841323715, 0.12, 1.02, 0.05, 192.0, 0.0, 0.0, 0.0, 0.0, 0.0, 0.0, 0.0, 0.0, 0.0, 1.695754458632729E9, 0.0, 2023-09-26 13:54:18.632
46.0, 73743.74702498282, 69092.14783813331, -19038.43361597462, -14415.310551561184, 33044.68489225923, 31998.10916162839, -187500.02235174447, 26398.483085451495, 45784.06164456149, 33867.98904752601, 4710.02664685567, -1474.477526483241, 52247.739106147186, 35682.83893857467, 22839.81714723315, -7826.329210559036, 0.12, 1.02, 0.05, 192.0, 0.0, 0.0, 0.0, 0.0, 0.0, 0.0, 0.0, 0.0, 0.0, 1.695754458632755E9, 0.0, 2023-09-26 13:54:18.632
48.0, 73757.47099607838, 69091.58904452194, -19034.186784528112, -14414.908220160989, 33050.20577313969, 31989.771960946557, -187500.02235174447, 26386.726067868003, 45772.237571744634, 33857.55078286538, 4701.153004306913, -1478.567895718562, 52238.999574065165, 35663.214106942905, 22818.627693489518, -7838.4662077982675, 0.12, 1.02, 0.05, 192.0, 0.0, 0.0, 0.0, 0.0, 0.0, 0.0, 0.0, 0.0, 0.0, 1.695754458632799E9, 0.0, 2023-09-26 13:54:18.632
50.0, 73762.38837985854, 69095.96998643517, -19033.270363005446, -14402.793574666211, 33063.05802620149, 31995.04697263801, -187500.02235174447, 26385.966108556524, 45773.89160083432, 33848.00658798296, 4698.917829861382, -1475.2598375391767, 52237.43495195329, 35671.618362858106, 22821.779289457714, -7839.606146765488, 0.12, 1.02, 0.05, 192.0, 0.0, 0.0, 0.0, 0.0, 0.0, 0.0, 0.0, 0.0, 0.0, 1.695754458632808E9, 0.0, 2023-09-26 13:54:18.632
52.0, 73777.34169689915, 69113.82903025497, -19018.38410119821, -14396.13275481853, 33074.56917459598, 32011.25198736811, -187500.02235174447, 26382.903919566146, 45787.973199841166, 33858.40014915468, 4712.395931767933, -1464.6651106673612, 52248.856693369955, 35671.86423204711, 22834.251562863778, -7824.652829724888, 0.122, 1.016, 0.052000000000000005, 192.0, 1.5, 104.0, 15.5, 96.0, 0.5, 80.0, 0.0, 0.0, 0.0, 1.695754458632835E9, 0.0, 2023-09-26 13:54:18.632
54.0, 73757.89567922303, 69097.66871901377, -19044.043903832902, -14411.823679426156, 33049.73638650613, 31993.482350526137, -187500.02235174447, 26396.94081508408, 45779.56894392597, 33866.402073669684, 4704.863393886494, -1465.2462560231993, 52234.61863215192, 35689.25388923334, 22828.10483313857, -7828.586736749022, 0.122, 1.016, 0.052000000000000005, 192.0, 0.0, 0.0, 0.0, 0.0, 0.0, 0.0, 0.0, 0.0, 0.0, 1.695754458632845E9, 0.0, 2023-09-26 13:54:18.632
56.0, 73770.03267646226, 69113.47140234368, -19050.503557980486, -14395.305740273685, 33079.575965353964, 32010.357917589896, -187500.02235174447, 26399.08658255179, 45772.371682211364, 33852.87926827422, 4707.970286365782, -1459.3677472314534, 52235.28918448558, 35685.7223136094, 22833.648065763482, -7823.915222157863, 0.122, 1.016, 0.052000000000000005, 192.0, 0.0, 0.0, 0.0, 0.0, 0.0, 0.0, 0.0, 0.0, 0.0, 1.695754458632854E9, 0.0, 2023-09-26 13:54:18.632
58.0, 73760.42142634648, 69109.87277148638, -19083.315918840875, -14406.168688078964, 33084.98508751215, 32006.37930707685, -187500.02235174447, 26405.859161121745, 45778.92074333677, 33870.112463249265, 4721.515443505698, -1454.2268460067328, 52244.25223401216, 35682.45895891893, 22846.634429292015, -7813.029922608129, 0.122, 1.016, 0.052000000000000005, 192.0, 0.0, 0.0, 0.0, 0.0, 0.0, 0.0, 0.0, 0.0, 0.0, 1.695754458632863E9, 0.0, 2023-09-26 13:54:18.632
60.0, 73752.93359195394, 69098.67454751427, -19087.450991565107, -14407.912124146478, 33081.14058746584, 32002.065420396975, -187500.02235174447, 26392.738687126483, 45772.88577233384, 33850.28646591741, 4709.892536388938, -1467.2132095352663, 52235.40094320786, 35695.31121198073, 22837.51491755425, -7827.089169870516, 0.122, 1.016, 0.052000000000000005, 192.0, 0.0, 0.0, 0.0, 0.0, 0.0, 0.0, 0.0, 0.0, 0.0, 1.695754458692925E9, 0.0, 2023-09-26 13:54:18.692
62.0, 73759.12502516808, 69098.74160274764, -19087.003956676002, -14406.839240412623, 33089.008401514104, 31997.013926150077, -187500.02235174447, 26402.394640731174, 45779.21131601469, 33862.6916840901, 4713.424112012877, -1459.6359681649171, 52243.3805159784, 35676.62515361609, 22845.114510669056, -7818.506099999679, 0.122, 1.016, 0.052000000000000005, 192.0, 1.5, 104.0, 15.5, 96.0, 0.5, 80.0, 0.0, 0.0, 0.0, 1.695754458692946E9, 0.0, 2023-09-26 13:54:18.692
64.0, 73757.94038271194, 69101.066184171, -19092.278968367456, -14406.548667734703, 33075.664410074285, 31993.39294354832, -187500.02235174447, 26383.55212015535, 45769.1530310098, 33845.52554434843, 4707.3667892654885, -1466.9226368573472, 52237.18908276428, 35676.356932682625, 22833.89393495249, -7828.519681515656, 0.122, 1.016, 0.052000000000000005, 192.0, 0.0, 0.0, 0.0, 0.0, 0.0, 0.0, 0.0, 0.0, 0.0, 1.695754458692957E9, 0.0, 2023-09-26 13:54:18.692
66.0, 73751.41367333099, 69091.07495439946, -19104.30420688441, -14410.348464292107, 33067.282505903546, 31995.494007527115, -187500.02235174447, 26390.21294000303, 45760.81583032797, 33867.094977747794, 4702.091777574036, -1468.5990176914952, 52226.415541936825, 35677.407464672026, 22825.936713926403, -7828.743198960209, 0.122, 1.016, 0.052000000000000005, 192.0, 0.0, 0.0, 0.0, 0.0, 0.0, 0.0, 0.0, 0.0, 0.0, 1.695754458692966E9, 0.0, 2023-09-26 13:54:18.692
68.0, 73757.33688561164, 69099.54626554802, -19097.06224168089, -14401.899504888, 33067.19309892572, 31999.29380408452, -187500.02235174447, 26378.947660797556, 45762.179286739745, 33857.57313460984, 4699.901306617416, -1469.8730671254477, 52215.06085575353, 35672.646543103045, 22822.159269113454, -7828.117350115461, 0.122, 1.016, 0.052000000000000005, 192.0, 0.0, 0.0, 0.0, 0.0, 0.0, 0.0, 0.0, 0.0, 0.0, 1.695754458692979E9, 0.0, 2023-09-26 13:54:18.692
70.0, 73758.67799027896, 69106.3635476069, -19092.211913134088, -14404.916990389465, 33068.08716870393, 32004.568815775972, -187500.02235174447, 26391.755210370447, 45764.68268211874, 33857.08139623182, 4702.650571185419, -1460.9547210877802, 52226.124969258904, 35683.66595311951, 22831.010559917755, -7826.575079748044, 0.122, 1.016, 0.052000000000000005, 192.0, 0.0, 0.0, 0.0, 0.0, 0.0, 0.0, 0.0, 0.0, 0.0, 1.695754458693016E9, 0.0, 2023-09-26 13:54:18.693
72.0, 73763.77418801478, 69096.79700098002, -19092.457782323097, -14409.342635791618, 33082.4593403887, 31993.795274948512, -187500.02235174447, 26379.193529986565, 45767.00726354209, 33852.61104734076, 4704.88574563095, -1465.3356630010205, 52233.05401004005, 35695.870005592114, 22834.89976345298, -7836.767475219664, 0.124, 1.018, 0.046, 192.0, 1.5, 112.0, 15.5, 104.0, 0.5, 56.0, 0.0, 0.0, 0.0, 1.695754458693026E9, 0.0, 2023-09-26 13:54:18.693
74.0, 73753.22416463187, 69087.6104340089, -19106.651140052218, -14418.99858939631, 33069.04829371552, 31996.298670327506, -187500.02235174447, 26394.88445459419, 45764.19094374072, 33861.75291082298, 4694.112204803491, -1472.57762820454, 52236.49617868617, 35672.19950821394, 22834.363321586054, -7828.765550704665, 0.124, 1.018, 0.046, 192.0, 0.0, 0.0, 0.0, 0.0, 0.0, 0.0, 0.0, 0.0, 0.0, 1.69575445875329E9, 0.0, 2023-09-26 13:54:18.753
76.0, 73765.58467931565, 69095.09826840142, -19091.16138114469, -14402.57005722166, 33073.31747690648, 31996.745705216614, -187500.02235174447, 26387.106047523743, 45754.35617618039, 33842.910390247154, 4680.947027319316, -1485.3628260329756, 52220.44762616725, 35666.74568256685, 22822.27102783573, -7842.176597377849, 0.124, 1.018, 0.046, 192.0, 0.0, 0.0, 0.0, 0.0, 0.0, 0.0, 0.0, 0.0, 0.0, 1.695754458753314E9, 0.0, 2023-09-26 13:54:18.753
78.0, 73765.22705140436, 69098.78630623655, -19098.157477159202, -14408.292103802218, 33068.89183150433, 32002.065420396975, -187500.02235174447, 26393.09631503777, 45771.52231592206, 33858.26603868795, 4702.4941089742315, -1465.6262356789393, 52220.58173663399, 35675.35110418214, 22833.133975641013, -7832.40888505088, 0.124, 1.018, 0.046, 192.0, 0.0, 0.0, 0.0, 0.0, 0.0, 0.0, 0.0, 0.0, 0.0, 1.695754458753328E9, 0.0, 2023-09-26 13:54:18.753
80.0, 73777.54286259924, 69108.15168716332, -19085.282872352946, -14397.697376930402, 33094.08224750546, 32007.116914643877, -187500.02235174447, 26388.044820790867, 45770.78470835504, 33863.0940154903, 4703.634047941452, -1471.9517793597913, 52224.2250709802, 35688.09159852166, 22825.646141248482, -7833.9511554182955, 0.124, 1.018, 0.046, 192.0, 0.0, 0.0, 0.0, 0.0, 0.0, 0.0, 0.0, 0.0, 0.0, 1.695754458753337E9, 0.0, 2023-09-26 13:54:18.753
82.0, 73772.22314741887, 69093.84657071192, -19092.860113723294, -14399.776089164745, 33093.59050912744, 31997.818588950468, -187500.02235174447, 26397.18668427309, 45781.334731737945, 33866.31266669186, 4714.049960857626, -1452.7963343615932, 52242.50879794465, 35693.3219067242, 22839.213650132853, -7824.541071002612, 0.116, 1.016, 0.042, 192.0, 1.5, 80.0, 15.5, 96.0, 0.5, 40.0, 0.0, 0.0, 0.0, 1.695754458753347E9, 0.0, 2023-09-26 13:54:18.753
84.0, 73756.06283617769, 69076.52396875907, -19109.914494742694, -14419.780900452246, 33081.677029332765, 31982.84292016541, -187500.02235174447, 26383.529768410895, 45760.637016372326, 33852.83456478531, 4688.121937289469, -1478.3220265295538, 52228.18132974879, 35669.20437445693, 22818.1359551115, -7840.902547943896, 0.116, 1.016, 0.042, 192.0, 0.0, 0.0, 0.0, 0.0, 0.0, 0.0, 0.0, 0.0, 0.0, 1.695754458753356E9, 0.0, 2023-09-26 13:54:18.753
86.0, 73749.42436807447, 69077.52979725954, -19112.775518032973, -14423.178365609452, 33082.727561322165, 31979.490158497116, -187500.02235174447, 26389.452980691553, 45756.948978537206, 33853.43806188561, 4681.3046552306005, -1482.6806166983388, 52227.06374252603, 35671.66306634701, 22809.821106174124, -7852.234882382737, 0.116, 1.016, 0.042, 192.0, 0.0, 0.0, 0.0, 0.0, 0.0, 0.0, 0.0, 0.0, 0.0, 1.695754458753365E9, 0.0, 2023-09-26 13:54:18.753
88.0, 73763.95300197041, 69079.42969553825, -19107.858134252805, -14417.18809809543, 33084.00161075612, 31979.601917219392, -187500.02235174447, 26387.17310275711, 45753.28329244653, 33839.55762857886, 4676.633140639441, -1486.9050964003918, 52232.852844339955, 35665.739854066356, 22810.737527696794, -7853.754801005698, 0.116, 1.016, 0.042, 192.0, 0.0, 0.0, 0.0, 0.0, 0.0, 0.0, 0.0, 0.0, 0.0, 1.695754458753374E9, 0.0, 2023-09-26 13:54:18.753
90.0, 73780.29212716724, 69089.3538700764, -19092.256616623, -14403.08414734413, 33101.63713713135, 31997.90799592829, -187500.02235174447, 26399.66772790763, 45771.52231592206, 33871.453567916586, 4696.056806571103, -1470.4318607368305, 52227.84605358196, 35697.83695910418, 22824.841478448092, -7838.756780476187, 0.116, 1.016, 0.042, 192.0, 0.0, 0.0, 0.0, 0.0, 0.0, 0.0, 0.0, 0.0, 0.0, 1.695754458813595E9, 0.0, 2023-09-26 13:54:18.813
92.0, 73783.73429581337, 69094.18184687875, -19077.97385191606, -14389.024900081742, 33101.033640031055, 32008.458019311194, -187500.02235174447, 26398.23721626249, 45777.66904564727, 33870.47009116055, 4705.556297964608, -1454.9868053182133, 52243.69344040078, 35686.54932815425, 22830.071786650635, -7829.592565249511, 0.112, 1.016, 0.04, 192.0, 1.5, 64.0, 15.5, 96.0, 0.5, 32.0, 0.0, 0.0, 0.0, 1.695754458813658E9, 0.0, 2023-09-26 13:54:18.813
94.0, 73767.52928108326, 69074.10998035788, -19099.833857993348, -14413.321246304662, 33087.60024161342, 31981.702981198192, -187500.02235174447, 26384.26737597792, 45775.92560957976, 33866.02209401394, 4707.433844498854, -1456.2161512632551, 52233.4786931847, 35680.49200540686, 22825.37792031502, -7830.508986772179, 0.112, 1.016, 0.04, 192.0, 0.0, 0.0, 0.0, 0.0, 0.0, 0.0, 0.0, 0.0, 0.0, 1.695754458813668E9, 0.0, 2023-09-26 13:54:18.813
96.0, 73755.86167047759, 69069.25965181108, -19111.568523832386, -14426.195851110919, 33069.4059216268, 31966.749664157593, -187500.02235174447, 26380.244061975965, 45761.73225185064, 33844.92204724813, 4684.813879110084, -1483.932314387836, 52237.43495195329, 35670.36666516861, 22800.858056647547, -7859.856827241997, 0.112, 1.016, 0.04, 192.0, 0.0, 0.0, 0.0, 0.0, 0.0, 0.0, 0.0, 0.0, 0.0, 1.695754458813683E9, 0.0, 2023-09-26 13:54:18.813
98.0, 73769.89856599552, 69086.8504746974, -19098.91743647068, -14406.839240412623, 33075.68676181874, 31988.00617313459, -187500.02235174447, 26378.0759427638, 45757.44071691522, 33844.542067592396, 4687.987826822738, -1474.0751950830454, 52222.61574537942, 35668.48911863436, 22806.93773113939, -7850.469094570768, 0.112, 1.016, 0.04, 192.0, 0.0, 0.0, 0.0, 0.0, 0.0, 0.0, 0.0, 0.0, 0.0, 1.695754458813694E9, 0.0, 2023-09-26 13:54:18.813
100.0, 73779.15218820002, 69090.85143695491, -19093.39655559022, -14409.834374169634, 33087.689648591244, 31989.347277801906, -187500.02235174447, 26391.330527225797, 45774.405690956795, 33857.05904448737, 4698.649608927919, -1468.3307967580315, 52239.91599558783, 35671.43954890246, 22817.085423122102, -7843.875329956452, 0.112, 1.016, 0.04, 192.0, 0.0, 0.0, 0.0, 0.0, 0.0, 0.0, 0.0, 0.0, 0.0, 1.695754458813703E9, 0.0, 2023-09-26 13:54:18.813
102.0, 73775.37474338707, 69073.55118674651, -19107.187581919145, -14418.216278340375, 33079.64302058733, 31976.651486951294, -187500.02235174447, 26382.389829443673, 45770.96352231068, 33868.74900683749, 4697.1520420494135, -1477.964398618269, 52236.98791706419, 35675.8204908157, 22817.823030689127, -7847.9209957028625, 0.11, 1.02, 0.044, 192.0, 1.5, 56.0, 15.5, 112.0, 0.5, 48.0, 0.0, 0.0, 0.0, 1.695754458813712E9, 0.0, 2023-09-26 13:54:18.813
104.0, 73776.84995852112, 69082.89421592883, -19105.086517940344, -14409.700263702902, 33094.77515158357, 31990.263699324576, -187500.02235174447, 26396.650242406162, 45766.73904260863, 33845.16791643714, 4684.836230854539, -1477.4950119847074, 52235.065667041024, 35667.684455833965, 22811.02810037471, -7852.838379483031, 0.11, 1.02, 0.044, 192.0, 0.0, 0.0, 0.0, 0.0, 0.0, 0.0, 0.0, 0.0, 0.0, 1.695754458873772E9, 0.0, 2023-09-26 13:54:18.873
106.0, 73763.12598742556, 69077.90977691529, -19110.339177887345, -14423.37953130955, 33078.57013685347, 31976.85265265139, -187500.02235174447, 26385.384963200686, 45770.94117056623, 33831.77922150841, 4692.368768735978, -1475.0139683501684, 52237.032620553095, 35668.71263607891, 22810.04462361868, -7853.263062627681, 0.11, 1.02, 0.044, 192.0, 0.0, 0.0, 0.0, 0.0, 0.0, 0.0, 0.0, 0.0, 0.0, 1.695754458873789E9, 0.0, 2023-09-26 13:54:18.873
108.0, 73765.94230722694, 69076.45691352569, -19117.98347449106, -14421.144356864019, 33071.484633861146, 31970.482405481627, -187500.02235174447, 26387.776599857403, 45764.23564722963, 33853.72863456352, 4686.490259944232, -1480.6466079529057, 52224.605050635946, 35677.80979607222, 22804.83666716059, -7858.426315596857, 0.11, 1.02, 0.044, 192.0, 0.0, 0.0, 0.0, 0.0, 0.0, 0.0, 0.0, 0.0, 0.0, 1.695754458873798E9, 0.0, 2023-09-26 13:54:18.873
110.0, 73785.29891792523, 69096.48407655765, -19098.604512048307, -14403.642940955513, 33103.02294528758, 31987.67089696776, -187500.02235174447, 26374.41025667313, 45769.041272287526, 33842.55276233587, 4690.133594290447, -1480.2442765527103, 52226.88492857038, 35657.33559815116, 22802.065050848134, -7855.967623706773, 0.11, 1.02, 0.044, 192.0, 0.0, 0.0, 0.0, 0.0, 0.0, 0.0, 0.0, 0.0, 0.0, 1.695754458873807E9, 0.0, 2023-09-26 13:54:18.873
112.0, 73762.0084002028, 69080.97196590567, -19121.64916058173, -14423.781862709746, 33084.3592386674, 31967.576678702437, -187500.02235174447, 26382.18866374358, 45785.33569399544, 33863.9433817796, 4694.425129225866, -1478.6125992074728, 52244.98984157918, 35671.8195285582, 22809.75405094076, -7851.519626560167, 0.114, 1.02, 0.038, 192.0, 1.5, 72.0, 15.5, 112.0, 0.5, 24.0, 0.0, 0.0, 0.0, 1.695754458873817E9, 0.0, 2023-09-26 13:54:18.873
114.0, 73765.09294093764, 69081.93309091724, -19101.934921972148, -14412.270714315262, 33086.95204102422, 31970.035370592523, -187500.02235174447, 26366.475387391496, 45769.82358334346, 33831.84627674178, 4680.142364518924, -1494.2811720706432, 52221.63226862339, 35671.66306634701, 22793.012594343734, -7871.837362270041, 0.114, 1.02, 0.038, 192.0, 0.0, 0.0, 0.0, 0.0, 0.0, 0.0, 0.0, 0.0, 0.0, 1.695754458873861E9, 0.0, 2023-09-26 13:54:18.873
116.0, 73746.67510350647, 69075.83106468094, -19112.082613954855, -14424.698284232412, 33086.48265439065, 31962.011094333066, -187500.02235174447, 26375.259622962432, 45770.76235661058, 33854.26507643045, 4696.995579838226, -1470.8565438814812, 52237.90433858685, 35671.05956924672, 22804.210818315845, -7862.0025947097065, 0.114, 1.02, 0.038, 192.0, 0.0, 0.0, 0.0, 0.0, 0.0, 0.0, 0.0, 0.0, 0.0, 1.69575445887387E9, 0.0, 2023-09-26 13:54:18.873
118.0, 73752.01717043128, 69083.27419558457, -19116.30709365691, -14426.776996466757, 33083.64398284483, 31960.8935071103, -187500.02235174447, 26362.0720937338, 45760.86053381688, 33845.1902681816, 4682.601056409008, -1484.6252184659504, 52218.011286021625, 35653.02171147129, 22791.023289087214, -7873.200818681815, 0.114, 1.02, 0.038, 192.0, 0.0, 0.0, 0.0, 0.0, 0.0, 0.0, 0.0, 0.0, 0.0, 1.695754458873879E9, 0.0, 2023-09-26 13:54:18.873
120.0, 73737.04150164622, 69065.77277967606, -19140.044646268445, -14439.159862894996, 33059.68291278874, 31949.9411523272, -187500.02235174447, 26371.102198493743, 45756.926626792745, 33854.26507643045, 4674.040338282626, -1491.8895354139252, 52217.318381943514, 35656.03919697276, 22783.378992483496, -7876.598283839022, 0.114, 1.02, 0.038, 192.0, 0.0, 0.0, 0.0, 0.0, 0.0, 0.0, 0.0, 0.0, 0.0, 1.695754458932757E9, 0.0, 2023-09-26 13:54:18.932
122.0, 73738.82964120265, 69065.52691048705, -19129.584029863363, -14433.169595380974, 33080.60414559891, 31946.74485287009, -187500.02235174447, 26354.22663142999, 45738.15116145029, 33816.02124166742, 4665.5690271340645, -1499.958515162291, 52202.23095443618, 35638.02369094177, 22769.655021387938, -7886.745975821731, 0.112, 1.024, 0.04, 192.0, 1.5, 64.0, 16.0, 0.0, 0.5, 32.0, 0.0, 0.0, 0.0, 1.695754458932787E9, 0.0, 2023-09-26 13:54:18.932
124.0, 73753.04535067623, 69073.1041518574, -19130.433396152664, -14436.723522749367, 33075.15031995181, 31951.103443038875, -187500.02235174447, 26364.709599579528, 45746.1977894542, 33831.33218661931, 4667.424221923855, -1491.6213144804615, 52216.066684254016, 35678.07801700569, 22769.431503943386, -7891.573952624078, 0.112, 1.024, 0.04, 192.0, 0.0, 0.0, 0.0, 0.0, 0.0, 0.0, 0.0, 0.0, 0.0, 1.695754458932797E9, 0.0, 2023-09-26 13:54:18.932
126.0, 73750.85487971961, 69074.42290478027, -19132.02037000899, -14427.961638922889, 33079.41950314277, 31968.94013511421, -187500.02235174447, 26357.93702100957, 45748.7011848332, 33817.205884123556, 4672.296902215112, -1485.7428056887159, 52209.53997487306, 35629.731193748856, 22772.426637700395, -7878.3193681620805, 0.112, 1.024, 0.04, 192.0, 0.0, 0.0, 0.0, 0.0, 0.0, 0.0, 0.0, 0.0, 0.0, 1.695754458932807E9, 0.0, 2023-09-26 13:54:18.932
128.0, 73757.00160944482, 69078.22270133767, -19123.034968737957, -14418.506851018294, 33091.400038170825, 31968.671914180748, -187500.02235174447, 26375.863120062724, 45757.686586104224, 33845.48084085951, 4678.845963340516, -1482.0547678535902, 52221.945193045765, 35659.48136561887, 22783.356640739043, -7868.506952346201, 0.112, 1.024, 0.04, 192.0, 0.0, 0.0, 0.0, 0.0, 0.0, 0.0, 0.0, 0.0, 0.0, 1.695754458932816E9, 0.0, 2023-09-26 13:54:18.932
130.0, 73752.46420532039, 69071.07014311197, -19122.856154782316, -14423.267772587273, 33089.74600908113, 31960.75939664357, -187500.02235174447, 26366.31892518031, 45753.03742325753, 33841.725747791024, 4675.135573760936, -1485.2957707996097, 52214.77028307561, 35655.77097603929, 22782.976661083303, -7875.659510571899, 0.112, 1.024, 0.04, 192.0, 0.0, 0.0, 0.0, 0.0, 0.0, 0.0, 0.0, 0.0, 0.0, 1.695754458932827E9, 0.0, 2023-09-26 13:54:18.932
132.0, 73758.4097693455, 69068.20911982168, -19124.39842514973, -14422.083130131143, 33096.74210509564, 31961.161728043764, -187500.02235174447, 26370.141073482166, 45764.257998974084, 33855.784995053415, 4680.947027319316, -1484.4017010213972, 52214.92674528679, 35669.56200236821, 22783.110771550033, -7876.1512489499155, 0.114, 1.024, 0.036000000000000004, 192.0, 1.5, 72.0, 16.0, 0.0, 0.5, 16.0, 0.0, 0.0, 0.0, 1.695754458932836E9, 0.0, 2023-09-26 13:54:18.932
134.0, 73764.48944383734, 69075.87576816986, -19109.690977298138, -14411.466051514872, 33098.30672720751, 31973.47753923864, -187500.02235174447, 26367.481215891985, 45753.46210640218, 33825.25251212746, 4671.291073714623, -1484.96049463278, 52216.35725693194, 35645.93620847895, 22771.778437111192, -7882.27562693067, 0.114, 1.024, 0.036000000000000004, 192.0, 0.0, 0.0, 0.0, 0.0, 0.0, 0.0, 0.0, 0.0, 0.0, 1.69575445899339E9, 0.0, 2023-09-26 13:54:18.993
136.0, 73758.29801062323, 69069.21494832217, -19114.69776805613, -14421.18906035293, 33090.84124455944, 31963.12868155583, -187500.02235174447, 26365.626021102194, 45753.39505116881, 33832.65093954217, 4686.087928544036, -1471.6165031929618, 52223.15218724635, 35662.72236856489, 22781.993184327268, -7872.574969837066, 0.114, 1.024, 0.036000000000000004, 192.0, 0.0, 0.0, 0.0, 0.0, 0.0, 0.0, 0.0, 0.0, 0.0, 1.695754458993446E9, 0.0, 2023-09-26 13:54:18.993
138.0, 73759.41559784599, 69067.98560237713, -19111.792041276938, -14421.077301630654, 33084.5604043675, 31967.6437339358, -187500.02235174447, 26369.60463161524, 45753.573865124454, 33834.662596543145, 4686.1773355218575, -1481.7865469201265, 52219.3747424334, 35663.169403454, 22776.98639356928, -7877.827629784064, 0.114, 1.024, 0.036000000000000004, 192.0, 0.0, 0.0, 0.0, 0.0, 0.0, 0.0, 0.0, 0.0, 0.0, 1.695754458993457E9, 0.0, 2023-09-26 13:54:18.993
140.0, 73776.93936549895, 69072.70182045721, -19095.497619569018, -14398.32322577515, 33115.159942526814, 31986.55330974499, -187500.02235174447, 26372.152730483143, 45765.42028968576, 33847.71601530505, 4701.242411284735, -1465.2462560231993, 52224.582698891485, 35668.332656423176, 22786.865864618525, -7861.466152842779, 0.114, 1.024, 0.036000000000000004, 192.0, 0.0, 0.0, 0.0, 0.0, 0.0, 0.0, 0.0, 0.0, 0.0, 1.695754458993466E9, 0.0, 2023-09-26 13:54:18.993
142.0, 73774.88300500906, 69078.44621878222, -19100.750279516018, -14410.28140905874, 33112.88006459237, 31973.969277616656, -187500.02235174447, 26373.918518295115, 45768.21425774268, 33841.54693383538, 4698.2696292721785, -1458.1607530308668, 52235.46799844122, 35669.651409346036, 22789.860998375538, -7860.79560050912, 0.114, 1.026, 0.036000000000000004, 192.0, 1.5, 72.0, 16.0, 8.0, 0.5, 16.0, 0.0, 0.0, 0.0, 1.695754458993475E9, 0.0, 2023-09-26 13:54:18.993
144.0, 73771.8655195076, 69075.71930595867, -19109.02042496448, -14417.344560306617, 33098.396134185336, 31961.85463212188, -187500.02235174447, 26362.78734955637, 45775.165650268274, 33845.12321294823, 4700.862431628994, -1463.994558333702, 52227.7789983486, 35662.63296158707, 22790.442143731376, -7870.384498880447, 0.114, 1.026, 0.036000000000000004, 192.0, 0.0, 0.0, 0.0, 0.0, 0.0, 0.0, 0.0, 0.0, 0.0, 1.695754458993484E9, 0.0, 2023-09-26 13:54:18.993
146.0, 73775.91118525401, 69073.9535181467, -19103.96893071758, -14414.170612593964, 33108.879102334875, 31970.817681648456, -187500.02235174447, 26368.375285670198, 45764.705033863196, 33832.561532564345, 4689.485393701243, -1475.7739276616487, 52224.180367491295, 35658.475537118386, 22780.763838382227, -7878.229961184259, 0.114, 1.026, 0.036000000000000004, 192.0, 0.0, 0.0, 0.0, 0.0, 0.0, 0.0, 0.0, 0.0, 0.0, 1.695754458993493E9, 0.0, 2023-09-26 13:54:18.993
148.0, 73766.34463862714, 69063.8505296529, -19109.556866831408, -14416.115214361575, 33104.92284356628, 31964.42508273424, -187500.02235174447, 26364.26256469042, 45763.72155710716, 33831.48864883049, 4696.325027504567, -1476.7574044176822, 52225.18619599178, 35666.38805465556, 22791.202103042855, -7866.607054067499, 0.114, 1.026, 0.036000000000000004, 192.0, 0.0, 0.0, 0.0, 0.0, 0.0, 0.0, 0.0, 0.0, 0.0, 1.695754458993502E9, 0.0, 2023-09-26 13:54:18.993
150.0, 73763.75183627031, 69052.92052661425, -19110.249770909522, -14411.309589303684, 33100.07251501948, 31963.106329811377, -187500.02235174447, 26370.766922326915, 45757.75364133759, 33830.683986030104, 4693.955742592304, -1478.925523629847, 52233.612803651435, 35654.87690626108, 22786.687050662884, -7870.742126791732, 0.114, 1.026, 0.036000000000000004, 192.0, 0.0, 0.0, 0.0, 0.0, 0.0, 0.0, 0.0, 0.0, 0.0, 1.695754459053269E9, 0.0, 2023-09-26 13:54:19.053
152.0, 73769.27271715077, 69051.15473880229, -19117.134108201757, -14421.9043161755, 33092.91995679378, 31965.497966468094, -187500.02235174447, 26363.03321874538, 45761.888714061824, 33830.818096496834, 4694.983922837248, -1478.9478753743024, 52211.462224896226, 35664.80108079923, 22789.101039064055, -7868.976338979762, 0.108, 1.026, 0.036000000000000004, 192.0, 1.5, 48.0, 16.0, 8.0, 0.5, 16.0, 0.0, 0.0, 0.0, 1.695754459053292E9, 0.0, 2023-09-26 13:54:19.053
154.0, 73777.43110387697, 69046.43852072222, -19116.17298319018, -14415.198792838908, 33116.92573033878, 31971.734103171126, -187500.02235174447, 26378.0759427638, 45768.21425774268, 33838.66355880065, 4692.100547802514, -1477.0703288400566, 52226.750818103654, 35655.86038301711, 22784.07189656161, -7872.887894259441, 0.108, 1.026, 0.036000000000000004, 192.0, 0.0, 0.0, 0.0, 0.0, 0.0, 0.0, 0.0, 0.0, 0.0, 1.695754459053302E9, 0.0, 2023-09-26 13:54:19.053
156.0, 73790.55157787223, 69064.43167500875, -19098.895084726228, -14398.65850194198, 33122.49131470815, 31980.47363525315, -187500.02235174447, 26375.751361340448, 45774.24922874561, 33828.67232902913, 4707.947934621327, -1460.932369343325, 52229.79065534958, 35657.53676385126, 22801.99799561477, -7846.870463713463, 0.108, 1.026, 0.036000000000000004, 192.0, 0.0, 0.0, 0.0, 0.0, 0.0, 0.0, 0.0, 0.0, 0.0, 1.695754459053311E9, 0.0, 2023-09-26 13:54:19.053
158.0, 73783.17550220198, 69061.41418950727, -19108.148706930722, -14407.241571812818, 33119.47382920669, 31977.232632307132, -187500.02235174447, 26386.435495190086, 45774.42804270125, 33850.37587289523, 4710.630143955964, -1460.3959274763974, 52231.19881525026, 35666.16453721101, 22801.50625723675, -7854.224187639259, 0.108, 1.026, 0.036000000000000004, 192.0, 0.0, 0.0, 0.0, 0.0, 0.0, 0.0, 0.0, 0.0, 0.0, 1.695754459053351E9, 0.0, 2023-09-26 13:54:19.053
160.0, 73783.19785394643, 69055.73684641563, -19117.089404712846, -14421.524336519758, 33112.88006459237, 31962.50283271108, -187500.02235174447, 26377.31598345232, 45769.89063857683, 33836.31662563284, 4706.584478209553, -1467.0790990685343, 52234.730390874196, 35657.46970861789, 22797.147667067966, -7852.838379483031, 0.108, 1.026, 0.036000000000000004, 192.0, 0.0, 0.0, 0.0, 0.0, 0.0, 0.0, 0.0, 0.0, 0.0, 1.69575445905336E9, 0.0, 2023-09-26 13:54:19.053
162.0, 73784.71777256939, 69057.72615167215, -19122.811451293404, -14419.155051607497, 33111.36014596941, 31976.226803806643, -187500.02235174447, 26386.390791701175, 45772.170516511265, 33849.45945137256, 4704.3716555084775, -1474.2093055497774, 52232.71873387322, 35667.840918045156, 22794.063126333134, -7859.409792352891, 0.112, 1.026, 0.04, 192.0, 1.5, 64.0, 16.0, 8.0, 0.5, 32.0, 0.0, 0.0, 0.0, 1.695754459053383E9, 0.0, 2023-09-26 13:54:19.053
164.0, 73791.11037148362, 69065.86218665387, -19114.67541631167, -14404.984045622832, 33121.35137574093, 31990.218995835665, -187500.02235174447, 26375.93017529609, 45781.737063138135, 33858.020169498945, 4713.580574224064, -1469.4707357252523, 52230.461207683235, 35676.60280187164, 22798.913454879937, -7845.574062535055, 0.112, 1.026, 0.04, 192.0, 0.0, 0.0, 0.0, 0.0, 0.0, 0.0, 0.0, 0.0, 0.0, 1.695754459113695E9, 0.0, 2023-09-26 13:54:19.113
166.0, 73781.09678996763, 69052.31702951396, -19115.994169234535, -14400.871324643056, 33119.160904784316, 31974.058684594478, -187500.02235174447, 26379.394695686664, 45786.74385389613, 33867.452605659084, 4718.877937659971, -1457.1996280192886, 52253.394097494376, 35675.90989779352, 22799.22637930231, -7842.757742733686, 0.112, 1.026, 0.04, 192.0, 0.0, 0.0, 0.0, 0.0, 0.0, 0.0, 0.0, 0.0, 0.0, 1.69575445911372E9, 0.0, 2023-09-26 13:54:19.113
168.0, 73793.92669128499, 69065.97394537616, -19101.55494231641, -14388.063775070164, 33134.69536718075, 31997.28214708354, -187500.02235174447, 26367.905899036636, 45781.893525349326, 33833.12032617573, 4717.514481248198, -1453.8915698399032, 52225.566175647524, 35674.255868703825, 22796.633576945493, -7846.401077079902, 0.112, 1.026, 0.04, 192.0, 0.0, 0.0, 0.0, 0.0, 0.0, 0.0, 0.0, 0.0, 0.0, 1.695754459113729E9, 0.0, 2023-09-26 13:54:19.113
170.0, 73781.92380451248, 69066.68920119872, -19112.708462799605, -14402.167725821464, 33119.09384955095, 31980.451283508693, -187500.02235174447, 26378.45592241954, 45788.82256613047, 33862.289352689906, 4731.998411655237, -1447.4095639478642, 52247.873216613916, 35697.70284863745, 22809.97756838531, -7836.432199052835, 0.112, 1.026, 0.04, 192.0, 0.0, 0.0, 0.0, 0.0, 0.0, 0.0, 0.0, 0.0, 0.0, 1.695754459113738E9, 0.0, 2023-09-26 13:54:19.113
172.0, 73769.5185863398, 69044.11393929887, -19117.60349483532, -14401.743042676813, 33122.11133505241, 31978.32786778544, -187500.02235174447, 26368.285878692375, 45776.7526241246, 33842.97744548052, 4715.972210880782, -1468.442555480308, 52226.81787333702, 35668.37735991208, 22793.50433272175, -7845.305841601592, 0.116, 1.02, 0.05, 192.0, 1.5, 80.0, 15.5, 112.0, 0.5, 72.0, 0.0, 0.0, 0.0, 1.695754459113747E9, 0.0, 2023-09-26 13:54:19.113
174.0, 73764.22122290389, 69035.5979246614, -19122.69969257113, -14404.671121200457, 33117.4174687168, 31987.492083012115, -187500.02235174447, 26382.18866374358, 45774.606856656894, 33841.88221000221, 4713.1782428238685, -1459.8147821205596, 52233.59045190697, 35671.461900646915, 22797.21472230133, -7841.595452022011, 0.116, 1.02, 0.05, 192.0, 0.0, 0.0, 0.0, 0.0, 0.0, 0.0, 0.0, 0.0, 0.0, 1.695754459113757E9, 0.0, 2023-09-26 13:54:19.113
176.0, 73767.28341189426, 69042.86224160937, -19131.640390353252, -14414.818813183167, 33112.589491914456, 31970.795329904002, -187500.02235174447, 26370.297535693353, 45772.19286825572, 33820.24572136947, 4711.323048034078, -1463.6145786779618, 52223.822739580006, 35659.05668247422, 22788.83281813059, -7846.669298013366, 0.116, 1.02, 0.05, 192.0, 0.0, 0.0, 0.0, 0.0, 0.0, 0.0, 0.0, 0.0, 0.0, 1.695754459113766E9, 0.0, 2023-09-26 13:54:19.113
178.0, 73785.81300804771, 69058.06142783898, -19117.245866924033, -14397.786783908223, 33125.55350369853, 31978.417274763262, -187500.02235174447, 26377.0254107744, 45784.1063480504, 33845.12321294823, 4722.633030728463, -1457.7807733751267, 52236.6302891529, 35678.54740363925, 22793.16905655492, -7844.07649565655, 0.116, 1.02, 0.05, 192.0, 0.0, 0.0, 0.0, 0.0, 0.0, 0.0, 0.0, 0.0, 0.0, 1.695754459113774E9, 0.0, 2023-09-26 13:54:19.113
180.0, 73779.95685100042, 69051.26649752456, -19125.22543969458, -14409.47674625835, 33128.70509966673, 31972.22584154914, -187500.02235174447, 26370.69986709355, 45786.16270854029, 33838.77531752292, 4724.264708073701, -1459.5689129315513, 52236.29501298607, 35672.40067391404, 22794.823085644613, -7844.992917179217, 0.116, 1.02, 0.05, 192.0, 0.0, 0.0, 0.0, 0.0, 0.0, 0.0, 0.0, 0.0, 0.0, 1.695754459174036E9, 0.0, 2023-09-26 13:54:19.174
182.0, 73763.28244963675, 69032.15575601527, -19121.24682918153, -14427.156976122496, 33124.391212986855, 31951.639884905802, -187500.02235174447, 26371.21395721602, 45779.56894392597, 33841.591637324294, 4722.118940605991, -1471.3706340039532, 52246.30859450205, 35661.98476099787, 22790.866826876027, -7851.541978304623, 0.112, 1.016, 0.052000000000000005, 192.0, 1.5, 64.0, 15.5, 96.0, 0.5, 80.0, 0.0, 0.0, 0.0, 1.69575445917407E9, 0.0, 2023-09-26 13:54:19.174
184.0, 73759.19208040144, 69036.06731129496, -19130.96983801959, -14422.753682464801, 33116.67986114977, 31946.409576703263, -187500.02235174447, 26372.59976537225, 45763.2521704736, 33832.94151222009, 4711.010123611703, -1479.7972416636042, 52224.180367491295, 35655.72627255038, 22789.70453616435, -7868.663414557388, 0.112, 1.016, 0.052000000000000005, 192.0, 0.0, 0.0, 0.0, 0.0, 0.0, 0.0, 0.0, 0.0, 0.0, 1.695754459174081E9, 0.0, 2023-09-26 13:54:19.174
186.0, 73759.99674320183, 69045.76796838857, -19130.74632057504, -14415.891696917022, 33111.941291325245, 31963.687475167215, -187500.02235174447, 26377.65125961915, 45762.447507673205, 33837.45656460006, 4709.736074177751, -1475.1033753279896, 52217.92187904381, 35650.272446903284, 22781.479094204795, -7856.526417318156, 0.112, 1.016, 0.052000000000000005, 192.0, 0.0, 0.0, 0.0, 0.0, 0.0, 0.0, 0.0, 0.0, 0.0, 1.69575445917409E9, 0.0, 2023-09-26 13:54:19.174
188.0, 73761.8072345027, 69031.35109321488, -19133.674399098683, -14417.411615539982, 33112.05305004752, 31963.106329811377, -187500.02235174447, 26374.11968399521, 45762.313397206475, 33837.41186111115, 4700.236582784246, -1485.9439713888135, 52216.17844297629, 35654.49692660534, 22771.711381877827, -7858.605129552499, 0.112, 1.016, 0.052000000000000005, 192.0, 0.0, 0.0, 0.0, 0.0, 0.0, 0.0, 0.0, 0.0, 0.0, 1.695754459174099E9, 0.0, 2023-09-26 13:54:19.174
190.0, 73772.33490614116, 69043.42103522074, -19121.135070459255, -14399.664330442469, 33122.04427981905, 31979.780731175037, -187500.02235174447, 26376.667782863115, 45776.35029272441, 33837.50126808897, 4719.481434760265, -1466.699119412794, 52222.10165525695, 35666.075130233185, 22782.931957594392, -7845.954042190796, 0.112, 1.016, 0.052000000000000005, 192.0, 0.0, 0.0, 0.0, 0.0, 0.0, 0.0, 0.0, 0.0, 0.0, 1.695754459174107E9, 0.0, 2023-09-26 13:54:19.174
192.0, 73779.68863006696, 69053.27815452554, -19114.004863978014, -14386.923836102944, 33117.64098616135, 31980.026600364043, -187500.02235174447, 26379.998192786956, 45785.670970162275, 33849.012416483456, 4727.930394164371, -1454.6515291513836, 52231.53409141709, 35690.46088343392, 22789.816294886627, -7841.081361899539, 0.11, 1.018, 0.052000000000000005, 192.0, 1.5, 56.0, 15.5, 104.0, 0.5, 80.0, 0.0, 0.0, 0.0, 1.695754459174117E9, 0.0, 2023-09-26 13:54:19.174
194.0, 73793.5690633737, 69068.20911982168, -19104.77359351797, -14385.158048290974, 33136.774079415096, 31991.873024925357, -187500.02235174447, 26379.953489298045, 45797.67385693477, 33860.3447509223, 4748.98573744127, -1437.4853894097078, 52243.469922956225, 35686.37051419861, 22797.46059149034, -7824.652829724888, 0.11, 1.018, 0.052000000000000005, 192.0, 0.0, 0.0, 0.0, 0.0, 0.0, 0.0, 0.0, 0.0, 0.0, 1.69575445923281E9, 0.0, 2023-09-26 13:54:19.232
196.0, 73792.3173656842, 69073.70764895769, -19104.88535224025, -14390.142487304509, 33138.04812884905, 31975.600954961894, -187500.02235174447, 26389.74355336947, 45799.73021742466, 33872.280582461426, 4741.98964142676, -1446.7837151031156, 52252.701193416266, 35682.70482810793, 22790.08451582009, -7839.31557408757, 0.11, 1.018, 0.052000000000000005, 192.0, 0.0, 0.0, 0.0, 0.0, 0.0, 0.0, 0.0, 0.0, 0.0, 1.695754459232839E9, 0.0, 2023-09-26 13:54:19.232
198.0, 73787.28822318175, 69073.55118674651, -19056.985563872524, -14393.383490250528, 33138.852791649435, 31979.37839977484, -187500.02235174447, 26378.25475671944, 45806.54749948353, 33867.49730914799, 4749.432772330377, -1438.0665347655458, 52251.42714398231, 35689.63386888908, 22805.41781251643, -7831.805387950586, 0.11, 1.018, 0.052000000000000005, 192.0, 0.0, 0.0, 0.0, 0.0, 0.0, 0.0, 0.0, 0.0, 0.0, 1.695754459232849E9, 0.0, 2023-09-26 13:54:19.232
200.0, 73756.77809200026, 69044.35980848788, -19045.586174200318, -14410.840202670122, 33111.248387247135, 31974.393960761307, -187500.02235174447, 26387.150751012654, 45775.47857469065, 33860.970599767046, 4737.1840163688685, -1450.9858430607133, 52231.511739672635, 35684.470615919905, 22793.303167021655, -7842.735390989232, 0.11, 1.018, 0.052000000000000005, 192.0, 0.0, 0.0, 0.0, 0.0, 0.0, 0.0, 0.0, 0.0, 0.0, 1.695754459232858E9, 0.0, 2023-09-26 13:54:19.232
202.0, 73755.48169082185, 69044.56097418797, -19045.966153856058, -14415.75758645029, 33118.4680007062, 31970.460053737173, -187500.02235174447, 26371.92921303859, 45773.93630432324, 33825.14075340518, 4726.2093098413125, -1463.5475234445958, 52218.21245172172, 35664.555211610226, 22783.64721341696, -7842.914204944874, 0.112, 1.018, 0.05, 192.0, 1.5, 64.0, 15.5, 104.0, 0.5, 72.0, 0.0, 0.0, 0.0, 1.695754459232905E9, 0.0, 2023-09-26 13:54:19.232
204.0, 73752.21833613138, 69046.81850037795, -19049.117749824258, -14421.636095242036, 33115.38345997137, 31967.979010102634, -187500.02235174447, 26378.567681141816, 45763.94507455172, 33857.595486354294, 4711.1218823339805, -1484.088776599023, 52220.55938488953, 35666.81273780021, 22769.587966154573, -7863.969548221773, 0.112, 1.018, 0.05, 192.0, 0.0, 0.0, 0.0, 0.0, 0.0, 0.0, 0.0, 0.0, 0.0, 1.695754459232915E9, 0.0, 2023-09-26 13:54:19.232
206.0, 73760.7119990244, 69038.05661655148, -19040.825252631337, -14410.460223014383, 33128.45923047772, 31964.22391703414, -187500.02235174447, 26365.581317613283, 45777.02084505807, 33832.38271860871, 4733.115998878003, -1465.089793812012, 52229.50008267166, 35657.67087431799, 22788.36343149703, -7844.434123567835, 0.112, 1.018, 0.05, 192.0, 0.0, 0.0, 0.0, 0.0, 0.0, 0.0, 0.0, 0.0, 0.0, 1.695754459232924E9, 0.0, 2023-09-26 13:54:19.232
208.0, 73782.21437719041, 69049.83598587943, -19029.783490870417, -14404.224086311351, 33140.61857946141, 31972.695228182703, -187500.02235174447, 26384.736762611483, 45777.803156114, 33822.011509181444, 4733.4289233003765, -1463.5475234445958, 52232.405809450844, 35668.24324944535, 22787.514065207728, -7843.942385189818, 0.112, 1.018, 0.05, 192.0, 0.0, 0.0, 0.0, 0.0, 0.0, 0.0, 0.0, 0.0, 0.0, 1.695754459232933E9, 0.0, 2023-09-26 13:54:19.232
210.0, 73768.2668886503, 69048.94191610122, -19039.81942413085, -14398.502039730793, 33121.50783795212, 31970.75062641509, -187500.02235174447, 26366.095407735756, 45791.884755120846, 33836.16016342165, 4744.247167616745, -1459.837133865015, 52236.25030949716, 35681.43077867398, 22792.14087630998, -7838.309745587081, 0.112, 1.018, 0.05, 192.0, 0.0, 0.0, 0.0, 0.0, 0.0, 0.0, 0.0, 0.0, 0.0, 1.695754459293774E9, 0.0, 2023-09-26 13:54:19.293
212.0, 73762.410731603, 69049.3442475014, -19043.57451719934, -14404.782879922734, 33135.7682509146, 31966.816719390958, -187500.02235174447, 26376.26545146292, 45784.64278991733, 33845.77141353743, 4746.951728695837, -1462.474639710741, 52244.162827034335, 35671.99834251384, 22784.876559362005, -7834.197024607304, 0.10400000000000001, 1.018, 0.054, 192.0, 1.5, 32.0, 15.5, 104.0, 0.5, 88.0, 0.0, 0.0, 0.0, 1.695754459293799E9, 0.0, 2023-09-26 13:54:19.293
214.0, 73748.75381574081, 69045.544450944, -19039.68531366412, -14401.832449654634, 33120.613768173906, 31961.22878327713, -187500.02235174447, 26354.60661108573, 45777.66904564727, 33838.17182042263, 4740.93910943736, -1466.833229879526, 52230.97529780571, 35684.26945021981, 22776.047620302157, -7851.072591671061, 0.10400000000000001, 1.018, 0.054, 192.0, 0.0, 0.0, 0.0, 0.0, 0.0, 0.0, 0.0, 0.0, 0.0, 1.69575445929381E9, 0.0, 2023-09-26 13:54:19.293
216.0, 73742.11534763758, 69038.59305841841, -19059.041924362413, -14408.783842180233, 33112.79065761455, 31954.053873306977, -187500.02235174447, 26367.861195547724, 45768.37071995386, 33840.29523614588, 4727.1480831084355, -1472.4211659933528, 52217.743065088165, 35655.592162083645, 22761.87661431749, -7848.390382336424, 0.10400000000000001, 1.018, 0.054, 192.0, 0.0, 0.0, 0.0, 0.0, 0.0, 0.0, 0.0, 0.0, 0.0, 1.695754459293819E9, 0.0, 2023-09-26 13:54:19.293
218.0, 73764.35533337061, 69051.93704985823, -19041.942839854102, -14398.859667642078, 33124.97235834269, 31961.362893743863, -187500.02235174447, 26356.70767506453, 45774.696263634716, 33843.35742513626, 4733.272461089189, -1465.1792007898332, 52220.67114361181, 35668.24324944535, 22762.54716665115, -7849.1503416479045, 0.10400000000000001, 1.018, 0.054, 192.0, 0.0, 0.0, 0.0, 0.0, 0.0, 0.0, 0.0, 0.0, 0.0, 1.695754459293828E9, 0.0, 2023-09-26 13:54:19.293
220.0, 73745.26694360578, 69042.95164858719, -19059.1983865736, -14423.647752243014, 33116.3669367274, 31942.207448745663, -187500.02235174447, 26358.026427987388, 45772.170516511265, 33847.112518204754, 4732.758370966718, -1458.4960291976965, 52231.46703618372, 35662.92353426499, 22765.74346610826, -7857.241673140726, 0.10400000000000001, 1.018, 0.054, 192.0, 0.0, 0.0, 0.0, 0.0, 0.0, 0.0, 0.0, 0.0, 0.0, 1.695754459293836E9, 0.0, 2023-09-26 13:54:19.293
222.0, 73741.73536798183, 69042.23639276462, -19056.046790605404, -14415.08703411663, 33122.8712943639, 31951.70694013917, -187500.02235174447, 26351.58912558426, 45756.52429539255, 33825.47602957202, 4722.498920261732, -1479.2384480522214, 52214.65852435333, 35651.14416493704, 22755.148739236443, -7866.249426156214, 0.11, 1.018, 0.054, 192.0, 1.5, 56.0, 15.5, 104.0, 0.5, 88.0, 0.0, 0.0, 0.0, 1.695754459293845E9, 0.0, 2023-09-26 13:54:19.293
224.0, 73746.18336512844, 69042.21404102017, -19052.761084170474, -14413.075377115652, 33144.95481788574, 31958.345408242396, -187500.02235174447, 26363.1226257232, 45773.73513862314, 33835.04257619889, 4732.7807227111725, -1475.058671839079, 52238.016097309126, 35675.507566393324, 22776.762876124725, -7846.423428824357, 0.11, 1.018, 0.054, 192.0, 0.0, 0.0, 0.0, 0.0, 0.0, 0.0, 0.0, 0.0, 0.0, 1.695754459353176E9, 0.0, 2023-09-26 13:54:19.353
226.0, 73731.47591727685, 69028.93710481371, -19057.20908131708, -14423.401883054004, 33126.916960110306, 31954.344445984894, -187500.02235174447, 26362.854404789738, 45773.377510711856, 33825.587788294295, 4727.908042419916, -1480.6913114418164, 52223.263945968625, 35649.60189456963, 22774.125370279, -7842.064838655572, 0.11, 1.018, 0.054, 192.0, 0.0, 0.0, 0.0, 0.0, 0.0, 0.0, 0.0, 0.0, 0.0, 1.695754459353217E9, 0.0, 2023-09-26 13:54:19.353
228.0, 73762.05310369171, 69050.70770391318, -19037.740711896506, -14401.720690932358, 33147.48056500919, 31965.028579834532, -187500.02235174447, 26379.014716030924, 45775.657388646294, 33840.92108499063, 4737.3628303245105, -1467.9508171022912, 52232.271698984114, 35668.936153523464, 22777.656945902938, -7843.718867745265, 0.11, 1.018, 0.054, 192.0, 0.0, 0.0, 0.0, 0.0, 0.0, 0.0, 0.0, 0.0, 0.0, 1.695754459353228E9, 0.0, 2023-09-26 13:54:19.353
230.0, 73756.46516757789, 69046.32676199994, -19034.857336861773, -14406.66042645698, 33137.77990791558, 31968.85072813639, -187500.02235174447, 26382.211015488032, 45790.65540917581, 33847.76071879396, 4752.22674038729, -1458.540732686607, 52243.93930958978, 35676.75926408282, 22787.156437296446, -7833.370010062458, 0.11, 1.018, 0.054, 192.0, 0.0, 0.0, 0.0, 0.0, 0.0, 0.0, 0.0, 0.0, 0.0, 1.695754459353238E9, 0.0, 2023-09-26 13:54:19.353
232.0, 73758.05214143421, 69040.02357006354, -19047.575479456842, -14417.94805740691, 33140.59622771695, 31957.98778033111, -187500.02235174447, 26382.389829443673, 45787.45910971869, 33858.087224732306, 4744.269519361201, -1464.0839653115231, 52236.00444030815, 35674.881717548575, 22781.344983738065, -7844.724696245754, 0.11, 1.022, 0.05, 192.0, 1.5, 56.0, 15.5, 120.0, 0.5, 72.0, 0.0, 0.0, 0.0, 1.695754459353247E9, 0.0, 2023-09-26 13:54:19.353
234.0, 73763.61772580359, 69052.47349172515, -19047.642534690207, -14417.076339373154, 33136.50585848163, 31968.314286269462, -187500.02235174447, 26378.545329397362, 45777.31141773599, 33846.64313157119, 4733.339516322555, -1471.0800613260344, 52224.56034714703, 35669.11496747911, 22770.906719077437, -7850.98318469324, 0.11, 1.022, 0.05, 192.0, 0.0, 0.0, 0.0, 0.0, 0.0, 0.0, 0.0, 0.0, 0.0, 1.695754459353257E9, 0.0, 2023-09-26 13:54:19.353
236.0, 73761.24844089133, 69045.29858175499, -19051.107055080778, -14408.381510780038, 33125.19587578725, 31980.85361490889, -187500.02235174447, 26383.46271317753, 45791.23655453164, 33853.72863456352, 4742.011993171214, -1461.6923286548054, 52233.679858884796, 35698.529863182295, 22775.04179180167, -7842.757742733686, 0.11, 1.022, 0.05, 192.0, 0.0, 0.0, 0.0, 0.0, 0.0, 0.0, 0.0, 0.0, 0.0, 1.695754459353267E9, 0.0, 2023-09-26 13:54:19.353
238.0, 73748.53029829626, 69045.16447128827, -19042.166357298658, -14410.393167781016, 33119.630291417874, 31982.731161443135, -187500.02235174447, 26379.484102664486, 45773.645731645316, 33844.92204724813, 4726.432827285866, -1474.343416016509, 52212.40099816334, 35663.66114183201, 22779.51214069273, -7849.083286414539, 0.11, 1.022, 0.05, 192.0, 0.0, 0.0, 0.0, 0.0, 0.0, 0.0, 0.0, 0.0, 0.0, 1.695754459353276E9, 0.0, 2023-09-26 13:54:19.353
240.0, 73766.83637700515, 69061.7494656741, -19025.89428733519, -14401.474821743348, 33132.929579368785, 32001.23840585213, -187500.02235174447, 26380.60168988725, 45792.26473477659, 33867.29614344789, 4740.514426292709, -1450.2035320047776, 52222.99572503516, 35702.41906671751, 22802.288568292686, -7833.347658318003, 0.11, 1.022, 0.05, 192.0, 0.0, 0.0, 0.0, 0.0, 0.0, 0.0, 0.0, 0.0, 0.0, 1.695754459413904E9, 0.0, 2023-09-26 13:54:19.413
242.0, 73766.52345258277, 69051.13238705783, -19028.889421092204, -14415.824641683655, 33109.23673024616, 32004.412353564785, -187500.02235174447, 26378.970012542013, 45791.750644654116, 33877.13091100823, 4729.897347676439, -1460.4406309653082, 52236.71969613072, 35696.83113060369, 22799.89693163597, -7844.12119914546, 0.108, 1.022, 0.052000000000000005, 192.0, 1.5, 48.0, 15.5, 120.0, 0.5, 80.0, 0.0, 0.0, 0.0, 1.695754459413927E9, 0.0, 2023-09-26 13:54:19.413
244.0, 73780.96267950091, 69048.76310214557, -19018.67467387613, -14414.237667827329, 33121.32902399648, 32003.875911697854, -187500.02235174447, 26384.04385853337, 45795.84101388944, 33878.76258835347, 4734.322993078589, -1461.960549588269, 52224.806216336045, 35712.05266857775, 22814.738489954292, -7834.778169963142, 0.108, 1.022, 0.052000000000000005, 192.0, 0.0, 0.0, 0.0, 0.0, 0.0, 0.0, 0.0, 0.0, 0.0, 1.695754459413937E9, 0.0, 2023-09-26 13:54:19.413
246.0, 73773.63130731956, 69034.05565429397, -19031.61633391575, -14428.319266834173, 33102.79942784303, 31988.296745812506, -187500.02235174447, 26385.116742267222, 45785.71567365118, 33859.5400881219, 4713.98290562426, -1481.3842155199309, 52214.43500690878, 35673.004171014334, 22807.787097428693, -7849.17269339236, 0.108, 1.022, 0.052000000000000005, 192.0, 0.0, 0.0, 0.0, 0.0, 0.0, 0.0, 0.0, 0.0, 0.0, 1.695754459413946E9, 0.0, 2023-09-26 13:54:19.413
248.0, 73784.09192372464, 69044.11393929887, -19020.52986866592, -14423.066606887176, 33104.69932612173, 31987.916766156766, -187500.02235174447, 26372.353896183242, 45789.40371148631, 33836.763660521945, 4713.4688155017875, -1475.8186311505594, 52219.553556389044, 35702.79904637326, 22815.207876587854, -7850.111466659483, 0.108, 1.022, 0.052000000000000005, 192.0, 0.0, 0.0, 0.0, 0.0, 0.0, 0.0, 0.0, 0.0, 0.0, 1.695754459413986E9, 0.0, 2023-09-26 13:54:19.413
250.0, 73786.93059527047, 69045.52209919954, -18998.289882932888, -14416.785766695235, 33112.924768081284, 32015.18589439224, -187500.02235174447, 26389.69884988056, 45789.87309811987, 33861.171765467145, 4714.362885279999, -1474.701043927794, 52214.300896442044, 35701.88262485059, 22832.396368073987, -7839.002649665195, 0.108, 1.022, 0.052000000000000005, 192.0, 0.0, 0.0, 0.0, 0.0, 0.0, 0.0, 0.0, 0.0, 0.0, 1.695754459413996E9, 0.0, 2023-09-26 13:54:19.413
252.0, 73793.39024941805, 69059.06725633946, -18992.120801463225, -14409.454394513894, 33121.239617018655, 32015.655281025804, -187500.02235174447, 26383.865044577724, 45799.48434823565, 33857.12609972073, 4727.863338931005, -1476.2656660396656, 52230.30474547204, 35687.68926712147, 22849.607211304574, -7826.999762892696, 0.106, 1.018, 0.048, 192.0, 1.5, 40.0, 15.5, 104.0, 0.5, 64.0, 0.0, 0.0, 0.0, 1.695754459414005E9, 0.0, 2023-09-26 13:54:19.414
254.0, 73798.55350238724, 69058.44140749471, -18995.071231731323, -14410.817850925667, 33127.98984384416, 32021.511438073092, -187500.02235174447, 26396.13615228369, 45806.59220297244, 33881.80242559939, 4728.086856375558, -1462.9887298332133, 52230.55061466106, 35714.801933145754, 22853.496414839796, -7823.825815180042, 0.106, 1.018, 0.048, 192.0, 0.0, 0.0, 0.0, 0.0, 0.0, 0.0, 0.0, 0.0, 0.0, 1.695754459414015E9, 0.0, 2023-09-26 13:54:19.414
