%OpenBCI Raw EXG Data
%Number of channels = 16
%Sample Rate = 125 Hz
%Board = OpenBCI_GUI$BoardCytonSerialDaisy
Sample Index, EXG Channel 0, EXG Channel 1, EXG Channel 2, EXG Channel 3, EXG Channel 4, EXG Channel 5, EXG Channel 6, EXG Channel 7, EXG Channel 8, EXG Channel 9, EXG Channel 10, EXG Channel 11, EXG Channel 12, EXG Channel 13, EXG Channel 14, EXG Channel 15, Accel Channel 0, Accel Channel 1, Accel Channel 2, Other, Other, Other, Other, Other, Other, Other, Analog Channel 0, Analog Channel 1, Analog Channel 2, Timestamp, Other, Timestamp (Formatted)
0.0, -159959.8568630048, 30779.581460902868, -49291.1844600659, -39593.07546533054, 2636.298851525647, -13699.339473168788, -187500.02235174447, -471.2418283512388, 0.0, 0.0, 0.0, 0.0, 0.0, 0.0, 0.0, 0.0, 0.0, 0.0, 0.0, 192.0, 0.0, 0.0, 0.0, 0.0, 0.0, 0.0, 0.0, 0.0, 0.0, 1.695756173685789E9, 0.0, 2023-09-26 14:22:53.685
224.0, -159968.88696776473, 30777.793321346442, -49291.676198443914, -39592.56137520807, 2632.431999734879, -13701.32877842531, -187500.02235174447, -472.0464911516299, 5619.049742108553, -33800.553834504346, -700.1683950624937, -20810.479916391363, -23916.232456711827, -21311.270750912518, -26694.643699484313, -41058.43348007602, 0.0, 0.0, 0.0, 192.0, 0.0, 0.0, 0.0, 0.0, 0.0, 0.0, 0.0, 0.0, 0.0, 1.695756173685873E9, 0.0, 2023-09-26 14:22:53.685
226.0, -159952.5478425679, 30788.499806940534, -49280.165050049436, -39579.70912214627, 2643.741982429264, -13690.778755042405, -187500.02235174447, -470.3477585730265, 5621.620192720913, -33786.15931107513, -686.4220722224799, -20796.39831738452, -23916.59008462311, -21303.246474653064, -26691.08977211592, -41055.818325974746, 0.006, 1.014, 0.032, 192.0, 0.0, 24.0, 15.5, 88.0, 0.5, 0.0, 0.0, 0.0, 0.0, 1.695756173685885E9, 0.0, 2023-09-26 14:22:53.685
228.0, -159985.9189970397, 30792.925452342686, -49265.50230568675, -39563.61586613845, 2655.387241290479, -13672.919711222616, -187500.02235174447, -446.5207989836692, 5632.34903005946, -33794.2282908235, -688.7913571347425, -20810.278750691265, -23911.605645609576, -21297.79264900597, -26679.8468446549, -41044.44128804699, 0.006, 1.014, 0.032, 192.0, 0.0, 0.0, 0.0, 0.0, 0.0, 0.0, 0.0, 0.0, 0.0, 1.695756173685897E9, 0.0, 2023-09-26 14:22:53.685
230.0, -159950.29031637794, 30795.317088999403, -49281.617913439026, -39580.223212268735, 2635.516540469711, -13686.733089295994, -187500.02235174447, -443.7044791823005, 5630.851463180955, -33779.20791854953, -677.1460982735275, -20792.73263129385, -23912.745584576798, -21295.35630886034, -26684.31719354596, -41044.485991535905, 0.006, 1.014, 0.032, 192.0, 0.0, 0.0, 0.0, 0.0, 0.0, 0.0, 0.0, 0.0, 0.0, 1.695756173685907E9, 0.0, 2023-09-26 14:22:53.685
232.0, -159978.29705218042, 30795.741772144054, -49269.36915747752, -39568.95793306326, 2645.865398152518, -13675.42310660161, -187500.02235174447, -439.6141099469793, 5635.858253938944, -33792.976593134, -684.7233396438766, -20807.64124484554, -23909.21400895286, -21301.83831475238, -26687.66995521426, -41044.2401223469, 0.006, 1.014, 0.032, 192.0, 0.0, 0.0, 0.0, 0.0, 0.0, 0.0, 0.0, 0.0, 0.0, 1.695756173685917E9, 0.0, 2023-09-26 14:22:53.685
234.0, -159946.6022785428, 30809.152818817238, -49275.80645988065, -39574.724683132736, 2641.260938794725, -13675.177237412601, -187500.02235174447, -442.1845605593396, 5631.20909109224, -33775.60928769223, -677.0343395512509, -20790.206884170402, -23910.77863106473, -21292.83056173689, -26685.099504601898, -41042.317872323736, 0.006, 1.014, 0.032, 192.0, 0.0, 0.0, 0.0, 0.0, 0.0, 0.0, 0.0, 0.0, 0.0, 1.695756173685926E9, 0.0, 2023-09-26 14:22:53.685
236.0, -159973.4690753781, 30800.122714057296, -49266.03874755368, -39569.38261620791, 2648.078220853594, -13668.158789653635, -187500.02235174447, -448.28658679563847, 5633.73483821569, -33790.31673554382, -686.6679414114883, -20804.1096692216, -23909.124601975036, -21301.234817652086, -26685.546539491006, -41039.74742171138, 0.008, 1.018, 0.032, 192.0, 0.0, 32.0, 15.5, 104.0, 0.5, 0.0, 0.0, 0.0, 0.0, 1.695756173685935E9, 0.0, 2023-09-26 14:22:53.685
238.0, -159943.09305466333, 30796.993469833553, -49280.2321052828, -39589.47683447324, 2639.673964938398, -13691.985749242993, -187500.02235174447, -452.04167986413006, 5644.597786020969, -33788.84152040977, -677.32491222917, -20792.97850048286, -23904.72130831734, -21295.49041932707, -26682.90903364528, -41042.69785197948, 0.008, 1.018, 0.032, 192.0, 0.0, 0.0, 0.0, 0.0, 0.0, 0.0, 0.0, 0.0, 0.0, 1.695756173685945E9, 0.0, 2023-09-26 14:22:53.685
0.0, -80076.08563614913, 15350.552243060141, -24607.750726670114, -19755.544633334237, 1338.869492872893, -6827.92148922938, -93750.01117587223, -176.2435050300962, 2814.933993212461, -16905.071366437838, -347.8601989579438, -10405.25113406791, -11949.957841629726, -10652.0143928545, -13343.186777017925, -20523.371758862944, 0.006, 1.018, 0.034, 192.0, 0.0, 16.0, 15.5, 104.0, 0.5, 16.0, 0.0, 0.0, 0.0, 1.695756173845535E9, 0.0, 2023-09-26 14:22:53.845
2.0, -160167.4598655057, 30704.636061744222, -49200.101101410524, -39497.34294382846, 2692.804061508663, -13643.907146919626, -187500.02235174447, -358.6113880409465, 5717.643286900912, -33647.98082685242, -615.388228343514, -20767.944546692914, -23856.173319360416, -21249.557584471415, -26598.64295704877, -41003.06820906022, 0.006, 1.018, 0.034, 192.0, 0.0, 0.0, 0.0, 0.0, 0.0, 0.0, 0.0, 0.0, 0.0, 1.695756173845558E9, 0.0, 2023-09-26 14:22:53.845
4.0, -160193.49964779612, 30711.40864031418, -49201.17398514438, -39499.220490362706, 2692.714654530842, -13641.917841663104, -187500.02235174447, -347.4578675577483, 5728.439179472826, -33662.24123981491, -612.2142806308605, -20784.14956142301, -23847.612601234032, -21234.827784875368, -26591.244529634063, -40994.39573221156, 0.006, 1.018, 0.034, 192.0, 0.0, 0.0, 0.0, 0.0, 0.0, 0.0, 0.0, 0.0, 0.0, 1.695756173845568E9, 0.0, 2023-09-26 14:22:53.845
6.0, -160167.63867946132, 30702.98203265453, -49213.109816683515, -39512.564481802525, 2684.0421776821827, -13649.360972566721, -187500.02235174447, -342.8087047110444, 5720.7501793802, -33640.247123270885, -613.9577166983744, -20765.82113096966, -23855.4804152823, -21243.58966870185, -26597.83829424838, -40998.35199098015, 0.006, 1.018, 0.034, 192.0, 0.0, 0.0, 0.0, 0.0, 0.0, 0.0, 0.0, 0.0, 0.0, 1.695756173845608E9, 0.0, 2023-09-26 14:22:53.845
8.0, -160168.26452830608, 30694.086038361318, -49223.63748832196, -39521.929862729296, 2669.3794333195015, -13655.954737181037, -187500.02235174447, -338.76303896463384, 5709.775472852644, -33656.78741416781, -632.4649611073686, -20774.225386884857, -23871.730133501307, -21245.62367744728, -26608.522428098015, -41003.29172650477, -0.006, 1.014, 0.028, 192.0, 127.5, 104.0, 15.5, 88.0, 0.0, 112.0, 0.0, 0.0, 0.0, 1.695756173845618E9, 0.0, 2023-09-26 14:22:53.845
10.0, -160156.8427868894, 30704.16667511066, -49206.69486602484, -39507.53533930008, 2686.0761864276155, -13647.729295221485, -187500.02235174447, -354.789239739089, 5706.713283862267, -33656.98857986791, -631.6155948180669, -20763.273032101755, -23871.596023034577, -21252.262145550507, -26612.344576399875, -41009.75138065236, -0.006, 1.014, 0.028, 192.0, 0.0, 0.0, 0.0, 0.0, 0.0, 0.0, 0.0, 0.0, 0.0, 1.695756173845628E9, 0.0, 2023-09-26 14:22:53.845
12.0, -160178.34516505542, 30708.234692601527, -49205.756092757714, -39503.53437704258, 2682.991645692783, -13647.394019054655, -187500.02235174447, -349.3130623475388, 5707.428539684837, -33664.722283449446, -625.7817895152318, -20780.282709632243, -23865.67281075392, -21250.16108157171, -26607.583654830894, -41001.74945613735, -0.006, 1.014, 0.028, 192.0, 0.0, 0.0, 0.0, 0.0, 0.0, 0.0, 0.0, 0.0, 0.0, 1.695756173845637E9, 0.0, 2023-09-26 14:22:53.845
14.0, -160158.51916772357, 30721.04224217442, -49203.47621482328, -39501.61212701942, 2681.5611340476435, -13651.529091778886, -187500.02235174447, -350.3412425924829, 5720.0349235576305, -33642.23642852741, -613.3542195980812, -20760.97080242286, -23862.38710431899, -21239.34283725534, -26604.230893162596, -40998.37434272461, -0.006, 1.014, 0.028, 192.0, 0.0, 0.0, 0.0, 0.0, 0.0, 0.0, 0.0, 0.0, 0.0, 1.695756173845646E9, 0.0, 2023-09-26 14:22:53.845
16.0, -160183.53076976904, 30718.538846795425, -49200.90576421092, -39496.761798472624, 2687.6408085394874, -13646.74581846545, -187500.02235174447, -350.2518356146617, 5719.632592157435, -33657.77089092385, -619.7021150233883, -20771.699639761406, -23861.40362756296, -21243.656723935215, -26605.571997829917, -40999.06724680272, -0.006, 1.014, 0.028, 192.0, 0.0, 0.0, 0.0, 0.0, 0.0, 0.0, 0.0, 0.0, 0.0, 1.695756173905799E9, 0.0, 2023-09-26 14:22:53.905
18.0, -160165.4035050158, 30725.847867232307, -49202.06805492259, -39493.25257459314, 2689.9877417072944, -13647.259908587923, -187500.02235174447, -349.0671931585304, 5722.22539451425, -33654.35107402218, -611.6331352750225, -20759.741456477816, -23862.118883385527, -21233.129052296765, -26602.778029773002, -40996.22857525689, -0.002, 1.012, 0.032, 192.0, 127.5, 120.0, 15.5, 80.0, 0.5, 0.0, 0.0, 0.0, 0.0, 1.695756173905822E9, 0.0, 2023-09-26 14:22:53.905
20.0, -160182.5696447575, 30719.522323551457, -49204.16911890139, -39497.946440928754, 2691.3735498635233, -13655.865330203216, -187500.02235174447, -358.1643531518404, 5715.005781055186, -33660.14017583611, -624.5747953146453, -20768.235119370835, -23863.504691541755, -21238.739340155047, -26606.667233308224, -40997.12264503511, -0.002, 1.012, 0.032, 192.0, 0.0, 0.0, 0.0, 0.0, 0.0, 0.0, 0.0, 0.0, 0.0, 1.695756173905833E9, 0.0, 2023-09-26 14:22:53.905
22.0, -160161.73781892512, 30725.75846025449, -49201.64337177794, -39496.068894394506, 2691.9770469638165, -13650.880891189683, -187500.02235174447, -348.9554344362539, 5720.280792746639, -33652.629989699126, -629.2463099058044, -20753.080636630137, -23871.26074686775, -21238.44876747713, -26615.31735841243, -41008.99142134088, -0.002, 1.012, 0.032, 192.0, 0.0, 0.0, 0.0, 0.0, 0.0, 0.0, 0.0, 0.0, 0.0, 1.695756173905842E9, 0.0, 2023-09-26 14:22:53.905
24.0, -160168.01865911708, 30718.516495050968, -49208.55006081463, -39502.88617645337, 2683.997474193272, -13657.340545337267, -187500.02235174447, -341.0205651546199, 5721.934821836331, -33656.38508276762, -631.1685599289608, -20765.73172399184, -23867.125674143517, -21237.95702909911, -26612.523390355516, -41001.12360729261, -0.002, 1.012, 0.032, 192.0, 0.0, 0.0, 0.0, 0.0, 0.0, 0.0, 0.0, 0.0, 0.0, 1.695756173905851E9, 0.0, 2023-09-26 14:22:53.905
26.0, -160155.0993508219, 30730.049995189907, -49201.37515084448, -39493.09611238195, 2690.7253492743193, -13644.778864953383, -187500.02235174447, -343.725126233712, 5717.419769456359, -33645.32096926224, -629.4027721169916, -20749.57141275065, -23872.847720724076, -21244.997828602533, -26617.843105535878, -41004.65518291655, -0.002, 1.012, 0.032, 192.0, 0.0, 0.0, 0.0, 0.0, 0.0, 0.0, 0.0, 0.0, 0.0, 1.69575617390586E9, 0.0, 2023-09-26 14:22:53.905
28.0, -160172.77958068607, 30730.005291700996, -49198.983514187756, -39487.28465882357, 2687.3949393504786, -13642.856614930228, -187500.02235174447, -342.7640012221338, 5721.219566013761, -33645.075100073234, -625.2453476483045, -20760.54611927821, -23869.62906952251, -21237.040607576444, -26612.74690780007, -40995.71448513443, 0.004, 1.014, 0.034, 192.0, 0.0, 16.0, 15.5, 88.0, 0.5, 8.0, 0.0, 0.0, 0.0, 1.695756173905902E9, 0.0, 2023-09-26 14:22:53.905
30.0, -160167.9516038837, 30730.07234693436, -49193.820261218585, -39483.976600644186, 2695.5309743322105, -13642.230766085479, -187500.02235174447, -331.18579759428474, 5719.029095057142, -33648.67373093054, -620.7973505016984, -20751.53836626272, -23866.589232276587, -21240.192203544644, -26609.908236254247, -40993.05462754424, 0.004, 1.014, 0.034, 192.0, 0.0, 0.0, 0.0, 0.0, 0.0, 0.0, 0.0, 0.0, 0.0, 1.695756173965219E9, 0.0, 2023-09-26 14:22:53.965
32.0, -160173.3607260419, 30724.08207942034, -49200.45872932181, -39490.7715309586, 2689.831279496107, -13649.159806866624, -187500.02235174447, -337.3101755750389, 5717.866804345465, -33647.35497800767, -625.8935482375084, -20755.002886653292, -23870.232566622803, -21234.53721219745, -26611.40580313275, -40992.85346184415, 0.004, 1.014, 0.034, 192.0, 0.0, 0.0, 0.0, 0.0, 0.0, 0.0, 0.0, 0.0, 0.0, 1.695756173965244E9, 0.0, 2023-09-26 14:22:53.965
34.0, -160170.6561649628, 30727.7030620221, -49207.11954916949, -39502.81912122001, 2694.972180720828, -13656.200606370045, -187500.02235174447, -335.5667395075249, 5721.46543520277, -33656.69800718999, -624.1724639144497, -20755.874604687047, -23867.30448809916, -21240.169851800187, -26607.181323430697, -40991.221784498906, 0.004, 1.014, 0.034, 192.0, 0.0, 0.0, 0.0, 0.0, 0.0, 0.0, 0.0, 0.0, 0.0, 1.695756173965254E9, 0.0, 2023-09-26 14:22:53.965
36.0, -160164.24121430411, 30711.98978567002, -49215.65791555142, -39514.48673182568, 2678.677759012909, -13662.816722728816, -187500.02235174447, -353.4928385606812, 5710.222507741751, -33645.23156228442, -643.7078885683881, -20757.528633776743, -23887.398706364478, -21256.531328741472, -26629.756585330557, -41014.489950476884, 0.004, 1.014, 0.034, 192.0, 0.0, 0.0, 0.0, 0.0, 0.0, 0.0, 0.0, 0.0, 0.0, 1.695756173965263E9, 0.0, 2023-09-26 14:22:53.965
38.0, -160169.9632608847, 30714.157904882184, -49206.82897649157, -39507.78120848909, 2684.265695126736, -13648.466902788508, -187500.02235174447, -338.51716977562546, 5713.239993243217, -33662.91179214857, -643.4173158904691, -20770.53734904973, -23882.59308130659, -21256.710142697113, -26622.156992215754, -41003.224671271404, 0.006, 1.018, 0.034, 192.0, 0.0, 24.0, 15.5, 104.0, 0.5, 8.0, 0.0, 0.0, 0.0, 1.695756173965272E9, 0.0, 2023-09-26 14:22:53.965
40.0, -160195.2207321192, 30713.912035693174, -49187.360607071, -39488.89398442435, 2700.3813028790123, -13632.552460736331, -187500.02235174447, -343.92629193380975, 5721.130159035941, -33660.743672936405, -634.3648593860697, -20776.371154352564, -23869.427903822412, -21240.080444822364, -26611.584617088392, -40990.662990887526, 0.006, 1.018, 0.034, 192.0, 0.0, 0.0, 0.0, 0.0, 0.0, 0.0, 0.0, 0.0, 0.0, 1.695756173965281E9, 0.0, 2023-09-26 14:22:53.965
42.0, -160181.74263021263, 30721.198704385606, -49202.85036597853, -39502.59560377546, 2682.946942203873, -13655.351240080743, -187500.02235174447, -327.5871667369803, 5719.342019479516, -33659.42492001354, -627.2123011603715, -20774.2030351404, -23868.75735148875, -21232.927886596666, -26606.242550163573, -40984.91859256251, 0.006, 1.018, 0.034, 192.0, 0.0, 0.0, 0.0, 0.0, 0.0, 0.0, 0.0, 0.0, 0.0, 1.69575617396529E9, 0.0, 2023-09-26 14:22:53.965
44.0, -160164.68824919322, 30710.31340483587, -49201.151633399924, -39500.51689154111, 2680.8011747361634, -13652.825492957294, -187500.02235174447, -337.2878238305836, 5703.919315805354, -33649.52309721984, -637.9634902433742, -20756.701619231895, -23885.34234587459, -21253.893822895745, -26624.101593983367, -41000.8777381036, 0.006, 1.018, 0.034, 192.0, 0.0, 0.0, 0.0, 0.0, 0.0, 0.0, 0.0, 0.0, 0.0, 1.695756173965299E9, 0.0, 2023-09-26 14:22:53.965
46.0, -160176.4005632878, 30709.7993147134, -49203.74443575674, -39503.64613576486, 2686.165593405437, -13654.948908680548, -187500.02235174447, -341.24408259917294, 5710.55778390858, -33664.588172982716, -639.1928361884161, -20766.24581411431, -23879.352078360567, -21244.439034991152, -26618.915989269735, -40996.809720612735, 0.006, 1.018, 0.034, 192.0, 0.0, 0.0, 0.0, 0.0, 0.0, 0.0, 0.0, 0.0, 0.0, 1.695756174025113E9, 0.0, 2023-09-26 14:22:54.025
48.0, -160164.33062128196, 30704.099619877295, -49211.32167712709, -39513.43619983628, 2679.750642746764, -13661.69913550605, -187500.02235174447, -349.2683588586282, 5708.36731295196, -33654.32872227773, -641.1821414449385, -20760.412008811476, -23882.749543517773, -21251.703351939126, -26628.37077717433, -41008.63379342959, 0.004, 1.014, 0.034, 192.0, 0.0, 16.0, 15.5, 88.0, 0.5, 8.0, 0.0, 0.0, 0.0, 1.695756174025154E9, 0.0, 2023-09-26 14:22:54.025
50.0, -160170.03031611806, 30702.26677683196, -49213.22157540579, -39519.828798750495, 2679.2142008798364, -13666.840036730771, -187500.02235174447, -346.6308530129019, 5708.8814030744325, -33672.344228308706, -648.0888304816283, -20778.651032287005, -23885.141180174494, -21256.91130839721, -26634.517506899538, -41016.05457258876, 0.004, 1.014, 0.034, 192.0, 0.0, 0.0, 0.0, 0.0, 0.0, 0.0, 0.0, 0.0, 0.0, 1.69575617402521E9, 0.0, 2023-09-26 14:22:54.025
52.0, -160136.72621687964, 30705.664241989165, -49217.6695725524, -39526.7801912761, 2667.7701077187194, -13673.344394367266, -187500.02235174447, -341.8252279550109, 5713.307048476583, -33659.84960315819, -639.7516297997987, -20768.59274728212, -23886.996374964285, -21263.393314289253, -26633.690492354694, -41013.14884580956, 0.004, 1.014, 0.034, 192.0, 0.0, 0.0, 0.0, 0.0, 0.0, 0.0, 0.0, 0.0, 0.0, 1.695756174025221E9, 0.0, 2023-09-26 14:22:54.025
54.0, -160136.16742326826, 30705.932462922632, -49211.1652149159, -39521.34871737346, 2668.619474008021, -13672.383269355687, -187500.02235174447, -343.3674983224271, 5699.963057036764, -33680.14498712361, -649.5640456156785, -20775.790008996726, -23900.80975303766, -21277.0725818959, -26643.59231514839, -41023.587110470195, 0.004, 1.014, 0.034, 192.0, 0.0, 0.0, 0.0, 0.0, 0.0, 0.0, 0.0, 0.0, 0.0, 1.69575617402523E9, 0.0, 2023-09-26 14:22:54.025
56.0, -160150.36078099738, 30721.377518341247, -49184.164307613886, -39492.4702635372, 2688.3113608731464, -13643.728332963985, -187500.02235174447, -336.9301959192987, 5716.32453397805, -33671.494862019405, -634.2531006637932, -20773.756000251295, -23876.91573821494, -21249.69169493815, -26622.22404744912, -40997.435569457484, 0.004, 1.014, 0.034, 192.0, 0.0, 0.0, 0.0, 0.0, 0.0, 0.0, 0.0, 0.0, 0.0, 1.69575617402524E9, 0.0, 2023-09-26 14:22:54.025
58.0, -160183.48606628014, 30720.192875885117, -49182.86790643548, -39491.71030422572, 2699.196660422881, -13641.694324218552, -187500.02235174447, -331.94575690576517, 5719.99022006872, -33675.965210910465, -629.3133651391704, -20787.4576196024, -23875.462874825345, -21238.851098877323, -26610.288215909986, -40985.94677280745, 0.004, 1.016, 0.028, 192.0, 0.0, 16.0, 15.5, 96.0, 0.0, 112.0, 0.0, 0.0, 0.0, 1.695756174025249E9, 0.0, 2023-09-26 14:22:54.025
60.0, -160144.72814139465, 30710.80514321389, -49210.807587004616, -39518.778266761095, 2676.8225642231187, -13659.642775016162, -187500.02235174447, -334.2703383291171, 5710.960115308776, -33660.52015549185, -628.1734261719497, -20771.811398483682, -23879.86616848304, -21245.221346047085, -26614.557399100948, -40991.69117113247, 0.004, 1.016, 0.028, 192.0, 0.0, 0.0, 0.0, 0.0, 0.0, 0.0, 0.0, 0.0, 0.0, 1.695756174085368E9, 0.0, 2023-09-26 14:22:54.085
62.0, -160168.93508063973, 30702.51264602097, -49207.29836312513, -39518.510045827636, 2678.8789247130067, -13660.13451339418, -187500.02235174447, -344.30627158954997, 5707.4732431737475, -33683.09541739171, -649.4075834044914, -20791.12330569307, -23889.432715109913, -21262.87922416678, -26626.60498936236, -41001.97297358191, 0.004, 1.016, 0.028, 192.0, 0.0, 0.0, 0.0, 0.0, 0.0, 0.0, 0.0, 0.0, 0.0, 1.695756174085391E9, 0.0, 2023-09-26 14:22:54.085
64.0, -160144.48227220564, 30703.965509410562, -49209.84646199304, -39520.52170282861, 2673.6486165104648, -13659.955699438537, -187500.02235174447, -340.2159023542288, 5698.711359347268, -33671.87484167515, -647.5076851257903, -20778.136942164536, -23896.49586635779, -21271.752866715535, -26634.025768521522, -41011.45011323096, 0.004, 1.016, 0.028, 192.0, 0.0, 0.0, 0.0, 0.0, 0.0, 0.0, 0.0, 0.0, 0.0, 1.695756174085401E9, 0.0, 2023-09-26 14:22:54.085
66.0, -160174.9029964093, 30699.048125630397, -49204.504395068216, -39515.89489172636, 2680.287084613691, -13654.747742980451, -187500.02235174447, -329.4200097823155, 5708.791996096611, -33688.839815716725, -645.5630833581786, -20806.30014017822, -23885.543511574688, -21254.653782207228, -26628.41548066324, -41001.30242124825, 0.004, 1.016, 0.028, 192.0, 0.0, 0.0, 0.0, 0.0, 0.0, 0.0, 0.0, 0.0, 0.0, 1.69575617408541E9, 0.0, 2023-09-26 14:22:54.085
68.0, -160143.25292626058, 30707.720602479054, -49207.87950848097, -39520.812275506534, 2669.6923577418756, -13667.599996042252, -187500.02235174447, -331.56577725002495, 5701.214754726262, -33666.689236961516, -632.7555337852876, -20788.172875424967, -23889.857398254564, -21261.87339566629, -26633.489326654595, -41007.65031667356, 0.004, 1.016, 0.026000000000000002, 192.0, 0.0, 16.0, 15.5, 96.0, 0.0, 104.0, 0.0, 0.0, 0.0, 1.695756174085419E9, 0.0, 2023-09-26 14:22:54.085
70.0, -160175.4170865318, 30707.117105378762, -49193.35087458502, -39504.56255728752, 2683.572791048621, -13654.412466813621, -187500.02235174447, -336.48316103019255, 5703.98637103872, -33673.37240855365, -636.3094611536815, -20796.35361389561, -23888.896273242986, -21262.745113700046, -26633.60108537687, -41006.68919166198, 0.004, 1.016, 0.026000000000000002, 192.0, 0.0, 0.0, 0.0, 0.0, 0.0, 0.0, 0.0, 0.0, 0.0, 1.695756174085428E9, 0.0, 2023-09-26 14:22:54.085
72.0, -160140.68247564824, 30706.6477187452, -49206.806624747114, -39518.979432461194, 2672.486325798789, -13667.018850686414, -187500.02235174447, -327.83303592598867, 5704.969847794753, -33662.37535028164, -630.0062692172849, -20778.561625309187, -23891.511427344256, -21253.089160095355, -26630.404785919764, -41006.9797643399, 0.004, 1.016, 0.026000000000000002, 192.0, 0.0, 0.0, 0.0, 0.0, 0.0, 0.0, 0.0, 0.0, 0.0, 1.695756174085466E9, 0.0, 2023-09-26 14:22:54.085
74.0, -160164.6435457043, 30701.395058798204, -49200.950467699826, -39510.66458352382, 2681.5611340476435, -13666.3259466083, -187500.02235174447, -328.95062314875406, 5706.825042584544, -33673.37240855365, -642.0762112231507, -20791.615044071084, -23889.05273545417, -21257.984192131065, -26630.673006853227, -41005.83982537268, 0.004, 1.016, 0.026000000000000002, 192.0, 0.0, 0.0, 0.0, 0.0, 0.0, 0.0, 0.0, 0.0, 0.0, 1.695756174085477E9, 0.0, 2023-09-26 14:22:54.085
76.0, -160159.48029273516, 30710.291053091416, -49192.65797050691, -39503.84730146496, 2690.412424851945, -13658.547539537853, -187500.02235174447, -325.2849370580837, 5703.785205338622, -33671.96424865297, -636.9576617428854, -20785.937700979437, -23888.49394184279, -21247.05418909242, -26626.94026552919, -41005.63865967258, 0.004, 1.016, 0.026000000000000002, 192.0, 0.0, 0.0, 0.0, 0.0, 0.0, 0.0, 0.0, 0.0, 0.0, 1.695756174145372E9, 0.0, 2023-09-26 14:22:54.145
78.0, -160185.9224064258, 30706.960643167575, -49186.08655763705, -39496.49357753916, 2694.9498289763724, -13653.65250750214, -187500.02235174447, -332.9292336617987, 5712.904717076388, -33667.158623595074, -634.3201558971591, -20794.856047017103, -23882.235453395304, -21249.87050889379, -26619.02774799201, -41000.40835147004, 0.004, 1.012, 0.03, 192.0, 0.0, 16.0, 15.5, 80.0, 0.0, 120.0, 0.0, 0.0, 0.0, 1.695756174145392E9, 0.0, 2023-09-26 14:22:54.145
80.0, -160173.33837429743, 30718.248274117504, -49189.70754023881, -39499.93574618528, 2689.9877417072944, -13660.335679094278, -187500.02235174447, -321.32867828949435, 5712.100054275997, -33660.65426595858, -627.8157982606648, -20787.59173006913, -23876.11107541455, -21245.288401280453, -26616.70316656866, -40996.42974095699, 0.004, 1.012, 0.03, 192.0, 0.0, 0.0, 0.0, 0.0, 0.0, 0.0, 0.0, 0.0, 0.0, 1.695756174145402E9, 0.0, 2023-09-26 14:22:54.145
82.0, -160179.93213891174, 30724.5514660539, -49187.91940068238, -39496.44887405025, 2681.807003236652, -13659.240443615967, -187500.02235174447, -324.3908672798714, 5718.403246212393, -33653.5911147107, -619.7021150233883, -20782.897863733517, -23879.776761505218, -21250.451654249628, -26619.16185845874, -40992.62994439959, 0.004, 1.012, 0.03, 192.0, 0.0, 0.0, 0.0, 0.0, 0.0, 0.0, 0.0, 0.0, 0.0, 1.695756174145411E9, 0.0, 2023-09-26 14:22:54.145
84.0, -160168.3986387728, 30725.713756765577, -49187.673531493376, -39495.44304554976, 2680.1529741469594, -13655.105370891735, -187500.02235174447, -321.93217538978763, 5720.169034024362, -33658.933181635526, -618.808045245176, -20768.12336064856, -23885.565863319145, -21245.44486349164, -26623.49809688307, -40993.43460719998, 0.004, 1.012, 0.03, 192.0, 0.0, 0.0, 0.0, 0.0, 0.0, 0.0, 0.0, 0.0, 0.0, 1.69575617414542E9, 0.0, 2023-09-26 14:22:54.145
86.0, -160191.33152858395, 30719.499971807003, -49172.92138015287, -39480.48972850916, 2689.160727162448, -13639.816777684306, -187500.02235174447, -334.4938557736702, 5714.156414765885, -33655.781585667326, -621.9372894689191, -20766.849311214606, -23886.370526119535, -21250.29519203844, -26623.296931182973, -40988.38311295308, 0.004, 1.012, 0.03, 192.0, 0.0, 0.0, 0.0, 0.0, 0.0, 0.0, 0.0, 0.0, 0.0, 1.695756174145429E9, 0.0, 2023-09-26 14:22:54.145
88.0, -160206.6648252803, 30731.74872776851, -49173.815449931084, -39481.182632587275, 2694.2122214093474, -13637.738065449961, -187500.02235174447, -312.79031190756706, 5737.4692842327695, -33660.318989791755, -607.0063241727739, -20778.226349142355, -23865.04696190917, -21231.363264484797, -26603.225064662107, -40965.29376093075, 0.004, 1.016, 0.028, 192.0, 0.0, 16.0, 15.5, 96.0, 0.0, 112.0, 0.0, 0.0, 0.0, 1.695756174145438E9, 0.0, 2023-09-26 14:22:54.145
90.0, -160186.10122038142, 30713.777925226444, -49198.02238917618, -39505.5236822991, 2673.1121746435374, -13665.945966952559, -187500.02235174447, -336.5949197524691, 5723.119464292463, -33641.23060002692, -614.7400277543102, -20760.456712300387, -23884.694145285386, -21250.004619360523, -26622.872248038322, -40986.7737873523, 0.004, 1.016, 0.028, 192.0, 0.0, 0.0, 0.0, 0.0, 0.0, 0.0, 0.0, 0.0, 0.0, 1.695756174205299E9, 0.0, 2023-09-26 14:22:54.205
92.0, -160197.94764494273, 30709.911073435676, -49199.27408686568, -39509.88227246789, 2676.1743636339147, -13671.980937955492, -187500.02235174447, -348.88837920288796, 5711.004818797686, -33671.60662074168, -633.5601965856787, -20772.81722698417, -23894.663023312452, -21264.06386662291, -26638.27259996803, -41003.381133482595, 0.004, 1.016, 0.028, 192.0, 0.0, 0.0, 0.0, 0.0, 0.0, 0.0, 0.0, 0.0, 0.0, 1.695756174205323E9, 0.0, 2023-09-26 14:22:54.205
94.0, -160193.49964779612, 30704.636061744222, -49197.4635955648, -39512.09509516896, 2677.9848549347944, -13674.37257461221, -187500.02235174447, -356.9573589512538, 5702.824080327044, -33666.130443350135, -636.5106268537792, -20772.124322906056, -23898.30635765867, -21273.20573010513, -26642.675893625725, -41015.29461327727, 0.004, 1.016, 0.028, 192.0, 0.0, 0.0, 0.0, 0.0, 0.0, 0.0, 0.0, 0.0, 0.0, 1.695756174205362E9, 0.0, 2023-09-26 14:22:54.205
96.0, -160233.03988373757, 30720.12582065175, -49180.252752334214, -39498.05819965103, 2694.8827737430065, -13663.375516340198, -187500.02235174447, -343.3898500668824, 5734.049467331108, -33686.448179060004, -626.6982110378995, -20793.693756305427, -23872.713610257342, -21252.843290906345, -26618.781878803, -40994.03810430028, 0.004, 1.016, 0.028, 192.0, 0.0, 0.0, 0.0, 0.0, 0.0, 0.0, 0.0, 0.0, 0.0, 1.695756174205372E9, 0.0, 2023-09-26 14:22:54.205
98.0, -160201.07688916646, 30714.761401982476, -49196.36836008649, -39514.307917870035, 2678.76716599073, -13676.361879868733, -187500.02235174447, -339.74651572066733, 5715.050484544097, -33660.56485898076, -627.4805220938351, -20772.169026394968, -23887.4881133423, -21260.73345669907, -26629.622474863827, -41009.68432541899, 0.006, 1.014, 0.028, 192.0, 0.0, 24.0, 15.5, 88.0, 0.0, 112.0, 0.0, 0.0, 0.0, 1.695756174205381E9, 0.0, 2023-09-26 14:22:54.205
100.0, -160229.39654939136, 30716.9518729391, -49189.59578151653, -39506.17188288831, 2688.9148579734397, -13662.056763417337, -187500.02235174447, -332.370440050416, 5719.051446801597, -33675.18289985453, -632.5767198296452, -20784.14956142301, -23883.062467940148, -21261.49341601055, -26627.074375995922, -41002.24119451537, 0.006, 1.014, 0.028, 192.0, 0.0, 0.0, 0.0, 0.0, 0.0, 0.0, 0.0, 0.0, 0.0, 1.695756174205391E9, 0.0, 2023-09-26 14:22:54.205
102.0, -160215.7619852736, 30717.17539038365, -49196.52482229767, -39514.5761388035, 2683.8186602376295, -13666.862388475227, -187500.02235174447, -335.0973528739635, 5720.772531124656, -33658.82142291325, -630.0956761951061, -20775.72295376336, -23883.53185457371, -21263.817997433904, -26625.59916086187, -40997.32381073521, 0.006, 1.014, 0.028, 192.0, 0.0, 0.0, 0.0, 0.0, 0.0, 0.0, 0.0, 0.0, 0.0, 1.6957561742054E9, 0.0, 2023-09-26 14:22:54.205
104.0, -160227.87663076838, 30706.759477467476, -49189.97576117227, -39509.23407187868, 2684.489212571289, -13663.241405873467, -187500.02235174447, -331.1187423609188, 5713.418807198859, -33678.44625454501, -639.6398710775222, -20790.16218068149, -23892.897235500484, -21271.417590548706, -26631.052986508967, -41004.699886405455, 0.006, 1.014, 0.028, 192.0, 0.0, 0.0, 0.0, 0.0, 0.0, 0.0, 0.0, 0.0, 0.0, 1.695756174205409E9, 0.0, 2023-09-26 14:22:54.205
106.0, -160215.15848817333, 30714.806105471387, -49181.4597465348, -39503.400266575845, 2687.707863772853, -13656.155902881135, -187500.02235174447, -322.06628585651947, 5723.879423603943, -33668.209155584475, -629.0227924612514, -20779.075715431656, -23881.408438850456, -21252.709180439615, -26619.295968925475, -40991.06532228772, 0.006, 1.014, 0.028, 192.0, 0.0, 0.0, 0.0, 0.0, 0.0, 0.0, 0.0, 0.0, 0.0, 1.695756174265635E9, 0.0, 2023-09-26 14:22:54.265
108.0, -160240.88534604138, 30711.18512286963, -49182.57733375757, -39507.37887708889, 2686.1208899165263, -13660.492141305464, -187500.02235174447, -321.39573352286027, 5728.238013772728, -33683.29658309181, -628.9110337389748, -20793.60434932761, -23877.899214970974, -21257.49245375305, -26616.12202121282, -40987.8243193417, 0.01, 1.016, 0.026000000000000002, 192.0, 0.0, 40.0, 15.5, 96.0, 0.0, 104.0, 0.0, 0.0, 0.0, 1.695756174265657E9, 0.0, 2023-09-26 14:22:54.265
110.0, -160200.87572346636, 30699.495160519502, -49205.39846484643, -39531.25054016716, 2668.7982879636634, -13678.66410954763, -187500.02235174447, -332.0575156280417, 5713.1058827764855, -33666.06338811677, -632.0402779627178, -20775.87941597455, -23895.847665768586, -21273.429247549684, -26634.763376088547, -41005.43749397248, 0.01, 1.016, 0.026000000000000002, 192.0, 0.0, 0.0, 0.0, 0.0, 0.0, 0.0, 0.0, 0.0, 0.0, 1.695756174265668E9, 0.0, 2023-09-26 14:22:54.265
112.0, -160224.14388944436, 30690.487407504013, -49201.576316544575, -39526.95900523174, 2674.229761866303, -13674.797257756862, -187500.02235174447, -349.46952455872594, 5694.620990111946, -33689.08568490573, -651.1733712164606, -20799.54991335272, -23903.179037949925, -21286.996756434055, -26645.51456517155, -41013.59588069867, 0.01, 1.016, 0.026000000000000002, 192.0, 0.0, 0.0, 0.0, 0.0, 0.0, 0.0, 0.0, 0.0, 0.0, 1.695756174265677E9, 0.0, 2023-09-26 14:22:54.265
114.0, -160199.08758390995, 30692.186140082616, -49202.29157236715, -39526.95900523174, 2677.224895623314, -13674.439629845576, -187500.02235174447, -348.3966408248712, 5697.102033746485, -33684.347115081204, -648.8040863041981, -20790.45275335941, -23899.602758837078, -21273.0716196384, -26638.339655201395, -41006.46567421743, 0.01, 1.016, 0.026000000000000002, 192.0, 0.0, 0.0, 0.0, 0.0, 0.0, 0.0, 0.0, 0.0, 0.0, 1.695756174265686E9, 0.0, 2023-09-26 14:22:54.265
116.0, -160225.39558713385, 30686.06176210186, -49195.11666239699, -39517.99595570516, 2681.6952445143756, -13673.94789146756, -187500.02235174447, -345.3121000900388, 5702.242934971206, -33692.19257738502, -655.3754991740584, -20804.44494538843, -23896.205293679872, -21275.239738850563, -26631.07533825342, -41000.49775844786, 0.01, 1.016, 0.026000000000000002, 192.0, 0.0, 0.0, 0.0, 0.0, 0.0, 0.0, 0.0, 0.0, 0.0, 1.695756174265726E9, 0.0, 2023-09-26 14:22:54.265
118.0, -160211.02341544908, 30699.495160519502, -49187.315903582086, -39508.69763001175, 2684.6680265269315, -13668.091734420268, -187500.02235174447, -336.3937540523713, 5706.020379784153, -33676.591059755214, -640.9586240003854, -20788.82107601417, -23891.86905525554, -21270.21059634812, -26628.817812063437, -41002.01767707082, 0.006, 1.016, 0.032, 192.0, 0.0, 24.0, 15.5, 96.0, 0.5, 0.0, 0.0, 0.0, 0.0, 1.695756174265736E9, 0.0, 2023-09-26 14:22:54.265
120.0, -160223.5180405996, 30691.180311582128, -49192.613267017994, -39513.95028995875, 2671.2122763648363, -13677.390060113677, -187500.02235174447, -347.8825507023991, 5701.617086126457, -33684.347115081204, -639.9751472443518, -20800.73455580885, -23891.086744199605, -21277.229044107087, -26629.42130916373, -41002.71058114894, 0.006, 1.016, 0.032, 192.0, 0.0, 0.0, 0.0, 0.0, 0.0, 0.0, 0.0, 0.0, 0.0, 1.695756174325918E9, 0.0, 2023-09-26 14:22:54.325
122.0, -160224.47916561118, 30696.36591629576, -49177.01174938819, -39501.522720041605, 2685.4279858384116, -13665.767152996918, -187500.02235174447, -343.8368849559885, 5715.095188033008, -33684.03419065884, -635.7059640533881, -20789.424573114466, -23886.61639530854, -21268.73538121407, -26627.74492832958, -40999.71544739192, 0.006, 1.016, 0.032, 192.0, 0.0, 0.0, 0.0, 0.0, 0.0, 0.0, 0.0, 0.0, 0.0, 1.695756174325943E9, 0.0, 2023-09-26 14:22:54.325
124.0, -160224.18859293326, 30688.051067358385, -49193.2614676072, -39515.358449859435, 2666.6301687514983, -13677.591225813774, -187500.02235174447, -343.3451465779718, 5704.343998950005, -33679.8991179346, -639.3492983996032, -20793.53729409424, -23879.754409760764, -21275.15033187274, -26630.06950975293, -41001.12360729261, 0.006, 1.016, 0.032, 192.0, 0.0, 0.0, 0.0, 0.0, 0.0, 0.0, 0.0, 0.0, 0.0, 1.695756174325953E9, 0.0, 2023-09-26 14:22:54.325
126.0, -160234.0233604936, 30694.041334872407, -49183.58316225805, -39501.70153399724, 2683.3045701151577, -13661.69913550605, -187500.02235174447, -336.9748994082093, 5692.810498811066, -33679.541490023315, -639.7069263108881, -20791.68209930445, -23868.377371833012, -21270.00943064802, -26634.495155155084, -40998.21788051342, 0.006, 1.016, 0.032, 192.0, 0.0, 0.0, 0.0, 0.0, 0.0, 0.0, 0.0, 0.0, 0.0, 1.695756174325967E9, 0.0, 2023-09-26 14:22:54.325
128.0, -160260.21960499522, 30680.11619807675, -49190.84747920603, -39503.78024623159, 2678.409538079445, -13666.79533324186, -187500.02235174447, -342.4063733108489, 5697.102033746485, -33681.7990162133, -638.1199524545614, -20806.30014017822, -23842.38229303149, -21256.508976997018, -26622.671082338227, -40991.15472926554, 0.004, 1.022, 0.032, 192.0, 0.0, 16.0, 15.5, 120.0, 0.5, 0.0, 0.0, 0.0, 0.0, 1.69575617432598E9, 0.0, 2023-09-26 14:22:54.325
130.0, -160238.9630960182, 30676.249346285982, -49199.341142099045, -39509.39053408987, 2671.9945874207724, -13665.141304152168, -187500.02235174447, -335.2314633406953, 5678.617141081946, -33670.98077189693, -644.6466618355109, -20790.475105103866, -23853.066426881127, -21262.92392765569, -26634.74102434409, -41004.76694163882, 0.004, 1.022, 0.032, 192.0, 0.0, 0.0, 0.0, 0.0, 0.0, 0.0, 0.0, 0.0, 0.0, 1.695756174326013E9, 0.0, 2023-09-26 14:22:54.326
132.0, -160255.34692470395, 30665.095825802786, -49204.25852587921, -39510.30695561254, 2675.0567764111493, -13656.17825462559, -187500.02235174447, -336.1478848633629, 5681.4111091388595, -33665.81751892776, -644.8701792800641, -20793.96197723889, -23838.917772640918, -21249.803453660425, -26621.64290209328, -40985.25386872934, 0.004, 1.022, 0.032, 192.0, 0.0, 0.0, 0.0, 0.0, 0.0, 0.0, 0.0, 0.0, 0.0, 1.695756174326024E9, 0.0, 2023-09-26 14:22:54.326
134.0, -160243.25463095363, 30651.505965173958, -49219.01067721971, -39520.52170282861, 2670.3629100755347, -13654.926556936092, -187500.02235174447, -333.33156506199424, 5662.814457752044, -33668.142100351106, -658.03535676424, -20787.770544024774, -23859.95076417336, -21264.712067212113, -26627.901390540766, -40996.42974095699, 0.004, 1.022, 0.032, 192.0, 0.0, 0.0, 0.0, 0.0, 0.0, 0.0, 0.0, 0.0, 0.0, 1.695756174326033E9, 0.0, 2023-09-26 14:22:54.326
136.0, -160261.09132302896, 30638.944284790075, -49218.206014419324, -39514.10675216994, 2682.9245904594172, -13639.503853261931, -187500.02235174447, -328.3024225595501, 5662.255664140662, -33668.142100351106, -664.5844178896449, -20800.98042499786, -23844.57276398811, -21252.753883928526, -26604.432058862694, -40981.78934833877, 0.004, 1.022, 0.032, 192.0, 0.0, 0.0, 0.0, 0.0, 0.0, 0.0, 0.0, 0.0, 0.0, 1.695756174386255E9, 0.0, 2023-09-26 14:22:54.386
138.0, -160246.2274129662, 30619.8782467697, -49249.185532234376, -39539.58774084899, 2665.8702094400182, -13659.106333149235, -187500.02235174447, -319.4287800107932, 5642.07203889752, -33683.14012088062, -676.2296767508599, -20806.34484366713, -23848.685484967886, -21257.850081664335, -26601.347518127863, -40994.55219442275, 0.004, 1.02, 0.038, 192.0, 0.0, 16.0, 15.5, 112.0, 0.5, 24.0, 0.0, 0.0, 0.0, 1.695756174386311E9, 0.0, 2023-09-26 14:22:54.386
140.0, -160247.9708490337, 30608.478857097492, -49249.23023572329, -39532.63634832339, 2672.508677543244, -13651.193815612056, -187500.02235174447, -324.9496608912541, 5639.680402240801, -33679.876766190144, -688.7913571347425, -20816.134907738557, -23843.030493620696, -21272.088142882367, -26598.64295704877, -41004.92340385001, 0.004, 1.02, 0.038, 192.0, 0.0, 0.0, 0.0, 0.0, 0.0, 0.0, 0.0, 0.0, 0.0, 1.695756174386321E9, 0.0, 2023-09-26 14:22:54.386
142.0, -160233.3751599044, 30606.042516951864, -49261.903674829446, -39534.46919136873, 2658.7623547032304, -13660.022754671903, -187500.02235174447, -318.86998639941055, 5633.757189960145, -33686.82815871575, -691.3171042581921, -20822.12517525258, -23847.031455878194, -21271.10466612633, -26592.8762069793, -41011.1818922975, 0.004, 1.02, 0.038, 192.0, 0.0, 0.0, 0.0, 0.0, 0.0, 0.0, 0.0, 0.0, 0.0, 1.69575617438633E9, 0.0, 2023-09-26 14:22:54.386
144.0, -160225.03795922257, 30610.06583095382, -49249.00671827874, -39515.80548474854, 2657.197732591359, -13644.264774830912, -187500.02235174447, -319.24996605515076, 5625.8223206785115, -33668.566783495764, -689.8418891241419, -20812.26805594779, -23845.66799946642, -21266.276689323986, -26593.814980246425, -41012.321831264715, 0.004, 1.02, 0.038, 192.0, 0.0, 0.0, 0.0, 0.0, 0.0, 0.0, 0.0, 0.0, 0.0, 1.69575617438634E9, 0.0, 2023-09-26 14:22:54.386
146.0, -160253.55878514753, 30628.930703274098, -49234.634546593974, -39498.81815896251, 2667.948921674362, -13632.016018869403, -187500.02235174447, -311.7621316626229, 5659.193475150285, -33684.25770810339, -670.3288162146588, -20822.952189797426, -23826.087871323572, -21243.902593124225, -26573.988982914565, -40993.0769792887, 0.004, 1.02, 0.038, 192.0, 0.0, 0.0, 0.0, 0.0, 0.0, 0.0, 0.0, 0.0, 0.0, 1.695756174386348E9, 0.0, 2023-09-26 14:22:54.386
148.0, -160217.05838645203, 30634.11630798773, -49250.90661655743, -39513.83853123648, 2650.134581343482, -13647.50577777693, -187500.02235174447, -313.81849215251117, 5660.556931562059, -33660.05076885829, -661.4775254103572, -20802.83561978765, -23828.65832193593, -21245.802491402923, -26570.92679392419, -40995.04393280076, 0.006, 1.018, 0.032, 192.0, 0.0, 24.0, 15.5, 104.0, 0.5, 0.0, 0.0, 0.0, 0.0, 1.695756174386357E9, 0.0, 2023-09-26 14:22:54.386
150.0, -160233.3751599044, 30636.731462089, -49239.21665420731, -39505.702496254744, 2660.6399012374764, -13638.900356161637, -187500.02235174447, -314.8466723974553, 5650.811570979545, -33673.32770506474, -670.5970371481225, -20806.903637278516, -23839.744787185766, -21253.938526384656, -26578.369924827806, -41003.69405790497, 0.006, 1.018, 0.032, 192.0, 0.0, 0.0, 0.0, 0.0, 0.0, 0.0, 0.0, 0.0, 0.0, 1.695756174445662E9, 0.0, 2023-09-26 14:22:54.445
152.0, -160222.2663429101, 30642.72172960302, -49237.54027337316, -39504.13787414287, 2667.7924594631745, -13636.486367760464, -187500.02235174447, -311.22568979569553, 5665.653129297868, -33661.90596364808, -662.7068713553991, -20797.761773796294, -23833.531002227188, -21251.837462405856, -26576.090046893365, -41003.939927093976, 0.006, 1.018, 0.032, 192.0, 0.0, 0.0, 0.0, 0.0, 0.0, 0.0, 0.0, 0.0, 0.0, 1.695756174445687E9, 0.0, 2023-09-26 14:22:54.445
154.0, -160246.7191513442, 30648.35436920576, -49238.43434315138, -39505.18840613227, 2674.743851988775, -13633.22301306999, -187500.02235174447, -303.469634469704, 5672.783335779111, -33674.579402754236, -662.6621678664885, -20814.011492015303, -23829.261819036226, -21234.783081386457, -26570.055075890432, -40991.355894965636, 0.006, 1.018, 0.032, 192.0, 0.0, 0.0, 0.0, 0.0, 0.0, 0.0, 0.0, 0.0, 0.0, 1.695756174445697E9, 0.0, 2023-09-26 14:22:54.445
156.0, -160228.50247961315, 30657.49623268798, -49243.307023442634, -39512.09509516896, 2670.541724031177, -13640.040295128858, -187500.02235174447, -307.18002404928495, 5677.767774792645, -33662.10712934818, -662.0139672772846, -20798.387622641043, -23838.113109840528, -21247.322410025885, -26577.0735236494, -40996.250927001354, 0.006, 1.018, 0.032, 192.0, 0.0, 0.0, 0.0, 0.0, 0.0, 0.0, 0.0, 0.0, 0.0, 1.695756174445706E9, 0.0, 2023-09-26 14:22:54.445
158.0, -160243.2769826981, 30659.284372244405, -49240.98244201928, -39513.2797376251, 2670.809944964641, -13648.712771977518, -187500.02235174447, -320.16638757781834, 5670.414050866849, -33682.46956854696, -671.066423781684, -20806.74717506733, -23848.037284378683, -21255.704314196624, -26588.15998889923, -41007.13622655108, 0.004, 1.008, 0.034, 192.0, 0.0, 16.0, 15.5, 64.0, 0.5, 8.0, 0.0, 0.0, 0.0, 1.695756174445715E9, 0.0, 2023-09-26 14:22:54.445
160.0, -160217.28190389657, 30669.186195038106, -49242.480008897786, -39513.905586469846, 2670.452317053356, -13652.624327257196, -187500.02235174447, -323.27328005710604, 5679.690024815801, -33669.90788816308, -663.1092027555947, -20793.64905281652, -23846.495014011267, -21249.11054958231, -26590.41751508922, -41009.796084141264, 0.004, 1.008, 0.034, 192.0, 0.0, 0.0, 0.0, 0.0, 0.0, 0.0, 0.0, 0.0, 0.0, 1.695756174445757E9, 0.0, 2023-09-26 14:22:54.445
162.0, -160252.9776397917, 30672.40484623967, -49222.341087143555, -39495.24187984966, 2683.3045701151577, -13634.675876459585, -187500.02235174447, -316.07601834249715, 5686.082623730019, -33670.06435037427, -663.5338859002454, -20803.4614686324, -23847.277325067203, -21250.853985649825, -26583.60023303035, -40999.38017122509, 0.004, 1.008, 0.034, 192.0, 0.0, 0.0, 0.0, 0.0, 0.0, 0.0, 0.0, 0.0, 0.0, 1.695756174445767E9, 0.0, 2023-09-26 14:22:54.445
164.0, -160242.5170233866, 30674.237689285004, -49218.18366267487, -39494.526624027094, 2679.10244215756, -13637.022809627391, -187500.02235174447, -321.64160271186864, 5695.0903767455075, -33654.23931529991, -648.289996181726, -20789.804552770205, -23839.230697063293, -21236.280648264965, -26572.91609918071, -40990.19360425396, 0.004, 1.008, 0.034, 192.0, 0.0, 0.0, 0.0, 0.0, 0.0, 0.0, 0.0, 0.0, 0.0, 1.695756174445776E9, 0.0, 2023-09-26 14:22:54.445
166.0, -160260.1301980174, 30672.136625306208, -49217.848386508034, -39499.19813861825, 2670.899351942462, -13640.867309673706, -187500.02235174447, -317.7971026655558, 5703.449929171793, -33656.38508276762, -649.6534525934998, -20796.68889006244, -23843.72339769881, -21244.0143518465, -26576.917061438213, -40994.708656633935, 0.004, 1.008, 0.034, 192.0, 0.0, 0.0, 0.0, 0.0, 0.0, 0.0, 0.0, 0.0, 0.0, 1.695756174505361E9, 0.0, 2023-09-26 14:22:54.505
168.0, -160224.568572589, 30674.125930562728, -49230.54417735865, -39514.84435973696, 2666.38429956249, -13654.501873791442, -187500.02235174447, -309.61636419491344, 5693.481051144726, -33652.13825132111, -653.0285660062511, -20781.601462555107, -23850.697141968863, -21261.761636944015, -26582.504997552038, -41001.48123520389, 0.004, 1.01, 0.034, 192.0, 0.0, 16.0, 15.5, 72.0, 0.5, 8.0, 0.0, 0.0, 0.0, 1.695756174505384E9, 0.0, 2023-09-26 14:22:54.505
170.0, -160229.77652904709, 30666.995724081484, -49232.958165759825, -39511.804522491046, 2667.2113141073364, -13655.664164503118, -187500.02235174447, -317.59593696545807, 5689.636551098412, -33665.72811194994, -665.0761562676616, -20791.056250459704, -23855.14513911547, -21262.745113700046, -26591.043363933964, -41004.074037560706, 0.004, 1.01, 0.034, 192.0, 0.0, 0.0, 0.0, 0.0, 0.0, 0.0, 0.0, 0.0, 0.0, 1.695756174505395E9, 0.0, 2023-09-26 14:22:54.505
172.0, -160215.69493004025, 30682.083151588817, -49230.119494214, -39505.635441021375, 2671.2122763648363, -13647.818702199305, -187500.02235174447, -321.2616230561284, 5688.518963875647, -33664.007027626874, -661.3657666880807, -20780.841503243628, -23858.989639161784, -21257.35834328632, -26595.536064569482, -41004.8787003611, 0.004, 1.01, 0.034, 192.0, 0.0, 0.0, 0.0, 0.0, 0.0, 0.0, 0.0, 0.0, 0.0, 1.695756174505404E9, 0.0, 2023-09-26 14:22:54.505
174.0, -160231.09528196996, 30666.436930470103, -49227.61609883501, -39505.16605438782, 2672.8886571989847, -13643.08013237478, -187500.02235174447, -327.3636492924272, 5681.254646927673, -33665.23637357192, -662.773926588765, -20793.58199758315, -23855.61452574903, -21252.753883928526, -26593.993794202066, -41001.68240090399, 0.004, 1.01, 0.034, 192.0, 0.0, 0.0, 0.0, 0.0, 0.0, 0.0, 0.0, 0.0, 0.0, 1.695756174505413E9, 0.0, 2023-09-26 14:22:54.505
176.0, -160226.60258133445, 30669.45441597157, -49221.916403998905, -39504.22728112069, 2682.1646311479367, -13643.840091686261, -187500.02235174447, -321.4627887562262, 5686.306141174572, -33665.504594505386, -656.1578102299941, -20786.764715524285, -23854.72045597082, -21254.363209529307, -26588.808189488434, -41001.50358694835, 0.004, 1.01, 0.034, 192.0, 0.0, 0.0, 0.0, 0.0, 0.0, 0.0, 0.0, 0.0, 0.0, 1.695756174505421E9, 0.0, 2023-09-26 14:22:54.505
178.0, -160245.579212377, 30671.957811350563, -49211.32167712709, -39500.136911885376, 2690.6135905520428, -13649.003344655437, -187500.02235174447, -317.372419520905, 5702.6005628824905, -33656.00510311188, -646.7477258143099, -20790.340994637132, -23845.466833766324, -21249.088197837853, -26579.755732984035, -40998.68726714698, -0.002, 1.016, 0.036000000000000004, 192.0, 127.5, 120.0, 15.5, 96.0, 0.5, 16.0, 0.0, 0.0, 0.0, 1.69575617450543E9, 0.0, 2023-09-26 14:22:54.505
180.0, -160220.3664446314, 30671.778997394922, -49227.59374709055, -39521.236958651185, 2676.800212478663, -13672.56208331133, -187500.02235174447, -316.36659102041614, 5694.9115627898655, -33658.26262930186, -645.2725106802596, -20783.50136083381, -23855.18984260438, -21262.02985787748, -26586.438904576175, -41014.69111617698, -0.002, 1.016, 0.036000000000000004, 192.0, 0.0, 0.0, 0.0, 0.0, 0.0, 0.0, 0.0, 0.0, 0.0, 1.695756174565715E9, 0.0, 2023-09-26 14:22:54.565
182.0, -160208.31885436998, 30664.715846147043, -49229.76186630272, -39523.36037437444, 2670.586427520088, -13675.870141490715, -187500.02235174447, -332.5716057505138, 5684.830926040522, -33656.608600212174, -655.3978509185137, -20780.483875332342, -23868.422075321923, -21270.948203915144, -26597.704183781647, -41025.330546537705, -0.002, 1.016, 0.036000000000000004, 192.0, 0.0, 0.0, 0.0, 0.0, 0.0, 0.0, 0.0, 0.0, 0.0, 1.695756174565773E9, 0.0, 2023-09-26 14:22:54.565
184.0, -160203.20030488973, 30670.25907877196, -49221.983459232266, -39517.034830693585, 2673.156878132448, -13666.549464052852, -187500.02235174447, -325.77667543610045, 5692.586981366513, -33671.27134457485, -654.4367259069355, -20779.902729976504, -23869.897290455974, -21265.40497129023, -26593.144427912765, -41017.68624993399, -0.002, 1.016, 0.036000000000000004, 192.0, 0.0, 0.0, 0.0, 0.0, 0.0, 0.0, 0.0, 0.0, 0.0, 1.695756174565784E9, 0.0, 2023-09-26 14:22:54.565
186.0, -160209.03411019256, 30677.92572712013, -49206.73956951375, -39498.996972918154, 2678.4989450572666, -13646.522301020897, -187500.02235174447, -335.6114429964355, 5695.805632568077, -33662.77768168184, -642.6126530900781, -20777.511093319787, -23861.873014196517, -21259.705276454126, -26589.992831944568, -41008.0302963293, -0.002, 1.016, 0.036000000000000004, 192.0, 0.0, 0.0, 0.0, 0.0, 0.0, 0.0, 0.0, 0.0, 0.0, 1.695756174565793E9, 0.0, 2023-09-26 14:22:54.565
188.0, -160230.38002614738, 30685.793541168397, -49200.57048804408, -39490.72682746969, 2692.3123231306463, -13633.22301306999, -187500.02235174447, -322.1109893454301, 5717.442121200815, -33669.32674280724, -627.100542438095, -20786.429439357453, -23847.836118678584, -21237.35353199882, -26573.11726488081, -40985.99147629637, 0.002, 1.012, 0.034, 192.0, 0.0, 8.0, 15.5, 80.0, 0.5, 8.0, 0.0, 0.0, 0.0, 1.695756174565802E9, 0.0, 2023-09-26 14:22:54.565
190.0, -160209.97288345968, 30683.02192485594, -49216.194357418346, -39507.71415325572, 2678.5436485461773, -13647.841053943761, -187500.02235174447, -336.50551277464785, 5701.84060357101, -33650.48422223142, -631.7720570292541, -20776.080581674647, -23862.655325252454, -21255.63725896326, -26589.098762166355, -41003.1799677825, 0.002, 1.012, 0.034, 192.0, 0.0, 0.0, 0.0, 0.0, 0.0, 0.0, 0.0, 0.0, 0.0, 1.695756174565811E9, 0.0, 2023-09-26 14:22:54.565
192.0, -160213.4150521058, 30687.827549913833, -49211.74636027174, -39506.50715905514, 2683.036349181694, -13654.79244646936, -187500.02235174447, -334.6056144959467, 5710.7589496086775, -33660.47545200294, -631.83911226262, -20782.003793955304, -23862.096531641073, -21252.128035083777, -26590.484570322584, -41003.671706160516, 0.002, 1.012, 0.034, 192.0, 0.0, 0.0, 0.0, 0.0, 0.0, 0.0, 0.0, 0.0, 0.0, 1.69575617456582E9, 0.0, 2023-09-26 14:22:54.565
194.0, -160203.04384267854, 30686.464093502058, -49203.7667875012, -39499.89104269636, 2689.2948376291797, -13651.238519100967, -187500.02235174447, -339.3665360649271, 5709.328437963538, -33641.87880061613, -627.2793563937374, -20768.369229837564, -23869.24908986677, -21253.223270562088, -26589.724611011105, -41010.15371205255, 0.002, 1.012, 0.034, 192.0, 0.0, 0.0, 0.0, 0.0, 0.0, 0.0, 0.0, 0.0, 0.0, 1.695756174565829E9, 0.0, 2023-09-26 14:22:54.565
196.0, -160234.58215410498, 30681.613764955255, -49198.22355487628, -39491.2185658477, 2698.2131836668473, -13644.84592018675, -187500.02235174447, -329.0847336154859, 5720.236089257728, -33660.69896944749, -629.291013394715, -20783.72487827836, -23858.520252528222, -21246.9647821146, -26580.31452659542, -40998.24023225787, 0.002, 1.012, 0.034, 192.0, 0.0, 0.0, 0.0, 0.0, 0.0, 0.0, 0.0, 0.0, 0.0, 1.695756174626056E9, 0.0, 2023-09-26 14:22:54.626
198.0, -160228.70364531325, 30687.626384213734, -49202.04570317813, -39493.29727808205, 2697.5649830776433, -13646.254080087434, -187500.02235174447, -321.61925096741334, 5711.27303973115, -33646.50561171837, -625.714734281866, -20773.19720663991, -23853.424054792413, -21233.374921485774, -26576.78295097148, -40992.16055776603, -0.002, 1.008, 0.032, 192.0, 127.5, 120.0, 15.5, 64.0, 0.5, 0.0, 0.0, 0.0, 0.0, 1.695756174626078E9, 0.0, 2023-09-26 14:22:54.626
200.0, -160224.27799991108, 30681.5914132108, -49219.189491175355, -39511.33513585748, 2679.974160191317, -13660.581548283286, -187500.02235174447, -313.5279194745922, 5710.51308041967, -33653.92639087753, -633.3143273966704, -20775.767657252272, -23860.48720604029, -21244.550793713428, -26585.231910375587, -40999.42487471401, -0.002, 1.008, 0.032, 192.0, 0.0, 0.0, 0.0, 0.0, 0.0, 0.0, 0.0, 0.0, 0.0, 1.695756174626089E9, 0.0, 2023-09-26 14:22:54.626
202.0, -160207.15656365833, 30675.60114569678, -49213.48979633925, -39508.071781167004, 2680.1753258914146, -13654.07719064679, -187500.02235174447, -329.19649233776244, 5699.091339003007, -33650.037187342314, -630.5427110842122, -20762.401314068, -23862.632973508, -21257.29128805295, -26598.55355007095, -41008.902014363055, -0.002, 1.008, 0.032, 192.0, 0.0, 0.0, 0.0, 0.0, 0.0, 0.0, 0.0, 0.0, 0.0, 1.695756174626098E9, 0.0, 2023-09-26 14:22:54.626
204.0, -160237.8678605399, 30673.254212528973, -49204.03500843466, -39501.098036896954, 2682.589314292588, -13647.50577777693, -187500.02235174447, -327.43070452579315, 5709.619010641457, -33664.454062515986, -630.2521384062933, -20787.792895769227, -23851.792377447175, -21248.372942015285, -26594.351422113352, -41002.24119451537, -0.002, 1.008, 0.032, 192.0, 0.0, 0.0, 0.0, 0.0, 0.0, 0.0, 0.0, 0.0, 0.0, 1.695756174626153E9, 0.0, 2023-09-26 14:22:54.626
206.0, -160211.22458114917, 30677.523395719934, -49211.05345619362, -39510.128141656896, 2678.677759012909, -13657.027620914892, -187500.02235174447, -336.08082962999697, 5712.994124054208, -33646.8408878852, -623.7030772808882, -20774.49360781832, -23849.06546462363, -21251.21161356111, -26592.920910468212, -41005.10221780565, -0.002, 1.008, 0.032, 192.0, 0.0, 0.0, 0.0, 0.0, 0.0, 0.0, 0.0, 0.0, 0.0, 1.695756174626167E9, 0.0, 2023-09-26 14:22:54.626
208.0, -160225.77556678958, 30678.01513409795, -49211.008752704714, -39510.48576956818, 2681.583485792099, -13659.732181993984, -187500.02235174447, -342.65224249985727, 5701.997065782198, -33657.12269033464, -629.939213983919, -20782.942567222424, -23855.927450171406, -21256.44192176365, -26598.307680881942, -41015.29461327727, -0.004, 1.004, 0.03, 192.0, 127.5, 112.0, 15.5, 48.0, 0.0, 120.0, 0.0, 0.0, 0.0, 1.695756174626197E9, 0.0, 2023-09-26 14:22:54.626
210.0, -160207.58124680296, 30684.40773301217, -49208.61711604799, -39505.81425497702, 2679.840049724585, -13654.904205191639, -187500.02235174447, -347.2790536021058, 5718.135025278929, -33644.69512041749, -618.5845278006229, -20768.570395537663, -23856.039208893682, -21255.704314196624, -26596.11720992532, -41014.60170919916, -0.004, 1.004, 0.03, 192.0, 0.0, 0.0, 0.0, 0.0, 0.0, 0.0, 0.0, 0.0, 0.0, 1.695756174686351E9, 0.0, 2023-09-26 14:22:54.686
212.0, -160238.38195066238, 30685.21239581256, -49204.996133446235, -39497.63351650638, 2686.7243870168195, -13649.629193500185, -187500.02235174447, -348.10606814695217, 5712.837661843021, -33658.352036279684, -618.0257341892403, -20785.82594225716, -23850.943011157873, -21247.43416874816, -26591.535102311984, -41005.25868001684, -0.004, 1.004, 0.03, 192.0, 0.0, 0.0, 0.0, 0.0, 0.0, 0.0, 0.0, 0.0, 0.0, 1.695756174686377E9, 0.0, 2023-09-26 14:22:54.686
214.0, -160192.49381929563, 30685.279451045928, -49226.90084301244, -39517.794790005064, 2670.966407175828, -13671.220978644013, -187500.02235174447, -345.6026727679578, 5706.623876884446, -33642.839925627704, -620.8644057350642, -20764.43532281343, -23863.705857241854, -21257.805378175424, -26596.340727369872, -41013.528825465306, -0.004, 1.004, 0.03, 192.0, 0.0, 0.0, 0.0, 0.0, 0.0, 0.0, 0.0, 0.0, 0.0, 1.695756174686387E9, 0.0, 2023-09-26 14:22:54.686
216.0, -160221.72990104317, 30681.83728239981, -49212.4169126054, -39501.27685085259, 2688.937209717895, -13654.390115069165, -187500.02235174447, -353.4481350717706, 5719.811406113077, -33658.41909151305, -639.1034292105949, -20783.12138117807, -23869.673773011422, -21265.9190614127, -26601.012241961034, -41014.66876443252, -0.004, 1.004, 0.03, 192.0, 0.0, 0.0, 0.0, 0.0, 0.0, 0.0, 0.0, 0.0, 0.0, 1.695756174686396E9, 0.0, 2023-09-26 14:22:54.686
218.0, -160200.54044729954, 30689.21335807006, -49207.27601138068, -39498.1252548844, 2694.480442342811, -13649.025696399893, -187500.02235174447, -335.9243674188098, 5708.948458307798, -33649.85837338667, -624.485388336824, -20774.67242177396, -23867.259784610247, -21246.987133859056, -26587.578843543393, -41005.0798660612, -0.002, 1.008, 0.032, 192.0, 127.5, 120.0, 15.5, 64.0, 0.5, 0.0, 0.0, 0.0, 0.0, 1.695756174686405E9, 0.0, 2023-09-26 14:22:54.686
220.0, -160219.9641132312, 30684.720657434544, -49213.13216842797, -39502.975583431195, 2688.289009128691, -13651.663202245618, -187500.02235174447, -335.9020156743545, 5705.550993150591, -33652.272361787844, -624.9771267148408, -20787.323509135666, -23859.95076417336, -21246.607154203317, -26582.750866741048, -40997.74849387986, -0.002, 1.008, 0.032, 192.0, 0.0, 0.0, 0.0, 0.0, 0.0, 0.0, 0.0, 0.0, 0.0, 1.695756174686414E9, 0.0, 2023-09-26 14:22:54.686
222.0, -160205.21196189072, 30686.12881733523, -49219.07773245308, -39513.03386843608, 2682.902238714962, -13658.905167449138, -187500.02235174447, -340.6852889877903, 5713.374103709949, -33652.071196087745, -627.9722604718519, -20776.505264819298, -23867.2821363547, -21248.23883154855, -26592.675041279203, -41006.7785986398, -0.002, 1.008, 0.032, 192.0, 0.0, 0.0, 0.0, 0.0, 0.0, 0.0, 0.0, 0.0, 0.0, 1.695756174686423E9, 0.0, 2023-09-26 14:22:54.686
224.0, -160218.64536030835, 30667.062779314852, -49219.90474699793, -39518.04065919408, 2683.595142793077, -13661.945004695059, -187500.02235174447, -352.0623269155415, 5686.194382452296, -33656.69800718999, -638.0528972211954, -20785.02127945677, -23871.216043378838, -21258.274764808986, -26601.995718717066, -41017.30627027825, -0.002, 1.008, 0.032, 192.0, 0.0, 0.0, 0.0, 0.0, 0.0, 0.0, 0.0, 0.0, 0.0, 1.69575617468647E9, 0.0, 2023-09-26 14:22:54.686
226.0, -160219.1147469419, 30674.237689285004, -49216.14965392943, -39518.711211527734, 2690.5241835742218, -13661.766190739418, -187500.02235174447, -345.2673966011282, 5695.693873845801, -33663.76115843787, -635.8847780090306, -20786.608253313098, -23872.378334090514, -21263.192148589154, -26602.50980883954, -41020.25670054635, -0.002, 1.008, 0.032, 192.0, 0.0, 0.0, 0.0, 0.0, 0.0, 0.0, 0.0, 0.0, 0.0, 1.695756174745749E9, 0.0, 2023-09-26 14:22:54.745
228.0, -160220.7687760316, 30670.996686338985, -49220.28472665366, -39519.67233653931, 2687.3278841171127, -13663.75549599594, -187500.02235174447, -346.38498382389355, 5695.246838956695, -33656.89917289009, -641.7856385452317, -20792.39735512702, -23875.306412614158, -21269.718857970103, -26605.482590852094, -41019.49674123487, -0.002, 1.008, 0.032, 192.0, 0.0, 0.0, 15.5, 72.0, 0.5, 0.0, 0.0, 0.0, 0.0, 1.695756174745778E9, 0.0, 2023-09-26 14:22:54.745
230.0, -160232.2128691927, 30685.234747557017, -49207.790101503146, -39503.80259797604, 2695.195698165381, -13651.462036545521, -187500.02235174447, -332.9068819173434, 5704.03107452763, -33658.06146360176, -638.0752489656508, -20790.810381270694, -23867.550357288168, -21244.662552435704, -26599.559378571437, -41004.297555005265, -0.002, 1.008, 0.032, 192.0, 0.0, 0.0, 0.0, 0.0, 0.0, 0.0, 0.0, 0.0, 0.0, 1.695756174745788E9, 0.0, 2023-09-26 14:22:54.745
232.0, -160223.74155804416, 30681.144378321696, -49218.54129058615, -39511.312784113026, 2673.6262647660096, -13664.426048329598, -187500.02235174447, -347.2790536021058, 5708.054388529586, -33642.23642852741, -629.6709930504553, -20781.042668943726, -23876.938089959396, -21257.000715375034, -26611.249340921564, -41009.930194608, -0.002, 1.008, 0.032, 192.0, 0.0, 0.0, 0.0, 0.0, 0.0, 0.0, 0.0, 0.0, 0.0, 1.695756174745797E9, 0.0, 2023-09-26 14:22:54.745
234.0, -160232.03405523708, 30687.581680724823, -49206.471348580286, -39497.588813017464, 2682.656369525954, -13652.601975512742, -187500.02235174447, -334.5162075181255, 5716.168071766862, -33652.831155399224, -628.5534058276899, -20783.411953855986, -23874.97113644733, -21250.67517169418, -26608.187151931186, -41004.18579628298, -0.002, 1.008, 0.032, 192.0, 0.0, 0.0, 0.0, 0.0, 0.0, 0.0, 0.0, 0.0, 0.0, 1.695756174745806E9, 0.0, 2023-09-26 14:22:54.745
236.0, -160220.25468590914, 30685.234747557017, -49211.03110444917, -39502.573252031005, 2677.4707648123226, -13655.462998803021, -187500.02235174447, -335.1197046184188, 5721.800711369599, -33633.22867551192, -624.4406848479134, -20774.91829096297, -23869.96434568934, -21242.852061134825, -26605.571997829917, -40998.46374970242, -0.002, 1.008, 0.032, 192.0, 0.0, 0.0, 0.0, 0.0, 0.0, 0.0, 0.0, 0.0, 0.0, 1.695756174745815E9, 0.0, 2023-09-26 14:22:54.745
238.0, -160225.88732551187, 30685.167692323652, -49205.152595657426, -39498.996972918154, 2687.171421905926, -13649.338620822266, -187500.02235174447, -329.30825106003897, 5740.799694156611, -33648.13728906361, -625.2006441593938, -20778.91925322047, -23871.573671290123, -21242.047398334435, -26603.672099551215, -40993.00992405533, -0.002, 1.012, 0.034, 192.0, 127.5, 120.0, 15.5, 80.0, 0.5, 8.0, 0.0, 0.0, 0.0, 1.695756174745824E9, 0.0, 2023-09-26 14:22:54.745
240.0, -160216.67840679627, 30680.384419010214, -49203.72208401228, -39498.5722897735, 2689.831279496107, -13648.578661510786, -187500.02235174447, -343.8145332115332, 5698.085510502518, -33633.385137723104, -626.2511761487933, -20770.135017649536, -23877.20631089286, -21248.171776315186, -26605.996680974567, -40997.90495609104, -0.002, 1.012, 0.034, 192.0, 0.0, 0.0, 0.0, 0.0, 0.0, 0.0, 0.0, 0.0, 0.0, 1.695756174805439E9, 0.0, 2023-09-26 14:22:54.805
242.0, -160216.32077888498, 30670.08026481632, -49211.433435849365, -39509.077609667496, 2686.255000383258, -13654.256004602434, -187500.02235174447, -329.3976580378602, 5690.88824878791, -33644.13632680611, -634.6107285750782, -20779.433343342942, -23876.15577890346, -21250.429302505174, -26602.73332628409, -40997.077941546195, -0.002, 1.012, 0.034, 192.0, 0.0, 0.0, 0.0, 0.0, 0.0, 0.0, 0.0, 0.0, 0.0, 1.695756174805471E9, 0.0, 2023-09-26 14:22:54.805
244.0, -160212.09629918294, 30678.01513409795, -49205.66668577989, -39506.842435221966, 2694.905125487462, -13652.55727202383, -187500.02235174447, -339.16537036482936, 5699.471318658748, -33641.40941398256, -636.9353099984301, -20775.58884329663, -23874.52410155822, -21253.82676766238, -26601.74984952806, -40999.313115991725, -0.002, 1.012, 0.034, 192.0, 0.0, 0.0, 0.0, 0.0, 0.0, 0.0, 0.0, 0.0, 0.0, 1.695756174805487E9, 0.0, 2023-09-26 14:22:54.805
246.0, -160220.38879637586, 30677.03165734192, -49214.36151437301, -39513.21268239173, 2681.717596258831, -13660.425086072099, -187500.02235174447, -329.55412024904734, 5702.51115590467, -33656.38508276762, -644.3337374131366, -20786.988232968837, -23875.127598658517, -21257.53715724196, -26602.532160583993, -40999.40252296955, -0.002, 1.012, 0.034, 192.0, 0.0, 0.0, 0.0, 0.0, 0.0, 0.0, 0.0, 0.0, 0.0, 1.695756174805538E9, 0.0, 2023-09-26 14:22:54.805
248.0, -160212.61038930542, 30682.619593455744, -49200.19050838835, -39497.40999906183, 2687.3502358615683, -13649.405676055632, -187500.02235174447, -332.0128121391311, 5699.963057036764, -33643.71164366146, -644.4678478798685, -20775.767657252272, -23885.02942145222, -21269.674154481192, -26613.350404900364, -41002.91174684903, -0.002, 1.012, 0.034, 192.0, 0.0, 0.0, 15.5, 80.0, 0.5, 0.0, 0.0, 0.0, 0.0, 1.695756174805558E9, 0.0, 2023-09-26 14:22:54.805
250.0, -160221.4169766208, 30690.442704015102, -49208.46065383681, -39504.85312996544, 2678.454241568356, -13664.962490196525, -187500.02235174447, -333.5774342510026, 5725.444045715814, -33659.55903048027, -635.2365774198267, -20785.937700979437, -23873.92060445793, -21250.228136805075, -26608.522428098015, -40994.418083956014, -0.002, 1.012, 0.034, 192.0, 0.0, 0.0, 0.0, 0.0, 0.0, 0.0, 0.0, 0.0, 0.0, 1.695756174805571E9, 0.0, 2023-09-26 14:22:54.805
252.0, -160208.18474390326, 30690.241538315004, -49206.82897649157, -39503.95906018723, 2681.5611340476435, -13658.011097670926, -187500.02235174447, -343.4569053002483, 5716.637458400423, -33640.47064071544, -632.1520366849943, -20769.866796716073, -23876.78162774821, -21252.329200783875, -26617.46312588014, -41003.805816627246, -0.002, 1.012, 0.034, 192.0, 0.0, 0.0, 0.0, 0.0, 0.0, 0.0, 0.0, 0.0, 0.0, 1.695756174805586E9, 0.0, 2023-09-26 14:22:54.805
254.0, -160228.2566104241, 30684.117160334252, -49206.51605206919, -39502.90852819783, 2687.0596631836493, -13654.546577280353, -187500.02235174447, -337.2878238305836, 5701.550030893091, -33658.17322232404, -640.7574583002876, -20787.189398668936, -23880.424962094425, -21249.892860638247, -26616.904332268758, -41001.704752648446, -0.002, 1.012, 0.034, 192.0, 0.0, 0.0, 0.0, 0.0, 0.0, 0.0, 0.0, 0.0, 0.0, 1.695756174805601E9, 0.0, 2023-09-26 14:22:54.805
0.0, -160218.77947077507, 30697.34939305179, -49204.63850553495, -39497.63351650638, 2694.480442342811, -13646.254080087434, -187500.02235174447, -330.11291386043, 5714.5140426771695, -33645.9915215959, -631.5485395847011, -20772.616061284072, -23875.865206225542, -21243.12028206829, -26608.83535252039, -40994.26162174483, -0.002, 1.012, 0.034, 192.0, 0.0, 0.0, 0.0, 0.0, 0.0, 0.0, 0.0, 0.0, 0.0, 1.695756174865636E9, 0.0, 2023-09-26 14:22:54.865
2.0, -160237.53258437308, 30690.085076103816, -49214.428569606374, -39507.35652534444, 2681.8964102144732, -13654.680687747084, -187500.02235174447, -333.5997859954579, 5709.03786528562, -33656.742710678904, -639.1928361884161, -20786.87647424656, -23882.369563862034, -21246.696561181136, -26615.07148922342, -40996.63090665709, -0.002, 1.012, 0.034, 192.0, 0.0, 0.0, 15.5, 104.0, 0.0, 112.0, 0.0, 0.0, 0.0, 1.695756174865674E9, 0.0, 2023-09-26 14:22:54.865
4.0, -160215.5161160846, 30683.379552767226, -49216.44022660735, -39513.81617949202, 2676.19671537837, -13666.37065009721, -187500.02235174447, -351.7494024931672, 5702.913487304865, -33652.31706527675, -632.3755541295474, -20774.962994451882, -23888.516293587243, -21249.982267616066, -26622.40286140476, -41004.074037560706, -0.002, 1.012, 0.034, 192.0, 0.0, 0.0, 0.0, 0.0, 0.0, 0.0, 0.0, 0.0, 0.0, 1.695756174865694E9, 0.0, 2023-09-26 14:22:54.865
6.0, -160250.49659615714, 30682.01609635545, -49197.44124382034, -39501.12038864141, 2693.3405033755903, -13652.423161557099, -187500.02235174447, -346.9437774352762, 5706.087435017519, -33668.52208000685, -639.5728158441563, -20794.274901661265, -23881.877825484018, -21259.615869476303, -26617.79840204697, -40999.044895058265, -0.002, 1.012, 0.034, 192.0, 0.0, 0.0, 0.0, 0.0, 0.0, 0.0, 0.0, 0.0, 0.0, 1.69575617486571E9, 0.0, 2023-09-26 14:22:54.865
8.0, -160223.1604126883, 30686.30763129087, -49204.862022979505, -39510.48576956818, 2689.3171893736353, -13658.41342907112, -187500.02235174447, -327.16248359232947, 5704.634571627924, -33653.30054203278, -630.8556355065865, -20782.808456755694, -23874.457046324856, -21254.229099062577, -26606.510771097037, -40990.081845531684, -0.002, 1.012, 0.034, 192.0, 0.0, 0.0, 0.0, 0.0, 0.0, 0.0, 0.0, 0.0, 0.0, 1.695756174865726E9, 0.0, 2023-09-26 14:22:54.865
10.0, -160263.39355270786, 30686.531148735423, -49187.248848348725, -39492.850243192945, 2702.8846982580067, -13642.051952129836, -187500.02235174447, -335.4773325297037, 5703.628743127435, -33660.27428630284, -645.2948624247149, -20792.01737547128, -23872.132464901504, -21251.457482750116, -26604.96850072962, -40988.137243764075, -0.002, 1.012, 0.034, 192.0, 0.0, 0.0, 0.0, 0.0, 0.0, 0.0, 0.0, 0.0, 0.0, 1.695756174865744E9, 0.0, 2023-09-26 14:22:54.865
12.0, -160251.7259421022, 30698.668145974654, -49200.235211877254, -39505.05429566554, 2689.160727162448, -13654.948908680548, -187500.02235174447, -326.5366347475809, 5722.89594684791, -33655.40160601158, -633.2025686743938, -20785.244796901323, -23868.712647999844, -21244.707255924615, -26593.904387224244, -40981.275258216294, 0.002, 1.014, 0.03, 192.0, 0.0, 8.0, 15.5, 88.0, 0.0, 120.0, 0.0, 0.0, 0.0, 1.6957561748658E9, 0.0, 2023-09-26 14:22:54.865
14.0, -160242.65113385333, 30678.752741664975, -49218.87656675298, -39524.61207206394, 2672.6874914988866, -13675.736031023984, -187500.02235174447, -346.2285216127064, 5690.843545299, -33650.05953908677, -649.6311008490445, -20784.216616656377, -23893.81365702315, -21266.030820134976, -26619.11715496983, -41007.76207539583, 0.002, 1.014, 0.03, 192.0, 0.0, 0.0, 0.0, 0.0, 0.0, 0.0, 0.0, 0.0, 0.0, 1.695756174925897E9, 0.0, 2023-09-26 14:22:54.925
16.0, -160227.09431971246, 30677.92572712013, -49209.622944548486, -39517.43716209378, 2683.572791048621, -13669.678708276595, -187500.02235174447, -353.64930077186835, 5688.809536553566, -33659.46962350245, -649.4522868934021, -20779.522750320764, -23897.09936345808, -21270.59057600386, -26627.633169607303, -41017.30627027825, 0.002, 1.014, 0.03, 192.0, 0.0, 0.0, 0.0, 0.0, 0.0, 0.0, 0.0, 0.0, 0.0, 1.695756174925937E9, 0.0, 2023-09-26 14:22:54.925
18.0, -160252.39649443584, 30679.669163187646, -49205.130243912965, -39511.33513585748, 2684.6233230380208, -13669.432839087587, -187500.02235174447, -360.28776887509457, 5701.102996003985, -33666.21985032795, -646.8818362810417, -20798.231160429856, -23878.703877771364, -21258.654744464726, -26616.70316656866, -41001.436531714986, 0.002, 1.014, 0.03, 192.0, 0.0, 0.0, 0.0, 0.0, 0.0, 0.0, 0.0, 0.0, 0.0, 1.69575617492595E9, 0.0, 2023-09-26 14:22:54.925
20.0, -160231.4752616257, 30686.6429074577, -49211.76871201619, -39511.73746725768, 2672.5980845210656, -13674.506685078943, -187500.02235174447, -353.00110018266446, 5706.51211816217, -33654.82046065575, -647.6417955925222, -20785.937700979437, -23884.180055162917, -21266.72372421309, -26631.45531790916, -41011.94185160898, 0.002, 1.014, 0.03, 192.0, 0.0, 0.0, 0.0, 0.0, 0.0, 0.0, 0.0, 0.0, 0.0, 1.695756174925962E9, 0.0, 2023-09-26 14:22:54.925
22.0, -160226.5578778455, 30681.099674832785, -49212.50631958322, -39505.03194392109, 2669.960578675339, -13667.354126853244, -187500.02235174447, -353.3810798384047, 5708.009685040675, -33641.20824828246, -648.9605485153853, -20784.14956142301, -23890.036212210205, -21254.58672697386, -26637.110309256354, -41007.65031667356, 0.002, 1.018, 0.03, 192.0, 0.0, 8.0, 15.5, 104.0, 0.0, 120.0, 0.0, 0.0, 0.0, 1.695756174925975E9, 0.0, 2023-09-26 14:22:54.925
24.0, -160221.9087149988, 30681.144378321696, -49210.85229049352, -39505.41192357682, 2665.8255059511075, -13663.979013440492, -187500.02235174447, -350.47535305921474, 5722.292449747616, -33649.70191117548, -650.547522371712, -20781.087372432634, -23894.953595990373, -21257.268936308497, -26638.51846915704, -41008.20911028494, 0.002, 1.018, 0.03, 192.0, 0.0, 0.0, 0.0, 0.0, 0.0, 0.0, 0.0, 0.0, 0.0, 1.695756174925992E9, 0.0, 2023-09-26 14:22:54.925
26.0, -160250.96598279072, 30680.518529476947, -49191.27216235068, -39491.68795248127, 2686.903200972462, -13652.601975512742, -187500.02235174447, -351.2576641151505, 5687.423728397337, -33649.03135884182, -641.1821414449385, -20783.881340489548, -23881.520197572732, -21249.959915871612, -26626.64969285127, -40996.47444444591, 0.002, 1.018, 0.03, 192.0, 0.0, 0.0, 0.0, 0.0, 0.0, 0.0, 0.0, 0.0, 0.0, 1.695756174926008E9, 0.0, 2023-09-26 14:22:54.926
28.0, -160254.20698573673, 30688.40869526967, -49198.424720576375, -39501.589775274966, 2689.384244607001, -13662.36968783971, -187500.02235174447, -334.69502147376795, 5684.205077195773, -33657.61442871266, -628.9780889723407, -20785.490666090333, -23875.015839936237, -21248.887032137758, -26614.64680607877, -40994.149863022554, 0.002, 1.018, 0.03, 192.0, 0.0, 0.0, 0.0, 0.0, 0.0, 0.0, 0.0, 0.0, 0.0, 1.695756174926024E9, 0.0, 2023-09-26 14:22:54.926
30.0, -160245.71332284372, 30676.294049774893, -49203.58797354555, -39507.75885674463, 2673.6933199993755, -13672.807952500338, -187500.02235174447, -355.34803335047167, 5680.919370760843, -33642.86227737216, -634.2307489193379, -20770.805569983193, -23885.945842974885, -21259.01237237601, -26625.80032656197, -41005.7280666504, 0.002, 1.018, 0.03, 192.0, 0.0, 0.0, 0.0, 0.0, 0.0, 0.0, 0.0, 0.0, 0.0, 1.69575617498625E9, 0.0, 2023-09-26 14:22:54.986
32.0, -160247.18853797778, 30673.477729973525, -49196.189546130845, -39502.59560377546, 2679.549477046666, -13668.449362331554, -187500.02235174447, -350.14007689238514, 5688.027225497631, -33657.94970487949, -642.5008943678015, -20779.947433465415, -23894.774782034732, -21266.142578857252, -26632.528201643017, -41011.40540974205, 0.002, 1.02, 0.032, 192.0, 0.0, 8.0, 15.5, 112.0, 0.5, 0.0, 0.0, 0.0, 0.0, 1.695756174986282E9, 0.0, 2023-09-26 14:22:54.986
34.0, -160245.6239158659, 30678.238651542506, -49191.89801119542, -39501.232147363684, 2676.800212478663, -13665.90126346365, -187500.02235174447, -352.5093618046477, 5709.149624007896, -33646.66207392956, -630.8332837621313, -20777.131113664047, -23879.10620917156, -21253.0668083509, -26618.60306484736, -40996.385037468084, 0.002, 1.02, 0.032, 192.0, 0.0, 0.0, 0.0, 0.0, 0.0, 0.0, 0.0, 0.0, 0.0, 1.69575617498634E9, 0.0, 2023-09-26 14:22:54.986
36.0, -160248.6190496229, 30680.92086087714, -49197.21772637579, -39504.04846716505, 2672.6651397544315, -13669.365783854222, -187500.02235174447, -342.0934488884746, 5708.32260946305, -33654.95457112248, -631.9732227293518, -20783.59076781163, -23884.180055162917, -21263.63918347826, -26625.68856783969, -41001.48123520389, 0.002, 1.02, 0.032, 192.0, 0.0, 0.0, 0.0, 0.0, 0.0, 0.0, 0.0, 0.0, 0.0, 1.695756174986357E9, 0.0, 2023-09-26 14:22:54.986
38.0, -160238.94074427377, 30682.887814389207, -49195.20606937481, -39500.271022352106, 2678.6330555239983, -13662.302632606345, -187500.02235174447, -340.55117852105843, 5699.247801214195, -33643.62223668364, -631.3697256290586, -20770.425590327453, -23886.348174375078, -21263.572128244894, -26625.9344370287, -41001.34712473716, 0.002, 1.02, 0.032, 192.0, 0.0, 0.0, 0.0, 0.0, 0.0, 0.0, 0.0, 0.0, 0.0, 1.695756174986372E9, 0.0, 2023-09-26 14:22:54.986
40.0, -160259.25847998363, 30677.45634048657, -49202.04570317813, -39503.08734215347, 2673.6486165104648, -13663.151998895646, -187500.02235174447, -332.0575156280417, 5698.219620969251, -33667.47154801745, -641.7856385452317, -20788.463448102888, -23879.128560916015, -21256.531328741472, -26621.195867204176, -40993.456958944436, 0.002, 1.02, 0.032, 192.0, 0.0, 0.0, 0.0, 0.0, 0.0, 0.0, 0.0, 0.0, 0.0, 1.695756174986389E9, 0.0, 2023-09-26 14:22:54.986
42.0, -160249.8707473124, 30682.150206822185, -49195.83191821956, -39496.404170561334, 2683.192811392881, -13657.139379637169, -187500.02235174447, -340.6852889877903, 5704.0087227831755, -33648.651379186085, -644.5349031132345, -20777.421686341964, -23889.25390115427, -21259.191186331653, -26627.40965216275, -41000.74362763687, 0.002, 1.014, 0.028, 192.0, 0.0, 8.0, 15.5, 88.0, 0.0, 112.0, 0.0, 0.0, 0.0, 1.695756174986405E9, 0.0, 2023-09-26 14:22:54.986
44.0, -160270.52375918912, 30678.573927709334, -49204.437339834854, -39506.86478696642, 2675.6155700225318, -13675.110182179234, -187500.02235174447, -350.9894431816868, 5718.425597956848, -33659.58138222473, -639.5057606107904, -20795.951282495414, -23883.867130740542, -21258.453578764627, -26622.961655016145, -40997.14499677956, 0.002, 1.014, 0.028, 192.0, 0.0, 0.0, 0.0, 0.0, 0.0, 0.0, 0.0, 0.0, 0.0, 1.695756175045686E9, 0.0, 2023-09-26 14:22:55.045
46.0, -160248.44023566728, 30678.909203876163, -49206.85132823603, -39510.888100968376, 2671.6369595094875, -13686.04018521788, -187500.02235174447, -372.8047457700665, 5694.620990111946, -33646.34914950719, -640.1763129444496, -20779.81332299868, -23897.836971025106, -21263.102741611332, -26642.139451758798, -41020.703735435454, 0.002, 1.014, 0.028, 192.0, 0.0, 0.0, 0.0, 0.0, 0.0, 0.0, 0.0, 0.0, 0.0, 1.695756175045719E9, 0.0, 2023-09-26 14:22:55.045
48.0, -160260.55488116204, 30677.143416064195, -49210.71818002679, -39513.48090332519, 2667.0772036406047, -13687.984786985493, -187500.02235174447, -370.6813300468123, 5696.409129668371, -33663.42588227104, -643.484371123835, -20798.231160429856, -23891.980813977818, -21264.26503232301, -26639.14431800179, -41015.78635165529, 0.002, 1.014, 0.028, 192.0, 0.0, 0.0, 0.0, 0.0, 0.0, 0.0, 0.0, 0.0, 0.0, 1.695756175045736E9, 0.0, 2023-09-26 14:22:55.045
50.0, -160242.7628925756, 30682.664296944655, -49202.760959000705, -39507.98237418919, 2674.0732996551155, -13678.574702569807, -187500.02235174447, -369.47433584622576, 5695.850336056988, -33651.75827166537, -644.9148827689747, -20779.120418920567, -23899.423944881433, -21272.8704539383, -26644.732254115614, -41021.30723253575, 0.002, 1.014, 0.028, 192.0, 0.0, 0.0, 0.0, 0.0, 0.0, 0.0, 0.0, 0.0, 0.0, 1.69575617504575E9, 0.0, 2023-09-26 14:22:55.045
52.0, -160284.89593087387, 30683.536014978414, -49192.94854318482, -39495.6218595054, 2684.5339160601993, -13662.70496400654, -187500.02235174447, -351.3247193485164, 5704.388702438915, -33666.532774750325, -641.8750455230529, -20799.058174974703, -23883.73302027381, -21261.225195077088, -26627.387300418297, -41000.4754067034, 0.002, 1.018, 0.03, 192.0, 0.0, 8.0, 15.5, 104.0, 0.0, 120.0, 0.0, 0.0, 0.0, 1.695756175045765E9, 0.0, 2023-09-26 14:22:55.045
54.0, -160256.84449158245, 30691.247366815493, -49201.442206077845, -39502.59560377546, 2670.8546484535514, -13669.678708276595, -187500.02235174447, -340.7299924767009, 5708.36731295196, -33647.91377161906, -633.582548330134, -20783.233139900345, -23887.66692729794, -21253.53619498446, -26625.75562307306, -40997.79319736877, 0.002, 1.018, 0.03, 192.0, 0.0, 0.0, 0.0, 0.0, 0.0, 0.0, 0.0, 0.0, 0.0, 1.695756175045779E9, 0.0, 2023-09-26 14:22:55.045
56.0, -160283.59952969546, 30675.578793952325, -49190.15457512791, -39493.76666471561, 2677.2695991122246, -13660.358030838732, -187500.02235174447, -354.31985310552756, 5697.996103524698, -33654.75340542238, -643.9314060129411, -20791.36917488208, -23890.416191865945, -21258.16300608671, -26632.349387687373, -40999.91661309202, 0.002, 1.018, 0.03, 192.0, 0.0, 0.0, 0.0, 0.0, 0.0, 0.0, 0.0, 0.0, 0.0, 1.695756175045829E9, 0.0, 2023-09-26 14:22:55.045
58.0, -160256.15158750434, 30679.803273654376, -49199.83288047706, -39504.40609507634, 2669.7817647196966, -13668.874045476205, -187500.02235174447, -348.597806524969, 5699.359559936472, -33644.20338203948, -635.6612605644775, -20777.421686341964, -23892.561959333656, -21253.0668083509, -26635.970370289135, -41006.35391549515, 0.002, 1.018, 0.03, 192.0, 0.0, 0.0, 0.0, 0.0, 0.0, 0.0, 0.0, 0.0, 0.0, 1.695756175045845E9, 0.0, 2023-09-26 14:22:55.045
60.0, -160281.65492792786, 30678.6409829427, -49192.05447340661, -39499.846339207455, 2674.1180031440263, -13662.347336095256, -187500.02235174447, -334.04682088456406, 5704.03107452763, -33651.66886468755, -636.8459030206088, -20788.955186480904, -23889.477418598824, -21254.094988595843, -26638.920800557233, -41003.26937476032, 0.002, 1.018, 0.03, 192.0, 0.0, 0.0, 0.0, 0.0, 0.0, 0.0, 0.0, 0.0, 0.0, 1.695756175105428E9, 0.0, 2023-09-26 14:22:55.105
62.0, -160260.30901197303, 30679.624459698734, -49197.01656067569, -39506.82008347751, 2674.475631055311, -13669.455190832043, -187500.02235174447, -324.5696812355139, 5700.723016348245, -33648.51726871935, -630.9897459733183, -20777.95812820889, -23888.29277614269, -21255.972535130088, -26631.052986508967, -41000.385999725586, 0.006, 1.014, 0.028, 192.0, 0.0, 24.0, 15.5, 88.0, 0.0, 112.0, 0.0, 0.0, 0.0, 1.695756175105469E9, 0.0, 2023-09-26 14:22:55.105
64.0, -160291.04266059908, 30673.857709629265, -49180.09629012302, -39487.28465882357, 2687.4843463283, -13653.89837669115, -187500.02235174447, -340.2159023542288, 5696.498536646192, -33656.78741416781, -639.2375396773267, -20787.122343435567, -23894.148933189983, -21270.45646553713, -26628.974274274624, -40999.13430203609, 0.006, 1.014, 0.028, 192.0, 0.0, 0.0, 0.0, 0.0, 0.0, 0.0, 0.0, 0.0, 0.0, 1.695756175105486E9, 0.0, 2023-09-26 14:22:55.105
66.0, -160268.24388125466, 30680.004439354474, -49195.65310426392, -39500.09220839646, 2676.2414188672806, -13667.957623953536, -187500.02235174447, -339.6794604873014, 5711.183632753329, -33648.40550999707, -625.1559406704832, -20784.797762012215, -23891.19850292188, -21251.144558327742, -26621.03940499299, -40990.64063914307, 0.006, 1.014, 0.028, 192.0, 0.0, 0.0, 0.0, 0.0, 0.0, 0.0, 0.0, 0.0, 0.0, 1.695756175105501E9, 0.0, 2023-09-26 14:22:55.105
68.0, -160271.9319190898, 30674.6400206852, -49193.48498505175, -39497.074722895, 2677.426061323412, -13665.342469852267, -187500.02235174447, -345.9155971903321, 5687.736652819712, -33649.09841407519, -638.9246152549524, -20787.345860880123, -23900.697994315386, -21254.944354885145, -26633.13169874331, -41000.29659274776, 0.006, 1.014, 0.028, 192.0, 0.0, 0.0, 0.0, 0.0, 0.0, 0.0, 0.0, 0.0, 0.0, 1.695756175105517E9, 0.0, 2023-09-26 14:22:55.105
70.0, -160267.19334926526, 30675.60114569678, -49192.05447340661, -39499.91339444082, 2671.7934217206744, -13666.124780908202, -187500.02235174447, -345.42385881231536, 5701.1924029818065, -33659.15669908008, -636.6000338316004, -20787.055288202202, -23893.411325622958, -21265.606136990325, -26629.60012311937, -40997.77084562431, 0.006, 1.014, 0.028, 192.0, 0.0, 0.0, 0.0, 0.0, 0.0, 0.0, 0.0, 0.0, 0.0, 1.695756175105532E9, 0.0, 2023-09-26 14:22:55.105
72.0, -160261.0242677956, 30664.7381978915, -49193.55204028512, -39506.10482765494, 2666.361947818035, -13673.143228667168, -187500.02235174447, -353.5598937940471, 5696.498536646192, -33652.78645191032, -638.2317111768378, -20785.02127945677, -23898.999261736783, -21262.387485788764, -26635.210410977652, -41002.464711959925, -0.002, 1.016, 0.028, 192.0, 127.5, 120.0, 15.5, 96.0, 0.0, 112.0, 0.0, 0.0, 0.0, 1.695756175105547E9, 0.0, 2023-09-26 14:22:55.105
74.0, -160267.5286254321, 30672.181328795115, -49182.845554691026, -39499.24284210716, 2680.667064269431, -13670.170446654613, -187500.02235174447, -350.6094635259466, 5693.592809867002, -33658.12851883513, -638.4328768769357, -20792.486762104843, -23894.797133779186, -21261.314602054907, -26632.774070832023, -41003.91757534952, -0.002, 1.016, 0.028, 192.0, 0.0, 0.0, 0.0, 0.0, 0.0, 0.0, 0.0, 0.0, 0.0, 1.69575617516574E9, 0.0, 2023-09-26 14:22:55.165
76.0, -160271.06020105604, 30672.024866583928, -49187.00297915971, -39502.46149330872, 2679.974160191317, -13669.254025131944, -187500.02235174447, -338.8971494313657, 5709.954286808287, -33653.92639087753, -629.6262895615447, -20792.084430704646, -23882.794247006685, -21250.429302505174, -26621.620550348827, -40995.893299090065, -0.002, 1.016, 0.028, 192.0, 0.0, 0.0, 0.0, 0.0, 0.0, 0.0, 0.0, 0.0, 0.0, 1.695756175165776E9, 0.0, 2023-09-26 14:22:55.165
78.0, -160265.69578238676, 30676.338753263804, -49193.30617109611, -39506.35069684395, 2674.162706632937, -13668.963452454025, -187500.02235174447, -329.28589931558366, 5693.41399591136, -33662.062425859265, -640.9139205114748, -20791.10095394861, -23891.82435176663, -21264.801474189935, -26631.03063476451, -41005.325735250204, -0.002, 1.016, 0.028, 192.0, 0.0, 0.0, 0.0, 0.0, 0.0, 0.0, 0.0, 0.0, 0.0, 1.695756175165832E9, 0.0, 2023-09-26 14:22:55.165
80.0, -160258.9232038168, 30671.913107861652, -49197.731816498264, -39504.026115420595, 2662.9197791719175, -13669.522246065408, -187500.02235174447, -336.9748994082093, 5692.676388344335, -33652.071196087745, -635.325984397648, -20786.87647424656, -23878.659174282453, -21255.793721174447, -26635.500983655573, -40999.98366832539, -0.002, 1.016, 0.028, 192.0, 0.0, 0.0, 0.0, 0.0, 0.0, 0.0, 0.0, 0.0, 0.0, 1.695756175165848E9, 0.0, 2023-09-26 14:22:55.165
82.0, -160267.05923879854, 30674.036523584906, -49200.615191533, -39503.467321809214, 2657.0189186357165, -13670.259853632433, -187500.02235174447, -341.93698667728745, 5687.9825220087205, -33664.61052472717, -637.7399727988211, -20795.07956446166, -23876.78162774821, -21257.693619453148, -26644.26286748205, -41004.76694163882, -0.002, 1.016, 0.028, 192.0, 0.0, 0.0, 15.5, 104.0, 0.0, 104.0, 0.0, 0.0, 0.0, 1.695756175165865E9, 0.0, 2023-09-26 14:22:55.165
84.0, -160268.04271555456, 30680.98791611051, -49193.820261218585, -39495.1748246163, 2663.366814061024, -13662.146170395157, -187500.02235174447, -344.99917566766453, 5698.621952369446, -33649.85837338667, -625.0218302037514, -20790.028070214757, -23848.707836712343, -21246.24952629203, -26638.831393579414, -40996.54149967927, -0.002, 1.016, 0.028, 192.0, 0.0, 0.0, 0.0, 0.0, 0.0, 0.0, 0.0, 0.0, 0.0, 1.695756175165882E9, 0.0, 2023-09-26 14:22:55.165
86.0, -160267.5286254321, 30671.35431425027, -49201.4645578223, -39504.942536943265, 2655.9907383907725, -13664.783676240884, -187500.02235174447, -340.4617715432372, 5697.996103524698, -33654.52988797783, -626.8323215046313, -20790.810381270694, -23847.120862856016, -21247.30005828143, -26644.8887163268, -41003.98463058289, -0.002, 1.016, 0.028, 192.0, 0.0, 0.0, 0.0, 0.0, 0.0, 0.0, 0.0, 0.0, 0.0, 1.695756175165898E9, 0.0, 2023-09-26 14:22:55.165
88.0, -160249.6248781234, 30676.02582884143, -49203.40915958991, -39509.904624212344, 2662.428040793901, -13663.643737273662, -187500.02235174447, -337.08665813048583, 5705.908621061876, -33644.873934373136, -620.2385568903156, -20783.72487827836, -23835.587362717077, -21252.15038682823, -26634.338692943897, -41003.02350557131, -0.002, 1.016, 0.028, 192.0, 0.0, 0.0, 0.0, 0.0, 0.0, 0.0, 0.0, 0.0, 0.0, 1.695756175165915E9, 0.0, 2023-09-26 14:22:55.165
90.0, -160263.3264974745, 30671.98016309502, -49206.13607241346, -39505.90366195484, 2676.107308400549, -13658.61459477122, -187500.02235174447, -333.73389646218976, 5691.64820809939, -33648.226696041434, -630.0956761951061, -20792.15148593801, -23836.839060406575, -21248.30588678192, -26626.627341106814, -41003.872871860614, -0.002, 1.016, 0.028, 192.0, 0.0, 0.0, 0.0, 0.0, 0.0, 0.0, 0.0, 0.0, 0.0, 1.695756175226155E9, 0.0, 2023-09-26 14:22:55.226
92.0, -160255.41397993732, 30677.903375375674, -49208.147729414435, -39502.61795551991, 2689.764224262741, -13654.233652857978, -187500.02235174447, -339.9923849096757, 5693.346940677994, -33637.944893591986, -627.1452459270056, -20785.244796901323, -23823.986807344772, -21241.466252978596, -26607.337785641885, -40999.536633436284, 0.004, 1.016, 0.024, 192.0, 0.0, 16.0, 15.5, 96.0, 0.0, 96.0, 0.0, 0.0, 0.0, 1.695756175226199E9, 0.0, 2023-09-26 14:22:55.226
94.0, -160272.9824510792, 30671.220203783538, -49222.72106679929, -39508.20589163374, 2674.2968170996687, -13652.780789468383, -187500.02235174447, -319.4064282663379, 5701.259458215172, -33649.1431175641, -634.8565977640865, -20804.422593643976, -23814.66612990691, -21239.00756108851, -26594.865512235825, -40996.00505781234, 0.004, 1.016, 0.024, 192.0, 0.0, 0.0, 0.0, 0.0, 0.0, 0.0, 0.0, 0.0, 0.0, 1.695756175226217E9, 0.0, 2023-09-26 14:22:55.226
96.0, -160242.85229955343, 30669.722636905033, -49229.471293624796, -39507.75885674463, 2664.417346050423, -13653.965431924515, -187500.02235174447, -315.1595968198296, 5703.5393361496135, -33635.0391668128, -632.6884785519217, -20789.424573114466, -23823.673882922398, -21249.199956560133, -26596.094858180866, -41002.621174171116, 0.004, 1.016, 0.024, 192.0, 0.0, 0.0, 0.0, 0.0, 0.0, 0.0, 0.0, 0.0, 0.0, 1.695756175226231E9, 0.0, 2023-09-26 14:22:55.226
98.0, -160249.6248781234, 30670.01320958295, -49231.30413667013, -39502.01445841962, 2657.0412703801717, -13650.724428978496, -187500.02235174447, -315.09254158646365, 5692.631684855424, -33644.51630646185, -637.4494001209022, -20794.856047017103, -23829.172412058404, -21248.574107715383, -26596.854817492345, -41008.45497947395, 0.004, 1.016, 0.024, 192.0, 0.0, 0.0, 0.0, 0.0, 0.0, 0.0, 0.0, 0.0, 0.0, 1.695756175226245E9, 0.0, 2023-09-26 14:22:55.226
100.0, -160207.89417122534, 30670.572003194335, -49242.34589843106, -39510.08343816798, 2647.787648175675, -13653.22782435749, -187500.02235174447, -316.56775672051396, 5693.07871974453, -33625.9867103084, -630.7885802732206, -20776.1029334191, -23829.395929502956, -21247.143596070244, -26594.619643046815, -41012.23242428689, 0.004, 1.016, 0.024, 192.0, 0.0, 0.0, 0.0, 0.0, 0.0, 0.0, 0.0, 0.0, 0.0, 1.695756175226293E9, 0.0, 2023-09-26 14:22:55.226
102.0, -160216.43253760727, 30659.530241433415, -49248.55968338963, -39509.971679445705, 2646.1112673415264, -13655.41829531411, -187500.02235174447, -328.10125685945235, 5689.234219698217, -33634.90505634607, -639.1928361884161, -20787.63643355804, -23835.453252250347, -21243.612020446304, -26596.944224470168, -41016.814531900236, 0.002, 1.012, 0.028, 192.0, 0.0, 8.0, 15.5, 80.0, 0.0, 112.0, 0.0, 0.0, 0.0, 1.695756175226307E9, 0.0, 2023-09-26 14:22:55.226
104.0, -160214.6667497953, 30670.527299705424, -49229.44894188034, -39488.60341174644, 2665.8925611844734, -13632.552460736331, -187500.02235174447, -328.2800708150948, 5685.7920510521, -33632.066384800244, -636.3988681315027, -20781.221482899367, -23831.51934522621, -21240.616886689295, -26595.93839596968, -41012.92532836501, 0.002, 1.012, 0.028, 192.0, 0.0, 0.0, 0.0, 0.0, 0.0, 0.0, 0.0, 0.0, 0.0, 1.695756175286399E9, 0.0, 2023-09-26 14:22:55.286
106.0, -160225.73086330068, 30666.883965359208, -49238.65786059593, -39499.57811827399, 2660.796363448663, -13646.611707998718, -187500.02235174447, -326.2013585807513, 5708.479071674236, -33632.31225398925, -626.7429145268101, -20796.06304121769, -23814.08498455107, -21225.86473534879, -26579.956898684133, -40993.70282813345, 0.002, 1.012, 0.028, 192.0, 0.0, 0.0, 0.0, 0.0, 0.0, 0.0, 0.0, 0.0, 0.0, 1.69575617528643E9, 0.0, 2023-09-26 14:22:55.286
108.0, -160192.24795010663, 30662.525375190424, -49248.85025606755, -39512.38566784688, 2662.71861347182, -13660.603900027741, -187500.02235174447, -330.93992840527636, 5701.41592042636, -33621.85163758417, -632.0849814516284, -20778.896901476015, -23834.71564468332, -21250.652819949726, -26592.049192434453, -41011.137188808585, 0.002, 1.012, 0.028, 192.0, 0.0, 0.0, 0.0, 0.0, 0.0, 0.0, 0.0, 0.0, 0.0, 1.695756175286445E9, 0.0, 2023-09-26 14:22:55.286
110.0, -160218.73476728617, 30654.38934020869, -49236.2215204503, -39504.71901949871, 2674.185058377392, -13653.160769124124, -187500.02235174447, -345.04387915657514, 5675.97963523622, -33639.4424604705, -650.7933915607205, -20793.246721416323, -23845.936220399886, -21259.414703776205, -26598.933529726688, -41021.37428776912, 0.002, 1.012, 0.028, 192.0, 0.0, 0.0, 0.0, 0.0, 0.0, 0.0, 0.0, 0.0, 0.0, 1.695756175286462E9, 0.0, 2023-09-26 14:22:55.286
112.0, -160205.72605201317, 30668.15801479316, -49231.72881981478, -39510.64223177937, 2674.810907222141, -13656.446475559054, -187500.02235174447, -329.95645164924287, 5690.3294551765275, -33649.3889867531, -642.8808740235418, -20794.07373596117, -23832.636932448975, -21259.01237237601, -26585.857759220336, -41011.91949986452, 0.002, 1.01, 0.034, 192.0, 0.0, 8.0, 15.5, 72.0, 0.5, 8.0, 0.0, 0.0, 0.0, 1.695756175286478E9, 0.0, 2023-09-26 14:22:55.286
114.0, -160224.99325573366, 30667.062779314852, -49221.64818306544, -39503.44497006476, 2669.8041164641522, -13652.065533645813, -187500.02235174447, -325.9554893917429, 5694.21865871175, -33640.15771629306, -640.3327751556367, -20790.028070214757, -23834.38036851649, -21246.87537513678, -26584.673116764203, -41007.583261440195, 0.002, 1.01, 0.034, 192.0, 0.0, 0.0, 0.0, 0.0, 0.0, 0.0, 0.0, 0.0, 0.0, 1.695756175286495E9, 0.0, 2023-09-26 14:22:55.286
116.0, -160199.02052867657, 30667.465110715046, -49227.39258139046, -39508.80938873403, 2655.2754825682027, -13658.882815704683, -187500.02235174447, -325.888434158377, 5695.425652912338, -33632.55812317826, -637.5611588431786, -20779.947433465415, -23855.43571179339, -21254.698485696135, -26603.381526873294, -41021.150770324566, 0.002, 1.01, 0.034, 192.0, 0.0, 0.0, 0.0, 0.0, 0.0, 0.0, 0.0, 0.0, 0.0, 1.695756175286511E9, 0.0, 2023-09-26 14:22:55.286
118.0, -160220.43349986477, 30671.98016309502, -49209.57824105957, -39487.91050766832, 2670.3405583310796, -13639.07917011728, -187500.02235174447, -326.3578207919384, 5704.992199539209, -33634.458021456965, -635.8847780090306, -20790.11747719258, -23850.741845457775, -21237.95702909911, -26591.78097150099, -41000.989496825874, 0.002, 1.01, 0.034, 192.0, 0.0, 0.0, 0.0, 0.0, 0.0, 0.0, 0.0, 0.0, 0.0, 1.695756175286528E9, 0.0, 2023-09-26 14:22:55.286
120.0, -160206.62012179138, 30668.336828748805, -49215.07677019558, -39495.644211249855, 2669.7594129752415, -13645.203548098034, -187500.02235174447, -315.80779740903347, 5702.108824504474, -33631.41818421104, -633.5154930967681, -20778.2039973979, -23860.688371740387, -21235.207764531107, -26592.362116856828, -41001.145959037065, 0.002, 1.01, 0.034, 192.0, 0.0, 0.0, 0.0, 0.0, 0.0, 0.0, 0.0, 0.0, 0.0, 1.695756175346728E9, 0.0, 2023-09-26 14:22:55.346
122.0, -160220.5676103315, 30652.64590414118, -49222.184624932364, -39510.53047305709, 2673.738023488286, -13654.188949369069, -187500.02235174447, -330.3140795605278, 5711.27303973115, -33635.41914646854, -634.7671907862652, -20789.93866323694, -23851.702970469352, -21241.24273553404, -26586.05892492043, -40996.07211304571, 0.002, 1.014, 0.032, 192.0, 0.0, 8.0, 15.5, 88.0, 0.5, 0.0, 0.0, 0.0, 0.0, 1.695756175346811E9, 0.0, 2023-09-26 14:22:55.346
124.0, -160209.77171775958, 30646.141546504685, -49230.74534305875, -39520.83462725099, 2675.324997344613, -13663.643737273662, -187500.02235174447, -326.5589864920362, 5684.629760340424, -33642.37053899414, -650.2569496937931, -20789.581035325653, -23870.321973600625, -21269.607099247827, -26603.06860245092, -41018.3791540121, 0.002, 1.014, 0.032, 192.0, 0.0, 0.0, 0.0, 0.0, 0.0, 0.0, 0.0, 0.0, 0.0, 1.69575617534683E9, 0.0, 2023-09-26 14:22:55.346
126.0, -160222.0204737211, 30646.990912793986, -49222.85517726603, -39514.643194036864, 2684.355102104557, -13664.806027985338, -187500.02235174447, -342.5181320331254, 5693.704568589279, -33652.71939667695, -652.290958439226, -20797.091221462637, -23863.325877586114, -21273.29513708295, -26602.107477439342, -41017.082752833696, 0.002, 1.014, 0.032, 192.0, 0.0, 0.0, 0.0, 0.0, 0.0, 0.0, 0.0, 0.0, 0.0, 1.695756175346846E9, 0.0, 2023-09-26 14:22:55.346
128.0, -160222.7133777992, 30650.54484016238, -49226.811436034615, -39521.371069117915, 2676.844915967574, -13672.137400166679, -187500.02235174447, -341.1323238768964, 5705.305123961583, -33664.655228216085, -647.0159467477736, -20805.607236100106, -23864.935203186895, -21263.102741611332, -26603.11330593983, -41018.66972669002, 0.002, 1.014, 0.032, 192.0, 0.0, 0.0, 0.0, 0.0, 0.0, 0.0, 0.0, 0.0, 0.0, 1.695756175346862E9, 0.0, 2023-09-26 14:22:55.346
130.0, -160210.59873230444, 30645.716863360034, -49223.97276448879, -39514.598490547956, 2671.81577346513, -13665.007193685437, -187500.02235174447, -338.9418529202763, 5688.69777783129, -33649.836021642215, -650.5028188828014, -20798.566436596684, -23869.025572422215, -21269.294174825453, -26606.287253652485, -41019.943776123975, 0.002, 1.014, 0.032, 192.0, 0.0, 0.0, 0.0, 0.0, 0.0, 0.0, 0.0, 0.0, 0.0, 1.695756175346879E9, 0.0, 2023-09-26 14:22:55.346
132.0, -160216.11961318488, 30646.67798837161, -49226.72202905679, -39512.408019591334, 2668.4406600523785, -13660.290975605367, -187500.02235174447, -326.6036899809468, 5702.086472760019, -33656.049806600786, -654.2802636957483, -20802.098012220624, -23874.010011435752, -21256.285459552462, -26603.292119895475, -41010.80191264176, 0.002, 1.014, 0.032, 192.0, 0.0, 0.0, 15.5, 88.0, 0.0, 112.0, 0.0, 0.0, 0.0, 1.695756175346896E9, 0.0, 2023-09-26 14:22:55.346
134.0, -160190.4598105502, 30643.414633681135, -49230.253604680736, -39518.17476966081, 2657.868284925018, -13663.75549599594, -187500.02235174447, -335.94671916326513, 5680.919370760843, -33639.71068140396, -650.8604467940863, -20783.322546878167, -23885.901139485974, -21265.024991634487, -26617.016090991034, -41022.89420639208, 0.002, 1.014, 0.032, 192.0, 0.0, 0.0, 0.0, 0.0, 0.0, 0.0, 0.0, 0.0, 0.0, 1.695756175405643E9, 0.0, 2023-09-26 14:22:55.405
136.0, -160220.8581830094, 30654.121119275227, -49221.0670377096, -39510.10578991244, 2669.580599019599, -13654.457170302532, -187500.02235174447, -336.03612614108636, 5691.044710999097, -33661.146004336595, -650.6592810939886, -20801.87449477607, -23881.520197572732, -21260.59934623234, -26616.144372957275, -41017.59684295617, 0.002, 1.014, 0.032, 192.0, 0.0, 0.0, 0.0, 0.0, 0.0, 0.0, 0.0, 0.0, 0.0, 1.695756175405684E9, 0.0, 2023-09-26 14:22:55.405
138.0, -160217.4607178522, 30659.373779222227, -49211.701656782825, -39504.741371243166, 2673.738023488286, -13653.2725278464, -187500.02235174447, -339.2994808315612, 5708.8814030744325, -33636.91671334705, -636.063591964673, -20793.06790746068, -23875.97696494782, -21258.49828225354, -26605.259073407542, -41007.94088935148, 0.002, 1.014, 0.032, 192.0, 0.0, 0.0, 0.0, 0.0, 0.0, 0.0, 0.0, 0.0, 0.0, 1.6957561754057E9, 0.0, 2023-09-26 14:22:55.405
140.0, -160260.44312243976, 30661.854822856763, -49206.51605206919, -39500.472188052205, 2684.220991637825, -13653.093713890757, -187500.02235174447, -337.9583761642428, 5712.3459234650045, -33645.05274832878, -632.2190919183603, -20808.35650066811, -23866.075142154117, -21259.1688345872, -26601.526332083504, -41006.26450851733, 0.002, 1.014, 0.032, 192.0, 0.0, 0.0, 0.0, 0.0, 0.0, 0.0, 0.0, 0.0, 0.0, 1.695756175405717E9, 0.0, 2023-09-26 14:22:55.405
142.0, -160227.94368600176, 30657.049197798875, -49220.865872009505, -39515.716077770725, 2674.0509479106604, -13672.673842033606, -187500.02235174447, -344.1051058894522, 5700.678312859334, -33627.30546323126, -630.0956761951061, -20789.581035325653, -23871.461912567844, -21261.87339566629, -26608.07539320891, -41014.95933711044, -0.002, 1.016, 0.026000000000000002, 192.0, 127.5, 120.0, 15.5, 96.0, 0.0, 104.0, 0.0, 0.0, 0.0, 1.695756175405735E9, 0.0, 2023-09-26 14:22:55.405
144.0, -160242.29350594207, 30650.433081440104, -49219.92709874238, -39520.70051678426, 2676.5543432896548, -13679.55817932584, -187500.02235174447, -347.65903325784603, 5705.595696639502, -33656.38508276762, -636.5776820871451, -20803.282654676754, -23871.953650945863, -21273.518654527506, -26611.1822856882, -41020.0331831018, -0.002, 1.016, 0.026000000000000002, 192.0, 0.0, 0.0, 0.0, 0.0, 0.0, 0.0, 0.0, 0.0, 0.0, 1.695756175405829E9, 0.0, 2023-09-26 14:22:55.405
146.0, -160206.35190085793, 30649.96369480654, -49225.269165667196, -39532.569293090026, 2670.7875932201855, -13685.883723006693, -187500.02235174447, -356.1303444064074, 5706.959153051276, -33646.63972218511, -635.2365774198267, -20792.1067824491, -23872.04305792368, -21285.007451177535, -26615.853800279358, -41027.20809307195, -0.002, 1.016, 0.026000000000000002, 192.0, 0.0, 0.0, 0.0, 0.0, 0.0, 0.0, 0.0, 0.0, 0.0, 1.695756175405846E9, 0.0, 2023-09-26 14:22:55.405
148.0, -160217.72893878567, 30637.96080803404, -49219.5694708311, -39527.517798843124, 2671.5922560205768, -13676.652452546652, -187500.02235174447, -356.2868066175946, 5689.502440631681, -33659.49197524691, -648.9605485153853, -20806.031919244757, -23880.179092905415, -21296.60800654984, -26626.068547495433, -41032.72897395241, -0.002, 1.016, 0.026000000000000002, 192.0, 0.0, 0.0, 0.0, 0.0, 0.0, 0.0, 0.0, 0.0, 0.0, 1.695756175405864E9, 0.0, 2023-09-26 14:22:55.405
150.0, -160205.50253456863, 30650.321322717828, -49219.54711908664, -39522.131028429394, 2673.3580438325457, -13672.204455400046, -187500.02235174447, -339.16537036482936, 5707.830871085032, -33658.88847814661, -632.2190919183603, -20804.668462832986, -23860.241336851283, -21262.745113700046, -26604.0297274625, -41006.46567421743, -0.002, 1.016, 0.026000000000000002, 192.0, 0.0, 0.0, 0.0, 0.0, 0.0, 0.0, 0.0, 0.0, 0.0, 1.695756175465953E9, 0.0, 2023-09-26 14:22:55.465
152.0, -160219.94176148676, 30649.606066895256, -49221.156444687425, -39519.11354292793, 2667.7254042298086, -13666.862388475227, -187500.02235174447, -343.0098704111422, 5719.319667735061, -33659.58138222473, -647.12770547005, -20810.412861157998, -23867.997392177273, -21280.73826798657, -26623.855724794357, -41022.55893022525, -0.002, 1.016, 0.026000000000000002, 192.0, 0.0, 0.0, 15.5, 88.0, 0.0, 96.0, 0.0, 0.0, 0.0, 1.695756175465975E9, 0.0, 2023-09-26 14:22:55.465
154.0, -160198.28292110955, 30657.004494309964, -49223.34691564404, -39522.22043540722, 2668.2394943522804, -13670.081039676792, -187500.02235174447, -333.5103790176367, 5701.147699492896, -33653.47935598843, -634.677783808444, -20802.16506745399, -23857.559127516644, -21259.660572965215, -26612.143410699777, -41011.45011323096, -0.002, 1.016, 0.026000000000000002, 192.0, 0.0, 0.0, 0.0, 0.0, 0.0, 0.0, 0.0, 0.0, 0.0, 1.695756175465985E9, 0.0, 2023-09-26 14:22:55.465
156.0, -160224.30035165555, 30655.283409986903, -49211.992229460746, -39513.5256068141, 2668.418308307923, -13667.644699531163, -187500.02235174447, -338.7183354757232, 5705.215716983762, -33667.62801022864, -638.2540629212932, -20814.994968771338, -23863.795264219676, -21272.78104696048, -26619.430079392205, -41021.68721219149, -0.002, 1.016, 0.026000000000000002, 192.0, 0.0, 0.0, 0.0, 0.0, 0.0, 0.0, 0.0, 0.0, 0.0, 1.695756175465994E9, 0.0, 2023-09-26 14:22:55.465
158.0, -160204.89903746833, 30659.30672398886, -49218.78715977516, -39522.30984238504, 2664.484401283789, -13672.807952500338, -187500.02235174447, -337.6901552307791, 5700.611257625968, -33658.66496070206, -625.7817895152318, -20800.57809359766, -23866.946860187873, -21269.540044014462, -26613.685681067192, -41020.90490113555, -0.002, 1.016, 0.026000000000000002, 192.0, 0.0, 0.0, 0.0, 0.0, 0.0, 0.0, 0.0, 0.0, 0.0, 1.695756175466003E9, 0.0, 2023-09-26 14:22:55.466
160.0, -160241.10886348592, 30660.558421678357, -49201.97864794477, -39500.449836307744, 2684.891543971484, -13642.901318419137, -187500.02235174447, -330.55994874953615, 5684.920333018343, -33659.22375431344, -627.9499087273966, -20807.73065182336, -23860.084874640095, -21265.449674779138, -26605.773163530015, -41012.65710743154, -0.002, 1.016, 0.026000000000000002, 192.0, 0.0, 0.0, 0.0, 0.0, 0.0, 0.0, 0.0, 0.0, 0.0, 1.695756175466012E9, 0.0, 2023-09-26 14:22:55.466
162.0, -160216.11961318488, 30665.945192092087, -49224.419799377894, -39518.085362682985, 2676.5319915451996, -13656.669993003607, -187500.02235174447, -318.3558962769385, 5694.2633622006615, -33649.344283264196, -616.3270016106369, -20794.02903247226, -23857.760293216743, -21258.945317142647, -26595.55841631394, -41003.671706160516, -0.002, 1.014, 0.026000000000000002, 192.0, 127.5, 120.0, 15.5, 88.0, 0.0, 104.0, 0.0, 0.0, 0.0, 1.695756175466021E9, 0.0, 2023-09-26 14:22:55.466
164.0, -160217.8183457635, 30656.579811165313, -49234.20986344932, -39522.86863599642, 2658.4047267919454, -13668.158789653635, -187500.02235174447, -331.61048073893556, 5686.753176063678, -33648.003178596875, -630.6097663175782, -20794.051384216713, -23875.172302147424, -21266.321392812897, -26612.12105895532, -41020.39081101308, -0.002, 1.014, 0.026000000000000002, 192.0, 0.0, 0.0, 0.0, 0.0, 0.0, 0.0, 0.0, 0.0, 0.0, 1.695756175526293E9, 0.0, 2023-09-26 14:22:55.526
166.0, -160202.55210430053, 30663.464148457548, -49230.7676948032, -39518.33123187199, 2659.2764448257026, -13670.997461199458, -187500.02235174447, -331.27520457210596, 5682.953379506276, -33651.579457709726, -629.8498070060978, -20786.988232968837, -23875.73109575881, -21269.852968436833, -26619.65359683676, -41025.50936049335, -0.002, 1.014, 0.026000000000000002, 192.0, 0.0, 0.0, 0.0, 0.0, 0.0, 0.0, 0.0, 0.0, 0.0, 1.69575617552635E9, 0.0, 2023-09-26 14:22:55.526
168.0, -160234.1127674714, 30666.503985703468, -49205.51022356871, -39492.58202225948, 2674.475631055311, -13652.579623768286, -187500.02235174447, -340.0594401430416, 5706.400359439893, -33651.937085621015, -626.6088040600782, -20792.486762104843, -23866.365714832034, -21262.365134044307, -26612.948073500167, -41016.07692433321, -0.002, 1.014, 0.026000000000000002, 192.0, 0.0, 0.0, 0.0, 0.0, 0.0, 0.0, 0.0, 0.0, 0.0, 1.69575617552636E9, 0.0, 2023-09-26 14:22:55.526
170.0, -160236.68321808378, 30675.757607907966, -49210.69582828234, -39494.39251356036, 2674.6991484998644, -13654.479522046986, -187500.02235174447, -319.24996605515076, 5734.51885396467, -33651.288885031805, -607.5874695286119, -20795.571302839675, -23844.326894799102, -21244.215517546596, -26589.41168658873, -40992.607592655135, -0.002, 1.014, 0.026000000000000002, 192.0, 0.0, 0.0, 0.0, 0.0, 0.0, 0.0, 0.0, 0.0, 0.0, 1.69575617552637E9, 0.0, 2023-09-26 14:22:55.526
172.0, -160218.62300856388, 30667.35335199277, -49225.67149706739, -39510.262252123626, 2660.19286634837, -13663.487275062476, -187500.02235174447, -325.0390678690753, 5709.060217030074, -33631.75346037787, -619.3668388565587, -20779.701564276405, -23868.243261366282, -21263.43801777816, -26608.231855420097, -41009.59491844117, -0.002, 1.014, 0.026000000000000002, 192.0, 0.0, 0.0, 15.5, 88.0, 0.0, 96.0, 0.0, 0.0, 0.0, 1.695756175526378E9, 0.0, 2023-09-26 14:22:55.526
174.0, -160206.75423225813, 30658.79263386639, -49232.041744237154, -39520.07466793951, 2662.808020449641, -13673.344394367266, -187500.02235174447, -330.4705417717149, 5704.411054183371, -33647.84671638569, -631.5708913291563, -20783.031974200247, -23876.40164809247, -21270.70233472614, -26615.49617236807, -41020.52492147982, -0.002, 1.014, 0.026000000000000002, 192.0, 0.0, 0.0, 0.0, 0.0, 0.0, 0.0, 0.0, 0.0, 0.0, 1.695756175526388E9, 0.0, 2023-09-26 14:22:55.526
176.0, -160213.30329338353, 30657.205660010062, -49222.40814237692, -39515.60431904845, 2674.9673694333283, -13673.2773391339, -187500.02235174447, -353.1352106493963, 5710.1107490194745, -33649.053710586275, -633.6943070524105, -20787.81524751368, -23870.21021487835, -21265.49437826805, -26612.009300233043, -41022.938909880984, -0.002, 1.014, 0.026000000000000002, 192.0, 0.0, 0.0, 0.0, 0.0, 0.0, 0.0, 0.0, 0.0, 0.0, 1.695756175526397E9, 0.0, 2023-09-26 14:22:55.526
178.0, -160204.20613339022, 30651.97535180752, -49229.471293624796, -39525.81906626452, 2670.228799608803, -13688.051842218858, -187500.02235174447, -347.36846057992705, 5702.913487304865, -33660.16252758056, -639.8633885220753, -20793.894922005526, -23874.702915513866, -21279.10659064133, -26615.116192712332, -41033.77950594181, -0.002, 1.014, 0.026000000000000002, 192.0, 0.0, 0.0, 0.0, 0.0, 0.0, 0.0, 0.0, 0.0, 0.0, 1.695756175526406E9, 0.0, 2023-09-26 14:22:55.526
180.0, -160217.6618835523, 30655.6857413871, -49203.878546223474, -39501.74623748616, 2693.9216487314284, -13663.12964715119, -187500.02235174447, -348.9330826917986, 5713.642324643412, -33652.7417484214, -634.3425076416145, -20789.91631149248, -23868.846758466574, -21279.240701108065, -26609.416497876227, -41026.939872138486, -0.002, 1.014, 0.026000000000000002, 192.0, 0.0, 0.0, 0.0, 0.0, 0.0, 0.0, 0.0, 0.0, 0.0, 1.695756175586632E9, 0.0, 2023-09-26 14:22:55.586
182.0, -160238.06902624, 30664.44762521358, -49200.50343281072, -39497.96879267321, 2692.1782126639146, -13659.151036638146, -187500.02235174447, -334.62796624040203, 5723.030057314641, -33653.56876296625, -625.8264930041424, -20801.338052909145, -23854.16166235944, -21254.67613395168, -26588.472913321606, -41002.598822426655, -0.002, 1.018, 0.02, 192.0, 127.5, 120.0, 15.5, 104.0, 0.0, 80.0, 0.0, 0.0, 0.0, 1.695756175586657E9, 0.0, 2023-09-26 14:22:55.586
184.0, -160218.0195114636, 30664.268811257938, -49202.24686887823, -39502.372086330906, 2684.5339160601993, -13660.715658750018, -187500.02235174447, -336.7290302192009, 5712.681199631835, -33633.92157959003, -623.7254290253436, -20781.154427666002, -23864.890499697984, -21250.138729827253, -26593.569111057415, -41006.510377706334, -0.002, 1.018, 0.02, 192.0, 0.0, 0.0, 0.0, 0.0, 0.0, 0.0, 0.0, 0.0, 0.0, 1.695756175586668E9, 0.0, 2023-09-26 14:22:55.586
186.0, -160242.829947809, 30666.995724081484, -49198.3129618541, -39497.38764731737, 2686.031482938705, -13647.773998710394, -187500.02235174447, -323.8097219240334, 5720.280792746639, -33651.35594026517, -625.5359203262235, -20792.82203827167, -23859.95076417336, -21239.409892488708, -26593.74792501306, -40997.68143864649, -0.002, 1.018, 0.02, 192.0, 0.0, 0.0, 0.0, 0.0, 0.0, 0.0, 0.0, 0.0, 0.0, 1.695756175586677E9, 0.0, 2023-09-26 14:22:55.586
188.0, -160215.65022655134, 30667.465110715046, -49214.83090100657, -39510.955156201744, 2670.318206586624, -13657.139379637169, -187500.02235174447, -322.2227480677066, 5714.312876977072, -33637.65432091407, -620.7079435238771, -20776.751134008307, -23870.791360234187, -21253.603250217828, -26604.40970711824, -41000.229537514395, -0.002, 1.018, 0.02, 192.0, 0.0, 0.0, 0.0, 0.0, 0.0, 0.0, 0.0, 0.0, 0.0, 1.695756175586749E9, 0.0, 2023-09-26 14:22:55.586
190.0, -160232.07875872598, 30666.30282000337, -49211.47813933827, -39504.875481709896, 2670.519372286722, -13653.965431924515, -187500.02235174447, -325.9107859028323, 5714.402283954893, -33648.76313790836, -634.6107285750782, -20793.894922005526, -23883.10717142906, -21258.67709620918, -26616.613759590837, -41006.242156772874, -0.002, 1.018, 0.02, 192.0, 0.0, 0.0, 0.0, 0.0, 0.0, 0.0, 0.0, 0.0, 0.0, 1.695756175586759E9, 0.0, 2023-09-26 14:22:55.586
192.0, -160219.62883706437, 30667.442758970592, -49200.0116944327, -39492.53731877057, 2682.656369525954, -13642.811911441317, -187500.02235174447, -317.86415789892175, 5702.488804160214, -33626.36668996414, -628.8216267611535, -20779.38863985403, -23882.90600572896, -21263.08038986688, -26616.524352613014, -41003.98463058289, -0.002, 1.018, 0.02, 192.0, 0.0, 0.0, 15.5, 120.0, 0.0, 96.0, 0.0, 0.0, 0.0, 1.695756175586768E9, 0.0, 2023-09-26 14:22:55.586
194.0, -160240.34890417443, 30663.128872290716, -49197.55300254262, -39489.564536758015, 2689.2724858847246, -13646.36583880971, -187500.02235174447, -308.565832205514, 5711.138929264418, -33642.57170469424, -626.0500104486955, -20793.559645838697, -23866.388066576492, -21242.785005901456, -26601.30281463895, -40986.3714559521, -0.002, 1.018, 0.02, 192.0, 0.0, 0.0, 0.0, 0.0, 0.0, 0.0, 0.0, 0.0, 0.0, 1.695756175646732E9, 0.0, 2023-09-26 14:22:55.646
196.0, -160241.7123605862, 30659.39613096668, -49192.97089492928, -39491.08445538097, 2698.5931633225878, -13652.423161557099, -187500.02235174447, -320.8816434003882, 5698.465490158259, -33638.21311452545, -629.3133651391704, -20782.11555267758, -23861.425979307412, -21253.804415917926, -26603.895616995767, -40994.82041535621, -0.002, 1.018, 0.02, 192.0, 0.0, 0.0, 0.0, 0.0, 0.0, 0.0, 0.0, 0.0, 0.0, 1.695756175646775E9, 0.0, 2023-09-26 14:22:55.646
198.0, -160273.36243073494, 30653.83054659731, -49198.9611624433, -39508.11648465592, 2697.922610988928, -13669.142266409668, -187500.02235174447, -326.17900683629597, 5722.001877069697, -33662.57651598174, -629.6933447949106, -20807.462430889896, -23859.928412428908, -21260.666401465704, -26597.12303842581, -40998.35199098015, -0.002, 1.018, 0.02, 192.0, 0.0, 0.0, 0.0, 0.0, 0.0, 0.0, 0.0, 0.0, 0.0, 1.695756175646792E9, 0.0, 2023-09-26 14:22:55.646
200.0, -160253.24586072515, 30655.39516870918, -49203.83384273456, -39517.99595570516, 2690.0771486851154, -13678.462943847531, -187500.02235174447, -338.9642046647316, 5709.529603663636, -33649.03135884182, -630.1403796840167, -20790.36334638159, -23870.858415467552, -21285.409782577728, -26615.540875856983, -41021.44134300248, -0.002, 1.018, 0.02, 192.0, 0.0, 0.0, 0.0, 0.0, 0.0, 0.0, 0.0, 0.0, 0.0, 1.695756175646809E9, 0.0, 2023-09-26 14:22:55.646
202.0, -160281.09613431647, 30652.98118030801, -49196.79304323114, -39511.87157772441, 2689.183078906903, -13676.004251957447, -187500.02235174447, -344.9097686898433, 5706.5344699066245, -33660.14017583611, -625.2900511372151, -20808.557666368208, -23859.637839750987, -21272.177549860186, -26613.21629443363, -41016.25573828885, -0.002, 1.016, 0.026000000000000002, 192.0, 127.5, 120.0, 15.5, 96.0, 0.0, 104.0, 0.0, 0.0, 0.0, 1.695756175646827E9, 0.0, 2023-09-26 14:22:55.646
204.0, -160269.78615162207, 30667.509814203957, -49195.34017984154, -39508.96585094522, 2684.7797852492076, -13675.825438001804, -187500.02235174447, -345.33445183449413, 5713.955249065787, -33651.288885031805, -615.2764696212375, -20792.17383768247, -23858.4308455504, -21266.20963409062, -26613.372756644818, -41013.28295627629, -0.002, 1.016, 0.026000000000000002, 192.0, 0.0, 0.0, 0.0, 0.0, 0.0, 0.0, 0.0, 0.0, 0.0, 1.695756175646844E9, 0.0, 2023-09-26 14:22:55.646
206.0, -160297.50231474667, 30669.543822949392, -49189.37226407198, -39498.84051070696, 2680.5106020582443, -13662.861426217727, -187500.02235174447, -344.0827541449969, 5706.825042584544, -33655.66982694505, -617.5339958112236, -20798.857009274605, -23863.705857241854, -21262.231023577577, -26614.82562003441, -41006.9797643399, -0.002, 1.016, 0.026000000000000002, 192.0, 0.0, 0.0, 0.0, 0.0, 0.0, 0.0, 0.0, 0.0, 0.0, 1.695756175646861E9, 0.0, 2023-09-26 14:22:55.646
208.0, -160261.11367477343, 30671.376665994725, -49207.63363929196, -39513.03386843608, 2663.165648360926, -13669.879873976693, -187500.02235174447, -328.57064349301385, 5716.235127000228, -33646.41620474055, -615.0529521766845, -20785.334203879145, -23871.461912567844, -21262.968631144602, -26614.736213056593, -41003.6270026716, -0.002, 1.016, 0.026000000000000002, 192.0, 0.0, 0.0, 0.0, 0.0, 0.0, 0.0, 0.0, 0.0, 0.0, 1.695756175646878E9, 0.0, 2023-09-26 14:22:55.646
210.0, -160291.333233277, 30669.096788060284, -49191.49567979523, -39494.325458326995, 2683.259866626247, -13648.824530699794, -187500.02235174447, -327.07307661450824, 5703.740501849711, -33653.3452455217, -628.2628331497709, -20794.87839876156, -23878.4356568379, -21267.506035269027, -26619.675948581214, -41001.905918348544, -0.002, 1.016, 0.026000000000000002, 192.0, 0.0, 0.0, 0.0, 0.0, 0.0, 0.0, 0.0, 0.0, 0.0, 1.695756175705666E9, 0.0, 2023-09-26 14:22:55.705
212.0, -160270.2778900001, 30662.92770659062, -49211.12051142699, -39514.173807403306, 2674.5650380331326, -13667.957623953536, -187500.02235174447, -327.2965940590613, 5714.402283954893, -33645.43272798452, -621.9149377244637, -20790.519808592773, -23876.222834136825, -21256.82190141939, -26614.69150956768, -41001.39182822607, -0.002, 1.012, 0.028, 192.0, 127.5, 120.0, 15.5, 80.0, 0.0, 112.0, 0.0, 0.0, 0.0, 1.695756175705707E9, 0.0, 2023-09-26 14:22:55.705
214.0, -160275.77641913612, 30655.104596031262, -49210.98640096026, -39514.91141497033, 2678.454241568356, -13675.668975790619, -187500.02235174447, -347.1672948798293, 5694.553934878581, -33641.96820759394, -639.5057606107904, -20795.616006328586, -23893.746601789786, -21281.386468575773, -26631.924704542722, -41019.40733425705, -0.002, 1.012, 0.028, 192.0, 0.0, 0.0, 0.0, 0.0, 0.0, 0.0, 0.0, 0.0, 0.0, 1.695756175705726E9, 0.0, 2023-09-26 14:22:55.705
216.0, -160267.75214287665, 30658.97144782203, -49213.82507250608, -39514.55378705905, 2676.0179014227274, -13681.905112493649, -187500.02235174447, -346.9214256908209, 5691.536449377114, -33654.574591466735, -638.097600710106, -20797.985291240846, -23882.77189526223, -21270.63527949277, -26624.25805619455, -41013.21590104293, -0.002, 1.012, 0.028, 192.0, 0.0, 0.0, 0.0, 0.0, 0.0, 0.0, 0.0, 0.0, 0.0, 1.695756175705742E9, 0.0, 2023-09-26 14:22:55.705
218.0, -160286.75112566366, 30661.5866019233, -49203.386807845454, -39505.34486834346, 2683.706901515353, -13673.143228667168, -187500.02235174447, -360.08660317499675, 5692.899905788888, -33659.402568269084, -646.7477258143099, -20801.472163375875, -23884.02359295173, -21278.436038307675, -26632.41644292074, -41015.182854554994, -0.002, 1.012, 0.028, 192.0, 0.0, 0.0, 0.0, 0.0, 0.0, 0.0, 0.0, 0.0, 0.0, 1.69575617570576E9, 0.0, 2023-09-26 14:22:55.705
220.0, -160280.15736104935, 30667.39805548168, -49213.44509285034, -39515.492560326165, 2663.724441972309, -13683.670900305618, -187500.02235174447, -349.7153937477343, 5701.505327404181, -33662.91179214857, -634.7224872973546, -20805.763698311293, -23883.33068887361, -21272.78104696048, -26628.862515552344, -41011.24894753086, -0.002, 1.012, 0.028, 192.0, 0.0, 0.0, 0.0, 0.0, 0.0, 0.0, 0.0, 0.0, 0.0, 1.69575617570578E9, 0.0, 2023-09-26 14:22:55.705
222.0, -160277.92218660383, 30665.11817754724, -49206.13607241346, -39511.71511551322, 2665.66904373992, -13679.535827581387, -187500.02235174447, -356.80089674006666, 5700.588905881514, -33652.51823097685, -635.1918739309161, -20800.064003475192, -23889.29860464318, -21287.73436400108, -26636.573867389427, -41018.53561622329, -0.004, 1.008, 0.024, 192.0, 127.5, 112.0, 15.5, 64.0, 0.0, 96.0, 0.0, 0.0, 0.0, 1.6957561757058E9, 0.0, 2023-09-26 14:22:55.705
224.0, -160290.6850326878, 30676.562270708357, -49193.48498505175, -39503.467321809214, 2674.4309275664004, -13674.23846414548, -187500.02235174447, -345.9155971903321, 5697.7278825912335, -33662.77768168184, -627.100542438095, -20804.73551806635, -23875.35111610307, -21271.73051497108, -26625.956788773157, -41007.31504050673, -0.004, 1.008, 0.024, 192.0, 0.0, 0.0, 0.0, 0.0, 0.0, 0.0, 0.0, 0.0, 0.0, 1.695756175766024E9, 0.0, 2023-09-26 14:22:55.766
226.0, -160280.51498896064, 30676.338753263804, -49194.89314495244, -39504.6743160098, 2670.161744375437, -13673.478504833998, -187500.02235174447, -355.3927368393823, 5695.179783723329, -33642.72816690543, -625.0441819482068, -20790.25158765931, -23887.86809299804, -21275.552663272938, -26628.951922530166, -41011.74068590888, -0.004, 1.008, 0.024, 192.0, 0.0, 0.0, 0.0, 0.0, 0.0, 0.0, 0.0, 0.0, 0.0, 1.695756175766073E9, 0.0, 2023-09-26 14:22:55.766
228.0, -160316.65775974488, 30679.333887020814, -49182.21970584628, -39487.01643789011, 2686.2997038721687, -13655.217129614011, -187500.02235174447, -344.46273380073717, 5724.2594032596835, -33651.73591992092, -622.7866557582207, -20802.0086052428, -23874.255880624758, -21255.346686285342, -26617.30666366895, -40994.9768775674, -0.004, 1.008, 0.024, 192.0, 0.0, 0.0, 0.0, 0.0, 0.0, 0.0, 0.0, 0.0, 0.0, 1.69575617576609E9, 0.0, 2023-09-26 14:22:55.766
230.0, -160298.46343975826, 30671.622535183735, -49202.336275856054, -39504.83077822099, 2668.7982879636634, -13674.75255426795, -187500.02235174447, -351.7046990042566, 5726.94161259432, -33633.049861556276, -621.1996819018939, -20792.59852082712, -23871.976002690317, -21251.032799605466, -26618.915989269735, -40995.73683687888, -0.004, 1.008, 0.024, 192.0, 0.0, 0.0, 0.0, 0.0, 0.0, 0.0, 0.0, 0.0, 0.0, 1.695756175766143E9, 0.0, 2023-09-26 14:22:55.766
232.0, -160302.59851248248, 30664.179404280116, -49203.7667875012, -39511.11161841293, 2666.071375140116, -13687.202475929556, -187500.02235174447, -366.7697747671336, 5689.502440631681, -33651.46769898745, -637.4270483764468, -20801.248645931322, -23891.310261644157, -21278.63720400777, -26637.84791682338, -41016.76982841132, -0.004, 1.008, 0.024, 192.0, 0.0, 0.0, 15.5, 72.0, 0.0, 112.0, 0.0, 0.0, 0.0, 1.695756175766155E9, 0.0, 2023-09-26 14:22:55.766
234.0, -160288.36045126445, 30669.052084571373, -49195.58604903055, -39502.52854854209, 2675.0567764111493, -13669.410487343132, -187500.02235174447, -358.9690159522314, 5695.425652912338, -33643.77869889483, -634.2978041527039, -20792.665576060484, -23889.54447383219, -21278.413686563217, -26636.529163900515, -41017.39567725607, -0.004, 1.008, 0.024, 192.0, 0.0, 0.0, 0.0, 0.0, 0.0, 0.0, 0.0, 0.0, 0.0, 1.695756175766167E9, 0.0, 2023-09-26 14:22:55.766
236.0, -160293.05431760006, 30668.135663048706, -49200.14580489943, -39504.651964265344, 2672.3745670765124, -13669.388135598676, -187500.02235174447, -332.75041970615626, 5701.281809959628, -33656.049806600786, -628.419295360958, -20804.623759344075, -23884.001241207272, -21273.29513708295, -26625.420346906227, -41000.40835147004, -0.004, 1.008, 0.024, 192.0, 0.0, 0.0, 0.0, 0.0, 0.0, 0.0, 0.0, 0.0, 0.0, 1.695756175766176E9, 0.0, 2023-09-26 14:22:55.766
238.0, -160265.2263957532, 30670.21437528305, -49203.23034563426, -39507.468284066716, 2659.388203547979, -13677.926501980604, -187500.02235174447, -337.3548790639495, 5693.45869940027, -33638.48133545892, -623.2560423917821, -20787.189398668936, -23891.846703511084, -21279.12894238579, -26635.545687144484, -41009.661973674534, -0.004, 1.008, 0.024, 192.0, 0.0, 0.0, 0.0, 0.0, 0.0, 0.0, 0.0, 0.0, 0.0, 1.695756175766185E9, 0.0, 2023-09-26 14:22:55.766
240.0, -160284.47124772923, 30672.829529384322, -49193.10500539601, -39500.539243285566, 2667.591293763077, -13673.813781000827, -187500.02235174447, -339.74651572066733, 5702.220583226751, -33655.8933443896, -629.939213983919, -20802.232122687357, -23893.81365702315, -21276.2232156066, -26637.04325402299, -41010.243119030376, -0.004, 1.008, 0.024, 192.0, 0.0, 0.0, 0.0, 0.0, 0.0, 0.0, 0.0, 0.0, 0.0, 1.695756175828694E9, 0.0, 2023-09-26 14:22:55.828
242.0, -160272.13308478988, 30675.77995965242, -49185.6618744924, -39496.8735571949, 2676.9119712009397, -13669.946929210058, -187500.02235174447, -345.5356175345919, 5713.709379876778, -33638.771908136834, -620.7302952683324, -20789.804552770205, -23887.376354620024, -21271.618756248805, -26630.47184115313, -41005.70571490595, -0.004, 1.008, 0.024, 192.0, 0.0, 0.0, 15.5, 72.0, 0.0, 104.0, 0.0, 0.0, 0.0, 1.695756175828726E9, 0.0, 2023-09-26 14:22:55.828
244.0, -160316.27778008912, 30672.673067173135, -49180.34215931203, -39493.833719948976, 2681.2705613697244, -13672.27151063341, -187500.02235174447, -344.9321204342986, 5724.617031170968, -33661.74950143689, -618.6292312895335, -20815.64316936054, -23873.585328291098, -21262.83452067787, -26615.31735841243, -40992.406426955036, -0.004, 1.008, 0.024, 192.0, 0.0, 0.0, 0.0, 0.0, 0.0, 0.0, 0.0, 0.0, 0.0, 1.695756175828736E9, 0.0, 2023-09-26 14:22:55.828
246.0, -160287.60049195297, 30670.30378226087, -49187.807641960106, -39502.12621714189, 2672.8886571989847, -13680.116972937223, -187500.02235174447, -341.4452482992707, 5716.011609555675, -33644.315140761755, -615.5670422991565, -20794.297253405723, -23882.90600572896, -21267.953070158135, -26621.866419537833, -41003.00115382685, -0.004, 1.008, 0.024, 192.0, 0.0, 0.0, 0.0, 0.0, 0.0, 0.0, 0.0, 0.0, 0.0, 1.695756175828745E9, 0.0, 2023-09-26 14:22:55.828
