%OpenBCI Raw EXG Data
%Number of channels = 16
%Sample Rate = 125 Hz
%Board = OpenBCI_GUI$BoardCytonSerialDaisy
Sample Index, EXG Channel 0, EXG Channel 1, EXG Channel 2, EXG Channel 3, EXG Channel 4, EXG Channel 5, EXG Channel 6, EXG Channel 7, EXG Channel 8, EXG Channel 9, EXG Channel 10, EXG Channel 11, EXG Channel 12, EXG Channel 13, EXG Channel 14, EXG Channel 15, Accel Channel 0, Accel Channel 1, Accel Channel 2, Other, Other, Other, Other, Other, Other, Other, Analog Channel 0, Analog Channel 1, Analog Channel 2, Timestamp, Other, Timestamp (Formatted)
208.0, 73856.35511354865, 68985.37355487031, -19113.155497688713, -14396.46803098536, 33068.176575681755, 31917.821695544924, -187500.02235174447, 26327.203372383523, 45730.23864391311, 33909.0044986015, 4707.590306710042, -1359.4554495162308, 52099.88231657533, 35756.197363876985, 22550.764387937117, -7774.7190326117325, 0.0, 0.0, 0.0, 192.0, 0.0, 0.0, 0.0, 0.0, 0.0, 0.0, 0.0, 0.0, 0.0, 1.695754473189374E9, 0.0, 2023-09-26 13:54:33.189
210.0, 73844.03930235378, 68970.37553434081, -19135.037855510458, -14416.830470184144, 33050.54104930652, 31893.234776644087, -187500.02235174447, 26304.31518606129, 45725.20950141067, 33887.56917566886, 4709.221984055279, -1364.6187024854069, 52087.722967591646, 35749.82711670722, 22540.192012809755, -7785.067890294539, 0.0, 0.0, 0.0, 192.0, 0.0, 0.0, 0.0, 0.0, 0.0, 0.0, 0.0, 0.0, 0.0, 1.695754473189394E9, 0.0, 2023-09-26 13:54:33.189
212.0, 73843.63697095358, 68970.39788608527, -19135.149614232734, -14417.009284139787, 33045.86953471536, 31886.998639941055, -187500.02235174447, 26311.087764631244, 45726.52825433353, 33884.10465527829, 4707.992638110237, -1370.3631008104207, 52087.96883678065, 35743.99331140439, 22527.809146381518, -7796.713149155754, 0.0, 0.0, 0.0, 192.0, 0.0, 0.0, 0.0, 0.0, 0.0, 0.0, 0.0, 0.0, 0.0, 1.695754473189403E9, 0.0, 2023-09-26 13:54:33.189
214.0, 73834.2268865379, 68960.25019410255, -19143.822091081394, -14423.513641776282, 33038.56051427848, 31883.69058176167, -187500.02235174447, 26297.006165624403, 45717.11816991785, 33883.14353026671, 4696.615600182486, -1374.5652287680184, 52081.88916228881, 35746.831982950214, 22519.762518377607, -7804.335094015014, 0.0, 0.0, 0.0, 192.0, 0.0, 0.0, 0.0, 0.0, 0.0, 0.0, 0.0, 0.0, 0.0, 1.695754473189412E9, 0.0, 2023-09-26 13:54:33.189
216.0, 73836.43970923897, 68968.54269129547, -19135.775463077483, -14409.94613289191, 33043.74611899211, 31888.473855075106, -187500.02235174447, 26305.25395932841, 45712.401951837775, 33895.504044950496, 4688.837193112039, -1377.8732869474038, 52076.72590931963, 35735.365538044636, 22513.302864230023, -7807.218469049749, 0.11, 1.016, 0.042, 192.0, 1.5, 56.0, 15.5, 96.0, 0.5, 40.0, 0.0, 0.0, 0.0, 1.695754473189421E9, 0.0, 2023-09-26 13:54:33.189
218.0, 73852.06357861323, 68979.56210131194, -19134.277896198975, -14413.030673626743, 33046.987121938124, 31889.010296942033, -187500.02235174447, 26290.322994032264, 45719.93448971921, 33910.032678846444, 4702.516460718687, -1363.9257984072922, 52089.68992110371, 35731.96807288743, 22522.198858523236, -7805.296219026593, 0.11, 1.016, 0.042, 192.0, 0.0, 0.0, 0.0, 0.0, 0.0, 0.0, 0.0, 0.0, 0.0, 1.695754473189451E9, 0.0, 2023-09-26 13:54:33.189
220.0, 73856.48922401539, 68982.35606936885, -19131.461576397607, -14412.360121293083, 33057.693607532216, 31899.560320324937, -187500.02235174447, 26308.83023844126, 45722.57199556494, 33910.94910036911, 4708.462024743799, -1361.9141414063147, 52089.30994144797, 35742.60750324816, 22526.624503925384, -7796.132003799917, 0.11, 1.016, 0.042, 192.0, 0.0, 0.0, 0.0, 0.0, 0.0, 0.0, 0.0, 0.0, 0.0, 1.69575447318946E9, 0.0, 2023-09-26 13:54:33.189
222.0, 73839.65836044055, 68974.22003438712, -19141.184585235667, -14415.958752150387, 33049.95990395068, 31894.285308633487, -187500.02235174447, 26301.498866259917, 45714.74888500558, 33906.03171658894, 4695.430957726355, -1373.6488072453508, 52088.41587166976, 35745.62498874962, 22522.69059690125, -7800.535297457612, 0.11, 1.016, 0.042, 192.0, 0.0, 0.0, 0.0, 0.0, 0.0, 0.0, 0.0, 0.0, 0.0, 1.69575447318948E9, 0.0, 2023-09-26 13:54:33.189
224.0, 73837.53494471729, 68975.11410416533, -19133.719102587595, -14408.157993335486, 33058.76649126608, 31898.152160424255, -187500.02235174447, 26307.667947729584, 45716.35821060636, 33898.85680661879, 4696.369730993478, -1370.966597910714, 52086.940656535706, 35745.75909921635, 22527.071538814493, -7791.169916530838, 0.11, 1.016, 0.042, 192.0, 0.0, 0.0, 0.0, 0.0, 0.0, 0.0, 0.0, 0.0, 0.0, 1.695754473189513E9, 0.0, 2023-09-26 13:54:33.189
0.0, 36963.75035807495, 34423.25108328475, -9624.616458966311, -7119.07531250421, 16528.31036189918, 15910.821069576868, -93750.01117587223, 13161.623556807466, 22861.654801565983, 16956.346268218313, 2349.950653308708, -684.2986564992257, 26047.940677158917, 17875.941738598554, 11263.84869382962, -3894.5456021482473, 0.119, 1.016, 0.047, 192.0, 2.0, 0.0, 15.5, 96.0, 0.5, 80.0, 0.0, 0.0, 0.0, 1.695754473304901E9, 0.0, 2023-09-26 13:54:33.304
2.0, 73921.01871025786, 68835.86273620877, -19266.041429763012, -14245.616107656493, 33045.73542424863, 31812.96966230508, -187500.02235174447, 26320.25197985792, 45738.03940272801, 33923.08609760834, 4697.26380077169, -1281.9619514896813, 51700.74721583691, 35882.931754938574, 22405.90273212227, -7545.837169389388, 0.119, 1.016, 0.047, 192.0, 0.0, 0.0, 0.0, 0.0, 0.0, 0.0, 0.0, 0.0, 0.0, 1.695754473364911E9, 0.0, 2023-09-26 13:54:33.364
4.0, 73925.93609403803, 68850.25725963799, -19259.917051782257, -14232.71915110578, 33055.23491564213, 31818.557598418905, -187500.02235174447, 26312.585331509752, 45725.18714966621, 33904.89177762172, 4697.777890894162, -1279.8161840219718, 51684.94453250701, 35880.7189322375, 22406.439173989198, -7548.20645430165, 0.119, 1.016, 0.047, 192.0, 0.0, 0.0, 0.0, 0.0, 0.0, 0.0, 0.0, 0.0, 0.0, 1.695754473364934E9, 0.0, 2023-09-26 13:54:33.364
6.0, 73915.92251252205, 68850.41372184918, -19274.42333393375, -14245.0126105562, 33050.719863262166, 31804.43129592315, -187500.02235174447, 26328.92445670658, 45716.157044906264, 33918.16871382818, 4690.5135739461875, -1273.5129920855752, 51678.90956150408, 35861.116452350194, 22405.276883277522, -7552.565044470435, 0.119, 1.016, 0.047, 192.0, 0.0, 0.0, 0.0, 0.0, 0.0, 0.0, 0.0, 0.0, 0.0, 1.695754473364945E9, 0.0, 2023-09-26 13:54:33.364
8.0, 73929.08769000623, 68855.1075881848, -19261.772246572047, -14230.036941771144, 33054.139680163826, 31818.132915274255, -187500.02235174447, 26318.419136812587, 45722.05790544247, 33895.481693206035, 4693.97809433676, -1272.9765502186478, 51680.16125919358, 35883.714065994514, 22407.892037378795, -7546.038335089485, 0.13, 1.018, 0.058, 192.0, 2.0, 8.0, 15.5, 104.0, 0.5, 104.0, 0.0, 0.0, 0.0, 1.695754473364955E9, 0.0, 2023-09-26 13:54:33.364
10.0, 73929.75824233989, 68851.68777128313, -19256.743104069603, -14232.71915110578, 33057.22422089866, 31826.559522933905, -187500.02235174447, 26331.517259063396, 45732.451466614184, 33931.08802212334, 4702.248239785224, -1262.7170995136619, 51695.06987274526, 35886.95506894053, 22420.319607295944, -7529.4756924481035, 0.13, 1.018, 0.058, 192.0, 0.0, 0.0, 0.0, 0.0, 0.0, 0.0, 0.0, 0.0, 0.0, 1.695754473364965E9, 0.0, 2023-09-26 13:54:33.364
12.0, 73928.46184116148, 68847.64210553671, -19255.312592424463, -14230.036941771144, 33062.27571514556, 31827.788868878946, -187500.02235174447, 26314.708747233006, 45724.9412804772, 33904.42239098816, 4697.800242638617, -1277.3351403874326, 51688.65492208659, 35873.72283622299, 22419.023206117537, -7530.950907582153, 0.13, 1.018, 0.058, 192.0, 0.0, 0.0, 0.0, 0.0, 0.0, 0.0, 0.0, 0.0, 0.0, 1.695754473364974E9, 0.0, 2023-09-26 13:54:33.364
14.0, 73921.24222770242, 68837.20384087609, -19229.831603745413, -14236.138968007443, 33044.81900272596, 31816.14361001773, -187500.02235174447, 26325.482288060462, 45722.23671939811, 33924.74012669804, 4695.0956815595255, -1276.6645880537735, 51688.92314302005, 35883.57995552778, 22413.971711870636, -7531.643811660268, 0.13, 1.018, 0.058, 192.0, 0.0, 0.0, 0.0, 0.0, 0.0, 0.0, 0.0, 0.0, 0.0, 1.695754473364984E9, 0.0, 2023-09-26 13:54:33.364
16.0, 73927.21014347198, 68850.03374219344, -19210.47499304712, -14223.57728762356, 33050.20577313969, 31828.34766249033, -187500.02235174447, 26318.82146821278, 45724.11426593236, 33904.310632265886, 4691.429995468855, -1282.6325038233406, 51677.72491904795, 35869.63246698767, 22409.00962460156, -7535.555366939947, 0.13, 1.018, 0.058, 192.0, 0.0, 0.0, 0.0, 0.0, 0.0, 0.0, 0.0, 0.0, 0.0, 1.695754473424092E9, 0.0, 2023-09-26 13:54:33.424
18.0, 73935.43558543154, 68858.54975683091, -19204.305911577452, -14216.849412542513, 33059.14647092181, 31840.19408705164, -187500.02235174447, 26333.88654397566, 45735.737173049114, 33922.415545274685, 4708.529079977165, -1262.068898924458, 51682.10586096119, 35900.544929569354, 22423.068871863947, -7516.198756241651, 0.14, 1.016, 0.058, 192.0, 2.0, 48.0, 15.5, 96.0, 0.5, 104.0, 0.0, 0.0, 0.0, 1.695754473424125E9, 0.0, 2023-09-26 13:54:33.424
20.0, 73928.01480627237, 68848.26795438146, -19207.99394941258, -14226.10303474701, 33047.36710159387, 31825.2631217555, -187500.02235174447, 26315.692223989037, 45727.087047944915, 33911.19496955812, 4706.7185886762845, -1260.6607390237737, 51676.22735216944, 35881.99298167145, 22417.100956094382, -7524.379494712293, 0.14, 1.016, 0.058, 192.0, 0.0, 0.0, 0.0, 0.0, 0.0, 0.0, 0.0, 0.0, 0.0, 1.695754473424178E9, 0.0, 2023-09-26 13:54:33.424
22.0, 73919.90112303509, 68842.16592814517, -19213.470126804128, -14234.976677295766, 33047.25534287159, 31813.0590692829, -187500.02235174447, 26320.29668334683, 45731.0433067135, 33916.58173997185, 4716.151024836424, -1260.9736634461478, 51675.95913123598, 35884.764597983914, 22415.357520026868, -7532.694343649668, 0.14, 1.016, 0.058, 192.0, 0.0, 0.0, 0.0, 0.0, 0.0, 0.0, 0.0, 0.0, 0.0, 1.695754473424195E9, 0.0, 2023-09-26 13:54:33.424
24.0, 73902.33265189322, 68831.07946289533, -19228.75872001156, -14240.966944809788, 33041.86857245786, 31805.10184825681, -187500.02235174447, 26313.881732688158, 45724.9412804772, 33911.06085909138, 4703.11995781898, -1276.9775124761477, 51666.772564264844, 35864.17864134057, 22409.00962460156, -7541.120951309318, 0.14, 1.016, 0.058, 192.0, 0.0, 0.0, 0.0, 0.0, 0.0, 0.0, 0.0, 0.0, 0.0, 1.695754473424213E9, 0.0, 2023-09-26 13:54:33.424
26.0, 73923.38799517012, 68839.3496083438, -19216.554667538963, -14223.689046345837, 33044.21550562567, 31815.562464661893, -187500.02235174447, 26317.122735634177, 45714.30185011648, 33907.23871078953, 4694.983922837248, -1274.0494339525026, 51663.79978225229, 35864.87154541869, 22405.567455955443, -7540.204529786651, 0.14, 1.016, 0.058, 192.0, 0.0, 0.0, 0.0, 0.0, 0.0, 0.0, 0.0, 0.0, 0.0, 1.695754473424227E9, 0.0, 2023-09-26 13:54:33.424
28.0, 73931.36756794066, 68850.9054602272, -19214.475955304617, -14225.901869046911, 33044.72959574814, 31815.674223384172, -187500.02235174447, 26306.9079884181, 45722.594347309394, 33903.64007993222, 4706.182146809358, -1260.616035534863, 51669.70064278849, 35868.98426639847, 22414.016415359547, -7532.716695394122, 0.14200000000000002, 1.018, 0.066, 192.0, 2.0, 56.0, 15.5, 104.0, 1.0, 8.0, 0.0, 0.0, 0.0, 1.695754473424241E9, 0.0, 2023-09-26 13:54:33.424
30.0, 73920.10228873519, 68839.41666357717, -19220.33211235191, -14240.072875031576, 33039.588694523416, 31801.86084531079, -187500.02235174447, 26311.1101163757, 45721.141483919804, 33902.36603049827, 4705.221021797779, -1262.6723960247514, 51676.65203531409, 35867.93373440907, 22413.3905665148, -7536.181215784695, 0.14200000000000002, 1.018, 0.066, 192.0, 0.0, 0.0, 0.0, 0.0, 0.0, 0.0, 0.0, 0.0, 0.0, 1.695754473424257E9, 0.0, 2023-09-26 13:54:33.424
32.0, 73914.69316657701, 68837.85204146529, -19223.528411809017, -14237.256555230208, 33042.56147653598, 31804.185426734144, -187500.02235174447, 26300.738906948438, 45715.37473385033, 33906.72462066706, 4696.347379249022, -1275.2117246641785, 51666.727860775936, 35859.84240291624, 22402.95230185417, -7546.127742067307, 0.14200000000000002, 1.018, 0.066, 192.0, 0.0, 0.0, 0.0, 0.0, 0.0, 0.0, 0.0, 0.0, 0.0, 1.695754473483996E9, 0.0, 2023-09-26 13:54:33.483
34.0, 73910.06635547476, 68847.12801541424, -19225.115385665344, -14229.254630715208, 33056.576020309454, 31815.696575128626, -187500.02235174447, 26313.434697799054, 45715.77706525053, 33913.36308877028, 4699.811899639595, -1267.3662623603657, 51667.51017183187, 35870.43712978806, 22409.300197279477, -7532.560233182935, 0.14200000000000002, 1.018, 0.066, 192.0, 0.0, 0.0, 0.0, 0.0, 0.0, 0.0, 0.0, 0.0, 0.0, 1.695754473484024E9, 0.0, 2023-09-26 13:54:33.484
36.0, 73914.55905611027, 68852.22421315005, -19216.353501838865, -14223.934915534845, 33052.373892351854, 31821.798601364924, -187500.02235174447, 26316.40747981161, 45713.787759994004, 33899.057972318886, 4694.738053648241, -1272.618922307363, 51677.12142194765, 35874.30398157883, 22404.114592565846, -7527.8887185917765, 0.14200000000000002, 1.018, 0.066, 192.0, 0.0, 0.0, 0.0, 0.0, 0.0, 0.0, 0.0, 0.0, 0.0, 1.695754473484039E9, 0.0, 2023-09-26 13:54:33.484
38.0, 73909.86518977466, 68835.43805306412, -19226.1882693992, -14232.406226683406, 33043.924932947746, 31810.086287270344, -187500.02235174447, 26308.472610529974, 45721.47676008663, 33897.8509781183, 4702.583515952053, -1264.7958117480055, 51673.343977134704, 35869.90068792113, 22409.3896042573, -7525.0723987904075, 0.14200000000000002, 1.02, 0.062, 192.0, 2.0, 56.0, 15.5, 112.0, 0.5, 120.0, 0.0, 0.0, 0.0, 1.695754473484055E9, 0.0, 2023-09-26 13:54:33.484
40.0, 73904.18784668301, 68835.12512864174, -19229.339865367398, -14236.563651152093, 33043.74611899211, 31800.76560983248, -187500.02235174447, 26304.29283431683, 45717.922832718235, 33902.276623520454, 4695.408605981899, -1267.6121315493742, 51673.32162539025, 35860.37884478317, 22396.358537239856, -7534.929518095198, 0.14200000000000002, 1.02, 0.062, 192.0, 0.0, 0.0, 0.0, 0.0, 0.0, 0.0, 0.0, 0.0, 0.0, 1.695754473484073E9, 0.0, 2023-09-26 13:54:33.484
42.0, 73907.42884962902, 68836.1980123756, -19225.785937999004, -14239.737598864747, 33042.047386413506, 31797.9045865422, -187500.02235174447, 26301.945901149025, 45729.41162936827, 33891.12310303725, 4706.271553787178, -1267.4780210826423, 51660.55877930627, 35862.323446550785, 22398.839580874395, -7540.986840842586, 0.14200000000000002, 1.02, 0.062, 192.0, 0.0, 0.0, 0.0, 0.0, 0.0, 0.0, 0.0, 0.0, 0.0, 1.69575447348413E9, 0.0, 2023-09-26 13:54:33.484
44.0, 73911.38510839762, 68852.98417246154, -19229.9880659566, -14230.86395631599, 33052.19507839621, 31807.225263980064, -187500.02235174447, 26308.852590185714, 45728.02582121203, 33918.36987952827, 4709.490204988743, -1257.5538465444859, 51668.94068347701, 35872.15821411112, 22396.269130262033, -7534.750704139556, 0.14200000000000002, 1.02, 0.062, 192.0, 0.0, 0.0, 0.0, 0.0, 0.0, 0.0, 0.0, 0.0, 0.0, 1.695754473484145E9, 0.0, 2023-09-26 13:54:33.484
46.0, 73900.9915472259, 68842.52355605645, -19243.063836462956, -14237.792997097135, 33037.33116833343, 31803.693688356125, -187500.02235174447, 26309.076107630266, 45725.18714966621, 33905.29410902192, 4703.589344452542, -1263.0970791694022, 51664.78325900832, 35879.15431012563, 22394.637452916795, -7533.722523894611, 0.14200000000000002, 1.02, 0.062, 192.0, 0.0, 0.0, 0.0, 0.0, 0.0, 0.0, 0.0, 0.0, 0.0, 1.695754473544197E9, 0.0, 2023-09-26 13:54:33.544
48.0, 73886.30645111877, 68833.82872746333, -19261.168749471755, -14251.29345074814, 33032.23497059762, 31784.940574758122, -187500.02235174447, 26311.378337309165, 45710.792626236995, 33918.705155695105, 4688.926600089861, -1278.0950996989131, 51657.65305252708, 35854.12035633568, 22373.649164873263, -7542.238538532083, 0.14, 1.02, 0.066, 192.0, 2.0, 48.0, 15.5, 112.0, 1.0, 8.0, 0.0, 0.0, 0.0, 1.695754473544232E9, 0.0, 2023-09-26 13:54:33.544
50.0, 73896.9905849684, 68846.83744273633, -19237.073568948934, -14235.803691840612, 33047.23299112714, 31807.448781424617, -187500.02235174447, 26306.52800876236, 45724.44954209919, 33908.222187545565, 4697.241449027235, -1276.351663631399, 51657.071907171245, 35867.6655134756, 22386.34495572388, -7535.9353465956865, 0.14, 1.02, 0.066, 192.0, 0.0, 0.0, 0.0, 0.0, 0.0, 0.0, 0.0, 0.0, 0.0, 1.69575447354425E9, 0.0, 2023-09-26 13:54:33.544
52.0, 73880.80792198276, 68823.72573896954, -19254.373819157343, -14248.767703624691, 33034.4477932987, 31796.80935106389, -187500.02235174447, 26313.769973965882, 45711.8878617153, 33936.49714428153, 4690.625332668464, -1274.0941374414133, 51660.17879965053, 35860.512955249906, 22383.171008011224, -7532.895509349765, 0.14, 1.02, 0.066, 192.0, 0.0, 0.0, 0.0, 0.0, 0.0, 0.0, 0.0, 0.0, 0.0, 1.695754473544265E9, 0.0, 2023-09-26 13:54:33.544
54.0, 73880.31618360475, 68823.39046280271, -19253.211528445667, -14248.141854779942, 33034.760717721074, 31794.77534231846, -187500.02235174447, 26304.06931687228, 45706.43403606821, 33895.88402460623, 4688.144289033925, -1282.5654485899745, 51653.89795945859, 35859.462423260506, 22381.24875798807, -7538.282279763494, 0.14, 1.02, 0.066, 192.0, 0.0, 0.0, 0.0, 0.0, 0.0, 0.0, 0.0, 0.0, 0.0, 1.695754473544281E9, 0.0, 2023-09-26 13:54:33.544
56.0, 73890.46387558745, 68833.02406466294, -19246.148377197787, -14240.966944809788, 33043.232028869636, 31802.19612147762, -187500.02235174447, 26310.417212297587, 45709.02683842502, 33900.13085605274, 4689.016007067681, -1279.6820735552399, 51665.76673576436, 35868.9172111651, 22385.42853420121, -7535.018925073019, 0.14, 1.02, 0.066, 192.0, 0.0, 0.0, 0.0, 0.0, 0.0, 0.0, 0.0, 0.0, 0.0, 1.695754473544296E9, 0.0, 2023-09-26 13:54:33.544
58.0, 73902.15383793759, 68841.36126534478, -19232.312647379953, -14229.76872083768, 33053.424424341254, 31821.86565659829, -187500.02235174447, 26306.34919480672, 45726.103571188876, 33903.50596946549, 4701.488280473743, -1272.5071635850863, 51671.6452445561, 35880.987153170965, 22387.082563290904, -7534.236614017083, 0.14, 1.022, 0.062, 192.0, 2.0, 48.0, 15.5, 120.0, 0.5, 120.0, 0.0, 0.0, 0.0, 1.69575447354431E9, 0.0, 2023-09-26 13:54:33.544
60.0, 73898.62226231364, 68844.15523340169, -19235.79951951498, -14241.324572721074, 33044.707244003686, 31813.975490805566, -187500.02235174447, 26313.747622221428, 45736.20655968268, 33924.67307146467, 4715.368713780488, -1262.650044280296, 51672.76283177887, 35880.67422874859, 22401.119458808836, -7525.854709846343, 0.14, 1.022, 0.062, 192.0, 0.0, 0.0, 0.0, 0.0, 0.0, 0.0, 0.0, 0.0, 0.0, 1.695754473544326E9, 0.0, 2023-09-26 13:54:33.544
62.0, 73909.95459675248, 68850.1007974268, -19223.170783897735, -14231.601563883016, 33041.95797943568, 31828.34766249033, -187500.02235174447, 26301.677680215562, 45735.02191722655, 33904.020059587965, 4712.664152701396, -1265.4440123372094, 51667.331357876225, 35885.323391595295, 22402.751136154075, -7533.5884134278795, 0.14, 1.022, 0.062, 192.0, 0.0, 0.0, 0.0, 0.0, 0.0, 0.0, 0.0, 0.0, 0.0, 1.695754473604502E9, 0.0, 2023-09-26 13:54:33.604
64.0, 73901.03625071481, 68840.66836126667, -19233.22906890262, -14244.140892522442, 33024.92595016074, 31824.972549077578, -187500.02235174447, 26312.697090232028, 45732.183245680724, 33915.687670193634, 4706.673885187374, -1265.8463437374048, 51674.93095099103, 35886.508034051425, 22408.942569368195, -7533.25313726105, 0.14, 1.022, 0.062, 192.0, 0.0, 0.0, 0.0, 0.0, 0.0, 0.0, 0.0, 0.0, 0.0, 1.695754473604537E9, 0.0, 2023-09-26 13:54:33.604
66.0, 73900.92449199254, 68842.56825954537, -19232.022074702036, -14246.86780534599, 33018.6451099688, 31832.102755558823, -187500.02235174447, 26302.080011615755, 45734.708992804175, 33899.549710696905, 4699.856603128505, -1275.547000831008, 51669.007738710374, 35886.28451660687, 22417.078604349925, -7532.962564583131, 0.14, 1.022, 0.062, 192.0, 0.0, 0.0, 0.0, 0.0, 0.0, 0.0, 0.0, 0.0, 0.0, 1.69575447360459E9, 0.0, 2023-09-26 13:54:33.604
68.0, 73890.37446860963, 68831.07946289533, -19239.129929438823, -14261.48584621976, 33016.43228726772, 31821.30686298691, -187500.02235174447, 26315.1110786332, 45731.33387939142, 33916.98407137204, 4691.005312324204, -1280.196163677712, 51669.63358755512, 35880.9200979376, 22425.952246898683, -7527.553442424946, 0.148, 1.024, 0.068, 192.0, 2.0, 80.0, 16.0, 0.0, 1.0, 16.0, 0.0, 0.0, 0.0, 1.69575447360463E9, 0.0, 2023-09-26 13:54:33.604
70.0, 73909.48521011892, 68836.64504726471, -19221.36029259685, -14249.974697825277, 33014.06300235546, 31839.63529344026, -187500.02235174447, 26305.611587239695, 45715.33003036142, 33905.003536344, 4677.3707482064665, -1296.579992363452, 51654.479104814425, 35876.42739730208, 22423.873534664337, -7537.835244874388, 0.148, 1.024, 0.068, 192.0, 0.0, 0.0, 0.0, 0.0, 0.0, 0.0, 0.0, 0.0, 0.0, 1.695754473604663E9, 0.0, 2023-09-26 13:54:33.604
72.0, 73921.1975242135, 68844.66932352415, -19208.686853490693, -14238.374142452973, 33020.76852569205, 31849.470061000597, -187500.02235174447, 26322.330692092266, 45733.300832903486, 33912.73723992553, 4697.308504260601, -1265.8463437374048, 51674.37215737965, 35897.549795812345, 22453.757817001086, -7508.48740440457, 0.148, 1.024, 0.068, 192.0, 0.0, 0.0, 0.0, 0.0, 0.0, 0.0, 0.0, 0.0, 0.0, 1.69575447360468E9, 0.0, 2023-09-26 13:54:33.604
74.0, 73929.0429865173, 68842.59061128982, -19224.601295542874, -14247.895985590934, 33006.10578132937, 31850.051206356435, -187500.02235174447, 26307.77970645186, 45736.83240852743, 33911.9549288696, 4686.087928544036, -1277.49160259862, 51678.37311963715, 35885.43515031757, 22447.521680298054, -7514.410616685226, 0.148, 1.024, 0.068, 192.0, 0.0, 0.0, 0.0, 0.0, 0.0, 0.0, 0.0, 0.0, 0.0, 1.695754473604696E9, 0.0, 2023-09-26 13:54:33.604
76.0, 73936.24024823192, 68840.26602986647, -19216.37585358332, -14250.108808292009, 33005.65874644026, 31843.815069653403, -187500.02235174447, 26318.48619204595, 45734.30666140398, 33908.08807707883, 4678.845963340516, -1282.744262545617, 51672.82988701223, 35894.84523473326, 22450.74033149962, -7515.81877658591, 0.148, 1.024, 0.068, 192.0, 0.0, 0.0, 0.0, 0.0, 0.0, 0.0, 0.0, 0.0, 0.0, 1.695754473664788E9, 0.0, 2023-09-26 13:54:33.664
78.0, 73931.9040098076, 68836.71210249807, -19216.956998939157, -14254.959136838812, 33003.82590339493, 31833.68972941515, -187500.02235174447, 26318.128564134666, 45730.86449275786, 33905.137646810734, 4682.399890708911, -1283.325407901455, 51662.97276770744, 35884.02699041689, 22457.73642751413, -7517.048122530952, 0.14400000000000002, 1.014, 0.07200000000000001, 192.0, 2.0, 64.0, 15.5, 88.0, 1.0, 32.0, 0.0, 0.0, 0.0, 1.695754473664822E9, 0.0, 2023-09-26 13:54:33.664
80.0, 73948.46665244897, 68847.44093983663, -19205.714071478138, -14248.410075713406, 33015.113534344855, 31842.16104056371, -187500.02235174447, 26325.906971205113, 45733.501998603584, 33903.394210743216, 4688.16664077838, -1280.6879020557287, 51667.51017183187, 35884.3175630948, 22458.317572869968, -7520.736160366078, 0.14400000000000002, 1.014, 0.07200000000000001, 192.0, 0.0, 0.0, 0.0, 0.0, 0.0, 0.0, 0.0, 0.0, 0.0, 1.695754473664839E9, 0.0, 2023-09-26 13:54:33.664
82.0, 73955.82037637477, 68841.85300372279, -19211.547876780973, -14247.985392568755, 33014.57709247793, 31838.093023072845, -187500.02235174447, 26324.07412815978, 45747.38243191033, 33916.04529810492, 4696.056806571103, -1273.8259165079496, 51676.96495973646, 35885.09987415074, 22462.698514783206, -7512.555421895436, 0.14400000000000002, 1.014, 0.07200000000000001, 192.0, 0.0, 0.0, 0.0, 0.0, 0.0, 0.0, 0.0, 0.0, 0.0, 1.695754473664855E9, 0.0, 2023-09-26 13:54:33.664
84.0, 73950.2547920054, 68841.09304441132, -19217.381682083807, -14248.745351880236, 33011.269034298544, 31836.170773049686, -187500.02235174447, 26324.677625260072, 45744.566112108965, 33909.71975442407, 4691.362940235489, -1275.032910708536, 51672.00287246739, 35876.583859513266, 22458.49638682561, -7513.20362248464, 0.14400000000000002, 1.014, 0.07200000000000001, 192.0, 0.0, 0.0, 0.0, 0.0, 0.0, 0.0, 0.0, 0.0, 0.0, 1.695754473664871E9, 0.0, 2023-09-26 13:54:33.664
86.0, 73942.61049540169, 68844.02112293495, -19225.920048465738, -14259.54124445215, 33011.33608953191, 31819.898703086223, -187500.02235174447, 26312.138296620644, 45730.46216135766, 33914.03364110394, 4678.376576706955, -1286.4770038696533, 51667.59957880969, 35865.877373919175, 22444.660657007775, -7530.459169204137, 0.14400000000000002, 1.014, 0.07200000000000001, 192.0, 0.0, 0.0, 0.0, 0.0, 0.0, 0.0, 0.0, 0.0, 0.0, 1.695754473664886E9, 0.0, 2023-09-26 13:54:33.664
88.0, 73940.01769304487, 68837.31559959837, -19223.126080408823, -14256.613165928504, 33006.932795874214, 31830.7616508915, -187500.02235174447, 26309.34432856373, 45737.01122248307, 33904.84707413281, 4683.673940142863, -1280.3079223999885, 51676.11559344716, 35868.44782453153, 22442.470186051152, -7532.87315760531, 0.14200000000000002, 1.012, 0.076, 192.0, 2.0, 56.0, 15.5, 80.0, 1.0, 48.0, 0.0, 0.0, 0.0, 1.695754473664941E9, 0.0, 2023-09-26 13:54:33.664
90.0, 73935.1003092647, 68827.9949221605, -19227.171746155233, -14261.597604942037, 33008.78799066401, 31825.82191536688, -187500.02235174447, 26310.2607500864, 45737.972347494644, 33914.637138204234, 4678.823611596062, -1284.644160824318, 51664.760907263866, 35875.175699612584, 22440.123252883346, -7537.276451263006, 0.14200000000000002, 1.012, 0.076, 192.0, 0.0, 0.0, 0.0, 0.0, 0.0, 0.0, 0.0, 0.0, 0.0, 1.695754473664959E9, 0.0, 2023-09-26 13:54:33.664
92.0, 73943.92924832455, 68832.88995419622, -19221.449699574674, -14250.421732714383, 33023.00370013758, 31837.48952597255, -187500.02235174447, 26315.893389689136, 45737.368850394356, 33896.86750136226, 4682.042262797626, -1280.5314398445416, 51674.77448877985, 35877.52263278039, 22445.890002952816, -7528.291049991972, 0.14200000000000002, 1.012, 0.076, 192.0, 0.0, 0.0, 0.0, 0.0, 0.0, 0.0, 0.0, 0.0, 0.0, 1.69575447372436E9, 0.0, 2023-09-26 13:54:33.724
94.0, 73937.69311162151, 68826.743224471, -19225.89769672128, -14263.385744498462, 33011.22433080964, 31835.209648038108, -187500.02235174447, 26326.532820049862, 45731.423286369245, 33900.62259443076, 4676.588437150531, -1288.198088192712, 51661.49755257339, 35876.00271415743, 22449.73450299913, -7521.809044099933, 0.14200000000000002, 1.012, 0.076, 192.0, 0.0, 0.0, 0.0, 0.0, 0.0, 0.0, 0.0, 0.0, 0.0, 1.69575447372439E9, 0.0, 2023-09-26 13:54:33.724
96.0, 73939.66006513359, 68824.8433261923, -19242.28152540702, -14261.731715408769, 33005.43522899571, 31832.25921777001, -187500.02235174447, 26320.989587424945, 45723.98015546562, 33882.65179188869, 4664.473791655754, -1306.3924081793318, 51655.194360637, 35862.70342620652, 22436.90460168178, -7530.436817459681, 0.14200000000000002, 1.012, 0.076, 192.0, 0.0, 0.0, 0.0, 0.0, 0.0, 0.0, 0.0, 0.0, 0.0, 1.695754473724405E9, 0.0, 2023-09-26 13:54:33.724
98.0, 73930.22762897344, 68825.46917503705, -19253.18917670121, -14263.855131132023, 33005.56933946244, 31830.739299147048, -187500.02235174447, 26326.68928226105, 45733.52435034804, 33932.02679539046, 4673.97328304926, -1291.483794627642, 51669.454773599486, 35865.29622856334, 22446.02411341955, -7516.176404497195, 0.14400000000000002, 1.012, 0.07, 192.0, 2.0, 64.0, 15.5, 80.0, 1.0, 24.0, 0.0, 0.0, 0.0, 1.695754473724419E9, 0.0, 2023-09-26 13:54:33.724
100.0, 73936.70963486549, 68827.41377680466, -19250.261098177565, -14260.547072952639, 33005.01054585106, 31825.911322344702, -187500.02235174447, 26313.211180354498, 45730.082181701924, 33896.33105949534, 4672.453364426299, -1297.0940824859242, 51655.48493331492, 35870.32537106578, 22437.73161622663, -7528.626326158801, 0.14400000000000002, 1.012, 0.07, 192.0, 0.0, 0.0, 0.0, 0.0, 0.0, 0.0, 0.0, 0.0, 0.0, 1.695754473724435E9, 0.0, 2023-09-26 13:54:33.724
102.0, 73949.83010886075, 68831.19122161761, -19253.971487757146, -14266.850264889035, 32998.52853995902, 31816.657700140204, -187500.02235174447, 26308.33850006324, 45726.23768165561, 33899.90733860819, 4669.704099858296, -1295.4400533962314, 51657.51894206035, 35878.68492349207, 22430.869630678848, -7533.744875639067, 0.14400000000000002, 1.012, 0.07, 192.0, 0.0, 0.0, 0.0, 0.0, 0.0, 0.0, 0.0, 0.0, 0.0, 1.695754473724451E9, 0.0, 2023-09-26 13:54:33.724
104.0, 73953.71931239597, 68836.08625365332, -19245.500176608584, -14257.44018047335, 33011.89488314329, 31823.54203743244, -187500.02235174447, 26294.659232456594, 45735.87128351585, 33886.80921635738, 4675.984940050237, -1299.4633673981866, 51661.00581419538, 35870.28066757687, 22437.083415637426, -7540.517454209024, 0.14400000000000002, 1.012, 0.07, 192.0, 0.0, 0.0, 0.0, 0.0, 0.0, 0.0, 0.0, 0.0, 0.0, 1.695754473724467E9, 0.0, 2023-09-26 13:54:33.724
106.0, 73955.19452753002, 68828.30784658287, -19243.62263007434, -14262.40226774243, 33001.45661848267, 31814.981319306055, -187500.02235174447, 26302.30352906031, 45745.43783014272, 33917.364051027784, 4686.333797733045, -1280.3749776333545, 51670.639416055616, 35877.835557202765, 22438.648037749295, -7538.908128608243, 0.14400000000000002, 1.012, 0.07, 192.0, 0.0, 0.0, 0.0, 0.0, 0.0, 0.0, 0.0, 0.0, 0.0, 1.695754473784589E9, 0.0, 2023-09-26 13:54:33.784
108.0, 73971.9136323826, 68845.60809679129, -19238.48172884962, -14249.05827630261, 33009.63735695331, 31826.939502589645, -187500.02235174447, 26293.63105221165, 45742.24153068561, 33905.15999855519, 4682.802222109106, -1282.230172423145, 51662.57043630725, 35871.53236526637, 22441.933744184225, -7538.237576274583, 0.14200000000000002, 1.014, 0.07, 192.0, 2.0, 56.0, 15.5, 88.0, 1.0, 24.0, 0.0, 0.0, 0.0, 1.695754473784629E9, 0.0, 2023-09-26 13:54:33.784
110.0, 73959.73193165445, 68833.35934082977, -19248.070627220946, -14256.032020572666, 33001.74719116058, 31819.697537386128, -187500.02235174447, 26303.979909894457, 45741.16864695176, 33927.24352207703, 4684.903286087905, -1278.4750793546534, 51670.92998873353, 35881.32242933779, 22446.38174133083, -7526.6593726467345, 0.14200000000000002, 1.014, 0.07, 192.0, 0.0, 0.0, 0.0, 0.0, 0.0, 0.0, 0.0, 0.0, 0.0, 1.695754473784701E9, 0.0, 2023-09-26 13:54:33.784
112.0, 73959.1060828097, 68829.38073031673, -19248.830586532426, -14249.05827630261, 33009.81617090895, 31832.72860440357, -187500.02235174447, 26296.53677899084, 45720.31446937496, 33898.365068240775, 4664.853771311495, -1297.9434487752258, 51644.28670934281, 35861.18350758356, 22430.132023111826, -7536.136512295785, 0.14200000000000002, 1.014, 0.07, 192.0, 0.0, 0.0, 0.0, 0.0, 0.0, 0.0, 0.0, 0.0, 0.0, 1.695754473784719E9, 0.0, 2023-09-26 13:54:33.784
114.0, 73965.11870206818, 68827.12320412675, -19243.66733356325, -14243.693857633336, 33025.44004028321, 31838.428299239673, -187500.02235174447, 26324.25294211542, 45734.79839978199, 33924.18133308665, 4676.946065061816, -1276.709291542684, 51666.48199158692, 35886.19510962905, 22443.073683151448, -7516.131701008285, 0.14200000000000002, 1.014, 0.07, 192.0, 0.0, 0.0, 0.0, 0.0, 0.0, 0.0, 0.0, 0.0, 0.0, 1.695754473784737E9, 0.0, 2023-09-26 13:54:33.784
116.0, 73952.75818738439, 68808.12422133973, -19264.9461942847, -14249.304145491618, 33007.93862437471, 31824.83843861085, -187500.02235174447, 26314.10525013271, 45723.91310023226, 33902.075457820356, 4661.8139340655725, -1288.6004195929074, 51665.90084623109, 35871.889993177654, 22429.10384286688, -7524.938288323676, 0.14200000000000002, 1.014, 0.07, 192.0, 0.0, 0.0, 0.0, 0.0, 0.0, 0.0, 0.0, 0.0, 0.0, 1.695754473784759E9, 0.0, 2023-09-26 13:54:33.784
118.0, 73957.07207406427, 68823.47986978052, -19257.838339547914, -14253.640383915948, 33013.97359537764, 31825.57604617787, -187500.02235174447, 26315.312244333298, 45732.65263231428, 33916.268815549476, 4662.998576521704, -1285.4041201357986, 51662.77160200734, 35873.70048447853, 22432.747177213096, -7523.328962722893, 0.146, 1.014, 0.07200000000000001, 192.0, 2.0, 72.0, 15.5, 88.0, 1.0, 32.0, 0.0, 0.0, 0.0, 1.695754473784776E9, 0.0, 2023-09-26 13:54:33.784
120.0, 73948.13137628215, 68820.68590172361, -19268.947156542203, -14267.051430589132, 33010.26320579806, 31814.087249527845, -187500.02235174447, 26311.69126173154, 45710.77027449254, 33907.03754508943, 4651.330965916034, -1299.0163325090805, 51653.22740712493, 35846.43135624306, 22410.99892985808, -7546.842997889877, 0.146, 1.014, 0.07200000000000001, 192.0, 0.0, 0.0, 0.0, 0.0, 0.0, 0.0, 0.0, 0.0, 0.0, 1.695754473784793E9, 0.0, 2023-09-26 13:54:33.784
122.0, 73958.0555508203, 68825.6479889927, -19267.561348385974, -14268.571349212092, 33005.904615629275, 31809.974528548068, -187500.02235174447, 26317.39095656764, 45732.40676312528, 33912.75959166999, 4665.703137600796, -1290.008579493592, 51662.61513979616, 35858.680112204565, 22413.569380470442, -7546.954756612153, 0.146, 1.014, 0.07200000000000001, 192.0, 0.0, 0.0, 0.0, 0.0, 0.0, 0.0, 0.0, 0.0, 0.0, 1.695754473844854E9, 0.0, 2023-09-26 13:54:33.844
124.0, 73948.08667279323, 68817.6460644777, -19259.984107015625, -14263.855131132023, 33004.47410398413, 31800.29622319892, -187500.02235174447, 26303.3093575608, 45719.01806819654, 33915.486504493536, 4661.411602665377, -1297.0270272525581, 51654.74732574789, 35845.29141727584, 22405.455697233167, -7558.7117741956445, 0.146, 1.014, 0.07200000000000001, 192.0, 0.0, 0.0, 0.0, 0.0, 0.0, 0.0, 0.0, 0.0, 0.0, 1.69575447384489E9, 0.0, 2023-09-26 13:54:33.844
126.0, 73940.39767270061, 68798.42356424613, -19268.634232119828, -14272.05822134712, 32998.46148472565, 31804.8559790678, -187500.02235174447, 26311.154819864612, 45722.08025718692, 33915.218283560076, 4662.149210232403, -1288.3992538928096, 51642.85619769766, 35863.10575760672, 22408.80845890146, -7549.972242113619, 0.146, 1.014, 0.07200000000000001, 192.0, 0.0, 0.0, 0.0, 0.0, 0.0, 0.0, 0.0, 0.0, 0.0, 1.695754473844905E9, 0.0, 2023-09-26 13:54:33.844
128.0, 73945.89620183661, 68795.45078223357, -19270.511778654072, -14271.320613780095, 32994.61698467934, 31811.606205893306, -187500.02235174447, 26300.984776137448, 45705.897594201284, 33890.2960884924, 4644.290166412612, -1307.5994023799185, 51639.01169765135, 35846.319597520785, 22393.3857552273, -7564.992614387586, 0.14400000000000002, 1.012, 0.068, 192.0, 2.0, 64.0, 15.5, 80.0, 1.0, 16.0, 0.0, 0.0, 0.0, 1.695754473844921E9, 0.0, 2023-09-26 13:54:33.844
130.0, 73948.77957687135, 68809.42062251814, -19254.396170901797, -14260.770590397191, 33005.32347027343, 31825.732508389057, -187500.02235174447, 26308.427907041063, 45720.47093158614, 33900.01909733046, 4662.328024188045, -1289.9415242602258, 51653.07094491374, 35855.70733019201, 22412.161220569757, -7540.226881531105, 0.14400000000000002, 1.012, 0.068, 192.0, 0.0, 0.0, 0.0, 0.0, 0.0, 0.0, 0.0, 0.0, 0.0, 1.69575447384494E9, 0.0, 2023-09-26 13:54:33.844
132.0, 73949.85246060521, 68812.41575627515, -19255.580813357927, -14259.742410152247, 33001.546025460484, 31820.815124608893, -187500.02235174447, 26308.494962274428, 45724.47189384364, 33907.1046003228, 4667.3348149460335, -1287.4157771367761, 51656.781334493324, 35867.79962394233, 22412.787069414506, -7534.460131461637, 0.14400000000000002, 1.012, 0.068, 192.0, 0.0, 0.0, 0.0, 0.0, 0.0, 0.0, 0.0, 0.0, 0.0, 1.695754473844997E9, 0.0, 2023-09-26 13:54:33.844
134.0, 73945.98560881443, 68803.05037534838, -19265.214415218165, -14267.587872456059, 32993.76761839004, 31806.264138968487, -187500.02235174447, 26305.276311072867, 45715.59825129488, 33896.48752170653, 4657.25417819669, -1295.261239440589, 51645.381944821114, 35860.13297559416, 22398.817229129938, -7550.463980491636, 0.14400000000000002, 1.012, 0.068, 192.0, 0.0, 0.0, 0.0, 0.0, 0.0, 0.0, 0.0, 0.0, 0.0, 1.695754473845016E9, 0.0, 2023-09-26 13:54:33.845
136.0, 73959.53076595435, 68808.4371457621, -19261.03463900502, -14259.29537526314, 32990.34780148838, 31814.53428441695, -187500.02235174447, 26299.73307844795, 45717.654611784776, 33919.77803942896, 4652.046221738604, -1290.96970450517, 51647.59476752219, 35860.62471397218, 22395.777391884018, -7555.962509627642, 0.14400000000000002, 1.012, 0.068, 192.0, 0.0, 0.0, 0.0, 0.0, 0.0, 0.0, 0.0, 0.0, 0.0, 1.695754473904353E9, 0.0, 2023-09-26 13:54:33.904
138.0, 73976.9651266295, 68823.25635233597, -19247.444778376197, -14249.77353212518, 33003.42357199473, 31823.83261011036, -187500.02235174447, 26299.554264492308, 45728.76342877906, 33925.343623798326, 4667.11129750148, -1274.0494339525026, 51653.27211061384, 35870.995923399445, 22402.549970453976, -7547.714715923634, 0.138, 1.014, 0.068, 192.0, 2.0, 40.0, 15.5, 88.0, 1.0, 16.0, 0.0, 0.0, 0.0, 1.695754473904396E9, 0.0, 2023-09-26 13:54:33.904
140.0, 73971.89128063814, 68826.83263144882, -19239.48755735011, -14248.767703624691, 33006.88809238531, 31824.100831043823, -187500.02235174447, 26307.690299474038, 45736.05009747149, 33903.37185899876, 4678.01894879567, -1269.6014368058964, 51657.27307287134, 35869.34189430975, 22407.467354234144, -7546.239500789583, 0.138, 1.014, 0.068, 192.0, 0.0, 0.0, 0.0, 0.0, 0.0, 0.0, 0.0, 0.0, 0.0, 1.695754473904412E9, 0.0, 2023-09-26 13:54:33.904
142.0, 73972.5618329718, 68831.50414603998, -19238.1911561717, -14247.404247212917, 33000.495493471084, 31817.171790262677, -187500.02235174447, 26303.756392449905, 45740.296928918, 33900.06380081938, 4685.462079699288, -1265.48871582612, 51657.474238571434, 35874.259278089914, 22410.90952288026, -7547.06651533443, 0.138, 1.014, 0.068, 192.0, 0.0, 0.0, 0.0, 0.0, 0.0, 0.0, 0.0, 0.0, 0.0, 1.695754473904426E9, 0.0, 2023-09-26 13:54:33.904
144.0, 73955.64156241913, 68810.58291322982, -19247.042446976, -14263.139875309453, 32994.92990910172, 31811.360336704296, -187500.02235174447, 26309.903122175114, 45727.53408283402, 33910.61382420228, 4673.168620248869, -1276.6422363093182, 51661.69871827349, 35853.74037667995, 22401.94647335368, -7552.676803192712, 0.138, 1.014, 0.068, 192.0, 0.0, 0.0, 0.0, 0.0, 0.0, 0.0, 0.0, 0.0, 0.0, 1.69575447390444E9, 0.0, 2023-09-26 13:54:33.904
146.0, 73948.95839082699, 68803.34094802629, -19209.200943613167, -14257.976622340277, 32998.17091204774, 31801.413810421684, -187500.02235174447, 26297.006165624403, 45728.67402180124, 33894.63232691673, 4668.698271357807, -1282.9007247568043, 51649.22644486743, 35845.42552774257, 22408.38377575681, -7556.8342276613985, 0.138, 1.014, 0.068, 192.0, 0.0, 0.0, 0.0, 0.0, 0.0, 0.0, 0.0, 0.0, 0.0, 1.695754473904455E9, 0.0, 2023-09-26 13:54:33.904
148.0, 73948.17607977106, 68794.60141594427, -19215.2359146161, -14259.362430496507, 32997.14273180279, 31806.24178722403, -187500.02235174447, 26300.33657554824, 45716.40291409528, 33895.5487484394, 4658.818800308562, -1293.1154719728795, 51645.873683199134, 35845.49258297594, 22399.66659541924, -7555.917806138731, 0.134, 1.018, 0.064, 192.0, 2.0, 24.0, 15.5, 104.0, 1.0, 0.0, 0.0, 0.0, 0.0, 1.695754473904469E9, 0.0, 2023-09-26 13:54:33.904
150.0, 73947.01378905938, 68799.60820670227, -19209.983254669103, -14252.880424604467, 33004.96584236215, 31816.992976307032, -187500.02235174447, 26305.410421539596, 45722.884919987315, 33877.68970461961, 4653.96847176176, -1298.3681319198768, 51647.17008437754, 35851.63931270115, 22404.740441410595, -7544.071381577419, 0.134, 1.018, 0.064, 192.0, 0.0, 0.0, 0.0, 0.0, 0.0, 0.0, 0.0, 0.0, 0.0, 1.695754473904484E9, 0.0, 2023-09-26 13:54:33.904
152.0, 73941.73877736792, 68795.24961653347, -19218.499269306572, -14264.413924743407, 33008.47506624163, 31807.985223291544, -187500.02235174447, 26313.032366398857, 45721.16383566426, 33912.401963758704, 4662.395079421411, -1290.321503915966, 51663.352747363184, 35861.04939711683, 22421.616008474353, -7530.660334904234, 0.134, 1.018, 0.064, 192.0, 0.0, 0.0, 0.0, 0.0, 0.0, 0.0, 0.0, 0.0, 0.0, 1.695754473964094E9, 0.0, 2023-09-26 13:54:33.964
154.0, 73951.86411760618, 68811.5440382414, -19223.439004831198, -14260.301203763629, 33010.576130220434, 31805.660641868195, -187500.02235174447, 26296.82735166876, 45715.01710593905, 33877.443835430604, 4649.811047293073, -1300.8491755544158, 51642.096238386184, 35839.99405383993, 22396.85027561787, -7554.219073560128, 0.134, 1.018, 0.064, 192.0, 0.0, 0.0, 0.0, 0.0, 0.0, 0.0, 0.0, 0.0, 0.0, 1.695754473964163E9, 0.0, 2023-09-26 13:54:33.964
156.0, 73943.57162041326, 68812.68397720861, -19230.81508050145, -14265.665622432904, 33000.42843823772, 31797.278737697452, -187500.02235174447, 26302.527046504863, 45720.783856008515, 33910.07738233535, 4659.914035786872, -1280.7326055446395, 51658.524770560834, 35851.259333045404, 22395.82209537293, -7555.0684398494295, 0.134, 1.018, 0.064, 192.0, 0.0, 0.0, 0.0, 0.0, 0.0, 0.0, 0.0, 0.0, 0.0, 1.695754473964181E9, 0.0, 2023-09-26 13:54:33.964
158.0, 73941.3587977122, 68806.9395788836, -19232.80438575797, -14274.11458183701, 32988.559661931955, 31782.43717937913, -187500.02235174447, 26280.845854383213, 45705.91994594574, 33901.159036297686, 4654.102582228492, -1293.7636725620835, 51635.61423249415, 35822.17971350905, 22379.035935286993, -7572.882780180309, 0.134, 1.016, 0.052000000000000005, 192.0, 2.0, 24.0, 15.5, 96.0, 0.5, 80.0, 0.0, 0.0, 0.0, 1.695754473964198E9, 0.0, 2023-09-26 13:54:33.964
160.0, 73960.82716713277, 68817.06491912185, -19216.487612305595, -14258.021325829188, 33008.81034240846, 31795.87057779677, -187500.02235174447, 26293.92162488957, 45720.82855949743, 33895.9510798396, 4665.97135853426, -1277.7598235320836, 51646.298366343784, 35850.56642896729, 22386.032031301504, -7560.902245152265, 0.134, 1.016, 0.052000000000000005, 192.0, 0.0, 0.0, 0.0, 0.0, 0.0, 0.0, 0.0, 0.0, 0.0, 1.695754473964215E9, 0.0, 2023-09-26 13:54:33.964
162.0, 73964.17992880105, 68825.08919538131, -19216.2864466055, -14253.550976938126, 33010.30790928697, 31802.978432533557, -187500.02235174447, 26285.740886418927, 45722.99667870959, 33902.88012062074, 4673.012158037682, -1281.2019921782007, 51654.25558736987, 35852.75689992391, 22395.397412228278, -7553.369707270826, 0.134, 1.016, 0.052000000000000005, 192.0, 0.0, 0.0, 0.0, 0.0, 0.0, 0.0, 0.0, 0.0, 0.0, 1.695754473964231E9, 0.0, 2023-09-26 13:54:33.964
164.0, 73952.75818738439, 68826.85498319328, -19228.62460954483, -14251.271099003685, 33008.966804619646, 31799.268042953976, -187500.02235174447, 26296.559130735295, 45729.90336774628, 33908.82568464585, 4676.11905051697, -1279.4809078551423, 51660.22350313944, 35859.84240291624, 22388.62483365832, -7549.033468846496, 0.134, 1.016, 0.052000000000000005, 192.0, 0.0, 0.0, 0.0, 0.0, 0.0, 0.0, 0.0, 0.0, 0.0, 1.695754473964247E9, 0.0, 2023-09-26 13:54:33.964
166.0, 73938.0507395328, 68810.98524463, -19231.172708412734, -14260.949404352834, 33003.35651676136, 31794.44006615163, -187500.02235174447, 26292.513464988886, 45715.888823972804, 33900.91316710868, 4660.338718931523, -1287.5275358590527, 51650.05345941227, 35845.80550739831, 22383.23806324459, -7556.968338128131, 0.134, 1.016, 0.052000000000000005, 192.0, 0.0, 0.0, 0.0, 0.0, 0.0, 0.0, 0.0, 0.0, 0.0, 1.695754474024346E9, 0.0, 2023-09-26 13:54:34.024
168.0, 73928.61830337266, 68797.0377560899, -19236.872403248835, -14267.63257594497, 32998.39442949229, 31796.094095241322, -187500.02235174447, 26303.845799427727, 45704.95882093416, 33901.360201997784, 4652.850884538994, -1296.9152685302818, 51636.53065401682, 35844.75497540891, 22384.75798186755, -7555.291957293983, 0.136, 1.018, 0.056, 192.0, 2.0, 32.0, 15.5, 104.0, 0.5, 96.0, 0.0, 0.0, 0.0, 1.695754474024379E9, 0.0, 2023-09-26 13:54:34.024
170.0, 73942.67755063505, 68795.38372700021, -19232.536164824505, -14260.591776441548, 33010.17379882024, 31804.49835115652, -187500.02235174447, 26305.991566895435, 45703.595364522385, 33890.85488210379, 4644.2678146681565, -1305.319524445477, 51648.77940997832, 35838.18356253905, 22383.998022556072, -7554.39788751577, 0.136, 1.018, 0.056, 192.0, 0.0, 0.0, 0.0, 0.0, 0.0, 0.0, 0.0, 0.0, 0.0, 1.695754474024395E9, 0.0, 2023-09-26 13:54:34.024
172.0, 73944.01865530237, 68810.64996846319, -19233.27377239153, -14259.384782240963, 33008.58682496391, 31803.470170911572, -187500.02235174447, 26319.1120408907, 45710.54675704799, 33903.14834155421, 4654.169637461858, -1298.032855753047, 51651.618081524146, 35850.924056878575, 22389.362441225345, -7544.205492044151, 0.136, 1.018, 0.056, 192.0, 0.0, 0.0, 0.0, 0.0, 0.0, 0.0, 0.0, 0.0, 0.0, 1.695754474024411E9, 0.0, 2023-09-26 13:54:34.024
174.0, 73954.54632694082, 68824.1504221142, -19231.91031597976, -14258.960099096312, 33007.60334820788, 31795.714115585582, -187500.02235174447, 26306.662119229095, 45714.57007104994, 33907.90926312319, 4660.338718931523, -1292.646085339318, 51647.12538088863, 35853.42745225757, 22382.947490566672, -7551.358050269849, 0.136, 1.018, 0.056, 192.0, 0.0, 0.0, 0.0, 0.0, 0.0, 0.0, 0.0, 0.0, 0.0, 1.695754474024427E9, 0.0, 2023-09-26 13:54:34.024
176.0, 73950.0536263053, 68813.13101209773, -19239.174632927734, -14270.9182823799, 33000.62960393782, 31777.788016532424, -187500.02235174447, 26301.34240404873, 45719.263937385556, 33897.42629497365, 4666.910131801383, -1286.9240387587595, 51648.31002334476, 35839.032928828354, 22369.625850871307, -7563.0480126199745, 0.136, 1.018, 0.056, 192.0, 0.0, 0.0, 0.0, 0.0, 0.0, 0.0, 0.0, 0.0, 0.0, 1.695754474024481E9, 0.0, 2023-09-26 13:54:34.024
178.0, 73967.46563523599, 68832.55467802938, -19223.081376919912, -14257.77545664018, 33011.58195872092, 31795.95998477459, -187500.02235174447, 26302.0576598713, 45722.84021649841, 33908.04337358992, 4675.06851852757, -1277.8492305099048, 51654.88143621462, 35841.84924862972, 22379.102990520358, -7562.489219008591, 0.14, 1.014, 0.06, 192.0, 2.0, 48.0, 15.5, 88.0, 0.5, 112.0, 0.0, 0.0, 0.0, 1.695754474024496E9, 0.0, 2023-09-26 13:54:34.024
180.0, 73947.9078588376, 68813.77921268693, -19232.871440991337, -14266.939671866856, 33003.177702805726, 31785.745237558516, -187500.02235174447, 26295.977985379457, 45721.81203625346, 33899.90733860819, 4671.581646392542, -1282.4089863787874, 51651.327508846225, 35844.57616145327, 22376.934871308193, -7565.7525736990665, 0.14, 1.014, 0.06, 192.0, 0.0, 0.0, 0.0, 0.0, 0.0, 0.0, 0.0, 0.0, 0.0, 1.695754474024511E9, 0.0, 2023-09-26 13:54:34.024
182.0, 73926.78546032733, 68809.6441399627, -19246.03661847551, -14274.382802770473, 32998.550891703475, 31779.978487489047, -187500.02235174447, 26294.569825478775, 45713.296021615985, 33911.485542236034, 4661.791582321118, -1296.6246958523627, 51650.7910669793, 35840.68695791804, 22372.82215032842, -7570.245274334583, 0.14, 1.014, 0.06, 192.0, 0.0, 0.0, 0.0, 0.0, 0.0, 0.0, 0.0, 0.0, 0.0, 1.69575447408475E9, 0.0, 2023-09-26 13:54:34.084
184.0, 73936.01673078736, 68824.75391921448, -19230.122176423334, -14254.19917752733, 33010.97846162062, 31792.406057406195, -187500.02235174447, 26284.086857329235, 45713.541890805, 33903.28245202094, 4664.272625955657, -1297.675227841762, 51643.705563986965, 35845.13495506465, 22367.591842125876, -7568.412431289248, 0.14, 1.014, 0.06, 192.0, 0.0, 0.0, 0.0, 0.0, 0.0, 0.0, 0.0, 0.0, 0.0, 1.695754474084794E9, 0.0, 2023-09-26 13:54:34.084
186.0, 73928.37243418365, 68827.1455558712, -19234.212545658655, -14249.326497236074, 33014.39827852229, 31798.15045573121, -187500.02235174447, 26297.274386557867, 45719.867434485845, 33905.137646810734, 4677.840134840028, -1279.4138526217762, 51664.85031424169, 35852.95806562401, 22382.500455677564, -7552.274471792516, 0.14, 1.014, 0.06, 192.0, 0.0, 0.0, 0.0, 0.0, 0.0, 0.0, 0.0, 0.0, 0.0, 1.695754474084812E9, 0.0, 2023-09-26 13:54:34.084
188.0, 73939.32478896675, 68827.1008523823, -19239.889888750302, -14254.221529271786, 33005.65874644026, 31799.983298776544, -187500.02235174447, 26289.07129634277, 45727.064696200454, 33901.74018165352, 4678.175411006858, -1278.6985967992064, 51656.6919275155, 35851.99694061243, 22381.22640624361, -7548.631137446301, 0.14200000000000002, 1.016, 0.06, 192.0, 2.0, 56.0, 15.5, 96.0, 0.5, 112.0, 0.0, 0.0, 0.0, 1.695754474084828E9, 0.0, 2023-09-26 13:54:34.084
190.0, 73908.56878859625, 68791.36041299826, -19271.361144943374, -14268.079610834076, 32992.49356895609, 31784.001801491002, -187500.02235174447, 26293.16166557809, 45706.63520176831, 33895.43698971713, 4651.040393238115, -1302.4585011551978, 51645.42664831003, 35855.327350536274, 22362.33918217888, -7563.204474831162, 0.14200000000000002, 1.016, 0.06, 192.0, 0.0, 0.0, 0.0, 0.0, 0.0, 0.0, 0.0, 0.0, 0.0, 1.695754474084845E9, 0.0, 2023-09-26 13:54:34.084
192.0, 73917.88946603412, 68800.36816601374, -19267.60605187488, -14254.780322883169, 33006.08342958491, 31802.106714499798, -187500.02235174447, 26292.044078355324, 45708.44569306919, 33880.05898953188, 4655.667204340363, -1302.5926116219298, 51649.092334400695, 35852.443975501534, 22364.060266501936, -7555.649585205268, 0.14200000000000002, 1.016, 0.06, 192.0, 0.0, 0.0, 0.0, 0.0, 0.0, 0.0, 0.0, 0.0, 0.0, 1.695754474084862E9, 0.0, 2023-09-26 13:54:34.084
194.0, 73912.56975085376, 68793.37206999923, -19270.355316442885, -14272.77347716969, 33009.34678427539, 31784.895871269215, -187500.02235174447, 26303.82344768327, 45711.485530315105, 33890.720771637054, 4651.286262427123, -1305.6100971233961, 51645.56075877676, 35840.9104753626, 22367.90476654825, -7559.874064907321, 0.14200000000000002, 1.016, 0.06, 192.0, 0.0, 0.0, 0.0, 0.0, 0.0, 0.0, 0.0, 0.0, 0.0, 1.695754474084878E9, 0.0, 2023-09-26 13:54:34.084
196.0, 73931.88165806314, 68809.2418085625, -19260.05116224899, -14258.40130548493, 33019.58388323592, 31796.33996443033, -187500.02235174447, 26286.14321781912, 45714.45831232766, 33869.10663474877, 4653.052050239093, -1305.8783180568598, 51639.88341568511, 35832.3050537473, 22375.70552536315, -7564.54557949848, 0.14200000000000002, 1.016, 0.06, 192.0, 0.0, 0.0, 0.0, 0.0, 0.0, 0.0, 0.0, 0.0, 0.0, 1.695754474144962E9, 0.0, 2023-09-26 13:54:34.144
198.0, 73924.08089924823, 68799.65291019117, -19272.00934553258, -14273.868712648, 33005.94931911818, 31781.587813089827, -187500.02235174447, 26294.97215687897, 45725.50007408859, 33890.6984198926, 4667.78184983514, -1293.9871900066364, 51661.89988397359, 35830.51691419088, 22377.024278286015, -7561.505742252558, 0.138, 1.014, 0.06, 192.0, 2.0, 40.0, 15.5, 88.0, 0.5, 112.0, 0.0, 0.0, 0.0, 1.695754474145036E9, 0.0, 2023-09-26 13:54:34.145
200.0, 73930.42879467354, 68804.12325908223, -19269.505950153583, -14264.816256143602, 33005.904615629275, 31790.193234705122, -187500.02235174447, 26280.711743916483, 45722.03555369801, 33873.37581793974, 4668.608864379986, -1303.486681400142, 51654.054421669774, 35817.28468147334, 22364.261432202034, -7575.877913937321, 0.138, 1.014, 0.06, 192.0, 0.0, 0.0, 0.0, 0.0, 0.0, 0.0, 0.0, 0.0, 0.0, 1.695754474145054E9, 0.0, 2023-09-26 13:54:34.145
202.0, 73918.56001836777, 68794.04262233288, -19275.00447928959, -14261.843474131045, 33012.09604884339, 31785.09703696931, -187500.02235174447, 26291.641746955127, 45728.204635167676, 33889.37966696974, 4669.033547524637, -1295.708274329695, 51658.56947404975, 35829.48873394594, 22373.336240450888, -7560.119934096329, 0.138, 1.014, 0.06, 192.0, 0.0, 0.0, 0.0, 0.0, 0.0, 0.0, 0.0, 0.0, 0.0, 1.695754474145071E9, 0.0, 2023-09-26 13:54:34.145
204.0, 73925.46670740447, 68798.96000611306, -19269.1483222423, -14251.24874725923, 33016.789915179004, 31793.501292884506, -187500.02235174447, 26286.165569563578, 45718.548681562985, 33872.43704467262, 4660.763402076173, -1305.5430418900303, 51653.27211061384, 35842.34098700774, 22374.297365462466, -7558.5329602400025, 0.138, 1.014, 0.06, 192.0, 0.0, 0.0, 0.0, 0.0, 0.0, 0.0, 0.0, 0.0, 0.0, 1.695754474145087E9, 0.0, 2023-09-26 13:54:34.145
206.0, 73925.08672774873, 68804.99497711599, -19276.23382523463, -14259.876520618978, 33015.80643842297, 31774.457606608583, -187500.02235174447, 26288.132523075645, 45724.67305954374, 33890.92193733715, 4664.1608672333805, -1296.8482132969157, 51669.857104999675, 35839.122335806176, 22376.934871308193, -7555.560178227446, 0.138, 1.014, 0.06, 192.0, 0.0, 0.0, 0.0, 0.0, 0.0, 0.0, 0.0, 0.0, 0.0, 1.695754474145103E9, 0.0, 2023-09-26 13:54:34.145
208.0, 73919.78936431282, 68803.81033465987, -19276.81497059047, -14261.910529364412, 33008.25154879708, 31785.320554413865, -187500.02235174447, 26276.1519880476, 45720.158007163765, 33874.94044005161, 4660.8751607984495, -1304.3360476894436, 51660.71524151746, 35825.57717866626, 22368.552967137453, -7568.479486522614, 0.14400000000000002, 1.018, 0.064, 192.0, 2.0, 64.0, 15.5, 104.0, 1.0, 0.0, 0.0, 0.0, 0.0, 1.69575447414512E9, 0.0, 2023-09-26 13:54:34.145
210.0, 73935.43558543154, 68803.65387244867, -19277.329060712942, -14253.282756004663, 33009.70441218667, 31783.599470090805, -187500.02235174447, 26292.33465103324, 45737.212388183165, 33893.78296062743, 4677.326044717556, -1287.393425392321, 51663.88918923011, 35839.81523988429, 22369.603499126853, -7554.286128793494, 0.14400000000000002, 1.018, 0.064, 192.0, 0.0, 0.0, 0.0, 0.0, 0.0, 0.0, 0.0, 0.0, 0.0, 1.695754474145136E9, 0.0, 2023-09-26 13:54:34.145
212.0, 73924.84085855972, 68796.5907212008, -19288.77315387406, -14268.616052701003, 32998.52853995902, 31775.61989732026, -187500.02235174447, 26272.553357190296, 45727.62348981184, 33872.30293420589, 4668.005367279693, -1294.5459836180191, 51649.76288673436, 35835.16607703758, 22355.007809997536, -7565.014966132041, 0.14400000000000002, 1.018, 0.064, 192.0, 0.0, 0.0, 0.0, 0.0, 0.0, 0.0, 0.0, 0.0, 0.0, 1.69575447420432E9, 0.0, 2023-09-26 13:54:34.204
214.0, 73935.97202729846, 68807.63248296172, -19283.744011371615, -14265.196235799342, 33010.933758131716, 31780.649039822703, -187500.02235174447, 26286.67965968605, 45723.510768832064, 33881.914184321664, 4667.267759712668, -1298.2340214531448, 51649.42761056752, 35832.260350258395, 22349.665743072717, -7577.107259882362, 0.14400000000000002, 1.018, 0.064, 192.0, 0.0, 0.0, 0.0, 0.0, 0.0, 0.0, 0.0, 0.0, 0.0, 1.695754474204353E9, 0.0, 2023-09-26 13:54:34.204
216.0, 73932.73102435244, 68803.29624453739, -19287.43204920674, -14274.673375448392, 33010.68788894271, 31767.48386233853, -187500.02235174447, 26275.90611885859, 45736.85476027188, 33886.45158844609, 4667.401870179399, -1294.97066676267, 51646.27601459933, 35829.80165836831, 22357.5782606099, -7573.4415737916925, 0.14400000000000002, 1.018, 0.064, 192.0, 0.0, 0.0, 0.0, 0.0, 0.0, 0.0, 0.0, 0.0, 0.0, 1.695754474204367E9, 0.0, 2023-09-26 13:54:34.204
218.0, 73929.42296617305, 68805.71023293857, -19279.54188341402, -14267.29729977814, 33007.42453425223, 31772.915336241167, -187500.02235174447, 26283.706877673492, 45734.23960617061, 33888.12796928024, 4667.804201579595, -1305.0513035120134, 51650.634604768115, 35819.63161464115, 22356.930060020695, -7575.609693003857, 0.138, 1.018, 0.06, 192.0, 2.0, 40.0, 15.5, 104.0, 0.5, 112.0, 0.0, 0.0, 0.0, 1.695754474204384E9, 0.0, 2023-09-26 13:54:34.204
220.0, 73927.79128882782, 68788.03000307441, -19281.665299137272, -14267.610224200514, 33006.10578132937, 31767.372103616253, -187500.02235174447, 26272.083970556734, 45725.94710897769, 33869.061931259865, 4670.3523004475, -1304.7830825785497, 51659.21767463895, 35813.61899538267, 22356.14774896476, -7575.341472070393, 0.138, 1.018, 0.06, 192.0, 0.0, 0.0, 0.0, 0.0, 0.0, 0.0, 0.0, 0.0, 0.0, 1.695754474204441E9, 0.0, 2023-09-26 13:54:34.204
222.0, 73942.92341982406, 68795.96487235605, -19273.90924381128, -14261.016459586199, 33008.20684530817, 31772.490653096516, -187500.02235174447, 26280.085895071734, 45726.32708863343, 33864.01043701296, 4674.085041771536, -1299.7092365871952, 51657.071907171245, 35833.735565392446, 22360.171062966714, -7570.602902245868, 0.138, 1.018, 0.06, 192.0, 0.0, 0.0, 0.0, 0.0, 0.0, 0.0, 0.0, 0.0, 0.0, 1.695754474204458E9, 0.0, 2023-09-26 13:54:34.204
224.0, 73932.86513481918, 68799.02706134642, -19281.799409604002, -14257.44018047335, 33002.28363302751, 31778.34681014381, -187500.02235174447, 26271.972211834458, 45729.389277623806, 33871.431216172125, 4672.0286812816485, -1300.3350854319438, 51667.21959915395, 35826.04656529982, 22361.13218797829, -7566.8701609218315, 0.138, 1.018, 0.06, 192.0, 0.0, 0.0, 0.0, 0.0, 0.0, 0.0, 0.0, 0.0, 0.0, 1.695754474204475E9, 0.0, 2023-09-26 13:54:34.204
226.0, 73947.46082394848, 68816.55082899939, -19266.711982096673, -14246.77839836817, 33016.029955867525, 31782.1019032123, -187500.02235174447, 26283.572767206762, 45737.637071327816, 33887.47976869104, 4676.342567961522, -1281.0455299670136, 51652.62391002464, 35842.58685619674, 22366.541310136476, -7557.817704417433, 0.138, 1.018, 0.06, 192.0, 0.0, 0.0, 0.0, 0.0, 0.0, 0.0, 0.0, 0.0, 0.0, 1.695754474264249E9, 0.0, 2023-09-26 13:54:34.264
228.0, 73952.15469028411, 68813.46628826455, -19274.356278700387, -14243.559747166604, 33009.34678427539, 31781.029019478447, -187500.02235174447, 26283.170435806565, 45745.77310630955, 33907.66339393418, 4684.992693065727, -1274.3176548859662, 51662.7939537518, 35842.36333875219, 22369.648202615765, -7550.911015380742, 0.134, 1.014, 0.066, 192.0, 2.0, 24.0, 15.5, 88.0, 1.0, 8.0, 0.0, 0.0, 0.0, 1.695754474264284E9, 0.0, 2023-09-26 13:54:34.264
230.0, 73962.68236192255, 68823.3457593138, -19271.875235065847, -14245.213776256298, 32999.02027833704, 31776.357504887284, -187500.02235174447, 26291.619395210673, 45728.76342877906, 33905.6517369332, 4681.438765697332, -1273.2000676632008, 51652.802723980276, 35848.197144055026, 22354.51607161952, -7561.170466085729, 0.134, 1.014, 0.066, 192.0, 0.0, 0.0, 0.0, 0.0, 0.0, 0.0, 0.0, 0.0, 0.0, 1.695754474264301E9, 0.0, 2023-09-26 13:54:34.264
232.0, 73965.4092747461, 68826.92203842665, -19273.797485089002, -14248.745351880236, 32999.26614752605, 31773.205908919088, -187500.02235174447, 26281.516406716873, 45734.37371663734, 33908.8033329014, 4687.607847166997, -1275.904628742293, 51657.474238571434, 35837.289492760836, 22358.338219921377, -7560.54461724098, 0.134, 1.014, 0.066, 192.0, 0.0, 0.0, 0.0, 0.0, 0.0, 0.0, 0.0, 0.0, 0.0, 1.695754474264318E9, 0.0, 2023-09-26 13:54:34.264
234.0, 73960.40248398812, 68823.5916285028, -19279.452476436196, -14247.761875124203, 33001.43426673821, 31781.00666773399, -187500.02235174447, 26284.936223618537, 45724.53894907701, 33879.85782383178, 4682.489297686732, -1277.2457334096114, 51651.08163965722, 35841.31280676279, 22350.917440762216, -7564.858503920854, 0.134, 1.014, 0.066, 192.0, 0.0, 0.0, 0.0, 0.0, 0.0, 0.0, 0.0, 0.0, 0.0, 1.695754474264335E9, 0.0, 2023-09-26 13:54:34.264
236.0, 73961.76594039988, 68826.6985209821, -19273.104581010888, -14244.610279156004, 33009.90557788677, 31787.846301537313, -187500.02235174447, 26294.63688071214, 45745.81780979846, 33906.43404798914, 4689.239524512234, -1268.8638292388714, 51666.52669507584, 35859.32831279377, 22361.28865018948, -7552.296823536972, 0.134, 1.014, 0.066, 192.0, 0.0, 0.0, 0.0, 0.0, 0.0, 0.0, 0.0, 0.0, 0.0, 1.695754474264352E9, 0.0, 2023-09-26 13:54:34.264
238.0, 73958.4578822205, 68821.46821277955, -19274.646851378304, -14251.695782148336, 33011.17962732072, 31780.917260756167, -187500.02235174447, 26292.871092900168, 45742.6438620858, 33899.50500720799, 4691.6311611689525, -1277.4692508541646, 51661.22933163993, 35858.94833313803, 22359.545214121965, -7550.218111302628, 0.14, 1.014, 0.058, 192.0, 2.0, 48.0, 15.5, 88.0, 0.5, 104.0, 0.0, 0.0, 0.0, 1.695754474264368E9, 0.0, 2023-09-26 13:54:34.264
240.0, 73944.62215240266, 68808.16892482864, -19275.362107200875, -14266.313823022107, 33002.395391749786, 31768.310876883374, -187500.02235174447, 26283.952746862502, 45733.1443706923, 33895.79461762841, 4679.047129040615, -1292.9143062727817, 51662.257511884876, 35834.11554504818, 22350.00101923955, -7565.864332421343, 0.14, 1.014, 0.058, 192.0, 0.0, 0.0, 0.0, 0.0, 0.0, 0.0, 0.0, 0.0, 0.0, 1.695754474264385E9, 0.0, 2023-09-26 13:54:34.264
242.0, 73935.61439938718, 68798.89295087969, -19249.590545843905, -14277.042660360654, 32993.14176954529, 31751.703530753082, -187500.02235174447, 26274.29679325781, 45725.45537059967, 33875.789806340916, 4680.4776406857545, -1301.0726929989687, 51647.55006403328, 35824.66075714359, 22347.296458160457, -7573.888608680798, 0.14, 1.014, 0.058, 192.0, 0.0, 0.0, 0.0, 0.0, 0.0, 0.0, 0.0, 0.0, 0.0, 1.695754474324347E9, 0.0, 2023-09-26 13:54:34.324
244.0, 73949.71835013847, 68817.80252668889, -19238.168804427245, -14260.614128186004, 33004.3399935174, 31764.689894281615, -187500.02235174447, 26293.34047953373, 45731.08801020241, 33895.12406529475, 4681.841097097528, -1285.5382306025303, 51646.11955238814, 35826.04656529982, 22345.173042437204, -7573.083945880408, 0.14, 1.014, 0.058, 192.0, 0.0, 0.0, 0.0, 0.0, 0.0, 0.0, 0.0, 0.0, 0.0, 1.695754474324386E9, 0.0, 2023-09-26 13:54:34.324
246.0, 73941.93994306802, 68810.96289288555, -19240.739255039603, -14256.72492465078, 32998.72970565912, 31765.695722782104, -187500.02235174447, 26283.125732317654, 45726.99764096709, 33874.13577725122, 4686.847887855517, -1285.582934091441, 51649.42761056752, 35832.7073851475, 22347.207051182635, -7566.244312077083, 0.14, 1.014, 0.058, 192.0, 0.0, 0.0, 0.0, 0.0, 0.0, 0.0, 0.0, 0.0, 0.0, 1.695754474324401E9, 0.0, 2023-09-26 13:54:34.324
248.0, 73942.34227446822, 68812.68397720861, -19242.70620855167, -14262.379915997974, 32998.79676089248, 31766.969772216056, -187500.02235174447, 26289.943014376524, 45729.00929796807, 33881.936536066125, 4688.479565200754, -1285.7393963026282, 51651.59572977969, 35819.02811754085, 22340.456824357134, -7570.133515612307, 0.14, 1.016, 0.056, 192.0, 2.0, 48.0, 15.5, 96.0, 0.5, 96.0, 0.0, 0.0, 0.0, 1.695754474324417E9, 0.0, 2023-09-26 13:54:34.324
250.0, 73931.72519585195, 68807.61013121727, -19250.842243533403, -14267.29729977814, 32993.320583500936, 31761.068911679857, -187500.02235174447, 26265.49020594242, 45723.309603131966, 33869.88894580471, 4688.054882056103, -1284.5324021020415, 51648.80176172278, 35835.814277626785, 22338.84749875635, -7575.766155215044, 0.14, 1.016, 0.056, 192.0, 0.0, 0.0, 0.0, 0.0, 0.0, 0.0, 0.0, 0.0, 0.0, 1.695754474324433E9, 0.0, 2023-09-26 13:54:34.324
252.0, 73948.71252163798, 68818.56248600036, -19244.516699852553, -14261.910529364412, 33012.09604884339, 31763.438196592117, -187500.02235174447, 26278.63303168214, 45724.02485895454, 33892.84418736031, 4685.082100043547, -1290.1873934492344, 51645.963090176956, 35834.71904214848, 22334.37714986529, -7576.637873248801, 0.14, 1.016, 0.056, 192.0, 0.0, 0.0, 0.0, 0.0, 0.0, 0.0, 0.0, 0.0, 0.0, 1.695754474324449E9, 0.0, 2023-09-26 13:54:34.324
254.0, 73946.70086463701, 68812.14753534169, -19249.32232491044, -14254.892081605445, 33000.83076963792, 31761.13596691322, -187500.02235174447, 26269.49116819992, 45728.964594479155, 33878.96375405356, 4693.888687358938, -1282.1184137008684, 51645.06902039874, 35831.43333571355, 22342.244963913556, -7568.92652141172, 0.14, 1.016, 0.056, 192.0, 0.0, 0.0, 0.0, 0.0, 0.0, 0.0, 0.0, 0.0, 0.0, 1.695754474324466E9, 0.0, 2023-09-26 13:54:34.324
0.0, 73947.46082394848, 68819.5459627564, -19245.164900441756, -14252.254575759718, 33002.77537140553, 31766.030998948932, -187500.02235174447, 26280.845854383213, 45741.16864695176, 33894.36410598327, 4700.817728140084, -1273.3565298743881, 51655.79785773729, 35837.87063811668, 22340.99326622406, -7561.393983530282, 0.14, 1.016, 0.056, 192.0, 0.0, 0.0, 0.0, 0.0, 0.0, 0.0, 0.0, 0.0, 0.0, 1.695754474384798E9, 0.0, 2023-09-26 13:54:34.384
2.0, 73947.59493441522, 68820.93177091262, -19249.747008055092, -14255.62968917247, 32999.91434811525, 31770.501347839996, -187500.02235174447, 26263.56795591926, 45732.16089393627, 33875.23101272953, 4693.821632125572, -1283.68303581274, 51639.34697381818, 35834.696690404024, 22335.22651615459, -7562.7574399420555, 0.138, 1.018, 0.052000000000000005, 192.0, 2.0, 40.0, 15.5, 104.0, 0.5, 80.0, 0.0, 0.0, 0.0, 1.695754474384833E9, 0.0, 2023-09-26 13:54:34.384
4.0, 73954.52397519637, 68824.50805002547, -19251.848072033892, -14252.500444948728, 33010.62083370934, 31769.830795506336, -187500.02235174447, 26282.321069517264, 45737.90529226128, 33899.28148976344, 4697.353207749511, -1281.6043235783964, 51652.26628211335, 35843.54798120832, 22336.522917332997, -7556.677765450212, 0.138, 1.018, 0.052000000000000005, 192.0, 0.0, 0.0, 0.0, 0.0, 0.0, 0.0, 0.0, 0.0, 0.0, 1.69575447438486E9, 0.0, 2023-09-26 13:54:34.384
6.0, 73950.61241991668, 68818.24956157799, -19251.57985110043, -14251.67343040388, 33009.458542997665, 31766.25451639349, -187500.02235174447, 26265.758426875884, 45734.79839978199, 33888.23972800252, 4698.023760083171, -1279.1456316883125, 51655.01554668135, 35828.415850212084, 22339.65216155674, -7557.571835228424, 0.138, 1.018, 0.052000000000000005, 192.0, 0.0, 0.0, 0.0, 0.0, 0.0, 0.0, 0.0, 0.0, 0.0, 1.695754474384875E9, 0.0, 2023-09-26 13:54:34.384
8.0, 73936.70963486549, 68809.2865120514, -19259.782941315527, -14254.400343227428, 33009.033859853014, 31766.43333034913, -187500.02235174447, 26281.11407531668, 45736.2959666605, 33879.65665813168, 4695.78858563764, -1274.5635240749746, 51647.59476752219, 35827.32061473377, 22334.37714986529, -7562.131591097306, 0.138, 1.018, 0.052000000000000005, 192.0, 0.0, 0.0, 0.0, 0.0, 0.0, 0.0, 0.0, 0.0, 0.0, 1.695754474384888E9, 0.0, 2023-09-26 13:54:34.384
10.0, 73929.87000106215, 68803.38565151521, -19268.455418164187, -14266.045602088643, 32994.48287421261, 31757.62674303374, -187500.02235174447, 26273.939165346525, 45714.838291983404, 33870.604201627284, 4679.740033118729, -1295.8200330519717, 51639.61519475165, 35818.46932392947, 22321.346082847846, -7574.35799531436, 0.138, 1.018, 0.052000000000000005, 192.0, 0.0, 0.0, 0.0, 0.0, 0.0, 0.0, 0.0, 0.0, 0.0, 1.695754474384941E9, 0.0, 2023-09-26 13:54:34.384
12.0, 73927.23249521643, 68808.14657308419, -19265.706153596184, -14262.82695088708, 33004.94349061769, 31765.76277801547, -187500.02235174447, 26292.804037666803, 45736.11715270486, 33872.12412025024, 4696.615600182486, -1282.6995590567064, 51647.639471011105, 35832.17094328057, 22335.94177197716, -7556.320137538927, 0.14, 1.014, 0.052000000000000005, 192.0, 2.0, 48.0, 15.5, 88.0, 0.5, 80.0, 0.0, 0.0, 0.0, 1.695754474384957E9, 0.0, 2023-09-26 13:54:34.384
14.0, 73911.54157060881, 68800.27875903592, -19280.34654621441, -14269.800695157135, 32987.777350876015, 31750.56359178586, -187500.02235174447, 26274.207386279988, 45711.485530315105, 33876.41565518566, 4670.776983592151, -1305.453634912209, 51630.96506964744, 35819.69866987451, 22312.830068210373, -7578.537771527502, 0.14, 1.014, 0.052000000000000005, 192.0, 0.0, 0.0, 0.0, 0.0, 0.0, 0.0, 0.0, 0.0, 0.0, 1.695754474384974E9, 0.0, 2023-09-26 13:54:34.384
16.0, 73919.23057070143, 68811.9910731305, -19256.47488313614, -14253.685087404858, 33004.76467666205, 31767.349751871796, -187500.02235174447, 26287.953709120004, 45723.33195487642, 33870.85007081629, 4682.913980831383, -1291.5955533499186, 51632.954374903966, 35826.49360018892, 22329.303303873934, -7571.139344112796, 0.14, 1.014, 0.052000000000000005, 192.0, 0.0, 0.0, 0.0, 0.0, 0.0, 0.0, 0.0, 0.0, 0.0, 1.69575447444505E9, 0.0, 2023-09-26 13:54:34.445
18.0, 73927.05368126079, 68814.51682025395, -19248.96469699916, -14249.34884898053, 33014.4429820112, 31781.654868323192, -187500.02235174447, 26283.617470695674, 45745.68369933173, 33884.70815237858, 4701.153004306913, -1275.7481665311059, 51647.32654658873, 35835.970739837976, 22347.363513393822, -7552.408582259248, 0.14, 1.014, 0.052000000000000005, 192.0, 0.0, 0.0, 0.0, 0.0, 0.0, 0.0, 0.0, 0.0, 0.0, 1.695754474445101E9, 0.0, 2023-09-26 13:54:34.445
20.0, 73924.81850681527, 68819.12127961175, -19258.57594711494, -14261.172921797386, 33008.92210113074, 31781.073722967354, -187500.02235174447, 26295.329784790254, 45738.91112076177, 33870.961829538566, 4699.655437428408, -1281.2690474115668, 51654.03206992532, 35845.49258297594, 22347.542327349463, -7556.588358472391, 0.14, 1.014, 0.052000000000000005, 192.0, 0.0, 0.0, 0.0, 0.0, 0.0, 0.0, 0.0, 0.0, 0.0, 1.695754474445118E9, 0.0, 2023-09-26 13:54:34.445
22.0, 73931.1440504961, 68822.02700639094, -19257.212490703165, -14261.351735753029, 33000.71901091564, 31786.728714314548, -187500.02235174447, 26287.61843295317, 45737.90529226128, 33878.80729184238, 4686.624370410964, -1293.7860243065388, 51649.517017545346, 35834.696690404024, 22344.390731381267, -7563.897378909276, 0.14, 1.018, 0.06, 192.0, 2.0, 48.0, 15.5, 104.0, 0.5, 112.0, 0.0, 0.0, 0.0, 1.695754474445133E9, 0.0, 2023-09-26 13:54:34.445
24.0, 73927.52306789435, 68806.60430271678, -19258.978278515136, -14268.906625378922, 32999.84729288188, 31786.43814163663, -187500.02235174447, 26288.601909709207, 45745.92956852073, 33882.16005351068, 4693.151079791914, -1285.9852654916365, 51649.00292742287, 35844.62086494218, 22359.94754552216, -7559.136457340295, 0.14, 1.018, 0.06, 192.0, 0.0, 0.0, 0.0, 0.0, 0.0, 0.0, 0.0, 0.0, 0.0, 1.695754474445148E9, 0.0, 2023-09-26 13:54:34.445
26.0, 73924.10325099269, 68799.31763402434, -19273.57396764445, -14278.987262128267, 32980.11070252785, 31780.738446800526, -187500.02235174447, 26289.04894459831, 45740.45339112919, 33893.89471934971, 4681.170544763869, -1294.8589080403935, 51644.37611632063, 35847.52659172137, 22355.70071407565, -7563.003309131063, 0.14, 1.018, 0.06, 192.0, 0.0, 0.0, 0.0, 0.0, 0.0, 0.0, 0.0, 0.0, 0.0, 1.695754474445163E9, 0.0, 2023-09-26 13:54:34.445
28.0, 73945.31505648077, 68821.0435296349, -19249.299973165987, -14268.638404445459, 32979.86483333884, 31798.977470276055, -187500.02235174447, 26284.77976140735, 45731.22212066915, 33868.7937103264, 4676.744899361718, -1293.4060446507985, 51629.243985324385, 35852.108699334705, 22362.540347878978, -7568.993576645086, 0.14, 1.018, 0.06, 192.0, 0.0, 0.0, 0.0, 0.0, 0.0, 0.0, 0.0, 0.0, 0.0, 1.695754474445178E9, 0.0, 2023-09-26 13:54:34.445
30.0, 73954.03223681834, 68810.22528531853, -19250.216394688654, -14278.428468516884, 32971.05824602345, 31796.8540545528, -187500.02235174447, 26281.516406716873, 45741.32510916294, 33889.62553615875, 4677.013120295182, -1295.7306260741505, 51638.76582846235, 35843.88325737516, 22373.157426495247, -7560.5893207298905, 0.14, 1.018, 0.06, 192.0, 0.0, 0.0, 0.0, 0.0, 0.0, 0.0, 0.0, 0.0, 0.0, 1.695754474504315E9, 0.0, 2023-09-26 13:54:34.504
32.0, 73954.56867868527, 68810.60526497428, -19239.822833516937, -14281.043622618154, 32977.74141761559, 31796.161150474687, -187500.02235174447, 26277.381333992642, 45747.561245865974, 33869.12898649323, 4680.87997208595, -1297.004675508103, 51637.26826158384, 35852.712196435, 22390.770601126027, -7553.123838081818, 0.136, 1.018, 0.068, 192.0, 2.0, 32.0, 15.5, 104.0, 1.0, 16.0, 0.0, 0.0, 0.0, 1.695754474504386E9, 0.0, 2023-09-26 13:54:34.504
34.0, 73952.33350423974, 68796.27779677842, -19244.315534152454, -14292.867695435012, 32966.252620965555, 31798.172807475665, -187500.02235174447, 26284.73505791844, 45739.98400449562, 33879.92487906515, 4666.083117256537, -1311.421550681776, 51640.82218895223, 35843.21270504149, 22388.535426680497, -7558.398849773271, 0.136, 1.018, 0.068, 192.0, 0.0, 0.0, 0.0, 0.0, 0.0, 0.0, 0.0, 0.0, 0.0, 1.695754474504401E9, 0.0, 2023-09-26 13:54:34.504
36.0, 73942.61049540169, 68778.70932563655, -19247.042446976, -14300.132012382986, 32963.79392907547, 31788.38274340424, -187500.02235174447, 26278.074238070756, 45732.58557708092, 33846.8890007602, 4656.516570629665, -1320.2728414860776, 51630.04864812478, 35833.84732411472, 22390.189455770193, -7563.383288786804, 0.136, 1.018, 0.068, 192.0, 0.0, 0.0, 0.0, 0.0, 0.0, 0.0, 0.0, 0.0, 0.0, 1.695754474504415E9, 0.0, 2023-09-26 13:54:34.504
38.0, 73941.51525992337, 68788.92407285262, -19242.415635873753, -14293.560599513126, 32966.09615875437, 31793.0542579954, -187500.02235174447, 26294.83804641224, 45732.42911486973, 33870.93947779411, 4655.041355495615, -1315.4895681726418, 51641.15746511906, 35838.51883870588, 22399.376022741322, -7552.855617148354, 0.136, 1.018, 0.068, 192.0, 0.0, 0.0, 0.0, 0.0, 0.0, 0.0, 0.0, 0.0, 0.0, 1.69575447450443E9, 0.0, 2023-09-26 13:54:34.504
40.0, 73939.52595466685, 68792.1874275431, -19242.169766684743, -14297.136878625975, 32967.303152954955, 31793.031906250944, -187500.02235174447, 26282.92456661756, 45717.94518446269, 33854.22037294154, 4646.659451324875, -1326.7324956336613, 51612.48017698291, 35834.070841559274, 22389.563606925443, -7557.951814884164, 0.136, 1.018, 0.068, 192.0, 0.0, 0.0, 0.0, 0.0, 0.0, 0.0, 0.0, 0.0, 0.0, 1.695754474504445E9, 0.0, 2023-09-26 13:54:34.504
42.0, 73947.46082394848, 68798.33415726831, -19242.14741494029, -14292.353605312539, 32972.01937103503, 31789.0532957379, -187500.02235174447, 26292.379354522152, 45720.40387635278, 33861.35057942278, 4642.949061745294, -1330.3758299798765, 51625.75711318936, 35824.05726004329, 22385.495589434577, -7566.557236499458, 0.136, 1.012, 0.064, 192.0, 2.0, 32.0, 15.5, 80.0, 1.0, 0.0, 0.0, 0.0, 0.0, 1.69575447450446E9, 0.0, 2023-09-26 13:54:34.504
44.0, 73953.47344320697, 68803.58681721531, -19228.62460954483, -14275.925073137889, 32991.085409055406, 31804.230130223055, -187500.02235174447, 26289.361869020686, 45739.738135306616, 33877.46618717506, 4664.853771311495, -1309.5663558919855, 51635.41306679405, 35852.42162375708, 22412.518848481042, -7542.618518187824, 0.136, 1.012, 0.064, 192.0, 0.0, 0.0, 0.0, 0.0, 0.0, 0.0, 0.0, 0.0, 0.0, 1.695754474504476E9, 0.0, 2023-09-26 13:54:34.504
46.0, 73952.71348389548, 68791.42746823162, -19240.806310272972, -14290.54311401166, 32973.00284779106, 31784.828816035846, -187500.02235174447, 26287.43961899753, 45735.737173049114, 33858.84718404379, 4656.985957263227, -1306.9288500462592, 51637.491779028394, 35845.604341698214, 22402.95230185417, -7552.453285748159, 0.136, 1.012, 0.064, 192.0, 0.0, 0.0, 0.0, 0.0, 0.0, 0.0, 0.0, 0.0, 0.0, 1.695754474564242E9, 0.0, 2023-09-26 13:54:34.564
48.0, 73970.34901027071, 68805.66552944964, -19225.04833043198, -14276.886198149467, 32984.20107176317, 31796.518778385973, -187500.02235174447, 26270.742865889417, 45734.75369629308, 33858.780128810424, 4658.215303208269, -1305.2971727010217, 51637.02239239483, 35849.5606004668, 22403.645205932287, -7554.01790786003, 0.136, 1.012, 0.064, 192.0, 0.0, 0.0, 0.0, 0.0, 0.0, 0.0, 0.0, 0.0, 0.0, 1.695754474564276E9, 0.0, 2023-09-26 13:54:34.564
50.0, 73959.93309735454, 68796.81423864535, -19234.167842169743, -14286.16217209842, 32973.98632454709, 31788.092170726322, -187500.02235174447, 26281.315241016775, 45733.1443706923, 33875.47688191854, 4657.678861341341, -1303.9784197781587, 51636.97768890592, 35834.495524703925, 22398.4372494742, -7558.35414628436, 0.136, 1.012, 0.064, 192.0, 0.0, 0.0, 0.0, 0.0, 0.0, 0.0, 0.0, 0.0, 0.0, 1.695754474564293E9, 0.0, 2023-09-26 13:54:34.564
52.0, 73960.49189096593, 68804.30207303788, -19233.162013669255, -14271.25355854673, 32984.648106652276, 31798.35162143131, -187500.02235174447, 26273.91681360207, 45732.07148695845, 33870.20187022709, 4652.403849649889, -1304.7830825785497, 51637.24590983938, 35851.4604987455, 22401.00770008656, -7551.425105503215, 0.138, 1.016, 0.066, 192.0, 2.0, 40.0, 15.5, 96.0, 1.0, 8.0, 0.0, 0.0, 0.0, 1.695754474564313E9, 0.0, 2023-09-26 13:54:34.564
54.0, 73955.59685893022, 68794.91434036665, -19228.222278144633, -14281.535360996171, 32979.328391471914, 31781.788978789926, -187500.02235174447, 26288.601909709207, 45736.87711201634, 33867.76553008146, 4653.432029894832, -1309.6334111253514, 51642.49856978638, 35852.98041736847, 22398.72782215212, -7552.028602603508, 0.138, 1.016, 0.066, 192.0, 0.0, 0.0, 0.0, 0.0, 0.0, 0.0, 0.0, 0.0, 0.0, 1.695754474564369E9, 0.0, 2023-09-26 13:54:34.564
56.0, 73958.86021362069, 68792.29918626537, -19230.703321779172, -14284.798715686646, 32977.13792051529, 31790.461455638586, -187500.02235174447, 26274.0509240688, 45731.28917590251, 33871.69943710559, 4647.687631569819, -1311.6227163818737, 51621.51028174285, 35850.72289117848, 22397.00673782906, -7556.364841027837, 0.138, 1.016, 0.066, 192.0, 0.0, 0.0, 0.0, 0.0, 0.0, 0.0, 0.0, 0.0, 0.0, 1.695754474564387E9, 0.0, 2023-09-26 13:54:34.564
58.0, 73966.88448988015, 68795.51783746693, -19225.070682176432, -14282.54118949666, 32981.29534498398, 31794.752990574005, -187500.02235174447, 26288.423095753566, 45731.08801020241, 33862.0434835009, 4649.833399037529, -1311.1533297483122, 51625.824168422725, 35847.90657137711, 22397.47612446262, -7560.231692818606, 0.138, 1.016, 0.066, 192.0, 0.0, 0.0, 0.0, 0.0, 0.0, 0.0, 0.0, 0.0, 0.0, 1.695754474564403E9, 0.0, 2023-09-26 13:54:34.564
60.0, 73945.1585942696, 68768.98631679849, -19252.742141812105, -14312.626637533504, 32956.887240038785, 31769.920202484158, -187500.02235174447, 26269.982906577934, 45730.015126468556, 33853.37100665224, 4644.446628623799, -1320.4069519528093, 51630.719200458436, 35833.154420036604, 22387.44019120219, -7567.518361511035, 0.138, 1.016, 0.066, 192.0, 0.0, 0.0, 0.0, 0.0, 0.0, 0.0, 0.0, 0.0, 0.0, 1.695754474624392E9, 0.0, 2023-09-26 13:54:34.624
62.0, 73971.48894923794, 68796.56836945633, -19227.261153133055, -14280.998919129244, 32984.7375136301, 31788.516853870973, -187500.02235174447, 26280.465874727473, 45728.964594479155, 33852.164012451656, 4644.021945479149, -1315.713085617195, 51627.45584576796, 35840.508143962405, 22386.14379002378, -7563.338585297894, 0.14400000000000002, 1.012, 0.06, 192.0, 2.0, 64.0, 15.5, 80.0, 0.5, 112.0, 0.0, 0.0, 0.0, 1.695754474624446E9, 0.0, 2023-09-26 13:54:34.624
64.0, 73963.3082107673, 68779.7822093704, -19238.369970127344, -14295.236980347274, 32975.059208280945, 31787.62278409276, -187500.02235174447, 26282.49988347291, 45734.50782710408, 33872.12412025024, 4648.849922281494, -1311.9803442931586, 51634.40723829356, 35847.54894346582, 22395.37506048382, -7556.454248005659, 0.14400000000000002, 1.012, 0.06, 192.0, 0.0, 0.0, 0.0, 0.0, 0.0, 0.0, 0.0, 0.0, 0.0, 1.695754474624463E9, 0.0, 2023-09-26 13:54:34.624
66.0, 73966.32569626876, 68785.12427629522, -19240.225164917134, -14294.298207080152, 32978.0319902935, 31792.16018821719, -187500.02235174447, 26291.842912655226, 45725.969460722146, 33863.250477701484, 4641.004459977682, -1316.9424315622368, 51628.93106090201, 35848.48771673295, 22388.513074936043, -7555.046088104974, 0.14400000000000002, 1.012, 0.06, 192.0, 0.0, 0.0, 0.0, 0.0, 0.0, 0.0, 0.0, 0.0, 0.0, 1.695754474624478E9, 0.0, 2023-09-26 13:54:34.624
68.0, 73977.12158884067, 68787.82883737431, -19240.359275383864, -14293.404137301939, 32982.547042673476, 31791.132007972243, -187500.02235174447, 26290.47945624345, 45734.93251024873, 33867.452605659084, 4643.507855356676, -1316.5624519064966, 51634.80956969375, 35847.48188823246, 22390.770601126027, -7553.704983437656, 0.14400000000000002, 1.012, 0.06, 192.0, 0.0, 0.0, 0.0, 0.0, 0.0, 0.0, 0.0, 0.0, 0.0, 1.695754474624493E9, 0.0, 2023-09-26 13:54:34.624
70.0, 73981.10019935372, 68790.13106705321, -19226.858821732858, -14284.06110811962, 32979.4848536831, 31800.67620285466, -187500.02235174447, 26295.553302234806, 45739.604024839886, 33876.43800693012, 4648.581701348031, -1309.745169847628, 51634.60840399366, 35850.47702198947, 22397.81140062945, -7550.30751828045, 0.14400000000000002, 1.012, 0.06, 192.0, 0.0, 0.0, 0.0, 0.0, 0.0, 0.0, 0.0, 0.0, 0.0, 1.69575447462451E9, 0.0, 2023-09-26 13:54:34.624
72.0, 73981.99426913193, 68789.70638390856, -19226.255324632566, -14280.663642962414, 32987.12915028681, 31802.710211600093, -187500.02235174447, 26300.02365112587, 45740.11811496236, 33892.3971524712, 4648.3134804145675, -1304.06782675598, 51635.97186040543, 35861.7646529394, 22403.086412320903, -7547.602957201357, 0.138, 1.008, 0.058, 192.0, 2.0, 40.0, 15.5, 64.0, 0.5, 104.0, 0.0, 0.0, 0.0, 1.695754474624526E9, 0.0, 2023-09-26 13:54:34.624
74.0, 73976.33927778475, 68768.98631679849, -19234.257249147566, -14290.029023889188, 32982.90467058476, 31787.555728859395, -187500.02235174447, 26289.67479344306, 45726.57295782244, 33875.90156506319, 4637.852864009484, -1310.6392396258402, 51630.003944635864, 35847.839516143744, 22402.661729176252, -7550.531035725002, 0.138, 1.008, 0.058, 192.0, 0.0, 0.0, 0.0, 0.0, 0.0, 0.0, 0.0, 0.0, 0.0, 1.695754474624541E9, 0.0, 2023-09-26 13:54:34.624
76.0, 73993.12543787068, 68782.82204661633, -19220.913257707747, -14281.289491807163, 32988.850234609876, 31791.28847018343, -187500.02235174447, 26287.596081208718, 45731.57974858043, 33891.23486175953, 4642.278509411634, -1305.3418761899325, 51642.18564536401, 35858.881277904664, 22405.09806932188, -7548.005288601553, 0.138, 1.008, 0.058, 192.0, 0.0, 0.0, 0.0, 0.0, 0.0, 0.0, 0.0, 0.0, 0.0, 1.695754474684667E9, 0.0, 2023-09-26 13:54:34.684
78.0, 73981.83780692075, 68773.09903777827, -19233.51964158054, -14291.34777681205, 32978.12139727132, 31779.263231666475, -187500.02235174447, 26280.48822647193, 45729.09870494589, 33861.79761431189, 4637.562291331565, -1312.6285448823626, 51631.38975279209, 35841.491620718436, 22391.2846912485, -7565.953739399164, 0.138, 1.008, 0.058, 192.0, 0.0, 0.0, 0.0, 0.0, 0.0, 0.0, 0.0, 0.0, 0.0, 1.695754474684698E9, 0.0, 2023-09-26 13:54:34.684
80.0, 73973.0088678609, 68773.63547964519, -19242.90737425177, -14300.64610250546, 32976.24385073708, 31768.53439432793, -187500.02235174447, 26280.91290961658, 45736.54183584951, 33893.76060888298, 4642.725544300741, -1313.5673181494853, 51642.85619769766, 35850.45467024502, 22386.166141768237, -7567.697175466678, 0.138, 1.008, 0.058, 192.0, 0.0, 0.0, 0.0, 0.0, 0.0, 0.0, 0.0, 0.0, 0.0, 1.695754474684716E9, 0.0, 2023-09-26 13:54:34.684
82.0, 73966.59391720223, 68775.26715699043, -19239.91224049476, -14290.498410522749, 32982.18941476219, 31765.449853593094, -187500.02235174447, 26271.502825200896, 45722.92962347622, 33861.730559078525, 4633.717791285252, -1319.4011234523207, 51620.16917707553, 35827.58883566724, 22375.52671140751, -7579.633007005812, 0.138, 1.014, 0.064, 192.0, 2.0, 40.0, 15.5, 88.0, 1.0, 0.0, 0.0, 0.0, 0.0, 1.695754474684733E9, 0.0, 2023-09-26 13:54:34.684
84.0, 73966.57156545778, 68777.61409015824, -19242.415635873753, -14293.605303002038, 32976.95910655965, 31766.589792560317, -187500.02235174447, 26275.72730490295, 45725.00833571057, 33885.199890756594, 4640.132741943925, -1307.934678546748, 51631.12153185863, 35830.87454210217, 22375.57141489642, -7576.056727892963, 0.138, 1.014, 0.064, 192.0, 0.0, 0.0, 0.0, 0.0, 0.0, 0.0, 0.0, 0.0, 0.0, 1.695754474684748E9, 0.0, 2023-09-26 13:54:34.684
86.0, 73958.41317873159, 68767.42169468662, -19244.404941130273, -14304.267085107218, 32971.013542534536, 31762.834699491825, -187500.02235174447, 26258.829386094738, 45717.09581817339, 33849.481803117014, 4632.980183718227, -1311.5556611485079, 51625.26537481134, 35827.05239380031, 22367.18951072568, -7582.561085529457, 0.138, 1.014, 0.064, 192.0, 0.0, 0.0, 0.0, 0.0, 0.0, 0.0, 0.0, 0.0, 0.0, 1.695754474684764E9, 0.0, 2023-09-26 13:54:34.684
88.0, 73977.07688535177, 68783.1349710387, -19244.963734741657, -14302.97068392881, 32975.57329840342, 31769.406112361685, -187500.02235174447, 26260.796339606804, 45731.53504509152, 33883.00941979998, 4635.438875608311, -1310.706294859206, 51637.40237205057, 35830.42750721306, 22370.452865416155, -7584.081004152418, 0.138, 1.014, 0.064, 192.0, 0.0, 0.0, 0.0, 0.0, 0.0, 0.0, 0.0, 0.0, 0.0, 1.695754474684779E9, 0.0, 2023-09-26 13:54:34.684
90.0, 73975.73578068445, 68798.84824739078, -19231.48563283511, -14282.20591332983, 32981.988249062095, 31788.2039294486, -187500.02235174447, 26266.160758276077, 45736.38537363832, 33876.9968005415, 4644.804256535084, -1308.6052308804074, 51627.67936321251, 35842.85507713021, 22368.843539815374, -7581.510553540058, 0.138, 1.014, 0.064, 192.0, 0.0, 0.0, 0.0, 0.0, 0.0, 0.0, 0.0, 0.0, 0.0, 1.695754474745071E9, 0.0, 2023-09-26 13:54:34.745
92.0, 73969.0079056034, 68794.86963687773, -19226.300028121477, -14273.39932601444, 32985.542176430485, 31796.831702808347, -187500.02235174447, 26285.71853467447, 45724.76246652156, 33904.73531541054, 4654.169637461858, -1281.067881711469, 51633.35670630416, 35860.781176183365, 22388.311909235945, -7555.806047416455, 0.14, 1.016, 0.056, 192.0, 2.0, 48.0, 15.5, 96.0, 0.5, 96.0, 0.0, 0.0, 0.0, 1.695754474745105E9, 0.0, 2023-09-26 13:54:34.745
94.0, 73960.69305666603, 68795.45078223357, -19252.876252278835, -14282.250616818741, 32970.70061811216, 31783.510063112983, -187500.02235174447, 26264.909060586582, 45706.255222112566, 33884.41757970066, 4636.176483175335, -1295.1494807183124, 51620.52680498682, 35849.51589697789, 22371.101066005358, -7577.598998260379, 0.14, 1.016, 0.056, 192.0, 0.0, 0.0, 0.0, 0.0, 0.0, 0.0, 0.0, 0.0, 0.0, 1.695754474745123E9, 0.0, 2023-09-26 13:54:34.745
96.0, 73975.46755975099, 68811.67814870813, -19244.24847891909, -14259.608299685515, 32998.2379672811, 31807.895816313725, -187500.02235174447, 26286.925528875057, 45719.21923389664, 33917.81108591689, 4651.107448471481, -1272.551867073997, 51628.349915546176, 35871.6664757331, 22394.033955816503, -7552.7215066816225, 0.14, 1.016, 0.056, 192.0, 0.0, 0.0, 0.0, 0.0, 0.0, 0.0, 0.0, 0.0, 0.0, 1.695754474745139E9, 0.0, 2023-09-26 13:54:34.745
98.0, 73974.72995218396, 68811.27581730793, -19248.987048743613, -14257.35077349553, 32994.95226084617, 31810.980357048556, -187500.02235174447, 26283.461008484486, 45711.776102993026, 33910.32325152436, 4649.699288570797, -1272.77538451855, 51632.93202315951, 35866.05618787482, 22393.072830804926, -7547.871178134821, 0.14, 1.016, 0.056, 192.0, 0.0, 0.0, 0.0, 0.0, 0.0, 0.0, 0.0, 0.0, 0.0, 1.69575447474519E9, 0.0, 2023-09-26 13:54:34.745
100.0, 73964.91753636808, 68802.26806429244, -19257.368952914352, -14267.878445133978, 32985.51982468603, 31808.58872039184, -187500.02235174447, 26290.97119462147, 45713.11720766035, 33928.31640581088, 4653.342622917012, -1268.908532727782, 51632.239119081394, 35879.646048503644, 22396.358537239856, -7544.630175188801, 0.14, 1.016, 0.056, 192.0, 0.0, 0.0, 0.0, 0.0, 0.0, 0.0, 0.0, 0.0, 0.0, 1.695754474745207E9, 0.0, 2023-09-26 13:54:34.745
102.0, 73978.462693508, 68817.62371273324, -19242.102711451378, -14245.52670067867, 33012.52073198804, 31823.810258365902, -187500.02235174447, 26288.959537620492, 45708.11041690236, 33919.554521984406, 4649.006384492682, -1274.6082275638853, 51626.47236901193, 35874.21457460101, 22387.529598180008, -7551.693326436678, 0.14, 1.02, 0.058, 192.0, 2.0, 48.0, 15.5, 112.0, 0.5, 104.0, 0.0, 0.0, 0.0, 1.695754474745224E9, 0.0, 2023-09-26 13:54:34.745
104.0, 73966.75037941341, 68804.16796257114, -19257.52541512554, -14254.15447403842, 33002.79772314998, 31807.806409335903, -187500.02235174447, 26304.11402036119, 45719.599213552385, 33947.1142228978, 4666.418393423366, -1250.3565848298772, 51648.77940997832, 35906.02110696091, 22405.388641999798, -7527.955773825142, 0.14, 1.02, 0.058, 192.0, 0.0, 0.0, 0.0, 0.0, 0.0, 0.0, 0.0, 0.0, 0.0, 1.695754474745241E9, 0.0, 2023-09-26 13:54:34.745
106.0, 73974.8640626507, 68813.60039873129, -19254.418522646254, -14249.81823561409, 33009.033859853014, 31814.15430476121, -187500.02235174447, 26298.369622036174, 45706.00935292356, 33944.29790309643, 4651.263910682668, -1274.9435037307148, 51640.419857552035, 35880.96480142651, 22387.66370864674, -7548.564082212935, 0.14, 1.02, 0.058, 192.0, 0.0, 0.0, 0.0, 0.0, 0.0, 0.0, 0.0, 0.0, 0.0, 1.695754474804473E9, 0.0, 2023-09-26 13:54:34.804
108.0, 73972.4053707606, 68810.76172718545, -19260.989935516114, -14257.753104895724, 33009.167970319744, 31809.460438425594, -187500.02235174447, 26309.16551460809, 45719.84508274139, 33942.24154260654, 4661.031623009637, -1260.7501460015949, 51636.01656389434, 35900.81315050282, 22395.687984906195, -7536.650602418256, 0.14, 1.02, 0.058, 192.0, 0.0, 0.0, 0.0, 0.0, 0.0, 0.0, 0.0, 0.0, 0.0, 1.69575447480452E9, 0.0, 2023-09-26 13:54:34.804
110.0, 73959.39665548762, 68794.19908454407, -19273.886892066825, -14273.287567292164, 33001.45661848267, 31795.66941209667, -187500.02235174447, 26300.44833427052, 45708.71391400265, 33920.67210920717, 4646.525340858143, -1272.6412740518183, 51631.635621981106, 35876.18152811307, 22386.233197001602, -7551.939195625687, 0.14, 1.02, 0.058, 192.0, 0.0, 0.0, 0.0, 0.0, 0.0, 0.0, 0.0, 0.0, 0.0, 1.69575447480454E9, 0.0, 2023-09-26 13:54:34.804
112.0, 73962.34708575573, 68796.72483166752, -19278.066668279967, -14269.10779107902, 33005.5916912069, 31802.039659266433, -187500.02235174447, 26308.427907041063, 45697.1357103748, 33911.82081840287, 4631.549672073087, -1288.131032959346, 51618.69396194148, 35874.37103681219, 22376.04080152998, -7555.180198571707, 0.14400000000000002, 1.016, 0.056, 192.0, 2.0, 64.0, 15.5, 96.0, 0.5, 96.0, 0.0, 0.0, 0.0, 1.695754474804558E9, 0.0, 2023-09-26 13:54:34.804
114.0, 73972.09244633824, 68809.30886379587, -19263.783903573025, -14260.167093296897, 33020.38854603631, 31814.042546038934, -187500.02235174447, 26309.38903205264, 45706.031704668014, 33923.309615052895, 4645.407753635377, -1275.524649086553, 51627.58995623469, 35890.30783060883, 22390.27886274801, -7541.702096665156, 0.14400000000000002, 1.016, 0.056, 192.0, 0.0, 0.0, 0.0, 0.0, 0.0, 0.0, 0.0, 0.0, 0.0, 1.695754474804578E9, 0.0, 2023-09-26 13:54:34.804
116.0, 73961.54242295533, 68795.67429967812, -19275.965604301167, -14274.963948126311, 33008.45271449718, 31798.798656320414, -187500.02235174447, 26307.310319818298, 45705.271745356535, 33915.15122832671, 4645.54186410211, -1283.0571869679914, 51628.618136479636, 35881.52359503789, 22381.3828684548, -7552.676803192712, 0.14400000000000002, 1.016, 0.056, 192.0, 0.0, 0.0, 0.0, 0.0, 0.0, 0.0, 0.0, 0.0, 0.0, 1.695754474804596E9, 0.0, 2023-09-26 13:54:34.804
118.0, 73970.99721085993, 68805.66552944964, -19268.164845486266, -14268.817218401102, 33010.933758131716, 31796.786999319436, -187500.02235174447, 26305.96921515098, 45703.14832963328, 33915.46415274908, 4643.261986167668, -1288.0192742370696, 51623.298421299274, 35865.13976635215, 22371.726914850107, -7561.8186666749325, 0.14400000000000002, 1.016, 0.056, 192.0, 0.0, 0.0, 0.0, 0.0, 0.0, 0.0, 0.0, 0.0, 0.0, 1.695754474804627E9, 0.0, 2023-09-26 13:54:34.804
120.0, 73962.07886482225, 68795.31667176685, -19277.016136290567, -14275.410983015418, 32999.757885904066, 31787.756894559494, -187500.02235174447, 26298.839008669736, 45708.132768646814, 33935.73718497004, 4654.1249339729475, -1281.0455299670136, 51617.151691574065, 35880.45071130404, 22380.935833565694, -7553.727335182111, 0.14400000000000002, 1.016, 0.056, 192.0, 0.0, 0.0, 0.0, 0.0, 0.0, 0.0, 0.0, 0.0, 0.0, 1.69575447486428E9, 0.0, 2023-09-26 13:54:34.864
122.0, 73961.56477469979, 68796.25544503397, -19285.085116038932, -14274.82983765958, 32994.79579863499, 31791.266118438976, -187500.02235174447, 26307.33267156275, 45694.96759116263, 33911.843170147324, 4641.965584989261, -1286.7675765475724, 51615.02827585081, 35864.3127518073, 22362.04860950096, -7566.199608588173, 0.14, 1.014, 0.064, 192.0, 2.0, 48.0, 15.5, 88.0, 1.0, 0.0, 0.0, 0.0, 0.0, 1.695754474864312E9, 0.0, 2023-09-26 13:54:34.864
124.0, 73966.19158580204, 68800.43522124711, -19274.915072311767, -14266.269119533197, 32996.248662024576, 31786.751066059005, -187500.02235174447, 26301.677680215562, 45692.0842161279, 33907.1046003228, 4641.607957077976, -1283.615980579374, 51611.98843860489, 35863.53044075137, 22364.864929302326, -7561.863370163843, 0.14, 1.014, 0.064, 192.0, 0.0, 0.0, 0.0, 0.0, 0.0, 0.0, 0.0, 0.0, 0.0, 1.695754474864328E9, 0.0, 2023-09-26 13:54:34.864
126.0, 73971.3548387712, 68807.69953819508, -19278.49135142462, -14268.146666067441, 32996.11455155785, 31784.426484635653, -187500.02235174447, 26304.762220950393, 45701.04726565448, 33928.04818487742, 4651.1298002159365, -1275.2564281530892, 51615.25179329536, 35878.19318511405, 22370.89990030526, -7557.169503828229, 0.14, 1.014, 0.064, 192.0, 0.0, 0.0, 0.0, 0.0, 0.0, 0.0, 0.0, 0.0, 0.0, 1.695754474864343E9, 0.0, 2023-09-26 13:54:34.864
128.0, 73980.85433016472, 68817.4448987776, -19261.52637738304, -14253.238052515753, 33003.40122025028, 31802.419638922172, -187500.02235174447, 26303.86815117218, 45696.4875097856, 33917.63227196124, 4652.4262013943435, -1276.8210502649606, 51612.77074966082, 35878.52846128088, 22365.13315023579, -7554.7331636826, 0.14, 1.014, 0.064, 192.0, 0.0, 0.0, 0.0, 0.0, 0.0, 0.0, 0.0, 0.0, 0.0, 1.695754474864357E9, 0.0, 2023-09-26 13:54:34.864
130.0, 73979.78144643086, 68821.35645405727, -19260.274679693543, -14251.449912959328, 33014.554740733474, 31802.01730752198, -187500.02235174447, 26316.25101760042, 45716.84994898438, 33950.377577588275, 4663.423259666355, -1260.9289599572373, 51631.07682836972, 35883.17762412759, 22385.76381036804, -7538.7293146526, 0.14, 1.014, 0.064, 192.0, 0.0, 0.0, 0.0, 0.0, 0.0, 0.0, 0.0, 0.0, 0.0, 1.695754474864372E9, 0.0, 2023-09-26 13:54:34.864
132.0, 73970.61723120419, 68812.52751499743, -19262.46515065016, -14255.227357772275, 33017.147543090294, 31800.38563017674, -187500.02235174447, 26305.25395932841, 45712.62546928233, 33929.50104826701, 4658.662338097374, -1266.8298204934383, 51635.01073539385, 35877.81320545831, 22390.994118570583, -7541.500930965059, 0.14, 1.014, 0.064, 192.0, 2.0, 48.0, 15.5, 88.0, 1.0, 0.0, 0.0, 0.0, 0.0, 1.695754474864387E9, 0.0, 2023-09-26 13:54:34.864
134.0, 73949.33837048273, 68792.74622115448, -19280.547711914507, -14283.502314508238, 32992.04653406698, 31775.306972897884, -187500.02235174447, 26305.54453200633, 45695.213460351646, 33919.30865279539, 4647.01707923616, -1277.3351403874326, 51627.50054925687, 35861.16115583911, 22375.437304429688, -7556.498951494569, 0.14, 1.014, 0.064, 192.0, 0.0, 0.0, 0.0, 0.0, 0.0, 0.0, 0.0, 0.0, 0.0, 1.695754474864402E9, 0.0, 2023-09-26 13:54:34.864
136.0, 73966.16923405758, 68814.91915165415, -19268.745990842104, -14259.63065142997, 33006.41870575174, 31791.891967283726, -187500.02235174447, 26295.48624700144, 45686.07159686942, 33899.52735895245, 4635.640041308408, -1291.1261667163571, 51609.84267113718, 35847.23601904345, 22367.61419387033, -7568.50183826707, 0.14, 1.014, 0.064, 192.0, 0.0, 0.0, 0.0, 0.0, 0.0, 0.0, 0.0, 0.0, 0.0, 1.695754474924359E9, 0.0, 2023-09-26 13:54:34.924
138.0, 73959.77663514337, 68811.52168649694, -19269.416543175765, -14261.77641889768, 33007.55864471896, 31788.67331608216, -187500.02235174447, 26301.118886604178, 45706.65755351276, 33934.88781868074, 4652.850884538994, -1270.8978379843043, 51619.99036311989, 35873.09698737824, 22376.04080152998, -7553.257948548549, 0.14, 1.014, 0.064, 192.0, 0.0, 0.0, 0.0, 0.0, 0.0, 0.0, 0.0, 0.0, 0.0, 1.695754474924392E9, 0.0, 2023-09-26 13:54:34.924
140.0, 73960.38013224365, 68818.0930993668, -19269.170673986755, -14257.641346173448, 33011.31373778746, 31788.8521300378, -187500.02235174447, 26292.222892310965, 45703.34949533338, 33914.74889692651, 4651.956814760782, -1273.9823787191367, 51627.16527309004, 35866.57027799729, 22372.106894505847, -7552.96737587063, 0.14, 1.014, 0.064, 192.0, 0.0, 0.0, 0.0, 0.0, 0.0, 0.0, 0.0, 0.0, 0.0, 1.69575447492441E9, 0.0, 2023-09-26 13:54:34.924
142.0, 73962.21297528899, 68813.80156443139, -19273.082229266434, -14256.63551767296, 33017.840447168404, 31786.371086403262, -187500.02235174447, 26304.359889550196, 45707.39516107979, 33944.27555135197, 4651.44272463831, -1274.6752827972512, 51631.03212488081, 35867.777272197876, 22365.736647336085, -7554.822570660422, 0.136, 1.016, 0.054, 192.0, 2.0, 32.0, 15.5, 96.0, 0.5, 88.0, 0.0, 0.0, 0.0, 1.695754474924467E9, 0.0, 2023-09-26 13:54:34.924
144.0, 73960.40248398812, 68820.41768079015, -19271.607014132383, -14246.554880923615, 33017.34870879039, 31799.11158074279, -187500.02235174447, 26302.124715104666, 45703.28244010001, 33929.590455244834, 4653.744954317207, -1274.6529310527958, 51629.78042719131, 35865.00565588542, 22373.157426495247, -7550.039297346985, 0.136, 1.016, 0.054, 192.0, 0.0, 0.0, 0.0, 0.0, 0.0, 0.0, 0.0, 0.0, 0.0, 1.695754474924484E9, 0.0, 2023-09-26 13:54:34.924
146.0, 73942.2081640015, 68798.49061947949, -19290.38247947484, -14266.649099188937, 32995.265185268545, 31774.591717075316, -187500.02235174447, 26297.29673830232, 45703.01421916654, 33941.079251894866, 4648.067611225559, -1273.0212537075583, 51633.24494758189, 35875.8686036907, 22360.931022278193, -7551.939195625687, 0.136, 1.016, 0.054, 192.0, 0.0, 0.0, 0.0, 0.0, 0.0, 0.0, 0.0, 0.0, 0.0, 1.695754474924499E9, 0.0, 2023-09-26 13:54:34.924
148.0, 73946.99143731492, 68798.24475029048, -19293.690537654227, -14268.146666067441, 32998.260319025554, 31783.934746257633, -187500.02235174447, 26293.96632837848, 45687.88208817031, 33910.36795501327, 4632.957831973771, -1288.1086812148908, 51617.24109855189, 35860.647065716636, 22350.60451633984, -7564.031489376008, 0.136, 1.016, 0.054, 192.0, 0.0, 0.0, 0.0, 0.0, 0.0, 0.0, 0.0, 0.0, 0.0, 1.695754474924516E9, 0.0, 2023-09-26 13:54:34.924
150.0, 73946.18677451453, 68805.77728817193, -19291.567121930973, -14267.856093389522, 33004.09412432839, 31782.928917757145, -187500.02235174447, 26306.997395395923, 45686.96566664764, 33929.456344778104, 4631.035581950615, -1289.1368614598348, 51613.575412461214, 35863.70925470701, 22346.08946395987, -7562.444515519681, 0.136, 1.016, 0.054, 192.0, 0.0, 0.0, 0.0, 0.0, 0.0, 0.0, 0.0, 0.0, 0.0, 1.695754474984742E9, 0.0, 2023-09-26 13:54:34.984
152.0, 73939.2577337334, 68800.07759333582, -19287.789677118028, -14262.290509020151, 32997.72387715863, 31785.43231313614, -187500.02235174447, 26304.44929652802, 45686.71979745863, 33914.011289359485, 4642.949061745294, -1287.7957567925164, 51608.63567693659, 35860.37884478317, 22354.605478597343, -7555.202550316161, 0.134, 1.014, 0.06, 192.0, 2.0, 24.0, 15.5, 88.0, 0.5, 112.0, 0.0, 0.0, 0.0, 1.695754474984774E9, 0.0, 2023-09-26 13:54:34.984
154.0, 73925.86903880467, 68786.0854013068, -19294.875180110357, -14271.678241691381, 32989.52078694353, 31767.372103616253, -187500.02235174447, 26306.282139573355, 45688.30677131496, 33916.82760916086, 4639.708058799274, -1290.008579493592, 51608.8815461256, 35857.964856382, 22346.46944361561, -7561.572797485924, 0.134, 1.014, 0.06, 192.0, 0.0, 0.0, 0.0, 0.0, 0.0, 0.0, 0.0, 0.0, 0.0, 1.69575447498479E9, 0.0, 2023-09-26 13:54:34.984
156.0, 73931.41227142958, 68795.09315432228, -19285.3533369724, -14258.669526418393, 33002.48479872761, 31781.833682278837, -187500.02235174447, 26302.504694760406, 45686.71979745863, 33916.71585043858, 4643.597262334498, -1287.907515514793, 51610.379113004106, 35853.293341790835, 22348.816376783416, -7560.186989329695, 0.134, 1.014, 0.06, 192.0, 0.0, 0.0, 0.0, 0.0, 0.0, 0.0, 0.0, 0.0, 0.0, 1.695754474984806E9, 0.0, 2023-09-26 13:54:34.984
158.0, 73938.40836744409, 68809.71119519605, -19270.981165287634, -14245.303183234118, 33017.52752274603, 31791.73550507254, -187500.02235174447, 26303.555226749806, 45688.99967539307, 33925.74595519852, 4653.789657806117, -1272.9318467297371, 51616.525842729316, 35863.016350628895, 22361.51216763403, -7547.670012434723, 0.134, 1.014, 0.06, 192.0, 0.0, 0.0, 0.0, 0.0, 0.0, 0.0, 0.0, 0.0, 0.0, 1.695754474984821E9, 0.0, 2023-09-26 13:54:34.984
160.0, 73940.08474827824, 68809.42062251814, -19279.16190375828, -14252.522796693183, 33012.69954594369, 31787.041638736922, -187500.02235174447, 26298.2578633139, 45692.50889927255, 33929.94808315612, 4655.264872940168, -1274.3400066304216, 51622.42670326552, 35867.93373440907, 22364.082618246393, -7546.418314745226, 0.134, 1.014, 0.06, 192.0, 0.0, 0.0, 0.0, 0.0, 0.0, 0.0, 0.0, 0.0, 0.0, 1.695754474984836E9, 0.0, 2023-09-26 13:54:34.984
162.0, 73965.92336486858, 68839.66253276617, -19263.940365784212, -14237.0106860412, 33033.30785433148, 31799.71507784308, -187500.02235174447, 26305.522180261873, 45706.41168432375, 33939.246408849525, 4664.227922466746, -1267.3662623603657, 51624.39365677758, 35866.74909195293, 22367.413028170235, -7542.193835043173, 0.134, 1.01, 0.062, 192.0, 2.0, 24.0, 15.5, 72.0, 0.5, 120.0, 0.0, 0.0, 0.0, 1.69575447498485E9, 0.0, 2023-09-26 13:54:34.984
164.0, 73953.16051878459, 68820.10475636777, -19277.999613046602, -14246.018439056688, 33020.075621613934, 31784.851167780304, -187500.02235174447, 26296.648537713118, 45715.195919894686, 33951.629275277766, 4669.078251013548, -1257.3079773554775, 51635.74834296088, 35879.82486245929, 22366.67542060321, -7541.053896075952, 0.134, 1.01, 0.062, 192.0, 0.0, 0.0, 0.0, 0.0, 0.0, 0.0, 0.0, 0.0, 0.0, 1.695754474984898E9, 0.0, 2023-09-26 13:54:34.984
166.0, 73925.35494868219, 68796.94834911208, -19299.77021214607, -14261.284680519662, 33002.37304000533, 31771.462472851574, -187500.02235174447, 26297.47555225796, 45694.31939057343, 33913.117219581276, 4647.352355402989, -1266.9192274712595, 51613.731874672405, 35867.10671986422, 22347.51997560501, -7554.062611348941, 0.134, 1.01, 0.062, 192.0, 0.0, 0.0, 0.0, 0.0, 0.0, 0.0, 0.0, 0.0, 0.0, 1.695754475045019E9, 0.0, 2023-09-26 13:54:35.045
168.0, 73930.40644292909, 68809.10769809577, -19279.38542120283, -14249.572366425082, 33006.06107784046, 31781.38664738973, -187500.02235174447, 26295.218026067978, 45697.69450398618, 33917.721678939066, 4653.25321593919, -1266.7627652600725, 51628.0369911238, 35863.55279249582, 22346.89412676026, -7553.727335182111, 0.134, 1.01, 0.062, 192.0, 0.0, 0.0, 0.0, 0.0, 0.0, 0.0, 0.0, 0.0, 0.0, 1.695754475045054E9, 0.0, 2023-09-26 13:54:35.045
170.0, 73932.1945824855, 68810.9405411411, -19272.791656588513, -14250.95817458131, 33023.2942728155, 31781.85603402329, -187500.02235174447, 26310.30545357531, 45698.99090516459, 33920.940330140635, 4656.918902029861, -1264.326425114444, 51622.180834076506, 35859.171850582585, 22362.27212694551, -7544.719582166623, 0.134, 1.01, 0.062, 192.0, 0.0, 0.0, 0.0, 0.0, 0.0, 0.0, 0.0, 0.0, 0.0, 1.695754475045071E9, 0.0, 2023-09-26 13:54:35.045
172.0, 73931.00994002938, 68807.45366900608, -19282.738182871126, -14256.546110695137, 33021.126153603334, 31779.978487489047, -187500.02235174447, 26312.96531116549, 45700.644934254284, 33940.83338270585, 4659.556407875587, -1266.874523982349, 51631.769732447836, 35863.73160645147, 22368.530615393, -7540.49510246457, 0.134, 1.014, 0.062, 192.0, 2.0, 24.0, 15.5, 88.0, 0.5, 120.0, 0.0, 0.0, 0.0, 1.695754475045087E9, 0.0, 2023-09-26 13:54:35.045
174.0, 73935.03325403134, 68817.95898890006, -19277.127895012844, -14249.304145491618, 33022.735479204115, 31783.554766601894, -187500.02235174447, 26303.711688960993, 45695.481681285106, 33924.024870875466, 4653.812009550573, -1270.4731548396535, 51617.30815378525, 35858.63540871566, 22359.746379822063, -7550.776904914011, 0.134, 1.014, 0.062, 192.0, 0.0, 0.0, 0.0, 0.0, 0.0, 0.0, 0.0, 0.0, 0.0, 1.695754475045104E9, 0.0, 2023-09-26 13:54:35.045
176.0, 73945.42681520306, 68821.06588137936, -19269.841226320415, -14241.995125054733, 33025.93177866123, 31787.175749203656, -187500.02235174447, 26298.52608424736, 45714.23479488311, 33957.30661836942, 4664.183218977835, -1254.066974409458, 51626.1370928451, 35881.00950491542, 22367.413028170235, -7541.590337942879, 0.134, 1.014, 0.062, 192.0, 0.0, 0.0, 0.0, 0.0, 0.0, 0.0, 0.0, 0.0, 0.0, 1.695754475045121E9, 0.0, 2023-09-26 13:54:35.045
178.0, 73948.66781814907, 68815.1873725876, -19268.43306641973, -14237.234203485752, 33030.87151418585, 31792.026077750455, -187500.02235174447, 26297.900235402612, 45710.434998325705, 33927.176466843666, 4674.934408060838, -1253.4634773091648, 51634.74251446039, 35886.44097881806, 22369.648202615765, -7538.997535586064, 0.134, 1.014, 0.062, 192.0, 0.0, 0.0, 0.0, 0.0, 0.0, 0.0, 0.0, 0.0, 0.0, 1.695754475045137E9, 0.0, 2023-09-26 13:54:35.045
180.0, 73921.68926259152, 68803.36329977075, -19289.108430040887, -14252.947479837834, 33011.38079302082, 31783.308897412888, -187500.02235174447, 26306.706822718006, 45695.30286732947, 33940.520458283485, 4658.3494136750005, -1269.5343815725305, 51622.9854968769, 35884.5187287949, 22354.985458253082, -7544.674878677712, 0.134, 1.014, 0.062, 192.0, 0.0, 0.0, 0.0, 0.0, 0.0, 0.0, 0.0, 0.0, 0.0, 1.695754475045153E9, 0.0, 2023-09-26 13:54:35.045
182.0, 73933.02159703035, 68810.96289288555, -19287.20853176219, -14253.729790893769, 33018.51099950207, 31789.634441093738, -187500.02235174447, 26298.280215058356, 45699.2367743536, 33914.10069633731, 4659.690518342319, -1273.4906403411198, 51617.35285727416, 35881.7694642269, 22353.733760563584, -7543.847864132866, 0.146, 1.014, 0.064, 192.0, 2.0, 72.0, 15.5, 88.0, 1.0, 0.0, 0.0, 0.0, 0.0, 1.695754475104909E9, 0.0, 2023-09-26 13:54:35.104
184.0, 73920.66108234657, 68802.13395382572, -19298.898494112313, -14258.15543629592, 33011.71606918765, 31784.09120846882, -187500.02235174447, 26315.759279222406, 45703.48360580011, 33933.83728669134, 4656.605977607486, -1262.5829890469302, 51627.25468006786, 35864.60332448522, 22350.962144251127, -7543.289070521483, 0.146, 1.014, 0.064, 192.0, 0.0, 0.0, 0.0, 0.0, 0.0, 0.0, 0.0, 0.0, 0.0, 1.695754475104952E9, 0.0, 2023-09-26 13:54:35.104
186.0, 73919.23057070143, 68803.45270674858, -19299.032604579046, -14256.255538017218, 33003.4906272281, 31776.24574616501, -187500.02235174447, 26302.035308126844, 45684.95400964666, 33907.015193344974, 4646.458285624777, -1269.2438088946114, 51598.21976402042, 35859.12714709368, 22341.440301113165, -7551.06747759193, 0.146, 1.014, 0.064, 192.0, 0.0, 0.0, 0.0, 0.0, 0.0, 0.0, 0.0, 0.0, 0.0, 1.695754475104969E9, 0.0, 2023-09-26 13:54:35.104
188.0, 73914.33553866572, 68801.10577358077, -19302.72064241417, -14263.072820076088, 33003.937662117205, 31764.846356492802, -187500.02235174447, 26303.26465407189, 45687.81503293694, 33930.77509770097, 4649.364012403967, -1267.1203931713574, 51607.227517035906, 35863.10575760672, 22340.61328656832, -7553.392059015282, 0.146, 1.014, 0.064, 192.0, 0.0, 0.0, 0.0, 0.0, 0.0, 0.0, 0.0, 0.0, 0.0, 1.695754475105024E9, 0.0, 2023-09-26 13:54:35.105
190.0, 73914.80492529928, 68804.77145967144, -19296.99859583361, -14256.948442095334, 33010.06204009796, 31767.930897227634, -187500.02235174447, 26281.650517183607, 45687.68092247021, 33903.68478342114, 4641.920881500349, -1281.291399156022, 51600.49964195486, 35855.752033680925, 22336.90289698874, -7561.841018419388, 0.146, 1.014, 0.064, 192.0, 0.0, 0.0, 0.0, 0.0, 0.0, 0.0, 0.0, 0.0, 0.0, 1.69575447510504E9, 0.0, 2023-09-26 13:54:35.105
192.0, 73915.96721601096, 68802.78215441492, -19293.1540957873, -14251.9640030818, 33008.58682496391, 31770.926030984647, -187500.02235174447, 26297.25203481341, 45697.96272491965, 33929.188123844644, 4655.801314807095, -1266.5168960710641, 51611.85432813816, 35869.20778384302, 22343.161385436226, -7546.664183934234, 0.14400000000000002, 1.018, 0.068, 192.0, 2.0, 64.0, 15.5, 104.0, 1.0, 16.0, 0.0, 0.0, 0.0, 1.695754475105056E9, 0.0, 2023-09-26 13:54:35.105
194.0, 73926.91957079405, 68814.44976502059, -19285.599206161405, -14243.559747166604, 33020.5450082475, 31783.91239451318, -187500.02235174447, 26284.33272651824, 45697.940373175195, 33909.87621663525, 4667.312463201579, -1256.8832942108268, 51612.92721187201, 35870.012446643406, 22349.442225628165, -7541.7468001540665, 0.14400000000000002, 1.018, 0.068, 192.0, 0.0, 0.0, 0.0, 0.0, 0.0, 0.0, 0.0, 0.0, 0.0, 1.695754475105073E9, 0.0, 2023-09-26 13:54:35.105
196.0, 73926.29372194932, 68809.51002949596, -19291.745935886614, -14253.305107749118, 33006.329298773926, 31775.843414764815, -187500.02235174447, 26297.29673830232, 45697.67215224173, 33925.969472643075, 4665.479620156243, -1254.6928232542066, 51613.575412461214, 35870.48183327697, 22346.33533314888, -7542.193835043173, 0.14400000000000002, 1.018, 0.068, 192.0, 0.0, 0.0, 0.0, 0.0, 0.0, 0.0, 0.0, 0.0, 0.0, 1.695754475165192E9, 0.0, 2023-09-26 13:54:35.165
198.0, 73911.56392235326, 68789.57227344182, -19307.749784916614, -14261.530549708672, 32992.38181023381, 31766.589792560317, -187500.02235174447, 26285.986755607937, 45677.84615490987, 33913.49719923701, 4650.593358349009, -1276.3069601424886, 51607.16046180254, 35860.11062384971, 22326.55403930593, -7557.30361429496, 0.14400000000000002, 1.018, 0.068, 192.0, 0.0, 0.0, 0.0, 0.0, 0.0, 0.0, 0.0, 0.0, 0.0, 1.69575447516524E9, 0.0, 2023-09-26 13:54:35.165
200.0, 73905.7971722838, 68784.72194489503, -19310.67786344026, -14259.876520618978, 33003.84825513938, 31773.094150196812, -187500.02235174447, 26310.283101830853, 45676.102718842354, 33917.229940561054, 4644.357221645978, -1283.9289050017483, 51599.6279239211, 35871.04062688835, 22332.410196353223, -7547.580605456902, 0.14400000000000002, 1.018, 0.068, 192.0, 0.0, 0.0, 0.0, 0.0, 0.0, 0.0, 0.0, 0.0, 0.0, 1.695754475165255E9, 0.0, 2023-09-26 13:54:35.165
202.0, 73907.42884962902, 68782.37501172721, -19304.24056103713, -14254.0650670606, 33006.50811272956, 31771.596583318304, -187500.02235174447, 26305.812752939793, 45669.821878650415, 33890.20668151459, 4637.495236098199, -1286.6558178252958, 51598.82326112071, 35859.64123721614, 22331.09144343036, -7547.155922312251, 0.138, 1.016, 0.07, 192.0, 2.0, 40.0, 15.5, 96.0, 1.0, 24.0, 0.0, 0.0, 0.0, 1.69575447516527E9, 0.0, 2023-09-26 13:54:35.165
204.0, 73932.23928597443, 68803.58681721531, -19289.06372655198, -14243.425636699872, 33021.30496755898, 31784.359429402284, -187500.02235174447, 26306.080973873257, 45682.98705613459, 33910.792638157924, 4654.840189795517, -1265.6675297817624, 51611.29553452678, 35880.02602815939, 22341.41794936871, -7539.8692536198205, 0.138, 1.016, 0.07, 192.0, 0.0, 0.0, 0.0, 0.0, 0.0, 0.0, 0.0, 0.0, 0.0, 1.695754475165287E9, 0.0, 2023-09-26 13:54:35.165
206.0, 73920.83989630222, 68799.87642763573, -19297.24446502262, -14247.046619301633, 33011.02316510954, 31769.853147250793, -187500.02235174447, 26297.72142144697, 45681.93652414519, 33930.41746978968, 4652.225035694246, -1264.7287565146396, 51615.609421206645, 35871.80058619983, 22338.020484211505, -7550.687497936189, 0.138, 1.016, 0.07, 192.0, 0.0, 0.0, 0.0, 0.0, 0.0, 0.0, 0.0, 0.0, 0.0, 1.695754475165304E9, 0.0, 2023-09-26 13:54:35.165
208.0, 73916.72717532243, 68804.27972129342, -19294.58460743244, -14249.72882863627, 33009.77146742004, 31762.38766460272, -187500.02235174447, 26287.19374980852, 45688.50793701505, 33924.024870875466, 4656.583625863031, -1262.873561724849, 51610.446168237475, 35869.49835652093, 22333.773652764994, -7555.359012527349, 0.138, 1.016, 0.07, 192.0, 0.0, 0.0, 0.0, 0.0, 0.0, 0.0, 0.0, 0.0, 0.0, 1.695754475165317E9, 0.0, 2023-09-26 13:54:35.165
210.0, 73928.26067546138, 68818.92011391165, -19284.079287538443, -14237.033037785655, 33016.05230761198, 31778.927955499646, -187500.02235174447, 26296.53677899084, 45691.45836728315, 33935.066632636386, 4663.020928266159, -1251.8988551972932, 51615.56471771774, 35871.62177224419, 22339.65216155674, -7546.842997889877, 0.138, 1.016, 0.07, 192.0, 0.0, 0.0, 0.0, 0.0, 0.0, 0.0, 0.0, 0.0, 0.0, 1.695754475165367E9, 0.0, 2023-09-26 13:54:35.165
212.0, 73926.33842543823, 68810.85113416328, -19283.565197415974, -14238.642363386436, 33017.92985414623, 31782.68304856814, -187500.02235174447, 26293.698107445016, 45700.868451698836, 33927.020004632475, 4676.5437336616205, -1241.974680659137, 51623.05255211027, 35874.08046413428, 22350.872737273305, -7532.7613988830335, 0.14, 1.014, 0.068, 192.0, 2.0, 48.0, 15.5, 88.0, 1.0, 16.0, 0.0, 0.0, 0.0, 1.695754475225369E9, 0.0, 2023-09-26 13:54:35.225
214.0, 73926.74075683842, 68805.82199166084, -19288.124953284856, -14237.904755819412, 33016.29817680099, 31783.979449746545, -187500.02235174447, 26305.768049450882, 45685.51280325804, 33925.50008600952, 4662.931521288338, -1261.353643101888, 51622.91844164353, 35864.17864134057, 22338.08753944487, -7542.707925165645, 0.14, 1.014, 0.068, 192.0, 0.0, 0.0, 0.0, 0.0, 0.0, 0.0, 0.0, 0.0, 0.0, 1.695754475225409E9, 0.0, 2023-09-26 13:54:35.225
216.0, 73935.03325403134, 68814.1368405982, -19282.715831126672, -14230.975715038267, 33018.555702990976, 31790.193234705122, -187500.02235174447, 26298.10140110271, 45703.61771626684, 33923.48842900854, 4675.716719116774, -1252.5247040420418, 51617.88929914109, 35882.50707179392, 22346.648257571254, -7530.906204093243, 0.14, 1.014, 0.068, 192.0, 0.0, 0.0, 0.0, 0.0, 0.0, 0.0, 0.0, 0.0, 0.0, 1.695754475225418E9, 0.0, 2023-09-26 13:54:35.225
218.0, 73932.70867260799, 68820.37297730125, -19298.026776078557, -14241.838662843546, 33011.35844127637, 31781.833682278837, -187500.02235174447, 26309.34432856373, 45701.494300543585, 33934.9101704252, 4674.8450010830165, -1255.4527825656871, 51626.96410738994, 35881.21067061552, 22341.350894135347, -7532.87315760531, 0.14, 1.014, 0.068, 192.0, 0.0, 0.0, 0.0, 0.0, 0.0, 0.0, 0.0, 0.0, 0.0, 1.695754475225428E9, 0.0, 2023-09-26 13:54:35.225
220.0, 73924.66204460408, 68813.93567489811, -19286.91795908427, -14237.81534884159, 33014.93472038922, 31767.70737978308, -187500.02235174447, 26293.206369067, 45690.027855638014, 33916.246463805015, 4668.050070768603, -1263.6111692918741, 51612.949563616465, 35868.62663848718, 22334.958295221128, -7542.35029725436, 0.14, 1.014, 0.068, 192.0, 0.0, 0.0, 0.0, 0.0, 0.0, 0.0, 0.0, 0.0, 0.0, 1.695754475225437E9, 0.0, 2023-09-26 13:54:35.225
222.0, 73925.77963182684, 68816.68493946611, -19290.516589941573, -14239.067046531089, 33012.900711643786, 31762.924106469647, -187500.02235174447, 26301.074183115266, 45693.29121032849, 33944.25319960752, 4673.503896415698, -1255.810410476972, 51618.29163054129, 35869.5654117543, 22342.17790868019, -7542.149131554263, 0.14, 1.012, 0.068, 192.0, 2.0, 48.0, 15.5, 80.0, 1.0, 16.0, 0.0, 0.0, 0.0, 1.695754475225445E9, 0.0, 2023-09-26 13:54:35.225
224.0, 73929.73589059543, 68809.59943647379, -19290.67305215276, -14239.134101764454, 33000.87547312683, 31770.657810051183, -187500.02235174447, 26285.562072463283, 45698.7897394645, 33919.331004539854, 4675.895533072417, -1254.134029642824, 51621.89026139859, 35875.041589145854, 22336.43351035518, -7545.6807071782005, 0.14, 1.012, 0.068, 192.0, 0.0, 0.0, 0.0, 0.0, 0.0, 0.0, 0.0, 0.0, 0.0, 1.695754475225455E9, 0.0, 2023-09-26 13:54:35.225
226.0, 73927.38895742763, 68808.88418065122, -19291.209494019688, -14246.420770456883, 33003.66944118374, 31758.923144212145, -187500.02235174447, 26288.82542715376, 45706.05405641247, 33936.43008904816, 4675.090870272025, -1253.9775674316368, 51631.09918011417, 35875.309810079314, 22333.684245787175, -7550.329870024904, 0.14, 1.012, 0.068, 192.0, 0.0, 0.0, 0.0, 0.0, 0.0, 0.0, 0.0, 0.0, 0.0, 1.695754475285697E9, 0.0, 2023-09-26 13:54:35.285
228.0, 73924.52793413734, 68809.39827077369, -19290.538941686027, -14245.750218123225, 33006.932795874214, 31760.8453942353, -187500.02235174447, 26279.77297064936, 45704.86941395634, 33929.188123844644, 4677.728376117751, -1255.005747676581, 51617.3305055297, 35860.40119652763, 22335.159460921226, -7548.899358379765, 0.14, 1.012, 0.068, 192.0, 0.0, 0.0, 0.0, 0.0, 0.0, 0.0, 0.0, 0.0, 0.0, 1.695754475285718E9, 0.0, 2023-09-26 13:54:35.285
230.0, 73920.05758524628, 68806.5372474834, -19304.709947670694, -14256.859035117512, 32996.1369033023, 31763.684065781126, -187500.02235174447, 26299.97894763696, 45696.867489441334, 33925.23186507605, 4668.050070768603, -1265.6675297817624, 51623.70075269947, 35847.079556832265, 22328.18571665117, -7550.419277002726, 0.14, 1.012, 0.068, 192.0, 0.0, 0.0, 0.0, 0.0, 0.0, 0.0, 0.0, 0.0, 0.0, 1.695754475285727E9, 0.0, 2023-09-26 13:54:35.285
232.0, 73919.72230907946, 68817.13197435522, -19299.658453423795, -14246.376066967972, 33006.68692668521, 31779.75497004449, -187500.02235174447, 26296.67088945757, 45696.37575106332, 33909.607995701794, 4666.843076568017, -1267.7015385271955, 51619.1857003195, 35845.00084459792, 22334.868888243305, -7541.165654798228, 0.14, 1.016, 0.066, 192.0, 2.0, 48.0, 15.5, 96.0, 1.0, 8.0, 0.0, 0.0, 0.0, 1.695754475285779E9, 0.0, 2023-09-26 13:54:35.285
234.0, 73913.53087586533, 68802.22336080353, -19303.63706393684, -14260.032982830166, 33006.28459528501, 31763.259382636475, -187500.02235174447, 26306.952691907012, 45706.23287036811, 33915.86648414928, 4665.345509689511, -1269.3108641279775, 51624.63952596659, 35869.87833617668, 22331.31496087491, -7539.6904396641785, 0.14, 1.016, 0.066, 192.0, 0.0, 0.0, 0.0, 0.0, 0.0, 0.0, 0.0, 0.0, 0.0, 1.695754475285789E9, 0.0, 2023-09-26 13:54:35.285
236.0, 73909.57461709675, 68803.65387244867, -19301.938331358237, -14257.842511873545, 32999.735534159605, 31752.172917386644, -187500.02235174447, 26283.77393290686, 45692.86652718384, 33891.503082692994, 4659.109372986481, -1281.4031578782985, 51615.58706946219, 35852.62278945718, 22329.83974574086, -7552.408582259248, 0.14, 1.016, 0.066, 192.0, 0.0, 0.0, 0.0, 0.0, 0.0, 0.0, 0.0, 0.0, 0.0, 1.695754475285797E9, 0.0, 2023-09-26 13:54:35.285
238.0, 73909.44050663001, 68808.5936079733, -19308.509744228097, -14266.313823022107, 32998.46148472565, 31750.407129574673, -187500.02235174447, 26289.160703320587, 45699.90732668726, 33927.28822556594, 4672.676881870852, -1268.4391460942204, 51623.07490385472, 35857.94250463754, 22329.32565561839, -7544.518416466524, 0.14, 1.016, 0.066, 192.0, 0.0, 0.0, 0.0, 0.0, 0.0, 0.0, 0.0, 0.0, 0.0, 1.695754475285806E9, 0.0, 2023-09-26 13:54:35.285
240.0, 73916.90598927808, 68806.06786084984, -19316.57872397646, -14269.8677503905, 32985.72099038613, 31749.75892898547, -187500.02235174447, 26285.76323816338, 45691.57012600543, 33908.624518945755, 4665.054937011592, -1283.2360009236338, 51618.55985147475, 35838.02710032786, 22311.51131528751, -7559.695250951679, 0.14, 1.016, 0.066, 192.0, 0.0, 0.0, 0.0, 0.0, 0.0, 0.0, 0.0, 0.0, 0.0, 1.695754475285815E9, 0.0, 2023-09-26 13:54:35.285
242.0, 73919.49879163489, 68794.66847117763, -19318.232753066153, -14268.325480023084, 32992.42651372272, 31752.798766231394, -187500.02235174447, 26299.755430192403, 45704.89176570079, 33908.95979511259, 4664.719660844763, -1284.5547538464969, 51625.332430044706, 35845.71610042049, 22314.059414155414, -7553.6826316932, 0.14, 1.016, 0.062, 192.0, 2.0, 48.0, 15.5, 96.0, 0.5, 120.0, 0.0, 0.0, 0.0, 1.695754475345018E9, 0.0, 2023-09-26 13:54:35.345
244.0, 73912.23447468692, 68794.22143628853, -19313.82945940846, -14257.194311284342, 32990.12428404383, 31754.76571974346, -187500.02235174447, 26292.669927200073, 45697.18041386371, 33899.16973104116, 4666.261931212179, -1281.5596200894856, 51611.80962464924, 35836.037795071345, 22310.70665248712, -7554.196721815672, 0.14, 1.016, 0.062, 192.0, 0.0, 0.0, 0.0, 0.0, 0.0, 0.0, 0.0, 0.0, 0.0, 1.695754475345042E9, 0.0, 2023-09-26 13:54:35.345
246.0, 73908.76995429635, 68794.73552641101, -19320.780851934058, -14259.094209563043, 32986.72681888662, 31743.701606238083, -187500.02235174447, 26292.73698243344, 45699.79556796498, 33918.10165859481, 4673.660358626886, -1265.913398970771, 51620.8844328981, 35855.30499879181, 22309.231437353068, -7548.720544424123, 0.14, 1.016, 0.062, 192.0, 0.0, 0.0, 0.0, 0.0, 0.0, 0.0, 0.0, 0.0, 0.0, 1.695754475345053E9, 0.0, 2023-09-26 13:54:35.345
248.0, 73926.47253590495, 68816.9978638885, -19313.49418324163, -14250.801712370125, 32997.5897666919, 31746.85320220628, -187500.02235174447, 26275.615546180674, 45694.20763185115, 33912.558425969895, 4665.59137887852, -1272.127183929346, 51615.20708980645, 35845.693748676036, 22304.13523961726, -7558.667070706734, 0.14, 1.016, 0.062, 192.0, 0.0, 0.0, 0.0, 0.0, 0.0, 0.0, 0.0, 0.0, 0.0, 1.695754475345063E9, 0.0, 2023-09-26 13:54:35.345
250.0, 73931.52403015185, 68822.22817209104, -19301.133668557843, -14242.375104710472, 33012.85600815487, 31759.43723433462, -187500.02235174447, 26283.706877673492, 45716.33585886191, 33957.23956313605, 4687.8760681004605, -1257.7550122445837, 51628.618136479636, 35869.27483907638, 22322.17309739269, -7540.785675142489, 0.14, 1.016, 0.062, 192.0, 0.0, 0.0, 0.0, 0.0, 0.0, 0.0, 0.0, 0.0, 0.0, 1.695754475345072E9, 0.0, 2023-09-26 13:54:35.345
252.0, 73922.29275969182, 68813.30982605336, -19312.91303788579, -14251.472264703783, 33007.849217396884, 31747.970789429044, -187500.02235174447, 26286.72436317496, 45705.45055931217, 33933.63612099125, 4678.845963340516, -1260.683090768229, 51631.769732447836, 35861.94346689504, 22317.211010123614, -7547.804122901455, 0.138, 1.012, 0.062, 192.0, 2.0, 40.0, 15.5, 80.0, 0.5, 120.0, 0.0, 0.0, 0.0, 1.695754475345082E9, 0.0, 2023-09-26 13:54:35.345
254.0, 73910.75925955287, 68811.07465160784, -19312.845982652427, -14255.339116494551, 32995.131074801815, 31755.90565871068, -187500.02235174447, 26294.301604545308, 45701.695466243684, 33928.137591855244, 4677.817783095573, -1260.2137041346675, 51627.925232401525, 35858.90362964912, 22321.03315842547, -7538.997535586064, 0.138, 1.012, 0.062, 192.0, 0.0, 0.0, 0.0, 0.0, 0.0, 0.0, 0.0, 0.0, 0.0, 1.695754475345121E9, 0.0, 2023-09-26 13:54:35.345
0.0, 73907.0488699733, 68801.35164276978, -19314.87999139786, -14258.267195018196, 32994.10289455687, 31751.10003365279, -187500.02235174447, 26296.961462135492, 45693.179451606215, 33931.62446399027, 4673.816820838073, -1269.5343815725305, 51627.85817716816, 35853.5615627243, 22313.18769612166, -7545.323079266916, 0.138, 1.012, 0.062, 192.0, 0.0, 0.0, 0.0, 0.0, 0.0, 0.0, 0.0, 0.0, 0.0, 1.695754475404917E9, 0.0, 2023-09-26 13:54:35.404
