%OpenBCI Raw EXG Data
%Number of channels = 16
%Sample Rate = 125 Hz
%Board = OpenBCI_GUI$BoardCytonSerialDaisy
Sample Index, EXG Channel 0, EXG Channel 1, EXG Channel 2, EXG Channel 3, EXG Channel 4, EXG Channel 5, EXG Channel 6, EXG Channel 7, EXG Channel 8, EXG Channel 9, EXG Channel 10, EXG Channel 11, EXG Channel 12, EXG Channel 13, EXG Channel 14, EXG Channel 15, Accel Channel 0, Accel Channel 1, Accel Channel 2, Other, Other, Other, Other, Other, Other, Other, Analog Channel 0, Analog Channel 1, Analog Channel 2, Timestamp, Other, Timestamp (Formatted)
0.0, 73967.1080073247, 69053.25580278109, -19393.669890602814, -14324.003675461254, 33635.86618135765, 31044.38257746489, -187500.02235174447, 26942.435138515848, 0.0, 0.0, 0.0, 0.0, 0.0, 0.0, 0.0, 0.0, 0.0, 0.0, 0.0, 192.0, 0.0, 0.0, 0.0, 0.0, 0.0, 0.0, 0.0, 0.0, 0.0, 1.695754551443862E9, 0.0, 2023-09-26 13:55:51.443
210.0, 73958.65904792059, 69043.86807010986, -19405.292797719576, -14340.901594269466, 33624.0868120297, 31026.255312711637, -187500.02235174447, 26936.780147168654, 45319.704153502484, 35154.66721709576, 4261.874170526764, 324.2120533242289, 48679.66308351315, 35661.761243553316, 19884.60360581918, -6445.1925689211575, 0.0, 0.0, 0.0, 192.0, 0.0, 0.0, 0.0, 0.0, 0.0, 0.0, 0.0, 0.0, 0.0, 1.695754551443879E9, 0.0, 2023-09-26 13:55:51.443
212.0, 73958.52493745387, 69044.6950846547, -19397.290873204576, -14333.458463365849, 33636.78260288031, 31027.797583079053, -187500.02235174447, 26938.38947276944, 45321.805217481284, 35146.41942339175, 4260.421307137169, 327.2295388256954, 48677.62907476772, 35684.24709847535, 19881.02732670633, -6450.7134498016185, 0.0, 0.0, 0.0, 192.0, 0.0, 0.0, 0.0, 0.0, 0.0, 0.0, 0.0, 0.0, 0.0, 1.69575455144389E9, 0.0, 2023-09-26 13:55:51.443
214.0, 73974.81935916179, 69062.93410813024, -19391.211198712732, -14327.222326662819, 33646.46090822946, 31030.81506858052, -187500.02235174447, 26936.623684957467, 45324.91210996057, 35142.66433032326, 4261.851818782308, 330.62700398290207, 48683.0381969259, 35679.083845506175, 19878.590986560703, -6447.874778255794, 0.0, 0.0, 0.0, 192.0, 0.0, 0.0, 0.0, 0.0, 0.0, 0.0, 0.0, 0.0, 0.0, 1.695754551443899E9, 0.0, 2023-09-26 13:55:51.443
216.0, 73982.32954529877, 69064.34226803092, -19383.522198620107, -14318.035759691687, 33651.87003038765, 31038.727586117697, -187500.02235174447, 26946.592562984537, 45335.61859555467, 35166.021903279056, 4277.967426534585, 348.1954751247734, 48687.73206326152, 35699.66980214951, 19887.956367487477, -6426.84178672335, 0.138, 1.016, 0.076, 192.0, 2.0, 40.0, 15.5, 96.0, 1.0, 48.0, 0.0, 0.0, 0.0, 1.695754551443908E9, 0.0, 2023-09-26 13:55:51.443
218.0, 73975.84753940672, 69062.71059068567, -19390.54064637907, -14315.01827419022, 33656.608600212174, 31031.709138358732, -187500.02235174447, 26952.62753398747, 45333.11520017567, 35175.186118505735, 4268.445583396624, 336.81843719702215, 48691.57656330783, 35701.43558996148, 19883.240149407407, -6430.909804214216, 0.138, 1.016, 0.076, 192.0, 0.0, 0.0, 0.0, 0.0, 0.0, 0.0, 0.0, 0.0, 0.0, 1.695754551443918E9, 0.0, 2023-09-26 13:55:51.443
220.0, 73968.38205675865, 69052.11586381386, -19390.339480678973, -14319.332160870095, 33656.742710678904, 31031.887952314373, -187500.02235174447, 26947.084301362553, 45328.376630351144, 35157.75175783059, 4264.444621139124, 334.40444879584896, 48688.0449876839, 35687.64456363256, 19876.914605726553, -6430.351010602833, 0.138, 1.016, 0.076, 192.0, 0.0, 0.0, 0.0, 0.0, 0.0, 0.0, 0.0, 0.0, 0.0, 1.695754551443927E9, 0.0, 2023-09-26 13:55:51.443
222.0, 73979.66968770858, 69060.67658194025, -19370.759352536126, -14313.11837591152, 33675.38406555463, 31036.09008027197, -187500.02235174447, 26949.542993252635, 45322.11814190366, 35157.416481663764, 4259.773106547965, 323.854425412944, 48688.6931882731, 35679.97791528439, 19873.15951265806, -6436.251871139035, 0.138, 1.016, 0.076, 192.0, 0.0, 0.0, 0.0, 0.0, 0.0, 0.0, 0.0, 0.0, 0.0, 1.695754551443936E9, 0.0, 2023-09-26 13:55:51.443
224.0, 73991.62787099218, 69069.81844542247, -19361.237509398165, -14291.25836983423, 33681.508443535386, 31049.90345834535, -187500.02235174447, 26944.022112372175, 45358.21620919898, 35169.84405158091, 4292.786633108453, 353.2022658827622, 48711.514319361966, 35714.75722965685, 19896.02534723584, -6415.263583095501, 0.138, 1.016, 0.076, 192.0, 0.0, 0.0, 0.0, 0.0, 0.0, 0.0, 0.0, 0.0, 0.0, 1.695754551443945E9, 0.0, 2023-09-26 13:55:51.443
0.0, 36979.262468726934, 34551.84066913613, -9733.424750974746, -7151.46299021995, 16955.40749495119, 15478.314814366677, -93750.01117587223, 13487.824915388217, 22666.434665493332, 17588.29713920321, 2140.2465868290174, 170.9014381052778, 24346.39177875421, 17854.417008688095, 9930.589488815009, -3218.0253527194686, 0.14600000000000002, 1.018, 0.076, 192.0, 2.0, 80.0, 15.5, 104.0, 1.0, 40.0, 0.0, 0.0, 0.0, 1.695754551562995E9, 0.0, 2023-09-26 13:55:51.562
2.0, 73942.74460586841, 69076.76983794807, -19490.072964438554, -14321.723797526813, 33905.204702044095, 30943.710320438186, -187500.02235174447, 26973.77228424219, 45331.30470887479, 35108.26499560654, 4207.73824545601, 354.8786467169102, 48114.76744589418, 35767.529698315826, 19682.633242921023, -6414.123644128281, 0.14600000000000002, 1.018, 0.076, 192.0, 0.0, 0.0, 0.0, 0.0, 0.0, 0.0, 0.0, 0.0, 0.0, 1.695754551622626E9, 0.0, 2023-09-26 13:55:51.622
4.0, 73954.54632694082, 69090.0020706656, -19478.181836388332, -14313.028968933699, 33913.22897830355, 30951.26521006408, -187500.02235174447, 26984.43406634737, 45323.48159831543, 35099.57016701343, 4192.807280159865, 348.7766204806114, 48123.26110878719, 35758.18666913351, 19662.784893844713, -6426.305344856423, 0.14600000000000002, 1.018, 0.076, 192.0, 0.0, 0.0, 0.0, 0.0, 0.0, 0.0, 0.0, 0.0, 0.0, 1.695754551622662E9, 0.0, 2023-09-26 13:55:51.622
6.0, 73953.20522227351, 69089.5550357765, -19479.657051522383, -14322.640219049481, 33906.92578636715, 30951.51107925309, -187500.02235174447, 26981.371877356993, 45337.339679877725, 35102.61000425935, 4206.352437299781, 359.43840258579286, 48110.23004176975, 35774.81636700826, 19680.778048131233, -6412.60372550532, 0.14600000000000002, 1.018, 0.076, 192.0, 0.0, 0.0, 0.0, 0.0, 0.0, 0.0, 0.0, 0.0, 0.0, 1.695754551622681E9, 0.0, 2023-09-26 13:55:51.622
8.0, 73931.0993470072, 69069.93020414475, -19502.56758958907, -14335.626582578014, 33886.71980937956, 30928.108802808383, -187500.02235174447, 26977.773246499688, 45307.88008068563, 35089.958916897645, 4180.223248031527, 334.6056144959467, 48107.61488766848, 35737.399546790075, 19647.116320981542, -6438.352935117833, 0.14400000000000002, 1.022, 0.066, 192.0, 2.0, 64.0, 15.5, 120.0, 1.0, 8.0, 0.0, 0.0, 0.0, 1.695754551622699E9, 0.0, 2023-09-26 13:55:51.622
10.0, 73942.16346051257, 69091.11965788838, -19484.641490535916, -14324.74128302828, 33903.37185899876, 30942.59273321542, -187500.02235174447, 26970.508929551714, 45318.63126976863, 35073.48568123409, 4189.5886289583, 335.8573121854439, 48100.97641956525, 35751.68231149701, 19658.448655420383, -6430.820397236395, 0.14400000000000002, 1.022, 0.066, 192.0, 0.0, 0.0, 0.0, 0.0, 0.0, 0.0, 0.0, 0.0, 0.0, 1.695754551622718E9, 0.0, 2023-09-26 13:55:51.622
12.0, 73932.88748656363, 69074.08762861343, -19496.42085986386, -14345.349591416072, 33897.940385096124, 30926.4994772076, -187500.02235174447, 26971.24653711874, 45318.16188313507, 35093.82576868842, 4182.905457366163, 332.5939574949691, 48113.58280343805, 35748.66482599555, 19655.185300729907, -6437.816493250906, 0.14400000000000002, 1.022, 0.066, 192.0, 0.0, 0.0, 0.0, 0.0, 0.0, 0.0, 0.0, 0.0, 0.0, 1.695754551622735E9, 0.0, 2023-09-26 13:55:51.622
14.0, 73929.57942838424, 69074.04292512452, -19491.43642085033, -14333.145538943476, 33892.64302166022, 30936.110727323383, -187500.02235174447, 26963.66929574839, 45311.16578712056, 35087.14259709628, 4181.810221887854, 334.7620767071339, 48103.792739366625, 35747.6366457506, 19656.727571097323, -6440.9680892191045, 0.14400000000000002, 1.022, 0.066, 192.0, 0.0, 0.0, 0.0, 0.0, 0.0, 0.0, 0.0, 0.0, 0.0, 1.695754551622753E9, 0.0, 2023-09-26 13:55:51.622
16.0, 73928.3947859281, 69077.59685249292, -19486.51903707016, -14337.548832601171, 33889.334963480826, 30938.54706746901, -187500.02235174447, 26974.599298787034, 45298.62645848113, 35105.694544994185, 4178.546867197379, 339.9923849096757, 48108.128977790955, 35752.26345685285, 19658.046324020186, -6436.162464161213, 0.14400000000000002, 1.022, 0.066, 192.0, 0.0, 0.0, 0.0, 0.0, 0.0, 0.0, 0.0, 0.0, 0.0, 1.695754551683384E9, 0.0, 2023-09-26 13:55:51.683
18.0, 73936.3520069542, 69081.57546300597, -19483.255682379688, -14324.182489416897, 33892.28539374893, 30943.17387857126, -187500.02235174447, 26962.57406027008, 45314.92088018905, 35079.92298363721, 4190.415643503147, 346.5861495239913, 48109.98417258074, 35740.12645961362, 19662.69548686689, -6428.384057090767, 0.14400000000000002, 1.016, 0.07, 192.0, 2.0, 64.0, 15.5, 96.0, 1.0, 24.0, 0.0, 0.0, 0.0, 1.695754551683421E9, 0.0, 2023-09-26 13:55:51.683
20.0, 73925.28789344883, 69069.52787274455, -19496.174990674852, -14337.884108768, 33886.6974576351, 30933.16029705528, -187500.02235174447, 26974.845167976044, 45309.10942663067, 35099.61487050234, 4188.605152202267, 347.2790536021058, 48112.01818132617, 35754.07394815373, 19662.9413560559, -6428.719333257596, 0.14400000000000002, 1.016, 0.07, 192.0, 0.0, 0.0, 0.0, 0.0, 0.0, 0.0, 0.0, 0.0, 0.0, 1.695754551683439E9, 0.0, 2023-09-26 13:55:51.683
22.0, 73940.62119014516, 69084.3023758295, -19468.145903127897, -14316.091157924076, 33892.12893153774, 30949.11944259637, -187500.02235174447, 26974.420484831393, 45302.649772483084, 35089.86950991982, 4189.92390512513, 344.44038205628186, 48100.19410850932, 35733.42093627703, 19663.32133571164, -6426.238289623057, 0.14400000000000002, 1.016, 0.07, 192.0, 0.0, 0.0, 0.0, 0.0, 0.0, 0.0, 0.0, 0.0, 0.0, 1.695754551683457E9, 0.0, 2023-09-26 13:55:51.683
24.0, 73933.35687319719, 69075.31697455847, -19476.572510787548, -14327.73641678529, 33889.960812325575, 30939.821116902964, -187500.02235174447, 26988.233862904774, 45313.15509237708, 35107.013297917045, 4195.2212685610375, 346.563797779536, 48112.465216215285, 35747.32372132823, 19673.22315850534, -6414.436568550655, 0.14400000000000002, 1.016, 0.07, 192.0, 0.0, 0.0, 0.0, 0.0, 0.0, 0.0, 0.0, 0.0, 0.0, 1.695754551683507E9, 0.0, 2023-09-26 13:55:51.683
26.0, 73939.66006513359, 69087.54337877553, -19462.937946669812, -14312.73839625578, 33902.678954920644, 30951.60048623091, -187500.02235174447, 26980.54486281215, 45314.965583677964, 35102.542949025985, 4200.965666886052, 347.1896466242846, 48110.74413189222, 35743.00983464835, 19686.455391222884, -6410.055626637415, 0.14400000000000002, 1.016, 0.07, 192.0, 0.0, 0.0, 0.0, 0.0, 0.0, 0.0, 0.0, 0.0, 0.0, 1.695754551683525E9, 0.0, 2023-09-26 13:55:51.683
28.0, 73921.93513178053, 69076.00987863659, -19483.68036552434, -14335.425416877917, 33883.814082600366, 30930.142811553815, -187500.02235174447, 26981.707153523825, 45315.524377289345, 35105.62748976082, 4196.741187183999, 349.0895449029857, 48124.22223379878, 35760.84652672369, 19680.17455103094, -6413.31898132789, 0.14400000000000002, 1.01, 0.07, 192.0, 2.0, 64.0, 15.5, 72.0, 1.0, 24.0, 0.0, 0.0, 0.0, 1.695754551683542E9, 0.0, 2023-09-26 13:55:51.683
30.0, 73918.85059104569, 69068.38793377733, -19489.24594989371, -14336.833576778601, 33882.16005351068, 30929.852238875897, -187500.02235174447, 26963.266964348193, 45303.32032481675, 35063.00271308455, 4183.508954466457, 333.823303440011, 48109.06775105807, 35738.718299712935, 19664.88595782351, -6431.826225736884, 0.14400000000000002, 1.01, 0.07, 192.0, 0.0, 0.0, 0.0, 0.0, 0.0, 0.0, 0.0, 0.0, 0.0, 1.69575455168356E9, 0.0, 2023-09-26 13:55:51.683
32.0, 73936.08378602074, 69080.41317229428, -19478.070077666056, -14315.442957334872, 33891.23486175953, 30941.83277390394, -187500.02235174447, 26970.307763851615, 45308.751798719386, 35098.81020770195, 4193.902515638175, 345.468562301226, 48108.955992335796, 35741.48991602539, 19664.684792123415, -6428.853443724328, 0.14400000000000002, 1.01, 0.07, 192.0, 0.0, 0.0, 0.0, 0.0, 0.0, 0.0, 0.0, 0.0, 0.0, 1.695754551741913E9, 0.0, 2023-09-26 13:55:51.741
34.0, 73930.36173944018, 69074.22173908017, -19480.39465908941, -14325.255373150752, 33885.624573901245, 30938.12238432436, -187500.02235174447, 26966.932650438866, 45312.3951330656, 35114.09880090938, 4196.83059416182, 346.5861495239913, 48115.885033116945, 35744.26153233785, 19663.723667111833, -6425.187757633657, 0.14400000000000002, 1.01, 0.07, 192.0, 0.0, 0.0, 0.0, 0.0, 0.0, 0.0, 0.0, 0.0, 0.0, 1.695754551741939E9, 0.0, 2023-09-26 13:55:51.741
36.0, 73921.86807654717, 69068.49969249961, -19489.849446994, -14325.702408039859, 33884.730504123036, 30937.183611057237, -187500.02235174447, 26979.33786861156, 45313.289202843815, 35110.1872456297, 4192.472003993035, 343.0769256445081, 48115.23683252774, 35750.09533764068, 19668.104609025075, -6417.252888352024, 0.14400000000000002, 1.01, 0.07, 192.0, 0.0, 0.0, 0.0, 0.0, 0.0, 0.0, 0.0, 0.0, 0.0, 1.695754551741956E9, 0.0, 2023-09-26 13:55:51.741
38.0, 73922.85155330319, 69066.9574221322, -19496.24204590822, -14325.389483617484, 33882.74119886651, 30936.22248604566, -187500.02235174447, 26981.058952934618, 45300.68281897102, 35089.57893724191, 4179.753861397965, 337.9583761642428, 48110.52061444767, 35730.202285075466, 19659.298021709685, -6422.237327365557, 0.14200000000000002, 1.012, 0.074, 192.0, 2.0, 56.0, 15.5, 80.0, 1.0, 40.0, 0.0, 0.0, 0.0, 1.695754551741973E9, 0.0, 2023-09-26 13:55:51.741
40.0, 73930.51820165136, 69081.5531112615, -19478.874740466446, -14313.632466033992, 33897.24748101801, 30944.09030009393, -187500.02235174447, 26987.7197727823, 45308.34946731919, 35092.32820180991, 4194.818937160842, 349.78244898110023, 48110.207690025294, 35741.22169509193, 19668.28342298072, -6415.040065650948, 0.14200000000000002, 1.012, 0.074, 192.0, 0.0, 0.0, 0.0, 0.0, 0.0, 0.0, 0.0, 0.0, 0.0, 1.695754551741991E9, 0.0, 2023-09-26 13:55:51.741
42.0, 73930.20527722899, 69085.77759096355, -19485.244987636208, -14318.035759691687, 33901.06962931986, 30938.480012235646, -187500.02235174447, 26984.43406634737, 45316.574909278745, 35098.72080072413, 4203.290248309404, 357.47144907372586, 48116.153254050405, 35754.69979699848, 19677.246472507297, -6409.429777792666, 0.14200000000000002, 1.012, 0.074, 192.0, 0.0, 0.0, 0.0, 0.0, 0.0, 0.0, 0.0, 0.0, 0.0, 1.695754551742008E9, 0.0, 2023-09-26 13:55:51.742
44.0, 73920.19169571302, 69080.9049106723, -19491.928159228344, -14325.8812219955, 33888.88792859172, 30926.007738829583, -187500.02235174447, 26971.7159237523, 45314.272679599846, 35103.41466705974, 4202.463233764557, 361.1371351643962, 48114.58863193854, 35744.4850497824, 19666.249414235284, -6415.375341817778, 0.14200000000000002, 1.012, 0.074, 192.0, 0.0, 0.0, 0.0, 0.0, 0.0, 0.0, 0.0, 0.0, 0.0, 1.695754551742025E9, 0.0, 2023-09-26 13:55:51.742
46.0, 73901.34917513719, 69073.66294546878, -19509.407223392394, -14335.157195944454, 33874.314591206865, 30917.670538147755, -187500.02235174447, 26969.39134232895, 45295.56426949075, 35103.54877752648, 4186.280570778915, 344.39567856737125, 48104.418588211374, 35729.03999436379, 19651.810187317158, -6431.4015425922325, 0.14200000000000002, 1.012, 0.074, 192.0, 0.0, 0.0, 0.0, 0.0, 0.0, 0.0, 0.0, 0.0, 0.0, 1.695754551801989E9, 0.0, 2023-09-26 13:55:51.801
48.0, 73905.77482053934, 69074.15468384679, -19504.892171012423, -14332.16206218744, 33873.21935572855, 30919.257512004082, -187500.02235174447, 26965.680952749368, 45297.01713288035, 35092.10468436535, 4185.766480656443, 342.29461458857236, 48106.11732078998, 35722.96031987194, 19644.925850024923, -6435.536615316465, 0.14200000000000002, 1.012, 0.068, 192.0, 2.0, 56.0, 15.5, 80.0, 1.0, 16.0, 0.0, 0.0, 0.0, 1.695754551802047E9, 0.0, 2023-09-26 13:55:51.802
50.0, 73913.32971016523, 69076.81454143698, -19499.997138976712, -14320.829727748602, 33879.969582554055, 30925.806573129485, -187500.02235174447, 26967.893775450444, 45300.43694978201, 35099.883091435804, 4187.979303357519, 348.10606814695217, 48112.599326682015, 35738.40537529056, 19642.020123245733, -6431.669763525697, 0.14200000000000002, 1.012, 0.068, 192.0, 0.0, 0.0, 0.0, 0.0, 0.0, 0.0, 0.0, 0.0, 0.0, 1.695754551802066E9, 0.0, 2023-09-26 13:55:51.802
52.0, 73918.02357650084, 69078.26740482658, -19486.831961492535, -14317.700483524857, 33883.14353026671, 30928.555837697488, -187500.02235174447, 26971.604165030025, 45298.4923480144, 35092.819940187925, 4197.747015684487, 357.02441418461973, 48111.86171911499, 35738.07009912373, 19655.475873407828, -6421.499719798532, 0.14200000000000002, 1.012, 0.068, 192.0, 0.0, 0.0, 0.0, 0.0, 0.0, 0.0, 0.0, 0.0, 0.0, 1.695754551802084E9, 0.0, 2023-09-26 13:55:51.802
54.0, 73909.5969688412, 69065.79513142051, -19508.043766980623, -14328.921059241422, 33869.30780044887, 30911.59086365591, -187500.02235174447, 26976.05216217663, 45296.45833926897, 35106.67802175022, 4189.320408024837, 348.6201582694243, 48110.8558906145, 35733.91267465505, 19642.534213368202, -6429.501644313532, 0.14200000000000002, 1.012, 0.068, 192.0, 0.0, 0.0, 0.0, 0.0, 0.0, 0.0, 0.0, 0.0, 0.0, 1.695754551802102E9, 0.0, 2023-09-26 13:55:51.802
56.0, 73911.02748048633, 69068.9020238998, -19502.545237844617, -14321.902611482456, 33883.45645468908, 30920.419802715758, -187500.02235174447, 26969.48074930677, 45296.860670669164, 35087.32141105192, 4184.693596922588, 342.339318077483, 48101.73637887673, 35722.06625009373, 19645.41758840294, -6434.910766471716, 0.14200000000000002, 1.012, 0.068, 192.0, 0.0, 0.0, 0.0, 0.0, 0.0, 0.0, 0.0, 0.0, 0.0, 1.69575455180212E9, 0.0, 2023-09-26 13:55:51.802
58.0, 73922.20335271399, 69083.52006477358, -19492.95633947329, -14314.794756745669, 33887.099789035296, 30923.88432310633, -187500.02235174447, 26976.476845321282, 45314.80912146677, 35107.54973978397, 4195.9812278725185, 353.1799141383069, 48110.52061444767, 35727.385965274094, 19651.296097194685, -6426.12653090078, 0.146, 1.008, 0.068, 192.0, 2.0, 72.0, 15.5, 64.0, 1.0, 16.0, 0.0, 0.0, 0.0, 1.695754551802139E9, 0.0, 2023-09-26 13:55:51.802
60.0, 73913.46382063197, 69079.54145426053, -19495.280920896643, -14316.806413746646, 33881.511852921474, 30915.345956724403, -187500.02235174447, 26966.172691127384, 45311.903394687586, 35095.65861173375, 4203.536117498412, 354.208094383251, 48120.087161074545, 35739.902942169065, 19652.36898092854, -6428.1158361573025, 0.146, 1.008, 0.068, 192.0, 0.0, 0.0, 0.0, 0.0, 0.0, 0.0, 0.0, 0.0, 0.0, 1.695754551802157E9, 0.0, 2023-09-26 13:55:51.802
62.0, 73919.94582652401, 69084.2576723406, -19484.507380069183, -14316.091157924076, 33888.32913498034, 30919.302215492993, -187500.02235174447, 26982.556519813126, 45305.84607194019, 35101.1347891253, 4198.1493470846835, 348.7766204806114, 48112.91225110439, 35745.24500909389, 19641.37192265653, -6436.7436095170515, 0.146, 1.008, 0.068, 192.0, 0.0, 0.0, 0.0, 0.0, 0.0, 0.0, 0.0, 0.0, 0.0, 1.695754551862465E9, 0.0, 2023-09-26 13:55:51.862
64.0, 73918.11298347867, 69086.09051538593, -19480.61817653396, -14306.859887464034, 33879.7460651095, 30919.011642815072, -187500.02235174447, 26972.833510975066, 45310.003496408885, 35099.816036202435, 4209.593440245801, 358.1867048962957, 48116.779102895154, 35739.478259024414, 19652.927774539923, -6425.970068689593, 0.146, 1.008, 0.068, 192.0, 0.0, 0.0, 0.0, 0.0, 0.0, 0.0, 0.0, 0.0, 0.0, 1.695754551862488E9, 0.0, 2023-09-26 13:55:51.862
66.0, 73917.66594858957, 69087.2081026087, -19489.111839426976, -14316.269971879718, 33879.2990302204, 30912.507285178577, -187500.02235174447, 26982.847092491043, 45317.93836569052, 35113.294138108984, 4205.92775415513, 354.96805369473145, 48126.8597396445, 35745.60263700517, 19643.69650407988, -6431.826225736884, 0.146, 1.008, 0.068, 192.0, 0.0, 0.0, 0.0, 0.0, 0.0, 0.0, 0.0, 0.0, 0.0, 1.695754551862499E9, 0.0, 2023-09-26 13:55:51.862
68.0, 73919.25292244588, 69101.93790220475, -19471.118685140453, -14297.203933859342, 33890.09492279231, 30926.141849296317, -187500.02235174447, 26976.230976132272, 45319.525339546846, 35113.18237938671, 4213.013257147462, 361.49476307568113, 48128.267899545186, 35745.0885468827, 19651.519614639237, -6423.645487266242, 0.146, 1.014, 0.066, 192.0, 2.0, 72.0, 15.5, 88.0, 1.0, 8.0, 0.0, 0.0, 0.0, 1.695754551862508E9, 0.0, 2023-09-26 13:55:51.862
70.0, 73915.07314623275, 69092.01372766659, -19482.272205623653, -14307.150460141953, 33886.94332682411, 30921.02329981605, -187500.02235174447, 26986.222205903796, 45317.17840637903, 35114.61289103185, 4212.052132135884, 367.7308997787118, 48130.12309433497, 35747.74840447288, 19649.37384717153, -6422.483196554565, 0.146, 1.014, 0.066, 192.0, 0.0, 0.0, 0.0, 0.0, 0.0, 0.0, 0.0, 0.0, 0.0, 1.69575455186255E9, 0.0, 2023-09-26 13:55:51.862
72.0, 73915.34136716621, 69091.32082358848, -19484.23915913572, -14319.198050403364, 33872.57115513935, 30915.614177657866, -187500.02235174447, 26977.594432544047, 45316.95488893448, 35102.14061762579, 4211.985076902518, 360.13130666390737, 48130.838350157544, 35743.36746255964, 19644.36705641354, -6427.691153012652, 0.146, 1.014, 0.066, 192.0, 0.0, 0.0, 0.0, 0.0, 0.0, 0.0, 0.0, 0.0, 0.0, 1.69575455186256E9, 0.0, 2023-09-26 13:55:51.862
74.0, 73916.97304451145, 69081.84368393943, -19504.400432634407, -14323.400178360962, 33867.34084693681, 30906.740535109107, -187500.02235174447, 26980.276641878685, 45315.63613601162, 35109.02495491802, 4207.000637888985, 357.13617290689626, 48117.60611744, 35747.32372132823, 19634.398178386473, -6436.073057183392, 0.146, 1.014, 0.066, 192.0, 0.0, 0.0, 0.0, 0.0, 0.0, 0.0, 0.0, 0.0, 0.0, 1.695754551862581E9, 0.0, 2023-09-26 13:55:51.862
76.0, 73916.30249217778, 69086.53755027504, -19493.0010429622, -14318.460442836338, 33864.70334109108, 30906.002927542086, -187500.02235174447, 26970.330115596073, 45310.22701385344, 35100.26307109154, 4203.714931454055, 346.74261173517846, 48117.4049517399, 35733.68915721049, 19623.065843947632, -6444.387906120766, 0.146, 1.014, 0.066, 192.0, 0.0, 0.0, 0.0, 0.0, 0.0, 0.0, 0.0, 0.0, 0.0, 1.695754551922747E9, 0.0, 2023-09-26 13:55:51.922
78.0, 73901.8409135152, 69076.30045131451, -19509.29546467012, -14336.632411078503, 33857.12609972073, 30895.78818032601, -187500.02235174447, 26974.934574953866, 45300.74987420438, 35098.765504213035, 4192.896687137686, 338.74068722017853, 48098.78594860863, 35739.142982857586, 19623.669341047924, -6447.293632899957, 0.146, 1.014, 0.064, 192.0, 2.0, 72.0, 15.5, 88.0, 1.0, 0.0, 0.0, 0.0, 0.0, 1.695754551922772E9, 0.0, 2023-09-26 13:55:51.922
80.0, 73907.2947391623, 69077.32863155945, -19507.90965651389, -14327.959934229844, 33864.01043701296, 30907.791067098507, -187500.02235174447, 26966.32915333857, 45294.78195843482, 35079.028913859, 4187.1746405571275, 327.74362894816744, 48104.195070766815, 35726.5813024737, 19619.35545436805, -6452.970975991604, 0.146, 1.014, 0.064, 192.0, 0.0, 0.0, 0.0, 0.0, 0.0, 0.0, 0.0, 0.0, 0.0, 1.695754551922782E9, 0.0, 2023-09-26 13:55:51.922
82.0, 73910.51339036386, 69084.7047072297, -19499.90773199889, -14323.802509761157, 33868.21256497056, 30912.753154367587, -187500.02235174447, 26973.414656330904, 45317.22310986795, 35104.644013004785, 4206.128919855228, 352.0399751710862, 48126.47975998876, 35752.01758766384, 19634.21936443083, -6433.033219937471, 0.146, 1.014, 0.064, 192.0, 0.0, 0.0, 0.0, 0.0, 0.0, 0.0, 0.0, 0.0, 0.0, 1.695754551922791E9, 0.0, 2023-09-26 13:55:51.922
84.0, 73898.33168963573, 69073.14885534631, -19511.39652864892, -14335.537175600193, 33861.48468988951, 30898.962128038664, -187500.02235174447, 26960.62945850247, 45300.973391648935, 35096.17270185622, 4189.096890580284, 338.78539070908914, 48109.47008245827, 35742.987482903896, 19627.1338614385, -6444.678478798685, 0.146, 1.014, 0.064, 192.0, 0.0, 0.0, 0.0, 0.0, 0.0, 0.0, 0.0, 0.0, 0.0, 1.6957545519228E9, 0.0, 2023-09-26 13:55:51.922
86.0, 73890.77680000983, 69066.08570409843, -19507.775546047156, -14330.016294719731, 33865.776224824935, 30906.02527928654, -187500.02235174447, 26965.546842282634, 45287.271772297834, 35102.36413507034, 4181.318483509837, 330.89522491636575, 48110.54296619212, 35733.5326949993, 19621.478870091305, -6450.445228868155, 0.146, 1.014, 0.064, 192.0, 0.0, 0.0, 0.0, 0.0, 0.0, 0.0, 0.0, 0.0, 0.0, 1.695754551922808E9, 0.0, 2023-09-26 13:55:51.922
88.0, 73899.82925651423, 69067.8067884215, -19500.53358084364, -14321.969666715822, 33869.59837312679, 30921.06800330496, -187500.02235174447, 26965.14451088244, 45299.92285965954, 35102.52059728153, 4194.416605760647, 337.22076859721767, 48110.56531793658, 35729.68819495299, 19633.817033030635, -6436.2742228834895, 0.148, 1.014, 0.064, 192.0, 2.0, 80.0, 15.5, 88.0, 1.0, 0.0, 0.0, 0.0, 0.0, 1.695754551922817E9, 0.0, 2023-09-26 13:55:51.922
90.0, 73894.37543086713, 69067.78443667703, -19512.067080982575, -14327.758768529746, 33864.12219573524, 30907.83577058742, -187500.02235174447, 26962.752874225724, 45302.40390329408, 35103.79464671548, 4197.992884873496, 348.9554344362539, 48115.102722061005, 35758.41018657806, 19637.683884821403, -6429.32283035789, 0.148, 1.014, 0.064, 192.0, 0.0, 0.0, 0.0, 0.0, 0.0, 0.0, 0.0, 0.0, 0.0, 1.695754551922827E9, 0.0, 2023-09-26 13:55:51.922
92.0, 73891.11207617665, 69058.28494528354, -19506.85912452449, -14332.16206218744, 33867.85493705928, 30908.439267687714, -187500.02235174447, 26961.903507936422, 45298.64881022559, 35106.119228138836, 4186.6381986902, 328.90591965984345, 48110.922945847866, 35737.69011946799, 19625.949218982365, -6447.047763710948, 0.148, 1.014, 0.064, 192.0, 0.0, 0.0, 0.0, 0.0, 0.0, 0.0, 0.0, 0.0, 0.0, 1.695754551982333E9, 0.0, 2023-09-26 13:55:51.982
94.0, 73891.82733199923, 69056.74267491611, -19500.10889769899, -14319.130995169997, 33869.59837312679, 30909.378040954834, -187500.02235174447, 26963.825757959577, 45299.76639744835, 35076.391408013274, 4191.309713281359, 341.8028762105556, 48115.125073805466, 35741.78048870331, 19634.375826642015, -6439.381115362778, 0.148, 1.014, 0.064, 192.0, 0.0, 0.0, 0.0, 0.0, 0.0, 0.0, 0.0, 0.0, 0.0, 1.695754551982357E9, 0.0, 2023-09-26 13:55:51.982
96.0, 73896.40943961256, 69052.40643649179, -19487.301348126097, -14317.834593991589, 33878.87434707575, 30914.295424735003, -187500.02235174447, 26973.369952841993, 45313.78094122183, 35086.58380348489, 4204.340780298803, 351.14590539287394, 48139.84610317303, 35742.65220673707, 19640.902536022968, -6428.920498957694, 0.148, 1.014, 0.064, 192.0, 0.0, 0.0, 0.0, 0.0, 0.0, 0.0, 0.0, 0.0, 0.0, 1.695754551982367E9, 0.0, 2023-09-26 13:55:51.982
98.0, 73867.91096543205, 69027.6407036353, -19501.740575044227, -14333.570222088127, 33864.47982364653, 30903.633642629822, -187500.02235174447, 26975.493368565247, 45302.15803410507, 35069.28355327649, 4192.8743353932305, 333.4656755287261, 48114.4545214718, 35725.88839839559, 19635.64987607597, -6438.554100817932, 0.146, 1.02, 0.066, 192.0, 2.0, 72.0, 15.5, 112.0, 1.0, 8.0, 0.0, 0.0, 0.0, 1.695754551982376E9, 0.0, 2023-09-26 13:55:51.982
100.0, 73879.73503824891, 69032.17810775973, -19497.42668836435, -14330.060998208643, 33885.40105645669, 30912.373174711847, -187500.02235174447, 26988.323269882592, 45298.55940324777, 35068.47889047609, 4186.615846945745, 326.6707452143127, 48122.90348087591, 35723.630872205606, 19636.36513189854, -6432.317964114901, 0.146, 1.02, 0.066, 192.0, 0.0, 0.0, 0.0, 0.0, 0.0, 0.0, 0.0, 0.0, 0.0, 1.695754551982385E9, 0.0, 2023-09-26 13:55:51.982
102.0, 73885.14416040709, 69039.86710785236, -19490.140019671922, -14313.990093945276, 33878.27084997545, 30913.82603810144, -187500.02235174447, 26974.934574953866, 45314.56325227777, 35064.45557647414, 4202.284419808915, 343.0098704111422, 48129.69841119032, 35738.00304389036, 19646.0881407366, -6423.332562843867, 0.146, 1.02, 0.066, 192.0, 0.0, 0.0, 0.0, 0.0, 0.0, 0.0, 0.0, 0.0, 0.0, 1.695754551982394E9, 0.0, 2023-09-26 13:55:51.982
104.0, 73879.24329987088, 69032.06634903746, -19502.634644822436, -14325.545945828671, 33852.52164036294, 30893.955337280673, -187500.02235174447, 26971.738275496755, 45310.53993827581, 35083.320448794424, 4197.769367428943, 342.0934488884746, 48117.695524417824, 35726.87187515162, 19633.32529465262, -6435.424856594188, 0.146, 1.02, 0.066, 192.0, 0.0, 0.0, 0.0, 0.0, 0.0, 0.0, 0.0, 0.0, 0.0, 1.695754551982402E9, 0.0, 2023-09-26 13:55:51.982
106.0, 73903.7408117939, 69042.48226195363, -19490.318833627563, -14317.342855613573, 33869.15133823769, 30906.852293831387, -187500.02235174447, 26963.982220170765, 45315.43497031152, 35074.580916712395, 4204.899573910186, 348.03901291358625, 48124.22223379878, 35741.46756428094, 19632.45357661886, -6433.882586226772, 0.146, 1.02, 0.066, 192.0, 0.0, 0.0, 0.0, 0.0, 0.0, 0.0, 0.0, 0.0, 0.0, 1.695754551982411E9, 0.0, 2023-09-26 13:55:51.982
108.0, 73876.00229692487, 69013.76027032855, -19501.15942968839, -14339.493434368782, 33859.920067777646, 30888.68032558922, -187500.02235174447, 26977.728543010777, 45318.76538023536, 35087.76844594103, 4205.056036121373, 345.02152741211984, 48118.50018721822, 35736.21490433394, 19642.042474990187, -6433.592013548853, 0.14, 1.014, 0.07200000000000001, 192.0, 2.0, 48.0, 15.5, 88.0, 1.0, 32.0, 0.0, 0.0, 0.0, 1.695754552043603E9, 0.0, 2023-09-26 13:55:52.043
110.0, 73873.20832886796, 69018.76706108655, -19505.450964623808, -14330.060998208643, 33860.85884104477, 30894.91646229225, -187500.02235174447, 26965.233917860263, 45307.03071439633, 35059.53819269397, 4192.583762715311, 327.9000911593546, 48118.32137326257, 35728.660014708046, 19627.647951560968, -6441.102199685836, 0.14, 1.014, 0.07200000000000001, 192.0, 0.0, 0.0, 0.0, 0.0, 0.0, 0.0, 0.0, 0.0, 0.0, 1.69575455204363E9, 0.0, 2023-09-26 13:55:52.043
112.0, 73876.87401495862, 69017.80593607498, -19502.925217500357, -14326.12709118451, 33853.43806188561, 30891.25077620158, -187500.02235174447, 26974.666354020403, 45311.38930456511, 35084.52744299501, 4195.534192983412, 336.46080928573724, 48133.18528332535, 35717.70765992495, 19630.531326595705, -6438.218824651101, 0.14, 1.014, 0.07200000000000001, 192.0, 0.0, 0.0, 0.0, 0.0, 0.0, 0.0, 0.0, 0.0, 0.0, 1.69575455204364E9, 0.0, 2023-09-26 13:55:52.043
114.0, 73886.46291332996, 69033.60861940487, -19484.730897513735, -14315.532364312694, 33877.48853891952, 30912.037898545015, -187500.02235174447, 26987.026868704186, 45319.704153502484, 35082.60519297185, 4217.193033360605, 354.90099846136553, 48115.28153601665, 35741.02052939183, 19652.570146628637, -6419.912745942205, 0.14, 1.014, 0.07200000000000001, 192.0, 0.0, 0.0, 0.0, 0.0, 0.0, 0.0, 0.0, 0.0, 0.0, 1.695754552043676E9, 0.0, 2023-09-26 13:55:52.043
116.0, 73874.21415736845, 69015.2354854626, -19507.775546047156, -14328.496376096771, 33866.15620448068, 30893.575357624934, -187500.02235174447, 26992.7712670292, 45313.289202843815, 35091.70235296516, 4209.481681523524, 345.6026727679578, 48135.465161259795, 35732.97390138792, 19643.495338379784, -6426.46180706761, 0.14, 1.014, 0.07200000000000001, 192.0, 0.0, 0.0, 0.0, 0.0, 0.0, 0.0, 0.0, 0.0, 0.0, 1.695754552043685E9, 0.0, 2023-09-26 13:55:52.043
118.0, 73867.41922705404, 69003.41141264576, -19511.53063911565, -14327.803472018657, 33859.38362591072, 30894.223558214137, -187500.02235174447, 26975.023981931685, 45310.04819989779, 35079.207727814646, 4199.289286051904, 332.5269022616032, 48122.657611686904, 35744.797974204776, 19635.895745264977, -6434.419028093699, 0.14, 1.012, 0.066, 192.0, 2.0, 48.0, 15.5, 80.0, 1.0, 8.0, 0.0, 0.0, 0.0, 1.695754552043694E9, 0.0, 2023-09-26 13:55:52.043
120.0, 73870.0343811553, 69012.41916566124, -19499.72891804325, -14326.507070840249, 33867.49730914799, 30893.4412471582, -187500.02235174447, 26996.235787419773, 45311.25519409838, 35084.303925550455, 4203.536117498412, 330.8281696829998, 48122.36703900898, 35737.15367760106, 19635.69457956488, -6431.781522247973, 0.14, 1.012, 0.066, 192.0, 0.0, 0.0, 0.0, 0.0, 0.0, 0.0, 0.0, 0.0, 0.0, 1.695754552043703E9, 0.0, 2023-09-26 13:55:52.043
122.0, 73856.22100308193, 68991.69909855117, -19528.272095712673, -14340.07457972462, 33854.77916655292, 30881.706581319166, -187500.02235174447, 26983.33883086906, 45300.12402535963, 35069.77529165451, 4191.332065025815, 323.7873701795781, 48101.624620154456, 35716.433610490996, 19623.959913725845, -6444.499664843043, 0.14, 1.012, 0.066, 192.0, 0.0, 0.0, 0.0, 0.0, 0.0, 0.0, 0.0, 0.0, 0.0, 1.695754552103038E9, 0.0, 2023-09-26 13:55:52.103
124.0, 73849.42607276751, 68983.98774671409, -19527.333322445553, -14348.165911217442, 33844.20679142556, 30876.655087072264, -187500.02235174447, 26984.277604136183, 45300.3922462931, 35066.15430905275, 4184.157155055661, 319.6522974553463, 48116.39912323942, 35716.12068606862, 19612.873448476013, -6446.757191033029, 0.14, 1.012, 0.066, 192.0, 0.0, 0.0, 0.0, 0.0, 0.0, 0.0, 0.0, 0.0, 0.0, 1.695754552103076E9, 0.0, 2023-09-26 13:55:52.103
126.0, 73856.84685192668, 68988.6816130497, -19529.076758513067, -14344.41081814895, 33844.65382631467, 30880.901918518775, -187500.02235174447, 26970.508929551714, 45292.54678398929, 35046.73064312108, 4181.474945721024, 308.69994267224587, 48103.0551317996, 35710.17512204351, 19604.35743383854, -6451.316946901911, 0.14, 1.012, 0.066, 192.0, 0.0, 0.0, 0.0, 0.0, 0.0, 0.0, 0.0, 0.0, 0.0, 1.69575455210309E9, 0.0, 2023-09-26 13:55:52.103
128.0, 73852.01887512433, 68977.2822233775, -19535.402302193917, -14343.717914070836, 33844.385605381205, 30880.09725571838, -187500.02235174447, 26975.314554609606, 45295.09488285719, 35055.09019554737, 4185.766480656443, 317.9759166211983, 48115.19212903883, 35729.911712397545, 19610.347701352563, -6441.817455508406, 0.14200000000000002, 1.014, 0.06, 192.0, 2.0, 56.0, 15.5, 88.0, 0.5, 112.0, 0.0, 0.0, 0.0, 1.695754552103102E9, 0.0, 2023-09-26 13:55:52.103
130.0, 73850.90128790156, 68978.26570013353, -19539.58207840706, -14343.002658248266, 33844.83264027031, 30885.461674387658, -187500.02235174447, 26980.209586645316, 45290.11044384366, 35057.34772173735, 4177.384576485703, 307.18002404928495, 48100.9540678208, 35712.25383427785, 19599.618864014014, -6451.8310370243835, 0.14200000000000002, 1.014, 0.06, 192.0, 0.0, 0.0, 0.0, 0.0, 0.0, 0.0, 0.0, 0.0, 0.0, 1.695754552103117E9, 0.0, 2023-09-26 13:55:52.103
132.0, 73860.71370371744, 68984.32302288093, -19545.795863365634, -14340.588669847093, 33847.738367049504, 30888.814436055953, -187500.02235174447, 26986.803351259634, 45296.659504969066, 35074.3797510123, 4183.35249225527, 316.59010846496926, 48113.82867262705, 35735.05261362226, 19601.742279737267, -6444.544368331954, 0.14200000000000002, 1.014, 0.06, 192.0, 0.0, 0.0, 0.0, 0.0, 0.0, 0.0, 0.0, 0.0, 0.0, 1.695754552103126E9, 0.0, 2023-09-26 13:55:52.103
134.0, 73841.55825871925, 68971.47076981912, -19553.440159969352, -14348.478835639817, 33829.96873020753, 30879.7396278071, -187500.02235174447, 26975.56042379861, 45283.91901062954, 35071.25050678856, 4165.828724602309, 301.03329432407554, 48113.73926564924, 35715.11485756813, 19582.609186483525, -6455.362612648322, 0.14200000000000002, 1.014, 0.06, 192.0, 0.0, 0.0, 0.0, 0.0, 0.0, 0.0, 0.0, 0.0, 0.0, 1.695754552103135E9, 0.0, 2023-09-26 13:55:52.103
136.0, 73858.2326600829, 68991.00619447306, -19536.385778949953, -14331.156233686952, 33849.95118975058, 30902.11372400686, -187500.02235174447, 26991.38545887297, 45292.47972875592, 35064.790852640974, 4185.2970940228815, 311.4268554957933, 48102.98807656623, 35728.436497263494, 19597.78602096868, -6442.353897375334, 0.14200000000000002, 1.014, 0.06, 192.0, 0.0, 0.0, 0.0, 0.0, 0.0, 0.0, 0.0, 0.0, 0.0, 1.695754552103206E9, 0.0, 2023-09-26 13:55:52.103
138.0, 73861.7865874513, 68985.86529324834, -19538.442139439838, -14323.623695805514, 33847.62660832723, 30904.326546707936, -187500.02235174447, 26999.18621768787, 45304.057932383774, 35068.68005617619, 4196.472966250535, 328.61534698192446, 48128.42436175637, 35734.315006055236, 19609.945369952366, -6432.675592026186, 0.152, 1.016, 0.058, 192.0, 2.0, 96.0, 15.5, 96.0, 0.5, 104.0, 0.0, 0.0, 0.0, 1.695754552162795E9, 0.0, 2023-09-26 13:55:52.162
140.0, 73858.52323276082, 68985.06063044794, -19525.031092766654, -14328.764597030235, 33846.486669360005, 30905.6452996308, -187500.02235174447, 26994.604110074535, 45308.90826093057, 35077.28547779149, 4195.310675538859, 328.10125685945235, 48123.842254143034, 35738.18185784601, 19604.513896049728, -6439.0905426848585, 0.152, 1.016, 0.058, 192.0, 0.0, 0.0, 0.0, 0.0, 0.0, 0.0, 0.0, 0.0, 0.0, 1.695754552162825E9, 0.0, 2023-09-26 13:55:52.162
142.0, 73859.84198568368, 68983.09367693588, -19540.25263074072, -14338.353495401561, 33844.20679142556, 30899.140941994305, -187500.02235174447, 26986.780999515177, 45303.67795272803, 35083.76748368353, 4186.97347485703, 318.26648929911727, 48121.3612105085, 35733.30917755475, 19599.440050058372, -6452.859217269328, 0.152, 1.016, 0.058, 192.0, 0.0, 0.0, 0.0, 0.0, 0.0, 0.0, 0.0, 0.0, 0.0, 1.695754552162834E9, 0.0, 2023-09-26 13:55:52.162
144.0, 73867.41922705404, 68987.8322467604, -19519.689025841835, -14336.140672700487, 33843.11155594725, 30909.445096188203, -187500.02235174447, 26983.182368657872, 45308.461226041465, 35076.279649291, 4188.0016551019735, 319.9428701332653, 48117.963745351284, 35744.32858757122, 19604.245675116264, -6457.977766749593, 0.152, 1.016, 0.058, 192.0, 0.0, 0.0, 0.0, 0.0, 0.0, 0.0, 0.0, 0.0, 0.0, 1.695754552162843E9, 0.0, 2023-09-26 13:55:52.162
146.0, 73881.90315746107, 68998.22580793212, -19513.609351349995, -14330.664495308936, 33851.49346011799, 30924.778392884542, -187500.02235174447, 26988.05504894913, 45315.88200520063, 35099.57016701343, 4198.059940106862, 338.9865564091869, 48126.435056499846, 35754.61039002066, 19619.48956483478, -6448.880606756283, 0.152, 1.016, 0.058, 192.0, 0.0, 0.0, 0.0, 0.0, 0.0, 0.0, 0.0, 0.0, 0.0, 1.695754552162852E9, 0.0, 2023-09-26 13:55:52.162
148.0, 73881.85845397216, 68988.92748223871, -19509.898961770414, -14343.829672793112, 33842.441003613596, 30920.97859632714, -187500.02235174447, 26980.164883156405, 45321.760513992376, 35087.50022500756, 4202.664399464655, 339.5900535094802, 48123.57403320957, 35752.2411051084, 19631.22423067382, -6449.75232479004, 0.14400000000000002, 1.018, 0.056, 192.0, 2.0, 64.0, 15.5, 104.0, 0.5, 96.0, 0.0, 0.0, 0.0, 1.695754552162861E9, 0.0, 2023-09-26 13:55:52.162
150.0, 73863.23945084089, 68971.24725237457, -19521.09718574252, -14358.939452044899, 33821.16214289214, 30912.64139564531, -187500.02235174447, 26981.841263990555, 45316.641964512106, 35079.408893514745, 4187.979303357519, 329.7552859491451, 48111.88407085944, 35727.475372251916, 19628.16204168344, -6460.70467957314, 0.14400000000000002, 1.018, 0.056, 192.0, 0.0, 0.0, 0.0, 0.0, 0.0, 0.0, 0.0, 0.0, 0.0, 1.695754552162871E9, 0.0, 2023-09-26 13:55:52.162
152.0, 73864.31233457474, 68965.77107498301, -19518.459679896794, -14366.494341670794, 33819.441058569086, 30911.032070044526, -187500.02235174447, 26974.800464487133, 45303.700304472484, 35056.94539033716, 4169.315596737337, 310.4433787397598, 48101.91519283238, 35723.273244294316, 19627.625599816514, -6471.724089589607, 0.14400000000000002, 1.018, 0.056, 192.0, 0.0, 0.0, 0.0, 0.0, 0.0, 0.0, 0.0, 0.0, 0.0, 1.695754552223075E9, 0.0, 2023-09-26 13:55:52.223
154.0, 73874.72824749092, 68969.10148490686, -19528.585020135048, -14357.8889200555, 33821.72093650352, 30910.07094503295, -187500.02235174447, 26975.62747903198, 45305.84607194019, 35072.345742266865, 4170.120259537728, 309.3928467503604, 48123.26110878719, 35725.17314257302, 19637.907402265955, -6473.579284379397, 0.14400000000000002, 1.018, 0.056, 192.0, 0.0, 0.0, 0.0, 0.0, 0.0, 0.0, 0.0, 0.0, 0.0, 1.6957545522231E9, 0.0, 2023-09-26 13:55:52.223
156.0, 73886.06058192976, 68970.84492097437, -19548.58983142255, -14357.821864822134, 33818.47993355751, 30912.328471222936, -187500.02235174447, 26965.368028326993, 45315.9937639229, 35068.635352687284, 4180.871448620731, 319.51818698861445, 48116.7567511507, 35738.561837501744, 19659.7897600877, -6464.504476130543, 0.14400000000000002, 1.018, 0.056, 192.0, 0.0, 0.0, 0.0, 0.0, 0.0, 0.0, 0.0, 0.0, 0.0, 1.695754552223109E9, 0.0, 2023-09-26 13:55:52.223
158.0, 73898.95753848048, 68982.1772554132, -19538.35273246202, -14351.384562419005, 33818.25641611295, 30919.145753281806, -187500.02235174447, 26971.49240630775, 45308.617688252656, 35069.819995143414, 4171.9754543275185, 310.8457101399553, 48117.47200697327, 35724.99432861737, 19649.597364616082, -6466.940816276171, 0.14400000000000002, 1.02, 0.06, 192.0, 2.0, 64.0, 15.5, 112.0, 0.5, 112.0, 0.0, 0.0, 0.0, 1.695754552223118E9, 0.0, 2023-09-26 13:55:52.223
160.0, 73895.67183204554, 68981.50670307955, -19544.141834275943, -14348.523539128726, 33818.368174835225, 30918.96693932616, -187500.02235174447, 26957.65667648991, 45316.999592423395, 35067.96480035363, 4186.30292252337, 326.8719109144105, 48115.19212903883, 35731.25281706486, 19667.076428780132, -6451.495760857554, 0.14400000000000002, 1.02, 0.06, 192.0, 0.0, 0.0, 0.0, 0.0, 0.0, 0.0, 0.0, 0.0, 0.0, 1.695754552223159E9, 0.0, 2023-09-26 13:55:52.223
162.0, 73915.14020146611, 68995.1859706862, -19524.941685788835, -14329.882184253, 33843.11155594725, 30943.64326520482, -187500.02235174447, 26976.298031365637, 45315.12204588915, 35086.673210462715, 4183.73247191101, 324.1002946019524, 48124.9598413658, 35729.24116006389, 19669.46806543685, -6450.109952701325, 0.14400000000000002, 1.02, 0.06, 192.0, 0.0, 0.0, 0.0, 0.0, 0.0, 0.0, 0.0, 0.0, 0.0, 1.695754552223169E9, 0.0, 2023-09-26 13:55:52.223
164.0, 73916.61541660017, 68994.89539800827, -19528.85324106851, -14325.970628973322, 33835.51196283245, 30946.5042884951, -187500.02235174447, 26968.653734761923, 45334.52336007635, 35098.40787630175, 4208.028818133929, 351.0117949261421, 48153.05598414612, 35757.18084063302, 19693.652652937493, -6423.109045399314, 0.14400000000000002, 1.02, 0.06, 192.0, 0.0, 0.0, 0.0, 0.0, 0.0, 0.0, 0.0, 0.0, 0.0, 1.695754552223178E9, 0.0, 2023-09-26 13:55:52.223
166.0, 73903.58434958271, 68984.14420892528, -19544.47711044277, -14342.086236725598, 33823.486724315495, 30940.6034279589, -187500.02235174447, 26983.651755291434, 45327.191987895014, 35092.43996053219, 4190.147422569683, 336.2149400967288, 48142.34949855203, 35743.21100034845, 19679.7945713752, -6428.920498957694, 0.14400000000000002, 1.02, 0.06, 192.0, 0.0, 0.0, 0.0, 0.0, 0.0, 0.0, 0.0, 0.0, 0.0, 1.695754552223187E9, 0.0, 2023-09-26 13:55:52.223
168.0, 73918.31414917877, 68996.90705500926, -19533.524755659673, -14337.101797712065, 33832.18155290861, 30933.696738922208, -187500.02235174447, 26959.802443957622, 45313.423313310544, 35079.4312452592, 4182.458422477058, 324.9496608912541, 48129.83252165705, 35744.12742187112, 19670.853873593078, -6442.756228775529, 0.14400000000000002, 1.016, 0.066, 192.0, 2.0, 64.0, 15.5, 96.0, 1.0, 8.0, 0.0, 0.0, 0.0, 1.695754552283248E9, 0.0, 2023-09-26 13:55:52.283
170.0, 73912.77091655385, 68990.29093865049, -19549.953287834323, -14352.591556619593, 33826.615968539234, 30918.40814571478, -187500.02235174447, 26964.89864169343, 45332.46699958647, 35099.36900131333, 4194.081329593817, 341.60171051045785, 48135.867492659985, 35741.40050904757, 19674.899539339487, -6442.51035958652, 0.14400000000000002, 1.016, 0.066, 192.0, 0.0, 0.0, 0.0, 0.0, 0.0, 0.0, 0.0, 0.0, 0.0, 1.695754552283269E9, 0.0, 2023-09-26 13:55:52.283
172.0, 73903.07025946025, 68985.57472057041, -19546.555822677117, -14346.198957705374, 33826.2359888835, 30921.82796261644, -187500.02235174447, 26948.023074629677, 45316.239633111916, 35063.58385844038, 4177.3175212523365, 322.1333410898854, 48134.615794970494, 35712.142075555574, 19656.235832719307, -6461.084659228881, 0.14400000000000002, 1.016, 0.066, 192.0, 0.0, 0.0, 0.0, 0.0, 0.0, 0.0, 0.0, 0.0, 0.0, 1.695754552283279E9, 0.0, 2023-09-26 13:55:52.283
174.0, 73887.93812846401, 68969.03442967348, -19567.92409037639, -14366.047306781687, 33815.998889922965, 30899.67738386123, -187500.02235174447, 26950.23589733075, 45320.95585119198, 35070.06586433242, 4176.82578287432, 325.08377135798594, 48131.86653040249, 35703.35783998464, 19650.782007072212, -6459.542388861464, 0.14400000000000002, 1.016, 0.066, 192.0, 0.0, 0.0, 0.0, 0.0, 0.0, 0.0, 0.0, 0.0, 0.0, 1.695754552283288E9, 0.0, 2023-09-26 13:55:52.283
176.0, 73898.06346870225, 68972.76717099753, -19542.62191565298, -14352.993888019788, 33832.22625639752, 30913.758982868076, -187500.02235174447, 26947.553687996115, 45317.08899940122, 35045.34483496485, 4168.466230448035, 310.1751578062961, 48122.858777387, 35709.437514476485, 19650.424379160926, -6468.281920943489, 0.14400000000000002, 1.016, 0.066, 192.0, 0.0, 0.0, 0.0, 0.0, 0.0, 0.0, 0.0, 0.0, 0.0, 1.695754552283297E9, 0.0, 2023-09-26 13:55:52.283
178.0, 73896.3423843792, 68970.75551399654, -19541.884308085955, -14350.714010085347, 33832.51682907544, 30913.82603810144, -187500.02235174447, 26961.300010836127, 45329.60597629619, 35048.31761697741, 4174.300035750871, 319.89816664435466, 48122.098818075516, 35719.60755820365, 19663.924832811932, -6454.915577759216, 0.14200000000000002, 1.014, 0.066, 192.0, 2.0, 56.0, 15.5, 88.0, 1.0, 8.0, 0.0, 0.0, 0.0, 1.695754552283306E9, 0.0, 2023-09-26 13:55:52.283
180.0, 73887.11111391916, 68953.8799469328, -19548.545127933638, -14363.186283491408, 33826.54891330587, 30915.480067191133, -187500.02235174447, 26963.49048179275, 45331.885854230626, 35041.94736980765, 4172.757765383454, 317.4171230098156, 48139.62258572848, 35725.75428792886, 19663.388390945005, -6451.696926557652, 0.14200000000000002, 1.014, 0.066, 192.0, 0.0, 0.0, 0.0, 0.0, 0.0, 0.0, 0.0, 0.0, 0.0, 1.695754552283315E9, 0.0, 2023-09-26 13:55:52.283
182.0, 73876.1364073916, 68943.4193305277, -19553.0154768247, -14366.427286437427, 33825.856009227755, 30911.21088400017, -187500.02235174447, 26967.647906261434, 45322.58752853722, 35034.660701115215, 4166.6333874027005, 305.6377536818688, 48130.10074259052, 35699.848616105155, 19658.9403937984, -6454.200321936646, 0.14200000000000002, 1.014, 0.066, 192.0, 0.0, 0.0, 0.0, 0.0, 0.0, 0.0, 0.0, 0.0, 0.0, 1.695754552343479E9, 0.0, 2023-09-26 13:55:52.343
184.0, 73880.62910802712, 68940.69241770417, -19560.995049595243, -14369.690641127901, 33818.47993355751, 30904.751229852587, -187500.02235174447, 26962.507005036714, 45312.88687144362, 35026.79288706695, 4155.479866919502, 294.953619832232, 48122.36703900898, 35702.06143880623, 19647.205727959365, -6466.873761042805, 0.14200000000000002, 1.014, 0.066, 192.0, 0.0, 0.0, 0.0, 0.0, 0.0, 0.0, 0.0, 0.0, 0.0, 1.695754552343502E9, 0.0, 2023-09-26 13:55:52.343
186.0, 73877.96925043693, 68935.64092345726, -19560.033924583666, -14378.251359254285, 33807.84050319678, 30893.418895413746, -187500.02235174447, 26961.277659091673, 45318.72067674645, 35031.39734642474, 4164.085288534795, 298.88752685636604, 48118.32137326257, 35693.03133404629, 19650.782007072212, -6463.453944141143, 0.14200000000000002, 1.014, 0.066, 192.0, 0.0, 0.0, 0.0, 0.0, 0.0, 0.0, 0.0, 0.0, 0.0, 1.695754552343518E9, 0.0, 2023-09-26 13:55:52.343
188.0, 73890.53093082082, 68950.59424049786, -19551.9649448353, -14361.599309635081, 33821.34095684779, 30908.26045373207, -187500.02235174447, 26964.608069015514, 45307.52245277434, 35027.798715567435, 4148.282605204893, 287.55519241752535, 48109.55948943609, 35680.11202575112, 19633.727626052812, -6477.04380476997, 0.14200000000000002, 1.018, 0.07200000000000001, 192.0, 2.0, 56.0, 15.5, 104.0, 1.0, 32.0, 0.0, 0.0, 0.0, 1.695754552343527E9, 0.0, 2023-09-26 13:55:52.343
190.0, 73893.54841632229, 68959.71375223562, -19549.148625033933, -14359.095914256086, 33822.25737837045, 30908.036936287517, -187500.02235174447, 26958.34958056803, 45336.356203121686, 35055.2243060141, 4172.802468872365, 310.4880822286704, 48115.23683252774, 35710.53274995479, 19656.615812375047, -6458.402449894244, 0.14200000000000002, 1.018, 0.07200000000000001, 192.0, 0.0, 0.0, 0.0, 0.0, 0.0, 0.0, 0.0, 0.0, 0.0, 1.695754552343537E9, 0.0, 2023-09-26 13:55:52.343
192.0, 73884.92064296253, 68949.65546723074, -19564.794846152647, -14366.829617837622, 33821.69858475907, 30904.661822874765, -187500.02235174447, 26965.56919402709, 45324.42037158256, 35047.8258785994, 4160.620768144223, 308.3423147609609, 48130.16779782389, 35712.34324125567, 19645.59640235858, -6462.85044704085, 0.14200000000000002, 1.018, 0.07200000000000001, 192.0, 0.0, 0.0, 0.0, 0.0, 0.0, 0.0, 0.0, 0.0, 0.0, 1.695754552343546E9, 0.0, 2023-09-26 13:55:52.343
194.0, 73881.63493652761, 68950.86246143133, -19556.994087337745, -14356.07842875462, 33817.00471842346, 30905.891168819806, -187500.02235174447, 26958.975429412774, 45323.414543082064, 35030.257407457524, 4158.96673905453, 309.25873628362854, 48113.918079604875, 35693.54542416876, 19647.02691400372, -6464.2139034526235, 0.14200000000000002, 1.018, 0.07200000000000001, 192.0, 0.0, 0.0, 0.0, 0.0, 0.0, 0.0, 0.0, 0.0, 0.0, 1.695754552343556E9, 0.0, 2023-09-26 13:55:52.343
196.0, 73882.79722723928, 68956.60685975634, -19560.995049595243, -14357.240719466296, 33825.230160383006, 30903.72304960764, -187500.02235174447, 26967.312630094606, 45318.96654593546, 35049.1222797778, 4158.832628587798, 306.7553409046341, 48125.47393148827, 35695.35591546964, 19637.41566388794, -6468.192513965669, 0.14200000000000002, 1.018, 0.07200000000000001, 192.0, 0.0, 0.0, 0.0, 0.0, 0.0, 0.0, 0.0, 0.0, 0.0, 1.695754552343565E9, 0.0, 2023-09-26 13:55:52.343
198.0, 73889.65921278707, 68958.35029582385, -19552.389627979952, -14358.715934600346, 33829.52169531843, 30899.520921650044, -187500.02235174447, 26960.58475501356, 45332.198778653, 35040.31569246241, 4173.942407839586, 315.5395764755698, 48127.59734721152, 35703.8272266182, 19644.858794791555, -6461.978729007093, 0.14200000000000002, 1.016, 0.062, 192.0, 2.0, 56.0, 15.5, 96.0, 0.5, 120.0, 0.0, 0.0, 0.0, 1.695754552403471E9, 0.0, 2023-09-26 13:55:52.403
200.0, 73888.74279126439, 68953.81289169943, -19560.615069939504, -14364.996774792287, 33827.10770691725, 30888.68032558922, -187500.02235174447, 26968.18434812836, 45328.57779605124, 35041.90266631874, 4165.336986224293, 314.35493401943853, 48128.49141698974, 35687.71161886593, 19637.192146443387, -6473.400470423755, 0.14200000000000002, 1.016, 0.062, 192.0, 0.0, 0.0, 0.0, 0.0, 0.0, 0.0, 0.0, 0.0, 0.0, 1.695754552403493E9, 0.0, 2023-09-26 13:55:52.403
202.0, 73891.64851804358, 68947.2191270851, -19557.68699141586, -14365.08618177011, 33818.90461670216, 30880.186662696204, -187500.02235174447, 26954.683894477355, 45330.85767398569, 35037.678186616686, 4170.276721748915, 315.2937072865614, 48130.212501312795, 35689.566813655714, 19637.259201676752, -6475.255665213545, 0.14200000000000002, 1.016, 0.062, 192.0, 0.0, 0.0, 0.0, 0.0, 0.0, 0.0, 0.0, 0.0, 0.0, 1.695754552403503E9, 0.0, 2023-09-26 13:55:52.403
204.0, 73902.28794840431, 68955.55632776694, -19558.581061194072, -14359.654707867468, 33826.59361679478, 30891.608404112867, -187500.02235174447, 26963.9151649374, 45334.0986769317, 35053.99496006906, 4168.488582192491, 310.89041362886593, 48144.562321253106, 35693.61247940212, 19632.31946615213, -6475.1886099801795, 0.14200000000000002, 1.016, 0.062, 192.0, 0.0, 0.0, 0.0, 0.0, 0.0, 0.0, 0.0, 0.0, 0.0, 1.695754552403542E9, 0.0, 2023-09-26 13:55:52.403
206.0, 73908.38997464061, 68962.7312377371, -19549.036866311653, -14347.629469350513, 33831.98038720851, 30900.839674572908, -187500.02235174447, 26960.674161991377, 45354.7069853195, 35050.64219840076, 4191.399120259181, 330.8281696829998, 48168.72455700929, 35702.9778603289, 19651.296097194685, -6454.245025425556, 0.14200000000000002, 1.016, 0.062, 192.0, 0.0, 0.0, 0.0, 0.0, 0.0, 0.0, 0.0, 0.0, 0.0, 1.695754552403551E9, 0.0, 2023-09-26 13:55:52.403
208.0, 73913.30735842077, 68968.29682210647, -19547.78516862216, -14348.300021684174, 33827.890017973186, 30905.15356125278, -187500.02235174447, 26968.85490046202, 45353.81291554128, 35061.41573922822, 4193.790756915898, 336.7290302192009, 48150.75375446722, 35712.700869166954, 19648.770350071234, -6450.579339334887, 0.14, 1.016, 0.066, 192.0, 2.0, 48.0, 15.5, 96.0, 1.0, 8.0, 0.0, 0.0, 0.0, 1.69575455240356E9, 0.0, 2023-09-26 13:55:52.403
210.0, 73897.52702683533, 68951.15303410924, -19572.126218333986, -14370.160027761463, 33803.839540939276, 30885.282860432013, -187500.02235174447, 26953.074568876575, 45340.17835142355, 35043.534343663974, 4177.406928230158, 318.6688206993128, 48143.75765845271, 35697.99342131537, 19630.196050428876, -6466.382022664789, 0.14, 1.016, 0.066, 192.0, 0.0, 0.0, 0.0, 0.0, 0.0, 0.0, 0.0, 0.0, 0.0, 1.69575455240357E9, 0.0, 2023-09-26 13:55:52.403
212.0, 73900.90214024809, 68956.89743243426, -19571.03098285568, -14373.713955129857, 33809.74040147548, 30885.88635753231, -187500.02235174447, 26969.279583606673, 45326.230862883436, 35049.45755594463, 4164.465268190535, 307.7164659162123, 48134.2134635703, 35694.171273013504, 19625.166907926432, -6474.093374501869, 0.14, 1.016, 0.066, 192.0, 0.0, 0.0, 0.0, 0.0, 0.0, 0.0, 0.0, 0.0, 0.0, 1.695754552462732E9, 0.0, 2023-09-26 13:55:52.462
214.0, 73925.82433531574, 68976.56696755493, -19559.855110628025, -14346.780103061212, 33824.984291194, 30908.528674665533, -187500.02235174447, 26960.115368379997, 45337.29497638881, 35049.636369900276, 4174.858829362253, 315.02548635309773, 48138.48264676126, 35682.19073798546, 19634.88991676449, -6461.844618540361, 0.14, 1.016, 0.066, 192.0, 0.0, 0.0, 0.0, 0.0, 0.0, 0.0, 0.0, 0.0, 0.0, 1.695754552462756E9, 0.0, 2023-09-26 13:55:52.462
216.0, 73923.00801551438, 68975.00234544306, -19550.310915745606, -14349.417608906939, 33827.9347214621, 30903.79010484101, -187500.02235174447, 26969.726618495777, 45348.0014619829, 35080.4817772486, 4187.621675446234, 331.789294694578, 48156.09582139204, 35717.01475584683, 19647.473948892828, -6448.366516633811, 0.14, 1.016, 0.066, 192.0, 0.0, 0.0, 0.0, 0.0, 0.0, 0.0, 0.0, 0.0, 0.0, 1.695754552462766E9, 0.0, 2023-09-26 13:55:52.462
218.0, 73922.69509109201, 68965.86048196083, -19561.196215295342, -14353.619736864537, 33814.523674788914, 30905.69000311971, -187500.02235174447, 26955.66737123339, 45341.56415957978, 35041.74620410755, 4180.200896287071, 322.1109893454301, 48136.18041708236, 35714.08667732318, 19633.526460352714, -6459.631795839286, 0.148, 1.01, 0.066, 192.0, 2.0, 80.0, 15.5, 72.0, 1.0, 8.0, 0.0, 0.0, 0.0, 1.695754552462775E9, 0.0, 2023-09-26 13:55:52.462
220.0, 73920.30345443528, 68970.19672038517, -19562.492616473748, -14358.067734011143, 33822.90557895965, 30903.454828674177, -187500.02235174447, 26963.66929574839, 45345.56512183727, 35060.36520723882, 4184.1795068001165, 323.60855622393564, 48150.127905622474, 35704.76599988532, 19639.673190077923, -6460.302348172945, 0.148, 1.01, 0.066, 192.0, 0.0, 0.0, 0.0, 0.0, 0.0, 0.0, 0.0, 0.0, 0.0, 1.695754552462785E9, 0.0, 2023-09-26 13:55:52.462
222.0, 73920.86224804667, 68963.87117670431, -19567.320593276097, -14357.307774699662, 33818.77050623542, 30906.092334519904, -187500.02235174447, 26962.864632948, 45339.39604036761, 35047.31178847692, 4172.44484096108, 314.9137276308212, 48146.506923020715, 35707.604671431145, 19632.90061150797, -6466.493781387065, 0.148, 1.01, 0.066, 192.0, 0.0, 0.0, 0.0, 0.0, 0.0, 0.0, 0.0, 0.0, 0.0, 1.695754552462794E9, 0.0, 2023-09-26 13:55:52.462
224.0, 73934.4968121644, 68976.94694721067, -19550.087398301053, -14342.622678592525, 33829.901674974164, 30908.97570955464, -187500.02235174447, 26979.04729593364, 45347.59913058271, 35090.00362038656, 4188.024006846429, 336.1255331189076, 48157.79455397064, 35730.202285075466, 19653.575975129126, -6451.9427957466605, 0.148, 1.01, 0.066, 192.0, 0.0, 0.0, 0.0, 0.0, 0.0, 0.0, 0.0, 0.0, 0.0, 1.695754552462803E9, 0.0, 2023-09-26 13:55:52.462
226.0, 73927.56777138327, 68975.47173207662, -19561.15151180643, -14353.239757208796, 33817.675270757114, 30904.97474729714, -187500.02235174447, 26965.8150632161, 45339.7536682789, 35057.79475662646, 4180.156192798161, 327.6318702258909, 48152.85481844602, 35713.7290494119, 19649.32914368262, -6455.60848183733, 0.148, 1.01, 0.066, 192.0, 0.0, 0.0, 0.0, 0.0, 0.0, 0.0, 0.0, 0.0, 0.0, 1.695754552462842E9, 0.0, 2023-09-26 13:55:52.462
228.0, 73915.36371891067, 68958.39499931276, -19562.604375196028, -14356.167835732442, 33815.082468400295, 30896.7940088265, -187500.02235174447, 26972.945269697342, 45339.3513368787, 35066.48958521958, 4179.865620120242, 328.7047539597457, 48134.77225718168, 35696.138226525574, 19641.30486742316, -6456.0555167264365, 0.14400000000000002, 1.014, 0.07, 192.0, 2.0, 64.0, 15.5, 88.0, 1.0, 24.0, 0.0, 0.0, 0.0, 1.695754552523066E9, 0.0, 2023-09-26 13:55:52.523
230.0, 73907.63001532912, 68952.78471145449, -19575.389573024462, -14369.936510316911, 33804.7783142064, 30883.96410750915, -187500.02235174447, 26962.57406027008, 45325.314441360766, 35037.14174474976, 4172.511896194446, 317.23830905417316, 48132.1123995915, 35693.277203235295, 19630.821899273622, -6469.5559703774425, 0.14400000000000002, 1.014, 0.07, 192.0, 0.0, 0.0, 0.0, 0.0, 0.0, 0.0, 0.0, 0.0, 0.0, 1.695754552523088E9, 0.0, 2023-09-26 13:55:52.523
232.0, 73907.18298044002, 68954.25992658854, -19581.49159926076, -14366.203768992875, 33808.041668896876, 30883.226499942128, -187500.02235174447, 26966.016228916196, 45318.40775232408, 35055.8725066033, 4166.476925191513, 312.9467741187542, 48127.15031232242, 35680.33554319567, 19620.964779968832, -6475.456830913643, 0.14400000000000002, 1.014, 0.07, 192.0, 0.0, 0.0, 0.0, 0.0, 0.0, 0.0, 0.0, 0.0, 0.0, 1.695754552523098E9, 0.0, 2023-09-26 13:55:52.523
234.0, 73910.4463351305, 68959.6243452578, -19585.40315454044, -14368.617757394048, 33795.83761642428, 30876.230403927613, -187500.02235174447, 26954.214507843797, 45327.86254022867, 35041.522686663, 4169.337948481792, 315.0031346086424, 48140.02491712868, 35704.11779929612, 19619.10958517904, -6478.451964670654, 0.14400000000000002, 1.014, 0.07, 192.0, 0.0, 0.0, 0.0, 0.0, 0.0, 0.0, 0.0, 0.0, 0.0, 1.695754552523107E9, 0.0, 2023-09-26 13:55:52.523
236.0, 73921.51044863588, 68969.86144421833, -19564.794846152647, -14361.040516023699, 33808.30988983034, 30884.724066820632, -187500.02235174447, 26955.957943911308, 45325.023868682845, 35056.11837579231, 4168.198009514572, 318.0429718545642, 48123.28346053165, 35691.600822401146, 19616.74030026678, -6480.441269927177, 0.14400000000000002, 1.014, 0.07, 192.0, 0.0, 0.0, 0.0, 0.0, 0.0, 0.0, 0.0, 0.0, 0.0, 1.695754552523116E9, 0.0, 2023-09-26 13:55:52.523
238.0, 73912.16741945356, 68956.85272894535, -19579.25642481523, -14365.063830025654, 33804.800665950854, 30882.35478190837, -187500.02235174447, 26959.08718813505, 45326.38732509462, 35054.64316065826, 4172.288378749893, 316.7242189317011, 48134.77225718168, 35695.98176431439, 19621.814146258133, -6473.847505312861, 0.14200000000000002, 1.02, 0.07, 192.0, 2.0, 56.0, 15.5, 112.0, 1.0, 24.0, 0.0, 0.0, 0.0, 1.695754552523125E9, 0.0, 2023-09-26 13:55:52.523
240.0, 73922.56098062528, 68966.3298685944, -19569.712229932815, -14352.882129297512, 33813.495494543975, 30894.11179949186, -187500.02235174447, 26956.941420667343, 45311.9928016654, 35043.80256459744, 4166.342814724781, 317.90886138783236, 48117.87433837347, 35699.06630504922, 19613.566352554128, -6476.7755838365065, 0.14200000000000002, 1.02, 0.07, 192.0, 0.0, 0.0, 0.0, 0.0, 0.0, 0.0, 0.0, 0.0, 0.0, 1.695754552523134E9, 0.0, 2023-09-26 13:55:52.523
242.0, 73924.9973207709, 68972.92363320872, -19569.0193258547, -14354.111475242553, 33815.21657886703, 30896.101104748384, -187500.02235174447, 26971.04537141864, 45327.326098361744, 35059.2252682716, 4173.964759584041, 324.6367364688798, 48148.809152699614, 35691.24319448986, 19617.679073533902, -6467.119630231814, 0.14200000000000002, 1.02, 0.07, 192.0, 0.0, 0.0, 0.0, 0.0, 0.0, 0.0, 0.0, 0.0, 0.0, 1.69575455258328E9, 0.0, 2023-09-26 13:55:52.583
244.0, 73930.71936735146, 68973.54948205347, -19555.742389648247, -14342.9356030149, 33819.82103822482, 30896.011697770562, -187500.02235174447, 26960.875327691476, 45340.558331079286, 35066.42252998621, 4190.907381881164, 338.2489488421618, 48142.863588674496, 35705.16833128552, 19637.12509121002, -6456.65901382673, 0.14200000000000002, 1.02, 0.07, 192.0, 0.0, 0.0, 0.0, 0.0, 0.0, 0.0, 0.0, 0.0, 0.0, 1.695754552583319E9, 0.0, 2023-09-26 13:55:52.583
246.0, 73923.58916087022, 68972.45424657516, -19552.72490414678, -14345.170777460431, 33814.8813027002, 30886.73572382161, -187500.02235174447, 26964.33984808205, 45334.99274670992, 35050.50808793403, 4182.503125965968, 328.61534698192446, 48146.864550932, 35682.503662407835, 19624.049320703667, -6468.572493621408, 0.14200000000000002, 1.02, 0.07, 192.0, 0.0, 0.0, 0.0, 0.0, 0.0, 0.0, 0.0, 0.0, 0.0, 1.695754552583333E9, 0.0, 2023-09-26 13:55:52.583
248.0, 73922.94096028102, 68963.73706623758, -19570.092209588554, -14355.36317293205, 33804.9794799065, 30882.175967952728, -187500.02235174447, 26952.09109212054, 45339.53015083434, 35044.00373029753, 4190.058015591862, 334.1809313512959, 48148.42917304387, 35705.74947664136, 19627.804413772155, -6462.761040063029, 0.136, 1.018, 0.068, 192.0, 2.0, 32.0, 15.5, 104.0, 1.0, 16.0, 0.0, 0.0, 0.0, 1.695754552583394E9, 0.0, 2023-09-26 13:55:52.583
250.0, 73927.7465853389, 68966.35222033886, -19573.8696544015, -14355.005545020766, 33806.991136907476, 30884.07586623143, -187500.02235174447, 26966.77618822768, 45329.69538327401, 35062.08629156188, 4176.602265429767, 325.2178818247178, 48149.97144341129, 35677.94390653895, 19611.241771130775, -6474.696871602163, 0.136, 1.018, 0.068, 192.0, 0.0, 0.0, 0.0, 0.0, 0.0, 0.0, 0.0, 0.0, 0.0, 1.695754552583404E9, 0.0, 2023-09-26 13:55:52.583
252.0, 73928.12656499464, 68968.18506338418, -19564.168997307897, -14349.238794951296, 33809.06984914182, 30893.173026224737, -187500.02235174447, 26961.18825211385, 45333.78575250933, 35050.12810827829, 4178.859791619753, 328.2353673261842, 48137.85679791651, 35680.134377495575, 19612.426413586905, -6471.969958778615, 0.136, 1.018, 0.068, 192.0, 0.0, 0.0, 0.0, 0.0, 0.0, 0.0, 0.0, 0.0, 0.0, 1.695754552583415E9, 0.0, 2023-09-26 13:55:52.583
254.0, 73938.92245756656, 68970.37553434081, -19566.895910131447, -14349.574071118126, 33814.255453855454, 30889.01560175605, -187500.02235174447, 26980.54486281215, 45341.22888341294, 35076.816091157925, 4188.582800457812, 335.1197046184188, 48143.511789263706, 35691.22084274541, 19624.69752129287, -6462.179894707191, 0.136, 1.018, 0.068, 192.0, 0.0, 0.0, 0.0, 0.0, 0.0, 0.0, 0.0, 0.0, 0.0, 1.695754552583429E9, 0.0, 2023-09-26 13:55:52.583
0.0, 73934.8544400757, 68972.23072913059, -19569.756933421726, -14346.243661194285, 33806.20882585154, 30890.312002934457, -187500.02235174447, 26975.76158949871, 45327.50491231739, 35039.89100931776, 4180.223248031527, 327.9671463927205, 48135.12988509296, 35685.25292697584, 19620.36128286854, -6465.733822075585, 0.136, 1.018, 0.068, 192.0, 0.0, 0.0, 0.0, 0.0, 0.0, 0.0, 0.0, 0.0, 0.0, 1.695754552583438E9, 0.0, 2023-09-26 13:55:52.583
2.0, 73922.22570445844, 68961.41248481422, -19577.11065734752, -14357.643050866493, 33799.302136814855, 30881.751284808077, -187500.02235174447, 26982.735333768767, 45337.16086592208, 35055.291361247466, 4188.2922277798925, 340.3947163098713, 48156.833428959064, 35698.84278760467, 19617.92494272291, -6463.677461585697, 0.14, 1.018, 0.06, 192.0, 2.0, 48.0, 15.5, 104.0, 0.5, 112.0, 0.0, 0.0, 0.0, 1.695754552643533E9, 0.0, 2023-09-26 13:55:52.643
4.0, 73928.28302720583, 68963.20062437066, -19577.96002363682, -14355.027896765221, 33794.45180826805, 30874.084636459906, -187500.02235174447, 26963.445778303838, 45331.30470887479, 35033.967797037105, 4180.312655009348, 330.58230049399145, 48134.884015903954, 35672.668894847506, 19605.78794548368, -6481.9388368056825, 0.14, 1.018, 0.06, 192.0, 0.0, 0.0, 0.0, 0.0, 0.0, 0.0, 0.0, 0.0, 0.0, 1.695754552643555E9, 0.0, 2023-09-26 13:55:52.643
6.0, 73914.08966947671, 68945.78861543997, -19585.246692329252, -14363.499207913783, 33790.60730822173, 30873.54819459298, -187500.02235174447, 26980.991897701253, 45340.49127584592, 35068.97062885411, 4181.787870143398, 331.85634992794394, 48137.78974268315, 35679.46382516192, 19606.50320130625, -6476.239141969579, 0.14, 1.018, 0.06, 192.0, 0.0, 0.0, 0.0, 0.0, 0.0, 0.0, 0.0, 0.0, 0.0, 1.695754552643566E9, 0.0, 2023-09-26 13:55:52.643
8.0, 73924.46087890398, 68964.18410112668, -19582.653889972436, -14359.654707867468, 33796.23994782448, 30884.83582554291, -187500.02235174447, 26971.447702818838, 45313.19979586599, 35020.08736373036, 4167.72862288101, 312.25387004063964, 48111.9064226039, 35659.21314468541, 19596.042584901166, -6488.532601419998, 0.14, 1.018, 0.06, 192.0, 0.0, 0.0, 0.0, 0.0, 0.0, 0.0, 0.0, 0.0, 0.0, 1.695754552643575E9, 0.0, 2023-09-26 13:55:52.643
10.0, 73920.41521315757, 68949.38724629728, -19597.093116890566, -14368.930681816422, 33798.676287970105, 30876.543328349988, -187500.02235174447, 26986.132798925973, 45321.98403143693, 35052.36328272382, 4174.992939828985, 320.21109106672895, 48132.179454824865, 35671.886583791565, 19601.094079148064, -6478.250798970556, 0.14, 1.018, 0.06, 192.0, 0.0, 0.0, 0.0, 0.0, 0.0, 0.0, 0.0, 0.0, 0.0, 1.695754552643584E9, 0.0, 2023-09-26 13:55:52.643
12.0, 73936.50846916539, 68961.14426388076, -19570.271023544195, -14342.287402425696, 33801.78318044939, 30897.956299538175, -187500.02235174447, 26977.639136032958, 45329.82949374074, 35043.15436400823, 4184.8277073893205, 324.32381204650545, 48140.89663516243, 35682.45895891893, 19607.285512362185, -6468.036051754481, 0.138, 1.018, 0.062, 192.0, 2.0, 40.0, 15.5, 104.0, 0.5, 120.0, 0.0, 0.0, 0.0, 1.695754552643593E9, 0.0, 2023-09-26 13:55:52.643
14.0, 73919.25292244588, 68954.3716853108, -19590.834628443077, -14357.084257255108, 33786.919270386614, 30879.829034784918, -187500.02235174447, 26986.557482070624, 45332.01996469736, 35066.60134394185, 4181.407890487658, 335.1420563628741, 48115.86268137249, 35685.83407233168, 19604.31273034963, -6466.627891853797, 0.138, 1.018, 0.062, 192.0, 0.0, 0.0, 0.0, 0.0, 0.0, 0.0, 0.0, 0.0, 0.0, 1.695754552643633E9, 0.0, 2023-09-26 13:55:52.643
16.0, 73925.55611438229, 68964.40761857125, -19584.129105106487, -14342.242698936785, 33797.93868040308, 30893.083619246918, -187500.02235174447, 26977.974412199786, 45323.95098494899, 35044.60722739783, 4175.238809017993, 328.86121617093283, 48121.65178318641, 35690.95262181194, 19600.535285536684, -6469.935950033182, 0.138, 1.018, 0.062, 192.0, 0.0, 0.0, 0.0, 0.0, 0.0, 0.0, 0.0, 0.0, 0.0, 1.695754552702949E9, 0.0, 2023-09-26 13:55:52.702
18.0, 73921.08576549123, 68958.5738132684, -19589.82879994259, -14350.959879274355, 33795.25647106844, 30884.43349414271, -187500.02235174447, 26984.232900647272, 45326.54378730581, 35059.00175082705, 4182.0113875879515, 333.5774342510026, 48127.060905344595, 35684.604726386635, 19605.07268966111, -6463.163371463224, 0.138, 1.018, 0.062, 192.0, 0.0, 0.0, 0.0, 0.0, 0.0, 0.0, 0.0, 0.0, 0.0, 1.695754552702974E9, 0.0, 2023-09-26 13:55:52.702
20.0, 73919.74466082391, 68961.05485690295, -19585.380802795986, -14352.12216998603, 33789.46736925452, 30879.06907547344, -187500.02235174447, 26973.615822031003, 45319.63709826912, 35036.962930794114, 4178.010425330452, 332.72806796170096, 48131.37479202447, 35678.92738329499, 19610.951198452854, -6464.549179619454, 0.138, 1.018, 0.062, 192.0, 0.0, 0.0, 0.0, 0.0, 0.0, 0.0, 0.0, 0.0, 0.0, 1.695754552702985E9, 0.0, 2023-09-26 13:55:52.702
22.0, 73927.72423359445, 68966.62044127232, -19584.57613999559, -14354.804379320667, 33794.317697801314, 30878.39852313978, -187500.02235174447, 26973.682877264368, 45320.7993889808, 35055.51487869202, 4180.11148930925, 327.3636492924272, 48119.304850018605, 35677.02748501629, 19606.436146072883, -6469.04188025497, 0.132, 1.022, 0.068, 192.0, 2.0, 16.0, 15.5, 120.0, 1.0, 16.0, 0.0, 0.0, 0.0, 1.695754552702994E9, 0.0, 2023-09-26 13:55:52.702
24.0, 73934.09448076421, 68967.82743547291, -19576.64127071396, -14340.901594269466, 33790.696715199556, 30880.34312490739, -187500.02235174447, 26978.220281388796, 45321.51464480336, 35057.75005313755, 4179.887971864698, 332.0128121391311, 48116.7567511507, 35670.277258190785, 19608.961893196334, -6471.053537255948, 0.132, 1.022, 0.068, 192.0, 0.0, 0.0, 0.0, 0.0, 0.0, 0.0, 0.0, 0.0, 0.0, 1.695754552703003E9, 0.0, 2023-09-26 13:55:52.703
26.0, 73944.73391112495, 68975.51643556553, -19576.64127071396, -14331.715027298336, 33798.58688099228, 30886.243985443594, -187500.02235174447, 26986.222205903796, 45337.36203162218, 35073.262163789535, 4200.138652341206, 354.49866706117, 48121.78589365315, 35701.88262485059, 19619.17664041241, -6454.13326670328, 0.132, 1.022, 0.068, 192.0, 0.0, 0.0, 0.0, 0.0, 0.0, 0.0, 0.0, 0.0, 0.0, 1.695754552703012E9, 0.0, 2023-09-26 13:55:52.703
28.0, 73922.71744283647, 68965.05581916045, -19583.72677370629, -14341.102759969564, 33782.69479068456, 30880.030200485016, -187500.02235174447, 26989.91024373892, 45329.985955951925, 35055.157250780736, 4191.600285959278, 342.31696633302766, 48129.8101699126, 35676.848671060645, 19608.537210051683, -6459.140057461269, 0.132, 1.022, 0.068, 192.0, 0.0, 0.0, 0.0, 0.0, 0.0, 0.0, 0.0, 0.0, 0.0, 1.695754552703021E9, 0.0, 2023-09-26 13:55:52.703
30.0, 73937.93898081052, 68973.05774367544, -19572.43914275636, -14330.440977864382, 33804.44303803957, 30893.173026224737, -187500.02235174447, 26994.782924030176, 45332.95873796448, 35066.86956487531, 4198.171698829138, 339.2771290871059, 48123.10464657601, 35688.248060732854, 19614.59453279907, -6449.215882923113, 0.132, 1.022, 0.068, 192.0, 0.0, 0.0, 0.0, 0.0, 0.0, 0.0, 0.0, 0.0, 0.0, 1.69575455270303E9, 0.0, 2023-09-26 13:55:52.703
32.0, 73921.86807654717, 68955.80219695595, -19595.50614303424, -14351.205748463362, 33788.28272679839, 30873.72700854862, -187500.02235174447, 26984.344659369548, 45330.23182514094, 35060.275800261, 4194.707178438566, 334.4491522847596, 48118.880166873954, 35679.374418184096, 19615.890933977476, -6452.970975991604, 0.138, 1.018, 0.07, 192.0, 2.0, 40.0, 15.5, 104.0, 1.0, 24.0, 0.0, 0.0, 0.0, 1.695754552762667E9, 0.0, 2023-09-26 13:55:52.762
34.0, 73947.66198964858, 68985.0829821924, -19578.183541081376, -14327.334085385095, 33809.24866309746, 30900.951433295184, -187500.02235174447, 26984.501121580735, 45325.314441360766, 35047.4235471992, 4196.83059416182, 341.33348957699417, 48119.23779478524, 35691.55611891224, 19610.83943973058, -6452.076906213392, 0.138, 1.018, 0.07, 192.0, 0.0, 0.0, 0.0, 0.0, 0.0, 0.0, 0.0, 0.0, 0.0, 1.695754552762697E9, 0.0, 2023-09-26 13:55:52.762
36.0, 73923.14212598112, 68961.05485690295, -19595.01440465622, -14345.997792005277, 33791.41197102213, 30878.01854348404, -187500.02235174447, 26988.122104182497, 45342.860560758185, 35070.46819573262, 4205.9054024106745, 349.15660013635164, 48126.61387045549, 35693.59012765767, 19618.394329356473, -6444.745534032051, 0.138, 1.018, 0.07, 192.0, 0.0, 0.0, 0.0, 0.0, 0.0, 0.0, 0.0, 0.0, 0.0, 1.695754552762709E9, 0.0, 2023-09-26 13:55:52.762
38.0, 73926.4501841605, 68962.9324034372, -19592.488657532773, -14347.338896672594, 33791.7248954445, 30884.165273209248, -187500.02235174447, 26984.076438436085, 45323.81687448226, 35052.40798621273, 4193.790756915898, 331.63283248339087, 48106.54200393463, 35673.02652275879, 19598.36716632452, -6458.514208616521, 0.138, 1.018, 0.07, 192.0, 0.0, 0.0, 0.0, 0.0, 0.0, 0.0, 0.0, 0.0, 0.0, 1.695754552762754E9, 0.0, 2023-09-26 13:55:52.762
40.0, 73940.91176282309, 68969.30265060696, -19583.033869628176, -14339.69460006888, 33798.40806703664, 30887.339220921902, -187500.02235174447, 26987.138627426462, 45331.5505780638, 35068.434186987186, 4203.916097154152, 336.75138196365623, 48127.083257089056, 35680.8719850626, 19603.038680915677, -6450.489932357065, 0.138, 1.018, 0.07, 192.0, 0.0, 0.0, 0.0, 0.0, 0.0, 0.0, 0.0, 0.0, 0.0, 1.695754552762764E9, 0.0, 2023-09-26 13:55:52.762
42.0, 73931.97106504095, 68964.04999065996, -19583.011517883722, -14341.12511171402, 33807.058192140845, 30882.846520286384, -187500.02235174447, 26976.99093544375, 45339.39604036761, 35066.064902074926, 4212.968553658552, 342.56283552203604, 48126.926794877865, 35689.20918574443, 19613.36518685403, -6445.0808101988805, 0.148, 1.022, 0.068, 192.0, 2.0, 80.0, 15.5, 120.0, 1.0, 16.0, 0.0, 0.0, 0.0, 1.695754552762774E9, 0.0, 2023-09-26 13:55:52.762
44.0, 73924.25971320388, 68957.4785777901, -19586.699555718846, -14343.9861350043, 33807.21465435203, 30879.605517340366, -187500.02235174447, 26985.171673914396, 45333.94221472052, 35082.761655183036, 4201.837384919809, 340.12649537640755, 48129.05021060112, 35677.00513327183, 19614.16984965442, -6448.0088887225265, 0.148, 1.022, 0.068, 192.0, 0.0, 0.0, 0.0, 0.0, 0.0, 0.0, 0.0, 0.0, 0.0, 1.695754552762785E9, 0.0, 2023-09-26 13:55:52.762
46.0, 73929.17709698404, 68958.59616501286, -19595.50614303424, -14340.275745424718, 33794.45180826805, 30887.518034877547, -187500.02235174447, 26975.783941243168, 45328.08605767322, 35054.35258798034, 4197.5905534733, 340.55117852105843, 48117.78493139565, 35674.613496615115, 19608.15723039594, -6453.686231814174, 0.148, 1.022, 0.068, 192.0, 0.0, 0.0, 0.0, 0.0, 0.0, 0.0, 0.0, 0.0, 0.0, 1.695754552823206E9, 0.0, 2023-09-26 13:55:52.823
48.0, 73928.68535860603, 68964.49702554906, -19594.20974185583, -14336.990038989788, 33792.41779952262, 30891.966032024153, -187500.02235174447, 26989.932595483377, 45333.83045599824, 35093.311678565944, 4201.189184330605, 346.5190942906254, 48142.81888518559, 35678.61445887262, 19603.1280878935, -6446.824246266395, 0.148, 1.022, 0.068, 192.0, 0.0, 0.0, 0.0, 0.0, 0.0, 0.0, 0.0, 0.0, 0.0, 1.695754552823234E9, 0.0, 2023-09-26 13:55:52.823
50.0, 73920.07993699073, 68949.36489455283, -19600.22236111431, -14342.019181492233, 33785.39935176365, 30883.271203431035, -187500.02235174447, 26969.6148597735, 45335.01509845437, 35081.219384815624, 4201.859736664264, 342.7416494776785, 48118.63429768495, 35695.020639302806, 19607.374919340007, -6445.527845087987, 0.148, 1.022, 0.068, 192.0, 0.0, 0.0, 0.0, 0.0, 0.0, 0.0, 0.0, 0.0, 0.0, 1.695754552823247E9, 0.0, 2023-09-26 13:55:52.823
52.0, 73918.02357650084, 68945.43098752869, -19601.675224503902, -14354.804379320667, 33788.036857609375, 30875.38103763831, -187500.02235174447, 26976.834473232568, 45315.43497031152, 35072.546907966964, 4183.1289748107165, 329.3753062934049, 48110.58766968104, 35676.80396757174, 19598.054241902144, -6458.916540016716, 0.146, 1.018, 0.07200000000000001, 192.0, 2.0, 72.0, 15.5, 104.0, 1.0, 32.0, 0.0, 0.0, 0.0, 1.695754552823261E9, 0.0, 2023-09-26 13:55:52.823
54.0, 73920.50462013538, 68955.64573474476, -19602.59164602657, -14350.64695485198, 33784.818206407814, 30882.623002841832, -187500.02235174447, 26967.178519627872, 45325.090923916214, 35044.54017216447, 4182.033739332407, 325.48610275818146, 48126.83738790004, 35674.054703003734, 19601.049375659153, -6451.272243413001, 0.146, 1.018, 0.07200000000000001, 192.0, 0.0, 0.0, 0.0, 0.0, 0.0, 0.0, 0.0, 0.0, 0.0, 1.695754552823274E9, 0.0, 2023-09-26 13:55:52.823
56.0, 73922.42687015854, 68953.90229867725, -19603.843343716067, -14360.995812534788, 33790.6743634551, 30878.06324697295, -187500.02235174447, 26976.34273485455, 45328.77896175134, 35071.65283818875, 4198.126995340228, 330.694059216268, 48129.161969323395, 35675.105234993134, 19602.099907648553, -6449.104124200836, 0.146, 1.018, 0.07200000000000001, 192.0, 0.0, 0.0, 0.0, 0.0, 0.0, 0.0, 0.0, 0.0, 0.0, 1.695754552823311E9, 0.0, 2023-09-26 13:55:52.823
58.0, 73923.34329168122, 68948.89550791925, -19601.138782636976, -14349.261146695751, 33789.377962276696, 30874.57637483792, -187500.02235174447, 26962.685818992355, 45325.090923916214, 35055.33606473637, 4194.774233671932, 329.86704467142164, 48125.98802161074, 35650.7641852813, 19593.919169177912, -6456.346089404356, 0.146, 1.018, 0.07200000000000001, 192.0, 0.0, 0.0, 0.0, 0.0, 0.0, 0.0, 0.0, 0.0, 0.0, 1.695754552823321E9, 0.0, 2023-09-26 13:55:52.823
60.0, 73918.69412883451, 68953.03058064349, -19603.284550104687, -14350.669306596435, 33794.07182861231, 30878.957316751163, -187500.02235174447, 26975.56042379861, 45326.856711728185, 35060.96870433912, 4195.377730772225, 333.8009516955557, 48134.99577462623, 35678.27918270578, 19602.993977426766, -6452.747458547051, 0.146, 1.018, 0.07200000000000001, 192.0, 0.0, 0.0, 0.0, 0.0, 0.0, 0.0, 0.0, 0.0, 0.0, 1.695754552823419E9, 0.0, 2023-09-26 13:55:52.823
62.0, 73928.41713767257, 68965.30168834946, -19594.12033487801, -14339.26991692423, 33797.53634900288, 30879.15848245126, -187500.02235174447, 26963.155205625917, 45324.621537282655, 35062.980361340095, 4192.248486548482, 331.92340516130986, 48130.860701902, 35676.2675257048, 19598.79184946917, -6453.909749258727, 0.146, 1.008, 0.07, 192.0, 2.0, 72.0, 15.5, 64.0, 1.0, 24.0, 0.0, 0.0, 0.0, 1.695754552883288E9, 0.0, 2023-09-26 13:55:52.883
64.0, 73939.9059343226, 68984.6806507922, -19579.345831793053, -14328.854004008057, 33811.57324452081, 30890.177892467727, -187500.02235174447, 26978.24263313325, 45345.96745323747, 35096.105646622855, 4212.767387958454, 349.80480072555554, 48133.96759438129, 35700.005078316346, 19617.589666556083, -6433.9272897156825, 0.146, 1.008, 0.07, 192.0, 0.0, 0.0, 0.0, 0.0, 0.0, 0.0, 0.0, 0.0, 0.0, 1.695754552883317E9, 0.0, 2023-09-26 13:55:52.883
66.0, 73932.10517550769, 68976.6787262772, -19589.337061564573, -14334.576050588616, 33796.55287224685, 30881.30424991897, -187500.02235174447, 26971.559461541114, 45343.08407820274, 35091.41178028724, 4210.152233857183, 343.0769256445081, 48143.04240263014, 35681.90016530755, 19612.001730442254, -6438.822321751395, 0.146, 1.008, 0.07, 192.0, 0.0, 0.0, 0.0, 0.0, 0.0, 0.0, 0.0, 0.0, 0.0, 1.69575455288333E9, 0.0, 2023-09-26 13:55:52.883
68.0, 73943.12458552416, 68979.29388037848, -19581.715116705313, -14328.205803418852, 33798.20690133654, 30885.551081365476, -187500.02235174447, 26982.936499468866, 45344.89456950362, 35076.63727720228, 4215.2931350819035, 357.5608560515471, 48131.08421934655, 35674.94877278194, 19602.144611137464, -6441.236310152568, 0.146, 1.008, 0.07, 192.0, 0.0, 0.0, 0.0, 0.0, 0.0, 0.0, 0.0, 0.0, 0.0, 1.695754552883345E9, 0.0, 2023-09-26 13:55:52.883
70.0, 73932.21693422996, 68967.02277267251, -19603.150439637953, -14348.188262961898, 33782.15834881763, 30863.400502610268, -187500.02235174447, 26959.511871279705, 45331.90820597508, 35061.572201439405, 4199.803376174375, 339.21007385373997, 48126.41270475539, 35660.44249063045, 19583.056221372633, -6461.956377262638, 0.146, 1.008, 0.07, 192.0, 0.0, 0.0, 0.0, 0.0, 0.0, 0.0, 0.0, 0.0, 0.0, 1.695754552883361E9, 0.0, 2023-09-26 13:55:52.883
72.0, 73940.1071000227, 68981.39494435728, -19592.64511974396, -14333.190242432385, 33787.411008764626, 30873.77171203753, -187500.02235174447, 26955.66737123339, 45344.76045903689, 35073.239812045074, 4209.414626290158, 348.86602745843265, 48147.37864105447, 35677.02748501629, 19585.470209773805, -6457.910711516227, 0.148, 1.006, 0.066, 192.0, 2.0, 80.0, 15.5, 56.0, 1.0, 8.0, 0.0, 0.0, 0.0, 1.695754552883376E9, 0.0, 2023-09-26 13:55:52.883
74.0, 73920.66108234657, 68969.52616805151, -19603.753936738245, -14331.893841253977, 33782.381866262185, 30881.10308421887, -187500.02235174447, 26961.38941781395, 45317.98306917943, 35081.9793441271, 4196.9200011396415, 345.9603006792427, 48128.893748389935, 35674.81466231521, 19589.404116797938, -6447.405391622233, 0.148, 1.006, 0.066, 192.0, 0.0, 0.0, 0.0, 0.0, 0.0, 0.0, 0.0, 0.0, 0.0, 1.695754552883391E9, 0.0, 2023-09-26 13:55:52.883
76.0, 73918.69412883451, 68975.8293599879, -19594.20974185583, -14311.889029966478, 33800.86675892672, 30896.503436148578, -187500.02235174447, 26976.230976132272, 45321.13466514763, 35097.714972223635, 4203.625524476233, 356.5550275510583, 48129.47489374577, 35699.44628470496, 19598.478925046795, -6429.009905935515, 0.148, 1.006, 0.066, 192.0, 0.0, 0.0, 0.0, 0.0, 0.0, 0.0, 0.0, 0.0, 0.0, 1.695754552943661E9, 0.0, 2023-09-26 13:55:52.943
78.0, 73906.75829729537, 68971.29195586347, -19600.22236111431, -14319.823899248113, 33790.763770432925, 30892.5918808689, -187500.02235174447, 26984.232900647272, 45306.18134810703, 35114.8364084764, 4198.015236617951, 360.8018589975666, 48134.28051880366, 35706.08475280819, 19599.931788436388, -6426.752379745529, 0.148, 1.006, 0.066, 192.0, 0.0, 0.0, 0.0, 0.0, 0.0, 0.0, 0.0, 0.0, 0.0, 1.695754552943686E9, 0.0, 2023-09-26 13:55:52.943
80.0, 73913.01678574286, 68984.4794850921, -19573.422619512396, -14314.727701512302, 33796.75403794694, 30899.856197816873, -187500.02235174447, 26980.656621534425, 45304.281449828326, 35109.31552759594, 4198.350512784781, 365.4286700998152, 48120.66830643038, 35694.86417709162, 19594.321500578106, -6427.802911734929, 0.148, 1.006, 0.066, 192.0, 0.0, 0.0, 0.0, 0.0, 0.0, 0.0, 0.0, 0.0, 0.0, 1.695754552943696E9, 0.0, 2023-09-26 13:55:52.943
82.0, 73904.27725366084, 68973.99651694257, -19571.67918344488, -14317.566373058125, 33789.579127976795, 30895.36349718136, -187500.02235174447, 26983.651755291434, 45289.6410572101, 35125.47583883713, 4197.031759861918, 368.1779346678179, 48131.10657109101, 35701.41323821703, 19594.746183722757, -6426.08182741187, 0.146, 1.004, 0.066, 192.0, 2.0, 72.0, 15.5, 48.0, 1.0, 8.0, 0.0, 0.0, 0.0, 1.695754552943737E9, 0.0, 2023-09-26 13:55:52.943
84.0, 73912.81562004276, 68985.15003742576, -19557.999915838234, -14308.603323531548, 33801.09027637127, 30908.50632292108, -187500.02235174447, 26989.686726294367, 45297.37476079164, 35133.298949396485, 4205.346608799292, 378.4820888617145, 48112.442864470824, 35714.84663663467, 19611.93467520889, -6415.621211006786, 0.146, 1.004, 0.066, 192.0, 0.0, 0.0, 0.0, 0.0, 0.0, 0.0, 0.0, 0.0, 0.0, 1.695754552943747E9, 0.0, 2023-09-26 13:55:52.943
86.0, 73910.66985257505, 68983.0266217025, -19564.750142663735, -14316.091157924076, 33791.99311637797, 30903.030145529527, -187500.02235174447, 26997.845113020554, 45273.994836091384, 35139.69154831071, 4186.817012645843, 358.1867048962957, 48124.11047507649, 35694.26067999133, 19594.12033487801, -6431.915632714705, 0.146, 1.004, 0.066, 192.0, 0.0, 0.0, 0.0, 0.0, 0.0, 0.0, 0.0, 0.0, 0.0, 1.695754552943755E9, 0.0, 2023-09-26 13:55:52.943
88.0, 73924.39382367062, 69004.99838650208, -19554.289526258653, -14303.328311840096, 33802.34197406077, 30929.22639003115, -187500.02235174447, 27000.43791537737, 45297.93355440302, 35144.92185651325, 4214.220251348049, 376.64924581637933, 48123.931661120856, 35734.73968919989, 19611.465288575328, -6415.576507517875, 0.146, 1.004, 0.066, 192.0, 0.0, 0.0, 0.0, 0.0, 0.0, 0.0, 0.0, 0.0, 0.0, 1.695754552943764E9, 0.0, 2023-09-26 13:55:52.943
90.0, 73940.86705933417, 69007.39002315879, -19554.378933236472, -14297.583913515082, 33807.57228226332, 30940.6034279589, -187500.02235174447, 27013.558389372636, 45307.18717660751, 35170.46990042566, 4212.700332725088, 382.08071971901893, 48131.15127457992, 35735.8349246782, 19616.02504444421, -6411.687303982652, 0.146, 1.004, 0.066, 192.0, 0.0, 0.0, 0.0, 0.0, 0.0, 0.0, 0.0, 0.0, 0.0, 1.695754552943773E9, 0.0, 2023-09-26 13:55:52.943
92.0, 73932.70867260799, 69000.37157539983, -19559.34102050555, -14318.460442836338, 33785.55581397484, 30924.912503351272, -187500.02235174447, 26994.268833907707, 45305.28727832881, 35151.85089729439, 4208.45350127858, 375.57636208252455, 48131.77712342467, 35731.76690718733, 19614.907457221445, -6423.824301221884, 0.15, 1.008, 0.076, 192.0, 2.0, 88.0, 15.5, 64.0, 1.0, 48.0, 0.0, 0.0, 0.0, 1.695754553003025E9, 0.0, 2023-09-26 13:55:53.003
94.0, 73939.39184420012, 69004.46194463516, -19561.799712395634, -14312.35841660004, 33789.98145937699, 30930.813363887475, -187500.02235174447, 26999.63325257698, 45300.92868816003, 35161.685664854725, 4201.345646541792, 375.19638242678434, 48123.30581227611, 35714.06432557873, 19615.533306066194, -6431.848577481339, 0.15, 1.008, 0.076, 192.0, 0.0, 0.0, 0.0, 0.0, 0.0, 0.0, 0.0, 0.0, 0.0, 1.695754553003049E9, 0.0, 2023-09-26 13:55:53.003
96.0, 73938.63188488864, 69009.28992143749, -19553.887194858456, -14317.141689913475, 33782.11364532872, 30933.428517988745, -187500.02235174447, 26998.269796165205, 45315.591432522706, 35155.114251984865, 4206.866527422253, 377.7668330391447, 48126.658573944405, 35746.02732014982, 19632.90061150797, -6423.2431558660455, 0.15, 1.008, 0.076, 192.0, 0.0, 0.0, 0.0, 0.0, 0.0, 0.0, 0.0, 0.0, 0.0, 1.695754553003058E9, 0.0, 2023-09-26 13:55:53.003
98.0, 73946.03031230335, 69006.83122954742, -19562.358506007018, -14319.913306225933, 33784.326468029794, 30931.796840643507, -187500.02235174447, 27015.078307995598, 45310.696400486995, 35168.86057482488, 4199.870431407742, 370.9942544691866, 48115.48270171675, 35746.049671894274, 19635.1357859535, -6426.886490212261, 0.15, 1.008, 0.076, 192.0, 0.0, 0.0, 0.0, 0.0, 0.0, 0.0, 0.0, 0.0, 0.0, 1.695754553003067E9, 0.0, 2023-09-26 13:55:53.003
100.0, 73942.23051574595, 69000.39392714428, -19560.659773428415, -14327.289381896184, 33784.01354360742, 30929.606369686888, -187500.02235174447, 26999.968528743808, 45304.68378122852, 35144.00543499058, 4198.708140696066, 371.39658586938214, 48121.13769306394, 35742.987482903896, 19640.433149389406, -6425.053647166926, 0.15, 1.008, 0.076, 192.0, 0.0, 0.0, 0.0, 0.0, 0.0, 0.0, 0.0, 0.0, 0.0, 1.695754553003076E9, 0.0, 2023-09-26 13:55:53.003
102.0, 73942.87871633515, 69001.57856960042, -19552.210814024307, -14324.227192905808, 33790.204976821544, 30941.31868378147, -187500.02235174447, 27018.699290597357, 45299.67699047053, 35150.88977228281, 4197.5905534733, 371.0166062136419, 48114.32041100507, 35743.36746255964, 19656.79462633069, -6422.483196554565, 0.148, 1.012, 0.07, 192.0, 2.0, 80.0, 15.5, 80.0, 1.0, 24.0, 0.0, 0.0, 0.0, 1.695754553003085E9, 0.0, 2023-09-26 13:55:53.003
104.0, 73945.8067948588, 69004.01490974604, -19550.780302379168, -14321.880259738, 33779.49849122745, 30946.303122795, -187500.02235174447, 27014.45245915085, 45302.91799341655, 35137.94811224319, 4200.07159710784, 364.33343462150515, 48123.372867509475, 35732.839790921185, 19652.79366407319, -6414.771844717485, 0.148, 1.012, 0.07, 192.0, 0.0, 0.0, 0.0, 0.0, 0.0, 0.0, 0.0, 0.0, 0.0, 1.695754553003127E9, 0.0, 2023-09-26 13:55:53.003
106.0, 73942.0069983014, 68994.18014218571, -19526.662770111892, -14340.879242525012, 33766.28861025436, 30922.096183549904, -187500.02235174447, 27023.05788076614, 45299.788749192805, 35144.92185651325, 4194.684826694111, 362.3664811094381, 48110.74413189222, 35739.277093324316, 19647.295134937183, -6421.0079814205155, 0.148, 1.012, 0.07, 192.0, 0.0, 0.0, 0.0, 0.0, 0.0, 0.0, 0.0, 0.0, 0.0, 1.695754553063682E9, 0.0, 2023-09-26 13:55:53.063
108.0, 73953.62990541816, 69006.38419465831, -19484.887359724922, -14327.803472018657, 33771.049531823344, 30919.704546893186, -187500.02235174447, 27004.036546234674, 45305.08611262871, 35134.88592325281, 4195.645951705689, 359.68427177480123, 48107.01139056819, 35731.8339624207, 19653.240698962298, -6426.12653090078, 0.148, 1.012, 0.07, 192.0, 0.0, 0.0, 0.0, 0.0, 0.0, 0.0, 0.0, 0.0, 0.0, 1.695754553063708E9, 0.0, 2023-09-26 13:55:53.063
110.0, 73946.03031230335, 69001.82443878942, -19492.263435395176, -14335.35836164455, 33775.653991181134, 30907.70166012069, -187500.02235174447, 27003.902435767945, 45320.95585119198, 35161.19392647671, 4206.799472188887, 371.75421378066704, 48132.40297226942, 35744.865029438144, 19660.192091487897, -6420.359780831312, 0.148, 1.012, 0.07, 192.0, 0.0, 0.0, 0.0, 0.0, 0.0, 0.0, 0.0, 0.0, 0.0, 1.695754553063719E9, 0.0, 2023-09-26 13:55:53.063
112.0, 73946.54440242582, 69012.15094472778, -19466.62598450494, -14323.467233594327, 33779.40908424963, 30918.519904437057, -187500.02235174447, 26986.468075092802, 45309.39999930859, 35140.13858319981, 4195.087158094306, 358.49962931867, 48141.63424272946, 35724.97197687292, 19645.50699538076, -6439.023487451493, 0.14400000000000002, 1.014, 0.068, 192.0, 2.0, 64.0, 15.5, 88.0, 1.0, 16.0, 0.0, 0.0, 0.0, 1.695754553063728E9, 0.0, 2023-09-26 13:55:53.063
114.0, 73948.60076291571, 69017.67182560824, -19445.123606338933, -14317.476966080305, 33795.2788228129, 30924.26430276207, -187500.02235174447, 27003.96949100131, 45311.188138865014, 35151.09093798291, 4204.273725065437, 372.8270975145218, 48127.53029197816, 35729.621139719624, 19665.891786324, -6426.730028001074, 0.14400000000000002, 1.014, 0.068, 192.0, 0.0, 0.0, 0.0, 0.0, 0.0, 0.0, 0.0, 0.0, 0.0, 1.695754553063738E9, 0.0, 2023-09-26 13:55:53.063
116.0, 73949.78540537183, 69008.59701735938, -19450.42096977484, -14322.416701604929, 33799.100971114756, 30927.102974307894, -187500.02235174447, 26998.33685139857, 45312.21631910996, 35152.99083626161, 4202.887916909208, 367.68619628980116, 48142.41655378539, 35742.85337243717, 19672.12792302703, -6420.784463975962, 0.14400000000000002, 1.014, 0.068, 192.0, 0.0, 0.0, 0.0, 0.0, 0.0, 0.0, 0.0, 0.0, 0.0, 1.695754553063747E9, 0.0, 2023-09-26 13:55:53.063
118.0, 73938.11779476616, 68995.8341712754, -19459.04874313459, -14324.249544650263, 33786.0252006084, 30913.289596234514, -187500.02235174447, 27000.996708988754, 45313.82564471074, 35158.53406888653, 4206.240678577505, 373.58705682600225, 48143.511789263706, 35732.92919789901, 19671.144446271, -6418.661048252708, 0.14400000000000002, 1.014, 0.068, 192.0, 0.0, 0.0, 0.0, 0.0, 0.0, 0.0, 0.0, 0.0, 0.0, 1.695754553063756E9, 0.0, 2023-09-26 13:55:53.063
120.0, 73930.80877432929, 68996.79529628697, -19482.115743412465, -14340.07457972462, 33779.0738080828, 30901.86785481785, -187500.02235174447, 26987.11627568201, 45290.87040315514, 35137.59048433191, 4173.517724694935, 352.3976030823712, 48113.58280343805, 35740.84171543619, 19632.006541729756, -6448.701792800641, 0.14400000000000002, 1.014, 0.068, 192.0, 0.0, 0.0, 0.0, 0.0, 0.0, 0.0, 0.0, 0.0, 0.0, 1.695754553063764E9, 0.0, 2023-09-26 13:55:53.063
122.0, 73932.06047201878, 69006.63006384732, -19482.272205623653, -14336.811225034146, 33780.86194763922, 30909.26628223256, -187500.02235174447, 26994.96173798582, 45295.452510768475, 35148.408728648275, 4181.296131765382, 365.04869044407496, 48123.86460588749, 35739.07592762422, 19631.738320796292, -6446.51132184402, 0.14, 1.016, 0.066, 192.0, 2.0, 48.0, 15.5, 96.0, 1.0, 8.0, 0.0, 0.0, 0.0, 1.695754553124442E9, 0.0, 2023-09-26 13:55:53.124
124.0, 73940.66589363407, 69012.75444182807, -19474.359688086475, -14337.548832601171, 33790.38379077718, 30916.30708173598, -187500.02235174447, 27000.43791537737, 45309.77997896433, 35155.09190024041, 4185.520611467435, 362.16531540934034, 48129.094914090034, 35730.73872694239, 19635.962800498342, -6443.113856686814, 0.14, 1.016, 0.066, 192.0, 0.0, 0.0, 0.0, 0.0, 0.0, 0.0, 0.0, 0.0, 0.0, 1.695754553124457E9, 0.0, 2023-09-26 13:55:53.124
126.0, 73943.7504343689, 69005.87010453583, -19469.978746173234, -14332.69850405437, 33794.0271251234, 30920.576264926945, -187500.02235174447, 26996.124028697497, 45310.2940690868, 35157.349426430395, 4188.314579524348, 364.8475247439772, 48121.87530063096, 35738.584189246205, 19646.199899458876, -6431.93798445916, 0.14, 1.016, 0.066, 192.0, 0.0, 0.0, 0.0, 0.0, 0.0, 0.0, 0.0, 0.0, 0.0, 1.695754553124514E9, 0.0, 2023-09-26 13:55:53.124
128.0, 73946.72321638146, 69000.37157539983, -19478.003022432687, -14343.740265815291, 33778.85029063824, 30903.320718207447, -187500.02235174447, 26994.402944374437, 45304.192042850504, 35148.45343213718, 4184.0677480778395, 355.0351089280974, 48128.08908558954, 35729.66584320854, 19640.187280200396, -6440.096371185347, 0.14, 1.016, 0.066, 192.0, 0.0, 0.0, 0.0, 0.0, 0.0, 0.0, 0.0, 0.0, 0.0, 1.695754553124524E9, 0.0, 2023-09-26 13:55:53.124
130.0, 73934.76503309788, 68991.74380204009, -19496.66672905287, -14351.27280369673, 33762.82408986379, 30896.056401259473, -187500.02235174447, 26981.72950526828, 45297.911202658564, 35142.306702411974, 4181.765518398943, 352.2634926156393, 48120.69065817483, 35710.912729610536, 19626.30684689365, -6450.8922637572605, 0.14, 1.016, 0.066, 192.0, 0.0, 0.0, 0.0, 0.0, 0.0, 0.0, 0.0, 0.0, 0.0, 1.695754553124535E9, 0.0, 2023-09-26 13:55:53.124
132.0, 73958.23436477594, 69026.67957862372, -19477.8465602215, -14327.669361551925, 33787.5227674869, 30916.48589569162, -187500.02235174447, 26999.409735132427, 45304.281449828326, 35144.00543499058, 4183.844230633286, 359.46075433024816, 48133.96759438129, 35726.82717166271, 19633.794681286177, -6445.572548576898, 0.138, 1.012, 0.07, 192.0, 2.0, 40.0, 15.5, 80.0, 1.0, 24.0, 0.0, 0.0, 0.0, 1.695754553124545E9, 0.0, 2023-09-26 13:55:53.124
134.0, 73965.208109046, 69017.4930116526, -19451.292687808596, -14323.35547487205, 33790.6743634551, 30921.87266610535, -187500.02235174447, 26997.10750545353, 45320.50881630288, 35161.90918229928, 4205.16779484365, 375.53165859361394, 48132.179454824865, 35744.730918971414, 19652.324277439628, -6427.735856501563, 0.138, 1.012, 0.07, 192.0, 0.0, 0.0, 0.0, 0.0, 0.0, 0.0, 0.0, 0.0, 0.0, 1.695754553124556E9, 0.0, 2023-09-26 13:55:53.124
136.0, 73956.20035603052, 69005.19955220218, -19462.84853969199, -14328.965762730333, 33782.73949417347, 30914.518942179555, -187500.02235174447, 27004.908264268433, 45311.83633945422, 35159.517545642564, 4193.209611560061, 366.7474230226783, 48142.438905529845, 35728.727069941415, 19637.750940054768, -6429.591051291353, 0.138, 1.012, 0.07, 192.0, 0.0, 0.0, 0.0, 0.0, 0.0, 0.0, 0.0, 0.0, 0.0, 1.69575455318329E9, 0.0, 2023-09-26 13:55:53.183
138.0, 73963.21880378948, 69017.78358433051, -19446.308248795063, -14313.811279989635, 33788.61800296522, 30923.571398683955, -187500.02235174447, 27000.840246777567, 45310.58464176472, 35143.446641379196, 4199.244582562993, 367.7308997787118, 48125.89861463292, 35732.79508743228, 19644.59057385809, -6424.092522155348, 0.138, 1.012, 0.07, 192.0, 0.0, 0.0, 0.0, 0.0, 0.0, 0.0, 0.0, 0.0, 0.0, 1.695754553183313E9, 0.0, 2023-09-26 13:55:53.183
140.0, 73955.86507986368, 69009.98282551562, -19475.253757864688, -14319.332160870095, 33783.45474999604, 30908.48397117662, -187500.02235174447, 27004.237711934773, 45305.935478918014, 35170.87223182586, 4195.467137750046, 369.18376316830677, 48127.17266406687, 35725.95545362895, 19630.911306251444, -6428.27229836849, 0.138, 1.012, 0.07, 192.0, 0.0, 0.0, 0.0, 0.0, 0.0, 0.0, 0.0, 0.0, 0.0, 1.695754553183323E9, 0.0, 2023-09-26 13:55:53.183
142.0, 73968.1585393141, 69022.65626462176, -19452.879661664923, -14306.16698338592, 33783.03006685139, 30907.50049442059, -187500.02235174447, 26996.43695311987, 45298.87232767014, 35152.40969090578, 4187.532268468412, 370.2119434132509, 48131.35244028002, 35738.718299712935, 19619.60132355706, -6433.793179248951, 0.14, 1.014, 0.062, 192.0, 2.0, 48.0, 15.5, 88.0, 0.5, 120.0, 0.0, 0.0, 0.0, 1.695754553183332E9, 0.0, 2023-09-26 13:55:53.183
144.0, 73959.93309735454, 69024.8467355784, -19454.28782156561, -14307.172811886408, 33795.30117455735, 30911.479104933635, -187500.02235174447, 27006.227017191293, 45321.51464480336, 35189.44653146822, 4201.367998286248, 381.20900168526197, 48125.00454485471, 35739.88059042461, 19633.951143497365, -6428.60757453532, 0.14, 1.014, 0.062, 192.0, 0.0, 0.0, 0.0, 0.0, 0.0, 0.0, 0.0, 0.0, 0.0, 1.695754553183342E9, 0.0, 2023-09-26 13:55:53.183
146.0, 73961.6094781887, 69036.4472909507, -19452.320868053543, -14304.892933951967, 33792.730723944995, 30915.390660213314, -187500.02235174447, 26997.554540342637, 45318.0948279017, 35164.971371289656, 4204.273725065437, 388.5403738666027, 48138.594405483535, 35741.91459917004, 19630.531326595705, -6428.898147213238, 0.14, 1.014, 0.062, 192.0, 0.0, 0.0, 0.0, 0.0, 0.0, 0.0, 0.0, 0.0, 0.0, 1.69575455318335E9, 0.0, 2023-09-26 13:55:53.183
148.0, 73952.28880075083, 69024.42205243374, -19458.534653012117, -14320.606210304048, 33788.34978203175, 30900.906729806273, -187500.02235174447, 27007.277549180693, 45313.19979586599, 35189.91591810178, 4202.195012831094, 394.91062103636517, 48138.52735025017, 35741.82519219222, 19626.955047482854, -6436.363629861311, 0.14, 1.014, 0.062, 192.0, 0.0, 0.0, 0.0, 0.0, 0.0, 0.0, 0.0, 0.0, 0.0, 1.695754553183388E9, 0.0, 2023-09-26 13:55:53.183
150.0, 73944.89037333612, 69000.4386306332, -19473.62208051945, -14342.957954759355, 33777.486834226474, 30890.15554072327, -187500.02235174447, 26988.52443558269, 45293.373798534136, 35142.597275089895, 4182.6372364327, 365.2051526552621, 48102.07165504356, 35720.85925589314, 19616.06974793312, -6456.390792893266, 0.14, 1.014, 0.062, 192.0, 0.0, 0.0, 0.0, 0.0, 0.0, 0.0, 0.0, 0.0, 0.0, 1.695754553183397E9, 0.0, 2023-09-26 13:55:53.183
152.0, 73967.17506255806, 69032.33456997092, -19452.074998864533, -14316.78406200219, 33808.175779363606, 30918.855180603885, -187500.02235174447, 27006.83051429159, 45307.74597021889, 35182.36102847588, 4193.388425515703, 367.7756032676224, 48129.586652468046, 35736.21490433394, 19624.965742226334, -6447.964185233615, 0.14200000000000002, 1.016, 0.062, 192.0, 2.0, 56.0, 15.5, 96.0, 0.5, 120.0, 0.0, 0.0, 0.0, 1.695754553243761E9, 0.0, 2023-09-26 13:55:53.243
154.0, 73949.45012920501, 69022.23158147711, -19460.881586179923, -14324.584820817092, 33787.3216017868, 30903.633642629822, -187500.02235174447, 26997.15220894244, 45313.8926999441, 35163.496156155605, 4193.030797604418, 373.89998124837655, 48133.74407693673, 35725.843694906675, 19626.664474804937, -6448.299461400445, 0.14200000000000002, 1.016, 0.062, 192.0, 0.0, 0.0, 0.0, 0.0, 0.0, 0.0, 0.0, 0.0, 0.0, 1.695754553243783E9, 0.0, 2023-09-26 13:55:53.243
156.0, 73948.91368733808, 69024.35499720037, -19449.1916238298, -14312.02314043321, 33795.591747235274, 30927.773526641555, -187500.02235174447, 27018.855752808544, 45309.28824058631, 35159.741063087116, 4193.835460404809, 377.07392896103016, 48129.63135595696, 35728.570607730224, 19627.670303305425, -6442.622118308797, 0.14200000000000002, 1.016, 0.062, 192.0, 0.0, 0.0, 0.0, 0.0, 0.0, 0.0, 0.0, 0.0, 0.0, 1.695754553243793E9, 0.0, 2023-09-26 13:55:53.243
158.0, 73963.5540799563, 69034.68150313872, -19436.629943445914, -14305.429375818894, 33812.087334643285, 30935.46252673418, -187500.02235174447, 27013.334871928084, 45317.71484824597, 35143.20077219019, 4205.525422754935, 382.7289203082228, 48137.1638938384, 35736.86310492314, 19646.736341325803, -6424.494853555543, 0.14200000000000002, 1.016, 0.062, 192.0, 0.0, 0.0, 0.0, 0.0, 0.0, 0.0, 0.0, 0.0, 0.0, 1.695754553243802E9, 0.0, 2023-09-26 13:55:53.243
160.0, 73953.67460890707, 69026.41135769026, -19447.112911595454, -14316.292323624173, 33808.68986948608, 30927.17002954126, -187500.02235174447, 27018.073441752607, 45321.06760991426, 35169.95581030319, 4205.503071010479, 382.9524377527759, 48144.62937648647, 35752.55402953077, 19651.340800683596, -6420.158615131213, 0.14200000000000002, 1.016, 0.062, 192.0, 0.0, 0.0, 0.0, 0.0, 0.0, 0.0, 0.0, 0.0, 0.0, 1.695754553243811E9, 0.0, 2023-09-26 13:55:53.243
162.0, 73957.27323976437, 69024.46675592265, -19446.330600539517, -14309.005654931743, 33811.99792766546, 30929.181686542237, -187500.02235174447, 27013.40192716145, 45313.13274063262, 35165.01607477857, 4202.977323887029, 373.0953184479855, 48145.00935614221, 35749.60359926267, 19659.588594387602, -6418.571641274887, 0.14200000000000002, 1.018, 0.07, 192.0, 2.0, 56.0, 15.5, 104.0, 1.0, 24.0, 0.0, 0.0, 0.0, 1.69575455324382E9, 0.0, 2023-09-26 13:55:53.243
164.0, 73953.67460890707, 69021.22575297664, -19458.355839056476, -14311.062015421632, 33803.99600315047, 30910.629738644333, -187500.02235174447, 27011.993767260763, 45309.4447027975, 35157.975275275145, 4195.265972049949, 376.42572837182627, 48133.43115251436, 35733.465639765935, 19648.904460537968, -6429.479292569076, 0.14200000000000002, 1.018, 0.07, 192.0, 0.0, 0.0, 0.0, 0.0, 0.0, 0.0, 0.0, 0.0, 0.0, 1.695754553243829E9, 0.0, 2023-09-26 13:55:53.243
166.0, 73945.73973962542, 69021.9410087992, -19463.295574581098, -14306.949294441856, 33784.72879942999, 30903.477180418635, -187500.02235174447, 26998.985051987776, 45313.66918249955, 35152.07441473895, 4198.3281610403255, 375.7998795270776, 48127.127960577964, 35731.76690718733, 19643.003600001764, -6434.664897282708, 0.14200000000000002, 1.018, 0.07, 192.0, 0.0, 0.0, 0.0, 0.0, 0.0, 0.0, 0.0, 0.0, 0.0, 1.695754553304322E9, 0.0, 2023-09-26 13:55:53.304
168.0, 73954.61338217418, 69040.56001193047, -19437.27814403512, -14299.327349582596, 33802.0290496384, 30926.477125463145, -187500.02235174447, 27011.882008538487, 45319.927670947036, 35180.17055751927, 4211.672152480144, 392.45192914628143, 48144.67407997538, 35739.634721235605, 19641.349570912073, -6429.903975713727, 0.14200000000000002, 1.018, 0.07, 192.0, 0.0, 0.0, 0.0, 0.0, 0.0, 0.0, 0.0, 0.0, 0.0, 1.695754553304351E9, 0.0, 2023-09-26 13:55:53.304
170.0, 73945.27035299187, 69028.15479375777, -19444.207184816263, -14305.898762452456, 33809.53923577538, 30924.621930673355, -187500.02235174447, 27020.10745049804, 45325.78382799433, 35184.9538308327, 4221.462216551568, 403.2478217181947, 48148.47387653278, 35754.63274176511, 19664.908309567967, -6415.17417611768, 0.14200000000000002, 1.018, 0.07, 192.0, 0.0, 0.0, 0.0, 0.0, 0.0, 0.0, 0.0, 0.0, 0.0, 1.695754553304361E9, 0.0, 2023-09-26 13:55:53.304
172.0, 73939.83887908922, 69017.64947386378, -19456.52299601114, -14316.985227702287, 33801.44790428256, 30918.050517803495, -187500.02235174447, 27019.235732464284, 45304.3932085506, 35167.6535806243, 4199.468100007546, 385.0311499871195, 48144.36115555301, 35733.59975023267, 19641.908364523457, -6427.691153012652, 0.14200000000000002, 1.014, 0.068, 192.0, 2.0, 56.0, 15.5, 88.0, 1.0, 16.0, 0.0, 0.0, 0.0, 1.69575455330443E9, 0.0, 2023-09-26 13:55:53.304
174.0, 73948.48900419343, 69024.08677626691, -19442.284934793108, -14311.710216010835, 33812.80259046586, 30925.471296962656, -187500.02235174447, 27023.68372961089, 45306.04723764029, 35166.96067654618, 4194.997751116485, 376.1128039494519, 48156.74402198125, 35722.088601838186, 19646.423416903428, -6425.075998911381, 0.14200000000000002, 1.014, 0.068, 192.0, 0.0, 0.0, 0.0, 0.0, 0.0, 0.0, 0.0, 0.0, 0.0, 1.69575455330444E9, 0.0, 2023-09-26 13:55:53.304
176.0, 73939.28008547785, 69012.21799996114, -19449.1916238298, -14318.192221902875, 33806.0300118959, 30916.217674758158, -187500.02235174447, 27026.500049412258, 45312.88687144362, 35181.91399358678, 4201.904440153175, 374.7716992821335, 48156.3193388366, 35747.01079690585, 19655.408818174463, -6418.4151790637, 0.14200000000000002, 1.014, 0.068, 192.0, 0.0, 0.0, 0.0, 0.0, 0.0, 0.0, 0.0, 0.0, 0.0, 1.695754553304449E9, 0.0, 2023-09-26 13:55:53.304
178.0, 73929.69118710652, 69005.15484871327, -19456.478292522228, -14319.9803614593, 33810.94739567606, 30914.965977068663, -187500.02235174447, 27026.365938945528, 45304.124987617135, 35156.097728740904, 4185.900591123175, 357.0020624401644, 48155.40291731393, 35739.12063111313, 19641.17075695643, -6428.629926279775, 0.14200000000000002, 1.014, 0.068, 192.0, 0.0, 0.0, 0.0, 0.0, 0.0, 0.0, 0.0, 0.0, 0.0, 1.695754553304458E9, 0.0, 2023-09-26 13:55:53.304
180.0, 73928.5512481393, 69005.40071790227, -19449.884527907914, -14315.755881757246, 33812.04263115438, 30913.803686356987, -187500.02235174447, 27020.420374920413, 45303.02975213883, 35155.33776942942, 4191.667341192644, 368.5355625791029, 48151.62547250098, 35743.546276515284, 19651.854890806066, -6420.382132575766, 0.14200000000000002, 1.014, 0.068, 192.0, 0.0, 0.0, 0.0, 0.0, 0.0, 0.0, 0.0, 0.0, 0.0, 1.695754553304467E9, 0.0, 2023-09-26 13:55:53.304
182.0, 73908.61349208516, 68980.52322632352, -19472.12451364094, -14334.888975010988, 33793.73655244548, 30891.83192155742, -187500.02235174447, 27015.592398118068, 45280.16391756105, 35141.63615007832, 4168.265064747938, 343.4792570447036, 48154.397088813435, 35722.24506404937, 19625.70334979336, -6442.197435164147, 0.148, 1.02, 0.07200000000000001, 192.0, 2.0, 80.0, 15.5, 112.0, 1.0, 32.0, 0.0, 0.0, 0.0, 1.6957545533642E9, 0.0, 2023-09-26 13:55:53.364
184.0, 73923.70091959249, 68990.5368078395, -19461.976821658234, -14324.875393495011, 33805.1806456066, 30908.148695009793, -187500.02235174447, 27006.495238124757, 45278.934571616, 35128.38156561632, 4171.416660716136, 343.6804227448014, 48138.05796361661, 35712.298537766765, 19623.624637559013, -6448.031240466981, 0.148, 1.02, 0.07200000000000001, 192.0, 0.0, 0.0, 0.0, 0.0, 0.0, 0.0, 0.0, 0.0, 0.0, 1.69575455336422E9, 0.0, 2023-09-26 13:55:53.364
186.0, 73933.6027423862, 68994.783639286, -19470.962222929265, -14328.854004008057, 33808.42164855262, 30902.78427634052, -187500.02235174447, 27016.039433007176, 45305.42138879554, 35174.35910396089, 4193.723701682532, 363.79699275457773, 48169.708033765324, 35724.681404195, 19631.425396373917, -6432.764999004006, 0.148, 1.02, 0.07200000000000001, 192.0, 0.0, 0.0, 0.0, 0.0, 0.0, 0.0, 0.0, 0.0, 0.0, 1.695754553364229E9, 0.0, 2023-09-26 13:55:53.364
188.0, 73927.25484696089, 68994.89539800827, -19466.60363276048, -14318.30398062515, 33793.22246232301, 30896.54813963749, -187500.02235174447, 27010.16092421543, 45293.93259214552, 35133.9918534746, 4185.54296321189, 364.109917176952, 48153.413612057404, 35719.60755820365, 19621.657684046946, -6441.772752019496, 0.148, 1.02, 0.07200000000000001, 192.0, 0.0, 0.0, 0.0, 0.0, 0.0, 0.0, 0.0, 0.0, 0.0, 1.695754553364238E9, 0.0, 2023-09-26 13:55:53.364
190.0, 73938.92245756656, 69004.88662777981, -19476.684269509828, -14332.497338354271, 33788.43918900957, 30891.00490701257, -187500.02235174447, 27018.185200474883, 45293.06087411176, 35151.42621414974, 4187.01817834594, 370.81544051354416, 48152.69835623483, 35711.60563368865, 19619.869544490524, -6442.4209526087, 0.148, 1.02, 0.07200000000000001, 192.0, 0.0, 0.0, 0.0, 0.0, 0.0, 0.0, 0.0, 0.0, 0.0, 1.695754553364246E9, 0.0, 2023-09-26 13:55:53.364
192.0, 73939.36949245566, 69006.42889814722, -19473.13034214143, -14332.139710442987, 33797.201072836055, 30889.14971222278, -187500.02235174447, 27001.68961306687, 45286.98119961991, 35148.22991469263, 4182.8384021327975, 365.562780566547, 48150.351423067026, 35703.64841266256, 19609.40892808544, -6457.486028371576, 0.14200000000000002, 1.014, 0.07200000000000001, 192.0, 2.0, 56.0, 15.5, 88.0, 1.0, 32.0, 0.0, 0.0, 0.0, 1.695754553364255E9, 0.0, 2023-09-26 13:55:53.364
194.0, 73940.46472793397, 69007.54648536998, -19464.077885637034, -14328.116396441032, 33808.62281425272, 30897.375154182337, -187500.02235174447, 27022.07440401011, 45305.6449062401, 35173.576792904954, 4201.122129097239, 375.7104725492564, 48180.99566471525, 35728.25768330785, 19625.70334979336, -6439.984612463071, 0.14200000000000002, 1.014, 0.07200000000000001, 192.0, 0.0, 0.0, 0.0, 0.0, 0.0, 0.0, 0.0, 0.0, 0.0, 1.69575455336429E9, 0.0, 2023-09-26 13:55:53.364
196.0, 73936.1508412541, 69004.17137195723, -19470.537539784615, -14328.317562141128, 33811.237968353984, 30897.285747204514, -187500.02235174447, 27008.886874781478, 45306.44956904049, 35153.28140893953, 4194.796585416387, 361.2935973755834, 48171.09384192155, 35723.340299527685, 19622.305884636153, -6440.521054329998, 0.14200000000000002, 1.014, 0.07200000000000001, 192.0, 0.0, 0.0, 0.0, 0.0, 0.0, 0.0, 0.0, 0.0, 0.0, 1.695754553423075E9, 0.0, 2023-09-26 13:55:53.423
198.0, 73935.5473441538, 69000.70685156666, -19479.90292071139, -14325.434187106393, 33802.00669789394, 30899.58797688341, -187500.02235174447, 27023.63902612198, 45305.667257984554, 35156.05302525199, 4190.594457458789, 364.17697241031794, 48172.81492624461, 35714.243139534374, 19622.060015447143, -6436.430685094677, 0.14200000000000002, 1.014, 0.07200000000000001, 192.0, 0.0, 0.0, 0.0, 0.0, 0.0, 0.0, 0.0, 0.0, 0.0, 1.695754553423099E9, 0.0, 2023-09-26 13:55:53.423
200.0, 73948.33254198225, 69014.07319475093, -19465.55310077108, -14317.07463468011, 33805.00183165095, 30911.255587489082, -187500.02235174447, 27013.44663065036, 45303.432083539024, 35147.4476036367, 4189.834498147309, 360.1983618972733, 48164.50007730724, 35709.772790643314, 19619.48956483478, -6434.374324604789, 0.14200000000000002, 1.014, 0.07200000000000001, 192.0, 0.0, 0.0, 0.0, 0.0, 0.0, 0.0, 0.0, 0.0, 0.0, 1.695754553423109E9, 0.0, 2023-09-26 13:55:53.423
202.0, 73923.27623644784, 68998.11404920985, -19476.70662125428, -14335.671286066925, 33793.66949721211, 30902.583110640422, -187500.02235174447, 27022.49908715476, 45310.53993827581, 35161.77507183255, 4195.780062172421, 366.34509162248276, 48161.77316448369, 35732.66097696555, 19619.55662006815, -6429.836920480361, 0.14200000000000002, 1.018, 0.068, 192.0, 2.0, 56.0, 15.5, 104.0, 1.0, 16.0, 0.0, 0.0, 0.0, 1.695754553423118E9, 0.0, 2023-09-26 13:55:53.423
204.0, 73913.62028284316, 68986.9828804711, -19471.833940963024, -14335.403065133461, 33792.82013092281, 30892.323659935435, -187500.02235174447, 27001.15317119994, 45282.37674026212, 35127.085164437915, 4176.937541596597, 338.47246628671485, 48153.95005392433, 35701.323831239206, 19604.13391639399, -6450.042897467959, 0.14200000000000002, 1.018, 0.068, 192.0, 0.0, 0.0, 0.0, 0.0, 0.0, 0.0, 0.0, 0.0, 0.0, 1.695754553423128E9, 0.0, 2023-09-26 13:55:53.423
206.0, 73911.42981188653, 68990.35799388385, -19474.60555727548, -14331.31269589814, 33800.39737229316, 30895.430552414724, -187500.02235174447, 27016.68763359638, 45293.46320551196, 35144.00543499058, 4183.486602722001, 350.56476003703597, 48170.132716909975, 35711.650337177554, 19609.20776238534, -6447.7183160446075, 0.14200000000000002, 1.018, 0.068, 192.0, 0.0, 0.0, 0.0, 0.0, 0.0, 0.0, 0.0, 0.0, 0.0, 1.695754553423137E9, 0.0, 2023-09-26 13:55:53.423
208.0, 73931.52403015185, 69012.70973833917, -19460.56866175755, -14316.113509668532, 33810.142732875676, 30900.616157128356, -187500.02235174447, 27000.01323223272, 45304.72848471743, 35153.303760683986, 4200.898611652686, 369.49668759068106, 48170.624455287994, 35715.47248547942, 19618.841364245578, -6439.850501996339, 0.14200000000000002, 1.018, 0.068, 192.0, 0.0, 0.0, 0.0, 0.0, 0.0, 0.0, 0.0, 0.0, 0.0, 1.695754553423146E9, 0.0, 2023-09-26 13:55:53.423
210.0, 73924.30441669279, 68999.23163643261, -19477.600691032494, -14325.613001062036, 33794.183587334584, 30887.11570347735, -187500.02235174447, 27005.02002299071, 45310.20466210898, 35155.96361827417, 4203.089082609306, 374.50347834866983, 48177.97817921379, 35702.91080509553, 19611.085308919588, -6446.868949755305, 0.14200000000000002, 1.018, 0.068, 192.0, 0.0, 0.0, 0.0, 0.0, 0.0, 0.0, 0.0, 0.0, 0.0, 1.695754553423155E9, 0.0, 2023-09-26 13:55:53.423
212.0, 73934.2956464643, 69005.28895917999, -19474.09146715301, -14317.611076547037, 33789.98145937699, 30886.266337188048, -187500.02235174447, 26994.73822054127, 45300.12402535963, 35148.31932167045, 4190.616809203245, 369.563742824047, 48181.330940882086, 35693.9254038245, 19597.718965735312, -6449.886435256772, 0.14400000000000002, 1.016, 0.07, 192.0, 2.0, 64.0, 15.5, 96.0, 1.0, 24.0, 0.0, 0.0, 0.0, 1.695754553483434E9, 0.0, 2023-09-26 13:55:53.483
214.0, 73934.38505344214, 69018.5882471309, -19451.315039553054, -14313.766576500724, 33801.961994405036, 30895.564662881454, -187500.02235174447, 27004.327118912595, 45306.24840334039, 35188.15013028981, 4210.196937346093, 396.92227803734283, 48168.29987386464, 35720.09929658166, 19620.02600670171, -6438.062362439914, 0.14400000000000002, 1.016, 0.07, 192.0, 0.0, 0.0, 0.0, 0.0, 0.0, 0.0, 0.0, 0.0, 0.0, 1.695754553483457E9, 0.0, 2023-09-26 13:55:53.483
216.0, 73935.68145462054, 69010.31810168244, -19461.015696646657, -14317.655780035948, 33804.532445017394, 30901.4431716732, -187500.02235174447, 26999.7226595548, 45298.15707184757, 35177.86832784037, 4201.770329686443, 383.3324174085161, 48173.19490590035, 35727.76594492984, 19616.02504444421, -6441.258661897024, 0.14400000000000002, 1.016, 0.07, 192.0, 0.0, 0.0, 0.0, 0.0, 0.0, 0.0, 0.0, 0.0, 0.0, 1.695754553483513E9, 0.0, 2023-09-26 13:55:53.483
218.0, 73927.25484696089, 68995.92357825322, -19471.18574037382, -14312.850154978056, 33795.50234025745, 30902.605462384876, -187500.02235174447, 26999.320328154605, 45305.466092284456, 35176.84014759542, 4206.330085555325, 382.9077342638653, 48183.18613567187, 35726.84952340717, 19621.478870091305, -6425.791254733951, 0.14400000000000002, 1.016, 0.07, 192.0, 0.0, 0.0, 0.0, 0.0, 0.0, 0.0, 0.0, 0.0, 0.0, 1.695754553483523E9, 0.0, 2023-09-26 13:55:53.483
220.0, 73915.34136716621, 68995.1412671973, -19473.532673541627, -14316.40408234645, 33792.7754274339, 30898.962128038664, -187500.02235174447, 27001.086115966573, 45292.189156078006, 35155.96361827417, 4186.749957412477, 361.85239098696604, 48176.413557101914, 35717.79706690276, 19606.033814672686, -6432.966164704105, 0.14400000000000002, 1.016, 0.07, 192.0, 0.0, 0.0, 0.0, 0.0, 0.0, 0.0, 0.0, 0.0, 0.0, 1.695754553483533E9, 0.0, 2023-09-26 13:55:53.483
222.0, 73932.90983830809, 69003.21024694566, -19466.0448391491, -14300.511992038726, 33807.41582005213, 30908.819247343454, -187500.02235174447, 27004.684746823878, 45300.10167361518, 35150.28627518252, 4195.064806349851, 365.98746371119785, 48174.55836231213, 35706.7776568863, 19609.721852507813, -6424.964240189104, 0.134, 1.012, 0.07, 192.0, 2.0, 24.0, 15.5, 80.0, 1.0, 24.0, 0.0, 0.0, 0.0, 1.695754553483542E9, 0.0, 2023-09-26 13:55:53.483
224.0, 73925.06437600427, 68996.97411024262, -19465.933080426825, -14301.316654839118, 33800.978517649, 30901.599633884387, -187500.02235174447, 27010.071517237608, 45303.05210388328, 35164.45728116718, 4205.16779484365, 378.88442026191, 48177.397033857946, 35728.727069941415, 19620.74126252428, -6413.453091794621, 0.134, 1.012, 0.07, 192.0, 0.0, 0.0, 0.0, 0.0, 0.0, 0.0, 0.0, 0.0, 0.0, 1.695754553483551E9, 0.0, 2023-09-26 13:55:53.483
226.0, 73934.96619879796, 69001.53386611151, -19458.98168790122, -14295.30403558064, 33809.65099449766, 30912.753154367587, -187500.02235174447, 27012.95489227234, 45295.36310379066, 35151.985007761126, 4201.703274453077, 370.5248678356252, 48184.79546127265, 35734.60557873316, 19614.058090932143, -6415.285934839957, 0.134, 1.012, 0.07, 192.0, 0.0, 0.0, 0.0, 0.0, 0.0, 0.0, 0.0, 0.0, 0.0, 1.69575455354496E9, 0.0, 2023-09-26 13:55:53.544
228.0, 73919.25292244588, 68981.57375831292, -19478.785333488624, -14312.581934044592, 33785.60051746375, 30887.473331388635, -187500.02235174447, 27014.988901017776, 45292.14445258909, 35149.3475019154, 4195.824765661331, 360.89126597538785, 48180.10159493704, 35716.8806453801, 19613.476945576305, -6424.584260533365, 0.134, 1.012, 0.07, 192.0, 0.0, 0.0, 0.0, 0.0, 0.0, 0.0, 0.0, 0.0, 0.0, 1.695754553544984E9, 0.0, 2023-09-26 13:55:53.544
230.0, 73940.24121048942, 69001.37740390032, -19463.69790598129, -14301.473117050306, 33798.27395656991, 30910.808552599974, -187500.02235174447, 27010.652662593446, 45290.15514733257, 35156.74592933011, 4196.741187183999, 361.047728186575, 48168.61279828702, 35718.579377958704, 19599.64121575847, -6430.351010602833, 0.134, 1.012, 0.07, 192.0, 0.0, 0.0, 0.0, 0.0, 0.0, 0.0, 0.0, 0.0, 0.0, 1.695754553544994E9, 0.0, 2023-09-26 13:55:53.544
232.0, 73923.7456230814, 68989.75449678356, -19484.216807391265, -14312.805451489146, 33797.17872109159, 30894.2906134475, -187500.02235174447, 27019.056918508642, 45295.83249042422, 35164.837260822926, 4203.40200703168, 371.08366144700784, 48181.97914147129, 35693.9254038245, 19603.01632917122, -6428.361705346311, 0.138, 1.014, 0.068, 192.0, 2.0, 40.0, 15.5, 88.0, 1.0, 16.0, 0.0, 0.0, 0.0, 1.695754553545003E9, 0.0, 2023-09-26 13:55:53.545
234.0, 73951.66295190608, 69023.3938721888, -19453.058475620568, -14273.868712648, 33817.22823586801, 30922.945549839205, -187500.02235174447, 27025.315406956128, 45295.5419177463, 35156.27654269654, 4209.727550712532, 386.0593302320636, 48174.55836231213, 35735.186724089, 19612.515820564728, -6419.264545353001, 0.138, 1.014, 0.068, 192.0, 0.0, 0.0, 0.0, 0.0, 0.0, 0.0, 0.0, 0.0, 0.0, 1.695754553545013E9, 0.0, 2023-09-26 13:55:53.545
236.0, 73935.25677147589, 69017.31419769695, -19461.887414680412, -14283.859942419524, 33807.41582005213, 30914.25072124609, -187500.02235174447, 27038.234715251296, 45310.89756618709, 35178.69534238522, 4220.143463628705, 400.6550193613791, 48188.01411247422, 35743.188648603995, 19623.44582360337, -6402.500737011521, 0.138, 1.014, 0.068, 192.0, 0.0, 0.0, 0.0, 0.0, 0.0, 0.0, 0.0, 0.0, 0.0, 1.695754553545022E9, 0.0, 2023-09-26 13:55:53.545
238.0, 73934.11683250866, 69009.62519760433, -19471.006926418177, -14286.475096520793, 33800.03974438187, 30907.858122331876, -187500.02235174447, 27024.622502878014, 45295.00547587937, 35158.10938574188, 4206.978286144529, 391.66961809034564, 48199.65937133544, 35728.92823564151, 19611.442936830874, -6413.810719705906, 0.138, 1.014, 0.068, 192.0, 0.0, 0.0, 0.0, 0.0, 0.0, 0.0, 0.0, 0.0, 0.0, 1.69575455354506E9, 0.0, 2023-09-26 13:55:53.545
240.0, 73934.02742553085, 69008.50761038157, -19459.60753674597, -14286.20687558733, 33808.55575901935, 30910.227407244136, -187500.02235174447, 27037.29594198417, 45306.226051595935, 35178.13654877384, 4212.409760047169, 393.79303381359983, 48186.561249084625, 35732.81743917673, 19618.103756678553, -6407.105196369314, 0.138, 1.014, 0.068, 192.0, 0.0, 0.0, 0.0, 0.0, 0.0, 0.0, 0.0, 0.0, 0.0, 1.695754553545069E9, 0.0, 2023-09-26 13:55:53.545
242.0, 73926.78546032733, 69001.19858994467, -19470.67165025135, -14294.678186735891, 33802.92311941661, 30900.571453639444, -187500.02235174447, 27022.722604599312, 45294.0890543567, 35154.08607173993, 4201.993847130996, 376.0010452271754, 48175.76535651271, 35717.43943899148, 19605.027986172197, -6418.8398622083505, 0.148, 1.018, 0.066, 192.0, 2.0, 80.0, 15.5, 104.0, 1.0, 8.0, 0.0, 0.0, 0.0, 1.695754553602985E9, 0.0, 2023-09-26 13:55:53.602
244.0, 73928.30537895029, 69002.3385289119, -19471.923347940847, -14302.0766141506, 33804.1301136172, 30896.72695359313, -187500.02235174447, 27023.147287743963, 45299.028789881326, 35169.26290622508, 4207.939411156108, 377.36450163894915, 48177.41938560241, 35710.130418554596, 19615.332140366096, -6416.358818573812, 0.148, 1.018, 0.066, 192.0, 0.0, 0.0, 0.0, 0.0, 0.0, 0.0, 0.0, 0.0, 0.0, 1.695754553603008E9, 0.0, 2023-09-26 13:55:53.603
246.0, 73922.31511143627, 69004.95368301317, -19478.651223021894, -14299.617922260515, 33793.66949721211, 30900.07971526143, -187500.02235174447, 27008.39513640346, 45287.38353102011, 35151.33680717192, 4197.299980795381, 359.14782990787387, 48173.284312878175, 35715.91952036852, 19601.094079148064, -6428.965202446605, 0.148, 1.018, 0.066, 192.0, 0.0, 0.0, 0.0, 0.0, 0.0, 0.0, 0.0, 0.0, 0.0, 1.695754553603018E9, 0.0, 2023-09-26 13:55:53.603
248.0, 73920.30345443528, 68988.50279909406, -19470.179911873332, -14298.88031469349, 33791.41197102213, 30905.287671719514, -187500.02235174447, 27017.000558018754, 45289.73046418792, 35154.01901650656, 4192.136727826206, 359.39369909688224, 48182.58263857158, 35724.43553500599, 19595.01440465622, -6424.673667511185, 0.148, 1.018, 0.066, 192.0, 0.0, 0.0, 0.0, 0.0, 0.0, 0.0, 0.0, 0.0, 0.0, 1.695754553603027E9, 0.0, 2023-09-26 13:55:53.603
250.0, 73925.51141089338, 69000.68449982221, -19459.00403964568, -14286.899779665446, 33805.56062526234, 30910.98736655562, -187500.02235174447, 27016.35235742955, 45293.12792934512, 35143.42428963474, 4201.725626197533, 370.7036817912676, 48189.77990028619, 35732.21394207644, 19615.466250832826, -6414.436568550655, 0.148, 1.018, 0.066, 192.0, 0.0, 0.0, 0.0, 0.0, 0.0, 0.0, 0.0, 0.0, 0.0, 1.695754553603037E9, 0.0, 2023-09-26 13:55:53.603
252.0, 73937.0002075434, 69008.93229352622, -19459.18285360132, -14289.514933766715, 33820.044555669374, 30904.505360663577, -187500.02235174447, 27027.841154079575, 45295.608972979666, 35161.52920264354, 4211.091007124306, 382.9524377527759, 48189.26581016371, 35723.72027918342, 19616.6285415445, -6408.245135336535, 0.14, 1.016, 0.07, 192.0, 2.0, 48.0, 15.5, 96.0, 1.0, 24.0, 0.0, 0.0, 0.0, 1.695754553603046E9, 0.0, 2023-09-26 13:55:53.603
254.0, 73932.03812027433, 69006.13832546929, -19472.37038282995, -14304.758823485236, 33803.86189268374, 30897.285747204514, -187500.02235174447, 27021.716776098823, 45291.58565897771, 35145.52535361354, 4214.957858915074, 380.47139411823684, 48193.73615905478, 35717.70765992495, 19615.287436877185, -6416.6717429961855, 0.14, 1.016, 0.07, 192.0, 0.0, 0.0, 0.0, 0.0, 0.0, 0.0, 0.0, 0.0, 0.0, 1.695754553603056E9, 0.0, 2023-09-26 13:55:53.603
