%OpenBCI Raw EXG Data
%Number of channels = 16
%Sample Rate = 125 Hz
%Board = OpenBCI_GUI$BoardCytonSerialDaisy
Sample Index, EXG Channel 0, EXG Channel 1, EXG Channel 2, EXG Channel 3, EXG Channel 4, EXG Channel 5, EXG Channel 6, EXG Channel 7, EXG Channel 8, EXG Channel 9, EXG Channel 10, EXG Channel 11, EXG Channel 12, EXG Channel 13, EXG Channel 14, EXG Channel 15, Accel Channel 0, Accel Channel 1, Accel Channel 2, Other, Other, Other, Other, Other, Other, Other, Analog Channel 0, Analog Channel 1, Analog Channel 2, Timestamp, Other, Timestamp (Formatted)
0.0, -160467.95671796284, 30526.157382268597, -49174.68716796484, -39493.34198157096, 2728.7903700817074, -13677.814743258328, -187500.02235174447, -313.39380900786034, 0.0, 0.0, 0.0, 0.0, 0.0, 0.0, 0.0, 0.0, 0.0, 0.0, 0.0, 192.0, 0.0, 0.0, 0.0, 0.0, 0.0, 0.0, 0.0, 0.0, 0.0, 1.695756189781169E9, 0.0, 2023-09-26 14:23:09.781
224.0, -160472.98586046527, 30527.43143170255, -49178.576371500065, -39500.449836307744, 2723.8506345570845, -13690.3317201533, -187500.02235174447, -307.85057638294415, 5719.923164835353, -33591.810893036236, -710.3384387896584, -20782.16025616649, -23883.554206318167, -21271.30583182643, -26592.183302901187, -40995.06628454522, 0.0, 0.0, 0.0, 192.0, 0.0, 0.0, 0.0, 0.0, 0.0, 0.0, 0.0, 0.0, 0.0, 1.695756189781187E9, 0.0, 2023-09-26 14:23:09.781
226.0, -160467.50968307373, 30533.265237005384, -49168.96512138428, -39496.135949627875, 2732.2101869833696, -13688.677691063607, -187500.02235174447, -307.3588380049274, 5721.934821836331, -33577.10344518464, -709.578479478178, -20769.285651360235, -23888.985680220805, -21272.53517777147, -26594.88786398028, -41001.928270093, -0.008, 1.016, 0.028, 192.0, 127.5, 96.0, 15.5, 96.0, 0.0, 112.0, 0.0, 0.0, 0.0, 1.695756189781197E9, 0.0, 2023-09-26 14:23:09.781
228.0, -160470.63892729746, 30526.403251457603, -49176.475307521265, -39504.383743331884, 2723.001268267783, -13700.56881911383, -187500.02235174447, -303.02259958059784, 5720.638420657924, -33600.50572162935, -715.7028574589322, -20780.46152358789, -23890.997337221783, -21281.185302875674, -26593.099724423853, -41002.889395104576, -0.008, 1.016, 0.028, 192.0, 0.0, 0.0, 0.0, 0.0, 0.0, 0.0, 0.0, 0.0, 0.0, 1.695756189781207E9, 0.0, 2023-09-26 14:23:09.781
230.0, -160439.8605751825, 30527.118507280175, -49186.06420589259, -39512.34096435797, 2716.3404484201014, -13711.699987852573, -187500.02235174447, -319.2946695440614, 5709.864879830466, -33590.760361046836, -714.6076219806221, -20766.67049725896, -23899.736869303808, -21289.522503557506, -26599.514675082526, -41011.74068590888, -0.008, 1.016, 0.028, 192.0, 0.0, 0.0, 0.0, 0.0, 0.0, 0.0, 0.0, 0.0, 0.0, 1.695756189781216E9, 0.0, 2023-09-26 14:23:09.781
232.0, -160467.88966272946, 30527.677300891555, -49180.744490712226, -39505.61308927692, 2723.940041534906, -13704.167449971135, -187500.02235174447, -322.8709486569105, 5717.308010734083, -33610.27343395632, -719.6144127386109, -20785.647128301516, -23898.01578498075, -21289.58955879087, -26603.98502397359, -41012.0312585868, -0.008, 1.016, 0.028, 192.0, 0.0, 0.0, 0.0, 0.0, 0.0, 0.0, 0.0, 0.0, 0.0, 1.695756189781225E9, 0.0, 2023-09-26 14:23:09.781
234.0, -160450.7682264767, 30527.8561148472, -49185.32659832556, -39509.16701664532, 2723.2024339678806, -13700.814688302838, -187500.02235174447, -318.9593933772318, 5720.928993335842, -33593.487273870385, -709.3996655225355, -20774.53831130723, -23899.915683259453, -21290.26011112453, -26606.354308885853, -41013.372363254115, -0.008, 1.016, 0.028, 192.0, 0.0, 0.0, 0.0, 0.0, 0.0, 0.0, 0.0, 0.0, 0.0, 1.695756189781408E9, 0.0, 2023-09-26 14:23:09.781
236.0, -160482.03831696967, 30527.967873569476, -49178.26344707769, -39502.05916190853, 2729.3938671820006, -13696.500801622964, -187500.02235174447, -320.501663744648, 5725.354638737994, -33604.75255307586, -714.9205464029964, -20792.129134193558, -23900.83210478212, -21282.54875928745, -26609.103573453853, -41009.30434576325, -0.008, 1.012, 0.032, 192.0, 127.5, 96.0, 15.5, 80.0, 0.5, 0.0, 0.0, 0.0, 0.0, 1.695756189781418E9, 0.0, 2023-09-26 14:23:09.781
238.0, -160467.42027609592, 30528.66077764759, -49175.849458676515, -39498.661696751326, 2731.5619863941656, -13690.935217253593, -187500.02235174447, -316.94773637625417, 5720.101978790996, -33593.28610817029, -708.7514649333317, -20778.740439264828, -23901.770878049243, -21282.749924987547, -26605.102611196355, -41004.65518291655, -0.008, 1.012, 0.032, 192.0, 0.0, 0.0, 0.0, 0.0, 0.0, 0.0, 0.0, 0.0, 0.0, 1.695756189781434E9, 0.0, 2023-09-26 14:23:09.781
0.0, -80277.58661241372, 15232.043293958104, -24562.756665081582, -19714.886810170032, 1345.127981320379, -6832.928279987369, -93750.01117587223, -106.86369024082306, 2851.546150630254, -16801.739251820953, -362.85821948745485, -10396.846878152714, -11951.522463741598, -10642.269032271986, -13299.600875330076, -20499.030709151117, -0.006, 1.012, 0.03, 192.0, 127.5, 104.0, 15.5, 80.0, 0.0, 120.0, 0.0, 0.0, 0.0, 1.695756189937084E9, 0.0, 2023-09-26 14:23:09.937
2.0, -160574.1945593589, 30477.7435037784, -49112.795187568096, -39415.110875977385, 2703.3093814026574, -13646.79052195436, -187500.02235174447, -209.36879031286125, 5784.944389455842, -33485.617755129075, -719.9049854165298, -20707.48307794131, -23852.395874547467, -21243.142633812742, -26508.543075149428, -40953.49203985835, -0.006, 1.012, 0.03, 192.0, 0.0, 0.0, 0.0, 0.0, 0.0, 0.0, 0.0, 0.0, 0.0, 1.695756189937119E9, 0.0, 2023-09-26 14:23:09.937
4.0, -160565.27621332125, 30481.297431146795, -49108.90598403287, -39407.354820651395, 2702.3259046466237, -13642.208414341023, -187500.02235174447, -215.96255492717685, 5791.135822669962, -33471.066769488665, -711.6795434569768, -20698.743545859284, -23845.66799946642, -21233.710197652603, -26505.793810581425, -40945.80303976572, -0.006, 1.012, 0.03, 192.0, 0.0, 0.0, 0.0, 0.0, 0.0, 0.0, 0.0, 0.0, 0.0, 1.695756189937133E9, 0.0, 2023-09-26 14:23:09.937
6.0, -160583.0458501632, 30480.537471835312, -49119.76893183815, -39415.75907656659, 2686.1432416609814, -13650.433856300577, -187500.02235174447, -220.5893660294254, 5796.522593083691, -33479.806301570694, -715.5910987366556, -20706.1866767629, -23845.019798877216, -21219.87446783477, -26512.409926940196, -40945.356004876616, -0.006, 1.012, 0.03, 192.0, 0.0, 0.0, 0.0, 0.0, 0.0, 0.0, 0.0, 0.0, 0.0, 1.695756189937143E9, 0.0, 2023-09-26 14:23:09.937
8.0, -160536.397759485, 30479.911622990567, -49138.61145241398, -39434.31102446449, 2674.6991484998644, -13669.365783854222, -187500.02235174447, -231.31820336797279, 5785.346720856038, -33455.845231514606, -720.4637790279126, -20687.299452698167, -23874.412342835945, -21234.850136619825, -26537.9132673637, -40968.95944702142, -0.002, 1.006, 0.03, 192.0, 127.5, 120.0, 15.5, 56.0, 0.0, 120.0, 0.0, 0.0, 0.0, 1.695756189937152E9, 0.0, 2023-09-26 14:23:09.937
10.0, -160591.91949271198, 30476.000067710887, -49116.52792889213, -39414.46267538818, 2699.576640078621, -13649.472731288997, -187500.02235174447, -227.5631102994812, 5778.775307986178, -33490.69160112043, -727.9516134204404, -20713.987435577805, -23866.67863925441, -21230.469194706584, -26532.101813805322, -40957.20242943793, -0.002, 1.006, 0.03, 192.0, 0.0, 0.0, 0.0, 0.0, 0.0, 0.0, 0.0, 0.0, 0.0, 1.695756189937162E9, 0.0, 2023-09-26 14:23:09.937
12.0, -160579.06723965018, 30471.440311842005, -49123.68048711783, -39424.6550708598, 2698.4590528558556, -13657.429952315088, -187500.02235174447, -227.18313064374098, 5792.856906993021, -33475.537118379725, -712.7747789352869, -20703.795040106183, -23865.181072375904, -21232.413796474197, -26525.44099395764, -40954.27435091428, -0.002, 1.006, 0.03, 192.0, 0.0, 0.0, 0.0, 0.0, 0.0, 0.0, 0.0, 0.0, 0.0, 1.695756189937171E9, 0.0, 2023-09-26 14:23:09.937
14.0, -160577.5473210272, 30453.290695344294, -49140.891330348415, -39444.816344358485, 2681.6281892810093, -13676.920673480116, -187500.02235174447, -230.22296788966275, 5766.95123516932, -33486.28830746273, -730.2985465882476, -20714.590932678097, -23886.750505775275, -21256.91130839721, -26540.05903483141, -40968.80298481023, -0.002, 1.006, 0.03, 192.0, 0.0, 0.0, 0.0, 0.0, 0.0, 0.0, 0.0, 0.0, 0.0, 1.69575618993718E9, 0.0, 2023-09-26 14:23:09.937
16.0, -160563.55512899818, 30458.02926516882, -49134.23051050073, -39439.94366406723, 2694.3016283871684, -13670.058687932336, -187500.02235174447, -232.21227314618508, 5764.961929912798, -33492.27857497675, -732.868997200608, -20709.785307620205, -23883.129523173517, -21252.0162763615, -26540.30490402042, -40969.607647610625, -0.002, 1.006, 0.03, 192.0, 0.0, 0.0, 0.0, 0.0, 0.0, 0.0, 0.0, 0.0, 0.0, 1.695756189997464E9, 0.0, 2023-09-26 14:23:09.997
18.0, -160573.9486901699, 30461.98552393741, -49138.61145241398, -39443.072908290975, 2684.511564315744, -13674.998423456958, -187500.02235174447, -234.1792266582521, 5769.834610204054, -33494.04436278872, -733.740715234365, -20726.079729328125, -23878.368601604536, -21244.17081405769, -26538.650874930725, -40962.03040624028, -0.004, 1.016, 0.028, 192.0, 127.5, 112.0, 15.5, 96.0, 0.0, 112.0, 0.0, 0.0, 0.0, 1.695756189997535E9, 0.0, 2023-09-26 14:23:09.997
20.0, -160538.3423612526, 30456.55405003477, -49149.854379874996, -39457.02039683109, 2666.2054856068476, -13688.409470130144, -187500.02235174447, -249.35606114340558, 5755.753011197211, -33484.00842952829, -736.7358489913761, -20705.091441284592, -23896.11588670205, -21263.25920382252, -26558.834500173867, -40982.59401113916, -0.004, 1.016, 0.028, 192.0, 0.0, 0.0, 0.0, 0.0, 0.0, 0.0, 0.0, 0.0, 0.0, 1.695756189997557E9, 0.0, 2023-09-26 14:23:09.997
22.0, -160563.08574236464, 30453.536564533304, -49140.71251639277, -39450.47133570568, 2676.4649363118338, -13679.357013625744, -187500.02235174447, -250.6077588329028, 5772.673281749879, -33504.50497919381, -742.3684885941135, -20723.509278715763, -23886.415229608447, -21258.833558420367, -26557.403988528727, -40979.86709831561, -0.004, 1.016, 0.028, 192.0, 0.0, 0.0, 0.0, 0.0, 0.0, 0.0, 0.0, 0.0, 0.0, 1.695756189997585E9, 0.0, 2023-09-26 14:23:09.997
24.0, -160539.68346591992, 30457.001084923875, -49143.37237398295, -39455.656940419314, 2675.81673572263, -13684.341452639277, -187500.02235174447, -241.35413662840566, 5763.419659545381, -33486.89180456303, -735.9088344465297, -20710.43350820941, -23890.662061054954, -21266.79077944646, -26557.851023417836, -40983.041046028266, -0.004, 1.016, 0.028, 192.0, 0.0, 0.0, 0.0, 0.0, 0.0, 0.0, 0.0, 0.0, 0.0, 1.695756189997604E9, 0.0, 2023-09-26 14:23:09.997
26.0, -160578.73196348335, 30455.8387942122, -49131.39183895491, -39443.51994318008, 2691.194735907881, -13674.260815889933, -187500.02235174447, -252.10532571140837, 5766.481848535758, -33492.457388932395, -741.4073635825353, -20727.95727586237, -23882.16839816194, -21260.532290998974, -26548.68680819116, -40976.20141222494, -0.004, 1.016, 0.028, 192.0, 0.0, 0.0, 0.0, 0.0, 0.0, 0.0, 0.0, 0.0, 0.0, 1.695756189997621E9, 0.0, 2023-09-26 14:23:09.997
28.0, -160570.66298373498, 30464.623029783135, -49136.30922273508, -39446.02333855908, 2692.8487649975737, -13678.127667680701, -187500.02235174447, -235.98971795913198, 5773.321482339083, -33490.91511856498, -731.5278925332896, -20723.889258371506, -23878.122732415526, -21254.542023484948, -26538.516764463995, -40968.423005154495, -0.004, 1.012, 0.03, 192.0, 127.5, 112.0, 15.5, 80.0, 0.0, 120.0, 0.0, 0.0, 0.0, 1.695756189997638E9, 0.0, 2023-09-26 14:23:09.997
30.0, -160545.74078866732, 30453.134233133107, -49157.878656134446, -39464.82115564599, 2670.1840961198923, -13699.00419700196, -187500.02235174447, -240.41536336128277, 5760.42452578837, -33487.94233655243, -738.3451745921582, -20720.089461814103, -23888.49394184279, -21270.232948092576, -26549.513822736004, -40981.364665194116, -0.004, 1.012, 0.03, 192.0, 0.0, 0.0, 0.0, 0.0, 0.0, 0.0, 0.0, 0.0, 0.0, 1.695756190056884E9, 0.0, 2023-09-26 14:23:10.056
32.0, -160535.48133796232, 30463.70660826047, -49145.2499205172, -39452.41593747329, 2678.1860206348924, -13684.18499042809, -187500.02235174447, -239.05190694950903, 5761.0056711442085, -33503.81207511569, -743.7542967503425, -20718.726005402328, -23893.947767489884, -21273.33984057186, -26557.515747251007, -40985.18681349597, -0.004, 1.012, 0.03, 192.0, 0.0, 0.0, 0.0, 0.0, 0.0, 0.0, 0.0, 0.0, 0.0, 1.695756190056908E9, 0.0, 2023-09-26 14:23:10.056
34.0, -160559.50946325177, 30458.588058780202, -49128.15083600889, -39435.585073898445, 2687.506698072755, -13670.259853632433, -187500.02235174447, -245.04217446353132, 5775.2660841066945, -33496.525406423265, -736.6687937580102, -20730.52772647473, -23881.54254931719, -21271.216424848608, -26543.657665688715, -40971.418138911504, -0.004, 1.012, 0.03, 192.0, 0.0, 0.0, 0.0, 0.0, 0.0, 0.0, 0.0, 0.0, 0.0, 1.695756190056918E9, 0.0, 2023-09-26 14:23:10.056
36.0, -160555.41909401646, 30463.907773960567, -49141.450123959796, -39447.1632775263, 2678.5436485461773, -13680.765173526428, -187500.02235174447, -249.13254369885252, 5775.131973639962, -33490.66924937597, -729.2256628543929, -20729.3430840186, -23876.893386470485, -21252.57506997288, -26541.757767410014, -40971.86517380061, -0.004, 1.012, 0.03, 192.0, 0.0, 0.0, 0.0, 0.0, 0.0, 0.0, 0.0, 0.0, 0.0, 1.695756190056927E9, 0.0, 2023-09-26 14:23:10.056
38.0, -160563.62218423156, 30461.60554428167, -49138.38793496942, -39442.26824549058, 2680.063567169138, -13674.41727810112, -187500.02235174447, -254.96634900168766, 5779.021177175186, -33481.259164960284, -732.0866861446722, -20730.885354386017, -23879.39678184948, -21246.741264670047, -26550.29613379194, -40977.20724072543, -0.004, 1.014, 0.028, 192.0, 127.5, 112.0, 15.5, 88.0, 0.0, 112.0, 0.0, 0.0, 0.0, 1.695756190056965E9, 0.0, 2023-09-26 14:23:10.056
40.0, -160546.5454514677, 30453.424805811028, -49153.36360375448, -39459.1661642988, 2672.642788009976, -13693.863295777237, -187500.02235174447, -250.6524623218134, 5765.118392123984, -33492.85972033259, -735.126523390594, -20732.025293353236, -23889.835046510107, -21267.34957305784, -26551.39136927025, -40979.93415354898, -0.004, 1.014, 0.028, 192.0, 0.0, 0.0, 0.0, 0.0, 0.0, 0.0, 0.0, 0.0, 0.0, 1.695756190056974E9, 0.0, 2023-09-26 14:23:10.056
42.0, -160549.38412301353, 30451.41314881005, -49142.67946990484, -39447.87853334886, 2685.0703579271267, -13684.252045661457, -187500.02235174447, -265.1363927288524, 5765.319557824083, -33495.49722617832, -743.351965350147, -20728.538421218207, -23894.528912845723, -21274.79270396146, -26555.45938676112, -40986.326752463196, -0.004, 1.014, 0.028, 192.0, 0.0, 0.0, 0.0, 0.0, 0.0, 0.0, 0.0, 0.0, 0.0, 1.695756190056983E9, 0.0, 2023-09-26 14:23:10.056
44.0, -160570.37241105706, 30447.8368696972, -49140.1984262703, -39446.09039379244, 2686.5902765500878, -13679.021737458914, -187500.02235174447, -243.67871805175758, 5772.181543371862, -33515.30087176572, -745.0506979287503, -20740.00486612378, -23888.650404053977, -21265.7178957126, -26541.958933110112, -40973.653313357034, -0.004, 1.014, 0.028, 192.0, 0.0, 0.0, 0.0, 0.0, 0.0, 0.0, 0.0, 0.0, 0.0, 1.695756190056992E9, 0.0, 2023-09-26 14:23:10.056
46.0, -160567.53373951124, 30443.098299872676, -49135.95159482379, -39441.57534141247, 2687.0373114391937, -13676.004251957447, -187500.02235174447, -238.38135461584983, 5764.2913775791385, -33507.142485039534, -748.2022938969486, -20728.538421218207, -23895.02065122374, -21271.082314381878, -26542.473023232586, -40972.334560434174, -0.004, 1.014, 0.028, 192.0, 0.0, 0.0, 0.0, 0.0, 0.0, 0.0, 0.0, 0.0, 0.0, 1.695756190116822E9, 0.0, 2023-09-26 14:23:10.116
48.0, -160596.47924858084, 30452.061349399253, -49127.323821464044, -39431.07002151848, 2691.038273696694, -13671.08686817728, -187500.02235174447, -224.3221073534617, 5782.128069654474, -33520.77704915727, -741.2061978824376, -20743.379979536534, -23884.850607496574, -21256.30781129692, -26530.671302160183, -40957.49300211585, -0.002, 1.008, 0.026000000000000002, 192.0, 127.5, 120.0, 15.5, 64.0, 0.0, 104.0, 0.0, 0.0, 0.0, 1.695756190116845E9, 0.0, 2023-09-26 14:23:10.116
50.0, -160571.86997793557, 30455.011779667355, -49136.04100180161, -39441.79885885702, 2671.9498839318617, -13679.3793653702, -187500.02235174447, -236.3696976148722, 5771.890970693943, -33494.11141802209, -732.9807559228846, -20719.128336802525, -23896.048831468685, -21258.54298574245, -26541.69071217665, -40966.456051642424, -0.002, 1.008, 0.026000000000000002, 192.0, 0.0, 0.0, 0.0, 0.0, 0.0, 0.0, 0.0, 0.0, 0.0, 1.695756190116856E9, 0.0, 2023-09-26 14:23:10.116
52.0, -160567.6902017224, 30446.294599329784, -49150.63669093093, -39459.210867787704, 2668.57477051911, -13698.221885946023, -187500.02235174447, -249.28900591003966, 5771.734508482756, -33502.940357081934, -742.6143577831218, -20726.370302006042, -23910.041023497706, -21277.83254120738, -26553.380674526772, -40978.74951109284, -0.002, 1.008, 0.026000000000000002, 192.0, 0.0, 0.0, 0.0, 0.0, 0.0, 0.0, 0.0, 0.0, 0.0, 1.695756190116865E9, 0.0, 2023-09-26 14:23:10.116
54.0, -160536.66598041845, 30444.484108028904, -49149.87673161945, -39457.959170098206, 2665.1102501285377, -13698.646569090673, -187500.02235174447, -259.1237734703748, 5736.463455732282, -33496.07837153415, -754.0137474553285, -20709.427679708922, -23910.800982809185, -21275.21738710611, -26564.757712454524, -40990.03714204278, -0.002, 1.008, 0.026000000000000002, 192.0, 0.0, 0.0, 0.0, 0.0, 0.0, 0.0, 0.0, 0.0, 0.0, 1.695756190116874E9, 0.0, 2023-09-26 14:23:10.116
56.0, -160578.5978530166, 30452.17310812153, -49127.1450075084, -39436.47914367666, 2692.804061508663, -13672.830304244793, -187500.02235174447, -257.2685786805843, 5773.366185827993, -33516.999604344324, -760.0710702027167, -20732.0923485866, -23903.31314841666, -21274.144503372252, -26556.10758735032, -40979.10713900413, -0.002, 1.008, 0.026000000000000002, 192.0, 0.0, 0.0, 0.0, 0.0, 0.0, 0.0, 0.0, 0.0, 0.0, 1.695756190116883E9, 0.0, 2023-09-26 14:23:10.116
58.0, -160576.16151287098, 30451.904887188066, -49123.05463827308, -39436.12151576537, 2699.6213435675318, -13673.053821689347, -187500.02235174447, -247.7914390315341, 5781.792793487643, -33489.886938320036, -740.7144595044208, -20723.039892082204, -23887.465761597847, -21253.96087812911, -26538.606171441817, -40961.069281228694, -0.002, 1.008, 0.026000000000000002, 192.0, 0.0, 0.0, 15.5, 80.0, 0.0, 112.0, 0.0, 0.0, 0.0, 1.695756190116892E9, 0.0, 2023-09-26 14:23:10.116
60.0, -160604.99526321833, 30446.629875496612, -49121.311202205565, -39433.41695468628, 2699.4872331008, -13673.009118200436, -187500.02235174447, -247.38910763133856, 5759.038717632141, -33489.12697900856, -746.7270787628984, -20738.06026435617, -23890.97498547733, -21261.918099155202, -26539.924924364677, -40960.465784128406, -0.002, 1.008, 0.026000000000000002, 192.0, 0.0, 0.0, 0.0, 0.0, 0.0, 0.0, 0.0, 0.0, 0.0, 1.695756190177102E9, 0.0, 2023-09-26 14:23:10.177
62.0, -160595.67458578045, 30452.888363944097, -49116.12559749193, -39430.354765695905, 2701.7894627796964, -13669.634004787686, -187500.02235174447, -243.14227618483022, 5766.392441557938, -33480.923888793455, -731.125561133094, -20719.754185647274, -23888.985680220805, -21259.54881424294, -26537.376825496773, -40953.670853813994, -0.002, 1.008, 0.026000000000000002, 192.0, 0.0, 0.0, 0.0, 0.0, 0.0, 0.0, 0.0, 0.0, 0.0, 1.695756190177127E9, 0.0, 2023-09-26 14:23:10.177
64.0, -160591.71832701188, 30442.427747539015, -49138.656155902885, -39456.483954964155, 2676.733157245297, -13694.645606833174, -187500.02235174447, -251.9041600113106, 5764.000804901219, -33490.021048786766, -733.4277908119907, -20728.58312470712, -23891.377316877522, -21269.00360214753, -26545.065825589398, -40960.55519110623, -0.002, 1.008, 0.026000000000000002, 192.0, 0.0, 0.0, 0.0, 0.0, 0.0, 0.0, 0.0, 0.0, 0.0, 1.695756190177138E9, 0.0, 2023-09-26 14:23:10.177
66.0, -160559.68827720743, 30450.40732030956, -49131.61535639946, -39450.65014966132, 2680.9129334584395, -13687.09071720728, -187500.02235174447, -255.52514261307033, 5754.098982107518, -33492.63620288804, -737.5628635362225, -20710.835839609605, -23909.68339558642, -21283.375773832297, -26567.35051481134, -40980.89527856056, -0.002, 1.008, 0.026000000000000002, 192.0, 0.0, 0.0, 0.0, 0.0, 0.0, 0.0, 0.0, 0.0, 0.0, 1.695756190177151E9, 0.0, 2023-09-26 14:23:10.177
68.0, -160587.91853045448, 30442.248933583374, -49127.70380111979, -39443.74346062463, 2682.745776503775, -13681.61453981573, -187500.02235174447, -254.4522588792156, 5778.462383563803, -33503.94618558243, -734.6124332681219, -20733.612267209563, -23892.62901456702, -21272.28930858246, -26553.44772976014, -40961.82924054018, -0.006, 1.014, 0.024, 192.0, 127.5, 104.0, 15.5, 88.0, 0.0, 96.0, 0.0, 0.0, 0.0, 1.69575619017716E9, 0.0, 2023-09-26 14:23:10.177
70.0, -160547.57363171264, 30439.298503315273, -49147.28392926263, -39463.211830045206, 2669.7594129752415, -13701.775813314416, -187500.02235174447, -258.9673112591876, 5761.609168244501, -33491.138636009535, -740.8932734600633, -20714.61328442255, -23912.700881087887, -21279.240701108065, -26569.16100611222, -40978.43658667047, -0.006, 1.014, 0.024, 192.0, 0.0, 0.0, 0.0, 0.0, 0.0, 0.0, 0.0, 0.0, 0.0, 1.69575619017717E9, 0.0, 2023-09-26 14:23:10.177
72.0, -160573.903986681, 30433.06236661224, -49136.08570529053, -39459.814364888, 2687.171421905926, -13697.216057445534, -187500.02235174447, -263.19179096124066, 5754.031926874152, -33509.19884552942, -754.2596166443368, -20735.288648043712, -23909.482229886322, -21289.34368960186, -26567.35051481134, -40982.16932799451, -0.006, 1.014, 0.024, 192.0, 0.0, 0.0, 0.0, 0.0, 0.0, 0.0, 0.0, 0.0, 0.0, 1.695756190177179E9, 0.0, 2023-09-26 14:23:10.177
74.0, -160560.78351268574, 30443.92531441752, -49134.811655856574, -39457.86976312039, 2687.9760847063167, -13700.390005158188, -187500.02235174447, -251.50182861111506, 5756.356508297505, -33517.49134272234, -745.6765467734989, -20734.3945782655, -23904.11781121705, -21287.197922134153, -26561.49435776405, -40980.448243671446, -0.006, 1.014, 0.024, 192.0, 0.0, 0.0, 0.0, 0.0, 0.0, 0.0, 0.0, 0.0, 0.0, 1.695756190177188E9, 0.0, 2023-09-26 14:23:10.177
76.0, -160559.8447394186, 30437.532715503305, -49141.91951059336, -39464.0164928456, 2676.9119712009397, -13709.889496551694, -187500.02235174447, -258.1850002032519, 5762.52558976717, -33512.596310686626, -754.5501893222558, -20742.038874869213, -23897.009956480262, -21279.575977274893, -26564.40008454324, -40978.50364190384, -0.006, 1.014, 0.024, 192.0, 0.0, 0.0, 0.0, 0.0, 0.0, 0.0, 0.0, 0.0, 0.0, 1.695756190237365E9, 0.0, 2023-09-26 14:23:10.237
78.0, -160536.2412972738, 30441.086642871698, -49136.979775068736, -39458.67442592078, 2678.454241568356, -13705.083871493802, -187500.02235174447, -259.794325804034, 5760.089249621541, -33509.06473506269, -756.4053841120464, -20731.53355497522, -23906.82237229614, -21287.93552970118, -26573.54194802546, -40986.99730479685, -0.006, 1.014, 0.028, 192.0, 127.5, 104.0, 15.5, 88.0, 0.0, 112.0, 0.0, 0.0, 0.0, 1.695756190237388E9, 0.0, 2023-09-26 14:23:10.237
80.0, -160541.73982640982, 30445.556991762758, -49130.36365870997, -39448.8620101049, 2684.265695126736, -13690.488182364486, -187500.02235174447, -254.69812806822398, 5772.472116049781, -33505.309641994194, -748.6716805305101, -20733.500508487286, -23901.43560188241, -21283.97927093259, -26568.378695056286, -40975.19558372445, -0.006, 1.014, 0.028, 192.0, 0.0, 0.0, 0.0, 0.0, 0.0, 0.0, 0.0, 0.0, 0.0, 1.6957561902374E9, 0.0, 2023-09-26 14:23:10.237
82.0, -160548.78062591323, 30452.97777092192, -49123.32285920654, -39439.787201856045, 2692.088805686093, -13675.981900212992, -187500.02235174447, -239.2307209051515, 5774.439069561848, -33509.668232162985, -740.3121281042252, -20733.3440462761, -23890.907930243964, -21272.624584749294, -26558.052189117934, -40958.94586550544, -0.006, 1.014, 0.028, 192.0, 0.0, 0.0, 0.0, 0.0, 0.0, 0.0, 0.0, 0.0, 0.0, 1.695756190237449E9, 0.0, 2023-09-26 14:23:10.237
84.0, -160558.97302138485, 30441.332512060704, -49126.87678657494, -39444.83869610295, 2692.1782126639146, -13677.971205469514, -187500.02235174447, -246.65150006431344, 5773.120316638985, -33500.77223786977, -741.1838461379822, -20735.355703277077, -23888.605700565065, -21269.0706573809, -26556.889898406258, -40956.665987571, -0.006, 1.014, 0.028, 192.0, 0.0, 0.0, 0.0, 0.0, 0.0, 0.0, 0.0, 0.0, 0.0, 1.695756190237458E9, 0.0, 2023-09-26 14:23:10.237
86.0, -160546.3442857676, 30438.5832474927, -49141.09249604851, -39459.32262650998, 2678.9236282019174, -13689.907037008648, -187500.02235174447, -252.2170844336849, 5759.262235076694, -33509.53412169625, -747.1070584186385, -20734.61809571005, -23904.989529250804, -21277.20669236263, -26571.86556719131, -40975.10617674663, -0.006, 1.014, 0.028, 192.0, 0.0, 0.0, 0.0, 0.0, 0.0, 0.0, 0.0, 0.0, 0.0, 1.695756190237468E9, 0.0, 2023-09-26 14:23:10.237
88.0, -160544.71260842236, 30430.290750299784, -49139.01378381417, -39458.85323987642, 2679.325959602113, -13691.851638776261, -187500.02235174447, -256.1733432022742, 5762.8832176784545, -33505.84608386113, -754.1478579220603, -20736.942677133404, -23899.669814070443, -21276.849064451348, -26572.0220294025, -40973.00511276783, -0.008, 1.016, 0.026000000000000002, 192.0, 127.5, 96.0, 15.5, 96.0, 0.0, 104.0, 0.0, 0.0, 0.0, 1.695756190237476E9, 0.0, 2023-09-26 14:23:10.237
90.0, -160553.51919573775, 30435.8339829247, -49133.38114421143, -39455.83575437495, 2686.232648638803, -13696.344339411777, -187500.02235174447, -245.44450586372685, 5761.385650799948, -33518.40776424501, -754.125506177605, -20747.313886560667, -23900.58623559311, -21277.609023762827, -26570.390352057264, -40976.06730175821, -0.008, 1.016, 0.026000000000000002, 192.0, 0.0, 0.0, 0.0, 0.0, 0.0, 0.0, 0.0, 0.0, 0.0, 1.695756190297631E9, 0.0, 2023-09-26 14:23:10.297
92.0, -160540.55518395366, 30430.871895655622, -49131.68241163283, -39453.53352469606, 2684.6233230380208, -13696.90313302316, -187500.02235174447, -253.44643037872677, 5759.753973454711, -33501.64395590353, -752.7620497658313, -20736.830918411128, -23900.049793726183, -21281.9229104427, -26566.098817121845, -40973.452147656935, -0.008, 1.016, 0.026000000000000002, 192.0, 0.0, 0.0, 0.0, 0.0, 0.0, 0.0, 0.0, 0.0, 0.0, 1.695756190297665E9, 0.0, 2023-09-26 14:23:10.297
94.0, -160549.80880615817, 30439.767889948835, -49124.14987375139, -39447.476201948666, 2687.1490701614703, -13695.606731844751, -187500.02235174447, -247.90319775381064, 5760.446877532826, -33516.39610724403, -755.0195759558172, -20739.513127745766, -23898.932206503418, -21273.473951038595, -26564.087160120867, -40970.70288308893, -0.008, 1.016, 0.026000000000000002, 192.0, 0.0, 0.0, 0.0, 0.0, 0.0, 0.0, 0.0, 0.0, 0.0, 1.695756190297679E9, 0.0, 2023-09-26 14:23:10.297
96.0, -160540.46577697585, 30443.277113828317, -49117.51140564816, -39444.63753040285, 2690.3453696185793, -13695.47262137802, -187500.02235174447, -253.08880246744187, 5769.588741015046, -33504.706144893906, -747.1070584186385, -20729.208973551868, -23898.708689058865, -21277.184340618176, -26559.97443914109, -40969.38413016607, -0.008, 1.016, 0.026000000000000002, 192.0, 0.0, 0.0, 0.0, 0.0, 0.0, 0.0, 0.0, 0.0, 0.0, 1.695756190297694E9, 0.0, 2023-09-26 14:23:10.297
98.0, -160553.40743701547, 30437.800936436768, -49118.40547542638, -39446.917408337285, 2688.1772504064147, -13695.763194055939, -187500.02235174447, -249.0431367210313, 5767.912360180898, -33515.12205781008, -746.3023956182475, -20737.613229467064, -23893.187808178405, -21279.866549952814, -26555.548793738937, -40962.768013807305, -0.006, 1.016, 0.034, 192.0, 127.5, 104.0, 15.5, 96.0, 0.5, 8.0, 0.0, 0.0, 0.0, 1.695756190297707E9, 0.0, 2023-09-26 14:23:10.297
100.0, -160541.47160547634, 30441.667788227536, -49120.50653940518, -39448.593789171435, 2683.1704596484255, -13697.23840918999, -187500.02235174447, -260.4648781376932, 5769.387575314949, -33498.51471167978, -743.9554624504402, -20726.01267409476, -23900.049793726183, -21277.899596440744, -26567.417570044705, -40972.91570579001, -0.006, 1.016, 0.034, 192.0, 0.0, 0.0, 0.0, 0.0, 0.0, 0.0, 0.0, 0.0, 0.0, 1.695756190297718E9, 0.0, 2023-09-26 14:23:10.297
102.0, -160546.76896891225, 30434.582285235203, -49126.38504819692, -39451.678329906266, 2677.8507444680627, -13699.205362702056, -187500.02235174447, -245.08687795244194, 5766.928883424865, -33505.48845594984, -744.3354421061805, -20739.58018297913, -23897.97108149184, -21272.043439393456, -26560.35441879683, -40960.57754285068, -0.006, 1.016, 0.034, 192.0, 0.0, 0.0, 0.0, 0.0, 0.0, 0.0, 0.0, 0.0, 0.0, 1.695756190297767E9, 0.0, 2023-09-26 14:23:10.297
104.0, -160505.66411085895, 30427.653244454057, -49133.2470337447, -39462.47422247818, 2675.0120729222385, -13703.966284271037, -187500.02235174447, -252.68647106724634, 5746.99112737073, -33485.416589428976, -752.091497432172, -20718.904819357973, -23918.825259068642, -21286.750887245045, -26579.599270772847, -40975.93319129148, -0.006, 1.016, 0.034, 192.0, 0.0, 0.0, 0.0, 0.0, 0.0, 0.0, 0.0, 0.0, 0.0, 1.695756190297776E9, 0.0, 2023-09-26 14:23:10.297
106.0, -160541.20338454287, 30433.531753245803, -49119.634821371415, -39446.80564961501, 2687.6631602839425, -13688.588284085785, -187500.02235174447, -250.69716581072402, 5758.435220531848, -33517.133714811054, -758.7299655353983, -20744.92224990395, -23902.419078638446, -21275.932642928678, -26571.083256135378, -40966.79132780926, -0.006, 1.016, 0.034, 192.0, 0.0, 0.0, 0.0, 0.0, 0.0, 0.0, 0.0, 0.0, 0.0, 1.69575619035782E9, 0.0, 2023-09-26 14:23:10.357
108.0, -160530.0498640597, 30438.382081792606, -49115.70091434728, -39443.87757109137, 2689.0042649512607, -13685.101411950758, -187500.02235174447, -255.30162516851726, 5767.040642147141, -33501.64395590353, -748.090535174672, -20733.120528831547, -23900.20625593737, -21280.31358484192, -26563.796587442946, -40962.25392368483, -0.008, 1.016, 0.036000000000000004, 192.0, 127.5, 96.0, 15.5, 96.0, 0.5, 16.0, 0.0, 0.0, 0.0, 1.695756190357856E9, 0.0, 2023-09-26 14:23:10.357
110.0, -160575.62507100406, 30439.387910293095, -49111.27526894513, -39441.888265834845, 2691.2170876523364, -13688.409470130144, -187500.02235174447, -254.98870074614297, 5777.188334129851, -33502.85095010411, -744.8495322286526, -20755.002886653292, -23886.102305186072, -21262.45454102213, -26558.007485629023, -40957.940037004955, -0.008, 1.016, 0.036000000000000004, 192.0, 0.0, 0.0, 0.0, 0.0, 0.0, 0.0, 0.0, 0.0, 0.0, 1.695756190357868E9, 0.0, 2023-09-26 14:23:10.357
112.0, -160539.81757638665, 30433.911732901543, -49122.227623728235, -39449.97959732766, 2674.8556107110517, -13697.059595234346, -187500.02235174447, -242.13644768434142, 5769.499334037225, -33483.06965626117, -740.803866482242, -20732.53938347571, -23901.279139671224, -21270.478817281582, -26573.11726488081, -40973.474499401396, -0.008, 1.016, 0.036000000000000004, 192.0, 0.0, 0.0, 0.0, 0.0, 0.0, 0.0, 0.0, 0.0, 0.0, 1.695756190357878E9, 0.0, 2023-09-26 14:23:10.357
114.0, -160571.13237036855, 30432.25770381185, -49114.35980967997, -39440.18953325624, 2678.76716599073, -13689.415298630633, -187500.02235174447, -243.54460758502574, 5768.202932858817, -33502.51567393728, -744.2236833839039, -20744.788139437216, -23895.333575646113, -21264.712067212113, -26567.462273533616, -40959.99639749484, -0.008, 1.016, 0.036000000000000004, 192.0, 0.0, 0.0, 0.0, 0.0, 0.0, 0.0, 0.0, 0.0, 0.0, 1.695756190357888E9, 0.0, 2023-09-26 14:23:10.357
116.0, -160547.57363171264, 30439.45496552646, -49125.803902841086, -39450.78426012806, 2668.9547501748502, -13700.390005158188, -187500.02235174447, -246.2044651752073, 5764.805467701611, -33492.85972033259, -736.6687937580102, -20730.43831949691, -23899.043965225694, -21271.462294037618, -26570.971497413102, -40963.192696951955, -0.008, 1.016, 0.036000000000000004, 192.0, 0.0, 0.0, 0.0, 0.0, 0.0, 0.0, 0.0, 0.0, 0.0, 1.6957561903579E9, 0.0, 2023-09-26 14:23:10.357
118.0, -160569.32187906766, 30432.324759045216, -49116.12559749193, -39442.82703910197, 2676.6661020119313, -13690.130554453202, -187500.02235174447, -249.60193033241396, 5754.277796063161, -33496.12307502307, -748.5599218082335, -20736.339180033112, -23912.231494454325, -21279.55362553044, -26578.369924827806, -40969.29472318825, -0.006, 1.01, 0.036000000000000004, 192.0, 127.5, 104.0, 15.5, 72.0, 0.5, 16.0, 0.0, 0.0, 0.0, 1.695756190357911E9, 0.0, 2023-09-26 14:23:10.357
120.0, -160546.21017530086, 30438.20326783696, -49124.14987375139, -39452.10301305092, 2676.6213985230206, -13695.539676611386, -187500.02235174447, -243.90223549631068, 5763.129086867462, -33487.852929574605, -742.3014333607475, -20732.114700331058, -23911.15861072047, -21273.697468483148, -26568.78102645648, -40961.96335100691, -0.006, 1.01, 0.036000000000000004, 192.0, 0.0, 0.0, 0.0, 0.0, 0.0, 0.0, 0.0, 0.0, 0.0, 1.69575619041678E9, 0.0, 2023-09-26 14:23:10.416
122.0, -160556.08964635013, 30429.55314273276, -49129.067257531555, -39454.71816715219, 2668.4630117968336, -13702.312255181343, -187500.02235174447, -252.08297396695306, 5759.843380432532, -33498.24649074632, -753.1867329104821, -20739.20020332339, -23913.14791597699, -21283.97927093259, -26570.479759035083, -40964.220877196894, -0.006, 1.01, 0.036000000000000004, 192.0, 0.0, 0.0, 0.0, 0.0, 0.0, 0.0, 0.0, 0.0, 0.0, 1.695756190416796E9, 0.0, 2023-09-26 14:23:10.416
124.0, -160559.68827720743, 30431.341282289184, -49125.71449586326, -39451.43246071726, 2676.062604911638, -13703.608656359751, -187500.02235174447, -266.7680700740898, 5758.882255420954, -33506.33782223914, -755.7124800339318, -20737.68028470043, -23916.657139856477, -21282.705221498636, -26578.727552739092, -40974.01094126832, -0.006, 1.01, 0.036000000000000004, 192.0, 0.0, 0.0, 0.0, 0.0, 0.0, 0.0, 0.0, 0.0, 0.0, 1.695756190416831E9, 0.0, 2023-09-26 14:23:10.416
126.0, -160571.9370331689, 30422.557046718248, -49127.9943737977, -39452.639454917844, 2671.525200787211, -13702.46871739253, -187500.02235174447, -266.34338692943896, 5750.992089628231, -33507.18718852844, -756.383032367591, -20748.58793599462, -23911.672700842944, -21273.7198202276, -26578.727552739092, -40970.524069133295, -0.006, 1.01, 0.036000000000000004, 192.0, 0.0, 0.0, 0.0, 0.0, 0.0, 0.0, 0.0, 0.0, 0.0, 1.69575619041684E9, 0.0, 2023-09-26 14:23:10.416
128.0, -160584.67752750847, 30422.22177055142, -49120.73005684973, -39448.95141708272, 2679.258904368747, -13696.098470222769, -187500.02235174447, -266.7010148407239, 5751.32736579506, -33515.92672061047, -756.6065498121441, -20748.073845872146, -23910.39865140899, -21295.333957115887, -26585.142503397765, -40971.10521448913, -0.006, 1.014, 0.034, 192.0, 127.5, 104.0, 15.5, 88.0, 0.5, 8.0, 0.0, 0.0, 0.0, 1.695756190416867E9, 0.0, 2023-09-26 14:23:10.416
130.0, -160590.0642979222, 30432.0341863673, -49123.23345222872, -39448.19145777124, 2673.827430466107, -13701.529944125408, -187500.02235174447, -259.3025874260172, 5774.304959095116, -33510.718764152385, -744.3130903617251, -20757.01454365427, -23892.941938989396, -21273.29513708295, -26569.049247389943, -40956.755394548825, -0.006, 1.014, 0.034, 192.0, 0.0, 0.0, 0.0, 0.0, 0.0, 0.0, 0.0, 0.0, 0.0, 1.695756190416877E9, 0.0, 2023-09-26 14:23:10.416
132.0, -160577.9049489385, 30437.510363758847, -49120.73005684973, -39445.88922809234, 2669.29002634168, -13697.23840918999, -187500.02235174447, -251.41242163329383, 5756.401211786415, -33494.11141802209, -748.9846049528844, -20736.00390386628, -23917.08182300113, -21286.92970120069, -26587.668250521216, -40974.368569179605, -0.006, 1.014, 0.034, 192.0, 0.0, 0.0, 0.0, 0.0, 0.0, 0.0, 0.0, 0.0, 0.0, 1.695756190416885E9, 0.0, 2023-09-26 14:23:10.416
134.0, -160595.74164101382, 30443.99236965089, -49105.57557410903, -39434.7580593536, 2684.3103986156466, -13689.728223053005, -187500.02235174447, -250.25013092161788, 5774.0367381616525, -33491.47391217636, -740.736811248876, -20743.715255703362, -23902.284968171713, -21271.149369615243, -26575.41949455971, -40959.8175835392, -0.006, 1.014, 0.034, 192.0, 0.0, 0.0, 0.0, 0.0, 0.0, 0.0, 0.0, 0.0, 0.0, 1.695756190416894E9, 0.0, 2023-09-26 14:23:10.416
136.0, -160584.63282401953, 30444.104128373165, -49119.3442486935, -39448.28086474906, 2674.743851988775, -13700.747633069472, -187500.02235174447, -243.4104971182939, 5769.365223570493, -33491.96565055438, -734.7241919903985, -20739.602534723585, -23901.30149141568, -21275.73147722858, -26568.57986075638, -40962.119813218094, -0.006, 1.014, 0.034, 192.0, 0.0, 0.0, 0.0, 0.0, 0.0, 0.0, 0.0, 0.0, 0.0, 1.69575619047707E9, 0.0, 2023-09-26 14:23:10.477
138.0, -160563.644535976, 30434.69404395748, -49125.28981271861, -39453.555876440514, 2664.0150146502274, -13709.487165151497, -187500.02235174447, -254.83223853495582, 5761.09507812203, -33480.74507483782, -745.3412706066694, -20732.15940381997, -23911.44918339839, -21287.890826212268, -26582.54970104095, -40976.64844711405, -0.004, 1.018, 0.034, 192.0, 127.5, 112.0, 15.5, 104.0, 0.5, 8.0, 0.0, 0.0, 0.0, 1.695756190477086E9, 0.0, 2023-09-26 14:23:10.477
140.0, -160550.79228291422, 30438.73970970389, -49129.916623820856, -39454.964036341196, 2656.3036628131467, -13719.120767011735, -187500.02235174447, -251.52418035557037, 5754.5460169966245, -33494.53610116674, -749.1634189085269, -20736.786214922216, -23918.48998290181, -21290.26011112453, -26582.817921974412, -40973.49685114585, -0.004, 1.018, 0.034, 192.0, 0.0, 0.0, 0.0, 0.0, 0.0, 0.0, 0.0, 0.0, 0.0, 1.695756190477096E9, 0.0, 2023-09-26 14:23:10.477
142.0, -160524.0819482901, 30440.527849260314, -49122.361734194965, -39452.19242002874, 2661.9810059047945, -13716.103281510268, -187500.02235174447, -255.59219784643625, 5738.832740644543, -33482.08617950513, -751.4656485874234, -20721.72113915934, -23931.83397434163, -21292.27176812551, -26592.585634301384, -40984.560964651224, -0.004, 1.018, 0.034, 192.0, 0.0, 0.0, 0.0, 0.0, 0.0, 0.0, 0.0, 0.0, 0.0, 1.695756190477104E9, 0.0, 2023-09-26 14:23:10.477
144.0, -160560.00120162978, 30457.157547135062, -49093.840908269995, -39425.169160982274, 2690.032445196205, -13690.75640329795, -187500.02235174447, -246.71855529767936, 5761.676223477867, -33508.17066528447, -741.317956604714, -20739.758996934772, -23908.02936649673, -21286.63912852277, -26571.463235791118, -40963.97500800789, -0.004, 1.018, 0.034, 192.0, 0.0, 0.0, 0.0, 0.0, 0.0, 0.0, 0.0, 0.0, 0.0, 1.695756190477113E9, 0.0, 2023-09-26 14:23:10.477
146.0, -160582.82233271867, 30470.099207174684, -49078.86523948494, -39405.83490202843, 2704.471672114333, -13673.411449600631, -187500.02235174447, -240.8847499948442, 5803.026950720186, -33479.314563192675, -712.7524271908317, -20737.09913934459, -23877.496883570777, -21250.09402633834, -26543.68001743317, -40931.162647147496, -0.004, 1.018, 0.034, 192.0, 0.0, 0.0, 0.0, 0.0, 0.0, 0.0, 0.0, 0.0, 0.0, 1.695756190477146E9, 0.0, 2023-09-26 14:23:10.477
148.0, -160579.402515817, 30459.8397564697, -49103.29569617459, -39428.745440095125, 2676.442584567378, -13689.974092242015, -187500.02235174447, -233.68748828023533, 5787.403081345926, -33463.57893509614, -715.8146161812086, -20732.248810797788, -23896.67468031343, -21258.20770957562, -26558.54392749595, -40943.52316183128, -0.002, 1.016, 0.036000000000000004, 192.0, 127.5, 120.0, 15.5, 96.0, 0.5, 16.0, 0.0, 0.0, 0.0, 1.695756190477155E9, 0.0, 2023-09-26 14:23:10.477
150.0, -160559.6435737185, 30457.91750644654, -49107.22960319872, -39432.165256996785, 2673.939189188384, -13690.108202708747, -187500.02235174447, -243.14227618483022, 5772.181543371862, -33456.98517048182, -726.7446192198538, -20716.893162356995, -23911.203314209382, -21276.62554700679, -26579.286346350476, -40958.25296142733, -0.002, 1.016, 0.036000000000000004, 192.0, 0.0, 0.0, 0.0, 0.0, 0.0, 0.0, 0.0, 0.0, 0.0, 1.695756190537441E9, 0.0, 2023-09-26 14:23:10.537
152.0, -160599.69789978242, 30459.482128558415, -49100.94876300678, -39433.148733752816, 2678.2754276127134, -13693.349205654766, -187500.02235174447, -246.24916866411792, 5781.926903954376, -33490.82571158716, -729.672697743499, -20744.184642336924, -23895.378279135024, -21267.72955271358, -26572.35730556933, -40948.999339222835, -0.002, 1.016, 0.036000000000000004, 192.0, 0.0, 0.0, 0.0, 0.0, 0.0, 0.0, 0.0, 0.0, 0.0, 1.695756190537459E9, 0.0, 2023-09-26 14:23:10.537
154.0, -160572.58523375815, 30460.577364036726, -49107.52017587664, -39442.737632124146, 2667.680700740898, -13703.653359848662, -187500.02235174447, -250.92068325527708, 5778.28356960816, -33470.82090029966, -729.0244971542952, -20732.606438709074, -23895.758258790764, -21280.98413717558, -26576.939413182667, -40960.48813587286, -0.002, 1.016, 0.036000000000000004, 192.0, 0.0, 0.0, 0.0, 0.0, 0.0, 0.0, 0.0, 0.0, 0.0, 1.695756190537468E9, 0.0, 2023-09-26 14:23:10.537
156.0, -160579.96130942838, 30456.330532590215, -49110.694123589295, -39445.106917036406, 2663.724441972309, -13709.487165151497, -187500.02235174447, -260.01784324858704, 5764.403136301415, -33478.10756899209, -740.4685903154124, -20742.172985335947, -23901.30149141568, -21282.749924987547, -26590.462218578126, -40971.44049065596, -0.002, 1.016, 0.036000000000000004, 192.0, 0.0, 0.0, 0.0, 0.0, 0.0, 0.0, 0.0, 0.0, 0.0, 1.695756190537477E9, 0.0, 2023-09-26 14:23:10.537
158.0, -160554.61443121606, 30452.55308777727, -49110.91764103385, -39445.46454494769, 2663.009186149739, -13710.850621563271, -187500.02235174447, -264.7340613286569, 5758.435220531848, -33469.5021473768, -736.9593664359292, -20726.727929917328, -23894.908892501462, -21282.012317420522, -26591.64686103426, -40975.95554303593, -0.004, 1.02, 0.03, 192.0, 127.5, 112.0, 15.5, 112.0, 0.0, 120.0, 0.0, 0.0, 0.0, 1.695756190537486E9, 0.0, 2023-09-26 14:23:10.537
160.0, -160599.1167544266, 30461.717303003945, -49092.27628615812, -39423.291614448026, 2681.3376166030907, -13690.66699632013, -187500.02235174447, -255.7263083131681, 5773.120316638985, -33487.13767375203, -730.9690989219068, -20744.54227024821, -23860.15192987346, -21267.59544224685, -26573.318430580908, -40955.146068948045, -0.004, 1.02, 0.03, 192.0, 0.0, 0.0, 0.0, 0.0, 0.0, 0.0, 0.0, 0.0, 0.0, 1.695756190537495E9, 0.0, 2023-09-26 14:23:10.537
162.0, -160557.25193706178, 30467.55110830678, -49110.96234452276, -39438.602559399915, 2669.1559158749483, -13704.815650560338, -187500.02235174447, -250.69716581072402, 5772.092136394041, -33458.10275770459, -712.0595231127171, -20718.86011586906, -23846.316200055626, -21261.426360777183, -26570.25624159053, -40954.922551503485, -0.004, 1.02, 0.03, 192.0, 0.0, 0.0, 0.0, 0.0, 0.0, 0.0, 0.0, 0.0, 0.0, 1.695756190537504E9, 0.0, 2023-09-26 14:23:10.537
164.0, -160587.91853045448, 30461.739654748402, -49102.312219418556, -39428.96895753968, 2676.6661020119313, -13687.113068951736, -187500.02235174447, -253.4911338676374, 5774.439069561848, -33457.70042630439, -715.7475609478428, -20727.644351439998, -23838.180165073893, -21255.30198279643, -26568.35634331183, -40952.24034216885, -0.004, 1.02, 0.03, 192.0, 0.0, 0.0, 0.0, 0.0, 0.0, 0.0, 0.0, 0.0, 0.0, 1.695756190537513E9, 0.0, 2023-09-26 14:23:10.537
166.0, -160569.0536581342, 30464.913602461056, -49108.3918939104, -39431.07002151848, 2673.7156717438306, -13681.502781093453, -187500.02235174447, -254.8098867905005, 5764.514895023692, -33445.58578080962, -712.3947992795466, -20709.89706634248, -23841.756444186743, -21258.49828225354, -26566.255279333032, -40955.79426953725, -0.004, 1.02, 0.03, 192.0, 0.0, 0.0, 0.0, 0.0, 0.0, 0.0, 0.0, 0.0, 0.0, 1.695756190597722E9, 0.0, 2023-09-26 14:23:10.597
168.0, -160582.62116701857, 30455.68233200101, -49124.395742940396, -39438.870780333375, 2661.0198808932164, -13686.286054406888, -187500.02235174447, -249.22195067667374, 5774.148496883929, -33452.42541461294, -714.5629184917115, -20724.269238027246, -23831.988731859772, -21255.86077640781, -26550.765520425502, -40944.95367347642, -0.004, 1.02, 0.03, 192.0, 0.0, 0.0, 15.5, 96.0, 0.5, 16.0, 0.0, 0.0, 0.0, 1.695756190597764E9, 0.0, 2023-09-26 14:23:10.597
170.0, -160564.2927365652, 30466.16530015055, -49128.46376043127, -39434.31102446449, 2664.5067530282445, -13680.18402817059, -187500.02235174447, -238.247244149118, 5774.751993984222, -33451.53134483473, -714.451159769435, -20712.62397916603, -23837.621371462512, -21257.268936308497, -26549.424415758185, -40955.548400348234, -0.004, 1.02, 0.03, 192.0, 0.0, 0.0, 0.0, 0.0, 0.0, 0.0, 0.0, 0.0, 0.0, 1.695756190597774E9, 0.0, 2023-09-26 14:23:10.597
172.0, -160569.12071336756, 30460.130329147618, -49137.65032740239, -39429.863027317886, 2663.7914972056747, -13672.316214122322, -187500.02235174447, -230.82646498995604, 5771.131011382462, -33449.6985017894, -721.4919592728567, -20719.173040291436, -23836.973170873305, -21255.838424663358, -26541.601305198827, -40958.431775382975, -0.004, 1.02, 0.03, 192.0, 0.0, 0.0, 0.0, 0.0, 0.0, 0.0, 0.0, 0.0, 0.0, 1.695756190597783E9, 0.0, 2023-09-26 14:23:10.597
174.0, -160557.6989719509, 30456.397587823583, -49143.66294666087, -39432.858161074895, 2662.226875093803, -13672.942062967071, -187500.02235174447, -223.22687187515163, 5774.483773050759, -33450.97255122335, -722.1178081176053, -20716.624941423528, -23831.496993481756, -21246.696561181136, -26524.748089879526, -40952.95559799142, -0.004, 1.02, 0.03, 192.0, 0.0, 0.0, 0.0, 0.0, 0.0, 0.0, 0.0, 0.0, 0.0, 1.695756190597791E9, 0.0, 2023-09-26 14:23:10.597
176.0, -160564.78447494324, 30450.586134265202, -49145.361679239475, -39433.72987910866, 2657.5330087581883, -13674.797257756862, -187500.02235174447, -224.92560445375497, 5758.56933099858, -33453.72181579135, -735.707668746432, -20723.464575226855, -23832.458118493334, -21248.775273415482, -26523.317578234386, -40963.63973184106, -0.004, 1.02, 0.03, 192.0, 0.0, 0.0, 0.0, 0.0, 0.0, 0.0, 0.0, 0.0, 0.0, 1.6957561905978E9, 0.0, 2023-09-26 14:23:10.597
178.0, -160563.91275690947, 30454.63180001161, -49149.273234519154, -39434.199265742216, 2663.009186149739, -13674.082001934292, -187500.02235174447, -219.56118578448127, 5774.416717817392, -33466.730531064335, -733.8748257010968, -20726.236191539312, -23823.629179433487, -21244.707255924615, -26512.387575195742, -40962.87977252958, -0.004, 1.018, 0.034, 192.0, 127.5, 112.0, 15.5, 104.0, 0.5, 8.0, 0.0, 0.0, 0.0, 1.695756190597809E9, 0.0, 2023-09-26 14:23:10.597
180.0, -160575.5580157707, 30453.31304708875, -49141.85245535999, -39422.28578594754, 2671.5028490427553, -13664.336641351778, -187500.02235174447, -225.41734283177172, 5770.013424159697, -33461.47787111734, -733.1148663896164, -20727.48788922881, -23824.702063167344, -21244.193165802142, -26512.76755485148, -40964.28793243026, -0.004, 1.018, 0.034, 192.0, 0.0, 0.0, 0.0, 0.0, 0.0, 0.0, 0.0, 0.0, 0.0, 1.695756190658034E9, 0.0, 2023-09-26 14:23:10.658
182.0, -160571.55705351318, 30455.07883490072, -49145.518141450666, -39425.07975400445, 2667.613645507532, -13667.08590591978, -187500.02235174447, -213.28034559254, 5774.483773050759, -33459.265048416266, -729.6503459990438, -20727.711406673363, -23825.81965039011, -21237.10766280981, -26508.118392004777, -40956.57658059318, -0.004, 1.018, 0.034, 192.0, 0.0, 0.0, 0.0, 0.0, 0.0, 0.0, 0.0, 0.0, 0.0, 1.695756190658051E9, 0.0, 2023-09-26 14:23:10.658
184.0, -160559.26359406277, 30444.260590584352, -49148.26740601867, -39428.23134997265, 2662.76331696073, -13670.259853632433, -187500.02235174447, -219.58353752893657, 5762.4138310448925, -33448.31269363316, -732.7125349894209, -20717.474307712833, -23831.00525510374, -21247.769444914993, -26518.847229343326, -40961.44926088444, -0.004, 1.018, 0.034, 192.0, 0.0, 0.0, 0.0, 0.0, 0.0, 0.0, 0.0, 0.0, 0.0, 1.695756190658062E9, 0.0, 2023-09-26 14:23:10.658
186.0, -160573.4569517919, 30445.758157462857, -49140.35488848149, -39422.46459990318, 2664.4620495393337, -13665.141304152168, -187500.02235174447, -223.33863059742816, 5763.8219909455765, -33465.970571752856, -733.3830873230801, -20719.284799013712, -23835.587362717077, -21245.891898380745, -26523.00465381201, -40961.44926088444, -0.004, 1.018, 0.034, 192.0, 0.0, 0.0, 0.0, 0.0, 0.0, 0.0, 0.0, 0.0, 0.0, 1.695756190658072E9, 0.0, 2023-09-26 14:23:10.658
188.0, -160595.49577182482, 30452.41897731054, -49125.20040574079, -39409.32177416346, 2684.2433433822803, -13649.383324311177, -187500.02235174447, -218.667116006269, 5789.52649706918, -33465.21061244138, -719.4355987829684, -20720.402386236477, -23822.399833488445, -21239.63340993326, -26512.8569618293, -40952.4638596134, -0.004, 1.014, 0.034, 192.0, 127.5, 112.0, 15.5, 88.0, 0.5, 8.0, 0.0, 0.0, 0.0, 1.69575619065808E9, 0.0, 2023-09-26 14:23:10.658
190.0, -160600.39080386053, 30453.380102322117, -49134.16345526737, -39421.123495235865, 2677.8507444680627, -13662.3249843508, -187500.02235174447, -200.56220299747028, 5793.616866304501, -33462.52840310674, -713.802959180231, -20725.09625257209, -23819.985845087274, -21232.704369152114, -26506.889046059736, -40946.138315932556, -0.004, 1.014, 0.034, 192.0, 0.0, 0.0, 0.0, 0.0, 0.0, 0.0, 0.0, 0.0, 0.0, 1.695756190658108E9, 0.0, 2023-09-26 14:23:10.658
192.0, -160579.22370186137, 30447.25572434136, -49135.41515295686, -39425.727954593654, 2671.2122763648363, -13667.376478597698, -187500.02235174447, -215.29200259351762, 5780.027005675674, -33436.98035919433, -721.2460900838483, -20707.460726196852, -23837.397854017956, -21237.666456421193, -26519.607188654805, -40964.846726041644, -0.004, 1.014, 0.034, 192.0, 0.0, 0.0, 0.0, 0.0, 0.0, 0.0, 0.0, 0.0, 0.0, 1.695756190658117E9, 0.0, 2023-09-26 14:23:10.658
194.0, -160588.32086185468, 30446.741634218888, -49135.12458027895, -39427.00200402761, 2674.185058377392, -13671.511551321932, -187500.02235174447, -205.7478077111015, 5777.054223663119, -33456.53813559272, -719.9496889054404, -20715.686168156408, -23830.491164981268, -21228.14461328323, -26512.186409495644, -40956.57658059318, -0.004, 1.014, 0.034, 192.0, 0.0, 0.0, 0.0, 0.0, 0.0, 0.0, 0.0, 0.0, 0.0, 1.695756190658126E9, 0.0, 2023-09-26 14:23:10.658
196.0, -160569.16541685647, 30448.350959819672, -49132.04003954411, -39426.26439646058, 2674.520334544222, -13671.243330388466, -187500.02235174447, -214.8449677044115, 5771.265121849194, -33446.72571977684, -721.1790348504824, -20699.950540059872, -23846.96440064483, -21248.372942015285, -26522.937598578646, -40966.903086531536, -0.004, 1.014, 0.034, 192.0, 0.0, 0.0, 0.0, 0.0, 0.0, 0.0, 0.0, 0.0, 0.0, 1.695756190717421E9, 0.0, 2023-09-26 14:23:10.717
198.0, -160586.7562397428, 30451.010817409853, -49130.00603079868, -39423.96216678169, 2676.6884537563865, -13669.99163269897, -187500.02235174447, -212.3639240698724, 5777.948293441331, -33462.394292640005, -726.6328604975773, -20717.09432805709, -23846.852641922553, -21251.278668794475, -26516.38853745324, -40959.72817656138, -0.004, 1.016, 0.03, 192.0, 127.5, 112.0, 15.5, 96.0, 0.0, 120.0, 0.0, 0.0, 0.0, 1.695756190717442E9, 0.0, 2023-09-26 14:23:10.717
200.0, -160581.61533851808, 30460.711474503456, -49118.56193763756, -39412.115742220376, 2694.346331876079, -13653.697210991051, -187500.02235174447, -204.54081351051494, 5776.853057963021, -33448.692673288904, -720.8661104281081, -20710.209990764855, -23836.168508072915, -21241.44390123414, -26507.313729204387, -40944.28312114276, -0.004, 1.016, 0.03, 192.0, 0.0, 0.0, 0.0, 0.0, 0.0, 0.0, 0.0, 0.0, 0.0, 1.695756190717451E9, 0.0, 2023-09-26 14:23:10.717
202.0, -160584.16343738599, 30444.41705279554, -49135.213987256764, -39426.510265649595, 2672.9780641768057, -13671.04216468837, -187500.02235174447, -207.84887168990036, 5773.813220717099, -33455.57701058114, -729.3597733211247, -20720.24592402529, -23835.38619701698, -21244.17081405769, -26511.85113332881, -40945.423060109984, -0.004, 1.016, 0.03, 192.0, 0.0, 0.0, 0.0, 0.0, 0.0, 0.0, 0.0, 0.0, 0.0, 1.69575619071746E9, 0.0, 2023-09-26 14:23:10.717
204.0, -160557.45310276188, 30444.55116326227, -49135.03517330113, -39424.49860864862, 2674.0062444217497, -13669.522246065408, -187500.02235174447, -220.41055207378295, 5764.04550839013, -33438.52262956174, -733.2936803452588, -20701.693976127386, -23856.10626412705, -21244.215517546596, -26526.647988158227, -40961.00222599533, -0.004, 1.016, 0.03, 192.0, 0.0, 0.0, 0.0, 0.0, 0.0, 0.0, 0.0, 0.0, 0.0, 1.695756190717469E9, 0.0, 2023-09-26 14:23:10.717
206.0, -160585.97392868687, 30440.237276582397, -49129.849568587495, -39420.22942545765, 2679.7953462356745, -13658.882815704683, -187500.02235174447, -212.989772914621, 5762.145610111429, -33456.29226640371, -739.7309827483872, -20722.01171183726, -23847.43378727839, -21234.783081386457, -26517.751993865015, -40950.00516772332, -0.004, 1.016, 0.03, 192.0, 0.0, 0.0, 0.0, 0.0, 0.0, 0.0, 0.0, 0.0, 0.0, 1.695756190717477E9, 0.0, 2023-09-26 14:23:10.717
208.0, -160563.644535976, 30443.74650046188, -49138.27617624714, -39425.5044371491, 2671.7487182317636, -13662.861426217727, -187500.02235174447, -219.91881369576618, 5766.392441557938, -33448.02212095525, -735.0147646683174, -20713.272179755233, -23850.49597626877, -21241.466252978596, -26524.546924179427, -40957.023615482285, -0.002, 1.014, 0.034, 192.0, 127.5, 120.0, 15.5, 88.0, 0.5, 8.0, 0.0, 0.0, 0.0, 1.695756190717486E9, 0.0, 2023-09-26 14:23:10.717
210.0, -160614.13712670055, 30446.65222724107, -49128.3967051979, -39412.518073620566, 2686.7020352723644, -13653.808969713327, -187500.02235174447, -222.33280209693936, 5776.137802140451, -33462.416644384466, -733.9418809344627, -20734.081653843125, -23841.734092442286, -21238.87345062178, -26521.10475553331, -40949.17815317847, -0.002, 1.014, 0.034, 192.0, 0.0, 0.0, 0.0, 0.0, 0.0, 0.0, 0.0, 0.0, 0.0, 1.695756190777413E9, 0.0, 2023-09-26 14:23:10.777
212.0, -160603.1177166841, 30462.231393126418, -49129.82721684304, -39415.22263469966, 2686.903200972462, -13651.84201620126, -187500.02235174447, -212.54273802551486, 5774.841400962044, -33448.80443201118, -727.9292616759851, -20719.2400955248, -23845.377426788502, -21234.023122074977, -26524.39046196824, -40953.2685224138, -0.002, 1.014, 0.034, 192.0, 0.0, 0.0, 0.0, 0.0, 0.0, 0.0, 0.0, 0.0, 0.0, 1.695756190777499E9, 0.0, 2023-09-26 14:23:10.777
214.0, -160611.99135923284, 30443.053596383765, -49143.39472572741, -39429.97478604016, 2672.6651397544315, -13664.448400074054, -187500.02235174447, -215.42611306024946, 5774.19320037284, -33454.90645824748, -731.7290582333873, -20729.23132529632, -23843.633990720988, -21234.73837789755, -26520.501258433018, -40947.948807233435, -0.002, 1.014, 0.034, 192.0, 0.0, 0.0, 0.0, 0.0, 0.0, 0.0, 0.0, 0.0, 0.0, 1.695756190777507E9, 0.0, 2023-09-26 14:23:10.777
216.0, -160564.51625400977, 30431.564799733736, -49161.365528269474, -39449.66667290529, 2657.130677357993, -13680.452249104053, -187500.02235174447, -212.40862755878302, 5754.7248309522665, -33449.4973360893, -744.3354421061805, -20710.56761867614, -23879.06150568265, -21261.49341601055, -26546.58574421236, -40973.29568544575, -0.002, 1.014, 0.034, 192.0, 0.0, 0.0, 0.0, 0.0, 0.0, 0.0, 0.0, 0.0, 0.0, 1.695756190777516E9, 0.0, 2023-09-26 14:23:10.777
218.0, -160591.5171613118, 30427.094450842676, -49145.495789706205, -39434.065155275486, 2679.1471456464706, -13663.151998895646, -187500.02235174447, -214.28617409302882, 5751.863807661987, -33463.8471560296, -759.5793318246999, -20730.974761363836, -23877.027496937215, -21252.664476950704, -26541.154270309722, -40965.02553999729, -0.004, 1.01, 0.028, 192.0, 127.5, 112.0, 15.5, 72.0, 0.0, 112.0, 0.0, 0.0, 0.0, 1.695756190777525E9, 0.0, 2023-09-26 14:23:10.777
220.0, -160585.57159728667, 30437.55506724776, -49145.83106587304, -39438.177876255264, 2679.616532280032, -13672.070344933314, -187500.02235174447, -218.60006077290308, 5759.038717632141, -33461.72374030635, -750.3927648535687, -20728.314903773655, -23871.908947456952, -21243.902593124225, -26532.705310905614, -40958.94586550544, -0.004, 1.01, 0.028, 192.0, 0.0, 0.0, 0.0, 0.0, 0.0, 0.0, 0.0, 0.0, 0.0, 1.695756190777534E9, 0.0, 2023-09-26 14:23:10.777
222.0, -160593.9535014574, 30433.911732901543, -49145.786362384126, -39440.88243733435, 2674.9450176888727, -13674.305519378844, -187500.02235174447, -225.57380504295887, 5746.588795970535, -33464.16008045198, -757.6123783126329, -20736.473290499842, -23877.496883570777, -21255.905479896723, -26542.607133699315, -40970.032330755275, -0.004, 1.01, 0.028, 192.0, 0.0, 0.0, 0.0, 0.0, 0.0, 0.0, 0.0, 0.0, 0.0, 1.695756190777562E9, 0.0, 2023-09-26 14:23:10.777
224.0, -160581.0565449067, 30439.343206804184, -49143.21591177177, -39440.077774533966, 2675.4367560668893, -13675.020775201414, -187500.02235174447, -227.07137192146445, 5745.314746536583, -33461.79079553972, -753.1867329104821, -20731.511203230766, -23881.229624894815, -21255.972535130088, -26544.797604655934, -40970.50171738884, -0.004, 1.01, 0.028, 192.0, 0.0, 0.0, 0.0, 0.0, 0.0, 0.0, 0.0, 0.0, 0.0, 1.695756190777571E9, 0.0, 2023-09-26 14:23:10.777
226.0, -160581.83885596262, 30432.59297997868, -49139.59492917001, -39435.98740529864, 2673.425099065912, -13670.282205376889, -187500.02235174447, -224.45621782019353, 5759.865732176988, -33457.47690885984, -752.5161805768229, -20734.215764309858, -23886.504636586265, -21251.703351939126, -26545.244639545042, -40967.55128712074, -0.004, 1.01, 0.028, 192.0, 0.0, 0.0, 0.0, 0.0, 0.0, 0.0, 0.0, 0.0, 0.0, 1.695756190837513E9, 0.0, 2023-09-26 14:23:10.837
228.0, -160568.0478296337, 30438.337378303695, -49145.54049319512, -39438.401393699816, 2670.4970205422665, -13671.824475744304, -187500.02235174447, -217.795397972512, 5757.965833898286, -33462.52840310674, -748.962253208429, -20730.840650897106, -23888.20336916487, -21253.916174640202, -26540.707235420614, -40960.08580447266, -0.004, 1.014, 0.028, 192.0, 127.5, 112.0, 15.5, 88.0, 0.0, 112.0, 0.0, 0.0, 0.0, 1.695756190837555E9, 0.0, 2023-09-26 14:23:10.837
230.0, -160555.15087308298, 30430.64837821107, -49152.13425780943, -39447.36444322639, 2663.1880001053814, -13676.384231613189, -187500.02235174447, -227.92073821076613, 5743.258386046695, -33452.67128380195, -760.2051806694485, -20730.572429963642, -23893.43367736741, -21258.36417178681, -26547.412758757207, -40965.830202797675, -0.004, 1.014, 0.028, 192.0, 0.0, 0.0, 0.0, 0.0, 0.0, 0.0, 0.0, 0.0, 0.0, 1.695756190837564E9, 0.0, 2023-09-26 14:23:10.837
232.0, -160540.30931476466, 30429.68725319949, -49147.350984496, -39443.29642573553, 2668.842991452574, -13671.690365277573, -187500.02235174447, -219.0470956620092, 5735.770551654166, -33463.28836241822, -765.5248958498116, -20728.00197935128, -23903.35785190557, -21273.563358016418, -26556.219346072598, -40973.40744416803, -0.004, 1.014, 0.028, 192.0, 0.0, 0.0, 0.0, 0.0, 0.0, 0.0, 0.0, 0.0, 0.0, 1.695756190837572E9, 0.0, 2023-09-26 14:23:10.837
234.0, -160559.46475976286, 30430.7824886778, -49131.12361802145, -39429.46069591769, 2680.7564712472526, -13658.480484304488, -187500.02235174447, -215.40376131579416, 5755.99888038622, -33466.9987519978, -750.772744509309, -20731.265334041756, -23884.649441796475, -21243.053226834923, -26536.72862490757, -40950.742775290346, -0.004, 1.014, 0.028, 192.0, 0.0, 0.0, 0.0, 0.0, 0.0, 0.0, 0.0, 0.0, 0.0, 1.69575619083761E9, 0.0, 2023-09-26 14:23:10.837
236.0, -160570.0371348902, 30428.435555509994, -49130.45306568778, -39430.08654476244, 2682.4775555703113, -13663.621385529208, -187500.02235174447, -209.5029007795931, 5760.42452578837, -33477.88405154754, -739.3733548371023, -20737.47911900033, -23879.150912660472, -21247.702389681624, -26532.0124068275, -40948.708766544914, -0.004, 1.014, 0.028, 192.0, 0.0, 0.0, 0.0, 0.0, 0.0, 0.0, 0.0, 0.0, 0.0, 1.695756190837619E9, 0.0, 2023-09-26 14:23:10.837
238.0, -160562.92928015345, 30427.29561654277, -49133.20233025579, -39431.85233257441, 2678.3424828460793, -13671.690365277573, -187500.02235174447, -223.29392710851755, 5752.534359995647, -33466.05997873068, -743.7766484947978, -20727.979627606826, -23883.33068887361, -21256.888956652758, -26539.097909819833, -40956.420118382, -0.002, 1.016, 0.028, 192.0, 127.5, 120.0, 15.5, 96.0, 0.0, 112.0, 0.0, 0.0, 0.0, 1.695756190837628E9, 0.0, 2023-09-26 14:23:10.837
240.0, -160581.5035797958, 30417.170276304518, -49129.60369939848, -39429.12541975086, 2683.8186602376295, -13670.729240265995, -187500.02235174447, -217.795397972512, 5749.762743683189, -33491.78683659874, -745.967119451418, -20738.842575412105, -23881.028459194717, -21242.67324717918, -26534.940485351144, -40957.023615482285, -0.002, 1.016, 0.028, 192.0, 0.0, 0.0, 0.0, 0.0, 0.0, 0.0, 0.0, 0.0, 0.0, 1.695756190897774E9, 0.0, 2023-09-26 14:23:10.897
242.0, -160577.2567483493, 30413.191665791473, -49127.01089704167, -39427.31492844998, 2688.780747506708, -13669.589301298774, -187500.02235174447, -221.8857672078332, 5749.069839605074, -33457.99099898231, -737.3616978361247, -20726.683226428417, -23877.541587059688, -21260.64404972125, -26529.710177148605, -40956.040138726254, -0.002, 1.016, 0.028, 192.0, 0.0, 0.0, 0.0, 0.0, 0.0, 0.0, 0.0, 0.0, 0.0, 1.695756190897801E9, 0.0, 2023-09-26 14:23:10.897
244.0, -160586.17509438697, 30384.603784633135, -49146.546321695605, -39447.252684504114, 2675.9955496782723, -13686.286054406888, -187500.02235174447, -220.70112475170194, 5729.757932395689, -33475.0006765128, -752.4714770879123, -20742.44120626941, -23888.426886609424, -21272.8704539383, -26533.979360339566, -40965.561981864215, -0.002, 1.016, 0.028, 192.0, 0.0, 0.0, 0.0, 0.0, 0.0, 0.0, 0.0, 0.0, 0.0, 1.69575619089781E9, 0.0, 2023-09-26 14:23:10.897
246.0, -160556.51432949476, 30382.569775887703, -49153.743583410214, -39453.80174562952, 2671.0558141536494, -13679.915807237127, -187500.02235174447, -210.97811591364336, 5719.431426457337, -33487.94233655243, -763.736756293387, -20737.993209122804, -23900.295662915192, -21268.57891900288, -26542.92005812169, -40971.216973211405, -0.002, 1.016, 0.028, 192.0, 0.0, 0.0, 0.0, 0.0, 0.0, 0.0, 0.0, 0.0, 0.0, 1.69575619089782E9, 0.0, 2023-09-26 14:23:10.897
248.0, -160586.6444810205, 30358.80987153171, -49148.53562695213, -39443.74346062463, 2683.4163288374343, -13672.025641444403, -187500.02235174447, -208.36296181237245, 5705.014551283664, -33533.003453374324, -773.415061642535, -20760.456712300387, -23895.333575646113, -21271.596404504347, -26534.806374884414, -40959.906990517025, -0.002, 1.018, 0.024, 192.0, 127.5, 120.0, 15.5, 104.0, 0.0, 96.0, 0.0, 0.0, 0.0, 1.695756190897829E9, 0.0, 2023-09-26 14:23:10.897
250.0, -160572.2499575913, 30339.363853855593, -49159.06329859058, -39454.896981107835, 2671.3910903204787, -13678.395888614165, -187500.02235174447, -209.99463915760987, 5692.877554044432, -33476.14061548002, -779.092404734183, -20751.29249707371, -23902.419078638446, -21277.050230151443, -26541.69071217665, -40964.936133019466, -0.002, 1.018, 0.024, 192.0, 0.0, 0.0, 0.0, 0.0, 0.0, 0.0, 0.0, 0.0, 0.0, 1.695756190897838E9, 0.0, 2023-09-26 14:23:10.897
252.0, -160586.68918450942, 30336.72634800987, -49160.49381023572, -39454.65111191882, 2665.2667123397246, -13684.967301484026, -187500.02235174447, -222.57867128594773, 5677.454850370271, -33510.27172926327, -794.313942708247, -20770.939680449927, -23909.795154308697, -21282.325241842897, -26550.810223914414, -40970.457013899926, -0.002, 1.018, 0.024, 192.0, 0.0, 0.0, 0.0, 0.0, 0.0, 0.0, 0.0, 0.0, 0.0, 1.695756190897847E9, 0.0, 2023-09-26 14:23:10.897
254.0, -160561.76698944176, 30330.9595979404, -49165.74647018272, -39465.022321346085, 2665.378471062001, -13694.891476022181, -187500.02235174447, -239.45423834970455, 5671.464582856248, -33506.807208872706, -793.1293002521159, -20759.652049499997, -23921.373357936547, -21279.799494719446, -26556.554622239426, -40979.53182214878, -0.002, 1.018, 0.024, 192.0, 0.0, 0.0, 0.0, 0.0, 0.0, 0.0, 0.0, 0.0, 0.0, 1.695756190897856E9, 0.0, 2023-09-26 14:23:10.897
0.0, -160608.07980395315, 30319.448449545915, -49146.21104552878, -39443.922274580276, 2686.322055616624, -13677.99355721397, -187500.02235174447, -235.58738655893643, 5683.60158009548, -33533.20461907442, -793.3304659522136, -20786.83177075765, -23907.470572885344, -21291.44475358066, -26540.0143313425, -40963.50562137432, -0.002, 1.018, 0.024, 192.0, 0.0, 0.0, 0.0, 0.0, 0.0, 0.0, 0.0, 0.0, 0.0, 1.695756190958199E9, 0.0, 2023-09-26 14:23:10.958
2.0, -160583.6046437746, 30334.938208453445, -49152.73775490973, -39452.170068284286, 2683.639846281987, -13683.939121239082, -187500.02235174447, -223.22687187515163, 5699.001932025187, -33490.95982205389, -779.3829774121019, -20762.602479768095, -23905.190694950903, -21281.20765462013, -26538.740281908547, -40965.5172783753, -0.002, 1.018, 0.024, 192.0, 0.0, 0.0, 15.5, 104.0, 0.0, 104.0, 0.0, 0.0, 0.0, 1.695756190958222E9, 0.0, 2023-09-26 14:23:10.958
4.0, -160604.8164492627, 30343.43187134646, -49146.345155995514, -39450.270170005584, 2687.0596631836493, -13677.725336280506, -187500.02235174447, -208.60883100138082, 5705.752158850689, -33498.000621557316, -782.3781111691131, -20773.934814206936, -23907.761145563265, -21279.888901697268, -26540.662531931703, -40959.124679461085, -0.002, 1.018, 0.024, 192.0, 0.0, 0.0, 0.0, 0.0, 0.0, 0.0, 0.0, 0.0, 0.0, 1.695756190958233E9, 0.0, 2023-09-26 14:23:10.958
6.0, -160577.7037832384, 30356.99938023083, -49159.86796139097, -39469.11269058141, 2673.3580438325457, -13692.924522510115, -187500.02235174447, -212.52038628105956, 5689.725958076234, -33505.48845594984, -770.7105005634428, -20759.026200655248, -23914.57842762213, -21281.386468575773, -26544.037645344455, -40966.746624320345, -0.002, 1.018, 0.024, 192.0, 0.0, 0.0, 0.0, 0.0, 0.0, 0.0, 0.0, 0.0, 0.0, 1.695756190958242E9, 0.0, 2023-09-26 14:23:10.958
8.0, -160601.15076317202, 30348.43866210445, -49146.278100762145, -39458.09328056494, 2681.67289276992, -13678.820571758817, -187500.02235174447, -219.09179915091983, 5692.69874008879, -33517.08901132215, -780.1429367235824, -20773.912462462482, -23915.539552633712, -21290.863608224823, -26549.67028494719, -40963.05858648522, -0.002, 1.018, 0.024, 192.0, 0.0, 0.0, 0.0, 0.0, 0.0, 0.0, 0.0, 0.0, 0.0, 1.695756190958251E9, 0.0, 2023-09-26 14:23:10.958
10.0, -160582.26353910728, 30353.400749373526, -49145.920472850856, -39462.69773992273, 2682.4775555703113, -13682.933292738593, -187500.02235174447, -226.11024690988626, 5707.495594918203, -33493.664383132986, -774.510297120845, -20762.982459423838, -23911.829163054128, -21298.284387383985, -26544.95406686712, -40958.431775382975, -0.002, 1.018, 0.024, 192.0, 0.0, 0.0, 0.0, 0.0, 0.0, 0.0, 0.0, 0.0, 0.0, 1.69575619095826E9, 0.0, 2023-09-26 14:23:10.958
12.0, -160599.6084928046, 30360.195679687942, -49136.10805703498, -39455.925161352774, 2692.58054406411, -13681.167504926623, -187500.02235174447, -234.35804061389456, 5716.212775255773, -33491.205691242896, -776.4325471440014, -20765.977593180847, -23912.812639810163, -21282.437000565173, -26542.361264510306, -40959.124679461085, -0.01, 1.018, 0.026000000000000002, 192.0, 127.5, 88.0, 15.5, 104.0, 0.0, 104.0, 0.0, 0.0, 0.0, 1.695756190958269E9, 0.0, 2023-09-26 14:23:10.958
14.0, -160598.155629415, 30373.182043216475, -49132.12944652193, -39459.38968174335, 2701.5659453351436, -13682.977996227502, -187500.02235174447, -224.83619747593374, 5738.028077844153, -33501.889825092534, -764.67552956051, -20767.408104825987, -23899.379241392522, -21279.55362553044, -26529.620770170783, -40951.793307279746, -0.01, 1.018, 0.026000000000000002, 192.0, 0.0, 0.0, 0.0, 0.0, 0.0, 0.0, 0.0, 0.0, 0.0, 1.695756191017837E9, 0.0, 2023-09-26 14:23:11.017
16.0, -160603.18477191744, 30380.736932842367, -49133.559958167076, -39459.52379221008, 2695.5309743322105, -13687.783621285394, -187500.02235174447, -234.827427247456, 5732.686010919334, -33490.088104020135, -764.8766952606077, -20770.559700794187, -23902.93316876092, -21283.331070343385, -26532.660607416703, -40952.262693913304, -0.01, 1.018, 0.026000000000000002, 192.0, 0.0, 0.0, 0.0, 0.0, 0.0, 0.0, 0.0, 0.0, 0.0, 1.695756191017862E9, 0.0, 2023-09-26 14:23:11.017
18.0, -160592.2547688788, 30398.372459217604, -49124.41809468486, -39445.33043448096, 2698.4367011114005, -13671.891530977671, -187500.02235174447, -221.46108406318237, 5730.383781240437, -33486.13184525154, -763.4685353599233, -20752.700656974397, -23917.238285212316, -21286.147390144753, -26542.58478195486, -40952.19563867994, -0.01, 1.018, 0.026000000000000002, 192.0, 0.0, 0.0, 0.0, 0.0, 0.0, 0.0, 0.0, 0.0, 0.0, 1.695756191017872E9, 0.0, 2023-09-26 14:23:11.017
20.0, -160591.09247816712, 30397.947776072953, -49129.40253369839, -39449.26434150509, 2693.072282442127, -13679.80404851485, -187500.02235174447, -227.33959285492813, 5745.694726192323, -33480.365095182075, -754.9525207224514, -20757.05924714318, -23908.16347696346, -21287.510846556528, -26533.331159750363, -40935.43183033846, -0.01, 1.018, 0.026000000000000002, 192.0, 0.0, 0.0, 0.0, 0.0, 0.0, 0.0, 0.0, 0.0, 0.0, 1.69575619101788E9, 0.0, 2023-09-26 14:23:11.017
22.0, -160588.52202755478, 30400.16059877403, -49125.088647018514, -39445.68806239225, 2697.1179481885374, -13676.60774905774, -187500.02235174447, -223.4280375752494, 5746.030002359153, -33475.67122884646, -752.9185119770184, -20757.908613432483, -23908.185828707916, -21282.816980220912, -26537.756805152512, -40942.852609497626, -0.012, 1.018, 0.028, 192.0, 127.5, 80.0, 15.5, 104.0, 0.0, 112.0, 0.0, 0.0, 0.0, 1.695756191017918E9, 0.0, 2023-09-26 14:23:11.017
24.0, -160594.53464681323, 30408.274282011305, -49113.19751896829, -39435.69683262072, 2705.2092796813586, -13665.968318697014, -187500.02235174447, -205.97132515565457, 5756.401211786415, -33463.82480428515, -740.0662589152168, -20752.834767441127, -23900.67564257093, -21280.55945403093, -26530.87246786028, -40932.704917514915, -0.012, 1.018, 0.028, 192.0, 0.0, 0.0, 0.0, 0.0, 0.0, 0.0, 0.0, 0.0, 0.0, 1.695756191017927E9, 0.0, 2023-09-26 14:23:11.017
26.0, -160620.01563549228, 30420.232465294896, -49098.802995539074, -39423.492780148124, 2721.771922322741, -13656.066495903313, -187500.02235174447, -198.55054599649264, 5762.436182789348, -33470.46327238838, -731.5725960222002, -20751.851290685092, -23894.998299479284, -21265.270860823497, -26528.324368992373, -40933.19665589293, -0.012, 1.018, 0.028, 192.0, 0.0, 0.0, 0.0, 0.0, 0.0, 0.0, 0.0, 0.0, 0.0, 1.695756191017936E9, 0.0, 2023-09-26 14:23:11.017
28.0, -160615.6123418346, 30419.137229816584, -49118.98662078221, -39445.21867575868, 2709.8807942725175, -13679.535827581387, -187500.02235174447, -219.06944740646452, 5779.535267297658, -33454.45942335838, -721.8719389285969, -20747.939735405416, -23882.01193595075, -21264.91323291221, -26522.803488111913, -40933.3084146152, -0.012, 1.018, 0.028, 192.0, 0.0, 0.0, 0.0, 0.0, 0.0, 0.0, 0.0, 0.0, 0.0, 1.695756191017945E9, 0.0, 2023-09-26 14:23:11.017
30.0, -160625.55886811722, 30419.025471094308, -49118.98662078221, -39448.102050793415, 2710.77486405073, -13685.2802259064, -187500.02235174447, -230.15591265629683, 5764.917226423887, -33468.87629853205, -737.741677491865, -20751.62777324054, -23894.372450634535, -21278.659555752227, -26541.891877876747, -40955.19077243695, -0.012, 1.018, 0.028, 192.0, 0.0, 0.0, 0.0, 0.0, 0.0, 0.0, 0.0, 0.0, 0.0, 1.69575619107738E9, 0.0, 2023-09-26 14:23:11.077
32.0, -160608.32567314216, 30411.850561124156, -49120.99827778319, -39454.20407702972, 2705.701018059375, -13692.030452731902, -187500.02235174447, -230.0441539340203, 5760.335118810549, -33462.17077519545, -732.7125349894209, -20745.92807840444, -23892.96429073385, -21284.20278837714, -26540.327255764874, -40956.97891199338, -0.008, 1.018, 0.026000000000000002, 192.0, 127.5, 96.0, 15.5, 104.0, 0.0, 104.0, 0.0, 0.0, 0.0, 1.695756191077403E9, 0.0, 2023-09-26 14:23:11.077
34.0, -160605.57640857415, 30409.347165745163, -49123.52402490664, -39453.66763516279, 2695.1733464209256, -13694.556199855353, -187500.02235174447, -227.42899983274935, 5758.994014143231, -33472.72079857836, -738.2781193587923, -20751.516014518264, -23898.73104080332, -21290.371869846807, -26541.981284854566, -40960.801060295234, -0.008, 1.018, 0.026000000000000002, 192.0, 0.0, 0.0, 0.0, 0.0, 0.0, 0.0, 0.0, 0.0, 0.0, 1.695756191077414E9, 0.0, 2023-09-26 14:23:11.077
36.0, -160587.33738509862, 30412.25289252435, -49120.3947806829, -39448.8620101049, 2703.86817501404, -13686.174295684612, -187500.02235174447, -237.59904355991407, 5753.47313326277, -33449.81026051167, -738.0322501697839, -20739.647238212496, -23903.06727922765, -21287.220273878607, -26544.55173546693, -40960.599894595136, -0.008, 1.018, 0.026000000000000002, 192.0, 0.0, 0.0, 0.0, 0.0, 0.0, 0.0, 0.0, 0.0, 0.0, 1.695756191077423E9, 0.0, 2023-09-26 14:23:11.077
38.0, -160614.47240286737, 30415.44919198146, -49115.11976899145, -39440.345995467425, 2713.0994454740817, -13671.913882722127, -187500.02235174447, -231.0723341789644, 5761.9444444113315, -33473.033723000735, -736.9817181803845, -20758.981497166336, -23894.595968079087, -21277.474913296093, -26536.68392141866, -40951.74860379084, -0.008, 1.018, 0.026000000000000002, 192.0, 0.0, 0.0, 0.0, 0.0, 0.0, 0.0, 0.0, 0.0, 0.0, 1.695756191077433E9, 0.0, 2023-09-26 14:23:11.077
40.0, -160587.158571143, 30423.048785096264, -49122.56289989506, -39445.442193203235, 2701.1189104460373, -13672.427972844598, -187500.02235174447, -213.92854618174388, 5766.839476447043, -33462.28253391773, -726.5434535197561, -20747.82797668314, -23897.881674514018, -21272.043439393456, -26538.91909586419, -40945.60187406562, -0.008, 1.018, 0.026000000000000002, 192.0, 0.0, 0.0, 0.0, 0.0, 0.0, 0.0, 0.0, 0.0, 0.0, 1.695756191077442E9, 0.0, 2023-09-26 14:23:11.077
42.0, -160598.8708852376, 30425.86510489763, -49112.3928561679, -39434.08750701994, 2702.169442435437, -13671.980937955492, -187500.02235174447, -223.22687187515163, 5765.252502590716, -33471.11147297758, -730.0526773992393, -20752.67830522994, -23897.009956480262, -21277.40785806273, -26552.17368032619, -40951.01099622381, -0.008, 1.02, 0.03, 192.0, 127.5, 96.0, 15.5, 112.0, 0.0, 120.0, 0.0, 0.0, 0.0, 1.695756191077483E9, 0.0, 2023-09-26 14:23:11.077
44.0, -160581.92826294046, 30431.721261944924, -49106.00025725368, -39433.148733752816, 2698.3025906446687, -13671.265682132922, -187500.02235174447, -223.0927614084198, 5774.304959095116, -33457.90159200449, -716.3063545592254, -20736.38388352202, -23893.701898300875, -21266.187282346164, -26549.603229713826, -40945.66892929899, -0.008, 1.02, 0.03, 192.0, 0.0, 0.0, 0.0, 0.0, 0.0, 0.0, 0.0, 0.0, 0.0, 1.695756191137623E9, 0.0, 2023-09-26 14:23:11.137
46.0, -160624.88831578355, 30428.659072954546, -49088.70000704527, -39420.87762604685, 2722.06249500066, -13661.743838994962, -187500.02235174447, -219.42707531774943, 5774.95315968432, -33470.21740319936, -715.1217121030942, -20750.800758695696, -23881.5872528061, -21259.817035176402, -26536.34864525183, -40933.733097759854, -0.008, 1.02, 0.03, 192.0, 0.0, 0.0, 0.0, 0.0, 0.0, 0.0, 0.0, 0.0, 0.0, 1.695756191137648E9, 0.0, 2023-09-26 14:23:11.137
48.0, -160577.9496524274, 30425.038090352788, -49115.25387945818, -39448.92906533826, 2697.8332040111072, -13692.008100987447, -187500.02235174447, -227.5854620439365, 5775.601360273524, -33451.73251053483, -708.7961684222423, -20733.656970698474, -23884.716497029844, -21275.083276639376, -26536.68392141866, -40942.45027809743, -0.008, 1.02, 0.03, 192.0, 0.0, 0.0, 0.0, 0.0, 0.0, 0.0, 0.0, 0.0, 0.0, 1.695756191137658E9, 0.0, 2023-09-26 14:23:11.137
50.0, -160606.3140161412, 30417.81847689372, -49100.74759730668, -39434.42278318677, 2716.3404484201014, -13679.84875200376, -187500.02235174447, -243.00816571809838, 5760.469229277281, -33464.58476359663, -726.4540465419349, -20742.01652312476, -23898.14989544748, -21287.466143067617, -26553.179508826677, -40956.55422884873, -0.008, 1.02, 0.03, 192.0, 0.0, 0.0, 0.0, 0.0, 0.0, 0.0, 0.0, 0.0, 0.0, 1.695756191137667E9, 0.0, 2023-09-26 14:23:11.137
52.0, -160593.7076322684, 30426.803878164756, -49104.56974560854, -39444.72693738067, 2718.352105421079, -13682.732127038495, -187500.02235174447, -235.00624120309845, 5775.847229462533, -33457.00752222628, -710.3160870452032, -20740.63071496853, -23878.234491137802, -21266.611965490814, -26533.509973706005, -40941.46680134139, -0.012, 1.016, 0.03, 192.0, 127.5, 80.0, 15.5, 96.0, 0.0, 120.0, 0.0, 0.0, 0.0, 1.695756191137676E9, 0.0, 2023-09-26 14:23:11.137
54.0, -160596.9039317255, 30414.800991392254, -49108.57070786604, -39451.879495606365, 2709.4561111278667, -13689.460002119542, -187500.02235174447, -239.67775579425762, 5762.860865933999, -33455.88993500351, -728.4880552873678, -20745.078712115137, -23894.01482272325, -21287.287329111976, -26546.473985490084, -40955.548400348234, -0.012, 1.016, 0.03, 192.0, 0.0, 0.0, 0.0, 0.0, 0.0, 0.0, 0.0, 0.0, 0.0, 1.695756191137685E9, 0.0, 2023-09-26 14:23:11.137
56.0, -160577.7931902162, 30425.194552563975, -49103.04982698558, -39444.03403330255, 2712.6524105849758, -13680.89928399316, -187500.02235174447, -229.35124985590576, 5770.192238115339, -33457.56631583766, -722.3636773066137, -20735.378055021534, -23889.790343021195, -21273.74217197206, -26541.355436009817, -40947.99351072234, -0.012, 1.016, 0.03, 192.0, 0.0, 0.0, 0.0, 0.0, 0.0, 0.0, 0.0, 0.0, 0.0, 1.695756191137694E9, 0.0, 2023-09-26 14:23:11.137
58.0, -160616.52876335726, 30426.155677575553, -49090.75636753516, -39428.05253601701, 2711.7806925512186, -13668.874045476205, -187500.02235174447, -238.09078193793084, 5772.673281749879, -33464.58476359663, -722.7883604512645, -20747.939735405416, -23879.6873545274, -21256.240756063555, -26539.00850284201, -40939.29868212923, -0.012, 1.016, 0.03, 192.0, 0.0, 0.0, 0.0, 0.0, 0.0, 0.0, 0.0, 0.0, 0.0, 1.695756191137703E9, 0.0, 2023-09-26 14:23:11.137
60.0, -160601.64250155003, 30427.54148573178, -49099.89823101738, -39436.8591233324, 2703.5328988472106, -13676.630100802196, -187500.02235174447, -230.89352022332196, 5784.184430144362, -33459.35445539409, -711.7242469458874, -20743.29057255871, -23877.452180081866, -21258.72179969809, -26539.410834242208, -40936.884693728054, -0.012, 1.016, 0.03, 192.0, 0.0, 0.0, 0.0, 0.0, 0.0, 0.0, 0.0, 0.0, 0.0, 1.695756191197915E9, 0.0, 2023-09-26 14:23:11.197
62.0, -160614.89708601203, 30417.371442004616, -49100.05469322857, -39437.79789659952, 2702.3035529021686, -13679.84875200376, -187500.02235174447, -244.86336050788887, 5766.727717724767, -33453.92298149144, -720.9555174059293, -20743.737607447816, -23891.265558155246, -21276.513788284516, -26556.68873270616, -40951.94976949093, -0.01, 1.018, 0.034, 192.0, 127.5, 88.0, 15.5, 104.0, 0.5, 8.0, 0.0, 0.0, 0.0, 1.695756191197939E9, 0.0, 2023-09-26 14:23:11.197
64.0, -160607.2080859194, 30423.138192074086, -49105.06148398656, -39442.938797824245, 2704.8963552589844, -13684.18499042809, -187500.02235174447, -231.11703766787502, 5769.3428718260375, -33458.840365271615, -719.0332673827729, -20741.927116146937, -23890.14797093248, -21270.612927748316, -26555.839366416858, -40951.234513668365, -0.01, 1.018, 0.034, 192.0, 0.0, 0.0, 0.0, 0.0, 0.0, 0.0, 0.0, 0.0, 0.0, 1.695756191197987E9, 0.0, 2023-09-26 14:23:11.197
66.0, -160607.27514115276, 30415.35978500364, -49108.81657705505, -39448.14675428233, 2703.86817501404, -13683.872066005715, -187500.02235174447, -226.46787482117116, 5764.783115957155, -33463.042493229215, -726.6328604975773, -20749.81728193966, -23892.919587244938, -21268.69067772516, -26559.616811229804, -40955.05666197022, -0.01, 1.018, 0.034, 192.0, 0.0, 0.0, 0.0, 0.0, 0.0, 0.0, 0.0, 0.0, 0.0, 1.695756191197997E9, 0.0, 2023-09-26 14:23:11.197
68.0, -160594.82521949115, 30415.53859895928, -49110.38119916692, -39450.963074083695, 2703.130567447015, -13691.80693528735, -187500.02235174447, -228.63599403333595, 5762.793810700633, -33479.314563192675, -728.3539448206359, -20749.25848832828, -23897.144066946992, -21276.290270839963, -26559.10272110733, -40955.995435237346, -0.01, 1.018, 0.034, 192.0, 0.0, 0.0, 0.0, 0.0, 0.0, 0.0, 0.0, 0.0, 0.0, 1.695756191198006E9, 0.0, 2023-09-26 14:23:11.198
70.0, -160595.0487369357, 30414.35395650315, -49104.97207700874, -39443.51994318008, 2709.9478495058834, -13691.80693528735, -187500.02235174447, -238.40370636030514, 5752.869636162476, -33469.14451946551, -733.9195291900074, -20748.073845872146, -23900.697994315386, -21282.191131376163, -26561.047322874943, -40960.55519110623, -0.01, 1.018, 0.034, 192.0, 0.0, 0.0, 0.0, 0.0, 0.0, 0.0, 0.0, 0.0, 0.0, 1.695756191198015E9, 0.0, 2023-09-26 14:23:11.198
72.0, -160604.72704228485, 30420.97007286192, -49104.256821186165, -39443.989329813645, 2705.8798320150177, -13693.304502165855, -187500.02235174447, -245.35509888590562, 5767.800601458622, -33472.83255730064, -729.8738634435969, -20749.236136583822, -23892.606662822567, -21277.899596440744, -26552.59836347084, -40952.709728802416, -0.006, 1.016, 0.032, 192.0, 127.5, 104.0, 15.5, 96.0, 0.5, 0.0, 0.0, 0.0, 0.0, 1.695756191198025E9, 0.0, 2023-09-26 14:23:11.198
74.0, -160617.57929534666, 30425.26160779734, -49097.57364959403, -39438.37904195536, 2702.191794179892, -13687.291882907377, -187500.02235174447, -246.78561053104528, 5773.209723616806, -33466.48466187533, -722.676601728988, -20749.504357517286, -23887.085781942103, -21267.371924802297, -26554.475910005083, -40948.664063056, -0.006, 1.016, 0.032, 192.0, 0.0, 0.0, 0.0, 0.0, 0.0, 0.0, 0.0, 0.0, 0.0, 1.695756191258171E9, 0.0, 2023-09-26 14:23:11.258
76.0, -160609.62207432056, 30419.964244361432, -49110.42590265583, -39452.28182700656, 2696.8497272550735, -13696.478449878508, -187500.02235174447, -237.17436041526324, 5768.135877625451, -33470.373865410555, -726.0070116528287, -20748.610287739073, -23891.310261644157, -21277.519616785004, -26557.35928503982, -40950.47455435688, -0.006, 1.016, 0.032, 192.0, 0.0, 0.0, 0.0, 0.0, 0.0, 0.0, 0.0, 0.0, 0.0, 1.695756191258219E9, 0.0, 2023-09-26 14:23:11.258
78.0, -160597.1050974256, 30409.034241322788, -49112.81753931255, -39458.20503928722, 2698.883736000507, -13701.440537147588, -187500.02235174447, -254.38520364584969, 5759.016365887686, -33466.05997873068, -734.9253576904962, -20743.2458690698, -23903.469610627846, -21290.64009078027, -26568.468102034105, -40963.97500800789, -0.006, 1.016, 0.032, 192.0, 0.0, 0.0, 0.0, 0.0, 0.0, 0.0, 0.0, 0.0, 0.0, 1.695756191258231E9, 0.0, 2023-09-26 14:23:11.258
80.0, -160598.3567951151, 30416.097392570664, -49116.66203935886, -39459.70260616572, 2696.7603202772525, -13702.334606925799, -187500.02235174447, -246.5620930864922, 5766.1689241133845, -33485.90832780699, -735.9088344465297, -20754.57820350864, -23904.274273428236, -21287.30968085643, -26569.272764834495, -40966.00901675332, -0.006, 1.016, 0.032, 192.0, 0.0, 0.0, 0.0, 0.0, 0.0, 0.0, 0.0, 0.0, 0.0, 1.695756191258241E9, 0.0, 2023-09-26 14:23:11.258
82.0, -160572.71934422487, 30415.225674536905, -49116.81850157005, -39457.42272823128, 2695.5309743322105, -13701.775813314416, -187500.02235174447, -247.34440414242795, 5747.7063831933, -33472.251411944795, -739.1945408814598, -20743.82701442564, -23912.678529343433, -21300.65367229625, -26575.866529448813, -40973.385092423574, -0.002, 1.01, 0.032, 192.0, 127.5, 120.0, 15.5, 72.0, 0.5, 0.0, 0.0, 0.0, 0.0, 1.695756191258251E9, 0.0, 2023-09-26 14:23:11.258
84.0, -160606.8057545192, 30422.82526765171, -49096.74663504918, -39437.552027410515, 2718.0168292542494, -13683.335624138788, -187500.02235174447, -229.30654636699515, 5761.2962438221275, -33495.6536883895, -736.7134972469208, -20762.043686156714, -23895.73590704631, -21274.189206861163, -26554.051226860433, -40948.32878688917, -0.002, 1.01, 0.032, 192.0, 0.0, 0.0, 0.0, 0.0, 0.0, 0.0, 0.0, 0.0, 0.0, 1.695756191258261E9, 0.0, 2023-09-26 14:23:11.258
86.0, -160599.09440268212, 30417.751421660356, -49098.445367627784, -39439.87660883387, 2714.7534745637745, -13686.710737551539, -187500.02235174447, -233.19574990221858, 5758.725793209767, -33480.298039948706, -729.8068082102309, -20747.179776093933, -23898.909854758964, -21273.317488827408, -26555.705255950124, -40951.10040320163, -0.002, 1.01, 0.032, 192.0, 0.0, 0.0, 0.0, 0.0, 0.0, 0.0, 0.0, 0.0, 0.0, 1.695756191258317E9, 0.0, 2023-09-26 14:23:11.258
88.0, -160634.92424904398, 30422.244122295873, -49095.450233870775, -39437.03793728804, 2712.6971140738865, -13686.1295921957, -187500.02235174447, -234.4697993361711, 5766.258331091205, -33480.856833560094, -736.4005728245464, -20762.49072104582, -23892.96429073385, -21270.188244603665, -26549.580877969373, -40944.95367347642, -0.002, 1.01, 0.032, 192.0, 0.0, 0.0, 0.0, 0.0, 0.0, 0.0, 0.0, 0.0, 0.0, 1.695756191258326E9, 0.0, 2023-09-26 14:23:11.258
90.0, -160617.24401917984, 30423.02643335181, -49101.01581824015, -39441.597693156924, 2705.2092796813586, -13684.207342172545, -187500.02235174447, -227.33959285492813, 5775.377842828971, -33462.97543799585, -730.1420843770605, -20748.185604594422, -23892.673718055932, -21268.69067772516, -26552.35249428183, -40945.62422581008, -0.002, 1.01, 0.032, 192.0, 0.0, 0.0, 0.0, 0.0, 0.0, 0.0, 0.0, 0.0, 0.0, 1.695756191317702E9, 0.0, 2023-09-26 14:23:11.317
92.0, -160615.67939706796, 30411.224712279407, -49112.3928561679, -39456.483954964155, 2693.0499306976712, -13697.305464423354, -187500.02235174447, -229.5077120670929, 5757.004708886709, -33477.32525793615, -744.5589595507336, -20750.15255810649, -23910.68922408691, -21291.60121579185, -26569.25041309004, -40958.856458527625, -0.002, 1.008, 0.034, 192.0, 127.5, 120.0, 15.5, 64.0, 0.5, 8.0, 0.0, 0.0, 0.0, 1.695756191317724E9, 0.0, 2023-09-26 14:23:11.317
94.0, -160606.60458881911, 30419.69602342797, -49101.462853129255, -39446.9621118262, 2704.4046168809673, -13689.258836419445, -187500.02235174447, -238.69427903822412, 5753.495485007225, -33484.9024993065, -743.284910116781, -20744.519918503753, -23901.279139671224, -21278.63720400777, -26566.54585201095, -40957.11302246011, -0.002, 1.008, 0.034, 192.0, 0.0, 0.0, 0.0, 0.0, 0.0, 0.0, 0.0, 0.0, 0.0, 1.695756191317735E9, 0.0, 2023-09-26 14:23:11.317
96.0, -160617.98162674686, 30413.34812800266, -49106.11201597596, -39450.67250140578, 2694.3016283871684, -13700.166487713634, -187500.02235174447, -237.24141564862916, 5758.390517042937, -33482.51086264978, -744.7824769952866, -20755.651087242495, -23900.67564257093, -21276.2232156066, -26558.946258896147, -40951.167458435, -0.002, 1.008, 0.034, 192.0, 0.0, 0.0, 0.0, 0.0, 0.0, 0.0, 0.0, 0.0, 0.0, 1.695756191317744E9, 0.0, 2023-09-26 14:23:11.317
98.0, -160614.45005112293, 30423.6299304521, -49091.29280940209, -39437.3061582215, 2708.696151816386, -13688.878856763704, -187500.02235174447, -245.24334016362909, 5763.151438611918, -33466.12703396405, -739.3286513481917, -20738.037912611715, -23903.223741438836, -21275.485608039573, -26565.025933387988, -40959.72817656138, -0.002, 1.008, 0.034, 192.0, 0.0, 0.0, 0.0, 0.0, 0.0, 0.0, 0.0, 0.0, 0.0, 1.695756191317753E9, 0.0, 2023-09-26 14:23:11.317
100.0, -160638.3664176901, 30423.138192074086, -49095.91962050434, -39439.94366406723, 2701.6553523129646, -13689.258836419445, -187500.02235174447, -230.64765103431358, 5778.842363219544, -33477.48172014734, -732.0419826557616, -20755.58403200913, -23889.72328778783, -21254.609078718317, -26553.11245359331, -40944.77485952078, -0.002, 1.008, 0.034, 192.0, 0.0, 0.0, 0.0, 0.0, 0.0, 0.0, 0.0, 0.0, 0.0, 1.695756191317762E9, 0.0, 2023-09-26 14:23:11.317
102.0, -160613.46657436687, 30429.888418899587, -49099.987637995204, -39443.005853057606, 2694.323980131624, -13696.56785685633, -187500.02235174447, -231.54172081252585, 5772.405060816415, -33471.62556310005, -727.1916541089599, -20734.908668387972, -23900.38506989301, -21278.771314474503, -26566.076465377388, -40956.08484221516, -0.004, 1.014, 0.026000000000000002, 192.0, 127.5, 112.0, 15.5, 88.0, 0.0, 104.0, 0.0, 0.0, 0.0, 1.695756191317771E9, 0.0, 2023-09-26 14:23:11.317
104.0, -160638.23230722337, 30423.78639266329, -49089.54937333457, -39429.95243429571, 2700.0460267121825, -13688.94591199707, -187500.02235174447, -234.02276444706496, 5774.863752706498, -33475.62652535755, -727.2140058534153, -20746.10689236008, -23894.01482272325, -21279.50892204153, -26562.142558353255, -40950.04987121223, -0.004, 1.014, 0.026000000000000002, 192.0, 0.0, 0.0, 0.0, 0.0, 0.0, 0.0, 0.0, 0.0, 0.0, 1.695756191377442E9, 0.0, 2023-09-26 14:23:11.377
106.0, -160605.8669812521, 30432.704738700955, -49096.1878414378, -39437.32850996596, 2688.512526573244, -13695.450269633564, -187500.02235174447, -234.08981968043088, 5768.158229369907, -33449.877315745034, -718.4744737713902, -20727.778461906728, -23890.95263373287, -21275.887939439766, -26567.886956678267, -40952.977949735876, -0.004, 1.014, 0.026000000000000002, 192.0, 0.0, 0.0, 0.0, 0.0, 0.0, 0.0, 0.0, 0.0, 0.0, 1.695756191377471E9, 0.0, 2023-09-26 14:23:11.377
108.0, -160629.91745828599, 30432.280055556304, -49089.12469018992, -39432.724050608165, 2700.2695441567357, -13690.46583062003, -187500.02235174447, -237.26376739308446, 5774.059089906107, -33460.71791180586, -720.061447627717, -20739.267258556756, -23868.623241022022, -21270.031782392478, -26561.136729852766, -40947.21119966641, -0.004, 1.014, 0.026000000000000002, 192.0, 0.0, 0.0, 0.0, 0.0, 0.0, 0.0, 0.0, 0.0, 0.0, 1.695756191377554E9, 0.0, 2023-09-26 14:23:11.377
110.0, -160626.96702801788, 30438.292674814784, -49088.78941402309, -39436.68030937676, 2707.042122726694, -13687.828324774306, -187500.02235174447, -243.49990409611513, 5774.148496883929, -33463.511879862774, -713.0877033576612, -20736.04860735519, -23848.90900241244, -21258.028895619977, -26558.990962385054, -40954.162592192006, -0.004, 1.014, 0.026000000000000002, 192.0, 0.0, 0.0, 0.0, 0.0, 0.0, 0.0, 0.0, 0.0, 0.0, 1.695756191377566E9, 0.0, 2023-09-26 14:23:11.377
112.0, -160639.9533915464, 30425.328663030705, -49094.57851583702, -39441.17301001227, 2701.5882970795988, -13676.294824635366, -187500.02235174447, -235.56503481448112, 5763.419659545381, -33457.87924026004, -718.2286045823819, -20742.687075458416, -23838.15781332944, -21264.93558465667, -26561.717875208604, -40951.83801076865, -0.008, 1.02, 0.028, 192.0, 127.5, 96.0, 15.5, 112.0, 0.0, 112.0, 0.0, 0.0, 0.0, 1.695756191377575E9, 0.0, 2023-09-26 14:23:11.377
114.0, -160609.17503943146, 30422.892322885076, -49111.9905247677, -39454.3605392409, 2690.0771486851154, -13689.95174049756, -187500.02235174447, -227.51840681057058, 5762.994976400731, -33454.59353382511, -717.5133487598121, -20736.115662588556, -23836.213211561826, -21262.25337532203, -26551.748997181538, -40944.46193509841, -0.008, 1.02, 0.028, 192.0, 0.0, 0.0, 0.0, 0.0, 0.0, 0.0, 0.0, 0.0, 0.0, 1.695756191377587E9, 0.0, 2023-09-26 14:23:11.377
116.0, -160633.09140599865, 30425.954511875454, -49098.82534728353, -39431.89703606332, 2705.6339628260093, -13669.656356532141, -187500.02235174447, -235.72149702566827, 5759.530456010158, -33456.38167338153, -724.1294651185829, -20738.507299245277, -23836.637894706477, -21263.214500333608, -26550.430244258674, -40945.64657755454, -0.008, 1.02, 0.028, 192.0, 0.0, 0.0, 0.0, 0.0, 0.0, 0.0, 0.0, 0.0, 0.0, 1.695756191377597E9, 0.0, 2023-09-26 14:23:11.377
118.0, -160634.6113246216, 30433.7329189459, -49107.38606540991, -39429.147771495314, 2700.493061601289, -13666.75062975295, -187500.02235174447, -225.0373631760315, 5779.289398108649, -33458.95212399389, -715.032305125273, -20739.244906812302, -23828.27834228019, -21242.762654157003, -26529.754880637513, -40934.649519282524, -0.008, 1.02, 0.028, 192.0, 0.0, 0.0, 0.0, 0.0, 0.0, 0.0, 0.0, 0.0, 0.0, 1.695756191377607E9, 0.0, 2023-09-26 14:23:11.377
120.0, -160635.9077258, 30429.508439243848, -49117.0420190146, -39426.33145169395, 2699.0849017006044, -13670.662185032628, -187500.02235174447, -228.99362194462086, 5779.937598697853, -33446.7927750102, -710.3160870452032, -20731.801775908683, -23827.25016203525, -21239.476947722073, -26522.82583985637, -40938.24815013983, -0.008, 1.02, 0.028, 192.0, 0.0, 0.0, 0.0, 0.0, 0.0, 0.0, 0.0, 0.0, 0.0, 1.695756191437748E9, 0.0, 2023-09-26 14:23:11.437
122.0, -160618.92040001397, 30425.194552563975, -49132.75529536668, -39434.80276284251, 2687.193773650381, -13678.731164780995, -187500.02235174447, -224.29975560900638, 5772.270950349683, -33431.70534750287, -712.9088894020188, -20724.358645005064, -23830.468813236814, -21245.62367744728, -26523.786964867948, -40951.68154855747, -0.008, 1.014, 0.028, 192.0, 127.5, 96.0, 15.5, 88.0, 0.0, 112.0, 0.0, 0.0, 0.0, 1.695756191437771E9, 0.0, 2023-09-26 14:23:11.437
124.0, -160623.32369367167, 30430.626026466613, -49126.094475519, -39425.7056028492, 2693.4969655867776, -13668.449362331554, -187500.02235174447, -234.1345231693415, 5769.499334037225, -33433.4934870593, -711.5901364791556, -20722.65991242646, -23829.306522525138, -21259.615869476303, -26520.456554944107, -40954.98960673685, -0.008, 1.014, 0.028, 192.0, 0.0, 0.0, 0.0, 0.0, 0.0, 0.0, 0.0, 0.0, 0.0, 1.695756191437781E9, 0.0, 2023-09-26 14:23:11.437
126.0, -160637.49469965635, 30429.888418899587, -49130.31895522105, -39427.51609415008, 2695.1733464209256, -13663.867254718216, -187500.02235174447, -223.18216838624102, 5769.253464848217, -33454.48177510283, -710.9419358899518, -20731.935886375417, -23818.44357471986, -21244.662552435704, -26508.96775829408, -40949.87105725659, -0.008, 1.014, 0.028, 192.0, 0.0, 0.0, 0.0, 0.0, 0.0, 0.0, 0.0, 0.0, 0.0, 1.69575619143779E9, 0.0, 2023-09-26 14:23:11.437
128.0, -160617.75810930232, 30423.272302540816, -49138.030307058136, -39436.166219254286, 2694.6592562984533, -13670.572778054808, -187500.02235174447, -230.4017818453052, 5762.994976400731, -33439.21553363986, -717.870976671097, -20724.0904240716, -23828.166583557915, -21257.53715724196, -26514.175714752164, -40962.58919985166, -0.008, 1.014, 0.028, 192.0, 0.0, 0.0, 0.0, 0.0, 0.0, 0.0, 0.0, 0.0, 0.0, 1.695756191437799E9, 0.0, 2023-09-26 14:23:11.437
130.0, -160621.96023725992, 30423.36170951864, -49135.19163551231, -39433.10403026391, 2697.4755760998223, -13670.773943754906, -187500.02235174447, -228.8148079889784, 5764.738412468245, -33466.305847919684, -717.7145144599098, -20733.120528831547, -23820.85756312103, -21245.511918725006, -26508.185447238142, -40961.62807484008, -0.008, 1.014, 0.028, 192.0, 0.0, 0.0, 0.0, 0.0, 0.0, 0.0, 0.0, 0.0, 0.0, 1.695756191437838E9, 0.0, 2023-09-26 14:23:11.437
132.0, -160600.6143213051, 30414.130439058597, -49134.67754538984, -39431.695870363226, 2696.8944307439842, -13673.590263556274, -187500.02235174447, -236.21323540368505, 5757.451743775814, -33448.67032154445, -719.8826336720746, -20721.609380437065, -23825.104394567537, -21252.083331594866, -26511.06882227288, -40966.612513853615, -0.004, 1.012, 0.032, 192.0, 127.5, 112.0, 15.5, 80.0, 0.5, 0.0, 0.0, 0.0, 0.0, 1.695756191437847E9, 0.0, 2023-09-26 14:23:11.437
134.0, -160612.19252493294, 30412.31994775772, -49134.34226922301, -39430.73474535164, 2697.29676214418, -13674.953719968049, -187500.02235174447, -229.53006381154822, 5768.560560770102, -33461.9472577509, -725.1129418746165, -20729.92422937444, -23826.311388768125, -21255.950183385634, -26511.24763622852, -40963.885601030066, -0.004, 1.012, 0.032, 192.0, 0.0, 0.0, 0.0, 0.0, 0.0, 0.0, 0.0, 0.0, 0.0, 1.695756191497962E9, 0.0, 2023-09-26 14:23:11.497
136.0, -160590.0642979222, 30418.69019492748, -49131.50359767718, -39432.12055350788, 2696.648561554976, -13675.020775201414, -187500.02235174447, -234.1568749137968, 5763.240845589739, -33446.43514709892, -723.5036162738343, -20718.457784468865, -23834.782699916686, -21249.82580540488, -26513.572217651872, -40970.457013899926, -0.004, 1.012, 0.032, 192.0, 0.0, 0.0, 0.0, 0.0, 0.0, 0.0, 0.0, 0.0, 0.0, 1.695756191497993E9, 0.0, 2023-09-26 14:23:11.497
138.0, -160612.6619115665, 30419.606616450146, -49123.18874873981, -39424.63271911535, 2702.0353319687047, -13665.431876830087, -187500.02235174447, -219.11415089537513, 5766.526552024669, -33468.58572585413, -723.257747084826, -20737.76969167825, -23830.692330681366, -21251.144558327742, -26507.827819326856, -40957.180077693476, -0.004, 1.012, 0.032, 192.0, 0.0, 0.0, 0.0, 0.0, 0.0, 0.0, 0.0, 0.0, 0.0, 1.695756191498003E9, 0.0, 2023-09-26 14:23:11.498
140.0, -160592.47828632334, 30426.44625025347, -49122.38408593942, -39420.922329535766, 2697.1402999329925, -13660.380382583187, -187500.02235174447, -215.00142991559864, 5782.3739388434815, -33448.491507588806, -719.7261714608874, -20719.15068854698, -23830.357054514534, -21251.1669100722, -26504.408002425196, -40949.93811248995, -0.004, 1.012, 0.032, 192.0, 0.0, 0.0, 0.0, 0.0, 0.0, 0.0, 0.0, 0.0, 0.0, 1.695756191498012E9, 0.0, 2023-09-26 14:23:11.498
142.0, -160600.10023118262, 30422.668805440524, -49130.140141265416, -39427.04670751652, 2695.285105143202, -13667.287071619878, -187500.02235174447, -213.54856652600367, 5785.749052256233, -33456.09110070361, -725.1129418746165, -20727.554944462176, -23838.76131042973, -21241.0639215784, -26510.040642027932, -40947.36766187759, -0.002, 1.012, 0.034, 192.0, 127.5, 120.0, 15.5, 80.0, 0.5, 8.0, 0.0, 0.0, 0.0, 1.695756191498021E9, 0.0, 2023-09-26 14:23:11.498
144.0, -160565.43267553244, 30417.84082863818, -49133.98464131173, -39433.014623286086, 2694.681608042909, -13675.825438001804, -187500.02235174447, -226.46787482117116, 5766.906531680409, -33439.48375457332, -724.7553139633316, -20704.353833717567, -23857.648534494467, -21253.62560196228, -26525.955084080113, -40963.8185457967, -0.002, 1.012, 0.034, 192.0, 0.0, 0.0, 0.0, 0.0, 0.0, 0.0, 0.0, 0.0, 0.0, 1.695756191498031E9, 0.0, 2023-09-26 14:23:11.498
146.0, -160596.7698212588, 30412.454058224448, -49126.36269645247, -39426.46556216068, 2698.973142978328, -13666.996498941959, -187500.02235174447, -230.17826440075214, 5772.539171283147, -33458.43803387142, -726.4540465419349, -20730.23715379681, -23850.451272779857, -21252.35155252833, -26524.0104823125, -40958.92351376099, -0.002, 1.012, 0.034, 192.0, 0.0, 0.0, 0.0, 0.0, 0.0, 0.0, 0.0, 0.0, 0.0, 1.69575619149804E9, 0.0, 2023-09-26 14:23:11.498
148.0, -160570.7523907128, 30417.84082863818, -49132.1965017553, -39438.1555245108, 2700.2695441567357, -13674.23846414548, -187500.02235174447, -222.7798369860455, 5770.2816450931605, -33446.457498843374, -719.0109156383176, -20719.105985058068, -23848.774891945708, -21246.785968158958, -26524.613979412792, -40958.364720149606, -0.002, 1.012, 0.034, 192.0, 0.0, 0.0, 0.0, 0.0, 0.0, 0.0, 0.0, 0.0, 0.0, 1.695756191498049E9, 0.0, 2023-09-26 14:23:11.498
150.0, -160577.83789370512, 30407.134343044087, -49140.93603383732, -39451.41010897281, 2688.356064362057, -13682.463906105031, -187500.02235174447, -233.44161909122695, 5767.2865113361495, -33459.86854551656, -734.7688954793091, -20730.550078219185, -23860.084874640095, -21264.73441895657, -26536.661569674205, -40972.08869124517, -0.002, 1.012, 0.034, 192.0, 0.0, 0.0, 0.0, 0.0, 0.0, 0.0, 0.0, 0.0, 0.0, 1.695756191558359E9, 0.0, 2023-09-26 14:23:11.558
152.0, -160576.2956233377, 30422.713508929435, -49115.723266091736, -39430.9582627962, 2709.053779727671, -13663.42021982911, -187500.02235174447, -235.5203313255705, 5774.416717817392, -33457.45455711539, -731.1479128775493, -20723.621037438043, -23860.017819406727, -21260.35347704333, -26538.181488297167, -40972.31220868972, -0.004, 1.014, 0.032, 192.0, 127.5, 112.0, 15.5, 88.0, 0.5, 0.0, 0.0, 0.0, 0.0, 1.695756191558498E9, 0.0, 2023-09-26 14:23:11.558
154.0, -160597.663891037, 30426.11097408664, -49109.26361194415, -39425.63854761583, 2713.3453146630904, -13663.889606462672, -187500.02235174447, -231.7205347681683, 5788.364206357504, -33450.27964714523, -712.7747789352869, -20732.561735220163, -23836.23556330628, -21235.006598831013, -26506.553769892904, -40945.17719092097, -0.004, 1.014, 0.032, 192.0, 0.0, 0.0, 0.0, 0.0, 0.0, 0.0, 0.0, 0.0, 0.0, 1.695756191558508E9, 0.0, 2023-09-26 14:23:11.558
156.0, -160562.3928382865, 30426.625064209114, -49117.93608879281, -39432.83580933044, 2711.1548437064703, -13669.678708276595, -187500.02235174447, -217.9965636726098, 5788.1853924018615, -33441.785984252216, -703.5658602197004, -20714.43447046691, -23843.589287232076, -21252.083331594866, -26511.29233971743, -40953.98377823637, -0.004, 1.014, 0.032, 192.0, 0.0, 0.0, 0.0, 0.0, 0.0, 0.0, 0.0, 0.0, 0.0, 1.695756191558517E9, 0.0, 2023-09-26 14:23:11.558
158.0, -160587.5609025432, 30424.278131041305, -49106.559050865064, -39420.56470162448, 2715.580489108621, -13656.871158703705, -187500.02235174447, -213.39210431481652, 5773.544999783636, -33455.688769303415, -713.6912004579546, -20723.66574092695, -23844.95274364385, -21251.21161356111, -26506.9561012931, -40946.25007465483, -0.004, 1.014, 0.032, 192.0, 0.0, 0.0, 0.0, 0.0, 0.0, 0.0, 0.0, 0.0, 0.0, 1.695756191558526E9, 0.0, 2023-09-26 14:23:11.558
160.0, -160560.26942256326, 30422.95937811844, -49114.739789335705, -39427.24787321662, 2708.003247738272, -13666.907091964138, -187500.02235174447, -198.3940837853055, 5779.736432997755, -33452.2466006573, -713.7359039468652, -20715.28383675621, -23849.42309253491, -21251.63629670576, -26503.603339624806, -40942.65144379753, -0.004, 1.014, 0.032, 192.0, 0.0, 0.0, 0.0, 0.0, 0.0, 0.0, 0.0, 0.0, 0.0, 1.695756191558536E9, 0.0, 2023-09-26 14:23:11.558
162.0, -160579.4472193059, 30428.994349121374, -49098.42301588333, -39410.37230615286, 2723.2471374567913, -13653.876024946694, -187500.02235174447, -210.53108102453723, 5782.038662676652, -33446.144574421, -714.965249891907, -20718.01074957976, -23848.81959543462, -21241.86858437879, -26506.1067350038, -40944.19371416494, -0.002, 1.016, 0.036000000000000004, 192.0, 127.5, 120.0, 15.5, 96.0, 0.5, 16.0, 0.0, 0.0, 0.0, 1.695756191558545E9, 0.0, 2023-09-26 14:23:11.558
164.0, -160565.7903034437, 30437.420956781025, -49108.90598403287, -39421.883454547344, 2714.574660608132, -13661.386211083676, -187500.02235174447, -201.18805184221887, 5790.57702905858, -33441.87539123004, -707.320953288192, -20716.33436874561, -23844.326894799102, -21241.9132878677, -26495.512008131984, -40934.023670437775, -0.002, 1.016, 0.036000000000000004, 192.0, 0.0, 0.0, 0.0, 0.0, 0.0, 0.0, 0.0, 0.0, 0.0, 1.695756191617788E9, 0.0, 2023-09-26 14:23:11.617
166.0, -160570.46181803488, 30431.341282289184, -49106.93903052081, -39421.03408825804, 2712.674762329431, -13665.387173341176, -187500.02235174447, -225.97613644315442, 5789.392386602448, -33440.37782435153, -713.6241452245886, -20717.027272823725, -23854.13931061498, -21243.142633812742, -26504.206836725098, -40942.87496124208, -0.002, 1.016, 0.036000000000000004, 192.0, 0.0, 0.0, 0.0, 0.0, 0.0, 0.0, 0.0, 0.0, 0.0, 1.695756191617824E9, 0.0, 2023-09-26 14:23:11.617
168.0, -160557.22958531734, 30431.542447989283, -49109.844757299994, -39421.190550469226, 2710.77486405073, -13657.094676148257, -187500.02235174447, -213.16858687026345, 5791.7169680258, -33456.247562914796, -714.1605870915159, -20715.462650711856, -23861.068351396127, -21244.863718135803, -26507.872522815767, -40939.276330384775, -0.002, 1.016, 0.036000000000000004, 192.0, 0.0, 0.0, 0.0, 0.0, 0.0, 0.0, 0.0, 0.0, 0.0, 1.695756191617834E9, 0.0, 2023-09-26 14:23:11.617
170.0, -160553.02745735974, 30427.094450842676, -49110.71647533375, -39421.27995744705, 2705.5892593370986, -13643.013077141415, -187500.02235174447, -204.58551699942555, 5786.441956334348, -33447.06099594367, -721.7154767174097, -20711.01465356525, -23868.556185788657, -21243.25439253502, -26519.897761332722, -40938.38226060656, -0.002, 1.016, 0.036000000000000004, 192.0, 0.0, 0.0, 0.0, 0.0, 0.0, 0.0, 0.0, 0.0, 0.0, 1.695756191617843E9, 0.0, 2023-09-26 14:23:11.617
172.0, -160556.40257077248, 30432.771793934324, -49112.10228348998, -39421.9058062918, 2712.5630036071543, -13646.567004509809, -187500.02235174447, -207.35713331188362, 5786.285494123161, -33461.2990571617, -721.2460900838483, -20718.904819357973, -23864.644630508978, -21240.68394192266, -26520.34479622183, -40933.330766359664, -0.002, 1.01, 0.032, 192.0, 127.5, 120.0, 15.5, 72.0, 0.5, 0.0, 0.0, 0.0, 0.0, 1.695756191617851E9, 0.0, 2023-09-26 14:23:11.617
174.0, -160551.79811141468, 30432.43651776749, -49109.978867766724, -39421.27995744705, 2714.3287914191237, -13650.836187700772, -187500.02235174447, -206.3066013224842, 5787.738357512755, -33442.970626708346, -718.0497906267394, -20712.311054743655, -23866.67863925441, -21236.59357268734, -26526.782098624957, -40939.79042050725, -0.002, 1.01, 0.032, 192.0, 0.0, 0.0, 0.0, 0.0, 0.0, 0.0, 0.0, 0.0, 0.0, 1.695756191617891E9, 0.0, 2023-09-26 14:23:11.617
176.0, -160544.95847761136, 30430.693081699977, -49115.164472480355, -39430.824152329464, 2709.8807942725175, -13676.048955446358, -187500.02235174447, -212.58744151442548, 5790.979360458775, -33455.64406581451, -711.9924678793511, -20714.68033965592, -23864.644630508978, -21246.428340247672, -26525.753918380015, -40945.847743254635, -0.002, 1.01, 0.032, 192.0, 0.0, 0.0, 0.0, 0.0, 0.0, 0.0, 0.0, 0.0, 0.0, 1.695756191617901E9, 0.0, 2023-09-26 14:23:11.617
178.0, -160521.9361808224, 30431.140116589086, -49108.54835612159, -39430.31006220699, 2719.1791199659256, -13681.2792636489, -187500.02235174447, -231.29585162351748, 5787.783061001666, -33443.37295810854, -715.3228778031919, -20700.263464482246, -23875.10524691406, -21268.78008470298, -26532.973531839078, -40962.03040624028, -0.002, 1.01, 0.032, 192.0, 0.0, 0.0, 0.0, 0.0, 0.0, 0.0, 0.0, 0.0, 0.0, 1.69575619161791E9, 0.0, 2023-09-26 14:23:11.617
180.0, -160543.9973525998, 30436.102203858165, -49103.94389676379, -39427.24787321662, 2727.3375066921126, -13676.09365893527, -187500.02235174447, -232.32403186846162, 5801.283514652671, -33467.82576654265, -716.7757411927869, -20719.62007518054, -23857.134444371994, -21258.632392720272, -26512.186409495644, -40948.8652287561, -0.002, 1.01, 0.032, 192.0, 0.0, 0.0, 0.0, 0.0, 0.0, 0.0, 0.0, 0.0, 0.0, 1.695756191677485E9, 0.0, 2023-09-26 14:23:11.677
182.0, -160521.7350151223, 30429.9331223885, -49108.99539101069, -39429.46069591769, 2720.9896112668052, -13662.3249843508, -187500.02235174447, -215.1802438712411, 5788.319502868593, -33441.67422552994, -721.3578488061248, -20701.246941238278, -23869.76317998924, -21251.21161356111, -26518.802525854415, -40956.24130442635, -0.002, 1.01, 0.032, 192.0, 0.0, 0.0, 15.5, 88.0, 0.0, 104.0, 0.0, 0.0, 0.0, 1.695756191677506E9, 0.0, 2023-09-26 14:23:11.677
184.0, -160550.52406198074, 30433.151773590063, -49096.65722807136, -39417.32369867846, 2728.522149148244, -13646.052914387335, -187500.02235174447, -193.6778657052357, 5787.29132262365, -33458.9968274828, -725.2023488524377, -20718.234267024312, -23865.315182842634, -21250.898689138736, -26508.56542689388, -40940.72919377437, -0.002, 1.01, 0.032, 192.0, 0.0, 0.0, 0.0, 0.0, 0.0, 0.0, 0.0, 0.0, 0.0, 1.695756191677516E9, 0.0, 2023-09-26 14:23:11.677
186.0, -160542.85741363256, 30442.606561494656, -49093.080948958515, -39414.17210271026, 2729.8185503266513, -13644.085960875269, -187500.02235174447, -200.9421826532105, 5802.334046642071, -33442.702405774886, -707.8797468995747, -20708.66772039744, -23854.76515945973, -21232.48085170756, -26498.395383166717, -40931.27440586977, -0.002, 1.01, 0.032, 192.0, 0.0, 0.0, 0.0, 0.0, 0.0, 0.0, 0.0, 0.0, 0.0, 1.695756191677526E9, 0.0, 2023-09-26 14:23:11.677
188.0, -160552.73688468183, 30440.63960798259, -49104.14506246389, -39424.6550708598, 2719.2461751992914, -13658.659298260129, -187500.02235174447, -210.26286009107355, 5783.804450488621, -33450.25729540078, -719.9720406498958, -20718.234267024312, -23863.705857241854, -21245.087235580355, -26508.900703060714, -40941.48915308585, -0.002, 1.01, 0.032, 192.0, 0.0, 0.0, 0.0, 0.0, 0.0, 0.0, 0.0, 0.0, 0.0, 1.695756191677535E9, 0.0, 2023-09-26 14:23:11.677
190.0, -160543.08093107713, 30441.913657416542, -49102.11105371846, -39419.84944580191, 2720.386114166512, -13652.400809812643, -187500.02235174447, -216.1637206272746, 5786.5984185455345, -33436.734490005314, -719.3461918051472, -20708.600665164075, -23867.259784610247, -21237.39823548773, -26513.080479273856, -40941.0644699412, -0.002, 1.01, 0.032, 192.0, 0.0, 0.0, 0.0, 0.0, 0.0, 0.0, 0.0, 0.0, 0.0, 1.695756191677544E9, 0.0, 2023-09-26 14:23:11.677
192.0, -160576.16151287098, 30434.425823024016, -49097.260725171654, -39412.49572187611, 2727.3598584365677, -13646.142321365158, -187500.02235174447, -205.90426992228865, 5792.208706403817, -33453.00655996878, -726.4540465419349, -20728.270200284744, -23857.559127516644, -21241.756825656514, -26508.63248212725, -40928.636900024045, -0.006, 1.016, 0.028, 192.0, 127.5, 104.0, 15.5, 96.0, 0.0, 112.0, 0.0, 0.0, 0.0, 1.695756191677553E9, 0.0, 2023-09-26 14:23:11.677
194.0, -160554.23445156033, 30439.566724248736, -49106.67080958734, -39423.44807665922, 2715.2452129417916, -13658.391077326665, -187500.02235174447, -201.6127349868697, 5797.506069839725, -33436.734490005314, -718.0497906267394, -20713.093365799592, -23856.285078082692, -21228.792813872435, -26508.990110038532, -40925.641766267036, -0.006, 1.016, 0.028, 192.0, 0.0, 0.0, 0.0, 0.0, 0.0, 0.0, 0.0, 0.0, 0.0, 1.695756191737814E9, 0.0, 2023-09-26 14:23:11.737
196.0, -160557.6989719509, 30431.520096244825, -49112.61637361245, -39432.34407095243, 2706.77390179323, -13664.046068673859, -187500.02235174447, -213.6156217593696, 5765.028985146164, -33443.79764125319, -736.1770553799934, -20714.72504314483, -23881.609604550555, -21252.59742171734, -26534.426395228675, -40950.54160959025, -0.006, 1.016, 0.028, 192.0, 0.0, 0.0, 0.0, 0.0, 0.0, 0.0, 0.0, 0.0, 0.0, 1.695756191737875E9, 0.0, 2023-09-26 14:23:11.737
198.0, -160553.45214050438, 30436.750404447368, -49098.91475426135, -39422.576358625454, 2720.5425763776993, -13656.245309858956, -187500.02235174447, -216.96838342766566, 5787.29132262365, -33457.20868792637, -725.7834942082757, -20712.176944276925, -23867.751522988263, -21253.178567073177, -26521.417679955684, -40939.74571701833, -0.006, 1.016, 0.028, 192.0, 0.0, 0.0, 0.0, 0.0, 0.0, 0.0, 0.0, 0.0, 0.0, 1.695756191737887E9, 0.0, 2023-09-26 14:23:11.737
200.0, -160582.7552774853, 30432.21300032294, -49095.1373094484, -39418.44128590122, 2724.7670560797524, -13652.93725167957, -187500.02235174447, -230.20061614520745, 5790.979360458775, -33460.6955600614, -721.6037179951333, -20728.694883429394, -23862.476511296813, -21241.28743902295, -26516.321482219875, -40940.63978679655, -0.006, 1.016, 0.028, 192.0, 0.0, 0.0, 0.0, 0.0, 0.0, 0.0, 0.0, 0.0, 0.0, 1.695756191737897E9, 0.0, 2023-09-26 14:23:11.737
202.0, -160552.40160851498, 30446.473413285425, -49103.228640941226, -39421.07879174695, 2713.2112041963583, -13660.313327349822, -187500.02235174447, -221.50578755209298, 5782.329235354571, -33438.92496096194, -711.7465986903428, -20710.992301820792, -23865.49399679828, -21230.9609330846, -26515.13683976374, -40938.13639141755, -0.01, 1.018, 0.028, 192.0, 127.5, 88.0, 15.5, 104.0, 0.0, 112.0, 0.0, 0.0, 0.0, 1.695756191737906E9, 0.0, 2023-09-26 14:23:11.737
204.0, -160574.2392628478, 30439.052634126263, -49093.080948958515, -39412.42866664275, 2724.0741520016377, -13650.612670256218, -187500.02235174447, -213.16858687026345, 5788.09598542404, -33447.508030832774, -721.1119796171165, -20720.067110069645, -23872.981831190806, -21251.435131005663, -26518.601360154316, -40940.751545518826, -0.01, 1.018, 0.028, 192.0, 0.0, 0.0, 0.0, 0.0, 0.0, 0.0, 0.0, 0.0, 0.0, 1.695756191737917E9, 0.0, 2023-09-26 14:23:11.737
206.0, -160571.95938491338, 30443.41122429505, -49088.72235878973, -39412.8533497874, 2732.791332339207, -13652.154940623635, -187500.02235174447, -205.3901797998166, 5793.594514560046, -33451.33017913463, -712.5065580018232, -20713.87567685553, -23863.661153752942, -21251.1669100722, -26507.20197048211, -40932.995490192836, -0.01, 1.018, 0.028, 192.0, 0.0, 0.0, 0.0, 0.0, 0.0, 0.0, 0.0, 0.0, 0.0, 1.695756191737926E9, 0.0, 2023-09-26 14:23:11.737
208.0, -160585.41513507548, 30442.673616728025, -49093.975018736724, -39421.34701268042, 2728.3656869370566, -13664.64956577415, -187500.02235174447, -210.17345311325232, 5808.167851944906, -33449.407929111476, -708.4608922554127, -20718.614246680052, -23857.335610072092, -21233.151404041222, -26507.179618737653, -40936.549417561226, -0.01, 1.018, 0.028, 192.0, 0.0, 0.0, 0.0, 0.0, 0.0, 0.0, 0.0, 0.0, 0.0, 1.695756191737936E9, 0.0, 2023-09-26 14:23:11.737
210.0, -160546.00900960076, 30439.544372504282, -49117.71257134826, -39450.627797916866, 2708.316172160646, -13693.885647521693, -187500.02235174447, -219.20355787319636, 5798.109566940018, -33441.89774297449, -712.0818748571724, -20703.01272905025, -23875.73109575881, -21261.359305543818, -26525.82097361338, -40955.52604860378, -0.01, 1.018, 0.028, 192.0, 0.0, 0.0, 0.0, 0.0, 0.0, 0.0, 0.0, 0.0, 0.0, 1.695756191798205E9, 0.0, 2023-09-26 14:23:11.798
212.0, -160566.01382088827, 30426.35684327565, -49101.887536273905, -39434.51219016459, 2718.8214920546407, -13675.445458346065, -187500.02235174447, -229.21713938917392, 5781.189296387351, -33449.9443709784, -731.8184652112085, -20713.361586733055, -23884.895310985485, -21269.02595389199, -26539.38848249775, -40964.98083650837, -0.014, 1.02, 0.03, 192.0, 127.5, 72.0, 15.5, 112.0, 0.0, 120.0, 0.0, 0.0, 0.0, 1.695756191798236E9, 0.0, 2023-09-26 14:23:11.798
214.0, -160547.46187299036, 30434.179953835006, -49112.012876512155, -39442.67057689078, 2706.8856605155065, -13685.526095095409, -187500.02235174447, -222.7798369860455, 5785.0114446892085, -33456.09110070361, -726.2081773529264, -20718.52483970223, -23878.81563649364, -21263.415666033707, -26529.57606668187, -40954.38610963656, -0.014, 1.02, 0.03, 192.0, 0.0, 0.0, 0.0, 0.0, 0.0, 0.0, 0.0, 0.0, 0.0, 1.695756191798247E9, 0.0, 2023-09-26 14:23:11.798
216.0, -160545.24905028928, 30432.25770381185, -49109.59888811099, -39436.74736461012, 2710.350180906079, -13674.864312990227, -187500.02235174447, -221.32697359645053, 5778.4400318193475, -33450.57021982315, -731.2820233442811, -20715.30618850067, -23883.97888946282, -21269.182416103176, -26540.036683086957, -40960.75635680633, -0.014, 1.02, 0.03, 192.0, 0.0, 0.0, 0.0, 0.0, 0.0, 0.0, 0.0, 0.0, 0.0, 1.695756191798256E9, 0.0, 2023-09-26 14:23:11.798
218.0, -160548.80297765767, 30431.8330206672, -49113.33162943502, -39439.00489080011, 2713.6805908299198, -13673.925539723105, -187500.02235174447, -217.86245320587793, 5782.843325477043, -33461.90255426199, -729.3821250655801, -20727.15261306198, -23883.040116195694, -21260.956974143624, -26533.979360339566, -40951.90506600202, -0.014, 1.02, 0.03, 192.0, 0.0, 0.0, 0.0, 0.0, 0.0, 0.0, 0.0, 0.0, 0.0, 1.695756191798321E9, 0.0, 2023-09-26 14:23:11.798
220.0, -160544.01970434425, 30426.222732808917, -49114.42686491333, -39442.89409433533, 2710.551346606177, -13678.03826070288, -187500.02235174447, -234.58155805844763, 5775.936636440353, -33449.78790876721, -736.8476077136527, -20725.073900827636, -23889.455066854367, -21269.02595389199, -26546.45163374563, -40961.24809518434, -0.014, 1.02, 0.03, 192.0, 0.0, 0.0, 0.0, 0.0, 0.0, 0.0, 0.0, 0.0, 0.0, 1.695756191798331E9, 0.0, 2023-09-26 14:23:11.798
222.0, -160549.02649510224, 30423.518171729826, -49117.62316437044, -39446.13509728135, 2705.2539831702693, -13687.80597302985, -187500.02235174447, -233.84395049142248, 5794.712101782811, -33466.328199664145, -733.7854187232756, -20737.702636444883, -23880.804941750164, -21267.237814335564, -26543.076520332877, -40953.179115435974, -0.01, 1.02, 0.026000000000000002, 192.0, 127.5, 88.0, 15.5, 112.0, 0.0, 104.0, 0.0, 0.0, 0.0, 1.69575619179834E9, 0.0, 2023-09-26 14:23:11.798
224.0, -160539.21407928635, 30435.11872710213, -49102.26751592964, -39433.841637830934, 2721.5260531337326, -13671.690365277573, -187500.02235174447, -230.17826440075214, 5780.406985331415, -33449.47498434484, -729.0021454098398, -20723.352816504575, -23887.041078453196, -21273.183378360674, -26549.24560180254, -40959.906990517025, -0.01, 1.02, 0.026000000000000002, 192.0, 0.0, 0.0, 0.0, 0.0, 0.0, 0.0, 0.0, 0.0, 0.0, 1.69575619179835E9, 0.0, 2023-09-26 14:23:11.798
226.0, -160561.07408536365, 30443.567686506238, -49095.40553038187, -39427.65020461681, 2720.386114166512, -13669.879873976693, -187500.02235174447, -223.65155501980246, 5792.946313970842, -33459.44386237191, -721.514311017312, -20733.00877010927, -23878.05567718216, -21264.421494534196, -26535.856906873814, -40944.75250777632, -0.01, 1.02, 0.026000000000000002, 192.0, 0.0, 0.0, 0.0, 0.0, 0.0, 0.0, 0.0, 0.0, 0.0, 1.695756191859382E9, 0.0, 2023-09-26 14:23:11.859
228.0, -160564.0021638873, 30446.741634218888, -49092.87978325842, -39423.58218712595, 2720.319058933146, -13668.449362331554, -187500.02235174447, -227.00431668809853, 5791.962837214808, -33445.9434087209, -713.1994620799378, -20727.331427017623, -23868.75735148875, -21251.949221128132, -26533.62173242828, -40938.94105421795, -0.01, 1.02, 0.026000000000000002, 192.0, 0.0, 0.0, 0.0, 0.0, 0.0, 0.0, 0.0, 0.0, 0.0, 1.695756191859403E9, 0.0, 2023-09-26 14:23:11.859
230.0, -160588.52202755478, 30448.350959819672, -49091.06929195754, -39418.66480334578, 2719.2014717103807, -13665.677746019095, -187500.02235174447, -222.37750558584997, 5794.354473871526, -33462.9977897403, -715.7475609478428, -20735.42275851044, -23873.138293401993, -21258.766503187002, -26538.695578419636, -40943.47845834237, -0.01, 1.02, 0.026000000000000002, 192.0, 0.0, 0.0, 0.0, 0.0, 0.0, 0.0, 0.0, 0.0, 0.0, 1.695756191859414E9, 0.0, 2023-09-26 14:23:11.859
232.0, -160573.03226864725, 30451.279038343317, -49093.39387338089, -39422.08462024744, 2715.2452129417916, -13669.790466998873, -187500.02235174447, -223.53979629752592, 5802.423453619892, -33440.66839702945, -706.3598282766138, -20718.256618768766, -23871.841892223587, -21248.06001759291, -26536.54981095193, -40938.62812979557, -0.014, 1.018, 0.032, 192.0, 127.5, 72.0, 15.5, 104.0, 0.5, 0.0, 0.0, 0.0, 0.0, 1.695756191859423E9, 0.0, 2023-09-26 14:23:11.859
234.0, -160563.37631504255, 30446.20519235196, -49108.10132123248, -39439.787201856045, 2701.901221501973, -13686.3307578958, -187500.02235174447, -227.47370332165997, 5793.795680260144, -33447.5974378106, -712.707723701921, -20718.413080979954, -23883.39774410698, -21267.97542190259, -26547.077482590375, -40953.0673567137, -0.014, 1.018, 0.032, 192.0, 0.0, 0.0, 0.0, 0.0, 0.0, 0.0, 0.0, 0.0, 0.0, 1.695756191859432E9, 0.0, 2023-09-26 14:23:11.859
236.0, -160552.82629165964, 30442.003064394365, -49100.23350718421, -39433.30519596401, 2708.0479512271827, -13675.110182179234, -187500.02235174447, -229.4630085781823, 5793.505107582225, -33435.81806848265, -709.4220172669909, -20709.09240354209, -23883.464799340345, -21265.136750356764, -26549.267953546998, -40951.97212123539, -0.014, 1.018, 0.032, 192.0, 0.0, 0.0, 0.0, 0.0, 0.0, 0.0, 0.0, 0.0, 0.0, 1.695756191859441E9, 0.0, 2023-09-26 14:23:11.859
238.0, -160572.80875120268, 30435.72222420242, -49093.81855652554, -39427.58314938345, 2719.089712988104, -13668.89639722066, -187500.02235174447, -229.5077120670929, 5787.581895301569, -33451.28547564572, -716.0604853702171, -20728.71723517385, -23880.648479538977, -21265.024991634487, -26548.82091865789, -40951.14510669054, -0.014, 1.018, 0.032, 192.0, 0.0, 0.0, 0.0, 0.0, 0.0, 0.0, 0.0, 0.0, 0.0, 1.695756191859482E9, 0.0, 2023-09-26 14:23:11.859
240.0, -160548.42299800194, 30437.59977073667, -49095.36082689295, -39429.41599242878, 2711.892451273495, -13672.629138544697, -187500.02235174447, -219.11415089537513, 5784.676168522378, -33443.99880695329, -706.4268835099797, -20721.207049036868, -23873.205348635358, -21256.68779095266, -26541.221325543087, -40941.73502227486, -0.014, 1.018, 0.032, 192.0, 0.0, 0.0, 0.0, 0.0, 0.0, 0.0, 0.0, 0.0, 0.0, 1.695756191918937E9, 0.0, 2023-09-26 14:23:11.918
242.0, -160568.40545754498, 30436.616293980635, -49088.67765530082, -39421.3023091915, 2713.926460018928, -13666.124780908202, -187500.02235174447, -212.05099964749812, 5790.197049402839, -33455.59936232559, -713.0429998687506, -20730.72889217483, -23880.24614813878, -21264.421494534196, -26542.025988343477, -40937.39878385053, -0.01, 1.018, 0.032, 192.0, 127.5, 88.0, 15.5, 104.0, 0.5, 0.0, 0.0, 0.0, 0.0, 1.69575619191896E9, 0.0, 2023-09-26 14:23:11.918
244.0, -160553.63095446004, 30443.92531441752, -49088.744710534185, -39420.89997779131, 2715.848710042085, -13670.304557121344, -187500.02235174447, -214.8449677044115, 5800.881183252476, -33442.61299879706, -703.1858805639602, -20716.177906534424, -23877.25101438177, -21256.643087463748, -26538.293247019443, -40931.98966169234, -0.01, 1.018, 0.032, 192.0, 0.0, 0.0, 0.0, 0.0, 0.0, 0.0, 0.0, 0.0, 0.0, 1.69575619191897E9, 0.0, 2023-09-26 14:23:11.918
